title:Alex-C7j6KSW163MrTM_upfVyaw, start timestamp:1645711087.426386, stop timestamp:1645711113.155622, headset type:EPOCPLUS, headset serial:3B9AEBFF, headset firmware:626, channels:55, sampling rate:eeg_256, samples:6527      , version:2.1, 
Timestamp,OriginalTimestamp,EEG.Counter,EEG.Interpolated,EEG.AF3,EEG.F7,EEG.F3,EEG.FC5,EEG.T7,EEG.P7,EEG.O1,EEG.O2,EEG.P8,EEG.T8,EEG.FC6,EEG.F4,EEG.F8,EEG.AF4,EEG.RawCq,EEG.Battery,EEG.BatteryPercent,MarkerIndex,MarkerType,MarkerValueInt,EEG.MarkerHardware,CQ.AF3,CQ.F7,CQ.F3,CQ.FC5,CQ.T7,CQ.P7,CQ.O1,CQ.O2,CQ.P8,CQ.T8,CQ.FC6,CQ.F4,CQ.F8,CQ.AF4,CQ.Overall,EQ.SampleRateQuality,EQ.OVERALL,EQ.AF3,EQ.F7,EQ.F3,EQ.FC5,EQ.T7,EQ.P7,EQ.O1,EQ.O2,EQ.P8,EQ.T8,EQ.FC6,EQ.F4,EQ.F8,EQ.AF4
1645711087.426386,1645711087.443276,117.000000,0.000000,4193.846191,4194.358887,4187.820313,4179.102539,4196.282227,4184.743652,4189.358887,4208.333496,4258.333496,4174.358887,4182.307617,4139.615234,4176.153809,4195.128418,0.000000,4.000000,86.000000,,,,0.000000,4.000000,4.000000,4.000000,4.000000,4.000000,4.000000,4.000000,4.000000,4.000000,4.000000,4.000000,4.000000,4.000000,4.000000,100.000000,,,,,,,,,,,,,,,,
1645711087.430328,1645711087.447316,118.000000,0.000000,4193.717773,4196.282227,4189.743652,4176.025879,4196.025879,4185.256348,4190.512695,4208.589844,4256.666504,4178.846191,4188.461426,4144.102539,4176.794922,4197.820313,0.000000,4.000000,86.000000,,,,0.000000,4.000000,4.000000,4.000000,4.000000,4.000000,4.000000,4.000000,4.000000,4.000000,4.000000,4.000000,4.000000,4.000000,4.000000,100.000000,,,,,,,,,,,,,,,,
1645711087.434271,1645711087.451256,119.000000,0.000000,4195.512695,4199.871582,4191.538574,4173.589844,4196.025879,4187.307617,4191.794922,4209.487305,4256.666504,4187.307617,4195.897461,4147.051270,4178.205078,4201.153809,0.000000,4.000000,86.000000,,,,0.000000,4.000000,4.000000,4.000000,4.000000,4.000000,4.000000,4.000000,4.000000,4.000000,4.000000,4.000000,4.000000,4.000000,4.000000,100.000000,,,,,,,,,,,,,,,,
1645711087.438214,1645711087.455196,120.000000,0.000000,4196.666504,4202.179688,4191.410156,4173.589844,4196.922852,4189.615234,4192.692383,4211.410156,4258.974121,4196.025879,4201.666504,4147.948730,4180.256348,4204.102539,0.000000,4.000000,86.000000,,,,0.000000,4.000000,4.000000,4.000000,4.000000,4.000000,4.000000,4.000000,4.000000,4.000000,4.000000,4.000000,4.000000,4.000000,4.000000,100.000000,,,,,,,,,,,,,,,,
1645711087.442156,1645711087.459136,121.000000,0.000000,4195.000000,4201.794922,4189.358887,4176.282227,4199.230957,4190.641113,4193.461426,4213.846191,4262.563965,4202.692383,4204.615234,4147.563965,4182.051270,4205.128418,0.000000,4.000000,86.000000,,,,0.000000,4.000000,4.000000,4.000000,4.000000,4.000000,4.000000,4.000000,4.000000,4.000000,4.000000,4.000000,4.000000,4.000000,4.000000,100.000000,,,,,,,,,,,,,,,,
1645711087.446099,1645711087.463076,122.000000,0.000000,4191.666504,4199.487305,4185.769043,4180.128418,4201.922852,4190.000000,4194.230957,4216.025879,4265.512695,4206.153809,4204.487305,4146.410156,4182.820313,4203.077148,0.000000,4.000000,86.000000,,,,0.000000,4.000000,4.000000,4.000000,4.000000,4.000000,4.000000,4.000000,4.000000,4.000000,4.000000,4.000000,4.000000,4.000000,4.000000,100.000000,,,,,,,,,,,,,,,,
1645711087.450041,1645711087.467016,123.000000,0.000000,4190.384766,4196.666504,4182.307617,4182.820313,4203.205078,4187.820313,4194.230957,4216.922852,4265.641113,4206.025879,4201.922852,4144.743652,4182.179688,4198.333496,0.000000,4.000000,86.000000,,,,0.000000,4.000000,4.000000,4.000000,4.000000,4.000000,4.000000,4.000000,4.000000,4.000000,4.000000,4.000000,4.000000,4.000000,4.000000,100.000000,,,,,,,,,,,,,,,,
1645711087.453984,1645711087.470956,124.000000,0.000000,4193.205078,4194.615234,4180.384766,4184.102539,4201.794922,4185.128418,4193.461426,4217.051270,4262.820313,4204.102539,4198.717773,4142.948730,4181.666504,4194.230957,0.000000,4.000000,86.000000,,,,0.000000,4.000000,4.000000,4.000000,4.000000,4.000000,4.000000,4.000000,4.000000,4.000000,4.000000,4.000000,4.000000,4.000000,4.000000,100.000000,,,,,,,,,,,,,,,,
1645711087.457927,1645711087.474896,125.000000,0.000000,4197.436035,4194.871582,4181.410156,4184.871582,4198.461426,4184.102539,4192.820313,4217.563965,4259.487305,4203.077148,4197.563965,4141.922852,4183.077148,4193.974121,0.000000,4.000000,86.000000,,,,0.000000,4.000000,4.000000,4.000000,4.000000,4.000000,4.000000,4.000000,4.000000,4.000000,4.000000,4.000000,4.000000,4.000000,4.000000,100.000000,,,,,,,,,,,,,,,,
1645711087.461869,1645711087.478837,126.000000,0.000000,4198.717773,4198.205078,4184.871582,4186.282227,4195.769043,4185.897461,4193.077148,4218.974121,4257.948730,4204.743652,4199.230957,4142.051270,4187.179688,4198.205078,0.000000,4.000000,86.000000,,,,0.000000,4.000000,4.000000,4.000000,4.000000,4.000000,4.000000,4.000000,4.000000,4.000000,4.000000,4.000000,4.000000,4.000000,4.000000,100.000000,,,,,,,,,,,,,,,,
1645711087.465812,1645711087.482777,127.000000,0.000000,4196.153809,4202.820313,4188.461426,4187.051270,4195.128418,4189.230957,4194.102539,4220.384766,4258.461426,4207.563965,4200.897461,4142.820313,4191.538574,4203.717773,0.000000,4.000000,86.000000,,,,0.000000,4.000000,4.000000,4.000000,4.000000,4.000000,4.000000,4.000000,4.000000,4.000000,4.000000,4.000000,4.000000,4.000000,4.000000,100.000000,,,,,,,,,,,,,,,,
1645711087.469754,1645711087.486717,128.000000,0.000000,4192.563965,4205.128418,4188.589844,4185.000000,4196.025879,4191.025879,4194.871582,4220.000000,4259.230957,4207.948730,4199.102539,4142.179688,4192.436035,4206.282227,3329.000000,4.000000,86.000000,,,,0.000000,4.000000,4.000000,4.000000,4.000000,4.000000,4.000000,4.000000,4.000000,4.000000,4.000000,4.000000,4.000000,4.000000,4.000000,100.000000,,,,,,,,,,,,,,,,
1645711087.473697,1645711087.490657,129.000000,0.000000,4190.769043,4202.692383,4184.102539,4179.871582,4196.025879,4189.615234,4194.743652,4217.051270,4258.589844,4203.461426,4193.077148,4138.846191,4188.077148,4203.717773,3494.000000,4.000000,86.000000,,,,0.000000,4.000000,4.000000,4.000000,4.000000,4.000000,4.000000,4.000000,4.000000,4.000000,4.000000,4.000000,4.000000,4.000000,4.000000,100.000000,,,,,,,,,,,,,,,,
1645711087.477640,1645711087.494597,130.000000,0.000000,4189.871582,4196.794922,4176.666504,4174.358887,4193.974121,4186.153809,4193.846191,4212.820313,4256.666504,4195.384766,4186.666504,4133.461426,4180.512695,4197.179688,2218.000000,4.000000,86.000000,,,,0.000000,4.000000,4.000000,4.000000,4.000000,4.000000,4.000000,4.000000,4.000000,4.000000,4.000000,4.000000,4.000000,4.000000,4.000000,100.000000,,,,,,,,,,,,,,,,
1645711087.481582,1645711087.498537,131.000000,0.000000,4187.179688,4191.538574,4170.000000,4172.563965,4190.897461,4183.589844,4192.692383,4209.230957,4254.615234,4187.436035,4184.102539,4128.333496,4174.102539,4190.256348,3245.000000,4.000000,86.000000,,,,0.000000,4.000000,4.000000,4.000000,4.000000,4.000000,4.000000,4.000000,4.000000,4.000000,4.000000,4.000000,4.000000,4.000000,4.000000,100.000000,,,,,,,,,,,,,,,,
1645711087.485525,1645711087.502477,132.000000,0.000000,4182.948730,4190.384766,4167.820313,4176.282227,4188.974121,4183.333496,4191.666504,4207.692383,4252.692383,4182.820313,4186.410156,4125.769043,4172.051270,4186.025879,3535.000000,4.000000,86.000000,,,,0.000000,4.000000,4.000000,4.000000,4.000000,4.000000,4.000000,4.000000,4.000000,4.000000,4.000000,4.000000,4.000000,4.000000,4.000000,100.000000,,,,,,,,,,,,,,,,
1645711087.489467,1645711087.506417,133.000000,0.000000,4180.897461,4193.589844,4170.128418,4182.563965,4188.589844,4184.230957,4191.666504,4208.077148,4251.153809,4182.179688,4189.743652,4126.025879,4174.487305,4185.897461,3274.000000,4.000000,86.000000,,,,0.000000,4.000000,4.000000,4.000000,4.000000,4.000000,4.000000,4.000000,4.000000,4.000000,4.000000,4.000000,4.000000,4.000000,4.000000,100.000000,,,,,,,,,,,,,,,,
1645711087.493410,1645711087.510357,134.000000,0.000000,4183.589844,4197.820313,4174.743652,4186.922852,4189.487305,4184.487305,4192.948730,4209.487305,4250.000000,4183.974121,4190.128418,4126.922852,4178.205078,4188.846191,3229.000000,4.000000,86.000000,,,,0.000000,4.000000,4.000000,4.000000,4.000000,4.000000,4.000000,4.000000,4.000000,4.000000,4.000000,4.000000,4.000000,4.000000,4.000000,100.000000,,,,,,,,,,,,,,,,
1645711087.497352,1645711087.514298,135.000000,0.000000,4188.461426,4200.256348,4178.333496,4187.051270,4191.153809,4184.102539,4195.512695,4211.410156,4249.487305,4186.666504,4187.692383,4127.307617,4180.000000,4192.948730,2554.000000,4.000000,86.000000,,,,0.000000,4.000000,4.000000,4.000000,4.000000,4.000000,4.000000,4.000000,4.000000,4.000000,4.000000,4.000000,4.000000,4.000000,4.000000,100.000000,,,,,,,,,,,,,,,,
1645711087.501295,1645711087.518238,136.000000,0.000000,4190.897461,4200.000000,4178.846191,4184.358887,4193.846191,4184.487305,4198.205078,4213.205078,4249.743652,4190.128418,4186.410156,4127.307617,4179.230957,4195.384766,1529.000000,4.000000,86.000000,,,,0.000000,4.000000,4.000000,4.000000,4.000000,4.000000,4.000000,4.000000,4.000000,4.000000,4.000000,4.000000,4.000000,4.000000,4.000000,100.000000,,,,,,,,,,,,,,,,
1645711087.505237,1645711087.522178,137.000000,0.000000,4188.589844,4198.205078,4176.410156,4182.563965,4198.077148,4187.436035,4199.487305,4214.615234,4250.384766,4194.230957,4189.615234,4128.205078,4177.436035,4194.871582,3309.000000,4.000000,86.000000,,,,0.000000,4.000000,4.000000,4.000000,4.000000,4.000000,4.000000,4.000000,4.000000,4.000000,4.000000,4.000000,4.000000,4.000000,4.000000,100.000000,,,,,,,,,,,,,,,,
1645711087.509180,1645711087.526118,138.000000,0.000000,4184.358887,4196.538574,4173.589844,4182.692383,4202.692383,4191.922852,4199.102539,4215.000000,4250.641113,4197.692383,4195.512695,4130.000000,4176.410156,4192.820313,2354.000000,4.000000,86.000000,,,,0.000000,4.000000,4.000000,4.000000,4.000000,4.000000,4.000000,4.000000,4.000000,4.000000,4.000000,4.000000,4.000000,4.000000,4.000000,100.000000,,,,,,,,,,,,,,,,
1645711087.513123,1645711087.530058,139.000000,0.000000,4182.948730,4196.410156,4172.820313,4183.846191,4205.641113,4195.512695,4198.333496,4214.487305,4249.358887,4199.102539,4199.102539,4132.179688,4176.794922,4191.282227,2713.000000,4.000000,86.000000,,,,0.000000,4.000000,4.000000,4.000000,4.000000,4.000000,4.000000,4.000000,4.000000,4.000000,4.000000,4.000000,4.000000,4.000000,4.000000,100.000000,,,,,,,,,,,,,,,,
1645711087.517065,1645711087.533998,140.000000,0.000000,4185.128418,4198.077148,4175.000000,4184.102539,4205.512695,4196.794922,4198.846191,4213.589844,4246.794922,4198.077148,4198.333496,4133.846191,4178.461426,4192.179688,3197.000000,4.000000,86.000000,,,,0.000000,4.000000,4.000000,4.000000,4.000000,4.000000,4.000000,4.000000,4.000000,4.000000,4.000000,4.000000,4.000000,4.000000,4.000000,100.000000,,,,,,,,,,,,,,,,
1645711087.521008,1645711087.537938,141.000000,0.000000,4187.820313,4200.897461,4179.102539,4182.820313,4203.333496,4196.282227,4200.897461,4213.846191,4244.487305,4196.794922,4196.025879,4135.256348,4181.153809,4194.358887,3338.000000,4.000000,86.000000,,,,0.000000,4.000000,4.000000,4.000000,4.000000,4.000000,4.000000,4.000000,4.000000,4.000000,4.000000,4.000000,4.000000,4.000000,4.000000,100.000000,,,,,,,,,,,,,,,,
1645711087.524950,1645711087.541778,142.000000,0.000000,4188.974121,4202.820313,4183.205078,4181.282227,4201.025879,4194.871582,4202.436035,4216.282227,4244.615234,4198.461426,4197.436035,4137.307617,4185.000000,4196.410156,2354.000000,4.000000,86.000000,,,,0.000000,4.000000,4.000000,4.000000,4.000000,4.000000,4.000000,4.000000,4.000000,4.000000,4.000000,4.000000,4.000000,4.000000,4.000000,100.000000,,,,,,,,,,,,,,,,
1645711087.528893,1645711087.545718,143.000000,0.000000,4189.487305,4202.563965,4186.025879,4181.153809,4200.000000,4193.077148,4201.794922,4220.641113,4247.436035,4203.974121,4204.358887,4140.384766,4189.615234,4197.948730,2713.000000,4.000000,86.000000,,,,0.000000,4.000000,4.000000,4.000000,4.000000,4.000000,4.000000,4.000000,4.000000,4.000000,4.000000,4.000000,4.000000,4.000000,4.000000,100.000000,,,,,,,,,,,,,,,,
1645711087.532835,1645711087.549659,144.000000,0.000000,4191.538574,4200.512695,4187.820313,4183.589844,4200.512695,4191.794922,4199.230957,4225.128418,4250.641113,4211.922852,4213.846191,4144.230957,4193.589844,4199.487305,3197.000000,4.000000,86.000000,,,,0.000000,4.000000,4.000000,4.000000,4.000000,4.000000,4.000000,4.000000,4.000000,4.000000,4.000000,4.000000,4.000000,4.000000,4.000000,100.000000,,,,,,,,,,,,,,,,
1645711087.536778,1645711087.553599,145.000000,0.000000,4194.871582,4199.871582,4189.102539,4188.717773,4202.436035,4192.563965,4197.307617,4227.820313,4251.794922,4219.358887,4221.025879,4147.820313,4195.384766,4200.897461,3338.000000,4.000000,86.000000,,,,0.000000,4.000000,4.000000,4.000000,4.000000,4.000000,4.000000,4.000000,4.000000,4.000000,4.000000,4.000000,4.000000,4.000000,4.000000,100.000000,,,,,,,,,,,,,,,,
1645711087.540721,1645711087.557539,146.000000,0.000000,4196.410156,4202.563965,4189.615234,4194.615234,4205.512695,4195.512695,4197.820313,4228.205078,4249.871582,4223.461426,4223.461426,4150.128418,4194.230957,4201.153809,2354.000000,4.000000,86.000000,,,,0.000000,4.000000,4.000000,4.000000,4.000000,4.000000,4.000000,4.000000,4.000000,4.000000,4.000000,4.000000,4.000000,4.000000,4.000000,100.000000,,,,,,,,,,,,,,,,
1645711087.544663,1645711087.561479,147.000000,0.000000,4195.000000,4207.563965,4188.846191,4198.205078,4208.589844,4198.589844,4200.256348,4227.307617,4246.410156,4222.436035,4221.025879,4150.128418,4190.897461,4199.358887,2713.000000,4.000000,86.000000,,,,0.000000,4.000000,4.000000,4.000000,4.000000,4.000000,4.000000,4.000000,4.000000,4.000000,4.000000,4.000000,4.000000,4.000000,4.000000,100.000000,,,,,,,,,,,,,,,,
1645711087.548606,1645711087.565419,148.000000,0.000000,4192.692383,4211.025879,4186.794922,4197.307617,4209.102539,4198.333496,4201.794922,4226.153809,4243.205078,4215.512695,4214.487305,4147.179688,4186.282227,4197.307617,3197.000000,4.000000,86.000000,,,,0.000000,4.000000,4.000000,4.000000,4.000000,4.000000,4.000000,4.000000,4.000000,4.000000,4.000000,4.000000,4.000000,4.000000,4.000000,100.000000,,,,,,,,,,,,,,,,
1645711087.552548,1645711087.569359,149.000000,0.000000,4192.563965,4210.000000,4184.615234,4192.948730,4206.025879,4193.717773,4200.641113,4225.000000,4241.153809,4203.846191,4205.128418,4141.922852,4181.666504,4197.436035,3338.000000,4.000000,86.000000,,,,0.000000,4.000000,4.000000,4.000000,4.000000,4.000000,4.000000,4.000000,4.000000,4.000000,4.000000,4.000000,4.000000,4.000000,4.000000,100.000000,,,,,,,,,,,,,,,,
1645711087.556491,1645711087.573299,150.000000,0.000000,4194.871582,4205.641113,4183.974121,4188.974121,4201.666504,4187.948730,4197.820313,4224.102539,4240.128418,4191.153809,4195.128418,4137.051270,4178.974121,4200.512695,2354.000000,4.000000,86.000000,,,,0.000000,4.000000,4.000000,4.000000,4.000000,4.000000,4.000000,4.000000,4.000000,4.000000,4.000000,4.000000,4.000000,4.000000,4.000000,100.000000,,,,,,,,,,,,,,,,
1645711087.560434,1645711087.577239,151.000000,0.000000,4196.538574,4201.666504,4185.769043,4189.358887,4200.641113,4186.410156,4196.025879,4223.717773,4239.871582,4182.948730,4187.948730,4134.615234,4179.230957,4204.358887,2713.000000,4.000000,86.000000,,,,0.000000,4.000000,4.000000,4.000000,4.000000,4.000000,4.000000,4.000000,4.000000,4.000000,4.000000,4.000000,4.000000,4.000000,4.000000,100.000000,,,,,,,,,,,,,,,,
1645711087.564376,1645711087.581179,152.000000,0.000000,4195.256348,4201.282227,4189.102539,4194.487305,4204.230957,4191.282227,4197.051270,4223.589844,4240.641113,4182.307617,4186.538574,4134.615234,4182.307617,4205.128418,3197.000000,4.000000,86.000000,,,,0.000000,4.000000,4.000000,4.000000,4.000000,4.000000,4.000000,4.000000,4.000000,4.000000,4.000000,4.000000,4.000000,4.000000,4.000000,100.000000,,,,,,,,,,,,,,,,
1645711087.568319,1645711087.585120,153.000000,0.000000,4192.436035,4203.974121,4191.666504,4199.871582,4208.589844,4199.102539,4199.230957,4222.692383,4241.666504,4187.692383,4189.743652,4134.102539,4185.256348,4201.410156,3338.000000,4.000000,86.000000,,,,0.000000,4.000000,4.000000,4.000000,4.000000,4.000000,4.000000,4.000000,4.000000,4.000000,4.000000,4.000000,4.000000,4.000000,4.000000,100.000000,,,,,,,,,,,,,,,,
1645711087.572261,1645711087.589060,154.000000,0.000000,4191.538574,4206.922852,4191.538574,4200.897461,4208.333496,4203.717773,4199.358887,4219.615234,4241.153809,4193.589844,4194.102539,4131.153809,4185.384766,4195.256348,2354.000000,4.000000,86.000000,,,,0.000000,4.000000,4.000000,4.000000,4.000000,4.000000,4.000000,4.000000,4.000000,4.000000,4.000000,4.000000,4.000000,4.000000,4.000000,100.000000,,,,,,,,,,,,,,,,
1645711087.576204,1645711087.593000,155.000000,0.000000,4193.974121,4207.692383,4189.230957,4196.922852,4202.820313,4201.666504,4196.025879,4214.487305,4237.563965,4195.641113,4196.153809,4126.410156,4181.794922,4190.256348,2713.000000,4.000000,86.000000,,,,0.000000,4.000000,4.000000,4.000000,4.000000,4.000000,4.000000,4.000000,4.000000,4.000000,4.000000,4.000000,4.000000,4.000000,4.000000,100.000000,,,,,,,,,,,,,,,,
1645711087.580146,1645711087.596940,156.000000,0.000000,4197.051270,4207.179688,4186.794922,4191.922852,4197.436035,4195.128418,4190.897461,4208.717773,4231.282227,4193.846191,4195.897461,4122.692383,4177.436035,4187.820313,3197.000000,4.000000,86.000000,,,,0.000000,4.000000,4.000000,4.000000,4.000000,4.000000,4.000000,4.000000,4.000000,4.000000,4.000000,4.000000,4.000000,4.000000,4.000000,100.000000,,,,,,,,,,,,,,,,
1645711087.584089,1645711087.600880,157.000000,0.000000,4197.820313,4207.051270,4185.769043,4190.000000,4197.436035,4189.102539,4187.307617,4204.871582,4225.256348,4190.897461,4194.743652,4122.179688,4175.641113,4187.436035,3338.000000,4.000000,86.000000,,,,0.000000,4.000000,4.000000,4.000000,4.000000,4.000000,4.000000,4.000000,4.000000,4.000000,4.000000,4.000000,4.000000,4.000000,4.000000,100.000000,,,,,,,,,,,,,,,,
1645711087.588031,1645711087.604820,158.000000,0.000000,4195.769043,4207.948730,4186.025879,4191.666504,4201.666504,4187.179688,4186.922852,4203.717773,4221.922852,4189.230957,4193.974121,4124.102539,4177.307617,4187.563965,2354.000000,4.000000,86.000000,,,,0.000000,4.000000,4.000000,4.000000,4.000000,4.000000,4.000000,4.000000,4.000000,4.000000,4.000000,4.000000,4.000000,4.000000,4.000000,100.000000,,,,,,,,,,,,,,,,
1645711087.591974,1645711087.608760,159.000000,0.000000,4193.205078,4207.820313,4186.025879,4193.717773,4203.589844,4188.077148,4188.461426,4203.461426,4221.794922,4188.461426,4193.077148,4126.025879,4180.128418,4187.179688,2713.000000,4.000000,86.000000,,,,0.000000,4.000000,4.000000,4.000000,4.000000,4.000000,4.000000,4.000000,4.000000,4.000000,4.000000,4.000000,4.000000,4.000000,4.000000,100.000000,,,,,,,,,,,,,,,,
1645711087.595917,1645711087.612600,160.000000,0.000000,4191.538574,4203.974121,4184.871582,4192.948730,4198.717773,4188.846191,4190.000000,4201.538574,4223.077148,4188.333496,4191.025879,4126.282227,4181.153809,4186.153809,3197.000000,4.000000,86.000000,,,,0.000000,4.000000,4.000000,4.000000,4.000000,4.000000,4.000000,4.000000,4.000000,4.000000,4.000000,4.000000,4.000000,4.000000,4.000000,100.000000,,,,,,,,,,,,,,,,
1645711087.599859,1645711087.616540,161.000000,0.000000,4189.230957,4196.025879,4182.820313,4188.333496,4189.743652,4188.077148,4190.256348,4198.077148,4224.102539,4188.974121,4187.948730,4125.000000,4179.358887,4184.615234,3338.000000,4.000000,86.000000,,,,0.000000,4.000000,4.000000,4.000000,4.000000,4.000000,4.000000,4.000000,4.000000,4.000000,4.000000,4.000000,4.000000,4.000000,4.000000,100.000000,,,,,,,,,,,,,,,,
1645711087.603802,1645711087.620481,162.000000,0.000000,4185.512695,4186.794922,4181.153809,4182.307617,4184.487305,4186.794922,4189.871582,4195.128418,4223.974121,4190.897461,4185.897461,4123.974121,4176.025879,4183.205078,2354.000000,4.000000,86.000000,,,,0.000000,4.000000,4.000000,4.000000,4.000000,4.000000,4.000000,4.000000,4.000000,4.000000,4.000000,4.000000,4.000000,4.000000,4.000000,100.000000,,,,,,,,,,,,,,,,
1645711087.607744,1645711087.624421,163.000000,0.000000,4181.922852,4180.000000,4180.641113,4177.563965,4187.307617,4186.410156,4189.615234,4194.615234,4222.820313,4193.077148,4186.922852,4124.871582,4173.077148,4182.051270,2713.000000,4.000000,86.000000,,,,0.000000,4.000000,4.000000,4.000000,4.000000,4.000000,4.000000,4.000000,4.000000,4.000000,4.000000,4.000000,4.000000,4.000000,4.000000,100.000000,,,,,,,,,,,,,,,,
1645711087.611687,1645711087.628361,164.000000,0.000000,4181.666504,4178.077148,4181.410156,4175.641113,4195.256348,4186.794922,4190.000000,4196.538574,4221.282227,4193.077148,4191.282227,4127.692383,4171.922852,4181.794922,3197.000000,4.000000,86.000000,,,,0.000000,4.000000,4.000000,4.000000,4.000000,4.000000,4.000000,4.000000,4.000000,4.000000,4.000000,4.000000,4.000000,4.000000,4.000000,100.000000,,,,,,,,,,,,,,,,
1645711087.615630,1645711087.632301,165.000000,0.000000,4184.871582,4180.897461,4182.820313,4175.897461,4200.384766,4186.922852,4190.769043,4199.615234,4220.256348,4190.641113,4196.922852,4131.666504,4172.820313,4182.692383,3338.000000,4.000000,86.000000,,,,0.000000,4.000000,4.000000,4.000000,4.000000,4.000000,4.000000,4.000000,4.000000,4.000000,4.000000,4.000000,4.000000,4.000000,4.000000,100.000000,,,,,,,,,,,,,,,,
1645711087.619572,1645711087.636241,166.000000,0.000000,4188.333496,4186.282227,4184.615234,4177.948730,4197.692383,4186.538574,4191.666504,4202.692383,4220.128418,4187.948730,4200.512695,4135.769043,4175.512695,4184.615234,2354.000000,4.000000,86.000000,,,,0.000000,4.000000,4.000000,4.000000,4.000000,4.000000,4.000000,4.000000,4.000000,4.000000,4.000000,4.000000,4.000000,4.000000,4.000000,100.000000,,,,,,,,,,,,,,,,
1645711087.623515,1645711087.640181,167.000000,0.000000,4188.846191,4191.794922,4186.282227,4181.282227,4188.717773,4186.282227,4193.077148,4205.769043,4221.153809,4187.436035,4199.871582,4138.846191,4179.102539,4187.051270,2713.000000,4.000000,86.000000,,,,0.000000,4.000000,4.000000,4.000000,4.000000,4.000000,4.000000,4.000000,4.000000,4.000000,4.000000,4.000000,4.000000,4.000000,4.000000,100.000000,,,,,,,,,,,,,,,,
1645711087.627457,1645711087.644121,168.000000,0.000000,4186.794922,4194.743652,4186.922852,4184.871582,4178.974121,4186.538574,4194.615234,4209.358887,4222.820313,4189.230957,4194.871582,4140.000000,4182.692383,4188.717773,3197.000000,4.000000,86.000000,,,,0.000000,4.000000,4.000000,4.000000,4.000000,4.000000,4.000000,4.000000,4.000000,4.000000,4.000000,4.000000,4.000000,4.000000,4.000000,100.000000,,,,,,,,,,,,,,,,
1645711087.631400,1645711087.648061,169.000000,0.000000,4185.769043,4194.358887,4185.512695,4187.820313,4174.743652,4186.666504,4196.025879,4213.717773,4224.743652,4191.794922,4189.102539,4138.589844,4185.000000,4189.871582,3338.000000,4.000000,86.000000,,,,0.000000,4.000000,4.000000,4.000000,4.000000,4.000000,4.000000,4.000000,4.000000,4.000000,4.000000,4.000000,4.000000,4.000000,4.000000,100.000000,,,,,,,,,,,,,,,,
1645711087.635342,1645711087.652001,170.000000,0.000000,4187.051270,4192.436035,4182.820313,4188.846191,4179.358887,4186.282227,4196.922852,4218.461426,4226.666504,4194.102539,4187.948730,4135.512695,4185.641113,4191.410156,2354.000000,4.000000,86.000000,,,,0.000000,4.000000,4.000000,4.000000,4.000000,4.000000,4.000000,4.000000,4.000000,4.000000,4.000000,4.000000,4.000000,4.000000,4.000000,100.000000,,,,,,,,,,,,,,,,
1645711087.639285,1645711087.655942,171.000000,0.000000,4188.589844,4191.922852,4180.641113,4188.077148,4191.282227,4186.025879,4197.051270,4222.179688,4228.717773,4197.051270,4193.846191,4132.820313,4185.384766,4193.846191,2713.000000,4.000000,86.000000,,,,0.000000,4.000000,4.000000,4.000000,4.000000,4.000000,4.000000,4.000000,4.000000,4.000000,4.000000,4.000000,4.000000,4.000000,4.000000,100.000000,,,,,,,,,,,,,,,,
1645711087.643227,1645711087.659882,172.000000,0.000000,4187.948730,4195.000000,4180.256348,4186.153809,4204.358887,4186.922852,4196.153809,4224.230957,4230.256348,4201.025879,4203.333496,4131.922852,4184.871582,4196.153809,3197.000000,4.000000,86.000000,,,,0.000000,4.000000,4.000000,4.000000,4.000000,4.000000,4.000000,4.000000,4.000000,4.000000,4.000000,4.000000,4.000000,4.000000,4.000000,100.000000,,,,,,,,,,,,,,,,
1645711087.647170,1645711087.663822,173.000000,0.000000,4185.769043,4199.358887,4181.153809,4183.333496,4211.666504,4188.717773,4193.717773,4224.102539,4230.000000,4203.974121,4209.358887,4132.820313,4184.230957,4197.051270,3338.000000,4.000000,86.000000,,,,0.000000,4.000000,4.000000,4.000000,4.000000,4.000000,4.000000,4.000000,4.000000,4.000000,4.000000,4.000000,4.000000,4.000000,4.000000,100.000000,,,,,,,,,,,,,,,,
1645711087.651113,1645711087.667762,174.000000,0.000000,4185.128418,4200.897461,4180.897461,4179.230957,4209.615234,4189.615234,4190.384766,4221.922852,4227.179688,4202.820313,4206.282227,4133.333496,4182.820313,4195.897461,2354.000000,4.000000,86.000000,,,,0.000000,4.000000,4.000000,4.000000,4.000000,4.000000,4.000000,4.000000,4.000000,4.000000,4.000000,4.000000,4.000000,4.000000,4.000000,100.000000,,,,,,,,,,,,,,,,
1645711087.655055,1645711087.671702,175.000000,0.000000,4187.179688,4197.436035,4178.333496,4174.358887,4202.051270,4188.461426,4187.692383,4219.230957,4223.717773,4197.307617,4195.641113,4130.384766,4180.512695,4193.205078,2713.000000,4.000000,86.000000,,,,0.000000,4.000000,4.000000,4.000000,4.000000,4.000000,4.000000,4.000000,4.000000,4.000000,4.000000,4.000000,4.000000,4.000000,4.000000,100.000000,,,,,,,,,,,,,,,,
1645711087.658998,1645711087.675642,176.000000,0.000000,4188.974121,4190.769043,4174.230957,4170.769043,4196.282227,4186.410156,4187.820313,4217.179688,4222.307617,4190.641113,4184.487305,4123.461426,4177.948730,4190.000000,3197.000000,4.000000,86.000000,,,,0.000000,4.000000,4.000000,4.000000,4.000000,4.000000,4.000000,4.000000,4.000000,4.000000,4.000000,4.000000,4.000000,4.000000,4.000000,100.000000,,,,,,,,,,,,,,,,
1645711087.662940,1645711087.679482,177.000000,0.000000,4187.179688,4185.512695,4171.025879,4170.897461,4196.410156,4185.641113,4190.641113,4216.153809,4223.589844,4187.307617,4179.358887,4115.384766,4176.153809,4186.666504,3338.000000,4.000000,86.000000,,,,0.000000,4.000000,4.000000,4.000000,4.000000,4.000000,4.000000,4.000000,4.000000,4.000000,4.000000,4.000000,4.000000,4.000000,4.000000,100.000000,,,,,,,,,,,,,,,,
1645711087.666883,1645711087.683422,178.000000,0.000000,4183.205078,4185.256348,4171.153809,4174.743652,4200.769043,4186.922852,4193.846191,4215.256348,4225.641113,4188.974121,4181.282227,4110.641113,4175.641113,4183.846191,2354.000000,4.000000,86.000000,,,,0.000000,4.000000,4.000000,4.000000,4.000000,4.000000,4.000000,4.000000,4.000000,4.000000,4.000000,4.000000,4.000000,4.000000,4.000000,100.000000,,,,,,,,,,,,,,,,
1645711087.670826,1645711087.687362,179.000000,0.000000,4182.179688,4190.128418,4174.487305,4179.871582,4203.846191,4188.717773,4194.487305,4213.717773,4225.384766,4193.717773,4186.282227,4112.179688,4176.410156,4182.307617,2713.000000,4.000000,86.000000,,,,0.000000,4.000000,4.000000,4.000000,4.000000,4.000000,4.000000,4.000000,4.000000,4.000000,4.000000,4.000000,4.000000,4.000000,4.000000,100.000000,,,,,,,,,,,,,,,,
1645711087.674768,1645711087.691303,180.000000,0.000000,4186.666504,4197.692383,4179.615234,4183.589844,4203.077148,4189.230957,4191.666504,4211.794922,4222.307617,4197.692383,4190.256348,4119.230957,4178.205078,4183.077148,3197.000000,4.000000,86.000000,1,1,1,0.000000,4.000000,4.000000,4.000000,4.000000,4.000000,4.000000,4.000000,4.000000,4.000000,4.000000,4.000000,4.000000,4.000000,4.000000,100.000000,0.968750,75.000000,3.000000,4.000000,4.000000,4.000000,4.000000,4.000000,4.000000,4.000000,3.000000,3.000000,4.000000,4.000000,4.000000,4.000000
1645711087.678711,1645711087.695243,181.000000,0.000000,4193.461426,4205.128418,4184.487305,4185.512695,4200.384766,4188.333496,4186.410156,4210.000000,4218.717773,4199.102539,4192.051270,4127.820313,4180.512695,4186.410156,3338.000000,4.000000,86.000000,,,,0.000000,4.000000,4.000000,4.000000,4.000000,4.000000,4.000000,4.000000,4.000000,4.000000,4.000000,4.000000,4.000000,4.000000,4.000000,100.000000,,,,,,,,,,,,,,,,
1645711087.682653,1645711087.699183,182.000000,0.000000,4197.179688,4209.743652,4187.820313,4186.794922,4199.358887,4187.436035,4180.897461,4208.077148,4216.922852,4197.692383,4192.948730,4134.230957,4182.051270,4190.769043,2354.000000,4.000000,86.000000,,,,0.000000,4.000000,4.000000,4.000000,4.000000,4.000000,4.000000,4.000000,4.000000,4.000000,4.000000,4.000000,4.000000,4.000000,4.000000,100.000000,,,,,,,,,,,,,,,,
1645711087.686596,1645711087.703123,183.000000,0.000000,4196.410156,4210.000000,4189.871582,4187.307617,4200.769043,4186.794922,4177.179688,4204.743652,4217.307617,4194.487305,4192.948730,4137.307617,4181.666504,4194.487305,2713.000000,4.000000,86.000000,,,,0.000000,4.000000,4.000000,4.000000,4.000000,4.000000,4.000000,4.000000,4.000000,4.000000,4.000000,4.000000,4.000000,4.000000,4.000000,100.000000,,,,,,,,,,,,,,,,
1645711087.690539,1645711087.707063,184.000000,0.000000,4194.358887,4206.538574,4191.282227,4185.897461,4202.307617,4185.769043,4176.666504,4200.256348,4217.307617,4189.615234,4191.666504,4138.205078,4179.230957,4195.897461,3197.000000,4.000000,86.000000,,,,0.000000,4.000000,4.000000,4.000000,4.000000,4.000000,4.000000,4.000000,4.000000,4.000000,4.000000,4.000000,4.000000,4.000000,4.000000,100.000000,,,,,,,,,,,,,,,,
1645711087.694481,1645711087.711003,185.000000,0.000000,4194.102539,4202.179688,4192.436035,4182.051270,4202.179688,4184.230957,4179.230957,4196.666504,4215.000000,4184.615234,4189.358887,4139.487305,4176.666504,4195.641113,3338.000000,4.000000,86.000000,,,,0.000000,4.000000,4.000000,4.000000,4.000000,4.000000,4.000000,4.000000,4.000000,4.000000,4.000000,4.000000,4.000000,4.000000,4.000000,100.000000,,,,,,,,,,,,,,,,
1645711087.698424,1645711087.714943,186.000000,0.000000,4195.769043,4200.256348,4193.589844,4178.205078,4201.410156,4183.461426,4183.461426,4195.897461,4210.897461,4181.538574,4188.077148,4143.333496,4176.282227,4194.615234,2354.000000,4.000000,86.000000,,,,0.000000,4.000000,4.000000,4.000000,4.000000,4.000000,4.000000,4.000000,4.000000,4.000000,4.000000,4.000000,4.000000,4.000000,4.000000,100.000000,,,,,,,,,,,,,,,,
1645711087.702366,1645711087.718883,187.000000,0.000000,4196.794922,4202.051270,4194.871582,4178.333496,4202.436035,4184.615234,4186.922852,4197.948730,4207.179688,4182.051270,4189.487305,4149.358887,4178.589844,4193.589844,2713.000000,4.000000,86.000000,,,,0.000000,4.000000,4.000000,4.000000,4.000000,4.000000,4.000000,4.000000,4.000000,4.000000,4.000000,4.000000,4.000000,4.000000,4.000000,100.000000,,,,,,,,,,,,,,,,
1645711087.706309,1645711087.722823,188.000000,0.000000,4196.153809,4205.128418,4195.384766,4183.205078,4205.000000,4186.282227,4187.307617,4200.897461,4206.025879,4185.384766,4192.692383,4154.358887,4182.051270,4192.051270,3197.000000,4.000000,86.000000,,,,0.000000,4.000000,4.000000,4.000000,4.000000,4.000000,4.000000,4.000000,4.000000,4.000000,4.000000,4.000000,4.000000,4.000000,4.000000,100.000000,,,,,,,,,,,,,,,,
1645711087.710251,1645711087.726764,189.000000,0.000000,4194.871582,4205.641113,4193.589844,4188.974121,4205.641113,4186.153809,4184.487305,4202.179688,4207.179688,4188.461426,4194.358887,4154.230957,4183.333496,4189.615234,3338.000000,4.000000,86.000000,,,,0.000000,4.000000,4.000000,4.000000,4.000000,4.000000,4.000000,4.000000,4.000000,4.000000,4.000000,4.000000,4.000000,4.000000,4.000000,100.000000,,,,,,,,,,,,,,,,
1645711087.714194,1645711087.730704,190.000000,0.000000,4193.717773,4201.538574,4188.846191,4190.769043,4201.794922,4183.333496,4180.641113,4201.666504,4209.358887,4188.974121,4193.077148,4147.948730,4181.666504,4186.794922,2354.000000,4.000000,86.000000,,,,0.000000,4.000000,4.000000,4.000000,4.000000,4.000000,4.000000,4.000000,4.000000,4.000000,4.000000,4.000000,4.000000,4.000000,4.000000,100.000000,,,,,,,,,,,,,,,,
1645711087.718136,1645711087.734644,191.000000,0.000000,4191.282227,4194.358887,4182.307617,4186.922852,4194.871582,4180.512695,4179.615234,4201.538574,4211.922852,4187.820313,4190.641113,4138.717773,4179.230957,4184.743652,2713.000000,4.000000,86.000000,,,,0.000000,4.000000,4.000000,4.000000,4.000000,4.000000,4.000000,4.000000,4.000000,4.000000,4.000000,4.000000,4.000000,4.000000,4.000000,100.000000,,,,,,,,,,,,,,,,
1645711087.722079,1645711087.738584,192.000000,0.000000,4187.179688,4188.974121,4177.051270,4181.153809,4190.000000,4180.897461,4183.077148,4204.487305,4214.871582,4188.589844,4190.512695,4131.922852,4179.487305,4184.615234,3197.000000,4.000000,86.000000,,,,0.000000,4.000000,4.000000,4.000000,4.000000,4.000000,4.000000,4.000000,4.000000,4.000000,4.000000,4.000000,4.000000,4.000000,4.000000,100.000000,,,,,,,,,,,,,,,,
1645711087.726022,1645711087.742524,193.000000,0.000000,4183.205078,4188.589844,4175.512695,4178.717773,4190.897461,4185.512695,4189.871582,4211.538574,4218.205078,4193.589844,4193.846191,4130.897461,4183.846191,4186.922852,3338.000000,4.000000,86.000000,,,,0.000000,4.000000,4.000000,4.000000,4.000000,4.000000,4.000000,4.000000,4.000000,4.000000,4.000000,4.000000,4.000000,4.000000,4.000000,100.000000,,,,,,,,,,,,,,,,
1645711087.729964,1645711087.746364,194.000000,0.000000,4183.333496,4192.820313,4178.974121,4181.282227,4196.922852,4191.538574,4196.410156,4220.384766,4221.538574,4202.179688,4198.846191,4135.128418,4190.384766,4190.897461,2354.000000,4.000000,86.000000,,,,0.000000,4.000000,4.000000,4.000000,4.000000,4.000000,4.000000,4.000000,4.000000,4.000000,4.000000,4.000000,4.000000,4.000000,4.000000,100.000000,,,,,,,,,,,,,,,,
1645711087.733907,1645711087.750304,195.000000,0.000000,4188.717773,4198.333496,4185.769043,4186.410156,4203.205078,4194.871582,4199.743652,4227.692383,4224.230957,4211.025879,4202.692383,4141.282227,4195.384766,4195.000000,2713.000000,4.000000,86.000000,,,,0.000000,4.000000,4.000000,4.000000,4.000000,4.000000,4.000000,4.000000,4.000000,4.000000,4.000000,4.000000,4.000000,4.000000,4.000000,100.000000,,,,,,,,,,,,,,,,
1645711087.737849,1645711087.754244,196.000000,0.000000,4195.769043,4202.179688,4193.077148,4190.512695,4205.769043,4194.102539,4199.615234,4231.410156,4225.769043,4217.307617,4204.615234,4146.153809,4197.051270,4197.820313,3197.000000,4.000000,86.000000,,,,0.000000,4.000000,4.000000,4.000000,4.000000,4.000000,4.000000,4.000000,4.000000,4.000000,4.000000,4.000000,4.000000,4.000000,4.000000,100.000000,,,,,,,,,,,,,,,,
1645711087.741792,1645711087.758184,197.000000,0.000000,4199.358887,4203.846191,4198.077148,4191.282227,4204.487305,4191.025879,4197.563965,4232.051270,4225.769043,4220.512695,4206.666504,4148.333496,4196.410156,4198.974121,3338.000000,4.000000,86.000000,,,,0.000000,4.000000,4.000000,4.000000,4.000000,4.000000,4.000000,4.000000,4.000000,4.000000,4.000000,4.000000,4.000000,4.000000,4.000000,100.000000,,,,,,,,,,,,,,,,
1645711087.745735,1645711087.762125,198.000000,0.000000,4198.205078,4204.358887,4199.615234,4189.102539,4202.179688,4188.461426,4195.384766,4231.410156,4224.487305,4220.897461,4209.871582,4148.205078,4195.897461,4198.846191,2354.000000,4.000000,86.000000,,,,0.000000,4.000000,4.000000,4.000000,4.000000,4.000000,4.000000,4.000000,4.000000,4.000000,4.000000,4.000000,4.000000,4.000000,4.000000,100.000000,,,,,,,,,,,,,,,,
1645711087.749677,1645711087.766065,199.000000,0.000000,4196.410156,4205.000000,4198.717773,4186.282227,4201.538574,4187.820313,4193.589844,4230.641113,4222.179688,4218.717773,4213.205078,4146.538574,4196.282227,4197.692383,2713.000000,4.000000,86.000000,,,,0.000000,4.000000,4.000000,4.000000,4.000000,4.000000,4.000000,4.000000,4.000000,4.000000,4.000000,4.000000,4.000000,4.000000,4.000000,100.000000,,,,,,,,,,,,,,,,
1645711087.753620,1645711087.770005,200.000000,0.000000,4198.205078,4205.897461,4197.436035,4186.025879,4204.102539,4188.717773,4192.563965,4229.102539,4218.974121,4214.102539,4214.487305,4144.487305,4196.794922,4197.051270,3197.000000,4.000000,86.000000,,,,0.000000,4.000000,4.000000,4.000000,4.000000,4.000000,4.000000,4.000000,4.000000,4.000000,4.000000,4.000000,4.000000,4.000000,4.000000,100.000000,,,,,,,,,,,,,,,,
1645711087.757562,1645711087.773945,201.000000,0.000000,4203.205078,4207.948730,4198.333496,4190.128418,4208.974121,4190.512695,4192.179688,4225.897461,4215.512695,4209.230957,4212.820313,4143.974121,4196.666504,4197.692383,3338.000000,4.000000,86.000000,,,,0.000000,4.000000,4.000000,4.000000,4.000000,4.000000,4.000000,4.000000,4.000000,4.000000,4.000000,4.000000,4.000000,4.000000,4.000000,100.000000,,,,,,,,,,,,,,,,
1645711087.761505,1645711087.777885,202.000000,0.000000,4207.563965,4211.794922,4201.538574,4198.205078,4213.589844,4192.436035,4192.179688,4221.025879,4212.692383,4207.051270,4210.000000,4145.769043,4195.897461,4200.000000,2354.000000,4.000000,86.000000,,,,0.000000,4.000000,4.000000,4.000000,4.000000,4.000000,4.000000,4.000000,4.000000,4.000000,4.000000,4.000000,4.000000,4.000000,4.000000,100.000000,,,,,,,,,,,,,,,,
1645711087.765447,1645711087.781825,203.000000,0.000000,4208.461426,4216.410156,4205.512695,4206.666504,4214.743652,4192.692383,4191.666504,4215.897461,4211.153809,4208.205078,4208.461426,4149.102539,4195.256348,4203.205078,2713.000000,4.000000,86.000000,,,,0.000000,4.000000,4.000000,4.000000,4.000000,4.000000,4.000000,4.000000,4.000000,4.000000,4.000000,4.000000,4.000000,4.000000,4.000000,100.000000,,,,,,,,,,,,,,,,
1645711087.769390,1645711087.785765,204.000000,0.000000,4207.051270,4219.743652,4207.948730,4211.410156,4210.128418,4190.256348,4189.743652,4212.436035,4210.512695,4209.871582,4208.461426,4152.051270,4194.358887,4206.025879,3197.000000,4.000000,86.000000,,,,0.000000,4.000000,4.000000,4.000000,4.000000,4.000000,4.000000,4.000000,4.000000,4.000000,4.000000,4.000000,4.000000,4.000000,4.000000,100.000000,,,,,,,,,,,,,,,,
1645711087.773332,1645711087.789705,205.000000,0.000000,4206.282227,4220.256348,4208.077148,4211.282227,4201.922852,4185.897461,4186.794922,4210.641113,4210.000000,4208.077148,4208.077148,4154.230957,4192.948730,4207.692383,3338.000000,4.000000,86.000000,,,,0.000000,4.000000,4.000000,4.000000,4.000000,4.000000,4.000000,4.000000,4.000000,4.000000,4.000000,4.000000,4.000000,4.000000,4.000000,100.000000,,,,,,,,,,,,,,,,
1645711087.777275,1645711087.793645,206.000000,0.000000,4206.794922,4218.205078,4207.051270,4208.333496,4196.025879,4182.692383,4185.000000,4209.358887,4209.102539,4202.051270,4206.410156,4156.025879,4190.897461,4208.077148,2354.000000,4.000000,86.000000,,,,0.000000,4.000000,4.000000,4.000000,4.000000,4.000000,4.000000,4.000000,4.000000,4.000000,4.000000,4.000000,4.000000,4.000000,4.000000,100.000000,,,,,,,,,,,,,,,,
1645711087.781218,1645711087.797586,207.000000,0.000000,4207.179688,4216.282227,4206.410156,4205.769043,4197.563965,4183.077148,4186.410156,4208.333496,4207.692383,4195.000000,4204.102539,4158.077148,4189.102539,4206.666504,2713.000000,4.000000,86.000000,,,,0.000000,4.000000,4.000000,4.000000,4.000000,4.000000,4.000000,4.000000,4.000000,4.000000,4.000000,4.000000,4.000000,4.000000,4.000000,100.000000,,,,,,,,,,,,,,,,
1645711087.785160,1645711087.801626,208.000000,0.000000,4206.025879,4216.282227,4206.282227,4204.358887,4204.871582,4186.794922,4191.153809,4207.820313,4206.282227,4190.641113,4202.692383,4159.615234,4188.205078,4203.333496,3197.000000,4.000000,86.000000,,,,0.000000,4.000000,4.000000,4.000000,4.000000,4.000000,4.000000,4.000000,4.000000,4.000000,4.000000,4.000000,4.000000,4.000000,4.000000,100.000000,,,,,,,,,,,,,,,,
1645711087.789103,1645711087.805566,209.000000,0.000000,4204.102539,4216.794922,4205.384766,4202.051270,4210.384766,4190.641113,4196.153809,4207.179688,4205.000000,4190.256348,4201.666504,4158.846191,4186.922852,4198.589844,3338.000000,4.000000,86.000000,,,,0.000000,4.000000,4.000000,4.000000,4.000000,4.000000,4.000000,4.000000,4.000000,4.000000,4.000000,4.000000,4.000000,4.000000,4.000000,100.000000,,,,,,,,,,,,,,,,
1645711087.793045,1645711087.809506,210.000000,0.000000,4202.436035,4214.743652,4202.307617,4197.051270,4207.179688,4191.410156,4198.077148,4205.769043,4203.974121,4192.051270,4199.230957,4154.871582,4183.717773,4194.102539,2354.000000,4.000000,86.000000,,,,0.000000,4.000000,4.000000,4.000000,4.000000,4.000000,4.000000,4.000000,4.000000,4.000000,4.000000,4.000000,4.000000,4.000000,4.000000,100.000000,,,,,,,,,,,,,,,,
1645711087.796988,1645711087.813446,211.000000,0.000000,4200.512695,4209.102539,4197.179688,4190.641113,4195.897461,4189.487305,4196.538574,4204.102539,4202.948730,4193.717773,4195.128418,4149.487305,4178.589844,4191.410156,2713.000000,4.000000,86.000000,,,,0.000000,4.000000,4.000000,4.000000,4.000000,4.000000,4.000000,4.000000,4.000000,4.000000,4.000000,4.000000,4.000000,4.000000,4.000000,100.000000,,,,,,,,,,,,,,,,
1645711087.800930,1645711087.817386,212.000000,0.000000,4196.666504,4202.820313,4191.922852,4186.666504,4184.487305,4187.692383,4194.487305,4203.717773,4202.051270,4194.615234,4191.282227,4145.128418,4174.487305,4191.025879,3197.000000,4.000000,86.000000,,,,0.000000,4.000000,4.000000,4.000000,4.000000,4.000000,4.000000,4.000000,4.000000,4.000000,4.000000,4.000000,4.000000,4.000000,4.000000,100.000000,,,,,,,,,,,,,,,,
1645711087.804873,1645711087.821426,213.000000,0.000000,4192.179688,4199.358887,4188.974121,4187.692383,4181.153809,4188.461426,4195.128418,4205.769043,4201.666504,4195.384766,4190.128418,4143.974121,4174.487305,4192.051270,3338.000000,4.000000,86.000000,,,,0.000000,4.000000,4.000000,4.000000,4.000000,4.000000,4.000000,4.000000,4.000000,4.000000,4.000000,4.000000,4.000000,4.000000,4.000000,100.000000,,,,,,,,,,,,,,,,
1645711087.808816,1645711087.825366,214.000000,0.000000,4190.641113,4200.000000,4189.230957,4192.820313,4186.922852,4191.538574,4198.974121,4209.743652,4202.436035,4196.025879,4192.436035,4146.153809,4178.333496,4193.974121,2354.000000,4.000000,86.000000,,,,0.000000,4.000000,4.000000,4.000000,4.000000,4.000000,4.000000,4.000000,4.000000,4.000000,4.000000,4.000000,4.000000,4.000000,4.000000,100.000000,,,,,,,,,,,,,,,,
1645711087.812758,1645711087.829306,215.000000,0.000000,4194.487305,4202.692383,4191.922852,4197.948730,4196.794922,4195.256348,4204.102539,4214.230957,4204.230957,4196.794922,4196.538574,4150.512695,4183.205078,4196.538574,2713.000000,4.000000,86.000000,,,,0.000000,4.000000,4.000000,4.000000,4.000000,4.000000,4.000000,4.000000,4.000000,4.000000,4.000000,4.000000,4.000000,4.000000,4.000000,100.000000,,,,,,,,,,,,,,,,
1645711087.816701,1645711087.833246,216.000000,0.000000,4201.025879,4205.256348,4194.871582,4199.871582,4203.846191,4198.589844,4207.692383,4218.333496,4206.410156,4198.589844,4200.128418,4155.256348,4186.538574,4199.358887,3197.000000,4.000000,86.000000,,,,0.000000,4.000000,4.000000,4.000000,4.000000,4.000000,4.000000,4.000000,4.000000,4.000000,4.000000,4.000000,4.000000,4.000000,4.000000,100.000000,,,,,,,,,,,,,,,,
1645711087.820643,1645711087.837186,217.000000,0.000000,4204.487305,4206.153809,4196.410156,4198.461426,4205.384766,4201.153809,4207.692383,4221.538574,4208.333496,4202.436035,4202.436035,4158.974121,4187.307617,4201.538574,3338.000000,4.000000,86.000000,,,,0.000000,4.000000,4.000000,4.000000,4.000000,4.000000,4.000000,4.000000,4.000000,4.000000,4.000000,4.000000,4.000000,4.000000,4.000000,100.000000,,,,,,,,,,,,,,,,
1645711087.824586,1645711087.841126,218.000000,0.000000,4201.666504,4205.128418,4196.025879,4195.128418,4202.692383,4202.179688,4204.487305,4223.205078,4209.230957,4207.307617,4204.102539,4160.384766,4186.410156,4202.051270,2354.000000,4.000000,86.000000,,,,0.000000,4.000000,4.000000,4.000000,4.000000,4.000000,4.000000,4.000000,4.000000,4.000000,4.000000,4.000000,4.000000,4.000000,4.000000,100.000000,,,,,,,,,,,,,,,,
1645711087.828529,1645711087.845067,219.000000,0.000000,4195.769043,4202.563965,4194.487305,4191.153809,4198.077148,4200.000000,4199.743652,4221.922852,4208.717773,4209.102539,4205.256348,4158.846191,4184.743652,4200.769043,2713.000000,4.000000,86.000000,,,,0.000000,4.000000,4.000000,4.000000,4.000000,4.000000,4.000000,4.000000,4.000000,4.000000,4.000000,4.000000,4.000000,4.000000,4.000000,100.000000,,,,,,,,,,,,,,,,
1645711087.832471,1645711087.849007,220.000000,0.000000,4192.820313,4199.615234,4192.820313,4186.922852,4193.589844,4194.487305,4195.897461,4217.820313,4206.282227,4205.769043,4205.769043,4155.384766,4183.589844,4198.974121,3197.000000,4.000000,86.000000,,,,0.000000,4.000000,4.000000,4.000000,4.000000,4.000000,4.000000,4.000000,4.000000,4.000000,4.000000,4.000000,4.000000,4.000000,4.000000,100.000000,,,,,,,,,,,,,,,,
1645711087.836414,1645711087.852947,221.000000,0.000000,4195.512695,4198.717773,4192.948730,4183.461426,4191.153809,4188.205078,4194.871582,4213.333496,4203.717773,4199.615234,4205.897461,4152.179688,4183.461426,4198.205078,3338.000000,4.000000,86.000000,,,,0.000000,4.000000,4.000000,4.000000,4.000000,4.000000,4.000000,4.000000,4.000000,4.000000,4.000000,4.000000,4.000000,4.000000,4.000000,100.000000,,,,,,,,,,,,,,,,
1645711087.840356,1645711087.856887,222.000000,0.000000,4200.512695,4201.153809,4195.256348,4182.820313,4192.179688,4185.256348,4196.666504,4211.922852,4203.205078,4196.666504,4206.922852,4151.794922,4185.256348,4198.846191,2354.000000,4.000000,86.000000,,,,0.000000,4.000000,4.000000,4.000000,4.000000,4.000000,4.000000,4.000000,4.000000,4.000000,4.000000,4.000000,4.000000,4.000000,4.000000,100.000000,,,,,,,,,,,,,,,,
1645711087.844299,1645711087.860827,223.000000,0.000000,4203.974121,4206.410156,4199.743652,4186.410156,4197.563965,4188.589844,4200.256348,4215.641113,4205.256348,4201.153809,4209.358887,4155.641113,4188.974121,4200.512695,2713.000000,4.000000,86.000000,,,,0.000000,4.000000,4.000000,4.000000,4.000000,4.000000,4.000000,4.000000,4.000000,4.000000,4.000000,4.000000,4.000000,4.000000,4.000000,100.000000,,,,,,,,,,,,,,,,
1645711087.848241,1645711087.864767,224.000000,0.000000,4205.769043,4211.666504,4205.256348,4193.974121,4205.897461,4197.436035,4204.230957,4222.563965,4208.077148,4210.512695,4211.538574,4161.922852,4193.205078,4202.436035,3197.000000,4.000000,86.000000,,,,0.000000,4.000000,4.000000,4.000000,4.000000,4.000000,4.000000,4.000000,4.000000,4.000000,4.000000,4.000000,4.000000,4.000000,4.000000,100.000000,,,,,,,,,,,,,,,,
1645711087.852184,1645711087.868707,225.000000,0.000000,4207.692383,4214.230957,4209.743652,4201.922852,4214.102539,4206.794922,4207.307617,4228.333496,4209.102539,4216.922852,4210.512695,4167.563965,4196.025879,4204.102539,3338.000000,4.000000,86.000000,,,,0.000000,4.000000,4.000000,4.000000,4.000000,4.000000,4.000000,4.000000,4.000000,4.000000,4.000000,4.000000,4.000000,4.000000,4.000000,100.000000,,,,,,,,,,,,,,,,
1645711087.856126,1645711087.872647,226.000000,0.000000,4210.384766,4213.589844,4211.666504,4206.794922,4218.461426,4211.666504,4209.102539,4229.487305,4207.179688,4213.974121,4205.128418,4168.717773,4195.769043,4205.256348,2354.000000,4.000000,86.000000,,,,0.000000,4.000000,4.000000,4.000000,4.000000,4.000000,4.000000,4.000000,4.000000,4.000000,4.000000,4.000000,4.000000,4.000000,4.000000,100.000000,,,,,,,,,,,,,,,,
1645711087.860069,1645711087.876587,227.000000,0.000000,4211.153809,4211.666504,4210.769043,4206.922852,4217.436035,4210.384766,4210.128418,4225.897461,4203.205078,4202.307617,4197.692383,4164.358887,4192.563965,4205.384766,2713.000000,4.000000,86.000000,,,,0.000000,4.000000,4.000000,4.000000,4.000000,4.000000,4.000000,4.000000,4.000000,4.000000,4.000000,4.000000,4.000000,4.000000,4.000000,100.000000,,,,,,,,,,,,,,,,
1645711087.864012,1645711087.880428,228.000000,0.000000,4208.717773,4210.769043,4208.589844,4203.846191,4211.410156,4205.256348,4210.512695,4220.641113,4199.230957,4188.846191,4192.179688,4156.922852,4187.692383,4203.846191,3197.000000,4.000000,86.000000,,,,0.000000,4.000000,4.000000,4.000000,4.000000,4.000000,4.000000,4.000000,4.000000,4.000000,4.000000,4.000000,4.000000,4.000000,4.000000,100.000000,,,,,,,,,,,,,,,,
1645711087.867954,1645711087.884368,229.000000,0.000000,4204.615234,4210.641113,4206.794922,4200.128418,4202.051270,4199.871582,4210.000000,4216.794922,4196.666504,4180.769043,4191.153809,4150.128418,4183.077148,4200.512695,3338.000000,4.000000,86.000000,,,,0.000000,4.000000,4.000000,4.000000,4.000000,4.000000,4.000000,4.000000,4.000000,4.000000,4.000000,4.000000,4.000000,4.000000,4.000000,100.000000,,,,,,,,,,,,,,,,
1645711087.871897,1645711087.888308,230.000000,0.000000,4202.179688,4208.589844,4205.641113,4196.922852,4192.948730,4196.410156,4208.717773,4215.769043,4195.641113,4180.256348,4193.461426,4146.538574,4179.871582,4196.410156,2354.000000,4.000000,86.000000,,,,0.000000,4.000000,4.000000,4.000000,4.000000,4.000000,4.000000,4.000000,4.000000,4.000000,4.000000,4.000000,4.000000,4.000000,4.000000,100.000000,,,,,,,,,,,,,,,,
1645711087.875839,1645711087.892248,231.000000,0.000000,4202.436035,4203.589844,4205.256348,4194.230957,4187.820313,4195.512695,4207.692383,4217.051270,4196.410156,4185.000000,4196.538574,4146.666504,4179.487305,4193.333496,2713.000000,4.000000,86.000000,,,,0.000000,4.000000,4.000000,4.000000,4.000000,4.000000,4.000000,4.000000,4.000000,4.000000,4.000000,4.000000,4.000000,4.000000,4.000000,100.000000,,,,,,,,,,,,,,,,
1645711087.879782,1645711087.896188,232.000000,0.000000,4203.205078,4197.948730,4205.384766,4192.307617,4189.487305,4197.307617,4208.077148,4219.743652,4199.358887,4192.051270,4198.846191,4149.743652,4182.307617,4193.205078,3197.000000,4.000000,86.000000,,,,0.000000,4.000000,4.000000,4.000000,4.000000,4.000000,4.000000,4.000000,4.000000,4.000000,4.000000,4.000000,4.000000,4.000000,4.000000,100.000000,,,,,,,,,,,,,,,,
1645711087.883725,1645711087.900128,233.000000,0.000000,4202.307617,4195.256348,4206.025879,4190.769043,4197.436035,4200.641113,4209.871582,4223.077148,4203.589844,4199.358887,4200.897461,4153.846191,4187.436035,4196.025879,3338.000000,4.000000,86.000000,,,,0.000000,4.000000,4.000000,4.000000,4.000000,4.000000,4.000000,4.000000,4.000000,4.000000,4.000000,4.000000,4.000000,4.000000,4.000000,100.000000,,,,,,,,,,,,,,,,
1645711087.887667,1645711087.904068,234.000000,0.000000,4200.384766,4196.666504,4206.025879,4188.589844,4206.025879,4203.589844,4211.538574,4226.025879,4207.307617,4205.897461,4203.589844,4157.179688,4192.820313,4199.230957,2354.000000,4.000000,86.000000,,,,0.000000,4.000000,4.000000,4.000000,4.000000,4.000000,4.000000,4.000000,4.000000,4.000000,4.000000,4.000000,4.000000,4.000000,4.000000,100.000000,,,,,,,,,,,,,,,,
1645711087.891610,1645711087.908008,235.000000,0.000000,4199.743652,4199.743652,4204.487305,4184.743652,4208.717773,4204.102539,4211.538574,4228.077148,4208.717773,4210.128418,4206.153809,4158.077148,4195.897461,4200.384766,2713.000000,4.000000,86.000000,,,,0.000000,4.000000,4.000000,4.000000,4.000000,4.000000,4.000000,4.000000,4.000000,4.000000,4.000000,4.000000,4.000000,4.000000,4.000000,100.000000,,,,,,,,,,,,,,,,
1645711087.895552,1645711087.911948,236.000000,0.000000,4200.128418,4200.897461,4201.410156,4180.897461,4203.717773,4202.051270,4209.487305,4228.333496,4207.692383,4211.153809,4206.922852,4156.153809,4195.256348,4198.846191,3197.000000,4.000000,86.000000,,,,0.000000,4.000000,4.000000,4.000000,4.000000,4.000000,4.000000,4.000000,4.000000,4.000000,4.000000,4.000000,4.000000,4.000000,4.000000,100.000000,,,,,,,,,,,,,,,,
1645711087.899495,1645711087.915889,237.000000,0.000000,4199.102539,4199.615234,4198.205078,4179.871582,4196.410156,4199.615234,4206.922852,4227.563965,4205.641113,4209.743652,4206.282227,4153.333496,4191.666504,4196.538574,3338.000000,4.000000,86.000000,,,,0.000000,4.000000,4.000000,4.000000,4.000000,4.000000,4.000000,4.000000,4.000000,4.000000,4.000000,4.000000,4.000000,4.000000,4.000000,100.000000,,,,,,,,,,,,,,,,
1645711087.903438,1645711087.919829,238.000000,0.000000,4195.512695,4197.563965,4196.538574,4183.717773,4193.846191,4199.102539,4205.512695,4227.179688,4203.846191,4207.692383,4205.512695,4151.794922,4187.436035,4195.512695,2354.000000,4.000000,86.000000,,,,0.000000,4.000000,4.000000,4.000000,4.000000,4.000000,4.000000,4.000000,4.000000,4.000000,4.000000,4.000000,4.000000,4.000000,4.000000,100.000000,,,,,,,,,,,,,,,,
1645711087.907380,1645711087.923769,239.000000,0.000000,4191.922852,4196.922852,4196.538574,4189.871582,4197.563965,4200.256348,4205.641113,4228.205078,4202.179688,4206.025879,4205.641113,4152.692383,4184.871582,4195.897461,2713.000000,4.000000,86.000000,,,,0.000000,4.000000,4.000000,4.000000,4.000000,4.000000,4.000000,4.000000,4.000000,4.000000,4.000000,4.000000,4.000000,4.000000,4.000000,100.000000,,,,,,,,,,,,,,,,
1645711087.911322,1645711087.927709,240.000000,0.000000,4192.307617,4197.948730,4197.563965,4193.717773,4202.307617,4200.512695,4205.897461,4230.000000,4200.897461,4204.102539,4205.384766,4154.743652,4184.871582,4196.922852,3197.000000,4.000000,86.000000,,,,0.000000,4.000000,4.000000,4.000000,4.000000,4.000000,4.000000,4.000000,4.000000,4.000000,4.000000,4.000000,4.000000,4.000000,4.000000,100.000000,,,,,,,,,,,,,,,,
1645711087.915265,1645711087.931649,241.000000,0.000000,4196.794922,4199.230957,4198.333496,4192.692383,4201.410156,4198.589844,4205.256348,4230.769043,4200.641113,4201.153809,4203.333496,4155.897461,4186.410156,4197.820313,3338.000000,4.000000,86.000000,,,,0.000000,4.000000,4.000000,4.000000,4.000000,4.000000,4.000000,4.000000,4.000000,4.000000,4.000000,4.000000,4.000000,4.000000,4.000000,100.000000,,,,,,,,,,,,,,,,
1645711087.919208,1645711087.935589,242.000000,0.000000,4200.897461,4200.128418,4198.717773,4188.846191,4194.487305,4195.897461,4203.333496,4229.358887,4201.922852,4197.820313,4199.487305,4155.769043,4187.692383,4197.692383,2354.000000,4.000000,86.000000,,,,0.000000,4.000000,4.000000,4.000000,4.000000,4.000000,4.000000,4.000000,4.000000,4.000000,4.000000,4.000000,4.000000,4.000000,4.000000,100.000000,,,,,,,,,,,,,,,,
1645711087.923150,1645711087.939529,243.000000,0.000000,4200.128418,4200.769043,4198.974121,4186.666504,4187.051270,4194.615234,4201.153809,4226.410156,4203.717773,4195.512695,4195.512695,4154.615234,4187.563965,4196.153809,2713.000000,4.000000,86.000000,,,,0.000000,4.000000,4.000000,4.000000,4.000000,4.000000,4.000000,4.000000,4.000000,4.000000,4.000000,4.000000,4.000000,4.000000,4.000000,100.000000,,,,,,,,,,,,,,,,
1645711087.927093,1645711087.943469,244.000000,0.000000,4196.025879,4201.282227,4199.230957,4188.077148,4185.256348,4194.743652,4199.615234,4223.974121,4204.358887,4195.512695,4192.820313,4153.205078,4185.384766,4193.589844,3197.000000,4.000000,86.000000,,,,0.000000,4.000000,4.000000,4.000000,4.000000,4.000000,4.000000,4.000000,4.000000,4.000000,4.000000,4.000000,4.000000,4.000000,4.000000,100.000000,,,,,,,,,,,,,,,,
1645711087.931035,1645711087.947509,245.000000,0.000000,4193.077148,4201.410156,4199.102539,4190.897461,4190.000000,4194.487305,4198.333496,4223.205078,4203.205078,4197.563965,4191.410156,4151.922852,4181.794922,4191.538574,3338.000000,4.000000,86.000000,,,,0.000000,4.000000,4.000000,4.000000,4.000000,4.000000,4.000000,4.000000,4.000000,4.000000,4.000000,4.000000,4.000000,4.000000,4.000000,100.000000,,,,,,,,,,,,,,,,
1645711087.934978,1645711087.951449,246.000000,0.000000,4194.230957,4201.153809,4198.205078,4191.282227,4197.563965,4193.205078,4197.307617,4223.333496,4200.641113,4200.000000,4190.641113,4150.641113,4177.948730,4191.282227,2354.000000,4.000000,86.000000,,,,0.000000,4.000000,4.000000,4.000000,4.000000,4.000000,4.000000,4.000000,4.000000,4.000000,4.000000,4.000000,4.000000,4.000000,4.000000,100.000000,,,,,,,,,,,,,,,,
1645711087.938921,1645711087.955390,247.000000,0.000000,4196.794922,4200.384766,4196.794922,4188.077148,4202.692383,4192.436035,4197.051270,4223.589844,4198.717773,4200.641113,4190.256348,4149.102539,4175.256348,4192.179688,2713.000000,4.000000,86.000000,,,,0.000000,4.000000,4.000000,4.000000,4.000000,4.000000,4.000000,4.000000,4.000000,4.000000,4.000000,4.000000,4.000000,4.000000,4.000000,100.000000,,,,,,,,,,,,,,,,
1645711087.942863,1645711087.959430,248.000000,0.000000,4196.282227,4198.589844,4194.487305,4183.077148,4203.205078,4193.846191,4197.948730,4223.461426,4198.589844,4198.205078,4189.358887,4146.794922,4173.461426,4191.666504,3197.000000,4.000000,86.000000,,,,0.000000,4.000000,4.000000,4.000000,4.000000,4.000000,4.000000,4.000000,4.000000,4.000000,4.000000,4.000000,4.000000,4.000000,4.000000,100.000000,,,,,,,,,,,,,,,,
1645711087.946806,1645711087.963370,249.000000,0.000000,4191.922852,4194.743652,4191.794922,4178.846191,4200.128418,4197.051270,4199.230957,4222.692383,4200.384766,4192.436035,4186.666504,4143.846191,4171.666504,4187.563965,3338.000000,4.000000,86.000000,,,,0.000000,4.000000,4.000000,4.000000,4.000000,4.000000,4.000000,4.000000,4.000000,4.000000,4.000000,4.000000,4.000000,4.000000,4.000000,100.000000,,,,,,,,,,,,,,,,
1645711087.950748,1645711087.967310,250.000000,0.000000,4187.179688,4189.358887,4189.871582,4176.666504,4196.666504,4199.743652,4200.384766,4221.410156,4202.820313,4185.641113,4182.179688,4141.410156,4169.487305,4181.666504,2354.000000,4.000000,86.000000,,,,0.000000,4.000000,4.000000,4.000000,4.000000,4.000000,4.000000,4.000000,4.000000,4.000000,4.000000,4.000000,4.000000,4.000000,4.000000,100.000000,,,,,,,,,,,,,,,,
1645711087.954691,1645711087.971250,251.000000,0.000000,4186.410156,4185.128418,4190.512695,4177.179688,4195.769043,4200.769043,4200.769043,4220.128418,4204.615234,4182.179688,4178.077148,4141.666504,4168.205078,4178.333496,2713.000000,4.000000,86.000000,,,,0.000000,4.000000,4.000000,4.000000,4.000000,4.000000,4.000000,4.000000,4.000000,4.000000,4.000000,4.000000,4.000000,4.000000,4.000000,100.000000,,,,,,,,,,,,,,,,
1645711087.958634,1645711087.975190,252.000000,0.000000,4189.358887,4185.256348,4194.487305,4180.000000,4198.077148,4200.641113,4200.897461,4220.128418,4205.000000,4185.769043,4179.102539,4145.256348,4170.641113,4180.897461,3197.000000,4.000000,86.000000,,,,0.000000,4.000000,4.000000,4.000000,4.000000,4.000000,4.000000,4.000000,4.000000,4.000000,4.000000,4.000000,4.000000,4.000000,4.000000,100.000000,,,,,,,,,,,,,,,,
1645711087.962576,1645711087.979130,253.000000,0.000000,4193.077148,4189.871582,4199.871582,4183.717773,4201.410156,4200.128418,4200.769043,4222.051270,4204.487305,4196.282227,4187.179688,4151.025879,4177.436035,4188.846191,3338.000000,4.000000,86.000000,,,,0.000000,4.000000,4.000000,4.000000,4.000000,4.000000,4.000000,4.000000,4.000000,4.000000,4.000000,4.000000,4.000000,4.000000,4.000000,100.000000,,,,,,,,,,,,,,,,
1645711087.966519,1645711087.983070,254.000000,0.000000,4195.256348,4195.512695,4203.717773,4185.897461,4202.436035,4199.230957,4199.743652,4224.743652,4203.589844,4208.205078,4198.333496,4155.641113,4186.153809,4198.333496,2354.000000,4.000000,86.000000,,,,0.000000,4.000000,4.000000,4.000000,4.000000,4.000000,4.000000,4.000000,4.000000,4.000000,4.000000,4.000000,4.000000,4.000000,4.000000,100.000000,,,,,,,,,,,,,,,,
1645711087.970461,1645711087.987010,255.000000,0.000000,4196.794922,4197.692383,4204.102539,4184.358887,4198.974121,4197.307617,4197.820313,4226.153809,4202.436035,4214.102539,4206.153809,4157.051270,4192.563965,4205.128418,113.000000,4.000000,86.000000,,,,0.000000,4.000000,4.000000,4.000000,4.000000,4.000000,4.000000,4.000000,4.000000,4.000000,4.000000,4.000000,4.000000,4.000000,4.000000,100.000000,,,,,,,,,,,,,,,,
1645711087.974404,1645711087.990950,0.000000,0.000000,4198.846191,4195.384766,4202.563965,4179.615234,4191.538574,4194.743652,4195.000000,4224.743652,4201.025879,4211.025879,4206.794922,4155.641113,4193.974121,4207.563965,3321.000000,4.000000,86.000000,,,,0.000000,4.000000,4.000000,4.000000,4.000000,4.000000,4.000000,4.000000,4.000000,4.000000,4.000000,4.000000,4.000000,4.000000,4.000000,100.000000,,,,,,,,,,,,,,,,
1645711087.978346,1645711087.994891,1.000000,0.000000,4200.384766,4190.897461,4201.410156,4174.615234,4183.589844,4192.948730,4192.563965,4221.410156,4199.230957,4202.307617,4202.820313,4154.358887,4191.538574,4206.153809,3409.000000,4.000000,86.000000,,,,0.000000,4.000000,4.000000,4.000000,4.000000,4.000000,4.000000,4.000000,4.000000,4.000000,4.000000,4.000000,4.000000,4.000000,4.000000,100.000000,,,,,,,,,,,,,,,,
1645711087.982289,1645711087.998831,2.000000,0.000000,4199.487305,4187.692383,4201.153809,4172.436035,4178.974121,4192.563965,4191.153809,4218.333496,4197.436035,4195.641113,4199.615234,4155.256348,4189.487305,4201.922852,2216.000000,4.000000,86.000000,,,,0.000000,4.000000,4.000000,4.000000,4.000000,4.000000,4.000000,4.000000,4.000000,4.000000,4.000000,4.000000,4.000000,4.000000,4.000000,100.000000,,,,,,,,,,,,,,,,
1645711087.986231,1645711088.002771,3.000000,0.000000,4196.153809,4186.666504,4201.025879,4173.717773,4178.846191,4193.077148,4190.897461,4216.922852,4196.410156,4195.641113,4200.256348,4157.436035,4189.871582,4197.307617,3045.000000,4.000000,86.000000,,,,0.000000,4.000000,4.000000,4.000000,4.000000,4.000000,4.000000,4.000000,4.000000,4.000000,4.000000,4.000000,4.000000,4.000000,4.000000,100.000000,,,,,,,,,,,,,,,,
1645711087.990174,1645711088.006711,4.000000,0.000000,4193.461426,4187.051270,4200.000000,4175.897461,4182.179688,4192.436035,4191.410156,4217.692383,4196.922852,4201.666504,4202.563965,4158.717773,4192.051270,4195.000000,3531.000000,4.000000,86.000000,,,,0.000000,4.000000,4.000000,4.000000,4.000000,4.000000,4.000000,4.000000,4.000000,4.000000,4.000000,4.000000,4.000000,4.000000,4.000000,100.000000,,,,,,,,,,,,,,,,
1645711087.994117,1645711088.010651,5.000000,0.000000,4193.846191,4187.692383,4198.717773,4176.153809,4187.051270,4190.128418,4192.436035,4219.871582,4197.948730,4209.487305,4203.205078,4157.820313,4193.461426,4196.794922,3064.000000,4.000000,86.000000,,,,0.000000,4.000000,4.000000,4.000000,4.000000,4.000000,4.000000,4.000000,4.000000,4.000000,4.000000,4.000000,4.000000,4.000000,4.000000,100.000000,,,,,,,,,,,,,,,,
1645711087.998059,1645711088.014591,6.000000,0.000000,4196.153809,4188.974121,4198.461426,4174.230957,4192.307617,4187.563965,4193.974121,4222.948730,4198.846191,4214.230957,4201.153809,4156.282227,4193.205078,4201.538574,2954.000000,4.000000,86.000000,,,,0.000000,4.000000,4.000000,4.000000,4.000000,4.000000,4.000000,4.000000,4.000000,4.000000,4.000000,4.000000,4.000000,4.000000,4.000000,100.000000,,,,,,,,,,,,,,,,
1645711088.002002,1645711088.018531,7.000000,0.000000,4197.436035,4191.410156,4199.871582,4172.051270,4197.179688,4187.179688,4195.384766,4225.897461,4199.743652,4214.230957,4198.077148,4156.794922,4192.179688,4206.025879,2364.000000,4.000000,86.000000,,,,0.000000,4.000000,4.000000,4.000000,4.000000,4.000000,4.000000,4.000000,4.000000,4.000000,4.000000,4.000000,4.000000,4.000000,4.000000,100.000000,,,,,,,,,,,,,,,,
1645711088.005944,1645711088.022471,8.000000,0.000000,4196.538574,4194.743652,4202.179688,4171.922852,4200.256348,4189.487305,4195.769043,4227.820313,4201.282227,4210.384766,4196.282227,4160.000000,4191.922852,4207.051270,1525.000000,4.000000,86.000000,,,,0.000000,4.000000,4.000000,4.000000,4.000000,4.000000,4.000000,4.000000,4.000000,4.000000,4.000000,4.000000,4.000000,4.000000,4.000000,100.000000,,,,,,,,,,,,,,,,
1645711088.009887,1645711088.026511,9.000000,0.000000,4195.769043,4197.307617,4203.461426,4174.230957,4200.128418,4192.692383,4194.487305,4228.205078,4204.102539,4204.743652,4196.153809,4163.461426,4192.820313,4204.615234,3149.000000,4.000000,86.000000,,,,0.000000,4.000000,4.000000,4.000000,4.000000,4.000000,4.000000,4.000000,4.000000,4.000000,4.000000,4.000000,4.000000,4.000000,4.000000,100.000000,,,,,,,,,,,,,,,,
1645711088.013830,1645711088.030451,10.000000,0.000000,4196.922852,4197.563965,4202.820313,4177.692383,4197.307617,4195.128418,4193.205078,4227.436035,4207.948730,4199.871582,4197.051270,4164.358887,4193.974121,4201.410156,2354.000000,4.000000,86.000000,,,,0.000000,4.000000,4.000000,4.000000,4.000000,4.000000,4.000000,4.000000,4.000000,4.000000,4.000000,4.000000,4.000000,4.000000,4.000000,100.000000,,,,,,,,,,,,,,,,
1645711088.017772,1645711088.034391,11.000000,0.000000,4198.846191,4195.384766,4201.025879,4181.025879,4194.871582,4196.666504,4193.846191,4227.563965,4211.410156,4197.563965,4198.717773,4161.282227,4194.871582,4200.000000,2482.000000,4.000000,86.000000,,,,0.000000,4.000000,4.000000,4.000000,4.000000,4.000000,4.000000,4.000000,4.000000,4.000000,4.000000,4.000000,4.000000,4.000000,4.000000,100.000000,,,,,,,,,,,,,,,,
1645711088.021715,1645711088.038332,12.000000,0.000000,4199.102539,4193.333496,4199.871582,4183.333496,4196.153809,4198.974121,4197.692383,4229.871582,4212.820313,4199.102539,4201.025879,4156.666504,4194.743652,4201.025879,3201.000000,4.000000,86.000000,,,,0.000000,4.000000,4.000000,4.000000,4.000000,4.000000,4.000000,4.000000,4.000000,4.000000,4.000000,4.000000,4.000000,4.000000,4.000000,100.000000,,,,,,,,,,,,,,,,
1645711088.025657,1645711088.042272,13.000000,0.000000,4197.948730,4193.846191,4200.384766,4184.743652,4201.153809,4203.077148,4203.077148,4233.974121,4211.153809,4202.692383,4203.077148,4153.589844,4193.846191,4202.307617,3239.000000,4.000000,86.000000,,,,0.000000,4.000000,4.000000,4.000000,4.000000,4.000000,4.000000,4.000000,4.000000,4.000000,4.000000,4.000000,4.000000,4.000000,4.000000,100.000000,,,,,,,,,,,,,,,,
1645711088.029600,1645711088.046212,14.000000,0.000000,4197.820313,4196.922852,4201.922852,4185.256348,4205.384766,4207.179688,4207.179688,4237.820313,4206.666504,4203.846191,4202.948730,4153.461426,4191.922852,4201.538574,2354.000000,4.000000,86.000000,,,,0.000000,4.000000,4.000000,4.000000,4.000000,4.000000,4.000000,4.000000,4.000000,4.000000,4.000000,4.000000,4.000000,4.000000,4.000000,100.000000,,,,,,,,,,,,,,,,
1645711088.033542,1645711088.050152,15.000000,0.000000,4199.871582,4199.743652,4202.948730,4185.256348,4204.358887,4208.974121,4208.205078,4239.358887,4201.153809,4199.743652,4199.871582,4154.743652,4188.717773,4198.077148,2482.000000,4.000000,86.000000,,,,0.000000,4.000000,4.000000,4.000000,4.000000,4.000000,4.000000,4.000000,4.000000,4.000000,4.000000,4.000000,4.000000,4.000000,4.000000,100.000000,,,,,,,,,,,,,,,,
1645711088.037485,1645711088.054092,16.000000,0.000000,4201.794922,4199.615234,4202.307617,4184.871582,4198.077148,4207.820313,4206.538574,4238.589844,4197.692383,4193.077148,4195.128418,4155.000000,4184.743652,4194.102539,3201.000000,4.000000,86.000000,,,,0.000000,4.000000,4.000000,4.000000,4.000000,4.000000,4.000000,4.000000,4.000000,4.000000,4.000000,4.000000,4.000000,4.000000,4.000000,100.000000,,,,,,,,,,,,,,,,
1645711088.041427,1645711088.058032,17.000000,0.000000,4200.641113,4196.794922,4200.769043,4184.102539,4191.410156,4205.641113,4204.102539,4237.051270,4197.820313,4190.256348,4191.922852,4153.589844,4181.666504,4192.692383,3239.000000,4.000000,86.000000,,,,0.000000,4.000000,4.000000,4.000000,4.000000,4.000000,4.000000,4.000000,4.000000,4.000000,4.000000,4.000000,4.000000,4.000000,4.000000,100.000000,,,,,,,,,,,,,,,,
1645711088.045370,1645711088.062072,18.000000,0.000000,4196.538574,4193.589844,4200.000000,4182.820313,4189.743652,4204.230957,4202.307617,4236.025879,4201.153809,4195.769043,4192.307617,4152.051270,4181.410156,4195.512695,2354.000000,4.000000,86.000000,,,,0.000000,4.000000,4.000000,4.000000,4.000000,4.000000,4.000000,4.000000,4.000000,4.000000,4.000000,4.000000,4.000000,4.000000,4.000000,100.000000,,,,,,,,,,,,,,,,
1645711088.049313,1645711088.066012,19.000000,0.000000,4194.102539,4192.563965,4200.769043,4180.641113,4193.717773,4204.102539,4201.153809,4236.025879,4204.743652,4207.436035,4196.025879,4151.666504,4184.358887,4201.153809,2482.000000,4.000000,86.000000,,,,0.000000,4.000000,4.000000,4.000000,4.000000,4.000000,4.000000,4.000000,4.000000,4.000000,4.000000,4.000000,4.000000,4.000000,4.000000,100.000000,,,,,,,,,,,,,,,,
1645711088.053255,1645711088.069952,20.000000,0.000000,4196.153809,4193.974121,4202.820313,4177.948730,4200.256348,4204.487305,4200.897461,4236.538574,4206.025879,4218.077148,4201.153809,4153.461426,4188.974121,4206.282227,3201.000000,4.000000,86.000000,,,,0.000000,4.000000,4.000000,4.000000,4.000000,4.000000,4.000000,4.000000,4.000000,4.000000,4.000000,4.000000,4.000000,4.000000,4.000000,100.000000,,,,,,,,,,,,,,,,
1645711088.057198,1645711088.073892,21.000000,0.000000,4201.153809,4196.538574,4204.871582,4176.666504,4206.025879,4205.256348,4201.922852,4236.922852,4204.615234,4222.692383,4205.641113,4157.307617,4193.205078,4207.948730,3239.000000,4.000000,86.000000,,,,0.000000,4.000000,4.000000,4.000000,4.000000,4.000000,4.000000,4.000000,4.000000,4.000000,4.000000,4.000000,4.000000,4.000000,4.000000,100.000000,,,,,,,,,,,,,,,,
1645711088.061140,1645711088.077833,22.000000,0.000000,4204.102539,4198.717773,4205.769043,4178.589844,4209.743652,4206.922852,4204.230957,4237.179688,4202.436035,4220.897461,4208.717773,4161.410156,4195.769043,4206.025879,2354.000000,4.000000,86.000000,,,,0.000000,4.000000,4.000000,4.000000,4.000000,4.000000,4.000000,4.000000,4.000000,4.000000,4.000000,4.000000,4.000000,4.000000,4.000000,100.000000,,,,,,,,,,,,,,,,
1645711088.065083,1645711088.081773,23.000000,0.000000,4202.436035,4199.615234,4205.128418,4183.077148,4210.384766,4208.974121,4206.794922,4237.307617,4201.794922,4216.410156,4210.000000,4163.333496,4196.538574,4202.948730,2482.000000,4.000000,86.000000,,,,0.000000,4.000000,4.000000,4.000000,4.000000,4.000000,4.000000,4.000000,4.000000,4.000000,4.000000,4.000000,4.000000,4.000000,4.000000,100.000000,,,,,,,,,,,,,,,,
1645711088.069025,1645711088.085713,24.000000,0.000000,4198.589844,4198.717773,4202.692383,4186.410156,4206.922852,4209.102539,4208.077148,4236.666504,4202.436035,4212.692383,4208.846191,4160.897461,4195.256348,4201.025879,3201.000000,4.000000,86.000000,,,,0.000000,4.000000,4.000000,4.000000,4.000000,4.000000,4.000000,4.000000,4.000000,4.000000,4.000000,4.000000,4.000000,4.000000,4.000000,100.000000,,,,,,,,,,,,,,,,
1645711088.072968,1645711088.089653,25.000000,0.000000,4196.410156,4196.410156,4198.974121,4185.897461,4199.743652,4205.641113,4207.820313,4234.743652,4201.922852,4210.897461,4206.153809,4154.743652,4193.205078,4201.538574,3239.000000,4.000000,86.000000,,,,0.000000,4.000000,4.000000,4.000000,4.000000,4.000000,4.000000,4.000000,4.000000,4.000000,4.000000,4.000000,4.000000,4.000000,4.000000,100.000000,,,,,,,,,,,,,,,,
1645711088.076911,1645711088.093593,26.000000,0.000000,4197.307617,4194.230957,4195.512695,4182.820313,4192.692383,4200.128418,4206.794922,4232.692383,4199.102539,4211.025879,4203.846191,4148.846191,4192.563965,4203.461426,2354.000000,4.000000,86.000000,,,,0.000000,4.000000,4.000000,4.000000,4.000000,4.000000,4.000000,4.000000,4.000000,4.000000,4.000000,4.000000,4.000000,4.000000,4.000000,100.000000,,,,,,,,,,,,,,,,
1645711088.080853,1645711088.097533,27.000000,0.000000,4198.974121,4194.102539,4194.743652,4181.410156,4191.666504,4196.794922,4206.025879,4231.666504,4195.256348,4212.820313,4203.717773,4147.307617,4195.000000,4205.384766,2482.000000,4.000000,86.000000,,,,0.000000,4.000000,4.000000,4.000000,4.000000,4.000000,4.000000,4.000000,4.000000,4.000000,4.000000,4.000000,4.000000,4.000000,4.000000,100.000000,,,,,,,,,,,,,,,,
1645711088.084796,1645711088.101473,28.000000,0.000000,4199.358887,4196.282227,4197.563965,4183.717773,4198.205078,4197.820313,4205.641113,4231.538574,4193.077148,4215.384766,4205.641113,4150.512695,4199.358887,4206.025879,3201.000000,4.000000,86.000000,,,,0.000000,4.000000,4.000000,4.000000,4.000000,4.000000,4.000000,4.000000,4.000000,4.000000,4.000000,4.000000,4.000000,4.000000,4.000000,100.000000,,,,,,,,,,,,,,,,
1645711088.088738,1645711088.105413,29.000000,0.000000,4198.974121,4199.102539,4202.179688,4186.666504,4207.307617,4201.025879,4204.487305,4230.512695,4192.948730,4215.384766,4206.922852,4154.615234,4202.307617,4205.384766,3239.000000,4.000000,86.000000,,,,0.000000,4.000000,4.000000,4.000000,4.000000,4.000000,4.000000,4.000000,4.000000,4.000000,4.000000,4.000000,4.000000,4.000000,4.000000,100.000000,,,,,,,,,,,,,,,,
1645711088.092681,1645711088.109353,30.000000,0.000000,4199.358887,4200.000000,4204.487305,4185.769043,4211.025879,4202.436035,4201.922852,4227.436035,4192.948730,4210.256348,4204.615234,4155.256348,4201.153809,4204.230957,2354.000000,4.000000,86.000000,,,,0.000000,4.000000,4.000000,4.000000,4.000000,4.000000,4.000000,4.000000,4.000000,4.000000,4.000000,4.000000,4.000000,4.000000,4.000000,100.000000,,,,,,,,,,,,,,,,
1645711088.096624,1645711088.113293,31.000000,0.000000,4200.128418,4198.846191,4202.307617,4181.153809,4206.410156,4200.256348,4198.974121,4222.820313,4191.153809,4200.384766,4199.230957,4151.282227,4196.282227,4204.230957,2482.000000,4.000000,86.000000,,,,0.000000,4.000000,4.000000,4.000000,4.000000,4.000000,4.000000,4.000000,4.000000,4.000000,4.000000,4.000000,4.000000,4.000000,4.000000,100.000000,,,,,,,,,,,,,,,,
1645711088.100566,1645711088.117234,32.000000,0.000000,4199.871582,4197.051270,4196.794922,4177.051270,4198.333496,4197.051270,4197.948730,4218.589844,4188.077148,4190.512695,4193.205078,4145.769043,4190.897461,4205.128418,0.000000,4.000000,86.000000,,,,0.000000,4.000000,4.000000,4.000000,4.000000,4.000000,4.000000,4.000000,4.000000,4.000000,4.000000,4.000000,4.000000,4.000000,4.000000,100.000000,,,,,,,,,,,,,,,,
1645711088.104509,1645711088.121174,33.000000,0.000000,4197.692383,4196.282227,4192.179688,4177.692383,4193.974121,4197.436035,4200.128418,4216.922852,4185.897461,4185.256348,4188.974121,4141.794922,4188.077148,4205.128418,0.000000,4.000000,86.000000,,,,0.000000,4.000000,4.000000,4.000000,4.000000,4.000000,4.000000,4.000000,4.000000,4.000000,4.000000,4.000000,4.000000,4.000000,4.000000,100.000000,,,,,,,,,,,,,,,,
1645711088.108451,1645711088.125114,34.000000,0.000000,4195.256348,4195.897461,4191.025879,4182.436035,4195.769043,4202.436035,4204.358887,4217.051270,4186.538574,4185.384766,4186.666504,4140.256348,4188.077148,4202.179688,0.000000,4.000000,86.000000,,,,0.000000,4.000000,4.000000,4.000000,4.000000,4.000000,4.000000,4.000000,4.000000,4.000000,4.000000,4.000000,4.000000,4.000000,4.000000,100.000000,,,,,,,,,,,,,,,,
1645711088.112394,1645711088.129054,35.000000,0.000000,4194.487305,4193.974121,4192.307617,4186.794922,4200.384766,4209.487305,4208.077148,4216.922852,4189.230957,4188.589844,4184.743652,4140.000000,4188.333496,4196.794922,0.000000,4.000000,86.000000,,,,0.000000,4.000000,4.000000,4.000000,4.000000,4.000000,4.000000,4.000000,4.000000,4.000000,4.000000,4.000000,4.000000,4.000000,4.000000,100.000000,,,,,,,,,,,,,,,,
1645711088.116336,1645711088.133094,36.000000,0.000000,4194.743652,4190.641113,4193.333496,4187.307617,4203.589844,4214.358887,4209.230957,4215.256348,4191.538574,4192.436035,4182.948730,4140.256348,4187.179688,4191.538574,0.000000,4.000000,86.000000,,,,0.000000,4.000000,4.000000,4.000000,4.000000,4.000000,4.000000,4.000000,4.000000,4.000000,4.000000,4.000000,4.000000,4.000000,4.000000,100.000000,,,,,,,,,,,,,,,,
1645711088.120279,1645711088.137034,37.000000,0.000000,4193.974121,4188.333496,4192.436035,4184.358887,4203.846191,4215.000000,4207.948730,4212.692383,4192.179688,4196.410156,4183.461426,4140.641113,4185.897461,4190.128418,0.000000,4.000000,86.000000,,,,0.000000,4.000000,4.000000,4.000000,4.000000,4.000000,4.000000,4.000000,4.000000,4.000000,4.000000,4.000000,4.000000,4.000000,4.000000,100.000000,,,,,,,,,,,,,,,,
1645711088.124221,1645711088.140974,38.000000,0.000000,4191.538574,4189.102539,4190.256348,4180.897461,4202.692383,4212.307617,4206.025879,4211.282227,4191.794922,4200.384766,4188.205078,4141.538574,4187.179688,4193.205078,0.000000,4.000000,86.000000,,,,0.000000,4.000000,4.000000,4.000000,4.000000,4.000000,4.000000,4.000000,4.000000,4.000000,4.000000,4.000000,4.000000,4.000000,4.000000,100.000000,,,,,,,,,,,,,,,,
1645711088.128164,1645711088.144914,39.000000,0.000000,4189.743652,4192.179688,4188.717773,4178.974121,4201.538574,4208.333496,4204.358887,4212.307617,4192.051270,4203.589844,4196.410156,4143.461426,4191.794922,4198.461426,0.000000,4.000000,86.000000,,,,0.000000,4.000000,4.000000,4.000000,4.000000,4.000000,4.000000,4.000000,4.000000,4.000000,4.000000,4.000000,4.000000,4.000000,4.000000,100.000000,,,,,,,,,,,,,,,,
1645711088.132107,1645711088.148854,40.000000,0.000000,4191.282227,4194.230957,4188.717773,4178.461426,4201.666504,4204.871582,4203.589844,4214.615234,4193.333496,4205.641113,4204.615234,4146.538574,4197.820313,4203.077148,0.000000,4.000000,86.000000,,,,0.000000,4.000000,4.000000,4.000000,4.000000,4.000000,4.000000,4.000000,4.000000,4.000000,4.000000,4.000000,4.000000,4.000000,4.000000,100.000000,,,,,,,,,,,,,,,,
1645711088.136049,1645711088.152794,41.000000,0.000000,4195.512695,4193.974121,4189.871582,4178.333496,4203.205078,4203.589844,4203.333496,4216.666504,4195.512695,4208.077148,4209.871582,4150.384766,4202.563965,4205.769043,0.000000,4.000000,86.000000,,,,0.000000,4.000000,4.000000,4.000000,4.000000,4.000000,4.000000,4.000000,4.000000,4.000000,4.000000,4.000000,4.000000,4.000000,4.000000,100.000000,,,,,,,,,,,,,,,,
1645711088.139992,1645711088.156735,42.000000,0.000000,4198.461426,4192.948730,4191.025879,4178.589844,4206.153809,4204.487305,4203.589844,4217.563965,4197.307617,4213.205078,4212.179688,4154.358887,4204.615234,4207.436035,0.000000,4.000000,86.000000,,,,0.000000,4.000000,4.000000,4.000000,4.000000,4.000000,4.000000,4.000000,4.000000,4.000000,4.000000,4.000000,4.000000,4.000000,4.000000,100.000000,,,,,,,,,,,,,,,,
1645711088.143934,1645711088.160675,43.000000,0.000000,4198.077148,4193.846191,4192.051270,4179.743652,4209.615234,4206.794922,4204.615234,4218.205078,4197.948730,4221.538574,4213.846191,4157.820313,4205.128418,4210.000000,0.000000,4.000000,86.000000,,,,0.000000,4.000000,4.000000,4.000000,4.000000,4.000000,4.000000,4.000000,4.000000,4.000000,4.000000,4.000000,4.000000,4.000000,4.000000,100.000000,,,,,,,,,,,,,,,,
1645711088.147877,1645711088.164615,44.000000,0.000000,4196.666504,4197.692383,4193.461426,4182.051270,4211.794922,4208.589844,4205.897461,4219.102539,4197.436035,4230.128418,4216.410156,4160.128418,4205.897461,4214.102539,0.000000,4.000000,86.000000,,,,0.000000,4.000000,4.000000,4.000000,4.000000,4.000000,4.000000,4.000000,4.000000,4.000000,4.000000,4.000000,4.000000,4.000000,4.000000,100.000000,,,,,,,,,,,,,,,,
1645711088.151820,1645711088.168555,45.000000,0.000000,4198.461426,4203.077148,4195.897461,4185.256348,4212.307617,4208.717773,4206.922852,4220.512695,4197.051270,4235.256348,4220.256348,4161.410156,4208.205078,4219.871582,0.000000,4.000000,86.000000,,,,0.000000,4.000000,4.000000,4.000000,4.000000,4.000000,4.000000,4.000000,4.000000,4.000000,4.000000,4.000000,4.000000,4.000000,4.000000,100.000000,,,,,,,,,,,,,,,,
1645711088.155762,1645711088.172495,46.000000,0.000000,4204.487305,4208.077148,4199.615234,4189.358887,4212.820313,4208.077148,4207.307617,4221.794922,4197.820313,4235.897461,4224.615234,4162.820313,4212.307617,4225.512695,0.000000,4.000000,86.000000,,,,0.000000,4.000000,4.000000,4.000000,4.000000,4.000000,4.000000,4.000000,4.000000,4.000000,4.000000,4.000000,4.000000,4.000000,4.000000,100.000000,,,,,,,,,,,,,,,,
1645711088.159705,1645711088.176435,47.000000,0.000000,4210.897461,4211.794922,4204.358887,4194.358887,4215.641113,4208.846191,4207.436035,4222.563965,4200.256348,4234.358887,4228.717773,4165.128418,4217.563965,4228.846191,0.000000,4.000000,86.000000,,,,0.000000,4.000000,4.000000,4.000000,4.000000,4.000000,4.000000,4.000000,4.000000,4.000000,4.000000,4.000000,4.000000,4.000000,4.000000,100.000000,,,,,,,,,,,,,,,,
1645711088.163647,1645711088.180375,48.000000,0.000000,4213.461426,4214.487305,4208.333496,4199.230957,4220.000000,4211.282227,4207.948730,4222.948730,4202.820313,4233.461426,4231.410156,4167.692383,4222.179688,4227.948730,0.000000,4.000000,86.000000,,,,0.000000,4.000000,4.000000,4.000000,4.000000,4.000000,4.000000,4.000000,4.000000,4.000000,4.000000,4.000000,4.000000,4.000000,4.000000,100.000000,,,,,,,,,,,,,,,,
1645711088.167590,1645711088.184315,49.000000,0.000000,4212.051270,4215.641113,4209.615234,4202.051270,4222.563965,4213.974121,4208.846191,4222.948730,4203.333496,4232.948730,4231.025879,4168.717773,4223.589844,4222.820313,0.000000,4.000000,86.000000,,,,0.000000,4.000000,4.000000,4.000000,4.000000,4.000000,4.000000,4.000000,4.000000,4.000000,4.000000,4.000000,4.000000,4.000000,4.000000,100.000000,,,,,,,,,,,,,,,,
1645711088.171533,1645711088.188255,50.000000,0.000000,4210.256348,4214.615234,4206.922852,4201.922852,4220.384766,4214.871582,4209.487305,4222.436035,4201.410156,4230.897461,4226.282227,4166.410156,4220.256348,4215.512695,0.000000,4.000000,86.000000,,,,0.000000,4.000000,4.000000,4.000000,4.000000,4.000000,4.000000,4.000000,4.000000,4.000000,4.000000,4.000000,4.000000,4.000000,4.000000,100.000000,,,,,,,,,,,,,,,,
1645711088.175475,1645711088.192295,51.000000,1.000000,4209.116699,4213.618164,4205.726563,4201.624023,4218.917480,4215.057129,4209.358887,4223.504395,4201.025879,4230.128418,4223.475586,4164.757813,4217.521484,4214.358887,0.000000,4.000000,86.000000,,,,0.000000,4.000000,4.000000,4.000000,4.000000,4.000000,4.000000,4.000000,4.000000,4.000000,4.000000,4.000000,4.000000,4.000000,4.000000,100.000000,,,,,,,,,,,,,,,,
1645711088.179417,1645711088.196235,52.000000,1.000000,4207.977051,4212.621094,4204.529785,4201.324707,4217.450195,4215.242188,4209.230957,4224.572754,4200.641113,4229.358887,4220.669434,4163.105469,4214.786133,4213.205078,0.000000,4.000000,86.000000,,,,0.000000,4.000000,4.000000,4.000000,4.000000,4.000000,4.000000,4.000000,4.000000,4.000000,4.000000,4.000000,4.000000,4.000000,4.000000,100.000000,0.964844,83.333336,3.000000,4.000000,4.000000,4.000000,4.000000,4.000000,4.000000,4.000000,3.000000,4.000000,4.000000,4.000000,4.000000,4.000000
1645711088.183360,1645711088.200176,53.000000,1.000000,4206.837402,4211.624023,4203.333496,4201.025879,4215.982910,4215.427246,4209.102539,4225.641113,4200.256348,4228.589844,4217.863281,4161.453125,4212.051270,4212.051270,0.000000,4.000000,86.000000,,,,0.000000,4.000000,4.000000,4.000000,4.000000,4.000000,4.000000,4.000000,4.000000,4.000000,4.000000,4.000000,4.000000,4.000000,4.000000,100.000000,,,,,,,,,,,,,,,,
1645711088.187303,1645711088.204116,54.000000,1.000000,4205.698242,4210.626953,4202.136719,4200.726563,4214.515625,4215.612305,4208.974121,4226.709473,4199.871582,4227.820313,4215.057129,4159.800781,4209.316406,4210.897461,0.000000,4.000000,86.000000,,,,0.000000,4.000000,4.000000,4.000000,4.000000,4.000000,4.000000,4.000000,4.000000,4.000000,4.000000,4.000000,4.000000,4.000000,4.000000,100.000000,,,,,,,,,,,,,,,,
1645711088.191245,1645711088.208056,55.000000,1.000000,4204.558594,4209.629395,4200.939941,4200.427246,4213.048340,4215.797852,4208.846191,4227.777832,4199.487305,4227.051270,4212.250488,4158.147949,4206.581055,4209.743652,0.000000,4.000000,86.000000,,,,0.000000,4.000000,4.000000,4.000000,4.000000,4.000000,4.000000,4.000000,4.000000,4.000000,4.000000,4.000000,4.000000,4.000000,4.000000,100.000000,,,,,,,,,,,,,,,,
1645711088.195188,1645711088.211996,56.000000,1.000000,4203.418945,4208.632324,4199.743652,4200.128418,4211.581055,4215.982910,4208.717773,4228.846191,4199.102539,4226.282227,4209.444336,4156.495605,4203.846191,4208.589844,0.000000,4.000000,86.000000,,,,0.000000,4.000000,4.000000,4.000000,4.000000,4.000000,4.000000,4.000000,4.000000,4.000000,4.000000,4.000000,4.000000,4.000000,4.000000,100.000000,,,,,,,,,,,,,,,,
1645711088.199130,1645711088.215936,57.000000,1.000000,4202.279297,4207.635254,4198.546875,4199.829102,4210.113770,4216.167969,4208.589844,4229.914551,4198.717773,4225.512695,4206.638184,4154.843262,4201.111328,4207.436035,0.000000,4.000000,86.000000,,,,0.000000,4.000000,4.000000,4.000000,4.000000,4.000000,4.000000,4.000000,4.000000,4.000000,4.000000,4.000000,4.000000,4.000000,4.000000,100.000000,,,,,,,,,,,,,,,,
1645711088.203073,1645711088.219876,58.000000,1.000000,4201.139648,4206.638184,4197.350586,4199.529785,4208.646484,4216.353516,4208.461426,4230.982910,4198.333496,4224.743652,4203.832031,4153.190918,4198.375977,4206.282227,0.000000,4.000000,86.000000,,,,0.000000,4.000000,4.000000,4.000000,4.000000,4.000000,4.000000,4.000000,4.000000,4.000000,4.000000,4.000000,4.000000,4.000000,4.000000,100.000000,,,,,,,,,,,,,,,,
1645711088.207016,1645711088.223816,59.000000,0.000000,4200.000000,4205.641113,4196.153809,4199.230957,4207.179688,4216.538574,4208.333496,4232.051270,4197.948730,4223.974121,4201.025879,4151.538574,4195.641113,4205.128418,0.000000,4.000000,86.000000,,,,0.000000,4.000000,4.000000,4.000000,4.000000,4.000000,4.000000,4.000000,4.000000,4.000000,4.000000,4.000000,4.000000,4.000000,4.000000,100.000000,,,,,,,,,,,,,,,,
1645711088.210958,1645711088.227756,60.000000,0.000000,4200.128418,4204.358887,4197.307617,4201.794922,4207.692383,4221.794922,4207.179688,4231.922852,4198.717773,4220.384766,4202.307617,4152.436035,4197.179688,4205.000000,0.000000,4.000000,86.000000,,,,0.000000,4.000000,4.000000,4.000000,4.000000,4.000000,4.000000,4.000000,4.000000,4.000000,4.000000,4.000000,4.000000,4.000000,4.000000,100.000000,,,,,,,,,,,,,,,,
1645711088.214901,1645711088.231696,61.000000,0.000000,4200.128418,4201.794922,4197.436035,4198.461426,4208.077148,4222.436035,4204.743652,4228.974121,4197.563965,4215.256348,4202.307617,4150.769043,4198.717773,4204.487305,0.000000,4.000000,86.000000,,,,0.000000,4.000000,4.000000,4.000000,4.000000,4.000000,4.000000,4.000000,4.000000,4.000000,4.000000,4.000000,4.000000,4.000000,4.000000,100.000000,,,,,,,,,,,,,,,,
1645711088.218843,1645711088.235637,62.000000,0.000000,4198.846191,4200.000000,4196.410156,4192.179688,4206.666504,4217.948730,4203.333496,4225.256348,4195.384766,4210.512695,4200.512695,4146.794922,4199.230957,4203.589844,0.000000,4.000000,86.000000,,,,0.000000,4.000000,4.000000,4.000000,4.000000,4.000000,4.000000,4.000000,4.000000,4.000000,4.000000,4.000000,4.000000,4.000000,4.000000,100.000000,,,,,,,,,,,,,,,,
1645711088.222786,1645711088.239577,63.000000,0.000000,4195.256348,4200.256348,4193.974121,4187.563965,4203.461426,4210.769043,4204.102539,4223.461426,4193.974121,4207.948730,4198.461426,4142.563965,4198.589844,4201.666504,0.000000,4.000000,86.000000,,,,0.000000,4.000000,4.000000,4.000000,4.000000,4.000000,4.000000,4.000000,4.000000,4.000000,4.000000,4.000000,4.000000,4.000000,4.000000,100.000000,,,,,,,,,,,,,,,,
1645711088.226729,1645711088.243517,64.000000,0.000000,4191.410156,4201.282227,4190.256348,4186.922852,4199.102539,4204.230957,4205.769043,4224.230957,4194.487305,4207.436035,4197.307617,4140.000000,4196.922852,4198.846191,0.000000,4.000000,86.000000,,,,0.000000,4.000000,4.000000,4.000000,4.000000,4.000000,4.000000,4.000000,4.000000,4.000000,4.000000,4.000000,4.000000,4.000000,4.000000,100.000000,,,,,,,,,,,,,,,,
1645711088.230671,1645711088.247457,65.000000,0.000000,4190.384766,4200.641113,4186.153809,4187.948730,4195.384766,4200.641113,4205.641113,4225.256348,4195.512695,4207.179688,4196.794922,4138.974121,4194.230957,4196.153809,0.000000,4.000000,86.000000,,,,0.000000,4.000000,4.000000,4.000000,4.000000,4.000000,4.000000,4.000000,4.000000,4.000000,4.000000,4.000000,4.000000,4.000000,4.000000,100.000000,,,,,,,,,,,,,,,,
1645711088.234614,1645711088.251397,66.000000,0.000000,4193.205078,4197.436035,4183.077148,4187.051270,4193.717773,4200.769043,4202.307617,4224.743652,4195.000000,4206.282227,4196.282227,4138.974121,4191.666504,4195.512695,0.000000,4.000000,86.000000,,,,0.000000,4.000000,4.000000,4.000000,4.000000,4.000000,4.000000,4.000000,4.000000,4.000000,4.000000,4.000000,4.000000,4.000000,4.000000,100.000000,,,,,,,,,,,,,,,,
1645711088.238556,1645711088.255337,67.000000,0.000000,4196.922852,4193.974121,4182.436035,4183.205078,4195.641113,4203.846191,4198.077148,4223.077148,4192.948730,4206.025879,4196.282227,4140.256348,4190.641113,4197.948730,0.000000,4.000000,86.000000,,,,0.000000,4.000000,4.000000,4.000000,4.000000,4.000000,4.000000,4.000000,4.000000,4.000000,4.000000,4.000000,4.000000,4.000000,4.000000,100.000000,,,,,,,,,,,,,,,,
1645711088.242499,1645711088.259277,68.000000,0.000000,4197.307617,4193.205078,4184.102539,4178.846191,4200.512695,4208.846191,4195.769043,4222.051270,4191.153809,4208.205078,4197.948730,4143.205078,4191.794922,4202.948730,0.000000,4.000000,86.000000,,,,0.000000,4.000000,4.000000,4.000000,4.000000,4.000000,4.000000,4.000000,4.000000,4.000000,4.000000,4.000000,4.000000,4.000000,4.000000,100.000000,,,,,,,,,,,,,,,,
1645711088.246441,1645711088.263217,69.000000,0.000000,4194.358887,4195.641113,4186.666504,4176.410156,4205.512695,4213.461426,4197.307617,4222.692383,4191.025879,4212.948730,4201.666504,4147.948730,4194.487305,4207.820313,0.000000,4.000000,86.000000,,,,0.000000,4.000000,4.000000,4.000000,4.000000,4.000000,4.000000,4.000000,4.000000,4.000000,4.000000,4.000000,4.000000,4.000000,4.000000,100.000000,,,,,,,,,,,,,,,,
1645711088.250384,1645711088.267157,70.000000,0.000000,4192.051270,4198.333496,4188.333496,4176.025879,4206.538574,4215.256348,4201.025879,4224.743652,4192.820313,4217.436035,4205.256348,4152.436035,4196.282227,4209.615234,0.000000,4.000000,86.000000,,,,0.000000,4.000000,4.000000,4.000000,4.000000,4.000000,4.000000,4.000000,4.000000,4.000000,4.000000,4.000000,4.000000,4.000000,4.000000,100.000000,,,,,,,,,,,,,,,,
1645711088.254326,1645711088.271097,71.000000,0.000000,4192.820313,4197.563965,4187.948730,4175.641113,4202.307617,4213.077148,4204.358887,4226.666504,4195.000000,4218.461426,4205.897461,4153.974121,4195.384766,4207.307617,0.000000,4.000000,86.000000,,,,0.000000,4.000000,4.000000,4.000000,4.000000,4.000000,4.000000,4.000000,4.000000,4.000000,4.000000,4.000000,4.000000,4.000000,4.000000,100.000000,,,,,,,,,,,,,,,,
1645711088.258269,1645711088.275038,72.000000,0.000000,4194.487305,4192.307617,4185.641113,4173.205078,4195.641113,4207.948730,4205.512695,4227.051270,4196.153809,4216.025879,4203.205078,4151.025879,4192.436035,4202.179688,0.000000,4.000000,86.000000,,,,0.000000,4.000000,4.000000,4.000000,4.000000,4.000000,4.000000,4.000000,4.000000,4.000000,4.000000,4.000000,4.000000,4.000000,4.000000,100.000000,,,,,,,,,,,,,,,,
1645711088.262212,1645711088.278978,73.000000,0.000000,4192.820313,4185.000000,4181.153809,4168.846191,4191.282227,4203.077148,4203.846191,4225.256348,4195.384766,4212.051270,4198.717773,4144.743652,4189.743652,4196.025879,0.000000,4.000000,86.000000,,,,0.000000,4.000000,4.000000,4.000000,4.000000,4.000000,4.000000,4.000000,4.000000,4.000000,4.000000,4.000000,4.000000,4.000000,4.000000,100.000000,,,,,,,,,,,,,,,,
1645711088.266154,1645711088.282918,74.000000,0.000000,4186.794922,4178.717773,4175.128418,4164.358887,4190.897461,4200.512695,4200.000000,4221.666504,4192.692383,4208.589844,4194.102539,4137.179688,4188.846191,4190.128418,0.000000,4.000000,86.000000,,,,0.000000,4.000000,4.000000,4.000000,4.000000,4.000000,4.000000,4.000000,4.000000,4.000000,4.000000,4.000000,4.000000,4.000000,4.000000,100.000000,,,,,,,,,,,,,,,,
1645711088.270097,1645711088.286858,75.000000,0.000000,4180.641113,4175.384766,4168.974121,4161.410156,4191.666504,4200.384766,4195.769043,4217.692383,4188.974121,4205.512695,4189.743652,4131.538574,4188.974121,4185.641113,0.000000,4.000000,86.000000,,,,0.000000,4.000000,4.000000,4.000000,4.000000,4.000000,4.000000,4.000000,4.000000,4.000000,4.000000,4.000000,4.000000,4.000000,4.000000,100.000000,,,,,,,,,,,,,,,,
1645711088.274039,1645711088.290798,76.000000,0.000000,4178.205078,4174.487305,4165.000000,4161.410156,4189.102539,4201.410156,4193.205078,4214.871582,4186.282227,4202.179688,4185.641113,4129.230957,4188.974121,4182.948730,0.000000,4.000000,86.000000,,,,0.000000,4.000000,4.000000,4.000000,4.000000,4.000000,4.000000,4.000000,4.000000,4.000000,4.000000,4.000000,4.000000,4.000000,4.000000,100.000000,,,,,,,,,,,,,,,,
1645711088.277982,1645711088.294638,77.000000,0.000000,4179.487305,4174.743652,4164.487305,4163.589844,4182.692383,4202.179688,4193.589844,4213.974121,4186.153809,4198.846191,4182.051270,4130.256348,4187.692383,4182.436035,0.000000,4.000000,86.000000,,,,0.000000,4.000000,4.000000,4.000000,4.000000,4.000000,4.000000,4.000000,4.000000,4.000000,4.000000,4.000000,4.000000,4.000000,4.000000,100.000000,,,,,,,,,,,,,,,,
1645711088.281925,1645711088.298578,78.000000,0.000000,4180.897461,4175.384766,4166.538574,4166.153809,4176.025879,4202.179688,4195.769043,4213.589844,4187.692383,4195.769043,4180.000000,4132.307617,4185.769043,4183.205078,0.000000,4.000000,86.000000,,,,0.000000,4.000000,4.000000,4.000000,4.000000,4.000000,4.000000,4.000000,4.000000,4.000000,4.000000,4.000000,4.000000,4.000000,4.000000,100.000000,,,,,,,,,,,,,,,,
1645711088.285867,1645711088.302518,79.000000,0.000000,4180.000000,4176.153809,4169.230957,4166.922852,4173.461426,4201.794922,4197.563965,4212.179688,4188.461426,4192.307617,4179.358887,4132.820313,4183.717773,4184.358887,0.000000,4.000000,86.000000,,,,0.000000,4.000000,4.000000,4.000000,4.000000,4.000000,4.000000,4.000000,4.000000,4.000000,4.000000,4.000000,4.000000,4.000000,4.000000,100.000000,,,,,,,,,,,,,,,,
1645711088.289810,1645711088.306459,80.000000,0.000000,4178.589844,4177.436035,4172.051270,4164.615234,4176.666504,4201.025879,4197.436035,4210.000000,4186.922852,4187.307617,4178.974121,4130.769043,4182.179688,4185.769043,0.000000,4.000000,86.000000,,,,0.000000,4.000000,4.000000,4.000000,4.000000,4.000000,4.000000,4.000000,4.000000,4.000000,4.000000,4.000000,4.000000,4.000000,4.000000,100.000000,,,,,,,,,,,,,,,,
1645711088.293752,1645711088.310399,81.000000,0.000000,4179.743652,4179.743652,4175.000000,4161.538574,4183.589844,4200.641113,4196.025879,4208.846191,4184.102539,4181.922852,4178.589844,4128.589844,4182.051270,4187.563965,0.000000,4.000000,86.000000,,,,0.000000,4.000000,4.000000,4.000000,4.000000,4.000000,4.000000,4.000000,4.000000,4.000000,4.000000,4.000000,4.000000,4.000000,4.000000,100.000000,,,,,,,,,,,,,,,,
1645711088.297695,1645711088.314339,82.000000,0.000000,4183.461426,4183.717773,4178.461426,4161.410156,4191.538574,4201.794922,4195.641113,4211.025879,4182.307617,4180.000000,4179.358887,4130.000000,4183.846191,4190.384766,0.000000,4.000000,86.000000,,,,0.000000,4.000000,4.000000,4.000000,4.000000,4.000000,4.000000,4.000000,4.000000,4.000000,4.000000,4.000000,4.000000,4.000000,4.000000,100.000000,,,,,,,,,,,,,,,,
1645711088.301637,1645711088.318279,83.000000,0.000000,4187.563965,4188.974121,4182.436035,4167.179688,4198.717773,4204.615234,4197.307617,4215.897461,4183.589844,4184.487305,4183.205078,4136.410156,4187.820313,4194.230957,0.000000,4.000000,86.000000,,,,0.000000,4.000000,4.000000,4.000000,4.000000,4.000000,4.000000,4.000000,4.000000,4.000000,4.000000,4.000000,4.000000,4.000000,4.000000,100.000000,,,,,,,,,,,,,,,,
1645711088.305580,1645711088.322219,84.000000,0.000000,4190.000000,4193.205078,4186.025879,4176.538574,4203.589844,4207.563965,4199.615234,4220.641113,4186.922852,4194.743652,4190.000000,4145.512695,4192.307617,4197.563965,0.000000,4.000000,86.000000,,,,0.000000,4.000000,4.000000,4.000000,4.000000,4.000000,4.000000,4.000000,4.000000,4.000000,4.000000,4.000000,4.000000,4.000000,4.000000,100.000000,,,,,,,,,,,,,,,,
1645711088.309523,1645711088.326159,85.000000,0.000000,4191.538574,4194.102539,4188.205078,4184.230957,4204.358887,4208.077148,4200.000000,4221.666504,4189.743652,4204.871582,4196.666504,4152.179688,4194.743652,4198.974121,0.000000,4.000000,86.000000,,,,0.000000,4.000000,4.000000,4.000000,4.000000,4.000000,4.000000,4.000000,4.000000,4.000000,4.000000,4.000000,4.000000,4.000000,4.000000,100.000000,,,,,,,,,,,,,,,,
1645711088.313465,1645711088.330099,86.000000,0.000000,4193.333496,4191.025879,4188.589844,4185.769043,4201.282227,4204.743652,4197.692383,4217.948730,4189.487305,4209.230957,4198.846191,4153.333496,4193.717773,4198.077148,0.000000,4.000000,86.000000,,,,0.000000,4.000000,4.000000,4.000000,4.000000,4.000000,4.000000,4.000000,4.000000,4.000000,4.000000,4.000000,4.000000,4.000000,4.000000,100.000000,,,,,,,,,,,,,,,,
1645711088.317408,1645711088.334039,87.000000,0.000000,4195.000000,4187.307617,4188.974121,4181.538574,4196.922852,4199.487305,4193.717773,4211.922852,4186.282227,4206.153809,4196.025879,4150.384766,4190.256348,4196.153809,0.000000,4.000000,86.000000,,,,0.000000,4.000000,4.000000,4.000000,4.000000,4.000000,4.000000,4.000000,4.000000,4.000000,4.000000,4.000000,4.000000,4.000000,4.000000,100.000000,,,,,,,,,,,,,,,,
1645711088.321350,1645711088.337979,88.000000,0.000000,4195.256348,4186.922852,4191.666504,4176.410156,4195.128418,4196.153809,4190.512695,4206.666504,4181.922852,4199.358887,4191.538574,4147.179688,4187.563965,4195.128418,0.000000,4.000000,86.000000,,,,0.000000,4.000000,4.000000,4.000000,4.000000,4.000000,4.000000,4.000000,4.000000,4.000000,4.000000,4.000000,4.000000,4.000000,4.000000,100.000000,,,,,,,,,,,,,,,,
1645711088.325293,1645711088.341919,89.000000,0.000000,4194.743652,4191.922852,4197.436035,4175.769043,4197.051270,4196.538574,4188.846191,4204.487305,4178.333496,4193.974121,4189.871582,4146.538574,4187.948730,4196.025879,0.000000,4.000000,86.000000,,,,0.000000,4.000000,4.000000,4.000000,4.000000,4.000000,4.000000,4.000000,4.000000,4.000000,4.000000,4.000000,4.000000,4.000000,4.000000,100.000000,,,,,,,,,,,,,,,,
1645711088.329235,1645711088.345860,90.000000,0.000000,4195.769043,4199.487305,4204.102539,4180.769043,4200.128418,4199.102539,4188.205078,4204.871582,4176.922852,4192.307617,4191.922852,4148.077148,4190.769043,4198.589844,0.000000,4.000000,86.000000,,,,0.000000,4.000000,4.000000,4.000000,4.000000,4.000000,4.000000,4.000000,4.000000,4.000000,4.000000,4.000000,4.000000,4.000000,4.000000,100.000000,,,,,,,,,,,,,,,,
1645711088.333178,1645711088.349800,91.000000,0.000000,4199.358887,4205.384766,4208.333496,4188.205078,4200.769043,4201.025879,4187.436035,4205.512695,4176.922852,4193.333496,4195.384766,4149.743652,4193.077148,4201.922852,0.000000,4.000000,86.000000,,,,0.000000,4.000000,4.000000,4.000000,4.000000,4.000000,4.000000,4.000000,4.000000,4.000000,4.000000,4.000000,4.000000,4.000000,4.000000,100.000000,,,,,,,,,,,,,,,,
1645711088.337120,1645711088.353640,92.000000,0.000000,4203.077148,4206.538574,4208.205078,4193.077148,4197.948730,4201.282227,4186.410156,4204.615234,4177.307617,4194.871582,4196.922852,4149.743652,4192.692383,4204.743652,0.000000,4.000000,86.000000,,,,0.000000,4.000000,4.000000,4.000000,4.000000,4.000000,4.000000,4.000000,4.000000,4.000000,4.000000,4.000000,4.000000,4.000000,4.000000,100.000000,,,,,,,,,,,,,,,,
1645711088.341063,1645711088.357580,93.000000,0.000000,4202.948730,4203.717773,4204.615234,4193.333496,4193.205078,4201.153809,4185.384766,4202.948730,4177.179688,4195.256348,4195.384766,4148.333496,4189.615234,4205.512695,0.000000,4.000000,86.000000,,,,0.000000,4.000000,4.000000,4.000000,4.000000,4.000000,4.000000,4.000000,4.000000,4.000000,4.000000,4.000000,4.000000,4.000000,4.000000,100.000000,,,,,,,,,,,,,,,,
1645711088.345006,1645711088.361520,94.000000,0.000000,4198.717773,4200.000000,4200.128418,4189.743652,4188.974121,4200.769043,4184.871582,4202.051270,4176.794922,4193.717773,4191.282227,4146.794922,4185.641113,4203.589844,0.000000,4.000000,86.000000,,,,0.000000,4.000000,4.000000,4.000000,4.000000,4.000000,4.000000,4.000000,4.000000,4.000000,4.000000,4.000000,4.000000,4.000000,4.000000,100.000000,,,,,,,,,,,,,,,,
1645711088.348948,1645711088.365460,95.000000,0.000000,4194.487305,4197.179688,4197.436035,4185.128418,4186.538574,4199.487305,4185.128418,4202.820313,4176.282227,4190.769043,4186.025879,4146.794922,4182.692383,4200.769043,0.000000,4.000000,86.000000,,,,0.000000,4.000000,4.000000,4.000000,4.000000,4.000000,4.000000,4.000000,4.000000,4.000000,4.000000,4.000000,4.000000,4.000000,4.000000,100.000000,,,,,,,,,,,,,,,,
1645711088.352891,1645711088.369400,96.000000,0.000000,4195.000000,4195.769043,4197.051270,4181.794922,4186.410156,4197.051270,4185.769043,4204.102539,4176.025879,4187.692383,4182.051270,4148.717773,4182.179688,4200.128418,0.000000,4.000000,86.000000,,,,0.000000,4.000000,4.000000,4.000000,4.000000,4.000000,4.000000,4.000000,4.000000,4.000000,4.000000,4.000000,4.000000,4.000000,4.000000,100.000000,,,,,,,,,,,,,,,,
1645711088.356833,1645711088.373340,97.000000,0.000000,4199.871582,4195.256348,4198.205078,4181.282227,4189.615234,4195.256348,4187.051270,4205.384766,4176.153809,4186.794922,4181.538574,4152.179688,4184.358887,4203.205078,0.000000,4.000000,86.000000,,,,0.000000,4.000000,4.000000,4.000000,4.000000,4.000000,4.000000,4.000000,4.000000,4.000000,4.000000,4.000000,4.000000,4.000000,4.000000,100.000000,,,,,,,,,,,,,,,,
1645711088.360776,1645711088.377281,98.000000,0.000000,4204.358887,4196.153809,4200.000000,4183.461426,4197.051270,4196.410156,4189.487305,4206.922852,4177.692383,4189.615234,4185.769043,4155.128418,4188.205078,4207.692383,0.000000,4.000000,86.000000,,,,0.000000,4.000000,4.000000,4.000000,4.000000,4.000000,4.000000,4.000000,4.000000,4.000000,4.000000,4.000000,4.000000,4.000000,4.000000,100.000000,,,,,,,,,,,,,,,,
1645711088.364719,1645711088.381221,99.000000,0.000000,4204.871582,4198.461426,4202.179688,4187.179688,4206.410156,4200.769043,4192.436035,4209.871582,4181.282227,4195.512695,4193.077148,4155.897461,4192.179688,4209.871582,0.000000,4.000000,86.000000,,,,0.000000,4.000000,4.000000,4.000000,4.000000,4.000000,4.000000,4.000000,4.000000,4.000000,4.000000,4.000000,4.000000,4.000000,4.000000,100.000000,,,,,,,,,,,,,,,,
1645711088.368661,1645711088.385161,100.000000,0.000000,4202.307617,4201.025879,4203.717773,4189.743652,4212.820313,4205.769043,4194.615234,4213.846191,4185.769043,4201.153809,4199.615234,4154.230957,4194.230957,4208.589844,0.000000,4.000000,86.000000,,,,0.000000,4.000000,4.000000,4.000000,4.000000,4.000000,4.000000,4.000000,4.000000,4.000000,4.000000,4.000000,4.000000,4.000000,4.000000,100.000000,,,,,,,,,,,,,,,,
1645711088.372604,1645711088.389101,101.000000,0.000000,4200.641113,4202.179688,4203.461426,4190.000000,4212.563965,4208.589844,4194.743652,4217.307617,4188.846191,4202.820313,4202.179688,4151.666504,4193.717773,4205.897461,0.000000,4.000000,86.000000,,,,0.000000,4.000000,4.000000,4.000000,4.000000,4.000000,4.000000,4.000000,4.000000,4.000000,4.000000,4.000000,4.000000,4.000000,4.000000,100.000000,,,,,,,,,,,,,,,,
1645711088.376546,1645711088.393041,102.000000,0.000000,4201.282227,4201.538574,4200.897461,4188.461426,4206.153809,4208.589844,4193.077148,4218.974121,4189.102539,4200.769043,4200.641113,4150.897461,4192.051270,4205.384766,0.000000,4.000000,86.000000,,,,0.000000,4.000000,4.000000,4.000000,4.000000,4.000000,4.000000,4.000000,4.000000,4.000000,4.000000,4.000000,4.000000,4.000000,4.000000,100.000000,,,,,,,,,,,,,,,,
1645711088.380489,1645711088.396981,103.000000,0.000000,4202.436035,4200.256348,4197.563965,4187.179688,4199.358887,4207.692383,4191.410156,4219.230957,4187.820313,4198.589844,4198.333496,4153.205078,4191.922852,4207.563965,0.000000,4.000000,86.000000,,,,0.000000,4.000000,4.000000,4.000000,4.000000,4.000000,4.000000,4.000000,4.000000,4.000000,4.000000,4.000000,4.000000,4.000000,4.000000,100.000000,,,,,,,,,,,,,,,,
1645711088.384431,1645711088.400921,104.000000,0.000000,4201.666504,4199.615234,4195.000000,4186.666504,4197.948730,4208.333496,4191.538574,4220.128418,4187.692383,4200.641113,4198.205078,4157.051270,4195.000000,4210.000000,0.000000,4.000000,86.000000,,,,0.000000,4.000000,4.000000,4.000000,4.000000,4.000000,4.000000,4.000000,4.000000,4.000000,4.000000,4.000000,4.000000,4.000000,4.000000,100.000000,,,,,,,,,,,,,,,,
1645711088.388374,1645711088.404861,105.000000,0.000000,4199.615234,4199.358887,4193.461426,4185.384766,4202.436035,4210.000000,4193.589844,4222.051270,4190.000000,4207.563965,4200.897461,4159.743652,4200.256348,4209.358887,0.000000,4.000000,86.000000,,,,0.000000,4.000000,4.000000,4.000000,4.000000,4.000000,4.000000,4.000000,4.000000,4.000000,4.000000,4.000000,4.000000,4.000000,4.000000,100.000000,,,,,,,,,,,,,,,,
1645711088.392316,1645711088.408801,106.000000,0.000000,4198.205078,4198.333496,4191.794922,4181.794922,4207.436035,4210.000000,4196.153809,4224.230957,4193.205078,4215.897461,4204.743652,4159.102539,4203.589844,4205.769043,0.000000,4.000000,86.000000,,,,0.000000,4.000000,4.000000,4.000000,4.000000,4.000000,4.000000,4.000000,4.000000,4.000000,4.000000,4.000000,4.000000,4.000000,4.000000,100.000000,,,,,,,,,,,,,,,,
1645711088.396259,1645711088.412741,107.000000,0.000000,4198.077148,4196.794922,4188.846191,4177.051270,4207.436035,4207.179688,4197.307617,4225.641113,4195.256348,4220.897461,4207.692383,4156.282227,4201.410156,4203.333496,0.000000,4.000000,86.000000,,,,0.000000,4.000000,4.000000,4.000000,4.000000,4.000000,4.000000,4.000000,4.000000,4.000000,4.000000,4.000000,4.000000,4.000000,4.000000,100.000000,,,,,,,,,,,,,,,,
1645711088.400202,1645711088.416582,108.000000,0.000000,4197.563965,4195.256348,4185.641113,4174.871582,4201.153809,4202.948730,4196.282227,4226.410156,4195.128418,4221.282227,4209.487305,4153.846191,4192.307617,4205.128418,0.000000,4.000000,86.000000,,,,0.000000,4.000000,4.000000,4.000000,4.000000,4.000000,4.000000,4.000000,4.000000,4.000000,4.000000,4.000000,4.000000,4.000000,4.000000,100.000000,,,,,,,,,,,,,,,,
1645711088.404144,1645711088.420522,109.000000,0.000000,4194.743652,4193.974121,4183.077148,4177.307617,4192.051270,4200.384766,4193.846191,4226.922852,4193.333496,4218.461426,4209.615234,4153.205078,4178.205078,4210.128418,0.000000,4.000000,86.000000,,,,0.000000,4.000000,4.000000,4.000000,4.000000,4.000000,4.000000,4.000000,4.000000,4.000000,4.000000,4.000000,4.000000,4.000000,4.000000,100.000000,,,,,,,,,,,,,,,,
1645711088.408087,1645711088.424462,110.000000,0.000000,4191.025879,4192.436035,4181.538574,4182.307617,4184.615234,4200.512695,4191.794922,4227.307617,4191.410156,4215.512695,4206.922852,4153.589844,4162.436035,4213.461426,0.000000,4.000000,86.000000,,,,0.000000,4.000000,4.000000,4.000000,4.000000,4.000000,4.000000,4.000000,4.000000,4.000000,4.000000,4.000000,4.000000,4.000000,4.000000,100.000000,,,,,,,,,,,,,,,,
1645711088.412029,1645711088.428402,111.000000,0.000000,4189.102539,4190.128418,4180.512695,4185.256348,4181.794922,4201.282227,4191.025879,4226.794922,4190.384766,4213.717773,4200.897461,4152.948730,4148.461426,4211.025879,0.000000,4.000000,86.000000,,,,0.000000,4.000000,4.000000,4.000000,4.000000,4.000000,4.000000,4.000000,4.000000,4.000000,4.000000,4.000000,4.000000,4.000000,4.000000,100.000000,,,,,,,,,,,,,,,,
1645711088.415972,1645711088.432342,112.000000,0.000000,4189.871582,4188.205078,4179.871582,4183.974121,4184.615234,4201.538574,4192.051270,4225.128418,4190.384766,4212.820313,4193.589844,4150.384766,4138.589844,4203.461426,0.000000,4.000000,86.000000,,,,0.000000,4.000000,4.000000,4.000000,4.000000,4.000000,4.000000,4.000000,4.000000,4.000000,4.000000,4.000000,4.000000,4.000000,4.000000,100.000000,,,,,,,,,,,,,,,,
1645711088.419915,1645711088.436282,113.000000,0.000000,4191.410156,4188.846191,4179.871582,4180.769043,4192.051270,4201.794922,4195.000000,4223.846191,4191.282227,4211.794922,4189.102539,4146.538574,4133.333496,4195.769043,0.000000,4.000000,86.000000,,,,0.000000,4.000000,4.000000,4.000000,4.000000,4.000000,4.000000,4.000000,4.000000,4.000000,4.000000,4.000000,4.000000,4.000000,4.000000,100.000000,,,,,,,,,,,,,,,,
1645711088.423857,1645711088.440222,114.000000,0.000000,4191.538574,4192.051270,4181.282227,4179.615234,4201.410156,4202.948730,4198.717773,4224.230957,4191.922852,4209.743652,4190.128418,4143.077148,4131.410156,4192.563965,0.000000,4.000000,86.000000,,,,0.000000,4.000000,4.000000,4.000000,4.000000,4.000000,4.000000,4.000000,4.000000,4.000000,4.000000,4.000000,4.000000,4.000000,4.000000,100.000000,,,,,,,,,,,,,,,,
1645711088.427800,1645711088.444162,115.000000,0.000000,4191.282227,4195.641113,4183.846191,4182.307617,4208.461426,4205.384766,4201.666504,4225.897461,4191.538574,4206.025879,4194.615234,4141.666504,4131.025879,4195.256348,0.000000,4.000000,86.000000,,,,0.000000,4.000000,4.000000,4.000000,4.000000,4.000000,4.000000,4.000000,4.000000,4.000000,4.000000,4.000000,4.000000,4.000000,4.000000,100.000000,,,,,,,,,,,,,,,,
1645711088.431742,1645711088.448103,116.000000,0.000000,4192.820313,4196.794922,4186.666504,4186.666504,4209.487305,4207.820313,4202.692383,4227.692383,4190.000000,4200.897461,4197.948730,4143.077148,4130.256348,4200.641113,0.000000,4.000000,86.000000,,,,0.000000,4.000000,4.000000,4.000000,4.000000,4.000000,4.000000,4.000000,4.000000,4.000000,4.000000,4.000000,4.000000,4.000000,4.000000,100.000000,,,,,,,,,,,,,,,,
1645711088.435685,1645711088.451943,117.000000,0.000000,4196.282227,4194.743652,4188.846191,4189.615234,4205.256348,4209.358887,4202.563965,4228.461426,4188.333496,4196.410156,4197.307617,4147.179688,4128.717773,4204.358887,0.000000,4.000000,86.000000,,,,0.000000,4.000000,4.000000,4.000000,4.000000,4.000000,4.000000,4.000000,4.000000,4.000000,4.000000,4.000000,4.000000,4.000000,4.000000,100.000000,,,,,,,,,,,,,,,,
1645711088.439628,1645711088.455883,118.000000,0.000000,4198.846191,4191.282227,4190.769043,4189.743652,4200.769043,4210.512695,4203.333496,4227.820313,4187.692383,4196.025879,4193.717773,4152.179688,4127.563965,4203.846191,0.000000,4.000000,86.000000,,,,0.000000,4.000000,4.000000,4.000000,4.000000,4.000000,4.000000,4.000000,4.000000,4.000000,4.000000,4.000000,4.000000,4.000000,4.000000,100.000000,,,,,,,,,,,,,,,,
1645711088.443570,1645711088.459823,119.000000,0.000000,4198.205078,4189.615234,4193.333496,4188.461426,4200.769043,4212.692383,4205.769043,4226.666504,4188.461426,4201.153809,4190.897461,4156.025879,4128.077148,4200.384766,0.000000,4.000000,86.000000,,,,0.000000,4.000000,4.000000,4.000000,4.000000,4.000000,4.000000,4.000000,4.000000,4.000000,4.000000,4.000000,4.000000,4.000000,4.000000,100.000000,,,,,,,,,,,,,,,,
1645711088.447513,1645711088.463763,120.000000,0.000000,4195.897461,4190.641113,4196.153809,4187.436035,4205.128418,4215.897461,4208.589844,4225.769043,4189.743652,4209.358887,4190.897461,4157.307617,4130.641113,4198.077148,0.000000,4.000000,86.000000,,,,0.000000,4.000000,4.000000,4.000000,4.000000,4.000000,4.000000,4.000000,4.000000,4.000000,4.000000,4.000000,4.000000,4.000000,4.000000,100.000000,,,,,,,,,,,,,,,,
1645711088.451455,1645711088.467703,121.000000,0.000000,4194.871582,4192.563965,4198.077148,4187.307617,4208.974121,4217.820313,4209.358887,4225.897461,4190.641113,4215.128418,4192.051270,4156.153809,4134.615234,4199.743652,0.000000,4.000000,86.000000,,,,0.000000,4.000000,4.000000,4.000000,4.000000,4.000000,4.000000,4.000000,4.000000,4.000000,4.000000,4.000000,4.000000,4.000000,4.000000,100.000000,,,,,,,,,,,,,,,,
1645711088.455398,1645711088.471643,122.000000,0.000000,4196.153809,4192.948730,4198.333496,4187.307617,4207.948730,4216.666504,4207.436035,4227.179688,4191.153809,4215.384766,4191.153809,4154.615234,4138.333496,4204.358887,0.000000,4.000000,86.000000,,,,0.000000,4.000000,4.000000,4.000000,4.000000,4.000000,4.000000,4.000000,4.000000,4.000000,4.000000,4.000000,4.000000,4.000000,4.000000,100.000000,,,,,,,,,,,,,,,,
1645711088.459340,1645711088.475583,123.000000,0.000000,4196.922852,4191.410156,4197.436035,4187.436035,4202.051270,4212.692383,4203.846191,4228.846191,4191.410156,4211.410156,4187.948730,4154.230957,4140.641113,4207.948730,0.000000,4.000000,86.000000,,,,0.000000,4.000000,4.000000,4.000000,4.000000,4.000000,4.000000,4.000000,4.000000,4.000000,4.000000,4.000000,4.000000,4.000000,4.000000,100.000000,,,,,,,,,,,,,,,,
1645711088.463283,1645711088.479523,124.000000,0.000000,4194.871582,4189.615234,4196.282227,4187.948730,4195.128418,4208.333496,4200.641113,4230.256348,4192.051270,4207.692383,4184.871582,4155.769043,4141.025879,4207.436035,0.000000,4.000000,86.000000,,,,0.000000,4.000000,4.000000,4.000000,4.000000,4.000000,4.000000,4.000000,4.000000,4.000000,4.000000,4.000000,4.000000,4.000000,4.000000,100.000000,,,,,,,,,,,,,,,,
1645711088.467225,1645711088.483464,125.000000,0.000000,4191.538574,4189.230957,4195.384766,4188.717773,4191.153809,4205.000000,4198.333496,4230.128418,4192.563965,4206.410156,4185.256348,4157.692383,4140.384766,4204.230957,0.000000,4.000000,86.000000,,,,0.000000,4.000000,4.000000,4.000000,4.000000,4.000000,4.000000,4.000000,4.000000,4.000000,4.000000,4.000000,4.000000,4.000000,4.000000,100.000000,,,,,,,,,,,,,,,,
1645711088.471168,1645711088.487404,126.000000,0.000000,4191.282227,4190.384766,4194.615234,4189.358887,4190.641113,4202.563965,4196.922852,4227.948730,4191.794922,4205.897461,4189.871582,4158.077148,4140.128418,4202.563965,0.000000,4.000000,86.000000,,,,0.000000,4.000000,4.000000,4.000000,4.000000,4.000000,4.000000,4.000000,4.000000,4.000000,4.000000,4.000000,4.000000,4.000000,4.000000,100.000000,,,,,,,,,,,,,,,,
1645711088.475111,1645711088.491344,127.000000,0.000000,4195.641113,4192.436035,4193.974121,4189.230957,4192.436035,4200.641113,4195.897461,4224.102539,4189.871582,4203.717773,4197.307617,4155.897461,4142.179688,4205.128418,0.000000,4.000000,86.000000,,,,0.000000,4.000000,4.000000,4.000000,4.000000,4.000000,4.000000,4.000000,4.000000,4.000000,4.000000,4.000000,4.000000,4.000000,4.000000,100.000000,,,,,,,,,,,,,,,,
1645711088.479053,1645711088.495284,128.000000,0.000000,4201.282227,4193.974121,4192.948730,4189.230957,4195.897461,4199.487305,4195.512695,4220.512695,4187.563965,4200.512695,4205.256348,4153.333496,4147.307617,4210.512695,3314.000000,4.000000,86.000000,,,,0.000000,4.000000,4.000000,4.000000,4.000000,4.000000,4.000000,4.000000,4.000000,4.000000,4.000000,4.000000,4.000000,4.000000,4.000000,100.000000,,,,,,,,,,,,,,,,
1645711088.482996,1645711088.499224,129.000000,0.000000,4203.205078,4194.358887,4191.153809,4189.871582,4200.000000,4199.358887,4195.384766,4219.102539,4186.538574,4199.487305,4211.410156,4153.077148,4154.358887,4215.000000,3378.000000,4.000000,86.000000,,,,0.000000,4.000000,4.000000,4.000000,4.000000,4.000000,4.000000,4.000000,4.000000,4.000000,4.000000,4.000000,4.000000,4.000000,4.000000,100.000000,,,,,,,,,,,,,,,,
1645711088.486938,1645711088.503164,130.000000,0.000000,4200.512695,4193.205078,4188.461426,4190.897461,4202.563965,4199.358887,4194.487305,4220.128418,4187.307617,4202.820313,4213.205078,4155.897461,4160.256348,4216.153809,2212.000000,4.000000,86.000000,,,,0.000000,4.000000,4.000000,4.000000,4.000000,4.000000,4.000000,4.000000,4.000000,4.000000,4.000000,4.000000,4.000000,4.000000,4.000000,100.000000,,,,,,,,,,,,,,,,
1645711088.490881,1645711088.507104,131.000000,0.000000,4196.922852,4191.025879,4185.512695,4190.512695,4201.410156,4198.589844,4192.820313,4222.692383,4189.358887,4208.974121,4210.000000,4159.871582,4162.179688,4215.256348,3444.000000,4.000000,86.000000,,,,0.000000,4.000000,4.000000,4.000000,4.000000,4.000000,4.000000,4.000000,4.000000,4.000000,4.000000,4.000000,4.000000,4.000000,4.000000,100.000000,,,,,,,,,,,,,,,,
1645711088.494824,1645711088.511044,132.000000,0.000000,4196.025879,4188.846191,4183.717773,4188.461426,4196.794922,4197.563965,4191.538574,4225.128418,4190.769043,4213.846191,4203.717773,4161.410156,4160.000000,4215.128418,3520.000000,4.000000,86.000000,,,,0.000000,4.000000,4.000000,4.000000,4.000000,4.000000,4.000000,4.000000,4.000000,4.000000,4.000000,4.000000,4.000000,4.000000,4.000000,100.000000,,,,,,,,,,,,,,,,
1645711088.498766,1645711088.514984,133.000000,0.000000,4197.436035,4188.333496,4183.974121,4186.922852,4192.436035,4198.205078,4192.563965,4226.794922,4191.153809,4215.384766,4198.461426,4159.102539,4156.922852,4217.179688,3276.000000,4.000000,86.000000,,,,0.000000,4.000000,4.000000,4.000000,4.000000,4.000000,4.000000,4.000000,4.000000,4.000000,4.000000,4.000000,4.000000,4.000000,4.000000,100.000000,,,,,,,,,,,,,,,,
1645711088.502709,1645711088.518925,134.000000,0.000000,4198.333496,4190.256348,4186.025879,4187.820313,4191.922852,4201.410156,4196.025879,4227.820313,4190.512695,4214.871582,4197.563965,4154.102539,4156.282227,4219.487305,3158.000000,4.000000,86.000000,,,,0.000000,4.000000,4.000000,4.000000,4.000000,4.000000,4.000000,4.000000,4.000000,4.000000,4.000000,4.000000,4.000000,4.000000,4.000000,100.000000,,,,,,,,,,,,,,,,
1645711088.506651,1645711088.522865,135.000000,0.000000,4197.692383,4193.589844,4188.333496,4190.256348,4195.512695,4205.256348,4200.128418,4228.589844,4190.000000,4214.102539,4200.384766,4149.487305,4158.461426,4219.743652,2523.000000,4.000000,86.000000,,,,0.000000,4.000000,4.000000,4.000000,4.000000,4.000000,4.000000,4.000000,4.000000,4.000000,4.000000,4.000000,4.000000,4.000000,4.000000,100.000000,,,,,,,,,,,,,,,,
1645711088.510594,1645711088.526805,136.000000,0.000000,4197.436035,4196.153809,4189.871582,4191.538574,4199.743652,4207.179688,4202.436035,4228.846191,4189.615234,4213.717773,4203.846191,4147.436035,4160.769043,4217.307617,1525.000000,4.000000,86.000000,,,,0.000000,4.000000,4.000000,4.000000,4.000000,4.000000,4.000000,4.000000,4.000000,4.000000,4.000000,4.000000,4.000000,4.000000,4.000000,100.000000,,,,,,,,,,,,,,,,
1645711088.514536,1645711088.530745,137.000000,0.000000,4198.846191,4195.897461,4190.512695,4190.000000,4201.282227,4206.153809,4202.307617,4228.333496,4189.230957,4212.948730,4205.128418,4148.717773,4160.897461,4214.230957,3111.000000,4.000000,86.000000,,,,0.000000,4.000000,4.000000,4.000000,4.000000,4.000000,4.000000,4.000000,4.000000,4.000000,4.000000,4.000000,4.000000,4.000000,4.000000,100.000000,,,,,,,,,,,,,,,,
1645711088.518479,1645711088.534585,138.000000,0.000000,4200.128418,4193.333496,4190.384766,4187.307617,4199.615234,4204.102539,4201.282227,4227.307617,4188.974121,4211.922852,4204.487305,4152.051270,4160.000000,4212.692383,2348.000000,4.000000,86.000000,,,,0.000000,4.000000,4.000000,4.000000,4.000000,4.000000,4.000000,4.000000,4.000000,4.000000,4.000000,4.000000,4.000000,4.000000,4.000000,100.000000,,,,,,,,,,,,,,,,
1645711088.522421,1645711088.538525,139.000000,0.000000,4199.102539,4190.512695,4189.230957,4186.282227,4197.051270,4203.461426,4201.025879,4226.538574,4189.358887,4210.769043,4203.589844,4155.128418,4161.153809,4212.948730,2658.000000,4.000000,86.000000,,,,0.000000,4.000000,4.000000,4.000000,4.000000,4.000000,4.000000,4.000000,4.000000,4.000000,4.000000,4.000000,4.000000,4.000000,4.000000,100.000000,,,,,,,,,,,,,,,,
1645711088.526364,1645711088.542465,140.000000,0.000000,4195.897461,4188.846191,4186.538574,4187.820313,4195.256348,4205.000000,4201.922852,4226.538574,4189.871582,4209.230957,4202.948730,4155.897461,4165.512695,4212.948730,3372.000000,4.000000,86.000000,,,,0.000000,4.000000,4.000000,4.000000,4.000000,4.000000,4.000000,4.000000,4.000000,4.000000,4.000000,4.000000,4.000000,4.000000,4.000000,100.000000,,,,,,,,,,,,,,,,
1645711088.530307,1645711088.546405,141.000000,0.000000,4193.461426,4188.077148,4183.077148,4190.128418,4194.871582,4207.563965,4203.461426,4226.922852,4190.000000,4206.153809,4201.282227,4152.948730,4171.666504,4211.153809,3196.000000,4.000000,86.000000,,,,0.000000,4.000000,4.000000,4.000000,4.000000,4.000000,4.000000,4.000000,4.000000,4.000000,4.000000,4.000000,4.000000,4.000000,4.000000,100.000000,,,,,,,,,,,,,,,,
1645711088.534249,1645711088.550246,142.000000,0.000000,4193.974121,4187.692383,4180.384766,4191.666504,4196.794922,4210.384766,4205.256348,4227.563965,4190.256348,4202.436035,4198.333496,4147.436035,4177.436035,4207.563965,2348.000000,4.000000,86.000000,,,,0.000000,4.000000,4.000000,4.000000,4.000000,4.000000,4.000000,4.000000,4.000000,4.000000,4.000000,4.000000,4.000000,4.000000,4.000000,100.000000,,,,,,,,,,,,,,,,
1645711088.538192,1645711088.554186,143.000000,0.000000,4195.641113,4188.205078,4180.512695,4192.179688,4201.410156,4213.205078,4207.307617,4227.948730,4191.153809,4200.897461,4196.153809,4142.563965,4182.051270,4204.358887,2658.000000,4.000000,86.000000,,,,0.000000,4.000000,4.000000,4.000000,4.000000,4.000000,4.000000,4.000000,4.000000,4.000000,4.000000,4.000000,4.000000,4.000000,4.000000,100.000000,,,,,,,,,,,,,,,,
1645711088.542134,1645711088.558126,144.000000,0.000000,4194.743652,4190.256348,4183.205078,4192.307617,4207.179688,4215.384766,4208.589844,4227.692383,4192.307617,4204.102539,4196.666504,4141.282227,4186.282227,4203.717773,3372.000000,4.000000,86.000000,,,,0.000000,4.000000,4.000000,4.000000,4.000000,4.000000,4.000000,4.000000,4.000000,4.000000,4.000000,4.000000,4.000000,4.000000,4.000000,100.000000,,,,,,,,,,,,,,,,
