title:Alex-83D1fJOnVrdCYG9cAWMtsA, start timestamp:1645711698.340380, stop timestamp:1645711724.613067, headset type:EPOCPLUS, headset serial:3B9AEBFF, headset firmware:626, channels:55, sampling rate:eeg_256, samples:6675      , version:2.1, 
Timestamp,EEG.Counter,EEG.Interpolated,EEG.AF3,EEG.F7,EEG.F3,EEG.FC5,EEG.T7,EEG.P7,EEG.O1,EEG.O2,EEG.P8,EEG.T8,EEG.FC6,EEG.F4,EEG.F8,EEG.AF4,EEG.RawCq,EEG.Battery,EEG.BatteryPercent,MarkerIndex,MarkerType,MarkerValueInt,EEG.MarkerHardware,CQ.AF3,CQ.F7,CQ.F3,CQ.FC5,CQ.T7,CQ.P7,CQ.O1,CQ.O2,CQ.P8,CQ.T8,CQ.FC6,CQ.F4,CQ.F8,CQ.AF4,CQ.Overall,EQ.SampleRateQuality,EQ.OVERALL,EQ.AF3,EQ.F7,EQ.F3,EQ.FC5,EQ.T7,EQ.P7,EQ.O1,EQ.O2,EQ.P8,EQ.T8,EQ.FC6,EQ.F4,EQ.F8,EQ.AF4
1645711698.340380,10.000000,0.000000,4225.641113,4214.102539,4211.922852,4206.410156,4217.436035,4209.358887,4215.000000,4237.307617,4206.922852,4223.846191,4234.487305,4171.025879,4224.871582,4213.974121,2046.000000,4.000000,82.000000,,,,0.000000,4.000000,4.000000,4.000000,4.000000,4.000000,4.000000,4.000000,4.000000,4.000000,4.000000,4.000000,4.000000,4.000000,4.000000,100.000000,,,,,,,,,,,,,,,,
1645711698.344220,11.000000,0.000000,4222.051270,4214.615234,4213.717773,4204.358887,4215.769043,4207.820313,4211.410156,4236.153809,4205.641113,4219.871582,4234.743652,4168.717773,4220.000000,4209.102539,2734.000000,4.000000,82.000000,,,,0.000000,4.000000,4.000000,4.000000,4.000000,4.000000,4.000000,4.000000,4.000000,4.000000,4.000000,4.000000,4.000000,4.000000,4.000000,100.000000,,,,,,,,,,,,,,,,
1645711698.348160,12.000000,0.000000,4227.820313,4211.538574,4212.563965,4199.743652,4207.179688,4201.153809,4206.922852,4234.230957,4200.897461,4207.436035,4224.487305,4164.102539,4214.102539,4209.230957,3203.000000,4.000000,82.000000,,,,0.000000,4.000000,4.000000,4.000000,4.000000,4.000000,4.000000,4.000000,4.000000,4.000000,4.000000,4.000000,4.000000,4.000000,4.000000,100.000000,,,,,,,,,,,,,,,,
1645711698.352100,13.000000,0.000000,4231.538574,4210.000000,4211.922852,4201.282227,4202.436035,4198.333496,4206.794922,4235.128418,4196.922852,4199.102539,4214.871582,4162.820313,4213.589844,4214.743652,3268.000000,4.000000,82.000000,,,,0.000000,4.000000,4.000000,4.000000,4.000000,4.000000,4.000000,4.000000,4.000000,4.000000,4.000000,4.000000,4.000000,4.000000,4.000000,100.000000,,,,,,,,,,,,,,,,
1645711698.356040,14.000000,0.000000,4226.153809,4213.205078,4213.205078,4212.563965,4208.717773,4204.487305,4212.051270,4240.128418,4197.563965,4203.717773,4215.641113,4166.410156,4220.769043,4219.487305,2046.000000,4.000000,82.000000,,,,0.000000,4.000000,4.000000,4.000000,4.000000,4.000000,4.000000,4.000000,4.000000,4.000000,4.000000,4.000000,4.000000,4.000000,4.000000,100.000000,,,,,,,,,,,,,,,,
1645711698.359980,15.000000,0.000000,4219.358887,4217.179688,4214.230957,4225.512695,4218.846191,4213.333496,4217.436035,4245.769043,4201.794922,4215.000000,4223.717773,4170.000000,4229.615234,4217.820313,2734.000000,4.000000,82.000000,,,,0.000000,4.000000,4.000000,4.000000,4.000000,4.000000,4.000000,4.000000,4.000000,4.000000,4.000000,4.000000,4.000000,4.000000,4.000000,100.000000,,,,,,,,,,,,,,,,
1645711698.363920,16.000000,0.000000,4222.179688,4215.641113,4211.794922,4227.692383,4220.128418,4214.487305,4217.051270,4246.410156,4204.743652,4218.846191,4227.307617,4167.307617,4231.666504,4211.282227,3203.000000,4.000000,82.000000,,,,0.000000,4.000000,4.000000,4.000000,4.000000,4.000000,4.000000,4.000000,4.000000,4.000000,4.000000,4.000000,4.000000,4.000000,4.000000,100.000000,1.000000,41.666668,1.000000,3.000000,3.000000,3.000000,3.000000,3.000000,3.000000,3.000000,3.000000,1.000000,3.000000,4.000000,3.000000,3.000000
1645711698.367860,17.000000,0.000000,4233.077148,4209.487305,4206.666504,4216.794922,4210.000000,4206.538574,4211.410156,4241.666504,4203.846191,4210.000000,4221.153809,4158.846191,4224.358887,4206.153809,3268.000000,4.000000,82.000000,,,,0.000000,4.000000,4.000000,4.000000,4.000000,4.000000,4.000000,4.000000,4.000000,4.000000,4.000000,4.000000,4.000000,4.000000,4.000000,100.000000,,,,,,,,,,,,,,,,
1645711698.371800,18.000000,0.000000,4238.333496,4206.025879,4202.820313,4203.717773,4199.102539,4198.077148,4206.153809,4236.666504,4201.922852,4198.589844,4211.922852,4151.282227,4214.487305,4206.153809,2046.000000,4.000000,82.000000,,,,0.000000,4.000000,4.000000,4.000000,4.000000,4.000000,4.000000,4.000000,4.000000,4.000000,4.000000,4.000000,4.000000,4.000000,4.000000,100.000000,,,,,,,,,,,,,,,,
1645711698.375741,19.000000,0.000000,4229.871582,4210.128418,4203.205078,4200.000000,4198.461426,4197.179688,4205.128418,4235.897461,4202.307617,4196.410156,4208.846191,4150.512695,4210.512695,4208.077148,2734.000000,4.000000,82.000000,,,,0.000000,4.000000,4.000000,4.000000,4.000000,4.000000,4.000000,4.000000,4.000000,4.000000,4.000000,4.000000,4.000000,4.000000,4.000000,100.000000,,,,,,,,,,,,,,,,
1645711698.379681,20.000000,0.000000,4216.282227,4216.922852,4206.410156,4206.282227,4205.769043,4202.307617,4206.794922,4238.333496,4204.487305,4203.205078,4212.179688,4154.615234,4213.846191,4207.307617,3203.000000,4.000000,82.000000,,,,0.000000,4.000000,4.000000,4.000000,4.000000,4.000000,4.000000,4.000000,4.000000,4.000000,4.000000,4.000000,4.000000,4.000000,4.000000,100.000000,,,,,,,,,,,,,,,,
1645711698.383621,21.000000,0.000000,4212.948730,4217.307617,4208.333496,4213.589844,4210.256348,4206.025879,4207.948730,4239.102539,4204.871582,4208.589844,4215.384766,4157.563965,4218.846191,4203.846191,3268.000000,4.000000,82.000000,,,,0.000000,4.000000,4.000000,4.000000,4.000000,4.000000,4.000000,4.000000,4.000000,4.000000,4.000000,4.000000,4.000000,4.000000,4.000000,100.000000,,,,,,,,,,,,,,,,
1645711698.387561,22.000000,0.000000,4221.794922,4209.487305,4207.692383,4215.000000,4207.820313,4205.641113,4208.333496,4236.922852,4202.307617,4206.410156,4214.487305,4156.666504,4220.384766,4201.153809,2046.000000,4.000000,82.000000,,,,0.000000,4.000000,4.000000,4.000000,4.000000,4.000000,4.000000,4.000000,4.000000,4.000000,4.000000,4.000000,4.000000,4.000000,4.000000,100.000000,,,,,,,,,,,,,,,,
1645711698.391501,23.000000,0.000000,4229.615234,4201.666504,4206.153809,4212.563965,4205.128418,4205.128418,4209.743652,4235.512695,4199.871582,4201.922852,4213.205078,4155.512695,4218.589844,4201.538574,2734.000000,4.000000,82.000000,,,,0.000000,4.000000,4.000000,4.000000,4.000000,4.000000,4.000000,4.000000,4.000000,4.000000,4.000000,4.000000,4.000000,4.000000,4.000000,100.000000,,,,,,,,,,,,,,,,
1645711698.395441,24.000000,0.000000,4226.153809,4202.179688,4205.000000,4211.538574,4209.487305,4208.205078,4212.436035,4238.333496,4200.897461,4203.205078,4215.512695,4157.051270,4216.538574,4203.461426,3203.000000,4.000000,82.000000,,,,0.000000,4.000000,4.000000,4.000000,4.000000,4.000000,4.000000,4.000000,4.000000,4.000000,4.000000,4.000000,4.000000,4.000000,4.000000,100.000000,,,,,,,,,,,,,,,,
1645711698.399381,25.000000,0.000000,4217.820313,4209.871582,4203.846191,4212.563965,4217.563965,4211.794922,4213.974121,4243.846191,4204.615234,4209.358887,4218.846191,4160.384766,4215.384766,4204.358887,3268.000000,4.000000,82.000000,,,,0.000000,4.000000,4.000000,4.000000,4.000000,4.000000,4.000000,4.000000,4.000000,4.000000,4.000000,4.000000,4.000000,4.000000,4.000000,100.000000,,,,,,,,,,,,,,,,
1645711698.403321,26.000000,0.000000,4218.589844,4216.538574,4202.051270,4211.666504,4219.615234,4210.256348,4212.051270,4246.666504,4206.922852,4212.436035,4217.820313,4161.153809,4214.230957,4205.641113,2046.000000,4.000000,82.000000,,,,0.000000,4.000000,4.000000,4.000000,4.000000,4.000000,4.000000,4.000000,4.000000,4.000000,4.000000,4.000000,4.000000,4.000000,4.000000,100.000000,,,,,,,,,,,,,,,,
1645711698.407261,27.000000,0.000000,4230.256348,4218.077148,4201.410156,4208.717773,4213.461426,4203.717773,4208.333496,4244.230957,4205.897461,4209.102539,4212.820313,4158.461426,4212.692383,4209.743652,2734.000000,4.000000,82.000000,,,,0.000000,4.000000,4.000000,4.000000,4.000000,4.000000,4.000000,4.000000,4.000000,4.000000,4.000000,4.000000,4.000000,4.000000,4.000000,100.000000,,,,,,,,,,,,,,,,
1645711698.411202,28.000000,0.000000,4238.717773,4217.692383,4204.358887,4209.102539,4208.077148,4199.743652,4206.922852,4239.871582,4203.846191,4205.256348,4210.897461,4155.769043,4212.820313,4215.384766,3203.000000,4.000000,82.000000,,,,0.000000,4.000000,4.000000,4.000000,4.000000,4.000000,4.000000,4.000000,4.000000,4.000000,4.000000,4.000000,4.000000,4.000000,4.000000,100.000000,,,,,,,,,,,,,,,,
1645711698.415142,29.000000,0.000000,4232.307617,4220.256348,4209.871582,4216.538574,4211.666504,4203.205078,4209.615234,4238.205078,4203.846191,4206.794922,4215.897461,4155.769043,4215.256348,4216.794922,3268.000000,4.000000,82.000000,,,,0.000000,4.000000,4.000000,4.000000,4.000000,4.000000,4.000000,4.000000,4.000000,4.000000,4.000000,4.000000,4.000000,4.000000,4.000000,100.000000,,,,,,,,,,,,,,,,
1645711698.418982,30.000000,0.000000,4217.436035,4224.230957,4213.333496,4226.025879,4220.000000,4209.871582,4212.692383,4239.487305,4205.384766,4210.384766,4221.794922,4157.692383,4216.922852,4210.384766,2046.000000,4.000000,82.000000,,,,0.000000,4.000000,4.000000,4.000000,4.000000,4.000000,4.000000,4.000000,4.000000,4.000000,4.000000,4.000000,4.000000,4.000000,4.000000,100.000000,,,,,,,,,,,,,,,,
1645711698.422922,31.000000,0.000000,4211.410156,4224.102539,4210.769043,4228.717773,4221.794922,4211.282227,4212.307617,4239.871582,4205.641113,4207.820313,4219.358887,4157.820313,4214.102539,4200.000000,2734.000000,4.000000,82.000000,,,,0.000000,4.000000,4.000000,4.000000,4.000000,4.000000,4.000000,4.000000,4.000000,4.000000,4.000000,4.000000,4.000000,4.000000,4.000000,100.000000,,,,,,,,,,,,,,,,
1645711698.426862,32.000000,0.000000,4220.384766,4219.358887,4204.230957,4222.948730,4214.230957,4206.410156,4209.743652,4237.436035,4203.974121,4198.333496,4208.461426,4155.641113,4208.205078,4194.358887,0.000000,4.000000,82.000000,,,,0.000000,4.000000,4.000000,4.000000,4.000000,4.000000,4.000000,4.000000,4.000000,4.000000,4.000000,4.000000,4.000000,4.000000,4.000000,100.000000,,,,,,,,,,,,,,,,
1645711698.430802,33.000000,0.000000,4232.179688,4216.410156,4200.256348,4217.051270,4207.307617,4203.333496,4210.128418,4235.641113,4203.205078,4192.436035,4200.512695,4154.743652,4205.384766,4197.563965,0.000000,4.000000,82.000000,,,,0.000000,4.000000,4.000000,4.000000,4.000000,4.000000,4.000000,4.000000,4.000000,4.000000,4.000000,4.000000,4.000000,4.000000,4.000000,100.000000,,,,,,,,,,,,,,,,
1645711698.434742,34.000000,0.000000,4233.589844,4220.128418,4203.205078,4218.974121,4211.666504,4208.846191,4215.384766,4238.333496,4206.282227,4200.000000,4206.153809,4157.820313,4210.128418,4205.769043,0.000000,4.000000,82.000000,,,,0.000000,4.000000,4.000000,4.000000,4.000000,4.000000,4.000000,4.000000,4.000000,4.000000,4.000000,4.000000,4.000000,4.000000,4.000000,100.000000,,,,,,,,,,,,,,,,
1645711698.438682,35.000000,0.000000,4226.538574,4226.666504,4210.897461,4227.179688,4224.358887,4218.846191,4220.897461,4244.615234,4211.153809,4216.538574,4221.538574,4163.077148,4218.846191,4212.307617,0.000000,4.000000,82.000000,,,,0.000000,4.000000,4.000000,4.000000,4.000000,4.000000,4.000000,4.000000,4.000000,4.000000,4.000000,4.000000,4.000000,4.000000,4.000000,100.000000,,,,,,,,,,,,,,,,
1645711698.442622,36.000000,0.000000,4224.230957,4227.179688,4216.538574,4232.051270,4232.307617,4223.333496,4220.769043,4249.743652,4213.077148,4226.922852,4232.051270,4165.897461,4223.205078,4214.358887,0.000000,4.000000,82.000000,,,,0.000000,4.000000,4.000000,4.000000,4.000000,4.000000,4.000000,4.000000,4.000000,4.000000,4.000000,4.000000,4.000000,4.000000,4.000000,100.000000,,,,,,,,,,,,,,,,
1645711698.446662,37.000000,0.000000,4231.410156,4218.974121,4216.153809,4228.589844,4227.692383,4218.717773,4215.641113,4251.666504,4210.512695,4222.051270,4228.077148,4164.358887,4218.717773,4214.615234,0.000000,4.000000,82.000000,,,,0.000000,4.000000,4.000000,4.000000,4.000000,4.000000,4.000000,4.000000,4.000000,4.000000,4.000000,4.000000,4.000000,4.000000,4.000000,100.000000,,,,,,,,,,,,,,,,
1645711698.450603,38.000000,0.000000,4237.307617,4209.743652,4211.153809,4221.538574,4217.692383,4212.179688,4211.538574,4253.589844,4207.051270,4208.974121,4215.769043,4160.769043,4209.871582,4214.743652,0.000000,4.000000,82.000000,,,,0.000000,4.000000,4.000000,4.000000,4.000000,4.000000,4.000000,4.000000,4.000000,4.000000,4.000000,4.000000,4.000000,4.000000,4.000000,100.000000,,,,,,,,,,,,,,,,
1645711698.454543,39.000000,0.000000,4231.025879,4208.461426,4206.025879,4218.589844,4213.846191,4211.538574,4212.692383,4258.846191,4207.436035,4201.282227,4207.692383,4158.717773,4205.000000,4212.820313,0.000000,4.000000,82.000000,,,,0.000000,4.000000,4.000000,4.000000,4.000000,4.000000,4.000000,4.000000,4.000000,4.000000,4.000000,4.000000,4.000000,4.000000,4.000000,100.000000,,,,,,,,,,,,,,,,
1645711698.458483,40.000000,0.000000,4217.307617,4215.384766,4202.948730,4220.128418,4217.563965,4216.538574,4216.922852,4265.384766,4211.282227,4203.333496,4208.846191,4158.077148,4206.794922,4207.179688,0.000000,4.000000,82.000000,,,,0.000000,4.000000,4.000000,4.000000,4.000000,4.000000,4.000000,4.000000,4.000000,4.000000,4.000000,4.000000,4.000000,4.000000,4.000000,100.000000,,,,,,,,,,,,,,,,
1645711698.462423,41.000000,0.000000,4212.692383,4222.179688,4201.922852,4220.512695,4220.000000,4219.487305,4218.846191,4267.179688,4213.461426,4207.179688,4213.333496,4156.666504,4211.282227,4200.897461,0.000000,4.000000,82.000000,,,,0.000000,4.000000,4.000000,4.000000,4.000000,4.000000,4.000000,4.000000,4.000000,4.000000,4.000000,4.000000,4.000000,4.000000,4.000000,100.000000,,,,,,,,,,,,,,,,
1645711698.466363,42.000000,0.000000,4223.205078,4222.307617,4203.077148,4217.307617,4215.384766,4216.025879,4217.307617,4261.794922,4210.897461,4205.769043,4214.102539,4155.128418,4213.717773,4200.384766,0.000000,4.000000,82.000000,,,,0.000000,4.000000,4.000000,4.000000,4.000000,4.000000,4.000000,4.000000,4.000000,4.000000,4.000000,4.000000,4.000000,4.000000,4.000000,100.000000,,,,,,,,,,,,,,,,
1645711698.470303,43.000000,0.000000,4236.794922,4217.820313,4207.436035,4215.512695,4209.871582,4211.410156,4216.282227,4254.358887,4205.897461,4202.692383,4212.692383,4156.794922,4214.230957,4207.051270,0.000000,4.000000,82.000000,,,,0.000000,4.000000,4.000000,4.000000,4.000000,4.000000,4.000000,4.000000,4.000000,4.000000,4.000000,4.000000,4.000000,4.000000,4.000000,100.000000,,,,,,,,,,,,,,,,
1645711698.474243,44.000000,0.000000,4238.077148,4214.871582,4214.743652,4220.769043,4212.563965,4212.436035,4218.974121,4251.282227,4203.974121,4206.025879,4215.512695,4163.333496,4215.769043,4215.128418,0.000000,4.000000,82.000000,,,,0.000000,4.000000,4.000000,4.000000,4.000000,4.000000,4.000000,4.000000,4.000000,4.000000,4.000000,4.000000,4.000000,4.000000,4.000000,100.000000,,,,,,,,,,,,,,,,
1645711698.478183,45.000000,0.000000,4227.820313,4215.256348,4221.282227,4230.000000,4222.563965,4217.820313,4222.948730,4253.461426,4206.282227,4216.153809,4223.077148,4170.641113,4218.589844,4217.692383,0.000000,4.000000,82.000000,,,,0.000000,4.000000,4.000000,4.000000,4.000000,4.000000,4.000000,4.000000,4.000000,4.000000,4.000000,4.000000,4.000000,4.000000,4.000000,100.000000,,,,,,,,,,,,,,,,
1645711698.482123,46.000000,0.000000,4220.897461,4215.384766,4222.563965,4233.846191,4228.717773,4219.615234,4223.205078,4255.256348,4209.230957,4223.333496,4228.333496,4173.333496,4219.358887,4214.871582,0.000000,4.000000,82.000000,,,,0.000000,4.000000,4.000000,4.000000,4.000000,4.000000,4.000000,4.000000,4.000000,4.000000,4.000000,4.000000,4.000000,4.000000,4.000000,100.000000,,,,,,,,,,,,,,,,
1645711698.486064,47.000000,0.000000,4226.410156,4212.820313,4217.692383,4227.692383,4223.974121,4213.974121,4218.974121,4252.436035,4209.487305,4220.128418,4225.897461,4169.743652,4216.025879,4212.692383,0.000000,4.000000,82.000000,,,,0.000000,4.000000,4.000000,4.000000,4.000000,4.000000,4.000000,4.000000,4.000000,4.000000,4.000000,4.000000,4.000000,4.000000,4.000000,100.000000,,,,,,,,,,,,,,,,
1645711698.490004,48.000000,0.000000,4235.897461,4211.025879,4211.666504,4218.461426,4214.615234,4207.307617,4215.128418,4247.563965,4208.333496,4211.282227,4219.743652,4164.615234,4211.666504,4215.641113,0.000000,4.000000,82.000000,,,,0.000000,4.000000,4.000000,4.000000,4.000000,4.000000,4.000000,4.000000,4.000000,4.000000,4.000000,4.000000,4.000000,4.000000,4.000000,100.000000,,,,,,,,,,,,,,,,
1645711698.493944,49.000000,0.000000,4235.897461,4215.384766,4209.871582,4216.282227,4212.820313,4208.077148,4215.897461,4246.025879,4209.358887,4207.692383,4218.589844,4163.205078,4211.282227,4220.769043,0.000000,4.000000,82.000000,,,,0.000000,4.000000,4.000000,4.000000,4.000000,4.000000,4.000000,4.000000,4.000000,4.000000,4.000000,4.000000,4.000000,4.000000,4.000000,100.000000,,,,,,,,,,,,,,,,
1645711698.497884,50.000000,0.000000,4226.666504,4224.358887,4213.205078,4222.179688,4220.897461,4215.512695,4219.230957,4248.974121,4212.820313,4212.692383,4223.846191,4166.282227,4214.615234,4222.436035,0.000000,4.000000,82.000000,,,,0.000000,4.000000,4.000000,4.000000,4.000000,4.000000,4.000000,4.000000,4.000000,4.000000,4.000000,4.000000,4.000000,4.000000,4.000000,100.000000,,,,,,,,,,,,,,,,
1645711698.501824,51.000000,0.000000,4221.410156,4230.256348,4217.436035,4227.051270,4228.717773,4220.128418,4219.871582,4251.666504,4214.871582,4217.948730,4228.589844,4169.615234,4217.051270,4219.615234,0.000000,4.000000,82.000000,,,,0.000000,4.000000,4.000000,4.000000,4.000000,4.000000,4.000000,4.000000,4.000000,4.000000,4.000000,4.000000,4.000000,4.000000,4.000000,100.000000,,,,,,,,,,,,,,,,
1645711698.505764,52.000000,0.000000,4228.205078,4227.563965,4218.717773,4223.846191,4227.051270,4215.769043,4216.025879,4249.871582,4212.436035,4214.615234,4226.666504,4169.615234,4214.358887,4216.794922,0.000000,4.000000,82.000000,,,,0.000000,4.000000,4.000000,4.000000,4.000000,4.000000,4.000000,4.000000,4.000000,4.000000,4.000000,4.000000,4.000000,4.000000,4.000000,100.000000,,,,,,,,,,,,,,,,
1645711698.509704,53.000000,0.000000,4237.948730,4220.384766,4217.563965,4216.666504,4219.487305,4207.692383,4212.051270,4245.897461,4207.436035,4205.256348,4221.282227,4167.436035,4208.461426,4217.948730,0.000000,4.000000,82.000000,,,,0.000000,4.000000,4.000000,4.000000,4.000000,4.000000,4.000000,4.000000,4.000000,4.000000,4.000000,4.000000,4.000000,4.000000,4.000000,100.000000,,,,,,,,,,,,,,,,
1645711698.513644,54.000000,0.000000,4236.794922,4217.436035,4216.794922,4215.769043,4217.179688,4206.410156,4211.794922,4244.871582,4205.000000,4200.128418,4219.615234,4166.922852,4204.743652,4220.512695,0.000000,4.000000,82.000000,,,,0.000000,4.000000,4.000000,4.000000,4.000000,4.000000,4.000000,4.000000,4.000000,4.000000,4.000000,4.000000,4.000000,4.000000,4.000000,100.000000,,,,,,,,,,,,,,,,
1645711698.517584,55.000000,0.000000,4225.000000,4221.153809,4218.077148,4225.000000,4224.102539,4214.102539,4214.871582,4248.077148,4207.307617,4203.333496,4222.948730,4168.333496,4205.769043,4219.615234,0.000000,4.000000,82.000000,,,,0.000000,4.000000,4.000000,4.000000,4.000000,4.000000,4.000000,4.000000,4.000000,4.000000,4.000000,4.000000,4.000000,4.000000,4.000000,100.000000,,,,,,,,,,,,,,,,
1645711698.521624,56.000000,0.000000,4217.692383,4225.384766,4219.743652,4237.436035,4232.307617,4222.820313,4217.563965,4251.794922,4211.025879,4208.077148,4224.102539,4168.846191,4208.589844,4214.615234,0.000000,4.000000,82.000000,,,,0.000000,4.000000,4.000000,4.000000,4.000000,4.000000,4.000000,4.000000,4.000000,4.000000,4.000000,4.000000,4.000000,4.000000,4.000000,100.000000,,,,,,,,,,,,,,,,
1645711698.525564,57.000000,0.000000,4225.128418,4223.717773,4220.000000,4243.846191,4232.948730,4224.487305,4218.333496,4251.922852,4212.179688,4206.282227,4218.846191,4165.769043,4209.230957,4210.256348,0.000000,4.000000,82.000000,,,,0.000000,4.000000,4.000000,4.000000,4.000000,4.000000,4.000000,4.000000,4.000000,4.000000,4.000000,4.000000,4.000000,4.000000,4.000000,100.000000,,,,,,,,,,,,,,,,
1645711698.529505,58.000000,0.000000,4239.230957,4218.589844,4219.358887,4243.333496,4227.948730,4220.000000,4219.487305,4250.256348,4211.153809,4200.000000,4212.179688,4161.538574,4208.205078,4210.897461,0.000000,4.000000,82.000000,,,,0.000000,4.000000,4.000000,4.000000,4.000000,4.000000,4.000000,4.000000,4.000000,4.000000,4.000000,4.000000,4.000000,4.000000,4.000000,100.000000,,,,,,,,,,,,,,,,
1645711698.533445,59.000000,0.000000,4242.820313,4217.948730,4219.615234,4241.538574,4226.794922,4217.692383,4223.077148,4251.282227,4211.282227,4199.487305,4213.077148,4159.743652,4208.717773,4215.000000,0.000000,4.000000,82.000000,,,,0.000000,4.000000,4.000000,4.000000,4.000000,4.000000,4.000000,4.000000,4.000000,4.000000,4.000000,4.000000,4.000000,4.000000,4.000000,100.000000,,,,,,,,,,,,,,,,
1645711698.537385,60.000000,0.000000,4231.666504,4223.974121,4219.871582,4241.282227,4232.563965,4221.153809,4227.179688,4255.641113,4214.230957,4208.589844,4221.410156,4161.025879,4211.153809,4216.794922,0.000000,4.000000,82.000000,,,,0.000000,4.000000,4.000000,4.000000,4.000000,4.000000,4.000000,4.000000,4.000000,4.000000,4.000000,4.000000,4.000000,4.000000,4.000000,100.000000,,,,,,,,,,,,,,,,
1645711698.541325,61.000000,0.000000,4220.128418,4229.743652,4217.436035,4238.846191,4237.436035,4225.256348,4227.948730,4258.461426,4216.666504,4218.589844,4226.922852,4161.794922,4211.666504,4214.487305,0.000000,4.000000,82.000000,,,,0.000000,4.000000,4.000000,4.000000,4.000000,4.000000,4.000000,4.000000,4.000000,4.000000,4.000000,4.000000,4.000000,4.000000,4.000000,100.000000,,,,,,,,,,,,,,,,
1645711698.545265,62.000000,0.000000,4222.051270,4228.333496,4212.179688,4231.282227,4233.205078,4223.589844,4224.358887,4255.128418,4215.128418,4218.461426,4221.282227,4159.871582,4207.179688,4212.307617,0.000000,4.000000,82.000000,,,,0.000000,4.000000,4.000000,4.000000,4.000000,4.000000,4.000000,4.000000,4.000000,4.000000,4.000000,4.000000,4.000000,4.000000,4.000000,100.000000,,,,,,,,,,,,,,,,
1645711698.549205,63.000000,0.000000,4233.333496,4221.794922,4208.077148,4223.205078,4223.205078,4217.820313,4220.256348,4247.948730,4211.025879,4208.974121,4209.102539,4157.307617,4200.256348,4214.230957,0.000000,4.000000,82.000000,,,,0.000000,4.000000,4.000000,4.000000,4.000000,4.000000,4.000000,4.000000,4.000000,4.000000,4.000000,4.000000,4.000000,4.000000,4.000000,100.000000,,,,,,,,,,,,,,,,
1645711698.553145,64.000000,0.000000,4237.179688,4219.230957,4209.102539,4223.333496,4219.230957,4215.641113,4220.128418,4244.102539,4209.487305,4202.051270,4202.948730,4157.692383,4197.436035,4217.563965,0.000000,4.000000,82.000000,,,,0.000000,4.000000,4.000000,4.000000,4.000000,4.000000,4.000000,4.000000,4.000000,4.000000,4.000000,4.000000,4.000000,4.000000,4.000000,100.000000,,,,,,,,,,,,,,,,
1645711698.557085,65.000000,0.000000,4225.769043,4224.615234,4214.743652,4232.820313,4226.410156,4220.000000,4223.077148,4247.179688,4212.948730,4206.153809,4208.589844,4160.256348,4201.153809,4215.641113,0.000000,4.000000,82.000000,,,,0.000000,4.000000,4.000000,4.000000,4.000000,4.000000,4.000000,4.000000,4.000000,4.000000,4.000000,4.000000,4.000000,4.000000,4.000000,100.000000,,,,,,,,,,,,,,,,
1645711698.561025,66.000000,0.000000,4211.666504,4231.153809,4219.230957,4242.820313,4235.641113,4224.487305,4223.974121,4252.563965,4217.563965,4215.897461,4217.563965,4160.769043,4206.922852,4206.794922,0.000000,4.000000,82.000000,,,,0.000000,4.000000,4.000000,4.000000,4.000000,4.000000,4.000000,4.000000,4.000000,4.000000,4.000000,4.000000,4.000000,4.000000,4.000000,100.000000,,,,,,,,,,,,,,,,
1645711698.564966,67.000000,0.000000,4211.794922,4230.256348,4218.589844,4243.461426,4234.615234,4221.794922,4219.871582,4252.307617,4217.436035,4218.974121,4218.333496,4156.666504,4208.589844,4198.205078,0.000000,4.000000,82.000000,,,,0.000000,4.000000,4.000000,4.000000,4.000000,4.000000,4.000000,4.000000,4.000000,4.000000,4.000000,4.000000,4.000000,4.000000,4.000000,100.000000,,,,,,,,,,,,,,,,
1645711698.568906,68.000000,0.000000,4226.153809,4223.077148,4214.230957,4235.769043,4223.589844,4214.102539,4214.615234,4245.128418,4212.307617,4212.051270,4210.897461,4151.282227,4205.256348,4199.230957,0.000000,4.000000,82.000000,,,,0.000000,4.000000,4.000000,4.000000,4.000000,4.000000,4.000000,4.000000,4.000000,4.000000,4.000000,4.000000,4.000000,4.000000,4.000000,100.000000,,,,,,,,,,,,,,,,
1645711698.572846,69.000000,0.000000,4238.077148,4219.487305,4212.179688,4230.512695,4215.512695,4210.769043,4214.358887,4237.307617,4207.948730,4204.615234,4207.179688,4151.153809,4202.692383,4210.897461,0.000000,4.000000,82.000000,,,,0.000000,4.000000,4.000000,4.000000,4.000000,4.000000,4.000000,4.000000,4.000000,4.000000,4.000000,4.000000,4.000000,4.000000,4.000000,100.000000,,,,,,,,,,,,,,,,
1645711698.576786,70.000000,0.000000,4235.128418,4225.769043,4215.384766,4234.615234,4220.641113,4217.051270,4220.000000,4235.769043,4209.487305,4206.538574,4215.769043,4158.205078,4206.153809,4224.358887,0.000000,4.000000,82.000000,,,,0.000000,4.000000,4.000000,4.000000,4.000000,4.000000,4.000000,4.000000,4.000000,4.000000,4.000000,4.000000,4.000000,4.000000,4.000000,100.000000,,,,,,,,,,,,,,,,
1645711698.580726,71.000000,0.000000,4224.487305,4236.538574,4220.897461,4243.846191,4233.589844,4226.538574,4225.897461,4240.641113,4215.769043,4216.025879,4230.641113,4167.563965,4213.589844,4230.769043,0.000000,4.000000,82.000000,,,,0.000000,4.000000,4.000000,4.000000,4.000000,4.000000,4.000000,4.000000,4.000000,4.000000,4.000000,4.000000,4.000000,4.000000,4.000000,100.000000,,,,,,,,,,,,,,,,
1645711698.584666,72.000000,0.000000,4222.179688,4240.769043,4224.102539,4247.820313,4239.871582,4229.487305,4226.410156,4246.153809,4220.512695,4222.948730,4238.333496,4172.307617,4218.846191,4229.871582,0.000000,4.000000,82.000000,1,1,3,0.000000,4.000000,4.000000,4.000000,4.000000,4.000000,4.000000,4.000000,4.000000,4.000000,4.000000,4.000000,4.000000,4.000000,4.000000,100.000000,,,,,,,,,,,,,,,,
1645711698.588606,73.000000,0.000000,4231.153809,4235.000000,4222.948730,4243.589844,4233.077148,4223.717773,4222.307617,4247.436035,4220.000000,4222.307617,4232.948730,4170.769043,4218.461426,4227.436035,0.000000,4.000000,82.000000,,,,0.000000,4.000000,4.000000,4.000000,4.000000,4.000000,4.000000,4.000000,4.000000,4.000000,4.000000,4.000000,4.000000,4.000000,4.000000,100.000000,,,,,,,,,,,,,,,,
1645711698.592446,74.000000,0.000000,4237.820313,4226.153809,4219.743652,4237.307617,4221.666504,4216.538574,4218.846191,4245.256348,4216.410156,4219.230957,4221.922852,4166.794922,4214.487305,4226.666504,0.000000,4.000000,82.000000,,,,0.000000,4.000000,4.000000,4.000000,4.000000,4.000000,4.000000,4.000000,4.000000,4.000000,4.000000,4.000000,4.000000,4.000000,4.000000,100.000000,,,,,,,,,,,,,,,,
1645711698.596386,75.000000,0.000000,4231.282227,4222.436035,4216.153809,4234.487305,4216.153809,4214.487305,4218.717773,4242.692383,4214.230957,4219.615234,4215.384766,4164.230957,4211.153809,4224.615234,0.000000,4.000000,82.000000,,,,0.000000,4.000000,4.000000,4.000000,4.000000,4.000000,4.000000,4.000000,4.000000,4.000000,4.000000,4.000000,4.000000,4.000000,4.000000,100.000000,,,,,,,,,,,,,,,,
1645711698.600327,76.000000,0.000000,4218.461426,4223.846191,4211.922852,4233.205078,4216.922852,4215.384766,4219.743652,4240.769043,4214.230957,4220.641113,4215.256348,4162.563965,4209.230957,4218.077148,0.000000,4.000000,82.000000,,,,0.000000,4.000000,4.000000,4.000000,4.000000,4.000000,4.000000,4.000000,4.000000,4.000000,4.000000,4.000000,4.000000,4.000000,4.000000,100.000000,,,,,,,,,,,,,,,,
1645711698.604267,77.000000,0.000000,4215.769043,4223.461426,4206.666504,4227.820313,4216.153809,4213.205078,4217.692383,4238.205078,4213.717773,4215.769043,4215.897461,4159.871582,4207.307617,4210.128418,0.000000,4.000000,82.000000,,,,0.000000,4.000000,4.000000,4.000000,4.000000,4.000000,4.000000,4.000000,4.000000,4.000000,4.000000,4.000000,4.000000,4.000000,4.000000,100.000000,,,,,,,,,,,,,,,,
1645711698.608207,78.000000,0.000000,4226.794922,4218.461426,4202.692383,4218.846191,4210.897461,4207.563965,4213.205078,4235.641113,4211.922852,4205.897461,4215.000000,4157.563965,4205.384766,4207.692383,0.000000,4.000000,82.000000,,,,0.000000,4.000000,4.000000,4.000000,4.000000,4.000000,4.000000,4.000000,4.000000,4.000000,4.000000,4.000000,4.000000,4.000000,4.000000,100.000000,,,,,,,,,,,,,,,,
1645711698.612147,79.000000,0.000000,4237.307617,4213.077148,4203.333496,4213.974121,4207.179688,4205.000000,4210.256348,4236.538574,4211.794922,4200.769043,4216.025879,4159.615234,4206.282227,4212.692383,0.000000,4.000000,82.000000,,,,0.000000,4.000000,4.000000,4.000000,4.000000,4.000000,4.000000,4.000000,4.000000,4.000000,4.000000,4.000000,4.000000,4.000000,4.000000,100.000000,,,,,,,,,,,,,,,,
1645711698.616087,80.000000,0.000000,4234.102539,4213.333496,4208.461426,4218.333496,4210.897461,4209.230957,4211.282227,4242.051270,4215.384766,4207.307617,4221.410156,4166.282227,4210.897461,4219.358887,0.000000,4.000000,82.000000,,,,0.000000,4.000000,4.000000,4.000000,4.000000,4.000000,4.000000,4.000000,4.000000,4.000000,4.000000,4.000000,4.000000,4.000000,4.000000,100.000000,,,,,,,,,,,,,,,,
1645711698.620027,81.000000,0.000000,4222.436035,4218.461426,4213.717773,4227.563965,4217.820313,4215.128418,4213.974121,4248.205078,4220.256348,4219.102539,4226.410156,4173.333496,4215.512695,4220.897461,0.000000,4.000000,82.000000,,,,0.000000,4.000000,4.000000,4.000000,4.000000,4.000000,4.000000,4.000000,4.000000,4.000000,4.000000,4.000000,4.000000,4.000000,4.000000,100.000000,,,,,,,,,,,,,,,,
1645711698.623967,82.000000,0.000000,4217.692383,4222.436035,4215.384766,4232.307617,4218.846191,4215.769043,4215.000000,4249.230957,4222.051270,4223.077148,4223.717773,4175.897461,4215.769043,4217.563965,0.000000,4.000000,82.000000,,,,0.000000,4.000000,4.000000,4.000000,4.000000,4.000000,4.000000,4.000000,4.000000,4.000000,4.000000,4.000000,4.000000,4.000000,4.000000,100.000000,,,,,,,,,,,,,,,,
1645711698.627907,83.000000,0.000000,4224.871582,4222.179688,4214.102539,4230.384766,4213.333496,4211.538574,4214.871582,4244.743652,4219.871582,4215.512695,4214.871582,4174.230957,4212.436035,4215.641113,0.000000,4.000000,82.000000,,,,0.000000,4.000000,4.000000,4.000000,4.000000,4.000000,4.000000,4.000000,4.000000,4.000000,4.000000,4.000000,4.000000,4.000000,4.000000,100.000000,,,,,,,,,,,,,,,,
1645711698.631847,84.000000,0.000000,4232.692383,4221.282227,4213.974121,4228.333496,4210.512695,4210.641113,4216.538574,4240.769043,4217.563965,4207.051270,4210.384766,4172.820313,4210.897461,4218.077148,0.000000,4.000000,82.000000,,,,0.000000,4.000000,4.000000,4.000000,4.000000,4.000000,4.000000,4.000000,4.000000,4.000000,4.000000,4.000000,4.000000,4.000000,4.000000,100.000000,,,,,,,,,,,,,,,,
1645711698.635788,85.000000,0.000000,4230.256348,4223.461426,4217.051270,4232.179688,4217.051270,4217.307617,4220.128418,4242.307617,4218.846191,4209.230957,4217.307617,4174.487305,4214.743652,4221.794922,0.000000,4.000000,82.000000,,,,0.000000,4.000000,4.000000,4.000000,4.000000,4.000000,4.000000,4.000000,4.000000,4.000000,4.000000,4.000000,4.000000,4.000000,4.000000,100.000000,,,,,,,,,,,,,,,,
1645711698.639728,86.000000,0.000000,4222.820313,4226.410156,4220.897461,4238.333496,4226.666504,4225.256348,4221.538574,4247.563965,4222.307617,4220.512695,4228.974121,4176.410156,4221.025879,4222.179688,0.000000,4.000000,82.000000,,,,0.000000,4.000000,4.000000,4.000000,4.000000,4.000000,4.000000,4.000000,4.000000,4.000000,4.000000,4.000000,4.000000,4.000000,4.000000,100.000000,,,,,,,,,,,,,,,,
1645711698.643668,87.000000,0.000000,4223.461426,4225.128418,4221.922852,4238.974121,4227.051270,4225.000000,4217.948730,4250.641113,4223.589844,4228.717773,4232.948730,4175.000000,4223.333496,4219.615234,0.000000,4.000000,82.000000,,,,0.000000,4.000000,4.000000,4.000000,4.000000,4.000000,4.000000,4.000000,4.000000,4.000000,4.000000,4.000000,4.000000,4.000000,4.000000,100.000000,,,,,,,,,,,,,,,,
1645711698.647608,88.000000,0.000000,4233.333496,4220.256348,4220.384766,4232.820313,4215.897461,4216.153809,4212.820313,4248.974121,4221.282227,4226.410156,4225.769043,4170.512695,4220.000000,4218.077148,0.000000,4.000000,82.000000,,,,0.000000,4.000000,4.000000,4.000000,4.000000,4.000000,4.000000,4.000000,4.000000,4.000000,4.000000,4.000000,4.000000,4.000000,4.000000,100.000000,,,,,,,,,,,,,,,,
1645711698.651548,89.000000,0.000000,4238.846191,4218.461426,4220.256348,4227.692383,4205.384766,4208.717773,4212.179688,4245.769043,4218.846191,4218.589844,4217.436035,4167.307617,4215.769043,4219.615234,0.000000,4.000000,82.000000,,,,0.000000,4.000000,4.000000,4.000000,4.000000,4.000000,4.000000,4.000000,4.000000,4.000000,4.000000,4.000000,4.000000,4.000000,4.000000,100.000000,,,,,,,,,,,,,,,,
1645711698.655488,90.000000,0.000000,4230.641113,4224.230957,4222.948730,4230.000000,4207.051270,4210.769043,4217.436035,4245.256348,4219.743652,4214.615234,4217.563965,4168.461426,4215.641113,4221.282227,0.000000,4.000000,82.000000,,,,0.000000,4.000000,4.000000,4.000000,4.000000,4.000000,4.000000,4.000000,4.000000,4.000000,4.000000,4.000000,4.000000,4.000000,4.000000,100.000000,,,,,,,,,,,,,,,,
1645711698.659428,91.000000,0.000000,4217.563965,4232.051270,4225.897461,4236.025879,4217.179688,4218.333496,4223.333496,4246.666504,4222.563965,4215.641113,4223.333496,4171.282227,4218.205078,4220.384766,0.000000,4.000000,82.000000,,,,0.000000,4.000000,4.000000,4.000000,4.000000,4.000000,4.000000,4.000000,4.000000,4.000000,4.000000,4.000000,4.000000,4.000000,4.000000,100.000000,,,,,,,,,,,,,,,,
1645711698.663468,92.000000,0.000000,4216.666504,4232.563965,4225.000000,4236.666504,4222.563965,4221.282227,4224.230957,4245.897461,4223.077148,4215.384766,4224.358887,4171.025879,4218.461426,4219.102539,0.000000,4.000000,82.000000,,,,0.000000,4.000000,4.000000,4.000000,4.000000,4.000000,4.000000,4.000000,4.000000,4.000000,4.000000,4.000000,4.000000,4.000000,4.000000,100.000000,,,,,,,,,,,,,,,,
1645711698.667408,93.000000,0.000000,4230.512695,4223.974121,4221.025879,4230.256348,4217.820313,4216.153809,4220.897461,4242.692383,4220.128418,4211.922852,4217.307617,4167.563965,4214.871582,4220.897461,0.000000,4.000000,82.000000,,,,0.000000,4.000000,4.000000,4.000000,4.000000,4.000000,4.000000,4.000000,4.000000,4.000000,4.000000,4.000000,4.000000,4.000000,4.000000,100.000000,,,,,,,,,,,,,,,,
1645711698.671348,94.000000,0.000000,4242.820313,4215.000000,4218.461426,4225.000000,4211.538574,4210.769043,4218.846191,4240.897461,4217.820313,4211.410156,4210.897461,4165.769043,4211.666504,4224.871582,0.000000,4.000000,82.000000,,,,0.000000,4.000000,4.000000,4.000000,4.000000,4.000000,4.000000,4.000000,4.000000,4.000000,4.000000,4.000000,4.000000,4.000000,4.000000,100.000000,,,,,,,,,,,,,,,,
1645711698.675288,95.000000,0.000000,4239.871582,4214.487305,4220.769043,4228.333496,4213.333496,4213.077148,4220.512695,4243.974121,4220.000000,4219.230957,4214.743652,4168.974121,4213.333496,4225.769043,0.000000,4.000000,82.000000,,,,0.000000,4.000000,4.000000,4.000000,4.000000,4.000000,4.000000,4.000000,4.000000,4.000000,4.000000,4.000000,4.000000,4.000000,4.000000,100.000000,,,,,,,,,,,,,,,,
1645711698.679229,96.000000,0.000000,4227.820313,4221.538574,4225.769043,4237.179688,4220.512695,4220.000000,4222.307617,4248.974121,4225.000000,4229.358887,4226.282227,4174.615234,4218.717773,4221.538574,0.000000,4.000000,82.000000,,,,0.000000,4.000000,4.000000,4.000000,4.000000,4.000000,4.000000,4.000000,4.000000,4.000000,4.000000,4.000000,4.000000,4.000000,4.000000,100.000000,,,,,,,,,,,,,,,,
1645711698.683169,97.000000,0.000000,4223.974121,4227.051270,4228.846191,4241.282227,4221.538574,4222.051270,4219.487305,4249.871582,4227.051270,4230.384766,4233.974121,4177.179688,4222.436035,4218.333496,0.000000,4.000000,82.000000,,,,0.000000,4.000000,4.000000,4.000000,4.000000,4.000000,4.000000,4.000000,4.000000,4.000000,4.000000,4.000000,4.000000,4.000000,4.000000,100.000000,,,,,,,,,,,,,,,,
1645711698.687109,98.000000,0.000000,4233.589844,4225.769043,4228.461426,4236.538574,4212.820313,4215.512695,4213.077148,4245.641113,4223.717773,4219.358887,4230.897461,4174.871582,4221.538574,4222.948730,0.000000,4.000000,82.000000,2,1,3,0.000000,4.000000,4.000000,4.000000,4.000000,4.000000,4.000000,4.000000,4.000000,4.000000,4.000000,4.000000,4.000000,4.000000,4.000000,100.000000,,,,,,,,,,,,,,,,
1645711698.691049,99.000000,0.000000,4242.948730,4221.922852,4226.922852,4229.743652,4204.230957,4208.077148,4209.102539,4241.666504,4218.077148,4207.051270,4223.077148,4171.794922,4218.846191,4234.358887,0.000000,4.000000,82.000000,,,,0.000000,4.000000,4.000000,4.000000,4.000000,4.000000,4.000000,4.000000,4.000000,4.000000,4.000000,4.000000,4.000000,4.000000,4.000000,100.000000,,,,,,,,,,,,,,,,
1645711698.694989,100.000000,0.000000,4238.846191,4222.436035,4227.051270,4230.000000,4206.666504,4208.333496,4211.153809,4243.461426,4215.641113,4206.282227,4220.641113,4171.922852,4218.461426,4242.820313,0.000000,4.000000,82.000000,,,,0.000000,4.000000,4.000000,4.000000,4.000000,4.000000,4.000000,4.000000,4.000000,4.000000,4.000000,4.000000,4.000000,4.000000,4.000000,100.000000,,,,,,,,,,,,,,,,
1645711698.698929,101.000000,0.000000,4226.794922,4227.307617,4227.820313,4237.563965,4217.563965,4214.615234,4215.641113,4249.487305,4217.179688,4216.153809,4225.256348,4174.871582,4220.128418,4240.128418,0.000000,4.000000,82.000000,,,,0.000000,4.000000,4.000000,4.000000,4.000000,4.000000,4.000000,4.000000,4.000000,4.000000,4.000000,4.000000,4.000000,4.000000,4.000000,100.000000,,,,,,,,,,,,,,,,
1645711698.702869,102.000000,0.000000,4223.974121,4229.743652,4226.922852,4243.974121,4223.717773,4218.205078,4216.666504,4252.948730,4219.871582,4224.743652,4228.974121,4176.922852,4220.769043,4229.615234,0.000000,4.000000,82.000000,,,,0.000000,4.000000,4.000000,4.000000,4.000000,4.000000,4.000000,4.000000,4.000000,4.000000,4.000000,4.000000,4.000000,4.000000,4.000000,100.000000,,,,,,,,,,,,,,,,
1645711698.706809,103.000000,0.000000,4235.384766,4226.153809,4224.487305,4243.205078,4218.333496,4215.128418,4213.974121,4250.897461,4220.384766,4223.077148,4226.153809,4176.410156,4218.717773,4221.794922,0.000000,4.000000,82.000000,,,,0.000000,4.000000,4.000000,4.000000,4.000000,4.000000,4.000000,4.000000,4.000000,4.000000,4.000000,4.000000,4.000000,4.000000,4.000000,100.000000,,,,,,,,,,,,,,,,
1645711698.710749,104.000000,0.000000,4246.282227,4221.666504,4223.461426,4238.461426,4209.358887,4211.153809,4212.179688,4247.436035,4219.615234,4216.153809,4220.384766,4175.256348,4216.666504,4222.307617,0.000000,4.000000,82.000000,,,,0.000000,4.000000,4.000000,4.000000,4.000000,4.000000,4.000000,4.000000,4.000000,4.000000,4.000000,4.000000,4.000000,4.000000,4.000000,100.000000,,,,,,,,,,,,,,,,
1645711698.714690,105.000000,0.000000,4241.025879,4222.179688,4225.128418,4235.769043,4208.461426,4213.333496,4214.615234,4247.820313,4220.512695,4213.974121,4218.717773,4175.512695,4217.436035,4226.410156,0.000000,4.000000,82.000000,,,,0.000000,4.000000,4.000000,4.000000,4.000000,4.000000,4.000000,4.000000,4.000000,4.000000,4.000000,4.000000,4.000000,4.000000,4.000000,100.000000,,,,,,,,,,,,,,,,
1645711698.718630,106.000000,0.000000,4223.974121,4226.282227,4226.794922,4235.769043,4215.641113,4219.487305,4218.077148,4251.410156,4222.436035,4217.948730,4220.641113,4175.000000,4219.487305,4225.769043,0.000000,4.000000,82.000000,,,,0.000000,4.000000,4.000000,4.000000,4.000000,4.000000,4.000000,4.000000,4.000000,4.000000,4.000000,4.000000,4.000000,4.000000,4.000000,100.000000,,,,,,,,,,,,,,,,
1645711698.722570,107.000000,0.000000,4213.589844,4226.153809,4224.487305,4233.205078,4219.487305,4220.384766,4217.436035,4252.307617,4222.179688,4219.230957,4219.358887,4170.384766,4218.077148,4218.846191,0.000000,4.000000,82.000000,,,,0.000000,4.000000,4.000000,4.000000,4.000000,4.000000,4.000000,4.000000,4.000000,4.000000,4.000000,4.000000,4.000000,4.000000,4.000000,100.000000,,,,,,,,,,,,,,,,
1645711698.726510,108.000000,0.000000,4219.743652,4218.077148,4217.948730,4226.282227,4212.948730,4212.692383,4212.563965,4247.436035,4217.948730,4211.922852,4211.922852,4162.307617,4212.051270,4212.179688,0.000000,4.000000,82.000000,,,,0.000000,4.000000,4.000000,4.000000,4.000000,4.000000,4.000000,4.000000,4.000000,4.000000,4.000000,4.000000,4.000000,4.000000,4.000000,100.000000,,,,,,,,,,,,,,,,
1645711698.730450,109.000000,0.000000,4230.641113,4208.077148,4211.794922,4219.871582,4203.205078,4204.230957,4209.487305,4241.153809,4213.205078,4202.563965,4205.000000,4156.153809,4206.153809,4211.794922,0.000000,4.000000,82.000000,,,,0.000000,4.000000,4.000000,4.000000,4.000000,4.000000,4.000000,4.000000,4.000000,4.000000,4.000000,4.000000,4.000000,4.000000,4.000000,100.000000,,,,,,,,,,,,,,,,
1645711698.734390,110.000000,0.000000,4229.487305,4204.615234,4209.615234,4219.230957,4202.051270,4204.615234,4212.307617,4240.512695,4212.820313,4201.794922,4207.051270,4155.897461,4206.025879,4216.025879,0.000000,4.000000,82.000000,,,,0.000000,4.000000,4.000000,4.000000,4.000000,4.000000,4.000000,4.000000,4.000000,4.000000,4.000000,4.000000,4.000000,4.000000,4.000000,100.000000,,,,,,,,,,,,,,,,
1645711698.738230,111.000000,0.000000,4216.282227,4208.717773,4210.128418,4221.922852,4210.512695,4212.436035,4217.692383,4245.897461,4217.436035,4210.000000,4216.025879,4159.743652,4210.512695,4218.077148,0.000000,4.000000,82.000000,,,,0.000000,4.000000,4.000000,4.000000,4.000000,4.000000,4.000000,4.000000,4.000000,4.000000,4.000000,4.000000,4.000000,4.000000,4.000000,100.000000,,,,,,,,,,,,,,,,
1645711698.742170,112.000000,0.000000,4207.820313,4213.077148,4209.358887,4220.256348,4216.922852,4217.436035,4218.974121,4250.256348,4221.794922,4216.410156,4221.153809,4161.538574,4213.589844,4215.128418,0.000000,4.000000,82.000000,,,,0.000000,4.000000,4.000000,4.000000,4.000000,4.000000,4.000000,4.000000,4.000000,4.000000,4.000000,4.000000,4.000000,4.000000,4.000000,100.000000,,,,,,,,,,,,,,,,
1645711698.746110,113.000000,0.000000,4215.256348,4211.538574,4206.153809,4211.794922,4212.307617,4213.077148,4214.487305,4248.333496,4221.153809,4212.051270,4216.282227,4158.717773,4211.282227,4211.153809,0.000000,4.000000,82.000000,,,,0.000000,4.000000,4.000000,4.000000,4.000000,4.000000,4.000000,4.000000,4.000000,4.000000,4.000000,4.000000,4.000000,4.000000,4.000000,100.000000,,,,,,,,,,,,,,,,
1645711698.750051,114.000000,0.000000,4228.846191,4207.051270,4203.589844,4204.102539,4202.051270,4205.128418,4209.487305,4242.820313,4216.794922,4202.179688,4208.205078,4155.000000,4207.179688,4211.153809,0.000000,4.000000,82.000000,,,,0.000000,4.000000,4.000000,4.000000,4.000000,4.000000,4.000000,4.000000,4.000000,4.000000,4.000000,4.000000,4.000000,4.000000,4.000000,100.000000,,,,,,,,,,,,,,,,
1645711698.753991,115.000000,0.000000,4230.897461,4206.282227,4205.128418,4205.897461,4198.717773,4203.589844,4209.230957,4240.769043,4214.487305,4199.615234,4208.205078,4155.384766,4207.307617,4215.000000,0.000000,4.000000,82.000000,,,,0.000000,4.000000,4.000000,4.000000,4.000000,4.000000,4.000000,4.000000,4.000000,4.000000,4.000000,4.000000,4.000000,4.000000,4.000000,100.000000,,,,,,,,,,,,,,,,
1645711698.757931,116.000000,0.000000,4218.974121,4210.769043,4210.128418,4216.153809,4206.410156,4210.641113,4213.333496,4244.615234,4216.922852,4208.333496,4216.922852,4160.000000,4213.077148,4218.205078,0.000000,4.000000,82.000000,,,,0.000000,4.000000,4.000000,4.000000,4.000000,4.000000,4.000000,4.000000,4.000000,4.000000,4.000000,4.000000,4.000000,4.000000,4.000000,100.000000,,,,,,,,,,,,,,,,
1645711698.761871,117.000000,0.000000,4208.717773,4214.358887,4214.230957,4224.358887,4215.769043,4218.077148,4216.538574,4249.102539,4220.769043,4218.205078,4223.589844,4163.589844,4218.974121,4218.333496,0.000000,4.000000,82.000000,,,,0.000000,4.000000,4.000000,4.000000,4.000000,4.000000,4.000000,4.000000,4.000000,4.000000,4.000000,4.000000,4.000000,4.000000,4.000000,100.000000,,,,,,,,,,,,,,,,
1645711698.765811,118.000000,0.000000,4213.205078,4212.563965,4214.358887,4223.333496,4216.794922,4218.333496,4216.410156,4248.333496,4221.538574,4217.948730,4219.743652,4162.051270,4219.615234,4217.436035,0.000000,4.000000,82.000000,,,,0.000000,4.000000,4.000000,4.000000,4.000000,4.000000,4.000000,4.000000,4.000000,4.000000,4.000000,4.000000,4.000000,4.000000,4.000000,100.000000,,,,,,,,,,,,,,,,
1645711698.769751,119.000000,0.000000,4226.410156,4209.102539,4211.666504,4217.820313,4211.282227,4213.717773,4214.871582,4242.820313,4218.589844,4209.230957,4210.128418,4157.051270,4215.897461,4217.820313,0.000000,4.000000,82.000000,,,,0.000000,4.000000,4.000000,4.000000,4.000000,4.000000,4.000000,4.000000,4.000000,4.000000,4.000000,4.000000,4.000000,4.000000,4.000000,100.000000,,,,,,,,,,,,,,,,
1645711698.773691,120.000000,0.000000,4232.692383,4211.153809,4209.743652,4218.205078,4209.230957,4211.794922,4215.384766,4238.333496,4216.282227,4203.205078,4207.307617,4153.846191,4213.077148,4217.948730,0.000000,4.000000,82.000000,,,,0.000000,4.000000,4.000000,4.000000,4.000000,4.000000,4.000000,4.000000,4.000000,4.000000,4.000000,4.000000,4.000000,4.000000,4.000000,100.000000,,,,,,,,,,,,,,,,
1645711698.777631,121.000000,0.000000,4228.205078,4219.487305,4210.000000,4226.922852,4214.102539,4214.871582,4217.051270,4238.333496,4216.922852,4206.025879,4215.512695,4154.871582,4214.487305,4215.512695,0.000000,4.000000,82.000000,,,,0.000000,4.000000,4.000000,4.000000,4.000000,4.000000,4.000000,4.000000,4.000000,4.000000,4.000000,4.000000,4.000000,4.000000,4.000000,100.000000,,,,,,,,,,,,,,,,
1645711698.781571,122.000000,0.000000,4225.384766,4226.282227,4211.666504,4235.897461,4218.717773,4217.051270,4216.282227,4239.743652,4218.974121,4211.410156,4226.282227,4158.846191,4217.820313,4211.538574,0.000000,4.000000,82.000000,,,,0.000000,4.000000,4.000000,4.000000,4.000000,4.000000,4.000000,4.000000,4.000000,4.000000,4.000000,4.000000,4.000000,4.000000,4.000000,100.000000,,,,,,,,,,,,,,,,
1645711698.785512,123.000000,0.000000,4233.974121,4225.256348,4213.846191,4237.179688,4215.897461,4213.333496,4212.563965,4238.589844,4218.717773,4210.641113,4228.589844,4162.820313,4219.358887,4211.538574,0.000000,4.000000,82.000000,,,,0.000000,4.000000,4.000000,4.000000,4.000000,4.000000,4.000000,4.000000,4.000000,4.000000,4.000000,4.000000,4.000000,4.000000,4.000000,100.000000,,,,,,,,,,,,,,,,
1645711698.789452,124.000000,0.000000,4245.897461,4220.256348,4217.436035,4232.307617,4209.615234,4207.692383,4210.000000,4235.897461,4216.666504,4205.256348,4222.692383,4166.410156,4218.717773,4217.948730,0.000000,4.000000,82.000000,,,,0.000000,4.000000,4.000000,4.000000,4.000000,4.000000,4.000000,4.000000,4.000000,4.000000,4.000000,4.000000,4.000000,4.000000,4.000000,100.000000,,,,,,,,,,,,,,,,
1645711698.793392,125.000000,0.000000,4245.897461,4219.871582,4222.820313,4229.615234,4210.641113,4208.077148,4212.948730,4236.025879,4216.410156,4204.487305,4217.179688,4169.615234,4218.461426,4225.256348,0.000000,4.000000,82.000000,,,,0.000000,4.000000,4.000000,4.000000,4.000000,4.000000,4.000000,4.000000,4.000000,4.000000,4.000000,4.000000,4.000000,4.000000,4.000000,100.000000,,,,,,,,,,,,,,,,
1645711698.797332,126.000000,0.000000,4232.179688,4226.538574,4226.666504,4232.820313,4220.769043,4215.641113,4218.974121,4240.512695,4219.358887,4211.922852,4217.692383,4170.384766,4219.871582,4225.897461,0.000000,4.000000,82.000000,,,,0.000000,4.000000,4.000000,4.000000,4.000000,4.000000,4.000000,4.000000,4.000000,4.000000,4.000000,4.000000,4.000000,4.000000,4.000000,100.000000,,,,,,,,,,,,,,,,
1645711698.801272,127.000000,0.000000,4221.025879,4232.307617,4225.641113,4236.153809,4229.230957,4222.179688,4222.179688,4245.256348,4222.051270,4219.358887,4219.743652,4166.538574,4220.000000,4219.102539,0.000000,4.000000,82.000000,,,,0.000000,4.000000,4.000000,4.000000,4.000000,4.000000,4.000000,4.000000,4.000000,4.000000,4.000000,4.000000,4.000000,4.000000,4.000000,100.000000,,,,,,,,,,,,,,,,
1645711698.805212,128.000000,0.000000,4226.410156,4229.358887,4219.615234,4232.948730,4225.769043,4220.512695,4219.358887,4245.641113,4220.897461,4217.307617,4217.051270,4159.230957,4216.538574,4213.077148,3309.000000,4.000000,82.000000,,,,0.000000,4.000000,4.000000,4.000000,4.000000,4.000000,4.000000,4.000000,4.000000,4.000000,4.000000,4.000000,4.000000,4.000000,4.000000,100.000000,,,,,,,,,,,,,,,,
1645711698.809252,129.000000,0.000000,4241.282227,4219.615234,4213.846191,4225.769043,4214.102539,4213.205078,4213.974121,4242.692383,4217.051270,4208.461426,4211.153809,4153.589844,4211.666504,4214.743652,3606.000000,4.000000,82.000000,,,,0.000000,4.000000,4.000000,4.000000,4.000000,4.000000,4.000000,4.000000,4.000000,4.000000,4.000000,4.000000,4.000000,4.000000,4.000000,100.000000,,,,,,,,,,,,,,,,
1645711698.813192,130.000000,0.000000,4246.025879,4212.436035,4213.205078,4222.563965,4207.820313,4209.102539,4211.282227,4241.538574,4215.512695,4203.974121,4209.487305,4153.846191,4210.256348,4221.794922,2212.000000,4.000000,82.000000,,,,0.000000,4.000000,4.000000,4.000000,4.000000,4.000000,4.000000,4.000000,4.000000,4.000000,4.000000,4.000000,4.000000,4.000000,4.000000,100.000000,,,,,,,,,,,,,,,,
1645711698.817132,131.000000,0.000000,4233.589844,4212.692383,4217.051270,4226.282227,4212.820313,4211.153809,4212.179688,4244.358887,4218.333496,4209.615234,4213.974121,4158.333496,4213.589844,4224.871582,3551.000000,4.000000,82.000000,3,1,3,0.000000,4.000000,4.000000,4.000000,4.000000,4.000000,4.000000,4.000000,4.000000,4.000000,4.000000,4.000000,4.000000,4.000000,4.000000,100.000000,,,,,,,,,,,,,,,,
1645711698.821072,132.000000,0.000000,4218.205078,4216.282227,4220.000000,4230.384766,4221.153809,4213.974121,4213.589844,4247.820313,4222.179688,4218.205078,4217.692383,4161.153809,4217.307617,4220.000000,3675.000000,4.000000,82.000000,,,,0.000000,4.000000,4.000000,4.000000,4.000000,4.000000,4.000000,4.000000,4.000000,4.000000,4.000000,4.000000,4.000000,4.000000,4.000000,100.000000,,,,,,,,,,,,,,,,
1645711698.825012,133.000000,0.000000,4216.794922,4217.179688,4218.205078,4228.461426,4222.179688,4212.820313,4213.589844,4247.820313,4222.563965,4219.358887,4214.743652,4158.974121,4217.051270,4212.563965,3262.000000,4.000000,82.000000,,,,0.000000,4.000000,4.000000,4.000000,4.000000,4.000000,4.000000,4.000000,4.000000,4.000000,4.000000,4.000000,4.000000,4.000000,4.000000,100.000000,,,,,,,,,,,,,,,,
1645711698.828953,134.000000,0.000000,4227.820313,4216.538574,4213.461426,4223.205078,4217.307617,4210.897461,4214.487305,4245.512695,4220.512695,4213.461426,4208.846191,4154.871582,4214.358887,4210.384766,3144.000000,4.000000,82.000000,,,,0.000000,4.000000,4.000000,4.000000,4.000000,4.000000,4.000000,4.000000,4.000000,4.000000,4.000000,4.000000,4.000000,4.000000,4.000000,100.000000,,,,,,,,,,,,,,,,
1645711698.832893,135.000000,0.000000,4235.384766,4220.256348,4210.641113,4222.820313,4216.794922,4214.871582,4218.205078,4245.384766,4220.512695,4210.384766,4208.974121,4154.102539,4213.974121,4213.974121,2607.000000,4.000000,82.000000,,,,0.000000,4.000000,4.000000,4.000000,4.000000,4.000000,4.000000,4.000000,4.000000,4.000000,4.000000,4.000000,4.000000,4.000000,4.000000,100.000000,,,,,,,,,,,,,,,,
1645711698.836833,136.000000,0.000000,4231.538574,4229.358887,4210.897461,4229.358887,4224.615234,4223.333496,4221.922852,4248.589844,4225.128418,4215.769043,4217.051270,4157.820313,4217.692383,4217.307617,1592.000000,4.000000,82.000000,,,,0.000000,4.000000,4.000000,4.000000,4.000000,4.000000,4.000000,4.000000,4.000000,4.000000,4.000000,4.000000,4.000000,4.000000,4.000000,100.000000,,,,,,,,,,,,,,,,
1645711698.840773,137.000000,0.000000,4225.641113,4236.410156,4211.794922,4235.128418,4231.410156,4226.922852,4220.897461,4251.282227,4230.384766,4222.563965,4224.230957,4161.538574,4221.153809,4216.282227,3136.000000,4.000000,82.000000,,,,0.000000,4.000000,4.000000,4.000000,4.000000,4.000000,4.000000,4.000000,4.000000,4.000000,4.000000,4.000000,4.000000,4.000000,4.000000,100.000000,,,,,,,,,,,,,,,,
1645711698.844713,138.000000,0.000000,4229.230957,4234.487305,4210.512695,4232.436035,4227.563965,4219.871582,4214.615234,4249.743652,4231.153809,4221.538574,4222.307617,4161.153809,4219.358887,4214.358887,2242.000000,4.000000,82.000000,,,,0.000000,4.000000,4.000000,4.000000,4.000000,4.000000,4.000000,4.000000,4.000000,4.000000,4.000000,4.000000,4.000000,4.000000,4.000000,100.000000,,,,,,,,,,,,,,,,
1645711698.848653,139.000000,0.000000,4237.948730,4226.538574,4208.333496,4225.384766,4217.307617,4209.615234,4209.358887,4246.025879,4227.563965,4215.128418,4214.358887,4158.461426,4213.846191,4216.025879,2690.000000,4.000000,82.000000,,,,0.000000,4.000000,4.000000,4.000000,4.000000,4.000000,4.000000,4.000000,4.000000,4.000000,4.000000,4.000000,4.000000,4.000000,4.000000,100.000000,,,,,,,,,,,,,,,,
1645711698.852593,140.000000,0.000000,4237.948730,4222.563965,4208.717773,4225.256348,4214.615234,4209.743652,4211.794922,4245.897461,4224.743652,4214.358887,4211.410156,4158.461426,4211.666504,4220.641113,3222.000000,4.000000,82.000000,,,,0.000000,4.000000,4.000000,4.000000,4.000000,4.000000,4.000000,4.000000,4.000000,4.000000,4.000000,4.000000,4.000000,4.000000,4.000000,100.000000,,,,,,,,,,,,,,,,
1645711698.856533,141.000000,0.000000,4227.436035,4227.563965,4212.563965,4237.051270,4225.769043,4223.333496,4221.025879,4251.025879,4226.538574,4224.615234,4218.077148,4162.563965,4217.051270,4222.948730,3410.000000,4.000000,82.000000,,,,0.000000,4.000000,4.000000,4.000000,4.000000,4.000000,4.000000,4.000000,4.000000,4.000000,4.000000,4.000000,4.000000,4.000000,4.000000,100.000000,,,,,,,,,,,,,,,,
1645711698.860473,142.000000,0.000000,4221.282227,4235.897461,4216.794922,4251.666504,4240.512695,4238.717773,4229.487305,4256.410156,4230.384766,4236.282227,4226.025879,4167.179688,4225.769043,4220.641113,2242.000000,4.000000,82.000000,,,,0.000000,4.000000,4.000000,4.000000,4.000000,4.000000,4.000000,4.000000,4.000000,4.000000,4.000000,4.000000,4.000000,4.000000,4.000000,100.000000,,,,,,,,,,,,,,,,
1645711698.864414,143.000000,0.000000,4232.051270,4238.333496,4218.461426,4256.410156,4244.615234,4242.563965,4231.153809,4256.153809,4231.538574,4237.051270,4225.000000,4168.461426,4230.256348,4217.563965,2690.000000,4.000000,82.000000,,,,0.000000,4.000000,4.000000,4.000000,4.000000,4.000000,4.000000,4.000000,4.000000,4.000000,4.000000,4.000000,4.000000,4.000000,4.000000,100.000000,,,,,,,,,,,,,,,,
1645711698.868354,144.000000,0.000000,4251.153809,4234.487305,4217.820313,4249.102539,4237.179688,4234.615234,4228.333496,4250.897461,4229.102539,4227.307617,4216.410156,4166.922852,4228.205078,4218.333496,3222.000000,4.000000,82.000000,,,,0.000000,4.000000,4.000000,4.000000,4.000000,4.000000,4.000000,4.000000,4.000000,4.000000,4.000000,4.000000,4.000000,4.000000,4.000000,100.000000,1.000000,58.333332,1.000000,3.000000,3.000000,4.000000,3.000000,3.000000,4.000000,4.000000,3.000000,3.000000,3.000000,4.000000,3.000000,3.000000
1645711698.872294,145.000000,0.000000,4257.692383,4231.538574,4217.563965,4239.487305,4230.256348,4226.666504,4226.538574,4246.922852,4227.436035,4219.743652,4211.922852,4166.794922,4224.487305,4221.794922,3410.000000,4.000000,82.000000,,,,0.000000,4.000000,4.000000,4.000000,4.000000,4.000000,4.000000,4.000000,4.000000,4.000000,4.000000,4.000000,4.000000,4.000000,4.000000,100.000000,,,,,,,,,,,,,,,,
1645711698.876234,146.000000,0.000000,4245.000000,4234.102539,4218.846191,4236.282227,4231.666504,4226.538574,4226.794922,4247.692383,4229.358887,4222.692383,4218.205078,4169.743652,4223.717773,4222.563965,2242.000000,4.000000,82.000000,,,,0.000000,4.000000,4.000000,4.000000,4.000000,4.000000,4.000000,4.000000,4.000000,4.000000,4.000000,4.000000,4.000000,4.000000,4.000000,100.000000,,,,,,,,,,,,,,,,
1645711698.880174,147.000000,0.000000,4229.743652,4237.692383,4218.846191,4237.436035,4234.871582,4229.230957,4224.871582,4249.102539,4232.307617,4229.230957,4227.563965,4172.436035,4224.487305,4218.974121,2690.000000,4.000000,82.000000,,,,0.000000,4.000000,4.000000,4.000000,4.000000,4.000000,4.000000,4.000000,4.000000,4.000000,4.000000,4.000000,4.000000,4.000000,4.000000,100.000000,,,,,,,,,,,,,,,,
1645711698.884014,148.000000,0.000000,4231.153809,4235.256348,4215.512695,4235.256348,4228.974121,4225.128418,4217.692383,4245.384766,4231.538574,4225.769043,4227.563965,4171.282227,4222.307617,4215.769043,3222.000000,4.000000,82.000000,,,,0.000000,4.000000,4.000000,4.000000,4.000000,4.000000,4.000000,4.000000,4.000000,4.000000,4.000000,4.000000,4.000000,4.000000,4.000000,100.000000,,,,,,,,,,,,,,,,
1645711698.887954,149.000000,0.000000,4246.410156,4227.948730,4210.512695,4228.717773,4214.743652,4214.358887,4209.102539,4237.179688,4226.538574,4210.512695,4216.794922,4167.179688,4216.666504,4217.948730,3410.000000,4.000000,82.000000,,,,0.000000,4.000000,4.000000,4.000000,4.000000,4.000000,4.000000,4.000000,4.000000,4.000000,4.000000,4.000000,4.000000,4.000000,4.000000,100.000000,,,,,,,,,,,,,,,,
1645711698.891894,150.000000,0.000000,4254.102539,4224.102539,4208.205078,4225.256348,4205.512695,4207.179688,4206.410156,4231.666504,4222.436035,4197.307617,4206.410156,4164.743652,4212.436035,4223.333496,2242.000000,4.000000,82.000000,,,,0.000000,4.000000,4.000000,4.000000,4.000000,4.000000,4.000000,4.000000,4.000000,4.000000,4.000000,4.000000,4.000000,4.000000,4.000000,100.000000,,,,,,,,,,,,,,,,
1645711698.895834,151.000000,0.000000,4242.820313,4228.205078,4210.256348,4229.358887,4210.256348,4211.025879,4211.153809,4234.615234,4223.205078,4198.333496,4205.512695,4165.641113,4213.333496,4224.743652,2690.000000,4.000000,82.000000,,,,0.000000,4.000000,4.000000,4.000000,4.000000,4.000000,4.000000,4.000000,4.000000,4.000000,4.000000,4.000000,4.000000,4.000000,4.000000,100.000000,,,,,,,,,,,,,,,,
1645711698.899775,152.000000,0.000000,4225.256348,4234.102539,4213.461426,4235.384766,4221.538574,4220.641113,4217.820313,4242.436035,4226.922852,4210.256348,4210.384766,4166.794922,4216.666504,4218.974121,3222.000000,4.000000,82.000000,,,,0.000000,4.000000,4.000000,4.000000,4.000000,4.000000,4.000000,4.000000,4.000000,4.000000,4.000000,4.000000,4.000000,4.000000,4.000000,100.000000,,,,,,,,,,,,,,,,
1645711698.903715,153.000000,0.000000,4221.922852,4231.922852,4213.205078,4234.487305,4224.871582,4225.128418,4219.487305,4247.051270,4228.205078,4218.717773,4210.384766,4164.230957,4216.794922,4211.538574,3410.000000,4.000000,82.000000,,,,0.000000,4.000000,4.000000,4.000000,4.000000,4.000000,4.000000,4.000000,4.000000,4.000000,4.000000,4.000000,4.000000,4.000000,4.000000,100.000000,,,,,,,,,,,,,,,,
1645711698.907655,154.000000,0.000000,4234.358887,4221.153809,4208.974121,4226.410156,4217.051270,4221.025879,4216.153809,4245.256348,4225.512695,4216.666504,4203.333496,4158.717773,4212.436035,4209.615234,2242.000000,4.000000,82.000000,,,,0.000000,4.000000,4.000000,4.000000,4.000000,4.000000,4.000000,4.000000,4.000000,4.000000,4.000000,4.000000,4.000000,4.000000,4.000000,100.000000,,,,,,,,,,,,,,,,
1645711698.911595,155.000000,0.000000,4243.974121,4211.538574,4204.487305,4220.384766,4209.102539,4215.128418,4213.205078,4241.410156,4222.563965,4211.025879,4198.333496,4155.641113,4208.589844,4213.333496,2690.000000,4.000000,82.000000,,,,0.000000,4.000000,4.000000,4.000000,4.000000,4.000000,4.000000,4.000000,4.000000,4.000000,4.000000,4.000000,4.000000,4.000000,4.000000,100.000000,,,,,,,,,,,,,,,,
1645711698.915535,156.000000,0.000000,4236.922852,4211.922852,4202.692383,4223.333496,4211.794922,4214.358887,4214.230957,4241.410156,4223.461426,4211.794922,4203.589844,4157.948730,4209.487305,4215.769043,3222.000000,4.000000,82.000000,,,,0.000000,4.000000,4.000000,4.000000,4.000000,4.000000,4.000000,4.000000,4.000000,4.000000,4.000000,4.000000,4.000000,4.000000,4.000000,100.000000,,,,,,,,,,,,,,,,
1645711698.919475,157.000000,0.000000,4221.538574,4219.743652,4202.948730,4231.410156,4220.897461,4217.051270,4216.538574,4245.256348,4227.051270,4218.077148,4214.358887,4162.692383,4213.717773,4212.179688,3410.000000,4.000000,82.000000,,,,0.000000,4.000000,4.000000,4.000000,4.000000,4.000000,4.000000,4.000000,4.000000,4.000000,4.000000,4.000000,4.000000,4.000000,4.000000,100.000000,,,,,,,,,,,,,,,,
1645711698.923415,158.000000,0.000000,4216.538574,4224.743652,4202.436035,4234.615234,4223.461426,4216.410156,4215.512695,4248.717773,4228.717773,4220.256348,4218.589844,4164.358887,4215.897461,4206.538574,2242.000000,4.000000,82.000000,,,,0.000000,4.000000,4.000000,4.000000,4.000000,4.000000,4.000000,4.000000,4.000000,4.000000,4.000000,4.000000,4.000000,4.000000,4.000000,100.000000,,,,,,,,,,,,,,,,
1645711698.927355,159.000000,0.000000,4225.512695,4222.436035,4200.641113,4228.974121,4215.128418,4211.282227,4211.538574,4249.358887,4226.922852,4214.615234,4211.794922,4161.025879,4214.358887,4206.153809,2690.000000,4.000000,82.000000,,,,0.000000,4.000000,4.000000,4.000000,4.000000,4.000000,4.000000,4.000000,4.000000,4.000000,4.000000,4.000000,4.000000,4.000000,4.000000,100.000000,,,,,,,,,,,,,,,,
1645711698.931295,160.000000,0.000000,4233.717773,4218.589844,4200.128418,4221.153809,4205.769043,4208.461426,4208.974121,4249.743652,4225.128418,4208.846191,4202.948730,4156.538574,4212.692383,4212.436035,3222.000000,4.000000,82.000000,,,,0.000000,4.000000,4.000000,4.000000,4.000000,4.000000,4.000000,4.000000,4.000000,4.000000,4.000000,4.000000,4.000000,4.000000,4.000000,100.000000,,,,,,,,,,,,,,,,
1645711698.935236,161.000000,0.000000,4228.461426,4220.769043,4201.922852,4219.102539,4206.794922,4212.820313,4210.384766,4252.307617,4226.794922,4211.666504,4202.820313,4155.000000,4214.487305,4219.230957,3410.000000,4.000000,82.000000,,,,0.000000,4.000000,4.000000,4.000000,4.000000,4.000000,4.000000,4.000000,4.000000,4.000000,4.000000,4.000000,4.000000,4.000000,4.000000,100.000000,,,,,,,,,,,,,,,,
1645711698.939176,162.000000,0.000000,4216.538574,4227.820313,4203.846191,4222.436035,4215.897461,4219.743652,4212.692383,4255.128418,4230.128418,4220.256348,4210.897461,4156.282227,4218.589844,4220.256348,2242.000000,4.000000,82.000000,,,,0.000000,4.000000,4.000000,4.000000,4.000000,4.000000,4.000000,4.000000,4.000000,4.000000,4.000000,4.000000,4.000000,4.000000,4.000000,100.000000,,,,,,,,,,,,,,,,
1645711698.943116,163.000000,0.000000,4215.384766,4231.666504,4203.077148,4225.256348,4220.769043,4220.128418,4212.051270,4253.846191,4230.128418,4223.589844,4216.794922,4157.436035,4220.512695,4216.410156,2690.000000,4.000000,82.000000,,,,0.000000,4.000000,4.000000,4.000000,4.000000,4.000000,4.000000,4.000000,4.000000,4.000000,4.000000,4.000000,4.000000,4.000000,4.000000,100.000000,,,,,,,,,,,,,,,,
1645711698.947056,164.000000,0.000000,4229.102539,4228.974121,4200.384766,4225.256348,4215.512695,4213.205078,4208.846191,4247.820313,4225.769043,4217.307617,4215.512695,4157.179688,4219.230957,4213.974121,3222.000000,4.000000,82.000000,,,,0.000000,4.000000,4.000000,4.000000,4.000000,4.000000,4.000000,4.000000,4.000000,4.000000,4.000000,4.000000,4.000000,4.000000,4.000000,100.000000,,,,,,,,,,,,,,,,
1645711698.950996,165.000000,0.000000,4242.179688,4224.871582,4200.000000,4226.538574,4208.077148,4207.692383,4207.436035,4242.179688,4221.410156,4209.358887,4212.436035,4157.820313,4218.077148,4215.641113,3410.000000,4.000000,82.000000,,,,0.000000,4.000000,4.000000,4.000000,4.000000,4.000000,4.000000,4.000000,4.000000,4.000000,4.000000,4.000000,4.000000,4.000000,4.000000,100.000000,,,,,,,,,,,,,,,,
1645711698.955036,166.000000,0.000000,4239.358887,4225.384766,4203.589844,4231.410156,4209.102539,4210.384766,4209.487305,4241.410156,4221.410156,4209.102539,4214.743652,4160.128418,4219.615234,4216.922852,2242.000000,4.000000,82.000000,,,,0.000000,4.000000,4.000000,4.000000,4.000000,4.000000,4.000000,4.000000,4.000000,4.000000,4.000000,4.000000,4.000000,4.000000,4.000000,100.000000,,,,,,,,,,,,,,,,
1645711698.958976,167.000000,0.000000,4225.000000,4228.974121,4207.307617,4234.871582,4217.051270,4216.922852,4211.538574,4243.589844,4223.974121,4213.974121,4219.615234,4161.794922,4221.410156,4213.077148,2690.000000,4.000000,82.000000,,,,0.000000,4.000000,4.000000,4.000000,4.000000,4.000000,4.000000,4.000000,4.000000,4.000000,4.000000,4.000000,4.000000,4.000000,4.000000,100.000000,,,,,,,,,,,,,,,,
1645711698.962916,168.000000,0.000000,4217.179688,4228.717773,4206.538574,4230.000000,4220.641113,4217.179688,4209.615234,4242.692383,4223.589844,4213.333496,4218.205078,4159.487305,4219.230957,4206.538574,3222.000000,4.000000,82.000000,,,,0.000000,4.000000,4.000000,4.000000,4.000000,4.000000,4.000000,4.000000,4.000000,4.000000,4.000000,4.000000,4.000000,4.000000,4.000000,100.000000,,,,,,,,,,,,,,,,
1645711698.966856,169.000000,0.000000,4223.461426,4222.692383,4201.666504,4218.589844,4214.743652,4208.846191,4204.871582,4237.307617,4218.717773,4204.230957,4208.974121,4155.256348,4213.333496,4205.128418,3410.000000,4.000000,82.000000,,,,0.000000,4.000000,4.000000,4.000000,4.000000,4.000000,4.000000,4.000000,4.000000,4.000000,4.000000,4.000000,4.000000,4.000000,4.000000,100.000000,,,,,,,,,,,,,,,,
1645711698.970796,170.000000,0.000000,4232.948730,4217.820313,4198.846191,4211.410156,4207.820313,4201.922852,4203.077148,4233.589844,4215.256348,4197.436035,4202.436035,4154.871582,4209.871582,4212.307617,2242.000000,4.000000,82.000000,,,,0.000000,4.000000,4.000000,4.000000,4.000000,4.000000,4.000000,4.000000,4.000000,4.000000,4.000000,4.000000,4.000000,4.000000,4.000000,100.000000,,,,,,,,,,,,,,,,
1645711698.974737,171.000000,0.000000,4232.307617,4220.769043,4202.692383,4216.282227,4210.769043,4205.384766,4206.922852,4237.436035,4218.974121,4204.102539,4208.077148,4161.538574,4213.717773,4222.563965,2690.000000,4.000000,82.000000,,,,0.000000,4.000000,4.000000,4.000000,4.000000,4.000000,4.000000,4.000000,4.000000,4.000000,4.000000,4.000000,4.000000,4.000000,4.000000,100.000000,,,,,,,,,,,,,,,,
1645711698.978677,172.000000,0.000000,4225.000000,4228.846191,4210.769043,4228.077148,4221.666504,4216.282227,4212.820313,4247.051270,4228.333496,4220.769043,4221.282227,4170.512695,4221.666504,4228.077148,3222.000000,4.000000,82.000000,,,,0.000000,4.000000,4.000000,4.000000,4.000000,4.000000,4.000000,4.000000,4.000000,4.000000,4.000000,4.000000,4.000000,4.000000,4.000000,100.000000,,,,,,,,,,,,,,,,
1645711698.982617,173.000000,0.000000,4225.641113,4233.077148,4216.410156,4233.974121,4227.563965,4222.948730,4214.871582,4254.230957,4235.128418,4231.666504,4227.563965,4173.846191,4225.769043,4227.051270,3410.000000,4.000000,82.000000,,,,0.000000,4.000000,4.000000,4.000000,4.000000,4.000000,4.000000,4.000000,4.000000,4.000000,4.000000,4.000000,4.000000,4.000000,4.000000,100.000000,,,,,,,,,,,,,,,,
1645711698.986557,174.000000,0.000000,4237.820313,4228.846191,4215.897461,4228.205078,4221.282227,4219.487305,4212.948730,4253.717773,4233.717773,4227.179688,4220.128418,4168.589844,4222.051270,4224.230957,2242.000000,4.000000,82.000000,,,,0.000000,4.000000,4.000000,4.000000,4.000000,4.000000,4.000000,4.000000,4.000000,4.000000,4.000000,4.000000,4.000000,4.000000,4.000000,100.000000,,,,,,,,,,,,,,,,
1645711698.990497,175.000000,0.000000,4247.179688,4222.051270,4211.794922,4218.461426,4211.025879,4212.563965,4211.922852,4249.230957,4227.051270,4214.743652,4207.820313,4159.871582,4214.743652,4223.205078,2690.000000,4.000000,82.000000,,,,0.000000,4.000000,4.000000,4.000000,4.000000,4.000000,4.000000,4.000000,4.000000,4.000000,4.000000,4.000000,4.000000,4.000000,4.000000,100.000000,,,,,,,,,,,,,,,,
1645711698.994437,176.000000,0.000000,4240.128418,4221.410156,4208.461426,4215.641113,4209.102539,4211.538574,4214.615234,4247.179688,4222.307617,4209.487305,4204.615234,4155.000000,4211.282227,4221.922852,3222.000000,4.000000,82.000000,,,,0.000000,4.000000,4.000000,4.000000,4.000000,4.000000,4.000000,4.000000,4.000000,4.000000,4.000000,4.000000,4.000000,4.000000,4.000000,100.000000,,,,,,,,,,,,,,,,
1645711698.998377,177.000000,0.000000,4222.820313,4227.179688,4207.307617,4220.256348,4216.282227,4216.666504,4218.077148,4249.230957,4222.948730,4215.256348,4212.563965,4155.769043,4213.974121,4217.436035,3410.000000,4.000000,82.000000,,,,0.000000,4.000000,4.000000,4.000000,4.000000,4.000000,4.000000,4.000000,4.000000,4.000000,4.000000,4.000000,4.000000,4.000000,4.000000,100.000000,,,,,,,,,,,,,,,,
1645711699.002317,178.000000,0.000000,4215.128418,4231.410156,4206.922852,4223.205078,4221.538574,4219.358887,4217.563965,4250.769043,4225.128418,4221.922852,4220.512695,4158.205078,4218.077148,4211.666504,2242.000000,4.000000,82.000000,,,,0.000000,4.000000,4.000000,4.000000,4.000000,4.000000,4.000000,4.000000,4.000000,4.000000,4.000000,4.000000,4.000000,4.000000,4.000000,100.000000,,,,,,,,,,,,,,,,
1645711699.006257,179.000000,0.000000,4226.025879,4228.974121,4206.410156,4218.846191,4217.051270,4215.128418,4213.974121,4248.205078,4224.487305,4219.358887,4218.846191,4158.974121,4218.589844,4210.256348,2690.000000,4.000000,82.000000,,,,0.000000,4.000000,4.000000,4.000000,4.000000,4.000000,4.000000,4.000000,4.000000,4.000000,4.000000,4.000000,4.000000,4.000000,4.000000,100.000000,,,,,,,,,,,,,,,,
1645711699.010197,180.000000,0.000000,4242.051270,4224.102539,4207.051270,4212.436035,4210.000000,4209.615234,4212.563965,4244.871582,4222.307617,4211.025879,4210.897461,4159.230957,4216.025879,4215.384766,3222.000000,4.000000,82.000000,,,,0.000000,4.000000,4.000000,4.000000,4.000000,4.000000,4.000000,4.000000,4.000000,4.000000,4.000000,4.000000,4.000000,4.000000,4.000000,100.000000,,,,,,,,,,,,,,,,
1645711699.014138,181.000000,0.000000,4244.358887,4224.230957,4210.000000,4213.077148,4211.538574,4211.282227,4216.538574,4246.922852,4223.077148,4208.717773,4206.666504,4161.538574,4214.743652,4221.666504,3410.000000,4.000000,82.000000,,,,0.000000,4.000000,4.000000,4.000000,4.000000,4.000000,4.000000,4.000000,4.000000,4.000000,4.000000,4.000000,4.000000,4.000000,4.000000,100.000000,,,,,,,,,,,,,,,,
1645711699.018078,182.000000,0.000000,4232.692383,4229.487305,4212.820313,4221.025879,4221.153809,4219.230957,4222.563965,4254.871582,4227.436035,4215.641113,4209.487305,4164.871582,4216.410156,4222.179688,2242.000000,4.000000,82.000000,,,,0.000000,4.000000,4.000000,4.000000,4.000000,4.000000,4.000000,4.000000,4.000000,4.000000,4.000000,4.000000,4.000000,4.000000,4.000000,100.000000,,,,,,,,,,,,,,,,
1645711699.022018,183.000000,0.000000,4223.846191,4232.307617,4212.051270,4227.436035,4226.666504,4224.102539,4223.974121,4261.025879,4231.153809,4222.692383,4212.820313,4164.743652,4217.692383,4216.410156,2690.000000,4.000000,82.000000,,,,0.000000,4.000000,4.000000,4.000000,4.000000,4.000000,4.000000,4.000000,4.000000,4.000000,4.000000,4.000000,4.000000,4.000000,4.000000,100.000000,,,,,,,,,,,,,,,,
1645711699.025958,184.000000,0.000000,4228.077148,4228.077148,4207.179688,4225.769043,4220.512695,4220.769043,4219.743652,4259.102539,4230.128418,4221.282227,4211.282227,4160.128418,4215.769043,4210.641113,3222.000000,4.000000,82.000000,,,,0.000000,4.000000,4.000000,4.000000,4.000000,4.000000,4.000000,4.000000,4.000000,4.000000,4.000000,4.000000,4.000000,4.000000,4.000000,100.000000,,,,,,,,,,,,,,,,
1645711699.029998,185.000000,0.000000,4235.897461,4221.153809,4202.307617,4220.897461,4210.256348,4214.743652,4215.128418,4251.794922,4225.897461,4215.000000,4207.820313,4154.743652,4212.436035,4209.871582,3410.000000,4.000000,82.000000,,,,0.000000,4.000000,4.000000,4.000000,4.000000,4.000000,4.000000,4.000000,4.000000,4.000000,4.000000,4.000000,4.000000,4.000000,4.000000,100.000000,,,,,,,,,,,,,,,,
1645711699.033938,186.000000,0.000000,4231.794922,4219.358887,4201.282227,4221.794922,4209.230957,4214.615234,4215.256348,4248.461426,4223.333496,4213.717773,4208.717773,4153.077148,4212.051270,4211.794922,2242.000000,4.000000,82.000000,,,,0.000000,4.000000,4.000000,4.000000,4.000000,4.000000,4.000000,4.000000,4.000000,4.000000,4.000000,4.000000,4.000000,4.000000,4.000000,100.000000,,,,,,,,,,,,,,,,
1645711699.037878,187.000000,0.000000,4217.179688,4222.820313,4203.205078,4229.358887,4219.487305,4219.871582,4218.846191,4254.102539,4223.974121,4219.871582,4212.307617,4154.358887,4214.871582,4211.410156,2690.000000,4.000000,82.000000,,,,0.000000,4.000000,4.000000,4.000000,4.000000,4.000000,4.000000,4.000000,4.000000,4.000000,4.000000,4.000000,4.000000,4.000000,4.000000,100.000000,,,,,,,,,,,,,,,,
1645711699.041818,188.000000,0.000000,4209.743652,4223.846191,4203.846191,4235.000000,4228.717773,4221.922852,4220.000000,4265.769043,4225.256348,4225.000000,4210.512695,4154.230957,4216.538574,4207.692383,3222.000000,4.000000,82.000000,,,,0.000000,4.000000,4.000000,4.000000,4.000000,4.000000,4.000000,4.000000,4.000000,4.000000,4.000000,4.000000,4.000000,4.000000,4.000000,100.000000,,,,,,,,,,,,,,,,
1645711699.045758,189.000000,0.000000,4219.487305,4217.436035,4201.025879,4231.922852,4226.410156,4215.128418,4216.282227,4276.282227,4223.717773,4220.769043,4199.743652,4150.512695,4213.717773,4205.000000,3410.000000,4.000000,82.000000,,,,0.000000,4.000000,4.000000,4.000000,4.000000,4.000000,4.000000,4.000000,4.000000,4.000000,4.000000,4.000000,4.000000,4.000000,4.000000,100.000000,,,,,,,,,,,,,,,,
1645711699.049698,190.000000,0.000000,4234.615234,4209.358887,4197.307617,4224.102539,4216.922852,4205.128418,4211.282227,4282.820313,4220.000000,4210.512695,4188.077148,4145.897461,4208.589844,4206.538574,2242.000000,4.000000,82.000000,,,,0.000000,4.000000,4.000000,4.000000,4.000000,4.000000,4.000000,4.000000,4.000000,4.000000,4.000000,4.000000,4.000000,4.000000,4.000000,100.000000,,,,,,,,,,,,,,,,
1645711699.053639,191.000000,0.000000,4235.641113,4208.974121,4196.025879,4220.897461,4212.692383,4201.282227,4209.102539,4286.025879,4217.051270,4204.487305,4187.051270,4144.871582,4205.897461,4208.717773,2690.000000,4.000000,82.000000,,,,0.000000,4.000000,4.000000,4.000000,4.000000,4.000000,4.000000,4.000000,4.000000,4.000000,4.000000,4.000000,4.000000,4.000000,4.000000,100.000000,,,,,,,,,,,,,,,,
1645711699.057579,192.000000,0.000000,4221.025879,4217.948730,4197.820313,4225.641113,4218.077148,4205.128418,4209.487305,4286.922852,4216.282227,4206.282227,4197.307617,4147.436035,4206.538574,4207.436035,3222.000000,4.000000,82.000000,,,,0.000000,4.000000,4.000000,4.000000,4.000000,4.000000,4.000000,4.000000,4.000000,4.000000,4.000000,4.000000,4.000000,4.000000,4.000000,100.000000,,,,,,,,,,,,,,,,
1645711699.061519,193.000000,0.000000,4208.974121,4227.563965,4200.000000,4231.666504,4224.358887,4209.102539,4209.102539,4284.615234,4215.641113,4208.589844,4207.307617,4149.358887,4206.922852,4203.589844,3410.000000,4.000000,82.000000,,,,0.000000,4.000000,4.000000,4.000000,4.000000,4.000000,4.000000,4.000000,4.000000,4.000000,4.000000,4.000000,4.000000,4.000000,4.000000,100.000000,,,,,,,,,,,,,,,,
1645711699.065459,194.000000,0.000000,4213.974121,4229.102539,4200.256348,4231.922852,4223.077148,4207.563965,4207.692383,4280.512695,4213.846191,4204.487305,4207.051270,4148.077148,4204.230957,4202.436035,2242.000000,4.000000,82.000000,,,,0.000000,4.000000,4.000000,4.000000,4.000000,4.000000,4.000000,4.000000,4.000000,4.000000,4.000000,4.000000,4.000000,4.000000,4.000000,100.000000,,,,,,,,,,,,,,,,
1645711699.069399,195.000000,0.000000,4228.846191,4224.487305,4200.000000,4227.563965,4218.077148,4204.487305,4208.974121,4279.358887,4213.461426,4198.717773,4199.615234,4145.897461,4201.410156,4206.666504,2690.000000,4.000000,82.000000,,,,0.000000,4.000000,4.000000,4.000000,4.000000,4.000000,4.000000,4.000000,4.000000,4.000000,4.000000,4.000000,4.000000,4.000000,4.000000,100.000000,,,,,,,,,,,,,,,,
1645711699.073339,196.000000,0.000000,4234.871582,4221.794922,4201.410156,4225.897461,4219.615234,4207.436035,4215.000000,4285.000000,4217.820313,4201.410156,4196.538574,4147.051270,4203.461426,4211.410156,3222.000000,4.000000,82.000000,,,,0.000000,4.000000,4.000000,4.000000,4.000000,4.000000,4.000000,4.000000,4.000000,4.000000,4.000000,4.000000,4.000000,4.000000,4.000000,100.000000,,,,,,,,,,,,,,,,
1645711699.077279,197.000000,0.000000,4226.922852,4224.358887,4203.333496,4229.230957,4229.487305,4216.025879,4221.794922,4294.615234,4226.025879,4213.589844,4201.794922,4151.794922,4210.512695,4210.128418,3410.000000,4.000000,82.000000,,,,0.000000,4.000000,4.000000,4.000000,4.000000,4.000000,4.000000,4.000000,4.000000,4.000000,4.000000,4.000000,4.000000,4.000000,4.000000,100.000000,,,,,,,,,,,,,,,,
1645711699.081219,198.000000,0.000000,4218.461426,4225.769043,4202.820313,4231.794922,4236.794922,4220.897461,4222.948730,4299.871582,4232.051270,4222.948730,4207.179688,4155.512695,4216.282227,4203.205078,2242.000000,4.000000,82.000000,,,,0.000000,4.000000,4.000000,4.000000,4.000000,4.000000,4.000000,4.000000,4.000000,4.000000,4.000000,4.000000,4.000000,4.000000,4.000000,100.000000,,,,,,,,,,,,,,,,
1645711699.085159,199.000000,0.000000,4221.922852,4219.615234,4198.461426,4227.948730,4231.666504,4215.897461,4217.307617,4295.769043,4230.897461,4217.948730,4202.820313,4154.102539,4214.615234,4197.563965,2690.000000,4.000000,82.000000,,,,0.000000,4.000000,4.000000,4.000000,4.000000,4.000000,4.000000,4.000000,4.000000,4.000000,4.000000,4.000000,4.000000,4.000000,4.000000,100.000000,,,,,,,,,,,,,,,,
1645711699.089099,200.000000,0.000000,4230.128418,4208.589844,4192.948730,4220.512695,4219.487305,4206.666504,4211.025879,4286.666504,4224.230957,4202.436035,4190.512695,4148.846191,4206.922852,4198.974121,3222.000000,4.000000,82.000000,,,,0.000000,4.000000,4.000000,4.000000,4.000000,4.000000,4.000000,4.000000,4.000000,4.000000,4.000000,4.000000,4.000000,4.000000,4.000000,100.000000,,,,,,,,,,,,,,,,
1645711699.093040,201.000000,0.000000,4227.051270,4202.692383,4191.025879,4217.563965,4214.615234,4205.000000,4210.512695,4281.538574,4219.102539,4191.794922,4181.666504,4144.102539,4200.256348,4204.230957,3410.000000,4.000000,82.000000,,,,0.000000,4.000000,4.000000,4.000000,4.000000,4.000000,4.000000,4.000000,4.000000,4.000000,4.000000,4.000000,4.000000,4.000000,4.000000,100.000000,,,,,,,,,,,,,,,,
1645711699.096980,202.000000,0.000000,4211.282227,4206.538574,4194.102539,4221.282227,4222.948730,4213.846191,4215.000000,4284.358887,4220.128418,4195.000000,4183.205078,4142.307617,4199.230957,4205.769043,2242.000000,4.000000,82.000000,,,,0.000000,4.000000,4.000000,4.000000,4.000000,4.000000,4.000000,4.000000,4.000000,4.000000,4.000000,4.000000,4.000000,4.000000,4.000000,100.000000,,,,,,,,,,,,,,,,
1645711699.100920,203.000000,0.000000,4200.512695,4214.230957,4198.717773,4225.256348,4234.615234,4223.589844,4218.589844,4290.384766,4225.000000,4205.512695,4190.128418,4142.563965,4201.666504,4201.794922,2690.000000,4.000000,82.000000,,,,0.000000,4.000000,4.000000,4.000000,4.000000,4.000000,4.000000,4.000000,4.000000,4.000000,4.000000,4.000000,4.000000,4.000000,4.000000,100.000000,,,,,,,,,,,,,,,,
1645711699.104760,204.000000,0.000000,4209.102539,4217.051270,4201.153809,4222.948730,4236.922852,4224.230957,4217.948730,4293.077148,4228.461426,4211.025879,4193.717773,4143.333496,4203.077148,4198.333496,3222.000000,4.000000,82.000000,,,,0.000000,4.000000,4.000000,4.000000,4.000000,4.000000,4.000000,4.000000,4.000000,4.000000,4.000000,4.000000,4.000000,4.000000,4.000000,100.000000,,,,,,,,,,,,,,,,
1645711699.108700,205.000000,0.000000,4228.974121,4213.974121,4200.897461,4216.410156,4229.871582,4217.307617,4216.410156,4291.282227,4228.974121,4209.230957,4193.205078,4145.512695,4202.820313,4201.538574,3410.000000,4.000000,82.000000,,,,0.000000,4.000000,4.000000,4.000000,4.000000,4.000000,4.000000,4.000000,4.000000,4.000000,4.000000,4.000000,4.000000,4.000000,4.000000,100.000000,,,,,,,,,,,,,,,,
1645711699.112640,206.000000,0.000000,4238.077148,4211.410156,4200.256348,4212.948730,4224.358887,4212.820313,4218.461426,4288.846191,4229.358887,4208.205078,4194.743652,4150.512695,4204.615234,4209.358887,2242.000000,4.000000,82.000000,,,,0.000000,4.000000,4.000000,4.000000,4.000000,4.000000,4.000000,4.000000,4.000000,4.000000,4.000000,4.000000,4.000000,4.000000,4.000000,100.000000,,,,,,,,,,,,,,,,
1645711699.116580,207.000000,0.000000,4227.692383,4212.820313,4199.487305,4214.871582,4227.179688,4215.384766,4222.692383,4287.820313,4231.794922,4213.205078,4200.897461,4156.025879,4209.615234,4213.717773,2690.000000,4.000000,82.000000,,,,0.000000,4.000000,4.000000,4.000000,4.000000,4.000000,4.000000,4.000000,4.000000,4.000000,4.000000,4.000000,4.000000,4.000000,4.000000,100.000000,,,,,,,,,,,,,,,,
1645711699.120520,208.000000,0.000000,4212.436035,4214.230957,4197.051270,4216.153809,4231.794922,4219.230957,4223.333496,4286.025879,4234.102539,4218.717773,4205.769043,4157.692383,4213.846191,4210.256348,3222.000000,4.000000,82.000000,,,,0.000000,4.000000,4.000000,4.000000,4.000000,4.000000,4.000000,4.000000,4.000000,4.000000,4.000000,4.000000,4.000000,4.000000,4.000000,100.000000,,,,,,,,,,,,,,,,
1645711699.124461,209.000000,0.000000,4210.128418,4211.025879,4192.692383,4211.410156,4229.358887,4217.307617,4217.820313,4281.282227,4232.692383,4216.025879,4202.692383,4153.333496,4213.205078,4203.589844,3410.000000,4.000000,82.000000,,,,0.000000,4.000000,4.000000,4.000000,4.000000,4.000000,4.000000,4.000000,4.000000,4.000000,4.000000,4.000000,4.000000,4.000000,4.000000,100.000000,,,,,,,,,,,,,,,,
1645711699.128401,210.000000,0.000000,4219.743652,4207.307617,4189.743652,4204.871582,4222.436035,4211.794922,4211.153809,4276.153809,4227.692383,4207.307617,4194.871582,4146.922852,4208.846191,4201.153809,2242.000000,4.000000,82.000000,,,,0.000000,4.000000,4.000000,4.000000,4.000000,4.000000,4.000000,4.000000,4.000000,4.000000,4.000000,4.000000,4.000000,4.000000,4.000000,100.000000,,,,,,,,,,,,,,,,
1645711699.132341,211.000000,0.000000,4226.025879,4211.025879,4191.922852,4205.384766,4221.794922,4211.538574,4210.256348,4275.769043,4224.358887,4203.461426,4192.436035,4144.871582,4206.538574,4204.615234,2690.000000,4.000000,82.000000,,,,0.000000,4.000000,4.000000,4.000000,4.000000,4.000000,4.000000,4.000000,4.000000,4.000000,4.000000,4.000000,4.000000,4.000000,4.000000,100.000000,,,,,,,,,,,,,,,,
1645711699.136181,212.000000,0.000000,4221.666504,4223.205078,4198.077148,4214.871582,4231.922852,4219.358887,4215.897461,4280.769043,4226.025879,4210.000000,4199.102539,4148.974121,4209.615234,4209.487305,3222.000000,4.000000,82.000000,,,,0.000000,4.000000,4.000000,4.000000,4.000000,4.000000,4.000000,4.000000,4.000000,4.000000,4.000000,4.000000,4.000000,4.000000,4.000000,100.000000,,,,,,,,,,,,,,,,
1645711699.140121,213.000000,0.000000,4216.410156,4233.205078,4203.077148,4223.846191,4242.436035,4227.436035,4222.051270,4285.512695,4230.256348,4218.846191,4207.051270,4154.487305,4214.487305,4210.769043,3410.000000,4.000000,82.000000,,,,0.000000,4.000000,4.000000,4.000000,4.000000,4.000000,4.000000,4.000000,4.000000,4.000000,4.000000,4.000000,4.000000,4.000000,4.000000,100.000000,,,,,,,,,,,,,,,,
1645711699.144061,214.000000,0.000000,4221.282227,4230.641113,4202.948730,4222.436035,4241.153809,4226.922852,4223.077148,4284.487305,4231.922852,4218.205078,4206.410156,4156.025879,4215.641113,4208.846191,2242.000000,4.000000,82.000000,,,,0.000000,4.000000,4.000000,4.000000,4.000000,4.000000,4.000000,4.000000,4.000000,4.000000,4.000000,4.000000,4.000000,4.000000,4.000000,100.000000,,,,,,,,,,,,,,,,
1645711699.148001,215.000000,0.000000,4230.128418,4217.563965,4198.461426,4212.820313,4229.615234,4219.487305,4220.000000,4278.077148,4228.717773,4208.205078,4198.589844,4153.333496,4212.051270,4206.153809,2690.000000,4.000000,82.000000,,,,0.000000,4.000000,4.000000,4.000000,4.000000,4.000000,4.000000,4.000000,4.000000,4.000000,4.000000,4.000000,4.000000,4.000000,4.000000,100.000000,,,,,,,,,,,,,,,,
1645711699.151941,216.000000,0.000000,4227.307617,4207.436035,4194.230957,4207.307617,4222.051270,4214.615234,4217.179688,4272.436035,4224.230957,4200.512695,4194.358887,4149.871582,4207.948730,4202.820313,3222.000000,4.000000,82.000000,,,,0.000000,4.000000,4.000000,4.000000,4.000000,4.000000,4.000000,4.000000,4.000000,4.000000,4.000000,4.000000,4.000000,4.000000,4.000000,100.000000,,,,,,,,,,,,,,,,
1645711699.155881,217.000000,0.000000,4210.512695,4210.641113,4192.948730,4213.077148,4227.307617,4217.563965,4216.025879,4271.410156,4221.666504,4203.205078,4199.230957,4147.563965,4207.307617,4197.692383,3410.000000,4.000000,82.000000,,,,0.000000,4.000000,4.000000,4.000000,4.000000,4.000000,4.000000,4.000000,4.000000,4.000000,4.000000,4.000000,4.000000,4.000000,4.000000,100.000000,,,,,,,,,,,,,,,,
1645711699.159822,218.000000,0.000000,4197.820313,4223.461426,4193.077148,4223.846191,4237.820313,4222.436035,4213.974121,4272.563965,4220.512695,4209.615234,4206.282227,4144.743652,4208.461426,4193.077148,2242.000000,4.000000,82.000000,,,,0.000000,4.000000,4.000000,4.000000,4.000000,4.000000,4.000000,4.000000,4.000000,4.000000,4.000000,4.000000,4.000000,4.000000,4.000000,100.000000,,,,,,,,,,,,,,,,
1645711699.163762,219.000000,0.000000,4205.897461,4234.102539,4192.307617,4228.205078,4240.641113,4221.153809,4210.128418,4271.410156,4218.077148,4208.205078,4205.000000,4140.641113,4207.563965,4194.743652,2690.000000,4.000000,82.000000,,,,0.000000,4.000000,4.000000,4.000000,4.000000,4.000000,4.000000,4.000000,4.000000,4.000000,4.000000,4.000000,4.000000,4.000000,4.000000,100.000000,,,,,,,,,,,,,,,,
1645711699.167702,220.000000,0.000000,4227.692383,4236.666504,4191.025879,4223.846191,4234.230957,4215.256348,4208.205078,4268.461426,4215.512695,4198.589844,4195.769043,4137.692383,4204.487305,4204.615234,3222.000000,4.000000,82.000000,,,,0.000000,4.000000,4.000000,4.000000,4.000000,4.000000,4.000000,4.000000,4.000000,4.000000,4.000000,4.000000,4.000000,4.000000,4.000000,100.000000,,,,,,,,,,,,,,,,
1645711699.171642,221.000000,0.000000,4238.974121,4235.256348,4191.922852,4218.846191,4229.487305,4213.974121,4212.436035,4268.846191,4216.794922,4192.948730,4189.487305,4139.743652,4202.948730,4215.897461,3410.000000,4.000000,82.000000,,,,0.000000,4.000000,4.000000,4.000000,4.000000,4.000000,4.000000,4.000000,4.000000,4.000000,4.000000,4.000000,4.000000,4.000000,4.000000,100.000000,,,,,,,,,,,,,,,,
1645711699.175582,222.000000,0.000000,4227.692383,4235.641113,4195.256348,4219.743652,4234.358887,4220.769043,4220.384766,4274.230957,4223.205078,4200.256348,4193.333496,4146.153809,4205.384766,4217.820313,2242.000000,4.000000,82.000000,,,,0.000000,4.000000,4.000000,4.000000,4.000000,4.000000,4.000000,4.000000,4.000000,4.000000,4.000000,4.000000,4.000000,4.000000,4.000000,100.000000,,,,,,,,,,,,,,,,
1645711699.179522,223.000000,0.000000,4208.717773,4237.051270,4197.563965,4223.461426,4241.922852,4228.077148,4223.846191,4279.358887,4230.000000,4213.846191,4201.794922,4151.153809,4208.717773,4207.948730,2690.000000,4.000000,82.000000,,,,0.000000,4.000000,4.000000,4.000000,4.000000,4.000000,4.000000,4.000000,4.000000,4.000000,4.000000,4.000000,4.000000,4.000000,4.000000,100.000000,,,,,,,,,,,,,,,,
1645711699.183462,224.000000,0.000000,4204.743652,4234.743652,4196.794922,4222.563965,4240.256348,4226.025879,4217.820313,4277.307617,4231.153809,4219.615234,4203.974121,4150.256348,4208.205078,4195.000000,3222.000000,4.000000,82.000000,,,,0.000000,4.000000,4.000000,4.000000,4.000000,4.000000,4.000000,4.000000,4.000000,4.000000,4.000000,4.000000,4.000000,4.000000,4.000000,100.000000,,,,,,,,,,,,,,,,
1645711699.187402,225.000000,0.000000,4218.589844,4229.230957,4195.000000,4217.692383,4229.102539,4215.512695,4207.307617,4268.974121,4227.051270,4213.077148,4198.077148,4145.769043,4204.102539,4190.769043,3410.000000,4.000000,82.000000,,,,0.000000,4.000000,4.000000,4.000000,4.000000,4.000000,4.000000,4.000000,4.000000,4.000000,4.000000,4.000000,4.000000,4.000000,4.000000,100.000000,,,,,,,,,,,,,,,,
1645711699.191342,226.000000,0.000000,4231.025879,4226.410156,4196.410156,4217.051270,4221.410156,4208.077148,4201.666504,4262.307617,4223.205078,4204.615234,4193.589844,4144.358887,4201.538574,4197.436035,2242.000000,4.000000,82.000000,,,,0.000000,4.000000,4.000000,4.000000,4.000000,4.000000,4.000000,4.000000,4.000000,4.000000,4.000000,4.000000,4.000000,4.000000,4.000000,100.000000,,,,,,,,,,,,,,,,
1645711699.195283,227.000000,0.000000,4227.179688,4229.358887,4201.794922,4225.000000,4227.179688,4211.538574,4204.871582,4263.333496,4224.102539,4204.743652,4197.820313,4148.974121,4204.102539,4206.666504,2690.000000,4.000000,82.000000,,,,0.000000,4.000000,4.000000,4.000000,4.000000,4.000000,4.000000,4.000000,4.000000,4.000000,4.000000,4.000000,4.000000,4.000000,4.000000,100.000000,,,,,,,,,,,,,,,,
1645711699.199223,228.000000,0.000000,4214.358887,4233.461426,4206.410156,4234.615234,4239.358887,4220.769043,4211.922852,4269.230957,4226.666504,4211.025879,4205.769043,4155.512695,4208.333496,4210.000000,3222.000000,4.000000,82.000000,,,,0.000000,4.000000,4.000000,4.000000,4.000000,4.000000,4.000000,4.000000,4.000000,4.000000,4.000000,4.000000,4.000000,4.000000,4.000000,100.000000,,,,,,,,,,,,,,,,
1645711699.203163,229.000000,0.000000,4211.794922,4232.051270,4206.153809,4235.000000,4242.948730,4224.230957,4214.871582,4271.666504,4225.512695,4212.307617,4205.897461,4157.436035,4207.692383,4206.922852,3410.000000,4.000000,82.000000,,,,0.000000,4.000000,4.000000,4.000000,4.000000,4.000000,4.000000,4.000000,4.000000,4.000000,4.000000,4.000000,4.000000,4.000000,4.000000,100.000000,,,,,,,,,,,,,,,,
1645711699.207203,230.000000,0.000000,4223.717773,4226.410156,4202.692383,4224.487305,4233.205078,4218.717773,4212.307617,4268.205078,4220.000000,4204.615234,4196.025879,4154.358887,4201.282227,4203.205078,2242.000000,4.000000,82.000000,,,,0.000000,4.000000,4.000000,4.000000,4.000000,4.000000,4.000000,4.000000,4.000000,4.000000,4.000000,4.000000,4.000000,4.000000,4.000000,100.000000,,,,,,,,,,,,,,,,
1645711699.211143,231.000000,0.000000,4235.000000,4225.128418,4201.538574,4214.487305,4222.051270,4212.179688,4209.358887,4264.871582,4215.641113,4196.282227,4186.666504,4151.794922,4195.000000,4202.051270,2690.000000,4.000000,82.000000,,,,0.000000,4.000000,4.000000,4.000000,4.000000,4.000000,4.000000,4.000000,4.000000,4.000000,4.000000,4.000000,4.000000,4.000000,4.000000,100.000000,,,,,,,,,,,,,,,,
1645711699.215083,232.000000,0.000000,4231.922852,4233.333496,4205.641113,4216.153809,4222.307617,4212.563965,4210.128418,4268.205078,4217.692383,4197.179688,4188.205078,4153.974121,4195.256348,4200.769043,3222.000000,4.000000,82.000000,,,,0.000000,4.000000,4.000000,4.000000,4.000000,4.000000,4.000000,4.000000,4.000000,4.000000,4.000000,4.000000,4.000000,4.000000,4.000000,100.000000,,,,,,,,,,,,,,,,
1645711699.219023,233.000000,0.000000,4221.025879,4245.256348,4212.436035,4227.820313,4232.436035,4217.563965,4212.820313,4276.025879,4223.974121,4205.128418,4197.948730,4159.230957,4201.153809,4197.307617,3410.000000,4.000000,82.000000,,,,0.000000,4.000000,4.000000,4.000000,4.000000,4.000000,4.000000,4.000000,4.000000,4.000000,4.000000,4.000000,4.000000,4.000000,4.000000,100.000000,,,,,,,,,,,,,,,,
1645711699.222963,234.000000,0.000000,4218.974121,4250.128418,4216.538574,4237.820313,4239.487305,4218.717773,4213.077148,4280.128418,4227.692383,4208.717773,4204.358887,4161.538574,4206.153809,4194.615234,2242.000000,4.000000,82.000000,,,,0.000000,4.000000,4.000000,4.000000,4.000000,4.000000,4.000000,4.000000,4.000000,4.000000,4.000000,4.000000,4.000000,4.000000,4.000000,100.000000,,,,,,,,,,,,,,,,
1645711699.226903,235.000000,0.000000,4229.230957,4243.974121,4216.153809,4238.333496,4236.282227,4213.205078,4210.000000,4276.410156,4225.384766,4203.077148,4201.410156,4158.717773,4205.897461,4197.820313,2690.000000,4.000000,82.000000,,,,0.000000,4.000000,4.000000,4.000000,4.000000,4.000000,4.000000,4.000000,4.000000,4.000000,4.000000,4.000000,4.000000,4.000000,4.000000,100.000000,,,,,,,,,,,,,,,,
1645711699.230843,236.000000,0.000000,4236.922852,4234.102539,4213.717773,4233.717773,4229.743652,4207.692383,4207.692383,4269.615234,4220.897461,4196.410156,4195.769043,4154.102539,4202.820313,4206.153809,3222.000000,4.000000,82.000000,,,,0.000000,4.000000,4.000000,4.000000,4.000000,4.000000,4.000000,4.000000,4.000000,4.000000,4.000000,4.000000,4.000000,4.000000,4.000000,100.000000,,,,,,,,,,,,,,,,
1645711699.234783,237.000000,0.000000,4229.102539,4229.615234,4212.179688,4232.051270,4229.487305,4208.974121,4208.333496,4267.820313,4220.256348,4199.102539,4195.897461,4151.666504,4201.410156,4212.179688,3410.000000,4.000000,82.000000,,,,0.000000,4.000000,4.000000,4.000000,4.000000,4.000000,4.000000,4.000000,4.000000,4.000000,4.000000,4.000000,4.000000,4.000000,4.000000,100.000000,,,,,,,,,,,,,,,,
1645711699.238724,238.000000,0.000000,4213.974121,4231.153809,4211.025879,4234.230957,4234.487305,4214.487305,4210.256348,4273.077148,4223.589844,4209.102539,4200.641113,4151.153809,4201.922852,4209.487305,2242.000000,4.000000,82.000000,,,,0.000000,4.000000,4.000000,4.000000,4.000000,4.000000,4.000000,4.000000,4.000000,4.000000,4.000000,4.000000,4.000000,4.000000,4.000000,100.000000,,,,,,,,,,,,,,,,
1645711699.242664,239.000000,0.000000,4209.871582,4232.436035,4208.205078,4234.102539,4235.000000,4216.410156,4210.384766,4280.897461,4225.897461,4214.102539,4200.512695,4149.102539,4200.769043,4201.282227,2690.000000,4.000000,82.000000,,,,0.000000,4.000000,4.000000,4.000000,4.000000,4.000000,4.000000,4.000000,4.000000,4.000000,4.000000,4.000000,4.000000,4.000000,4.000000,100.000000,,,,,,,,,,,,,,,,
1645711699.246604,240.000000,0.000000,4221.538574,4229.871582,4203.717773,4228.589844,4227.307617,4211.922852,4209.743652,4287.051270,4223.589844,4207.948730,4192.179688,4144.743652,4196.666504,4196.794922,3222.000000,4.000000,82.000000,,,,0.000000,4.000000,4.000000,4.000000,4.000000,4.000000,4.000000,4.000000,4.000000,4.000000,4.000000,4.000000,4.000000,4.000000,4.000000,100.000000,,,,,,,,,,,,,,,,
1645711699.250544,241.000000,0.000000,4232.948730,4227.051270,4201.025879,4223.077148,4220.256348,4207.563965,4211.666504,4293.461426,4219.230957,4199.102539,4183.846191,4142.179688,4193.077148,4200.512695,3410.000000,4.000000,82.000000,,,,0.000000,4.000000,4.000000,4.000000,4.000000,4.000000,4.000000,4.000000,4.000000,4.000000,4.000000,4.000000,4.000000,4.000000,4.000000,100.000000,,,,,,,,,,,,,,,,
1645711699.254484,242.000000,0.000000,4227.820313,4228.589844,4202.307617,4224.230957,4223.333496,4209.743652,4216.538574,4303.077148,4218.077148,4198.974121,4185.641113,4144.615234,4194.230957,4207.051270,2242.000000,4.000000,82.000000,,,,0.000000,4.000000,4.000000,4.000000,4.000000,4.000000,4.000000,4.000000,4.000000,4.000000,4.000000,4.000000,4.000000,4.000000,4.000000,100.000000,,,,,,,,,,,,,,,,
1645711699.258424,243.000000,0.000000,4211.153809,4232.179688,4205.128418,4229.743652,4233.717773,4215.384766,4219.871582,4313.461426,4220.897461,4206.922852,4194.743652,4150.128418,4198.717773,4207.948730,2690.000000,4.000000,82.000000,,,,0.000000,4.000000,4.000000,4.000000,4.000000,4.000000,4.000000,4.000000,4.000000,4.000000,4.000000,4.000000,4.000000,4.000000,4.000000,100.000000,,,,,,,,,,,,,,,,
1645711699.262364,244.000000,0.000000,4202.948730,4230.512695,4205.641113,4230.256348,4238.461426,4215.384766,4217.563965,4318.333496,4223.077148,4210.512695,4198.846191,4152.563965,4200.897461,4201.794922,3222.000000,4.000000,82.000000,,,,0.000000,4.000000,4.000000,4.000000,4.000000,4.000000,4.000000,4.000000,4.000000,4.000000,4.000000,4.000000,4.000000,4.000000,4.000000,100.000000,,,,,,,,,,,,,,,,
1645711699.266304,245.000000,0.000000,4211.922852,4221.666504,4203.077148,4221.410156,4232.307617,4207.692383,4211.794922,4314.743652,4220.641113,4201.922852,4191.153809,4148.717773,4198.077148,4194.487305,3410.000000,4.000000,82.000000,,,,0.000000,4.000000,4.000000,4.000000,4.000000,4.000000,4.000000,4.000000,4.000000,4.000000,4.000000,4.000000,4.000000,4.000000,4.000000,100.000000,,,,,,,,,,,,,,,,
1645711699.270244,246.000000,0.000000,4224.871582,4213.717773,4200.128418,4210.384766,4225.000000,4201.410156,4209.487305,4308.846191,4215.897461,4188.974121,4179.615234,4141.666504,4193.717773,4191.410156,2242.000000,4.000000,82.000000,,,,0.000000,4.000000,4.000000,4.000000,4.000000,4.000000,4.000000,4.000000,4.000000,4.000000,4.000000,4.000000,4.000000,4.000000,4.000000,100.000000,,,,,,,,,,,,,,,,
1645711699.274185,247.000000,0.000000,4224.230957,4215.000000,4199.743652,4207.436035,4228.717773,4206.153809,4214.102539,4309.358887,4214.358887,4185.512695,4177.436035,4136.666504,4193.205078,4191.538574,2690.000000,4.000000,82.000000,,,,0.000000,4.000000,4.000000,4.000000,4.000000,4.000000,4.000000,4.000000,4.000000,4.000000,4.000000,4.000000,4.000000,4.000000,4.000000,100.000000,,,,,,,,,,,,,,,,
1645711699.278125,248.000000,0.000000,4210.897461,4223.846191,4200.384766,4213.333496,4242.051270,4218.974121,4221.282227,4318.205078,4217.563965,4194.102539,4186.153809,4134.358887,4196.410156,4190.384766,3222.000000,4.000000,82.000000,,,,0.000000,4.000000,4.000000,4.000000,4.000000,4.000000,4.000000,4.000000,4.000000,4.000000,4.000000,4.000000,4.000000,4.000000,4.000000,100.000000,,,,,,,,,,,,,,,,
1645711699.282165,249.000000,0.000000,4202.179688,4228.974121,4198.589844,4218.717773,4250.897461,4226.922852,4223.589844,4329.102539,4221.666504,4202.692383,4194.615234,4131.794922,4198.077148,4188.077148,3410.000000,4.000000,82.000000,,,,0.000000,4.000000,4.000000,4.000000,4.000000,4.000000,4.000000,4.000000,4.000000,4.000000,4.000000,4.000000,4.000000,4.000000,4.000000,100.000000,,,,,,,,,,,,,,,,
1645711699.286105,250.000000,0.000000,4208.077148,4223.846191,4193.461426,4216.666504,4246.153809,4223.205078,4219.102539,4335.256348,4222.692383,4200.128418,4193.205078,4127.563965,4194.871582,4189.615234,2242.000000,4.000000,82.000000,,,,0.000000,4.000000,4.000000,4.000000,4.000000,4.000000,4.000000,4.000000,4.000000,4.000000,4.000000,4.000000,4.000000,4.000000,4.000000,100.000000,,,,,,,,,,,,,,,,
1645711699.290045,251.000000,0.000000,4218.846191,4214.871582,4189.102539,4211.410156,4235.641113,4215.128418,4213.974121,4336.282227,4221.153809,4190.512695,4185.897461,4125.128418,4190.128418,4196.922852,2690.000000,4.000000,82.000000,,,,0.000000,4.000000,4.000000,4.000000,4.000000,4.000000,4.000000,4.000000,4.000000,4.000000,4.000000,4.000000,4.000000,4.000000,4.000000,100.000000,,,,,,,,,,,,,,,,
1645711699.293985,252.000000,0.000000,4219.102539,4213.974121,4189.743652,4212.051270,4234.230957,4214.743652,4214.102539,4337.179688,4221.282227,4187.436035,4183.717773,4128.205078,4189.743652,4204.615234,3222.000000,4.000000,82.000000,,,,0.000000,4.000000,4.000000,4.000000,4.000000,4.000000,4.000000,4.000000,4.000000,4.000000,4.000000,4.000000,4.000000,4.000000,4.000000,100.000000,,,,,,,,,,,,,,,,
1645711699.297925,253.000000,0.000000,4209.358887,4223.974121,4194.871582,4219.487305,4244.871582,4223.461426,4218.717773,4340.000000,4224.230957,4196.410156,4189.358887,4135.128418,4195.000000,4206.153809,3410.000000,4.000000,82.000000,,,,0.000000,4.000000,4.000000,4.000000,4.000000,4.000000,4.000000,4.000000,4.000000,4.000000,4.000000,4.000000,4.000000,4.000000,4.000000,100.000000,,,,,,,,,,,,,,,,
1645711699.301865,254.000000,0.000000,4204.615234,4235.384766,4199.102539,4225.256348,4255.384766,4231.025879,4221.666504,4342.563965,4226.538574,4208.717773,4194.615234,4140.128418,4200.512695,4202.051270,2242.000000,4.000000,82.000000,,,,0.000000,4.000000,4.000000,4.000000,4.000000,4.000000,4.000000,4.000000,4.000000,4.000000,4.000000,4.000000,4.000000,4.000000,4.000000,100.000000,,,,,,,,,,,,,,,,
1645711699.305805,255.000000,0.000000,4213.333496,4237.307617,4198.717773,4222.820313,4254.743652,4229.358887,4219.743652,4342.563965,4225.128418,4213.461426,4192.436035,4139.615234,4201.410156,4199.230957,112.000000,4.000000,82.000000,,,,0.000000,4.000000,4.000000,4.000000,4.000000,4.000000,4.000000,4.000000,4.000000,4.000000,4.000000,4.000000,4.000000,4.000000,4.000000,100.000000,,,,,,,,,,,,,,,,
1645711699.309745,0.000000,0.000000,4224.615234,4230.256348,4195.256348,4215.897461,4246.538574,4222.436035,4216.025879,4342.563965,4222.179688,4211.025879,4187.436035,4136.666504,4198.589844,4202.307617,3304.000000,4.000000,82.000000,,,,0.000000,4.000000,4.000000,4.000000,4.000000,4.000000,4.000000,4.000000,4.000000,4.000000,4.000000,4.000000,4.000000,4.000000,4.000000,100.000000,,,,,,,,,,,,,,,,
1645711699.313685,1.000000,0.000000,4223.077148,4222.692383,4192.692383,4212.948730,4242.307617,4219.615234,4214.743652,4346.153809,4222.948730,4210.512695,4189.487305,4136.153809,4196.666504,4207.436035,3160.000000,4.000000,82.000000,,,,0.000000,4.000000,4.000000,4.000000,4.000000,4.000000,4.000000,4.000000,4.000000,4.000000,4.000000,4.000000,4.000000,4.000000,4.000000,100.000000,,,,,,,,,,,,,,,,
1645711699.317626,2.000000,0.000000,4210.000000,4219.743652,4192.307617,4215.512695,4245.512695,4223.461426,4215.512695,4352.563965,4228.461426,4215.256348,4199.358887,4139.102539,4197.307617,4208.205078,2212.000000,4.000000,82.000000,,,,0.000000,4.000000,4.000000,4.000000,4.000000,4.000000,4.000000,4.000000,4.000000,4.000000,4.000000,4.000000,4.000000,4.000000,4.000000,100.000000,,,,,,,,,,,,,,,,
1645711699.321566,3.000000,0.000000,4201.922852,4218.333496,4192.563965,4216.025879,4247.436035,4226.153809,4214.743652,4356.153809,4234.102539,4219.102539,4207.051270,4142.051270,4197.436035,4204.230957,3361.000000,4.000000,82.000000,,,,0.000000,4.000000,4.000000,4.000000,4.000000,4.000000,4.000000,4.000000,4.000000,4.000000,4.000000,4.000000,4.000000,4.000000,4.000000,100.000000,,,,,,,,,,,,,,,,
1645711699.325506,4.000000,0.000000,4209.487305,4215.000000,4192.307617,4209.358887,4241.025879,4221.666504,4211.410156,4353.589844,4234.743652,4215.512695,4204.230957,4142.820313,4194.871582,4202.179688,3534.000000,4.000000,82.000000,,,,0.000000,4.000000,4.000000,4.000000,4.000000,4.000000,4.000000,4.000000,4.000000,4.000000,4.000000,4.000000,4.000000,4.000000,4.000000,100.000000,,,,,,,,,,,,,,,,
1645711699.329446,5.000000,0.000000,4222.563965,4213.205078,4193.846191,4201.153809,4231.922852,4214.615234,4209.230957,4348.461426,4231.282227,4208.717773,4195.641113,4142.948730,4191.794922,4206.538574,3049.000000,4.000000,82.000000,,,,0.000000,4.000000,4.000000,4.000000,4.000000,4.000000,4.000000,4.000000,4.000000,4.000000,4.000000,4.000000,4.000000,4.000000,4.000000,100.000000,,,,,,,,,,,,,,,,
1645711699.333386,6.000000,0.000000,4223.333496,4218.717773,4199.487305,4201.538574,4232.179688,4214.102539,4211.410156,4347.307617,4228.846191,4208.205078,4193.333496,4145.641113,4192.436035,4213.077148,3207.000000,4.000000,82.000000,,,,0.000000,4.000000,4.000000,4.000000,4.000000,4.000000,4.000000,4.000000,4.000000,4.000000,4.000000,4.000000,4.000000,4.000000,4.000000,100.000000,,,,,,,,,,,,,,,,
1645711699.337326,7.000000,0.000000,4210.512695,4229.230957,4206.410156,4211.794922,4243.461426,4221.282227,4215.897461,4351.538574,4230.384766,4215.769043,4200.769043,4149.615234,4196.153809,4214.487305,2350.000000,4.000000,82.000000,,,,0.000000,4.000000,4.000000,4.000000,4.000000,4.000000,4.000000,4.000000,4.000000,4.000000,4.000000,4.000000,4.000000,4.000000,4.000000,100.000000,,,,,,,,,,,,,,,,
1645711699.341266,8.000000,0.000000,4201.025879,4234.487305,4209.358887,4221.666504,4253.717773,4227.179688,4217.436035,4355.769043,4232.948730,4221.794922,4208.974121,4150.512695,4197.051270,4208.717773,1656.000000,4.000000,82.000000,,,,0.000000,4.000000,4.000000,4.000000,4.000000,4.000000,4.000000,4.000000,4.000000,4.000000,4.000000,4.000000,4.000000,4.000000,4.000000,100.000000,,,,,,,,,,,,,,,,
1645711699.345206,9.000000,0.000000,4207.820313,4227.692383,4205.769043,4221.922852,4250.897461,4224.487305,4214.358887,4354.615234,4232.692383,4217.563965,4208.846191,4146.538574,4191.410156,4201.410156,2920.000000,4.000000,82.000000,,,,0.000000,4.000000,4.000000,4.000000,4.000000,4.000000,4.000000,4.000000,4.000000,4.000000,4.000000,4.000000,4.000000,4.000000,4.000000,100.000000,,,,,,,,,,,,,,,,
1645711699.349146,10.000000,0.000000,4222.436035,4215.000000,4200.000000,4215.000000,4238.846191,4216.794922,4211.025879,4349.615234,4229.871582,4207.563965,4201.922852,4141.538574,4182.948730,4198.461426,2280.000000,4.000000,82.000000,,,,0.000000,4.000000,4.000000,4.000000,4.000000,4.000000,4.000000,4.000000,4.000000,4.000000,4.000000,4.000000,4.000000,4.000000,4.000000,100.000000,,,,,,,,,,,,,,,,
1645711699.353087,11.000000,0.000000,4226.666504,4209.102539,4198.333496,4210.512695,4231.538574,4213.589844,4212.051270,4346.153809,4228.589844,4204.102539,4198.333496,4141.410156,4179.615234,4199.871582,2676.000000,4.000000,82.000000,,,,0.000000,4.000000,4.000000,4.000000,4.000000,4.000000,4.000000,4.000000,4.000000,4.000000,4.000000,4.000000,4.000000,4.000000,4.000000,100.000000,,,,,,,,,,,,,,,,
1645711699.357127,12.000000,0.000000,4216.410156,4215.769043,4202.692383,4213.077148,4236.025879,4217.948730,4216.025879,4346.282227,4230.512695,4211.538574,4201.922852,4146.538574,4184.487305,4201.282227,3212.000000,4.000000,82.000000,,,,0.000000,4.000000,4.000000,4.000000,4.000000,4.000000,4.000000,4.000000,4.000000,4.000000,4.000000,4.000000,4.000000,4.000000,4.000000,100.000000,,,,,,,,,,,,,,,,
1645711699.361067,13.000000,0.000000,4207.563965,4227.307617,4209.358887,4217.820313,4244.487305,4222.948730,4217.436035,4346.025879,4232.692383,4219.743652,4206.794922,4151.794922,4192.307617,4201.922852,3023.000000,4.000000,82.000000,,,,0.000000,4.000000,4.000000,4.000000,4.000000,4.000000,4.000000,4.000000,4.000000,4.000000,4.000000,4.000000,4.000000,4.000000,4.000000,100.000000,,,,,,,,,,,,,,,,
1645711699.365007,14.000000,0.000000,4214.615234,4233.333496,4214.230957,4218.461426,4246.025879,4221.410156,4214.615234,4341.666504,4232.179688,4217.820313,4206.538574,4153.717773,4196.282227,4205.384766,2280.000000,4.000000,82.000000,,,,0.000000,4.000000,4.000000,4.000000,4.000000,4.000000,4.000000,4.000000,4.000000,4.000000,4.000000,4.000000,4.000000,4.000000,4.000000,100.000000,,,,,,,,,,,,,,,,
1645711699.368947,15.000000,0.000000,4231.410156,4232.051270,4217.307617,4217.051270,4241.538574,4216.153809,4211.794922,4335.897461,4229.871582,4208.461426,4204.102539,4154.358887,4195.769043,4214.230957,2676.000000,4.000000,82.000000,,,,0.000000,4.000000,4.000000,4.000000,4.000000,4.000000,4.000000,4.000000,4.000000,4.000000,4.000000,4.000000,4.000000,4.000000,4.000000,100.000000,,,,,,,,,,,,,,,,
1645711699.372887,16.000000,0.000000,4238.974121,4231.153809,4220.769043,4220.641113,4241.794922,4215.512695,4214.230957,4334.487305,4229.871582,4205.256348,4207.948730,4157.563965,4196.153809,4224.487305,3212.000000,4.000000,82.000000,,,,0.000000,4.000000,4.000000,4.000000,4.000000,4.000000,4.000000,4.000000,4.000000,4.000000,4.000000,4.000000,4.000000,4.000000,4.000000,100.000000,1.000000,41.666668,1.000000,3.000000,3.000000,4.000000,3.000000,3.000000,4.000000,3.000000,3.000000,1.000000,3.000000,4.000000,3.000000,3.000000
1645711699.376827,17.000000,0.000000,4230.769043,4234.871582,4224.487305,4230.128418,4251.282227,4221.666504,4220.769043,4338.461426,4233.461426,4214.487305,4218.461426,4163.077148,4200.128418,4228.717773,3023.000000,4.000000,82.000000,,,,0.000000,4.000000,4.000000,4.000000,4.000000,4.000000,4.000000,4.000000,4.000000,4.000000,4.000000,4.000000,4.000000,4.000000,4.000000,100.000000,,,,,,,,,,,,,,,,
1645711699.380767,18.000000,0.000000,4220.256348,4238.717773,4225.384766,4237.051270,4260.897461,4227.307617,4225.256348,4342.307617,4236.922852,4226.666504,4224.615234,4166.025879,4204.230957,4223.974121,2280.000000,4.000000,82.000000,,,,0.000000,4.000000,4.000000,4.000000,4.000000,4.000000,4.000000,4.000000,4.000000,4.000000,4.000000,4.000000,4.000000,4.000000,4.000000,100.000000,,,,,,,,,,,,,,,,
1645711699.384707,19.000000,0.000000,4222.948730,4236.410156,4222.051270,4233.333496,4259.102539,4225.128418,4224.358887,4339.743652,4236.282227,4228.205078,4217.820313,4162.948730,4203.461426,4215.128418,2676.000000,4.000000,82.000000,,,,0.000000,4.000000,4.000000,4.000000,4.000000,4.000000,4.000000,4.000000,4.000000,4.000000,4.000000,4.000000,4.000000,4.000000,4.000000,100.000000,,,,,,,,,,,,,,,,
1645711699.388647,20.000000,0.000000,4235.128418,4229.358887,4217.051270,4222.179688,4247.948730,4217.436035,4221.410156,4332.051270,4232.692383,4218.333496,4203.846191,4156.794922,4198.205078,4209.871582,3212.000000,4.000000,82.000000,,,,0.000000,4.000000,4.000000,4.000000,4.000000,4.000000,4.000000,4.000000,4.000000,4.000000,4.000000,4.000000,4.000000,4.000000,4.000000,100.000000,,,,,,,,,,,,,,,,
1645711699.392587,21.000000,0.000000,4239.102539,4225.641113,4214.743652,4214.487305,4240.512695,4212.948730,4220.641113,4326.153809,4231.153809,4209.743652,4198.077148,4153.974121,4195.000000,4210.256348,3023.000000,4.000000,82.000000,,,,0.000000,4.000000,4.000000,4.000000,4.000000,4.000000,4.000000,4.000000,4.000000,4.000000,4.000000,4.000000,4.000000,4.000000,4.000000,100.000000,,,,,,,,,,,,,,,,
1645711699.396528,22.000000,0.000000,4227.948730,4229.102539,4215.769043,4216.282227,4244.102539,4215.641113,4222.307617,4326.410156,4233.589844,4211.794922,4207.563965,4156.666504,4198.589844,4212.692383,2280.000000,4.000000,82.000000,,,,0.000000,4.000000,4.000000,4.000000,4.000000,4.000000,4.000000,4.000000,4.000000,4.000000,4.000000,4.000000,4.000000,4.000000,4.000000,100.000000,,,,,,,,,,,,,,,,
1645711699.400468,23.000000,0.000000,4214.871582,4233.717773,4216.538574,4221.794922,4251.153809,4219.358887,4222.051270,4329.230957,4236.410156,4219.487305,4223.461426,4161.153809,4206.794922,4213.846191,2676.000000,4.000000,82.000000,,,,0.000000,4.000000,4.000000,4.000000,4.000000,4.000000,4.000000,4.000000,4.000000,4.000000,4.000000,4.000000,4.000000,4.000000,4.000000,100.000000,,,,,,,,,,,,,,,,
1645711699.404408,24.000000,0.000000,4216.025879,4231.538574,4213.717773,4221.922852,4250.256348,4217.307617,4218.205078,4328.589844,4234.615234,4220.897461,4230.769043,4162.051270,4213.461426,4215.128418,3212.000000,4.000000,82.000000,,,,0.000000,4.000000,4.000000,4.000000,4.000000,4.000000,4.000000,4.000000,4.000000,4.000000,4.000000,4.000000,4.000000,4.000000,4.000000,100.000000,,,,,,,,,,,,,,,,
1645711699.408348,25.000000,0.000000,4228.333496,4223.077148,4208.846191,4216.282227,4241.410156,4211.666504,4215.000000,4323.333496,4228.846191,4213.974121,4226.538574,4159.230957,4216.153809,4219.102539,3023.000000,4.000000,82.000000,,,,0.000000,4.000000,4.000000,4.000000,4.000000,4.000000,4.000000,4.000000,4.000000,4.000000,4.000000,4.000000,4.000000,4.000000,4.000000,100.000000,,,,,,,,,,,,,,,,
1645711699.412288,26.000000,0.000000,4234.230957,4216.153809,4205.641113,4212.692383,4236.025879,4211.282227,4217.436035,4319.102539,4225.128418,4209.358887,4220.512695,4157.051270,4217.692383,4223.846191,2280.000000,4.000000,82.000000,,,,0.000000,4.000000,4.000000,4.000000,4.000000,4.000000,4.000000,4.000000,4.000000,4.000000,4.000000,4.000000,4.000000,4.000000,4.000000,100.000000,,,,,,,,,,,,,,,,
1645711699.416228,27.000000,0.000000,4225.256348,4215.897461,4205.384766,4215.897461,4241.538574,4218.974121,4224.230957,4320.128418,4227.563965,4215.256348,4221.538574,4158.205078,4220.384766,4224.358887,2676.000000,4.000000,82.000000,,,,0.000000,4.000000,4.000000,4.000000,4.000000,4.000000,4.000000,4.000000,4.000000,4.000000,4.000000,4.000000,4.000000,4.000000,4.000000,100.000000,,,,,,,,,,,,,,,,
1645711699.420168,28.000000,0.000000,4213.333496,4218.205078,4205.384766,4220.641113,4250.769043,4225.897461,4228.461426,4323.589844,4232.948730,4225.897461,4226.794922,4160.128418,4222.051270,4219.615234,3212.000000,4.000000,82.000000,,,,0.000000,4.000000,4.000000,4.000000,4.000000,4.000000,4.000000,4.000000,4.000000,4.000000,4.000000,4.000000,4.000000,4.000000,4.000000,100.000000,,,,,,,,,,,,,,,,
1645711699.424108,29.000000,0.000000,4214.230957,4215.769043,4202.179688,4219.230957,4251.410156,4222.563965,4225.128418,4323.333496,4234.615234,4228.333496,4226.666504,4158.205078,4219.102539,4215.256348,3023.000000,4.000000,82.000000,,,,0.000000,4.000000,4.000000,4.000000,4.000000,4.000000,4.000000,4.000000,4.000000,4.000000,4.000000,4.000000,4.000000,4.000000,4.000000,100.000000,,,,,,,,,,,,,,,,
1645711699.428048,30.000000,0.000000,4225.256348,4208.205078,4196.666504,4211.538574,4241.666504,4210.897461,4217.051270,4317.820313,4230.512695,4219.487305,4218.717773,4152.563965,4212.436035,4216.282227,2280.000000,4.000000,82.000000,,,,0.000000,4.000000,4.000000,4.000000,4.000000,4.000000,4.000000,4.000000,4.000000,4.000000,4.000000,4.000000,4.000000,4.000000,4.000000,100.000000,,,,,,,,,,,,,,,,
1645711699.432088,31.000000,0.000000,4229.102539,4202.948730,4192.692383,4206.538574,4233.589844,4203.589844,4212.179688,4312.051270,4225.128418,4209.615234,4210.641113,4147.563965,4207.179688,4220.897461,2676.000000,4.000000,82.000000,,,,0.000000,4.000000,4.000000,4.000000,4.000000,4.000000,4.000000,4.000000,4.000000,4.000000,4.000000,4.000000,4.000000,4.000000,4.000000,100.000000,,,,,,,,,,,,,,,,
1645711699.436029,32.000000,0.000000,4217.436035,4205.897461,4192.692383,4210.128418,4237.179688,4208.717773,4213.846191,4310.897461,4224.230957,4208.589844,4209.615234,4146.410156,4207.307617,4221.922852,0.000000,4.000000,82.000000,,,,0.000000,4.000000,4.000000,4.000000,4.000000,4.000000,4.000000,4.000000,4.000000,4.000000,4.000000,4.000000,4.000000,4.000000,4.000000,100.000000,,,,,,,,,,,,,,,,
1645711699.439969,33.000000,0.000000,4203.461426,4212.563965,4194.871582,4217.692383,4247.948730,4220.000000,4218.461426,4313.205078,4227.307617,4214.230957,4213.333496,4148.333496,4210.769043,4216.153809,0.000000,4.000000,82.000000,,,,0.000000,4.000000,4.000000,4.000000,4.000000,4.000000,4.000000,4.000000,4.000000,4.000000,4.000000,4.000000,4.000000,4.000000,4.000000,100.000000,,,,,,,,,,,,,,,,
1645711699.443909,34.000000,0.000000,4205.128418,4214.102539,4196.153809,4220.512695,4253.846191,4225.000000,4220.641113,4313.974121,4230.128418,4216.666504,4214.615234,4150.256348,4212.692383,4209.102539,0.000000,4.000000,82.000000,,,,0.000000,4.000000,4.000000,4.000000,4.000000,4.000000,4.000000,4.000000,4.000000,4.000000,4.000000,4.000000,4.000000,4.000000,4.000000,100.000000,,,,,,,,,,,,,,,,
1645711699.447849,35.000000,0.000000,4221.666504,4208.717773,4196.282227,4217.051270,4250.641113,4220.641113,4219.743652,4311.410156,4229.871582,4212.563965,4212.436035,4151.666504,4211.922852,4208.205078,0.000000,4.000000,82.000000,,,,0.000000,4.000000,4.000000,4.000000,4.000000,4.000000,4.000000,4.000000,4.000000,4.000000,4.000000,4.000000,4.000000,4.000000,4.000000,100.000000,,,,,,,,,,,,,,,,
1645711699.451789,36.000000,0.000000,4234.358887,4203.717773,4197.948730,4214.743652,4246.666504,4215.000000,4218.974121,4309.358887,4228.846191,4209.230957,4213.589844,4154.102539,4212.051270,4213.333496,0.000000,4.000000,82.000000,,,,0.000000,4.000000,4.000000,4.000000,4.000000,4.000000,4.000000,4.000000,4.000000,4.000000,4.000000,4.000000,4.000000,4.000000,4.000000,100.000000,,,,,,,,,,,,,,,,
1645711699.455729,37.000000,0.000000,4230.128418,4205.512695,4201.538574,4218.846191,4249.871582,4215.641113,4219.871582,4311.922852,4230.384766,4213.589844,4221.410156,4157.692383,4214.871582,4217.179688,0.000000,4.000000,82.000000,,,,0.000000,4.000000,4.000000,4.000000,4.000000,4.000000,4.000000,4.000000,4.000000,4.000000,4.000000,4.000000,4.000000,4.000000,4.000000,100.000000,,,,,,,,,,,,,,,,
1645711699.459669,38.000000,0.000000,4218.461426,4211.282227,4204.743652,4225.128418,4255.769043,4219.358887,4219.743652,4317.051270,4233.717773,4221.666504,4229.230957,4159.487305,4218.205078,4214.230957,0.000000,4.000000,82.000000,,,,0.000000,4.000000,4.000000,4.000000,4.000000,4.000000,4.000000,4.000000,4.000000,4.000000,4.000000,4.000000,4.000000,4.000000,4.000000,100.000000,,,,,,,,,,,,,,,,
1645711699.463609,39.000000,0.000000,4217.820313,4213.717773,4205.384766,4225.000000,4254.358887,4218.205078,4216.282227,4319.358887,4235.769043,4223.974121,4227.692383,4157.307617,4217.692383,4208.589844,0.000000,4.000000,82.000000,,,,0.000000,4.000000,4.000000,4.000000,4.000000,4.000000,4.000000,4.000000,4.000000,4.000000,4.000000,4.000000,4.000000,4.000000,4.000000,100.000000,,,,,,,,,,,,,,,,
1645711699.467549,40.000000,0.000000,4230.769043,4211.922852,4204.871582,4218.333496,4244.615234,4211.282227,4212.307617,4317.179688,4235.641113,4218.589844,4217.692383,4153.717773,4214.230957,4207.820313,0.000000,4.000000,82.000000,,,,0.000000,4.000000,4.000000,4.000000,4.000000,4.000000,4.000000,4.000000,4.000000,4.000000,4.000000,4.000000,4.000000,4.000000,4.000000,100.000000,,,,,,,,,,,,,,,,
1645711699.471489,41.000000,0.000000,4240.897461,4213.461426,4206.922852,4214.358887,4237.820313,4207.436035,4213.077148,4314.230957,4236.410156,4214.743652,4211.025879,4154.230957,4212.563965,4213.717773,0.000000,4.000000,82.000000,,,,0.000000,4.000000,4.000000,4.000000,4.000000,4.000000,4.000000,4.000000,4.000000,4.000000,4.000000,4.000000,4.000000,4.000000,4.000000,100.000000,,,,,,,,,,,,,,,,
1645711699.475430,42.000000,0.000000,4235.641113,4223.205078,4212.692383,4219.615234,4243.077148,4212.563965,4219.615234,4314.743652,4239.871582,4220.641113,4216.153809,4159.743652,4215.769043,4219.358887,0.000000,4.000000,82.000000,,,,0.000000,4.000000,4.000000,4.000000,4.000000,4.000000,4.000000,4.000000,4.000000,4.000000,4.000000,4.000000,4.000000,4.000000,4.000000,100.000000,,,,,,,,,,,,,,,,
1645711699.479370,43.000000,0.000000,4223.461426,4235.256348,4218.077148,4229.358887,4254.487305,4221.666504,4226.282227,4317.051270,4243.077148,4231.410156,4227.692383,4165.128418,4220.512695,4219.743652,0.000000,4.000000,82.000000,,,,0.000000,4.000000,4.000000,4.000000,4.000000,4.000000,4.000000,4.000000,4.000000,4.000000,4.000000,4.000000,4.000000,4.000000,4.000000,100.000000,,,,,,,,,,,,,,,,
1645711699.483310,44.000000,0.000000,4222.563965,4238.461426,4218.717773,4233.461426,4258.589844,4224.487305,4227.307617,4316.282227,4241.153809,4235.000000,4232.948730,4164.743652,4220.769043,4217.692383,0.000000,4.000000,82.000000,,,,0.000000,4.000000,4.000000,4.000000,4.000000,4.000000,4.000000,4.000000,4.000000,4.000000,4.000000,4.000000,4.000000,4.000000,4.000000,100.000000,,,,,,,,,,,,,,,,
1645711699.487250,45.000000,0.000000,4235.769043,4229.615234,4215.256348,4229.615234,4251.153809,4219.230957,4223.717773,4311.922852,4234.358887,4227.563965,4227.820313,4159.358887,4216.153809,4219.487305,0.000000,4.000000,82.000000,,,,0.000000,4.000000,4.000000,4.000000,4.000000,4.000000,4.000000,4.000000,4.000000,4.000000,4.000000,4.000000,4.000000,4.000000,4.000000,100.000000,,,,,,,,,,,,,,,,
1645711699.491190,46.000000,0.000000,4246.538574,4218.205078,4213.077148,4226.025879,4242.563965,4215.000000,4221.922852,4308.974121,4229.230957,4219.358887,4221.153809,4155.384766,4212.436035,4225.256348,0.000000,4.000000,82.000000,,,,0.000000,4.000000,4.000000,4.000000,4.000000,4.000000,4.000000,4.000000,4.000000,4.000000,4.000000,4.000000,4.000000,4.000000,4.000000,100.000000,,,,,,,,,,,,,,,,
1645711699.495130,47.000000,0.000000,4240.769043,4215.641113,4215.384766,4230.256348,4244.615234,4218.846191,4225.000000,4311.410156,4231.410156,4221.538574,4223.205078,4157.179688,4214.615234,4228.589844,0.000000,4.000000,82.000000,,,,0.000000,4.000000,4.000000,4.000000,4.000000,4.000000,4.000000,4.000000,4.000000,4.000000,4.000000,4.000000,4.000000,4.000000,4.000000,100.000000,,,,,,,,,,,,,,,,
1645711699.499070,48.000000,0.000000,4225.769043,4223.077148,4220.256348,4238.974121,4255.000000,4226.922852,4229.487305,4316.666504,4238.974121,4232.307617,4232.179688,4162.179688,4220.897461,4225.000000,0.000000,4.000000,82.000000,,,,0.000000,4.000000,4.000000,4.000000,4.000000,4.000000,4.000000,4.000000,4.000000,4.000000,4.000000,4.000000,4.000000,4.000000,4.000000,100.000000,,,,,,,,,,,,,,,,
1645711699.503110,49.000000,0.000000,4221.282227,4232.051270,4222.436035,4241.794922,4261.025879,4229.230957,4229.743652,4318.077148,4243.974121,4239.230957,4237.436035,4164.358887,4224.871582,4218.846191,0.000000,4.000000,82.000000,,,,0.000000,4.000000,4.000000,4.000000,4.000000,4.000000,4.000000,4.000000,4.000000,4.000000,4.000000,4.000000,4.000000,4.000000,4.000000,100.000000,,,,,,,,,,,,,,,,
1645711699.507050,50.000000,0.000000,4233.333496,4234.871582,4220.384766,4235.512695,4256.666504,4223.077148,4226.282227,4313.589844,4242.051270,4235.000000,4233.333496,4162.307617,4223.589844,4217.948730,0.000000,4.000000,82.000000,,,,0.000000,4.000000,4.000000,4.000000,4.000000,4.000000,4.000000,4.000000,4.000000,4.000000,4.000000,4.000000,4.000000,4.000000,4.000000,100.000000,,,,,,,,,,,,,,,,
