title:Alex-rFJer-hCzqfIquZWxLDwvQ, start timestamp:1645711661.157301, stop timestamp:1645711687.327382, headset type:EPOCPLUS, headset serial:3B9AEBFF, headset firmware:626, channels:55, sampling rate:eeg_256, samples:6643      , version:2.1, 
Timestamp,EEG.Counter,EEG.Interpolated,EEG.AF3,EEG.F7,EEG.F3,EEG.FC5,EEG.T7,EEG.P7,EEG.O1,EEG.O2,EEG.P8,EEG.T8,EEG.FC6,EEG.F4,EEG.F8,EEG.AF4,EEG.RawCq,EEG.Battery,EEG.BatteryPercent,MarkerIndex,MarkerType,MarkerValueInt,EEG.MarkerHardware,CQ.AF3,CQ.F7,CQ.F3,CQ.FC5,CQ.T7,CQ.P7,CQ.O1,CQ.O2,CQ.P8,CQ.T8,CQ.FC6,CQ.F4,CQ.F8,CQ.AF4,CQ.Overall,EQ.SampleRateQuality,EQ.OVERALL,EQ.AF3,EQ.F7,EQ.F3,EQ.FC5,EQ.T7,EQ.P7,EQ.O1,EQ.O2,EQ.P8,EQ.T8,EQ.FC6,EQ.F4,EQ.F8,EQ.AF4
1645711661.157301,45.000000,0.000000,4239.615234,4357.179688,4225.384766,4207.051270,4241.538574,4239.230957,4227.563965,4212.948730,4225.769043,4277.820313,4204.615234,4173.846191,4235.897461,4217.563965,0.000000,4.000000,82.000000,,,,0.000000,4.000000,4.000000,4.000000,4.000000,4.000000,4.000000,4.000000,4.000000,4.000000,4.000000,4.000000,4.000000,4.000000,4.000000,100.000000,,,,,,,,,,,,,,,,
1645711661.161341,46.000000,0.000000,4263.333496,4354.743652,4223.205078,4198.205078,4229.743652,4229.871582,4225.384766,4203.333496,4218.333496,4262.307617,4192.948730,4169.230957,4231.922852,4226.922852,0.000000,4.000000,82.000000,,,,0.000000,4.000000,4.000000,4.000000,4.000000,4.000000,4.000000,4.000000,4.000000,4.000000,4.000000,4.000000,4.000000,4.000000,4.000000,100.000000,,,,,,,,,,,,,,,,
1645711661.165282,47.000000,0.000000,4263.461426,4354.871582,4223.333496,4195.512695,4230.128418,4230.384766,4228.846191,4200.769043,4216.153809,4257.436035,4190.897461,4169.487305,4233.589844,4236.666504,0.000000,4.000000,82.000000,,,,0.000000,4.000000,4.000000,4.000000,4.000000,4.000000,4.000000,4.000000,4.000000,4.000000,4.000000,4.000000,4.000000,4.000000,4.000000,100.000000,,,,,,,,,,,,,,,,
1645711661.169222,48.000000,0.000000,4241.025879,4358.717773,4224.743652,4201.666504,4243.974121,4240.897461,4234.615234,4207.307617,4221.666504,4267.948730,4201.538574,4173.717773,4240.000000,4234.615234,0.000000,4.000000,82.000000,,,,0.000000,4.000000,4.000000,4.000000,4.000000,4.000000,4.000000,4.000000,4.000000,4.000000,4.000000,4.000000,4.000000,4.000000,4.000000,100.000000,,,,,,,,,,,,,,,,
1645711661.173162,49.000000,0.000000,4227.051270,4357.948730,4223.461426,4205.512695,4252.436035,4246.538574,4234.615234,4213.974121,4227.563965,4277.820313,4209.871582,4175.256348,4243.077148,4223.589844,0.000000,4.000000,82.000000,,,,0.000000,4.000000,4.000000,4.000000,4.000000,4.000000,4.000000,4.000000,4.000000,4.000000,4.000000,4.000000,4.000000,4.000000,4.000000,100.000000,,,,,,,,,,,,,,,,
1645711661.177102,50.000000,0.000000,4239.871582,4348.461426,4219.487305,4198.846191,4242.307617,4238.333496,4227.948730,4212.820313,4226.666504,4272.179688,4203.974121,4171.282227,4238.077148,4217.692383,0.000000,4.000000,82.000000,,,,0.000000,4.000000,4.000000,4.000000,4.000000,4.000000,4.000000,4.000000,4.000000,4.000000,4.000000,4.000000,4.000000,4.000000,4.000000,100.000000,,,,,,,,,,,,,,,,
1645711661.181042,51.000000,0.000000,4261.282227,4339.743652,4218.077148,4189.230957,4225.000000,4225.512695,4222.179688,4206.794922,4221.410156,4258.461426,4191.922852,4167.051270,4230.769043,4224.230957,0.000000,4.000000,82.000000,,,,0.000000,4.000000,4.000000,4.000000,4.000000,4.000000,4.000000,4.000000,4.000000,4.000000,4.000000,4.000000,4.000000,4.000000,4.000000,100.000000,,,,,,,,,,,,,,,,
1645711661.184982,52.000000,0.000000,4261.282227,4343.589844,4223.205078,4190.512695,4222.051270,4223.461426,4223.717773,4205.000000,4219.358887,4256.153809,4190.641113,4168.333496,4230.000000,4233.846191,0.000000,4.000000,82.000000,,,,0.000000,4.000000,4.000000,4.000000,4.000000,4.000000,4.000000,4.000000,4.000000,4.000000,4.000000,4.000000,4.000000,4.000000,4.000000,100.000000,,,,,,,,,,,,,,,,
1645711661.188922,53.000000,0.000000,4239.358887,4357.948730,4231.282227,4202.692383,4236.282227,4232.692383,4228.589844,4209.487305,4222.436035,4269.358887,4201.666504,4173.589844,4236.538574,4233.717773,0.000000,4.000000,82.000000,,,,0.000000,4.000000,4.000000,4.000000,4.000000,4.000000,4.000000,4.000000,4.000000,4.000000,4.000000,4.000000,4.000000,4.000000,4.000000,100.000000,,,,,,,,,,,,,,,,
1645711661.192862,54.000000,0.000000,4224.871582,4366.410156,4234.230957,4210.512695,4248.077148,4238.077148,4227.948730,4212.692383,4224.358887,4280.128418,4208.461426,4175.128418,4241.282227,4223.461426,0.000000,4.000000,82.000000,,,,0.000000,4.000000,4.000000,4.000000,4.000000,4.000000,4.000000,4.000000,4.000000,4.000000,4.000000,4.000000,4.000000,4.000000,4.000000,100.000000,,,,,,,,,,,,,,,,
1645711661.196802,55.000000,0.000000,4237.307617,4358.717773,4229.102539,4203.077148,4241.282227,4230.384766,4220.641113,4208.461426,4218.974121,4272.307617,4198.205078,4168.717773,4236.538574,4215.384766,0.000000,4.000000,82.000000,,,,0.000000,4.000000,4.000000,4.000000,4.000000,4.000000,4.000000,4.000000,4.000000,4.000000,4.000000,4.000000,4.000000,4.000000,4.000000,100.000000,,,,,,,,,,,,,,,,
1645711661.200743,56.000000,0.000000,4260.384766,4343.974121,4222.179688,4188.077148,4225.384766,4219.358887,4215.512695,4201.282227,4210.512695,4253.717773,4180.512695,4159.871582,4226.666504,4218.333496,0.000000,4.000000,82.000000,,,,0.000000,4.000000,4.000000,4.000000,4.000000,4.000000,4.000000,4.000000,4.000000,4.000000,4.000000,4.000000,4.000000,4.000000,4.000000,100.000000,,,,,,,,,,,,,,,,
1645711661.204683,57.000000,0.000000,4264.615234,4340.256348,4221.666504,4182.692383,4222.948730,4221.025879,4220.512695,4200.897461,4208.846191,4247.563965,4176.282227,4157.436035,4222.948730,4226.666504,0.000000,4.000000,82.000000,,,,0.000000,4.000000,4.000000,4.000000,4.000000,4.000000,4.000000,4.000000,4.000000,4.000000,4.000000,4.000000,4.000000,4.000000,4.000000,100.000000,,,,,,,,,,,,,,,,
1645711661.208623,58.000000,0.000000,4247.436035,4352.820313,4228.589844,4191.922852,4239.487305,4236.153809,4231.794922,4209.487305,4217.179688,4262.563965,4191.922852,4163.589844,4229.871582,4230.128418,0.000000,4.000000,82.000000,,,,0.000000,4.000000,4.000000,4.000000,4.000000,4.000000,4.000000,4.000000,4.000000,4.000000,4.000000,4.000000,4.000000,4.000000,4.000000,100.000000,,,,,,,,,,,,,,,,
1645711661.212563,59.000000,0.000000,4236.538574,4367.307617,4236.922852,4203.205078,4255.256348,4247.179688,4237.820313,4218.461426,4227.436035,4280.769043,4210.641113,4172.179688,4239.871582,4228.461426,0.000000,4.000000,82.000000,,,,0.000000,4.000000,4.000000,4.000000,4.000000,4.000000,4.000000,4.000000,4.000000,4.000000,4.000000,4.000000,4.000000,4.000000,4.000000,100.000000,,,,,,,,,,,,,,,,
1645711661.216503,60.000000,0.000000,4250.769043,4367.948730,4240.641113,4203.846191,4251.282227,4241.282227,4232.692383,4219.487305,4230.000000,4280.512695,4213.717773,4176.410156,4242.692383,4230.128418,0.000000,4.000000,82.000000,,,,0.000000,4.000000,4.000000,4.000000,4.000000,4.000000,4.000000,4.000000,4.000000,4.000000,4.000000,4.000000,4.000000,4.000000,4.000000,100.000000,,,,,,,,,,,,,,,,
1645711661.220443,61.000000,0.000000,4272.948730,4356.282227,4240.128418,4197.051270,4233.461426,4226.153809,4223.461426,4215.000000,4224.102539,4263.077148,4202.692383,4175.769043,4237.948730,4239.358887,0.000000,4.000000,82.000000,,,,0.000000,4.000000,4.000000,4.000000,4.000000,4.000000,4.000000,4.000000,4.000000,4.000000,4.000000,4.000000,4.000000,4.000000,4.000000,100.000000,,,,,,,,,,,,,,,,
1645711661.224383,62.000000,0.000000,4271.538574,4347.307617,4239.358887,4196.282227,4225.256348,4220.384766,4220.128418,4212.948730,4218.333496,4249.230957,4195.000000,4175.128418,4233.717773,4247.051270,0.000000,4.000000,82.000000,,,,0.000000,4.000000,4.000000,4.000000,4.000000,4.000000,4.000000,4.000000,4.000000,4.000000,4.000000,4.000000,4.000000,4.000000,4.000000,100.000000,,,,,,,,,,,,,,,,
1645711661.228223,63.000000,0.000000,4244.487305,4350.384766,4239.743652,4205.384766,4236.025879,4229.615234,4224.102539,4215.384766,4218.461426,4252.179688,4200.384766,4176.025879,4235.641113,4242.307617,0.000000,4.000000,82.000000,,,,0.000000,4.000000,4.000000,4.000000,4.000000,4.000000,4.000000,4.000000,4.000000,4.000000,4.000000,4.000000,4.000000,4.000000,4.000000,100.000000,,,,,,,,,,,,,,,,
1645711661.232163,64.000000,0.000000,4223.846191,4357.948730,4238.333496,4212.820313,4249.615234,4240.256348,4227.436035,4215.000000,4221.153809,4261.922852,4209.102539,4175.641113,4240.128418,4227.948730,0.000000,4.000000,82.000000,,,,0.000000,4.000000,4.000000,4.000000,4.000000,4.000000,4.000000,4.000000,4.000000,4.000000,4.000000,4.000000,4.000000,4.000000,4.000000,100.000000,,,,,,,,,,,,,,,,
1645711661.236104,65.000000,0.000000,4235.769043,4358.205078,4233.205078,4206.922852,4246.153809,4237.820313,4224.871582,4206.153809,4219.743652,4261.666504,4207.436035,4171.282227,4240.641113,4218.717773,0.000000,4.000000,82.000000,,,,0.000000,4.000000,4.000000,4.000000,4.000000,4.000000,4.000000,4.000000,4.000000,4.000000,4.000000,4.000000,4.000000,4.000000,4.000000,100.000000,,,,,,,,,,,,,,,,
1645711661.240044,66.000000,0.000000,4265.384766,4351.410156,4227.051270,4192.692383,4229.230957,4226.538574,4220.897461,4194.102539,4214.230957,4252.436035,4197.179688,4165.769043,4236.794922,4223.717773,0.000000,4.000000,82.000000,,,,0.000000,4.000000,4.000000,4.000000,4.000000,4.000000,4.000000,4.000000,4.000000,4.000000,4.000000,4.000000,4.000000,4.000000,4.000000,100.000000,,,,,,,,,,,,,,,,
1645711661.243984,67.000000,0.000000,4276.922852,4348.205078,4224.487305,4186.282227,4220.641113,4222.692383,4222.563965,4190.512695,4211.922852,4250.128418,4192.692383,4163.974121,4233.974121,4235.256348,0.000000,4.000000,82.000000,,,,0.000000,4.000000,4.000000,4.000000,4.000000,4.000000,4.000000,4.000000,4.000000,4.000000,4.000000,4.000000,4.000000,4.000000,4.000000,100.000000,,,,,,,,,,,,,,,,
1645711661.247924,68.000000,0.000000,4258.974121,4353.589844,4225.897461,4194.615234,4231.153809,4232.307617,4228.846191,4198.974121,4216.282227,4262.051270,4199.615234,4166.282227,4236.025879,4238.974121,0.000000,4.000000,82.000000,,,,0.000000,4.000000,4.000000,4.000000,4.000000,4.000000,4.000000,4.000000,4.000000,4.000000,4.000000,4.000000,4.000000,4.000000,4.000000,100.000000,,,,,,,,,,,,,,,,
1645711661.251864,69.000000,0.000000,4238.205078,4359.615234,4227.179688,4206.153809,4246.025879,4242.820313,4231.666504,4209.871582,4221.922852,4275.128418,4206.410156,4167.948730,4238.974121,4233.077148,0.000000,4.000000,82.000000,,,,0.000000,4.000000,4.000000,4.000000,4.000000,4.000000,4.000000,4.000000,4.000000,4.000000,4.000000,4.000000,4.000000,4.000000,4.000000,100.000000,,,,,,,,,,,,,,,,
1645711661.255804,70.000000,0.000000,4242.307617,4356.666504,4225.384766,4206.794922,4245.641113,4240.512695,4226.794922,4211.794922,4221.538574,4272.179688,4200.384766,4165.256348,4238.077148,4229.102539,0.000000,4.000000,82.000000,,,,0.000000,4.000000,4.000000,4.000000,4.000000,4.000000,4.000000,4.000000,4.000000,4.000000,4.000000,4.000000,4.000000,4.000000,4.000000,100.000000,,,,,,,,,,,,,,,,
1645711661.259744,71.000000,0.000000,4263.205078,4348.205078,4222.692383,4197.692383,4231.153809,4228.717773,4220.641113,4205.000000,4215.641113,4256.922852,4187.436035,4161.922852,4234.102539,4236.025879,0.000000,4.000000,82.000000,,,,0.000000,4.000000,4.000000,4.000000,4.000000,4.000000,4.000000,4.000000,4.000000,4.000000,4.000000,4.000000,4.000000,4.000000,4.000000,100.000000,,,,,,,,,,,,,,,,
1645711661.263684,72.000000,0.000000,4269.487305,4345.897461,4223.461426,4193.205078,4222.948730,4223.333496,4222.051270,4200.512695,4212.563965,4249.230957,4185.897461,4163.205078,4233.333496,4246.922852,0.000000,4.000000,82.000000,,,,0.000000,4.000000,4.000000,4.000000,4.000000,4.000000,4.000000,4.000000,4.000000,4.000000,4.000000,4.000000,4.000000,4.000000,4.000000,100.000000,,,,,,,,,,,,,,,,
1645711661.267624,73.000000,0.000000,4250.000000,4353.846191,4227.436035,4199.743652,4232.307617,4231.410156,4230.256348,4205.256348,4217.051270,4259.487305,4201.538574,4168.717773,4237.820313,4248.461426,0.000000,4.000000,82.000000,,,,0.000000,4.000000,4.000000,4.000000,4.000000,4.000000,4.000000,4.000000,4.000000,4.000000,4.000000,4.000000,4.000000,4.000000,4.000000,100.000000,,,,,,,,,,,,,,,,
1645711661.271565,74.000000,0.000000,4229.102539,4361.025879,4229.487305,4207.820313,4245.641113,4240.897461,4235.128418,4213.077148,4223.846191,4273.974121,4218.589844,4171.410156,4241.666504,4238.333496,0.000000,4.000000,82.000000,,,,0.000000,4.000000,4.000000,4.000000,4.000000,4.000000,4.000000,4.000000,4.000000,4.000000,4.000000,4.000000,4.000000,4.000000,4.000000,100.000000,,,,,,,,,,,,,,,,
1645711661.275505,75.000000,0.000000,4233.717773,4356.666504,4226.410156,4204.871582,4243.333496,4237.307617,4230.128418,4213.333496,4224.743652,4272.692383,4217.820313,4166.666504,4238.333496,4228.974121,0.000000,4.000000,82.000000,,,,0.000000,4.000000,4.000000,4.000000,4.000000,4.000000,4.000000,4.000000,4.000000,4.000000,4.000000,4.000000,4.000000,4.000000,4.000000,100.000000,,,,,,,,,,,,,,,,
1645711661.279445,76.000000,0.000000,4256.282227,4344.871582,4221.153809,4193.846191,4226.282227,4223.717773,4220.384766,4204.871582,4219.615234,4256.282227,4201.538574,4158.846191,4229.871582,4231.025879,0.000000,4.000000,82.000000,,,,0.000000,4.000000,4.000000,4.000000,4.000000,4.000000,4.000000,4.000000,4.000000,4.000000,4.000000,4.000000,4.000000,4.000000,4.000000,100.000000,,,,,,,,,,,,,,,,
1645711661.283385,77.000000,0.000000,4264.615234,4341.282227,4219.615234,4190.000000,4215.128418,4216.538574,4215.897461,4197.948730,4216.282227,4245.641113,4190.641113,4157.051270,4225.512695,4240.000000,0.000000,4.000000,82.000000,,,,0.000000,4.000000,4.000000,4.000000,4.000000,4.000000,4.000000,4.000000,4.000000,4.000000,4.000000,4.000000,4.000000,4.000000,4.000000,100.000000,,,,,,,,,,,,,,,,
1645711661.287325,78.000000,0.000000,4245.641113,4351.922852,4223.077148,4200.384766,4222.692383,4223.589844,4218.461426,4199.615234,4220.256348,4254.487305,4198.461426,4163.974121,4230.769043,4242.563965,0.000000,4.000000,82.000000,,,,0.000000,4.000000,4.000000,4.000000,4.000000,4.000000,4.000000,4.000000,4.000000,4.000000,4.000000,4.000000,4.000000,4.000000,4.000000,100.000000,,,,,,,,,,,,,,,,
1645711661.291265,79.000000,0.000000,4223.205078,4364.743652,4226.794922,4213.846191,4237.179688,4233.333496,4220.384766,4205.512695,4226.410156,4271.282227,4214.487305,4172.692383,4240.256348,4235.512695,0.000000,4.000000,82.000000,,,,0.000000,4.000000,4.000000,4.000000,4.000000,4.000000,4.000000,4.000000,4.000000,4.000000,4.000000,4.000000,4.000000,4.000000,4.000000,100.000000,,,,,,,,,,,,,,,,
1645711661.295205,80.000000,0.000000,4226.538574,4363.461426,4226.153809,4214.743652,4237.307617,4230.769043,4215.897461,4205.641113,4226.282227,4273.717773,4218.205078,4174.230957,4244.102539,4229.102539,0.000000,4.000000,82.000000,,,,0.000000,4.000000,4.000000,4.000000,4.000000,4.000000,4.000000,4.000000,4.000000,4.000000,4.000000,4.000000,4.000000,4.000000,4.000000,100.000000,,,,,,,,,,,,,,,,
1645711661.299045,81.000000,0.000000,4250.384766,4348.974121,4221.794922,4202.436035,4221.922852,4217.820313,4209.615234,4198.717773,4218.846191,4258.205078,4205.256348,4167.948730,4239.358887,4233.205078,0.000000,4.000000,82.000000,,,,0.000000,4.000000,4.000000,4.000000,4.000000,4.000000,4.000000,4.000000,4.000000,4.000000,4.000000,4.000000,4.000000,4.000000,4.000000,100.000000,,,,,,,,,,,,,,,,
1645711661.302985,82.000000,0.000000,4262.179688,4338.717773,4219.487305,4192.307617,4211.282227,4211.538574,4210.897461,4193.461426,4213.077148,4244.871582,4191.794922,4161.282227,4233.077148,4243.589844,0.000000,4.000000,82.000000,,,,0.000000,4.000000,4.000000,4.000000,4.000000,4.000000,4.000000,4.000000,4.000000,4.000000,4.000000,4.000000,4.000000,4.000000,4.000000,100.000000,,,,,,,,,,,,,,,,
1645711661.306926,83.000000,0.000000,4246.025879,4344.615234,4221.538574,4195.256348,4220.256348,4221.282227,4220.512695,4197.436035,4216.025879,4250.641113,4192.051270,4159.871582,4232.179688,4247.307617,0.000000,4.000000,82.000000,,,,0.000000,4.000000,4.000000,4.000000,4.000000,4.000000,4.000000,4.000000,4.000000,4.000000,4.000000,4.000000,4.000000,4.000000,4.000000,100.000000,,,,,,,,,,,,,,,,
1645711661.310866,84.000000,0.000000,4224.615234,4358.461426,4224.487305,4204.487305,4238.205078,4236.025879,4228.846191,4206.794922,4223.846191,4267.436035,4201.282227,4162.179688,4235.000000,4241.025879,0.000000,4.000000,82.000000,,,,0.000000,4.000000,4.000000,4.000000,4.000000,4.000000,4.000000,4.000000,4.000000,4.000000,4.000000,4.000000,4.000000,4.000000,4.000000,100.000000,,,,,,,,,,,,,,,,
1645711661.314806,85.000000,0.000000,4228.974121,4362.051270,4224.358887,4205.384766,4242.563965,4237.948730,4227.692383,4211.410156,4227.051270,4272.948730,4203.974121,4163.589844,4235.000000,4235.512695,0.000000,4.000000,82.000000,,,,0.000000,4.000000,4.000000,4.000000,4.000000,4.000000,4.000000,4.000000,4.000000,4.000000,4.000000,4.000000,4.000000,4.000000,4.000000,100.000000,,,,,,,,,,,,,,,,
1645711661.318746,86.000000,0.000000,4256.410156,4351.282227,4222.436035,4196.538574,4228.333496,4226.025879,4220.256348,4207.692383,4222.179688,4260.256348,4197.179688,4163.846191,4230.769043,4241.922852,0.000000,4.000000,82.000000,,,,0.000000,4.000000,4.000000,4.000000,4.000000,4.000000,4.000000,4.000000,4.000000,4.000000,4.000000,4.000000,4.000000,4.000000,4.000000,100.000000,,,,,,,,,,,,,,,,
1645711661.322686,87.000000,0.000000,4273.333496,4340.512695,4223.333496,4191.410156,4214.743652,4216.282227,4216.922852,4202.692383,4216.282227,4246.025879,4193.717773,4166.153809,4228.717773,4255.384766,0.000000,4.000000,82.000000,,,,0.000000,4.000000,4.000000,4.000000,4.000000,4.000000,4.000000,4.000000,4.000000,4.000000,4.000000,4.000000,4.000000,4.000000,4.000000,100.000000,,,,,,,,,,,,,,,,
1645711661.326626,88.000000,0.000000,4259.230957,4343.589844,4228.333496,4199.230957,4218.974121,4221.282227,4221.666504,4202.948730,4216.922852,4248.205078,4203.461426,4171.025879,4233.333496,4260.512695,0.000000,4.000000,82.000000,,,,0.000000,4.000000,4.000000,4.000000,4.000000,4.000000,4.000000,4.000000,4.000000,4.000000,4.000000,4.000000,4.000000,4.000000,4.000000,100.000000,,,,,,,,,,,,,,,,
1645711661.330566,89.000000,0.000000,4234.102539,4357.179688,4232.436035,4211.538574,4234.615234,4234.230957,4228.077148,4206.153809,4222.179688,4262.179688,4217.692383,4173.205078,4240.897461,4250.769043,0.000000,4.000000,82.000000,,,,0.000000,4.000000,4.000000,4.000000,4.000000,4.000000,4.000000,4.000000,4.000000,4.000000,4.000000,4.000000,4.000000,4.000000,4.000000,100.000000,,,,,,,,,,,,,,,,
1645711661.334506,90.000000,0.000000,4231.922852,4365.897461,4230.641113,4212.692383,4241.666504,4239.230957,4228.589844,4205.641113,4224.615234,4268.717773,4219.487305,4168.717773,4243.205078,4237.563965,0.000000,4.000000,82.000000,,,,0.000000,4.000000,4.000000,4.000000,4.000000,4.000000,4.000000,4.000000,4.000000,4.000000,4.000000,4.000000,4.000000,4.000000,4.000000,100.000000,,,,,,,,,,,,,,,,
1645711661.338446,91.000000,0.000000,4256.410156,4362.179688,4224.487305,4200.897461,4233.461426,4233.589844,4224.871582,4201.282227,4221.025879,4260.769043,4206.794922,4161.282227,4238.077148,4235.769043,0.000000,4.000000,82.000000,,,,0.000000,4.000000,4.000000,4.000000,4.000000,4.000000,4.000000,4.000000,4.000000,4.000000,4.000000,4.000000,4.000000,4.000000,4.000000,100.000000,,,,,,,,,,,,,,,,
1645711661.342387,92.000000,0.000000,4276.025879,4354.230957,4220.256348,4190.769043,4224.871582,4229.871582,4225.000000,4201.025879,4217.563965,4252.820313,4196.282227,4159.230957,4231.922852,4245.256348,0.000000,4.000000,82.000000,,,,0.000000,4.000000,4.000000,4.000000,4.000000,4.000000,4.000000,4.000000,4.000000,4.000000,4.000000,4.000000,4.000000,4.000000,4.000000,100.000000,,,,,,,,,,,,,,,,
1645711661.346327,93.000000,0.000000,4266.410156,4352.307617,4220.897461,4194.102539,4229.871582,4237.179688,4231.153809,4209.487305,4220.384766,4259.743652,4201.538574,4164.871582,4231.410156,4251.410156,0.000000,4.000000,82.000000,,,,0.000000,4.000000,4.000000,4.000000,4.000000,4.000000,4.000000,4.000000,4.000000,4.000000,4.000000,4.000000,4.000000,4.000000,4.000000,100.000000,,,,,,,,,,,,,,,,
1645711661.350267,94.000000,0.000000,4241.794922,4355.128418,4222.948730,4204.615234,4241.282227,4246.794922,4235.512695,4219.871582,4227.436035,4274.487305,4214.358887,4171.025879,4234.615234,4245.512695,0.000000,4.000000,82.000000,,,,0.000000,4.000000,4.000000,4.000000,4.000000,4.000000,4.000000,4.000000,4.000000,4.000000,4.000000,4.000000,4.000000,4.000000,4.000000,100.000000,,,,,,,,,,,,,,,,
1645711661.354207,95.000000,0.000000,4235.128418,4353.077148,4221.410156,4206.410156,4240.128418,4244.230957,4230.769043,4220.769043,4230.256348,4276.025879,4215.512695,4169.487305,4234.358887,4235.897461,0.000000,4.000000,82.000000,,,,0.000000,4.000000,4.000000,4.000000,4.000000,4.000000,4.000000,4.000000,4.000000,4.000000,4.000000,4.000000,4.000000,4.000000,4.000000,100.000000,,,,,,,,,,,,,,,,
1645711661.358147,96.000000,0.000000,4252.948730,4344.230957,4217.307617,4196.153809,4223.717773,4229.487305,4221.025879,4211.025879,4225.641113,4258.461426,4199.743652,4161.282227,4228.589844,4237.307617,0.000000,4.000000,82.000000,,,,0.000000,4.000000,4.000000,4.000000,4.000000,4.000000,4.000000,4.000000,4.000000,4.000000,4.000000,4.000000,4.000000,4.000000,4.000000,100.000000,,,,,,,,,,,,,,,,
1645711661.362087,97.000000,0.000000,4267.948730,4338.461426,4216.282227,4187.563965,4211.794922,4220.000000,4217.307617,4201.410156,4220.128418,4240.769043,4184.102539,4155.769043,4224.230957,4250.512695,0.000000,4.000000,82.000000,1,1,3,0.000000,4.000000,4.000000,4.000000,4.000000,4.000000,4.000000,4.000000,4.000000,4.000000,4.000000,4.000000,4.000000,4.000000,4.000000,100.000000,,,,,,,,,,,,,,,,
1645711661.365927,98.000000,0.000000,4257.179688,4344.358887,4221.025879,4193.589844,4221.794922,4228.461426,4224.102539,4202.436035,4221.282227,4243.846191,4186.538574,4159.102539,4227.820313,4261.666504,0.000000,4.000000,82.000000,,,,0.000000,4.000000,4.000000,4.000000,4.000000,4.000000,4.000000,4.000000,4.000000,4.000000,4.000000,4.000000,4.000000,4.000000,4.000000,100.000000,,,,,,,,,,,,,,,,
1645711661.369867,99.000000,0.000000,4233.461426,4355.256348,4226.666504,4208.205078,4244.487305,4245.384766,4233.077148,4211.153809,4227.692383,4263.974121,4203.077148,4167.051270,4236.282227,4259.871582,0.000000,4.000000,82.000000,,,,0.000000,4.000000,4.000000,4.000000,4.000000,4.000000,4.000000,4.000000,4.000000,4.000000,4.000000,4.000000,4.000000,4.000000,4.000000,100.000000,,,,,,,,,,,,,,,,
1645711661.373807,100.000000,0.000000,4228.846191,4356.666504,4226.025879,4213.974121,4254.230957,4250.000000,4233.205078,4215.512695,4230.384766,4277.563965,4213.461426,4170.256348,4240.256348,4250.256348,0.000000,4.000000,82.000000,,,,0.000000,4.000000,4.000000,4.000000,4.000000,4.000000,4.000000,4.000000,4.000000,4.000000,4.000000,4.000000,4.000000,4.000000,4.000000,100.000000,,,,,,,,,,,,,,,,
1645711661.377748,101.000000,0.000000,4250.512695,4345.641113,4218.589844,4203.846191,4240.384766,4235.512695,4224.102539,4209.487305,4224.743652,4270.000000,4207.692383,4165.641113,4235.384766,4246.666504,0.000000,4.000000,82.000000,,,,0.000000,4.000000,4.000000,4.000000,4.000000,4.000000,4.000000,4.000000,4.000000,4.000000,4.000000,4.000000,4.000000,4.000000,4.000000,100.000000,,,,,,,,,,,,,,,,
1645711661.381688,102.000000,0.000000,4270.384766,4335.128418,4211.025879,4191.153809,4221.153809,4217.820313,4215.897461,4200.641113,4216.794922,4253.333496,4197.948730,4159.871582,4227.820313,4252.563965,0.000000,4.000000,82.000000,,,,0.000000,4.000000,4.000000,4.000000,4.000000,4.000000,4.000000,4.000000,4.000000,4.000000,4.000000,4.000000,4.000000,4.000000,4.000000,100.000000,,,,,,,,,,,,,,,,
1645711661.385628,103.000000,0.000000,4262.179688,4338.461426,4209.743652,4191.794922,4220.000000,4215.384766,4216.282227,4199.871582,4215.641113,4248.589844,4201.410156,4160.256348,4226.538574,4258.333496,0.000000,4.000000,82.000000,,,,0.000000,4.000000,4.000000,4.000000,4.000000,4.000000,4.000000,4.000000,4.000000,4.000000,4.000000,4.000000,4.000000,4.000000,4.000000,100.000000,,,,,,,,,,,,,,,,
1645711661.389568,104.000000,0.000000,4236.410156,4351.025879,4213.589844,4204.487305,4236.538574,4227.179688,4221.410156,4208.077148,4222.179688,4258.589844,4215.769043,4165.769043,4231.666504,4255.000000,0.000000,4.000000,82.000000,,,,0.000000,4.000000,4.000000,4.000000,4.000000,4.000000,4.000000,4.000000,4.000000,4.000000,4.000000,4.000000,4.000000,4.000000,4.000000,100.000000,,,,,,,,,,,,,,,,
1645711661.393508,105.000000,0.000000,4226.410156,4356.410156,4216.666504,4212.692383,4249.358887,4236.153809,4222.692383,4215.769043,4228.974121,4266.922852,4223.205078,4169.358887,4235.384766,4247.051270,0.000000,4.000000,82.000000,,,,0.000000,4.000000,4.000000,4.000000,4.000000,4.000000,4.000000,4.000000,4.000000,4.000000,4.000000,4.000000,4.000000,4.000000,4.000000,100.000000,,,,,,,,,,,,,,,,
1645711661.397448,106.000000,0.000000,4243.589844,4347.051270,4216.410156,4206.922852,4244.487305,4232.820313,4219.487305,4216.153809,4229.743652,4262.307617,4213.717773,4167.051270,4232.948730,4245.512695,0.000000,4.000000,82.000000,,,,0.000000,4.000000,4.000000,4.000000,4.000000,4.000000,4.000000,4.000000,4.000000,4.000000,4.000000,4.000000,4.000000,4.000000,4.000000,100.000000,,,,,,,,,,,,,,,,
1645711661.401388,107.000000,0.000000,4262.948730,4334.487305,4215.769043,4196.410156,4233.717773,4225.769043,4219.102539,4213.333496,4226.922852,4253.717773,4199.487305,4162.307617,4228.077148,4252.563965,0.000000,4.000000,82.000000,,,,0.000000,4.000000,4.000000,4.000000,4.000000,4.000000,4.000000,4.000000,4.000000,4.000000,4.000000,4.000000,4.000000,4.000000,4.000000,100.000000,,,,,,,,,,,,,,,,
1645711661.405328,108.000000,0.000000,4257.051270,4334.102539,4217.563965,4194.871582,4235.897461,4227.948730,4226.025879,4215.769043,4227.307617,4256.922852,4198.717773,4160.384766,4228.077148,4257.820313,0.000000,4.000000,82.000000,,,,0.000000,4.000000,4.000000,4.000000,4.000000,4.000000,4.000000,4.000000,4.000000,4.000000,4.000000,4.000000,4.000000,4.000000,4.000000,100.000000,,,,,,,,,,,,,,,,
1645711661.409268,109.000000,0.000000,4233.846191,4345.641113,4220.128418,4202.563965,4251.153809,4238.205078,4234.230957,4223.717773,4232.051270,4271.410156,4211.153809,4161.922852,4233.846191,4252.948730,0.000000,4.000000,82.000000,,,,0.000000,4.000000,4.000000,4.000000,4.000000,4.000000,4.000000,4.000000,4.000000,4.000000,4.000000,4.000000,4.000000,4.000000,4.000000,100.000000,,,,,,,,,,,,,,,,
1645711661.413209,110.000000,0.000000,4225.384766,4354.230957,4219.871582,4206.666504,4260.256348,4242.692383,4234.487305,4228.717773,4234.487305,4279.615234,4219.358887,4163.205078,4238.717773,4244.615234,0.000000,4.000000,82.000000,,,,0.000000,4.000000,4.000000,4.000000,4.000000,4.000000,4.000000,4.000000,4.000000,4.000000,4.000000,4.000000,4.000000,4.000000,4.000000,100.000000,,,,,,,,,,,,,,,,
1645711661.417149,111.000000,0.000000,4244.615234,4349.358887,4217.179688,4200.769043,4252.436035,4234.615234,4226.666504,4224.871582,4230.256348,4270.256348,4211.922852,4163.205078,4237.692383,4245.512695,0.000000,4.000000,82.000000,,,,0.000000,4.000000,4.000000,4.000000,4.000000,4.000000,4.000000,4.000000,4.000000,4.000000,4.000000,4.000000,4.000000,4.000000,4.000000,100.000000,,,,,,,,,,,,,,,,
1645711661.421089,112.000000,0.000000,4266.666504,4338.461426,4217.051270,4194.487305,4240.128418,4224.230957,4220.641113,4217.051270,4223.205078,4254.487305,4198.974121,4165.000000,4233.333496,4257.179688,0.000000,4.000000,82.000000,,,,0.000000,4.000000,4.000000,4.000000,4.000000,4.000000,4.000000,4.000000,4.000000,4.000000,4.000000,4.000000,4.000000,4.000000,4.000000,100.000000,,,,,,,,,,,,,,,,
1645711661.425029,113.000000,0.000000,4261.410156,4335.769043,4222.179688,4200.000000,4242.563965,4225.128418,4222.948730,4213.846191,4221.153809,4250.769043,4197.692383,4170.128418,4232.307617,4266.410156,0.000000,4.000000,82.000000,,,,0.000000,4.000000,4.000000,4.000000,4.000000,4.000000,4.000000,4.000000,4.000000,4.000000,4.000000,4.000000,4.000000,4.000000,4.000000,100.000000,,,,,,,,,,,,,,,,
1645711661.428969,114.000000,0.000000,4234.230957,4343.717773,4228.333496,4214.230957,4258.717773,4235.256348,4228.974121,4215.897461,4225.256348,4261.153809,4209.230957,4174.230957,4235.512695,4262.051270,0.000000,4.000000,82.000000,,,,0.000000,4.000000,4.000000,4.000000,4.000000,4.000000,4.000000,4.000000,4.000000,4.000000,4.000000,4.000000,4.000000,4.000000,4.000000,100.000000,,,,,,,,,,,,,,,,
1645711661.432909,115.000000,0.000000,4219.230957,4351.538574,4229.230957,4220.641113,4267.436035,4239.615234,4228.717773,4215.769043,4228.589844,4268.333496,4217.563965,4171.794922,4236.666504,4250.000000,0.000000,4.000000,82.000000,,,,0.000000,4.000000,4.000000,4.000000,4.000000,4.000000,4.000000,4.000000,4.000000,4.000000,4.000000,4.000000,4.000000,4.000000,4.000000,100.000000,,,,,,,,,,,,,,,,
1645711661.436849,116.000000,0.000000,4235.000000,4350.256348,4224.230957,4210.897461,4255.897461,4230.512695,4221.153809,4209.230957,4225.641113,4260.256348,4211.282227,4164.102539,4232.563965,4245.897461,0.000000,4.000000,82.000000,,,,0.000000,4.000000,4.000000,4.000000,4.000000,4.000000,4.000000,4.000000,4.000000,4.000000,4.000000,4.000000,4.000000,4.000000,4.000000,100.000000,1.000000,0.000000,0.000000,1.000000,1.000000,0.000000,0.000000,0.000000,1.000000,1.000000,3.000000,0.000000,0.000000,1.000000,1.000000,0.000000
1645711661.440689,117.000000,0.000000,4261.282227,4345.128418,4219.487305,4196.922852,4237.563965,4219.230957,4215.384766,4203.077148,4220.128418,4247.820313,4199.615234,4159.230957,4228.077148,4255.512695,0.000000,4.000000,82.000000,,,,0.000000,4.000000,4.000000,4.000000,4.000000,4.000000,4.000000,4.000000,4.000000,4.000000,4.000000,4.000000,4.000000,4.000000,4.000000,100.000000,,,,,,,,,,,,,,,,
1645711661.444629,118.000000,0.000000,4266.282227,4346.666504,4220.897461,4196.410156,4235.641113,4221.282227,4219.230957,4206.538574,4220.256348,4250.641113,4199.615234,4163.589844,4230.769043,4268.077148,0.000000,4.000000,82.000000,,,,0.000000,4.000000,4.000000,4.000000,4.000000,4.000000,4.000000,4.000000,4.000000,4.000000,4.000000,4.000000,4.000000,4.000000,4.000000,100.000000,,,,,,,,,,,,,,,,
1645711661.448570,119.000000,0.000000,4249.102539,4354.615234,4226.794922,4210.641113,4252.692383,4235.512695,4228.974121,4218.077148,4227.179688,4270.384766,4213.077148,4173.589844,4240.512695,4270.897461,0.000000,4.000000,82.000000,,,,0.000000,4.000000,4.000000,4.000000,4.000000,4.000000,4.000000,4.000000,4.000000,4.000000,4.000000,4.000000,4.000000,4.000000,4.000000,100.000000,,,,,,,,,,,,,,,,
1645711661.452510,120.000000,0.000000,4238.846191,4357.820313,4230.897461,4223.205078,4267.820313,4244.743652,4233.974121,4225.384766,4232.820313,4286.666504,4224.102539,4179.615234,4248.205078,4266.282227,0.000000,4.000000,82.000000,,,,0.000000,4.000000,4.000000,4.000000,4.000000,4.000000,4.000000,4.000000,4.000000,4.000000,4.000000,4.000000,4.000000,4.000000,4.000000,100.000000,,,,,,,,,,,,,,,,
1645711661.456450,121.000000,0.000000,4253.717773,4349.743652,4230.256348,4220.512695,4263.333496,4237.563965,4230.384766,4219.615234,4230.641113,4281.153809,4220.000000,4176.922852,4246.538574,4266.794922,0.000000,4.000000,82.000000,,,,0.000000,4.000000,4.000000,4.000000,4.000000,4.000000,4.000000,4.000000,4.000000,4.000000,4.000000,4.000000,4.000000,4.000000,4.000000,100.000000,,,,,,,,,,,,,,,,
1645711661.460390,122.000000,0.000000,4275.128418,4339.230957,4228.461426,4209.102539,4247.692383,4223.846191,4224.871582,4206.410156,4223.846191,4260.897461,4208.333496,4170.512695,4239.358887,4277.051270,0.000000,4.000000,82.000000,2,1,3,0.000000,4.000000,4.000000,4.000000,4.000000,4.000000,4.000000,4.000000,4.000000,4.000000,4.000000,4.000000,4.000000,4.000000,4.000000,100.000000,,,,,,,,,,,,,,,,
1645711661.464330,123.000000,0.000000,4272.436035,4339.743652,4230.000000,4205.897461,4242.948730,4221.282227,4225.128418,4199.487305,4220.512695,4248.974121,4206.410156,4167.563965,4236.153809,4286.666504,0.000000,4.000000,82.000000,,,,0.000000,4.000000,4.000000,4.000000,4.000000,4.000000,4.000000,4.000000,4.000000,4.000000,4.000000,4.000000,4.000000,4.000000,4.000000,100.000000,,,,,,,,,,,,,,,,
1645711661.468270,124.000000,0.000000,4245.128418,4351.410156,4233.333496,4215.384766,4255.128418,4232.179688,4230.256348,4203.846191,4223.717773,4255.512695,4217.436035,4169.358887,4240.384766,4282.563965,0.000000,4.000000,82.000000,,,,0.000000,4.000000,4.000000,4.000000,4.000000,4.000000,4.000000,4.000000,4.000000,4.000000,4.000000,4.000000,4.000000,4.000000,4.000000,100.000000,,,,,,,,,,,,,,,,
1645711661.472210,125.000000,0.000000,4225.384766,4358.974121,4232.948730,4224.102539,4266.410156,4241.153809,4232.307617,4211.410156,4226.794922,4266.922852,4226.153809,4170.641113,4245.641113,4267.307617,0.000000,4.000000,82.000000,,,,0.000000,4.000000,4.000000,4.000000,4.000000,4.000000,4.000000,4.000000,4.000000,4.000000,4.000000,4.000000,4.000000,4.000000,4.000000,100.000000,,,,,,,,,,,,,,,,
1645711661.476150,126.000000,0.000000,4236.666504,4351.410156,4226.666504,4219.102539,4259.102539,4235.000000,4228.077148,4211.666504,4223.205078,4265.769043,4219.487305,4168.589844,4244.743652,4256.538574,0.000000,4.000000,82.000000,,,,0.000000,4.000000,4.000000,4.000000,4.000000,4.000000,4.000000,4.000000,4.000000,4.000000,4.000000,4.000000,4.000000,4.000000,4.000000,100.000000,,,,,,,,,,,,,,,,
1645711661.480090,127.000000,0.000000,4263.333496,4336.153809,4219.871582,4205.384766,4240.128418,4221.282227,4223.205078,4205.256348,4215.641113,4254.487305,4205.128418,4166.666504,4239.615234,4260.512695,0.000000,4.000000,82.000000,,,,0.000000,4.000000,4.000000,4.000000,4.000000,4.000000,4.000000,4.000000,4.000000,4.000000,4.000000,4.000000,4.000000,4.000000,4.000000,100.000000,,,,,,,,,,,,,,,,
1645711661.484031,128.000000,0.000000,4270.769043,4330.256348,4218.461426,4199.487305,4231.666504,4217.436035,4223.846191,4201.410156,4212.948730,4250.769043,4202.179688,4168.846191,4238.333496,4272.051270,3260.000000,4.000000,82.000000,,,,0.000000,4.000000,4.000000,4.000000,4.000000,4.000000,4.000000,4.000000,4.000000,4.000000,4.000000,4.000000,4.000000,4.000000,4.000000,100.000000,,,,,,,,,,,,,,,,
1645711661.487971,129.000000,0.000000,4250.641113,4338.589844,4222.051270,4207.307617,4241.794922,4226.922852,4227.563965,4205.000000,4218.333496,4261.538574,4215.384766,4173.333496,4243.589844,4276.538574,3374.000000,4.000000,82.000000,,,,0.000000,4.000000,4.000000,4.000000,4.000000,4.000000,4.000000,4.000000,4.000000,4.000000,4.000000,4.000000,4.000000,4.000000,4.000000,100.000000,,,,,,,,,,,,,,,,
1645711661.491911,130.000000,0.000000,4230.000000,4347.948730,4224.487305,4217.051270,4253.589844,4234.871582,4226.282227,4209.871582,4224.487305,4272.179688,4228.461426,4173.077148,4248.333496,4270.897461,2278.000000,4.000000,82.000000,,,,0.000000,4.000000,4.000000,4.000000,4.000000,4.000000,4.000000,4.000000,4.000000,4.000000,4.000000,4.000000,4.000000,4.000000,4.000000,100.000000,,,,,,,,,,,,,,,,
1645711661.495851,131.000000,0.000000,4234.230957,4344.487305,4222.051270,4215.256348,4248.333496,4228.333496,4218.205078,4208.846191,4223.461426,4266.153809,4223.974121,4165.000000,4244.743652,4265.128418,3529.000000,4.000000,82.000000,,,,0.000000,4.000000,4.000000,4.000000,4.000000,4.000000,4.000000,4.000000,4.000000,4.000000,4.000000,4.000000,4.000000,4.000000,4.000000,100.000000,,,,,,,,,,,,,,,,
1645711661.499791,132.000000,0.000000,4253.333496,4331.282227,4217.051270,4204.230957,4231.025879,4214.230957,4211.794922,4203.717773,4216.922852,4247.948730,4205.897461,4155.512695,4234.615234,4267.307617,3520.000000,4.000000,82.000000,,,,0.000000,4.000000,4.000000,4.000000,4.000000,4.000000,4.000000,4.000000,4.000000,4.000000,4.000000,4.000000,4.000000,4.000000,4.000000,100.000000,,,,,,,,,,,,,,,,
1645711661.503731,133.000000,0.000000,4257.179688,4324.102539,4214.487305,4197.692383,4223.589844,4210.769043,4215.256348,4203.589844,4214.102539,4239.102539,4193.846191,4152.948730,4228.077148,4272.051270,3452.000000,4.000000,82.000000,,,,0.000000,4.000000,4.000000,4.000000,4.000000,4.000000,4.000000,4.000000,4.000000,4.000000,4.000000,4.000000,4.000000,4.000000,4.000000,100.000000,,,,,,,,,,,,,,,,
1645711661.507671,134.000000,0.000000,4237.563965,4329.871582,4214.615234,4201.025879,4235.512695,4223.589844,4225.897461,4211.794922,4219.358887,4249.871582,4197.948730,4157.692383,4230.000000,4268.974121,3436.000000,4.000000,82.000000,,,,0.000000,4.000000,4.000000,4.000000,4.000000,4.000000,4.000000,4.000000,4.000000,4.000000,4.000000,4.000000,4.000000,4.000000,4.000000,100.000000,,,,,,,,,,,,,,,,
1645711661.511611,135.000000,0.000000,4219.871582,4338.077148,4213.461426,4204.102539,4250.897461,4237.692383,4232.563965,4220.641113,4226.794922,4265.000000,4207.179688,4162.051270,4235.641113,4258.846191,2532.000000,4.000000,82.000000,,,,0.000000,4.000000,4.000000,4.000000,4.000000,4.000000,4.000000,4.000000,4.000000,4.000000,4.000000,4.000000,4.000000,4.000000,4.000000,100.000000,,,,,,,,,,,,,,,,
1645711661.515451,136.000000,0.000000,4228.846191,4334.871582,4209.102539,4196.025879,4249.615234,4237.051270,4228.974121,4220.897461,4227.179688,4264.230957,4206.153809,4159.743652,4236.794922,4253.846191,1641.000000,4.000000,82.000000,,,,0.000000,4.000000,4.000000,4.000000,4.000000,4.000000,4.000000,4.000000,4.000000,4.000000,4.000000,4.000000,4.000000,4.000000,4.000000,100.000000,,,,,,,,,,,,,,,,
1645711661.519392,137.000000,0.000000,4254.102539,4321.922852,4205.256348,4182.179688,4233.846191,4225.000000,4221.153809,4213.974121,4221.025879,4248.205078,4196.666504,4154.487305,4233.717773,4261.666504,3075.000000,4.000000,82.000000,,,,0.000000,4.000000,4.000000,4.000000,4.000000,4.000000,4.000000,4.000000,4.000000,4.000000,4.000000,4.000000,4.000000,4.000000,4.000000,100.000000,,,,,,,,,,,,,,,,
1645711661.523332,138.000000,0.000000,4263.077148,4314.743652,4207.692383,4179.102539,4225.384766,4218.846191,4219.102539,4209.487305,4216.922852,4237.563965,4194.615234,4154.487305,4232.948730,4274.615234,2297.000000,4.000000,82.000000,,,,0.000000,4.000000,4.000000,4.000000,4.000000,4.000000,4.000000,4.000000,4.000000,4.000000,4.000000,4.000000,4.000000,4.000000,4.000000,100.000000,,,,,,,,,,,,,,,,
1645711661.527272,139.000000,0.000000,4245.128418,4322.179688,4216.025879,4192.307617,4235.897461,4226.282227,4223.589844,4212.563965,4220.256348,4245.384766,4207.307617,4162.051270,4237.692383,4278.589844,2828.000000,4.000000,82.000000,,,,0.000000,4.000000,4.000000,4.000000,4.000000,4.000000,4.000000,4.000000,4.000000,4.000000,4.000000,4.000000,4.000000,4.000000,4.000000,100.000000,,,,,,,,,,,,,,,,
1645711661.531212,140.000000,0.000000,4225.512695,4335.384766,4223.077148,4207.820313,4251.410156,4235.512695,4226.153809,4216.794922,4226.282227,4260.512695,4221.666504,4170.256348,4242.692383,4271.282227,3243.000000,4.000000,82.000000,,,,0.000000,4.000000,4.000000,4.000000,4.000000,4.000000,4.000000,4.000000,4.000000,4.000000,4.000000,4.000000,4.000000,4.000000,4.000000,100.000000,,,,,,,,,,,,,,,,
1645711661.535252,141.000000,0.000000,4231.794922,4339.358887,4222.563965,4208.333496,4251.153809,4232.820313,4221.153809,4214.230957,4226.922852,4262.948730,4220.384766,4171.025879,4240.384766,4264.615234,3168.000000,4.000000,82.000000,,,,0.000000,4.000000,4.000000,4.000000,4.000000,4.000000,4.000000,4.000000,4.000000,4.000000,4.000000,4.000000,4.000000,4.000000,4.000000,100.000000,,,,,,,,,,,,,,,,
1645711661.539192,142.000000,0.000000,4256.410156,4331.922852,4215.897461,4194.743652,4235.128418,4220.897461,4213.717773,4206.282227,4221.666504,4250.769043,4205.512695,4164.615234,4232.179688,4268.461426,2297.000000,4.000000,82.000000,,,,0.000000,4.000000,4.000000,4.000000,4.000000,4.000000,4.000000,4.000000,4.000000,4.000000,4.000000,4.000000,4.000000,4.000000,4.000000,100.000000,,,,,,,,,,,,,,,,
1645711661.543132,143.000000,0.000000,4266.282227,4325.384766,4210.128418,4184.102539,4223.717773,4215.384766,4213.461426,4203.077148,4218.333496,4242.179688,4196.025879,4158.205078,4226.666504,4276.922852,2828.000000,4.000000,82.000000,,,,0.000000,4.000000,4.000000,4.000000,4.000000,4.000000,4.000000,4.000000,4.000000,4.000000,4.000000,4.000000,4.000000,4.000000,4.000000,100.000000,,,,,,,,,,,,,,,,
1645711661.547072,144.000000,0.000000,4247.692383,4328.589844,4209.230957,4187.563965,4230.128418,4223.333496,4220.769043,4209.102539,4222.051270,4250.000000,4203.205078,4156.666504,4229.358887,4276.794922,3243.000000,4.000000,82.000000,,,,0.000000,4.000000,4.000000,4.000000,4.000000,4.000000,4.000000,4.000000,4.000000,4.000000,4.000000,4.000000,4.000000,4.000000,4.000000,100.000000,,,,,,,,,,,,,,,,
1645711661.551012,145.000000,0.000000,4225.128418,4335.256348,4211.025879,4196.922852,4243.589844,4233.077148,4226.538574,4216.922852,4228.077148,4263.974121,4216.282227,4157.051270,4235.897461,4265.128418,3168.000000,4.000000,82.000000,,,,0.000000,4.000000,4.000000,4.000000,4.000000,4.000000,4.000000,4.000000,4.000000,4.000000,4.000000,4.000000,4.000000,4.000000,4.000000,100.000000,,,,,,,,,,,,,,,,
1645711661.554952,146.000000,0.000000,4228.205078,4333.974121,4211.538574,4197.179688,4244.230957,4230.512695,4223.717773,4215.897461,4228.077148,4263.974121,4216.666504,4154.487305,4238.205078,4255.000000,2297.000000,4.000000,82.000000,,,,0.000000,4.000000,4.000000,4.000000,4.000000,4.000000,4.000000,4.000000,4.000000,4.000000,4.000000,4.000000,4.000000,4.000000,4.000000,100.000000,,,,,,,,,,,,,,,,
1645711661.558893,147.000000,0.000000,4252.307617,4324.358887,4210.897461,4187.436035,4231.794922,4218.717773,4216.794922,4206.025879,4221.410156,4247.820313,4202.948730,4149.743652,4235.128418,4258.589844,2828.000000,4.000000,82.000000,,,,0.000000,4.000000,4.000000,4.000000,4.000000,4.000000,4.000000,4.000000,4.000000,4.000000,4.000000,4.000000,4.000000,4.000000,4.000000,100.000000,,,,,,,,,,,,,,,,
1645711661.562833,148.000000,0.000000,4263.717773,4318.205078,4211.410156,4181.666504,4225.384766,4214.615234,4215.384766,4198.077148,4216.410156,4235.000000,4192.436035,4147.563965,4232.692383,4270.897461,3243.000000,4.000000,82.000000,,,,0.000000,4.000000,4.000000,4.000000,4.000000,4.000000,4.000000,4.000000,4.000000,4.000000,4.000000,4.000000,4.000000,4.000000,4.000000,100.000000,,,,,,,,,,,,,,,,
1645711661.566773,149.000000,0.000000,4245.000000,4323.333496,4213.333496,4188.717773,4236.922852,4225.641113,4221.282227,4199.871582,4219.615234,4241.538574,4197.563965,4149.615234,4235.000000,4276.538574,3168.000000,4.000000,82.000000,,,,0.000000,4.000000,4.000000,4.000000,4.000000,4.000000,4.000000,4.000000,4.000000,4.000000,4.000000,4.000000,4.000000,4.000000,4.000000,100.000000,,,,,,,,,,,,,,,,
1645711661.570713,150.000000,0.000000,4218.461426,4332.307617,4212.948730,4200.128418,4253.589844,4239.230957,4225.641113,4206.538574,4226.922852,4258.974121,4210.000000,4151.153809,4237.692383,4269.358887,2297.000000,4.000000,82.000000,,,,0.000000,4.000000,4.000000,4.000000,4.000000,4.000000,4.000000,4.000000,4.000000,4.000000,4.000000,4.000000,4.000000,4.000000,4.000000,100.000000,,,,,,,,,,,,,,,,
1645711661.574653,151.000000,0.000000,4217.179688,4332.436035,4208.077148,4201.025879,4253.846191,4238.205078,4221.538574,4208.461426,4229.487305,4266.025879,4212.563965,4147.948730,4233.974121,4260.000000,2828.000000,4.000000,82.000000,,,,0.000000,4.000000,4.000000,4.000000,4.000000,4.000000,4.000000,4.000000,4.000000,4.000000,4.000000,4.000000,4.000000,4.000000,4.000000,100.000000,,,,,,,,,,,,,,,,
1645711661.578693,152.000000,0.000000,4241.666504,4322.820313,4202.820313,4190.641113,4236.153809,4223.461426,4213.846191,4204.358887,4225.128418,4255.897461,4203.333496,4143.205078,4225.384766,4261.282227,3243.000000,4.000000,82.000000,,,,0.000000,4.000000,4.000000,4.000000,4.000000,4.000000,4.000000,4.000000,4.000000,4.000000,4.000000,4.000000,4.000000,4.000000,4.000000,100.000000,,,,,,,,,,,,,,,,
1645711661.582633,153.000000,0.000000,4259.487305,4316.025879,4203.205078,4183.333496,4222.436035,4213.205078,4212.820313,4202.948730,4220.897461,4244.743652,4198.205078,4143.846191,4221.282227,4270.384766,3168.000000,4.000000,82.000000,,,,0.000000,4.000000,4.000000,4.000000,4.000000,4.000000,4.000000,4.000000,4.000000,4.000000,4.000000,4.000000,4.000000,4.000000,4.000000,100.000000,,,,,,,,,,,,,,,,
1645711661.586573,154.000000,0.000000,4249.230957,4321.025879,4210.256348,4188.974121,4229.102539,4218.717773,4220.256348,4209.871582,4223.461426,4247.948730,4208.333496,4151.025879,4227.051270,4273.205078,2297.000000,4.000000,82.000000,,,,0.000000,4.000000,4.000000,4.000000,4.000000,4.000000,4.000000,4.000000,4.000000,4.000000,4.000000,4.000000,4.000000,4.000000,4.000000,100.000000,,,,,,,,,,,,,,,,
1645711661.590513,155.000000,0.000000,4226.922852,4331.025879,4217.307617,4199.743652,4245.512695,4230.512695,4226.538574,4218.717773,4229.615234,4259.487305,4223.846191,4156.922852,4236.153809,4263.589844,2828.000000,4.000000,82.000000,,,,0.000000,4.000000,4.000000,4.000000,4.000000,4.000000,4.000000,4.000000,4.000000,4.000000,4.000000,4.000000,4.000000,4.000000,4.000000,100.000000,,,,,,,,,,,,,,,,
1645711661.594453,156.000000,0.000000,4223.205078,4331.922852,4217.307617,4200.128418,4248.461426,4230.769043,4222.179688,4217.436035,4230.512695,4261.025879,4225.256348,4153.589844,4236.794922,4252.307617,3243.000000,4.000000,82.000000,3,1,3,0.000000,4.000000,4.000000,4.000000,4.000000,4.000000,4.000000,4.000000,4.000000,4.000000,4.000000,4.000000,4.000000,4.000000,4.000000,100.000000,,,,,,,,,,,,,,,,
1645711661.598393,157.000000,0.000000,4241.666504,4322.436035,4211.153809,4188.846191,4232.948730,4217.179688,4210.897461,4204.743652,4223.333496,4247.563965,4209.358887,4142.436035,4226.410156,4253.077148,3168.000000,4.000000,82.000000,,,,0.000000,4.000000,4.000000,4.000000,4.000000,4.000000,4.000000,4.000000,4.000000,4.000000,4.000000,4.000000,4.000000,4.000000,4.000000,100.000000,,,,,,,,,,,,,,,,
1645711661.602334,158.000000,0.000000,4255.256348,4316.025879,4205.897461,4180.256348,4218.974121,4205.641113,4204.743652,4192.307617,4215.512695,4236.025879,4193.717773,4133.974121,4214.615234,4264.358887,2297.000000,4.000000,82.000000,,,,0.000000,4.000000,4.000000,4.000000,4.000000,4.000000,4.000000,4.000000,4.000000,4.000000,4.000000,4.000000,4.000000,4.000000,4.000000,100.000000,,,,,,,,,,,,,,,,
1645711661.606274,159.000000,0.000000,4245.000000,4323.333496,4206.666504,4186.025879,4224.358887,4209.230957,4209.358887,4191.153809,4214.871582,4242.563965,4195.128418,4135.641113,4211.922852,4271.538574,2828.000000,4.000000,82.000000,,,,0.000000,4.000000,4.000000,4.000000,4.000000,4.000000,4.000000,4.000000,4.000000,4.000000,4.000000,4.000000,4.000000,4.000000,4.000000,100.000000,,,,,,,,,,,,,,,,
1645711661.610214,160.000000,0.000000,4226.666504,4337.051270,4210.384766,4198.846191,4241.282227,4221.282227,4217.692383,4198.589844,4219.615234,4260.000000,4208.205078,4143.974121,4218.589844,4266.282227,3243.000000,4.000000,82.000000,,,,0.000000,4.000000,4.000000,4.000000,4.000000,4.000000,4.000000,4.000000,4.000000,4.000000,4.000000,4.000000,4.000000,4.000000,4.000000,100.000000,,,,,,,,,,,,,,,,
1645711661.614154,161.000000,0.000000,4228.589844,4340.384766,4211.410156,4202.563965,4247.307617,4225.384766,4218.974121,4202.948730,4221.153809,4266.282227,4214.230957,4150.000000,4225.897461,4256.666504,3168.000000,4.000000,82.000000,,,,0.000000,4.000000,4.000000,4.000000,4.000000,4.000000,4.000000,4.000000,4.000000,4.000000,4.000000,4.000000,4.000000,4.000000,4.000000,100.000000,,,,,,,,,,,,,,,,
1645711661.618094,162.000000,0.000000,4251.153809,4328.717773,4209.230957,4193.205078,4235.128418,4217.051270,4212.948730,4198.461426,4215.641113,4253.077148,4206.282227,4150.000000,4227.820313,4256.025879,2297.000000,4.000000,82.000000,,,,0.000000,4.000000,4.000000,4.000000,4.000000,4.000000,4.000000,4.000000,4.000000,4.000000,4.000000,4.000000,4.000000,4.000000,4.000000,100.000000,,,,,,,,,,,,,,,,
1645711661.622034,163.000000,0.000000,4264.102539,4315.897461,4208.589844,4184.230957,4222.436035,4208.974121,4208.077148,4191.538574,4209.487305,4237.307617,4198.077148,4148.077148,4227.179688,4265.128418,2828.000000,4.000000,82.000000,,,,0.000000,4.000000,4.000000,4.000000,4.000000,4.000000,4.000000,4.000000,4.000000,4.000000,4.000000,4.000000,4.000000,4.000000,4.000000,100.000000,,,,,,,,,,,,,,,,
1645711661.625974,164.000000,0.000000,4246.794922,4316.538574,4212.051270,4188.974121,4228.077148,4212.820313,4209.871582,4191.666504,4210.512695,4238.846191,4204.487305,4149.358887,4229.615234,4271.025879,3243.000000,4.000000,82.000000,,,,0.000000,4.000000,4.000000,4.000000,4.000000,4.000000,4.000000,4.000000,4.000000,4.000000,4.000000,4.000000,4.000000,4.000000,4.000000,100.000000,,,,,,,,,,,,,,,,
1645711661.629914,165.000000,0.000000,4218.333496,4327.563965,4216.153809,4201.922852,4246.410156,4223.077148,4213.589844,4198.077148,4217.948730,4254.615234,4219.615234,4152.051270,4234.871582,4265.000000,3168.000000,4.000000,82.000000,,,,0.000000,4.000000,4.000000,4.000000,4.000000,4.000000,4.000000,4.000000,4.000000,4.000000,4.000000,4.000000,4.000000,4.000000,4.000000,100.000000,,,,,,,,,,,,,,,,
1645711661.633854,166.000000,0.000000,4213.717773,4332.692383,4215.769043,4206.922852,4254.487305,4224.615234,4212.307617,4201.666504,4223.077148,4262.820313,4224.487305,4151.153809,4237.436035,4253.589844,2297.000000,4.000000,82.000000,,,,0.000000,4.000000,4.000000,4.000000,4.000000,4.000000,4.000000,4.000000,4.000000,4.000000,4.000000,4.000000,4.000000,4.000000,4.000000,100.000000,,,,,,,,,,,,,,,,
1645711661.637795,167.000000,0.000000,4239.358887,4323.974121,4210.769043,4197.692383,4243.077148,4214.358887,4207.179688,4197.692383,4220.256348,4252.436035,4212.051270,4146.282227,4234.230957,4249.743652,2828.000000,4.000000,82.000000,,,,0.000000,4.000000,4.000000,4.000000,4.000000,4.000000,4.000000,4.000000,4.000000,4.000000,4.000000,4.000000,4.000000,4.000000,4.000000,100.000000,,,,,,,,,,,,,,,,
1645711661.641735,168.000000,0.000000,4263.589844,4311.666504,4206.538574,4186.410156,4228.333496,4206.282227,4205.769043,4191.922852,4214.230957,4238.077148,4197.436035,4142.436035,4230.256348,4256.153809,3243.000000,4.000000,82.000000,,,,0.000000,4.000000,4.000000,4.000000,4.000000,4.000000,4.000000,4.000000,4.000000,4.000000,4.000000,4.000000,4.000000,4.000000,4.000000,100.000000,,,,,,,,,,,,,,,,
1645711661.645675,169.000000,0.000000,4258.333496,4310.769043,4206.794922,4186.538574,4230.641113,4212.948730,4211.538574,4192.948730,4212.692383,4240.769043,4198.333496,4143.717773,4231.282227,4262.307617,3168.000000,4.000000,82.000000,,,,0.000000,4.000000,4.000000,4.000000,4.000000,4.000000,4.000000,4.000000,4.000000,4.000000,4.000000,4.000000,4.000000,4.000000,4.000000,100.000000,,,,,,,,,,,,,,,,
1645711661.649615,170.000000,0.000000,4234.871582,4321.410156,4209.102539,4195.384766,4247.692383,4228.077148,4217.948730,4200.384766,4216.410156,4259.743652,4212.948730,4147.820313,4236.025879,4260.128418,2297.000000,4.000000,82.000000,,,,0.000000,4.000000,4.000000,4.000000,4.000000,4.000000,4.000000,4.000000,4.000000,4.000000,4.000000,4.000000,4.000000,4.000000,4.000000,100.000000,,,,,,,,,,,,,,,,
1645711661.653455,171.000000,0.000000,4227.820313,4329.743652,4208.461426,4198.589844,4257.948730,4233.717773,4216.922852,4205.769043,4218.974121,4273.205078,4222.820313,4149.871582,4237.179688,4255.384766,2828.000000,4.000000,82.000000,,,,0.000000,4.000000,4.000000,4.000000,4.000000,4.000000,4.000000,4.000000,4.000000,4.000000,4.000000,4.000000,4.000000,4.000000,4.000000,100.000000,,,,,,,,,,,,,,,,
1645711661.657395,172.000000,0.000000,4248.461426,4326.538574,4205.256348,4190.641113,4249.871582,4223.846191,4210.256348,4204.102539,4216.410156,4266.538574,4217.692383,4149.358887,4232.436035,4259.102539,3243.000000,4.000000,82.000000,,,,0.000000,4.000000,4.000000,4.000000,4.000000,4.000000,4.000000,4.000000,4.000000,4.000000,4.000000,4.000000,4.000000,4.000000,4.000000,100.000000,,,,,,,,,,,,,,,,
1645711661.661335,173.000000,0.000000,4269.615234,4318.333496,4204.743652,4182.948730,4237.179688,4212.563965,4208.077148,4201.025879,4213.461426,4251.153809,4207.948730,4150.384766,4228.205078,4270.897461,3168.000000,4.000000,82.000000,,,,0.000000,4.000000,4.000000,4.000000,4.000000,4.000000,4.000000,4.000000,4.000000,4.000000,4.000000,4.000000,4.000000,4.000000,4.000000,100.000000,,,,,,,,,,,,,,,,
1645711661.665275,174.000000,0.000000,4262.179688,4317.563965,4210.256348,4188.846191,4239.743652,4216.410156,4215.769043,4203.974121,4216.922852,4248.461426,4209.230957,4155.641113,4231.538574,4277.436035,2297.000000,4.000000,82.000000,,,,0.000000,4.000000,4.000000,4.000000,4.000000,4.000000,4.000000,4.000000,4.000000,4.000000,4.000000,4.000000,4.000000,4.000000,4.000000,100.000000,,,,,,,,,,,,,,,,
1645711661.669215,175.000000,0.000000,4234.743652,4325.641113,4218.333496,4204.230957,4256.410156,4232.436035,4227.179688,4211.410156,4226.282227,4261.794922,4221.410156,4161.538574,4240.769043,4269.871582,2828.000000,4.000000,82.000000,,,,0.000000,4.000000,4.000000,4.000000,4.000000,4.000000,4.000000,4.000000,4.000000,4.000000,4.000000,4.000000,4.000000,4.000000,4.000000,100.000000,,,,,,,,,,,,,,,,
1645711661.673156,176.000000,0.000000,4222.820313,4331.666504,4221.922852,4212.307617,4266.282227,4242.563965,4231.538574,4214.615234,4233.205078,4273.333496,4228.974121,4162.563965,4246.538574,4256.410156,3243.000000,4.000000,82.000000,,,,0.000000,4.000000,4.000000,4.000000,4.000000,4.000000,4.000000,4.000000,4.000000,4.000000,4.000000,4.000000,4.000000,4.000000,4.000000,100.000000,,,,,,,,,,,,,,,,
1645711661.677096,177.000000,0.000000,4242.179688,4328.589844,4219.615234,4205.000000,4256.666504,4236.794922,4227.051270,4209.743652,4231.410156,4268.717773,4223.461426,4159.230957,4243.589844,4253.333496,3168.000000,4.000000,82.000000,,,,0.000000,4.000000,4.000000,4.000000,4.000000,4.000000,4.000000,4.000000,4.000000,4.000000,4.000000,4.000000,4.000000,4.000000,4.000000,100.000000,,,,,,,,,,,,,,,,
1645711661.681036,178.000000,0.000000,4267.820313,4322.563965,4216.282227,4193.717773,4240.256348,4225.769043,4222.051270,4203.974121,4225.384766,4256.538574,4215.384766,4158.077148,4237.436035,4265.128418,2297.000000,4.000000,82.000000,,,,0.000000,4.000000,4.000000,4.000000,4.000000,4.000000,4.000000,4.000000,4.000000,4.000000,4.000000,4.000000,4.000000,4.000000,4.000000,100.000000,,,,,,,,,,,,,,,,
1645711661.684976,179.000000,0.000000,4267.563965,4323.205078,4216.794922,4194.102539,4238.077148,4225.641113,4223.205078,4206.538574,4224.102539,4256.025879,4220.000000,4163.589844,4237.051270,4278.717773,2828.000000,4.000000,82.000000,,,,0.000000,4.000000,4.000000,4.000000,4.000000,4.000000,4.000000,4.000000,4.000000,4.000000,4.000000,4.000000,4.000000,4.000000,4.000000,100.000000,,,,,,,,,,,,,,,,
1645711661.688916,180.000000,0.000000,4243.717773,4328.717773,4219.743652,4206.025879,4251.922852,4236.922852,4227.307617,4216.282227,4229.358887,4270.256348,4235.000000,4171.025879,4243.717773,4280.000000,3243.000000,4.000000,82.000000,,,,0.000000,4.000000,4.000000,4.000000,4.000000,4.000000,4.000000,4.000000,4.000000,4.000000,4.000000,4.000000,4.000000,4.000000,4.000000,100.000000,,,,,,,,,,,,,,,,
1645711661.692856,181.000000,0.000000,4228.846191,4327.820313,4220.384766,4214.102539,4261.922852,4244.102539,4227.051270,4222.692383,4234.230957,4281.025879,4242.179688,4172.307617,4250.128418,4270.384766,3168.000000,4.000000,82.000000,,,,0.000000,4.000000,4.000000,4.000000,4.000000,4.000000,4.000000,4.000000,4.000000,4.000000,4.000000,4.000000,4.000000,4.000000,4.000000,100.000000,,,,,,,,,,,,,,,,
1645711661.696796,182.000000,0.000000,4242.307617,4315.897461,4217.179688,4207.948730,4253.717773,4237.563965,4221.666504,4219.487305,4232.436035,4273.717773,4232.051270,4165.897461,4249.871582,4263.589844,2297.000000,4.000000,82.000000,,,,0.000000,4.000000,4.000000,4.000000,4.000000,4.000000,4.000000,4.000000,4.000000,4.000000,4.000000,4.000000,4.000000,4.000000,4.000000,100.000000,,,,,,,,,,,,,,,,
1645711661.700736,183.000000,0.000000,4264.615234,4303.846191,4214.230957,4195.384766,4237.307617,4226.282227,4218.974121,4212.820313,4227.820313,4257.179688,4216.922852,4159.487305,4245.769043,4267.436035,2828.000000,4.000000,82.000000,,,,0.000000,4.000000,4.000000,4.000000,4.000000,4.000000,4.000000,4.000000,4.000000,4.000000,4.000000,4.000000,4.000000,4.000000,4.000000,100.000000,,,,,,,,,,,,,,,,
1645711661.704676,184.000000,0.000000,4265.128418,4305.128418,4214.871582,4191.153809,4233.717773,4225.384766,4223.589844,4213.333496,4228.333496,4252.436035,4216.538574,4160.384766,4245.128418,4274.358887,3243.000000,4.000000,82.000000,,,,0.000000,4.000000,4.000000,4.000000,4.000000,4.000000,4.000000,4.000000,4.000000,4.000000,4.000000,4.000000,4.000000,4.000000,4.000000,100.000000,,,,,,,,,,,,,,,,
1645711661.708617,185.000000,0.000000,4243.205078,4318.589844,4217.563965,4196.922852,4246.282227,4235.384766,4229.871582,4221.666504,4235.128418,4265.769043,4231.922852,4166.922852,4250.128418,4273.846191,3168.000000,4.000000,82.000000,,,,0.000000,4.000000,4.000000,4.000000,4.000000,4.000000,4.000000,4.000000,4.000000,4.000000,4.000000,4.000000,4.000000,4.000000,4.000000,100.000000,,,,,,,,,,,,,,,,
1645711661.712557,186.000000,0.000000,4228.589844,4328.717773,4217.563965,4199.871582,4256.666504,4241.282227,4228.077148,4228.333496,4240.256348,4281.410156,4244.871582,4170.897461,4254.487305,4266.410156,2297.000000,4.000000,82.000000,,,,0.000000,4.000000,4.000000,4.000000,4.000000,4.000000,4.000000,4.000000,4.000000,4.000000,4.000000,4.000000,4.000000,4.000000,4.000000,100.000000,,,,,,,,,,,,,,,,
1645711661.716497,187.000000,0.000000,4240.641113,4325.000000,4213.589844,4191.538574,4249.743652,4233.333496,4217.948730,4225.641113,4236.794922,4282.563965,4240.641113,4168.205078,4252.436035,4262.179688,2828.000000,4.000000,82.000000,,,,0.000000,4.000000,4.000000,4.000000,4.000000,4.000000,4.000000,4.000000,4.000000,4.000000,4.000000,4.000000,4.000000,4.000000,4.000000,100.000000,,,,,,,,,,,,,,,,
1645711661.720437,188.000000,0.000000,4261.538574,4314.743652,4210.384766,4181.410156,4234.615234,4220.641113,4209.615234,4217.563965,4228.333496,4273.333496,4226.794922,4163.717773,4246.666504,4266.153809,3243.000000,4.000000,82.000000,,,,0.000000,4.000000,4.000000,4.000000,4.000000,4.000000,4.000000,4.000000,4.000000,4.000000,4.000000,4.000000,4.000000,4.000000,4.000000,100.000000,,,,,,,,,,,,,,,,
1645711661.724477,189.000000,0.000000,4261.282227,4313.461426,4212.436035,4184.487305,4232.179688,4219.230957,4211.794922,4214.358887,4224.102539,4269.615234,4222.436035,4163.974121,4244.871582,4270.641113,3168.000000,4.000000,82.000000,,,,0.000000,4.000000,4.000000,4.000000,4.000000,4.000000,4.000000,4.000000,4.000000,4.000000,4.000000,4.000000,4.000000,4.000000,4.000000,100.000000,,,,,,,,,,,,,,,,
1645711661.728417,190.000000,0.000000,4238.589844,4324.102539,4217.563965,4200.641113,4246.794922,4230.256348,4221.025879,4218.461426,4227.563965,4275.641113,4232.179688,4168.333496,4248.974121,4266.410156,2297.000000,4.000000,82.000000,,,,0.000000,4.000000,4.000000,4.000000,4.000000,4.000000,4.000000,4.000000,4.000000,4.000000,4.000000,4.000000,4.000000,4.000000,4.000000,100.000000,,,,,,,,,,,,,,,,
1645711661.732357,191.000000,0.000000,4223.461426,4333.205078,4219.230957,4213.077148,4259.615234,4238.205078,4226.282227,4222.307617,4231.922852,4276.922852,4240.769043,4169.487305,4252.692383,4256.538574,2828.000000,4.000000,82.000000,,,,0.000000,4.000000,4.000000,4.000000,4.000000,4.000000,4.000000,4.000000,4.000000,4.000000,4.000000,4.000000,4.000000,4.000000,4.000000,100.000000,,,,,,,,,,,,,,,,
1645711661.736297,192.000000,0.000000,4237.436035,4328.205078,4214.615234,4208.205078,4253.846191,4231.538574,4222.307617,4218.333496,4230.000000,4262.436035,4233.461426,4163.589844,4249.743652,4253.333496,3243.000000,4.000000,82.000000,,,,0.000000,4.000000,4.000000,4.000000,4.000000,4.000000,4.000000,4.000000,4.000000,4.000000,4.000000,4.000000,4.000000,4.000000,4.000000,100.000000,,,,,,,,,,,,,,,,
1645711661.740237,193.000000,0.000000,4263.717773,4313.333496,4209.102539,4193.589844,4237.820313,4218.461426,4216.410156,4210.128418,4223.974121,4243.461426,4217.307617,4155.769043,4242.307617,4262.051270,3168.000000,4.000000,82.000000,,,,0.000000,4.000000,4.000000,4.000000,4.000000,4.000000,4.000000,4.000000,4.000000,4.000000,4.000000,4.000000,4.000000,4.000000,4.000000,100.000000,,,,,,,,,,,,,,,,
1645711661.744177,194.000000,0.000000,4269.871582,4303.589844,4209.487305,4187.563965,4233.717773,4215.384766,4216.922852,4207.179688,4222.051270,4241.794922,4212.051270,4154.871582,4238.077148,4272.692383,2297.000000,4.000000,82.000000,,,,0.000000,4.000000,4.000000,4.000000,4.000000,4.000000,4.000000,4.000000,4.000000,4.000000,4.000000,4.000000,4.000000,4.000000,4.000000,100.000000,,,,,,,,,,,,,,,,
1645711661.748117,195.000000,0.000000,4250.512695,4304.871582,4215.641113,4196.025879,4247.179688,4225.128418,4222.692383,4211.922852,4226.794922,4261.282227,4224.230957,4161.794922,4240.256348,4272.948730,2828.000000,4.000000,82.000000,,,,0.000000,4.000000,4.000000,4.000000,4.000000,4.000000,4.000000,4.000000,4.000000,4.000000,4.000000,4.000000,4.000000,4.000000,4.000000,100.000000,,,,,,,,,,,,,,,,
1645711661.752058,196.000000,0.000000,4233.589844,4307.692383,4220.641113,4205.256348,4259.230957,4232.692383,4224.743652,4217.051270,4231.538574,4280.128418,4237.692383,4168.333496,4243.461426,4263.461426,3243.000000,4.000000,82.000000,,,,0.000000,4.000000,4.000000,4.000000,4.000000,4.000000,4.000000,4.000000,4.000000,4.000000,4.000000,4.000000,4.000000,4.000000,4.000000,100.000000,,,,,,,,,,,,,,,,
1645711661.755998,197.000000,0.000000,4242.563965,4302.179688,4219.102539,4201.538574,4251.666504,4226.153809,4219.487305,4214.743652,4228.461426,4276.153809,4233.974121,4166.922852,4241.922852,4256.922852,3168.000000,4.000000,82.000000,,,,0.000000,4.000000,4.000000,4.000000,4.000000,4.000000,4.000000,4.000000,4.000000,4.000000,4.000000,4.000000,4.000000,4.000000,4.000000,100.000000,,,,,,,,,,,,,,,,
1645711661.759938,198.000000,0.000000,4264.358887,4293.717773,4214.230957,4189.743652,4231.922852,4213.461426,4213.717773,4207.948730,4220.000000,4254.102539,4216.153809,4159.487305,4237.307617,4260.897461,2297.000000,4.000000,82.000000,,,,0.000000,4.000000,4.000000,4.000000,4.000000,4.000000,4.000000,4.000000,4.000000,4.000000,4.000000,4.000000,4.000000,4.000000,4.000000,100.000000,,,,,,,,,,,,,,,,
1645711661.763878,199.000000,0.000000,4268.077148,4296.025879,4212.820313,4187.179688,4225.128418,4212.563965,4215.641113,4206.282227,4215.897461,4238.974121,4204.487305,4154.358887,4237.436035,4267.948730,2828.000000,4.000000,82.000000,,,,0.000000,4.000000,4.000000,4.000000,4.000000,4.000000,4.000000,4.000000,4.000000,4.000000,4.000000,4.000000,4.000000,4.000000,4.000000,100.000000,,,,,,,,,,,,,,,,
1645711661.767818,200.000000,0.000000,4248.205078,4311.666504,4217.436035,4200.128418,4240.897461,4227.307617,4223.717773,4212.051270,4220.897461,4245.641113,4211.025879,4156.410156,4245.256348,4266.538574,3243.000000,4.000000,82.000000,,,,0.000000,4.000000,4.000000,4.000000,4.000000,4.000000,4.000000,4.000000,4.000000,4.000000,4.000000,4.000000,4.000000,4.000000,4.000000,100.000000,,,,,,,,,,,,,,,,
1645711661.771758,201.000000,0.000000,4232.820313,4325.641113,4223.461426,4215.128418,4260.897461,4241.666504,4228.333496,4216.922852,4228.974121,4261.922852,4225.512695,4162.820313,4254.487305,4257.948730,3168.000000,4.000000,82.000000,,,,0.000000,4.000000,4.000000,4.000000,4.000000,4.000000,4.000000,4.000000,4.000000,4.000000,4.000000,4.000000,4.000000,4.000000,4.000000,100.000000,,,,,,,,,,,,,,,,
1645711661.775698,202.000000,0.000000,4246.666504,4323.589844,4226.410156,4215.384766,4262.436035,4240.384766,4224.871582,4212.179688,4231.153809,4266.538574,4231.666504,4168.333496,4257.307617,4255.769043,2297.000000,4.000000,82.000000,,,,0.000000,4.000000,4.000000,4.000000,4.000000,4.000000,4.000000,4.000000,4.000000,4.000000,4.000000,4.000000,4.000000,4.000000,4.000000,100.000000,,,,,,,,,,,,,,,,
1645711661.779638,203.000000,0.000000,4276.025879,4309.615234,4226.538574,4201.794922,4247.179688,4228.589844,4219.615234,4201.794922,4226.410156,4256.410156,4228.077148,4171.666504,4253.461426,4267.436035,2828.000000,4.000000,82.000000,,,,0.000000,4.000000,4.000000,4.000000,4.000000,4.000000,4.000000,4.000000,4.000000,4.000000,4.000000,4.000000,4.000000,4.000000,4.000000,100.000000,,,,,,,,,,,,,,,,
1645711661.783578,204.000000,0.000000,4285.769043,4301.025879,4227.307617,4190.897461,4236.922852,4223.974121,4220.897461,4197.436035,4222.307617,4247.948730,4227.563965,4174.871582,4250.000000,4282.692383,3243.000000,4.000000,82.000000,,,,0.000000,4.000000,4.000000,4.000000,4.000000,4.000000,4.000000,4.000000,4.000000,4.000000,4.000000,4.000000,4.000000,4.000000,4.000000,100.000000,,,,,,,,,,,,,,,,
1645711661.787519,205.000000,0.000000,4264.487305,4306.410156,4228.589844,4192.820313,4243.717773,4232.948730,4227.563965,4203.846191,4223.461426,4251.666504,4235.641113,4176.794922,4251.025879,4285.256348,3168.000000,4.000000,82.000000,,,,0.000000,4.000000,4.000000,4.000000,4.000000,4.000000,4.000000,4.000000,4.000000,4.000000,4.000000,4.000000,4.000000,4.000000,4.000000,100.000000,,,,,,,,,,,,,,,,
1645711661.791459,206.000000,0.000000,4239.102539,4315.128418,4227.051270,4200.384766,4254.358887,4242.820313,4230.256348,4212.436035,4225.641113,4258.846191,4241.410156,4173.333496,4252.563965,4273.205078,2297.000000,4.000000,82.000000,,,,0.000000,4.000000,4.000000,4.000000,4.000000,4.000000,4.000000,4.000000,4.000000,4.000000,4.000000,4.000000,4.000000,4.000000,4.000000,100.000000,,,,,,,,,,,,,,,,
1645711661.795399,207.000000,0.000000,4240.128418,4311.922852,4221.410156,4200.641113,4250.000000,4239.358887,4224.230957,4212.051270,4222.692383,4254.615234,4232.307617,4163.846191,4248.846191,4261.282227,2828.000000,4.000000,82.000000,,,,0.000000,4.000000,4.000000,4.000000,4.000000,4.000000,4.000000,4.000000,4.000000,4.000000,4.000000,4.000000,4.000000,4.000000,4.000000,100.000000,,,,,,,,,,,,,,,,
1645711661.799239,208.000000,0.000000,4261.538574,4298.333496,4215.641113,4194.230957,4232.820313,4227.051270,4216.538574,4202.563965,4216.153809,4241.538574,4214.102539,4154.871582,4241.153809,4262.307617,3243.000000,4.000000,82.000000,,,,0.000000,4.000000,4.000000,4.000000,4.000000,4.000000,4.000000,4.000000,4.000000,4.000000,4.000000,4.000000,4.000000,4.000000,4.000000,100.000000,,,,,,,,,,,,,,,,
1645711661.803179,209.000000,0.000000,4271.410156,4290.512695,4215.512695,4193.461426,4224.487305,4223.589844,4217.948730,4195.641113,4214.102539,4237.179688,4206.410156,4155.000000,4237.692383,4270.512695,3168.000000,4.000000,82.000000,,,,0.000000,4.000000,4.000000,4.000000,4.000000,4.000000,4.000000,4.000000,4.000000,4.000000,4.000000,4.000000,4.000000,4.000000,4.000000,100.000000,,,,,,,,,,,,,,,,
1645711661.807119,210.000000,0.000000,4255.256348,4298.717773,4220.512695,4203.461426,4236.794922,4235.769043,4228.333496,4199.743652,4221.025879,4249.871582,4217.563965,4163.974121,4242.051270,4271.153809,2297.000000,4.000000,82.000000,,,,0.000000,4.000000,4.000000,4.000000,4.000000,4.000000,4.000000,4.000000,4.000000,4.000000,4.000000,4.000000,4.000000,4.000000,4.000000,100.000000,,,,,,,,,,,,,,,,
1645711661.811059,211.000000,0.000000,4235.769043,4313.717773,4224.102539,4212.563965,4255.256348,4249.743652,4236.666504,4210.000000,4230.128418,4264.615234,4233.333496,4172.563965,4248.461426,4260.256348,2828.000000,4.000000,82.000000,,,,0.000000,4.000000,4.000000,4.000000,4.000000,4.000000,4.000000,4.000000,4.000000,4.000000,4.000000,4.000000,4.000000,4.000000,4.000000,100.000000,,,,,,,,,,,,,,,,
1645711661.814999,212.000000,0.000000,4240.512695,4318.333496,4221.410156,4207.692383,4257.563965,4248.333496,4234.487305,4216.025879,4231.794922,4261.538574,4234.615234,4172.692383,4248.589844,4251.282227,3243.000000,4.000000,82.000000,,,,0.000000,4.000000,4.000000,4.000000,4.000000,4.000000,4.000000,4.000000,4.000000,4.000000,4.000000,4.000000,4.000000,4.000000,4.000000,100.000000,,,,,,,,,,,,,,,,
1645711661.818939,213.000000,0.000000,4263.205078,4309.102539,4215.512695,4192.563965,4242.563965,4233.333496,4226.282227,4214.615234,4225.128418,4242.820313,4221.410156,4166.025879,4243.077148,4257.307617,3168.000000,4.000000,82.000000,,,,0.000000,4.000000,4.000000,4.000000,4.000000,4.000000,4.000000,4.000000,4.000000,4.000000,4.000000,4.000000,4.000000,4.000000,4.000000,100.000000,,,,,,,,,,,,,,,,
1645711661.822880,214.000000,0.000000,4271.410156,4298.846191,4213.077148,4184.743652,4231.025879,4223.846191,4223.205078,4213.333496,4219.358887,4231.666504,4212.820313,4161.025879,4240.641113,4273.461426,2297.000000,4.000000,82.000000,,,,0.000000,4.000000,4.000000,4.000000,4.000000,4.000000,4.000000,4.000000,4.000000,4.000000,4.000000,4.000000,4.000000,4.000000,4.000000,100.000000,,,,,,,,,,,,,,,,
1645711661.826820,215.000000,0.000000,4250.897461,4299.102539,4216.025879,4193.333496,4238.205078,4231.538574,4228.717773,4218.205078,4221.922852,4243.974121,4221.153809,4162.307617,4246.410156,4282.820313,2828.000000,4.000000,82.000000,,,,0.000000,4.000000,4.000000,4.000000,4.000000,4.000000,4.000000,4.000000,4.000000,4.000000,4.000000,4.000000,4.000000,4.000000,4.000000,100.000000,,,,,,,,,,,,,,,,
1645711661.830760,216.000000,0.000000,4226.410156,4306.153809,4219.487305,4207.436035,4253.589844,4246.282227,4235.000000,4225.384766,4230.128418,4267.436035,4235.769043,4166.153809,4254.487305,4276.282227,3243.000000,4.000000,82.000000,,,,0.000000,4.000000,4.000000,4.000000,4.000000,4.000000,4.000000,4.000000,4.000000,4.000000,4.000000,4.000000,4.000000,4.000000,4.000000,100.000000,,,,,,,,,,,,,,,,
1645711661.834700,217.000000,0.000000,4229.743652,4308.077148,4218.205078,4209.743652,4255.769043,4249.871582,4234.358887,4226.666504,4234.358887,4275.897461,4237.051270,4166.153809,4255.000000,4263.461426,3168.000000,4.000000,82.000000,,,,0.000000,4.000000,4.000000,4.000000,4.000000,4.000000,4.000000,4.000000,4.000000,4.000000,4.000000,4.000000,4.000000,4.000000,4.000000,100.000000,,,,,,,,,,,,,,,,
1645711661.838640,218.000000,0.000000,4257.948730,4301.538574,4213.717773,4198.589844,4241.666504,4239.871582,4229.358887,4221.794922,4231.153809,4261.666504,4222.692383,4162.692383,4247.051270,4258.333496,2297.000000,4.000000,82.000000,,,,0.000000,4.000000,4.000000,4.000000,4.000000,4.000000,4.000000,4.000000,4.000000,4.000000,4.000000,4.000000,4.000000,4.000000,4.000000,100.000000,,,,,,,,,,,,,,,,
1645711661.842580,219.000000,0.000000,4276.153809,4296.025879,4211.794922,4189.230957,4230.384766,4231.282227,4228.589844,4219.358887,4226.794922,4243.461426,4210.641113,4161.025879,4239.615234,4262.563965,2828.000000,4.000000,82.000000,,,,0.000000,4.000000,4.000000,4.000000,4.000000,4.000000,4.000000,4.000000,4.000000,4.000000,4.000000,4.000000,4.000000,4.000000,4.000000,100.000000,,,,,,,,,,,,,,,,
1645711661.846520,220.000000,0.000000,4262.948730,4298.461426,4215.000000,4193.077148,4236.538574,4235.256348,4234.615234,4225.128418,4227.820313,4241.282227,4215.897461,4163.974121,4240.641113,4265.512695,3243.000000,4.000000,82.000000,,,,0.000000,4.000000,4.000000,4.000000,4.000000,4.000000,4.000000,4.000000,4.000000,4.000000,4.000000,4.000000,4.000000,4.000000,4.000000,100.000000,,,,,,,,,,,,,,,,
1645711661.850460,221.000000,0.000000,4237.692383,4303.077148,4219.358887,4202.948730,4250.384766,4244.487305,4239.615234,4233.461426,4232.820313,4251.666504,4230.641113,4167.179688,4246.538574,4261.282227,3168.000000,4.000000,82.000000,,,,0.000000,4.000000,4.000000,4.000000,4.000000,4.000000,4.000000,4.000000,4.000000,4.000000,4.000000,4.000000,4.000000,4.000000,4.000000,100.000000,,,,,,,,,,,,,,,,
1645711661.854400,222.000000,0.000000,4233.077148,4299.230957,4219.487305,4203.589844,4250.641113,4243.717773,4235.769043,4233.717773,4234.102539,4254.871582,4235.128418,4165.512695,4247.692383,4256.666504,2297.000000,4.000000,82.000000,,,,0.000000,4.000000,4.000000,4.000000,4.000000,4.000000,4.000000,4.000000,4.000000,4.000000,4.000000,4.000000,4.000000,4.000000,4.000000,100.000000,,,,,,,,,,,,,,,,
1645711661.858341,223.000000,0.000000,4251.153809,4287.051270,4215.769043,4192.436035,4233.846191,4231.666504,4226.410156,4224.358887,4229.102539,4243.077148,4223.205078,4159.871582,4241.153809,4260.897461,2828.000000,4.000000,82.000000,,,,0.000000,4.000000,4.000000,4.000000,4.000000,4.000000,4.000000,4.000000,4.000000,4.000000,4.000000,4.000000,4.000000,4.000000,4.000000,100.000000,,,,,,,,,,,,,,,,
1645711661.862281,224.000000,0.000000,4260.512695,4279.615234,4213.205078,4183.333496,4219.615234,4223.077148,4222.307617,4215.384766,4224.102539,4230.641113,4209.102539,4156.410156,4234.487305,4271.153809,3243.000000,4.000000,82.000000,,,,0.000000,4.000000,4.000000,4.000000,4.000000,4.000000,4.000000,4.000000,4.000000,4.000000,4.000000,4.000000,4.000000,4.000000,4.000000,100.000000,,,,,,,,,,,,,,,,
1645711661.866221,225.000000,0.000000,4241.410156,4285.769043,4214.871582,4188.333496,4225.384766,4228.846191,4227.692383,4216.025879,4225.897461,4234.230957,4208.333496,4158.461426,4235.769043,4275.512695,3168.000000,4.000000,82.000000,,,,0.000000,4.000000,4.000000,4.000000,4.000000,4.000000,4.000000,4.000000,4.000000,4.000000,4.000000,4.000000,4.000000,4.000000,4.000000,100.000000,,,,,,,,,,,,,,,,
1645711661.870061,226.000000,0.000000,4215.512695,4298.205078,4218.205078,4201.025879,4243.205078,4240.897461,4235.384766,4223.717773,4232.436035,4250.000000,4218.077148,4162.179688,4243.333496,4269.743652,2297.000000,4.000000,82.000000,,,,0.000000,4.000000,4.000000,4.000000,4.000000,4.000000,4.000000,4.000000,4.000000,4.000000,4.000000,4.000000,4.000000,4.000000,4.000000,100.000000,,,,,,,,,,,,,,,,
1645711661.874001,227.000000,0.000000,4220.512695,4301.922852,4219.102539,4206.025879,4249.487305,4243.077148,4236.282227,4227.820313,4235.769043,4258.974121,4223.589844,4162.179688,4249.230957,4264.230957,2828.000000,4.000000,82.000000,,,,0.000000,4.000000,4.000000,4.000000,4.000000,4.000000,4.000000,4.000000,4.000000,4.000000,4.000000,4.000000,4.000000,4.000000,4.000000,100.000000,,,,,,,,,,,,,,,,
1645711661.877941,228.000000,0.000000,4261.538574,4293.077148,4217.692383,4198.333496,4236.282227,4232.051270,4230.641113,4224.358887,4232.436035,4252.563965,4219.871582,4159.487305,4249.615234,4270.128418,3243.000000,4.000000,82.000000,,,,0.000000,4.000000,4.000000,4.000000,4.000000,4.000000,4.000000,4.000000,4.000000,4.000000,4.000000,4.000000,4.000000,4.000000,4.000000,100.000000,,,,,,,,,,,,,,,,
1645711661.881881,229.000000,0.000000,4303.974121,4283.846191,4218.461426,4190.512695,4221.410156,4221.794922,4226.666504,4219.871582,4228.077148,4243.846191,4218.589844,4160.128418,4248.846191,4283.717773,3168.000000,4.000000,82.000000,,,,0.000000,4.000000,4.000000,4.000000,4.000000,4.000000,4.000000,4.000000,4.000000,4.000000,4.000000,4.000000,4.000000,4.000000,4.000000,100.000000,,,,,,,,,,,,,,,,
1645711661.885821,230.000000,0.000000,4315.641113,4285.769043,4223.333496,4195.256348,4224.358887,4224.358887,4228.333496,4221.794922,4229.358887,4248.205078,4230.000000,4166.922852,4252.051270,4289.871582,2297.000000,4.000000,82.000000,,,,0.000000,4.000000,4.000000,4.000000,4.000000,4.000000,4.000000,4.000000,4.000000,4.000000,4.000000,4.000000,4.000000,4.000000,4.000000,100.000000,,,,,,,,,,,,,,,,
1645711661.889761,231.000000,0.000000,4304.871582,4295.512695,4228.461426,4207.948730,4241.410156,4234.230957,4230.641113,4227.051270,4234.230957,4261.410156,4246.153809,4174.615234,4257.051270,4281.410156,2828.000000,4.000000,82.000000,,,,0.000000,4.000000,4.000000,4.000000,4.000000,4.000000,4.000000,4.000000,4.000000,4.000000,4.000000,4.000000,4.000000,4.000000,4.000000,100.000000,,,,,,,,,,,,,,,,
1645711661.893702,232.000000,0.000000,4303.205078,4298.974121,4229.358887,4213.717773,4250.769043,4236.282227,4227.563965,4226.025879,4234.871582,4264.615234,4248.717773,4176.666504,4257.051270,4269.358887,3243.000000,4.000000,82.000000,,,,0.000000,4.000000,4.000000,4.000000,4.000000,4.000000,4.000000,4.000000,4.000000,4.000000,4.000000,4.000000,4.000000,4.000000,4.000000,100.000000,,,,,,,,,,,,,,,,
1645711661.897642,233.000000,0.000000,4321.666504,4291.922852,4226.794922,4206.922852,4243.077148,4227.436035,4221.794922,4216.282227,4228.461426,4251.153809,4234.102539,4173.205078,4250.384766,4269.102539,3168.000000,4.000000,82.000000,,,,0.000000,4.000000,4.000000,4.000000,4.000000,4.000000,4.000000,4.000000,4.000000,4.000000,4.000000,4.000000,4.000000,4.000000,4.000000,100.000000,,,,,,,,,,,,,,,,
1645711661.901582,234.000000,0.000000,4337.307617,4285.512695,4225.897461,4198.717773,4232.820313,4221.794922,4222.436035,4207.692383,4222.307617,4237.820313,4220.512695,4171.282227,4244.743652,4280.897461,2297.000000,4.000000,82.000000,,,,0.000000,4.000000,4.000000,4.000000,4.000000,4.000000,4.000000,4.000000,4.000000,4.000000,4.000000,4.000000,4.000000,4.000000,4.000000,100.000000,,,,,,,,,,,,,,,,
1645711661.905522,235.000000,0.000000,4327.692383,4291.794922,4229.358887,4201.282227,4237.692383,4231.025879,4231.922852,4210.384766,4224.615234,4243.717773,4225.641113,4175.384766,4247.692383,4290.000000,2828.000000,4.000000,82.000000,,,,0.000000,4.000000,4.000000,4.000000,4.000000,4.000000,4.000000,4.000000,4.000000,4.000000,4.000000,4.000000,4.000000,4.000000,4.000000,100.000000,,,,,,,,,,,,,,,,
1645711661.909462,236.000000,0.000000,4304.358887,4306.025879,4233.205078,4210.897461,4253.846191,4247.436035,4241.666504,4221.666504,4233.589844,4264.871582,4244.487305,4181.538574,4256.666504,4285.897461,3243.000000,4.000000,82.000000,,,,0.000000,4.000000,4.000000,4.000000,4.000000,4.000000,4.000000,4.000000,4.000000,4.000000,4.000000,4.000000,4.000000,4.000000,4.000000,100.000000,,,,,,,,,,,,,,,,
1645711661.913402,237.000000,0.000000,4298.205078,4311.794922,4232.179688,4213.205078,4260.256348,4252.563965,4241.538574,4229.615234,4238.974121,4277.692383,4255.000000,4182.948730,4262.051270,4275.769043,3168.000000,4.000000,82.000000,,,,0.000000,4.000000,4.000000,4.000000,4.000000,4.000000,4.000000,4.000000,4.000000,4.000000,4.000000,4.000000,4.000000,4.000000,4.000000,100.000000,,,,,,,,,,,,,,,,
1645711661.917342,238.000000,0.000000,4317.307617,4301.666504,4226.666504,4203.846191,4248.077148,4241.410156,4232.692383,4227.307617,4235.128418,4268.077148,4246.282227,4178.333496,4258.589844,4274.871582,2297.000000,4.000000,82.000000,,,,0.000000,4.000000,4.000000,4.000000,4.000000,4.000000,4.000000,4.000000,4.000000,4.000000,4.000000,4.000000,4.000000,4.000000,4.000000,100.000000,,,,,,,,,,,,,,,,
1645711661.921282,239.000000,0.000000,4334.102539,4286.794922,4222.948730,4195.128418,4232.820313,4229.358887,4226.538574,4221.025879,4228.077148,4248.717773,4231.538574,4174.230957,4252.436035,4285.256348,2828.000000,4.000000,82.000000,,,,0.000000,4.000000,4.000000,4.000000,4.000000,4.000000,4.000000,4.000000,4.000000,4.000000,4.000000,4.000000,4.000000,4.000000,4.000000,100.000000,,,,,,,,,,,,,,,,
1645711661.925222,240.000000,0.000000,4321.410156,4283.333496,4224.871582,4200.128418,4234.230957,4232.051270,4229.743652,4220.256348,4227.307617,4242.051270,4230.256348,4175.384766,4252.051270,4293.077148,3243.000000,4.000000,82.000000,,,,0.000000,4.000000,4.000000,4.000000,4.000000,4.000000,4.000000,4.000000,4.000000,4.000000,4.000000,4.000000,4.000000,4.000000,4.000000,100.000000,,,,,,,,,,,,,,,,
1645711661.929163,241.000000,0.000000,4289.487305,4291.410156,4228.589844,4213.333496,4248.974121,4245.384766,4236.538574,4224.743652,4233.077148,4251.282227,4243.077148,4178.205078,4257.692383,4286.538574,3168.000000,4.000000,82.000000,,,,0.000000,4.000000,4.000000,4.000000,4.000000,4.000000,4.000000,4.000000,4.000000,4.000000,4.000000,4.000000,4.000000,4.000000,4.000000,100.000000,,,,,,,,,,,,,,,,
1645711661.933103,242.000000,0.000000,4273.333496,4296.794922,4227.179688,4217.307617,4254.615234,4251.153809,4236.410156,4225.512695,4236.922852,4258.717773,4251.282227,4175.641113,4260.897461,4271.410156,2297.000000,4.000000,82.000000,,,,0.000000,4.000000,4.000000,4.000000,4.000000,4.000000,4.000000,4.000000,4.000000,4.000000,4.000000,4.000000,4.000000,4.000000,4.000000,100.000000,,,,,,,,,,,,,,,,
1645711661.937043,243.000000,0.000000,4287.692383,4290.256348,4219.487305,4204.615234,4239.743652,4241.666504,4228.846191,4218.077148,4232.948730,4251.794922,4243.077148,4166.794922,4256.025879,4263.974121,2828.000000,4.000000,82.000000,,,,0.000000,4.000000,4.000000,4.000000,4.000000,4.000000,4.000000,4.000000,4.000000,4.000000,4.000000,4.000000,4.000000,4.000000,4.000000,100.000000,,,,,,,,,,,,,,,,
1645711661.941083,244.000000,0.000000,4308.846191,4280.000000,4212.436035,4188.717773,4220.128418,4229.743652,4223.077148,4208.974121,4225.641113,4240.128418,4229.230957,4159.871582,4247.436035,4270.000000,3243.000000,4.000000,82.000000,,,,0.000000,4.000000,4.000000,4.000000,4.000000,4.000000,4.000000,4.000000,4.000000,4.000000,4.000000,4.000000,4.000000,4.000000,4.000000,100.000000,1.000000,25.000000,1.000000,1.000000,3.000000,1.000000,1.000000,1.000000,1.000000,3.000000,3.000000,1.000000,1.000000,3.000000,3.000000,1.000000
1645711661.945023,245.000000,0.000000,4307.948730,4280.000000,4212.563965,4187.692383,4218.846191,4231.666504,4226.153809,4207.820313,4224.102539,4241.666504,4227.820313,4162.563965,4244.358887,4278.974121,3168.000000,4.000000,82.000000,,,,0.000000,4.000000,4.000000,4.000000,4.000000,4.000000,4.000000,4.000000,4.000000,4.000000,4.000000,4.000000,4.000000,4.000000,4.000000,100.000000,,,,,,,,,,,,,,,,
1645711661.948963,246.000000,0.000000,4288.846191,4290.897461,4218.846191,4201.922852,4236.410156,4245.000000,4233.717773,4214.358887,4228.846191,4256.666504,4240.512695,4172.436035,4248.846191,4278.333496,2297.000000,4.000000,82.000000,,,,0.000000,4.000000,4.000000,4.000000,4.000000,4.000000,4.000000,4.000000,4.000000,4.000000,4.000000,4.000000,4.000000,4.000000,4.000000,100.000000,,,,,,,,,,,,,,,,
1645711661.952903,247.000000,0.000000,4281.410156,4298.717773,4224.358887,4213.461426,4249.358887,4252.051270,4235.769043,4218.205078,4231.794922,4265.256348,4250.128418,4179.358887,4254.230957,4270.128418,2828.000000,4.000000,82.000000,,,,0.000000,4.000000,4.000000,4.000000,4.000000,4.000000,4.000000,4.000000,4.000000,4.000000,4.000000,4.000000,4.000000,4.000000,4.000000,100.000000,,,,,,,,,,,,,,,,
1645711661.956843,248.000000,0.000000,4298.333496,4293.333496,4225.000000,4210.000000,4241.282227,4242.948730,4230.256348,4212.436035,4227.179688,4253.461426,4243.333496,4177.436035,4253.717773,4266.538574,3243.000000,4.000000,82.000000,,,,0.000000,4.000000,4.000000,4.000000,4.000000,4.000000,4.000000,4.000000,4.000000,4.000000,4.000000,4.000000,4.000000,4.000000,4.000000,100.000000,,,,,,,,,,,,,,,,
1645711661.960783,249.000000,0.000000,4316.025879,4281.794922,4223.205078,4198.974121,4222.948730,4229.871582,4224.743652,4202.692383,4219.358887,4232.563965,4228.077148,4170.128418,4249.358887,4272.692383,3168.000000,4.000000,82.000000,,,,0.000000,4.000000,4.000000,4.000000,4.000000,4.000000,4.000000,4.000000,4.000000,4.000000,4.000000,4.000000,4.000000,4.000000,4.000000,100.000000,,,,,,,,,,,,,,,,
1645711661.964723,250.000000,0.000000,4306.153809,4278.589844,4223.077148,4196.666504,4217.948730,4229.871582,4226.410156,4200.000000,4217.179688,4226.025879,4221.282227,4165.000000,4247.692383,4279.102539,2297.000000,4.000000,82.000000,,,,0.000000,4.000000,4.000000,4.000000,4.000000,4.000000,4.000000,4.000000,4.000000,4.000000,4.000000,4.000000,4.000000,4.000000,4.000000,100.000000,,,,,,,,,,,,,,,,
1645711661.968664,251.000000,0.000000,4275.000000,4286.025879,4224.102539,4205.769043,4230.641113,4243.077148,4231.922852,4206.282227,4222.179688,4238.333496,4226.794922,4163.974121,4250.000000,4274.871582,2828.000000,4.000000,82.000000,,,,0.000000,4.000000,4.000000,4.000000,4.000000,4.000000,4.000000,4.000000,4.000000,4.000000,4.000000,4.000000,4.000000,4.000000,4.000000,100.000000,,,,,,,,,,,,,,,,
1645711661.972604,252.000000,0.000000,4257.563965,4291.538574,4222.179688,4212.051270,4241.666504,4251.282227,4232.051270,4211.922852,4226.282227,4250.256348,4231.153809,4163.205078,4250.769043,4262.948730,3243.000000,4.000000,82.000000,,,,0.000000,4.000000,4.000000,4.000000,4.000000,4.000000,4.000000,4.000000,4.000000,4.000000,4.000000,4.000000,4.000000,4.000000,4.000000,100.000000,,,,,,,,,,,,,,,,
1645711661.976544,253.000000,0.000000,4272.692383,4285.256348,4216.282227,4204.743652,4234.743652,4242.563965,4224.487305,4208.974121,4222.948730,4243.717773,4224.615234,4160.641113,4245.897461,4256.153809,3168.000000,4.000000,82.000000,,,,0.000000,4.000000,4.000000,4.000000,4.000000,4.000000,4.000000,4.000000,4.000000,4.000000,4.000000,4.000000,4.000000,4.000000,4.000000,100.000000,,,,,,,,,,,,,,,,
1645711661.980484,254.000000,0.000000,4298.205078,4273.846191,4211.538574,4191.153809,4218.461426,4226.025879,4216.922852,4201.410156,4215.769043,4226.538574,4216.538574,4160.256348,4239.871582,4261.153809,2297.000000,4.000000,82.000000,,,,0.000000,4.000000,4.000000,4.000000,4.000000,4.000000,4.000000,4.000000,4.000000,4.000000,4.000000,4.000000,4.000000,4.000000,4.000000,100.000000,,,,,,,,,,,,,,,,
1645711661.984424,255.000000,0.000000,4299.743652,4270.897461,4212.820313,4187.436035,4214.102539,4220.256348,4217.179688,4199.743652,4213.974121,4221.025879,4222.820313,4165.641113,4240.769043,4269.358887,112.000000,4.000000,82.000000,,,,0.000000,4.000000,4.000000,4.000000,4.000000,4.000000,4.000000,4.000000,4.000000,4.000000,4.000000,4.000000,4.000000,4.000000,4.000000,100.000000,,,,,,,,,,,,,,,,
1645711661.988364,0.000000,0.000000,4274.871582,4278.589844,4217.820313,4196.538574,4226.538574,4228.717773,4222.307617,4206.538574,4220.512695,4235.000000,4242.820313,4173.589844,4249.743652,4269.102539,3308.000000,4.000000,82.000000,,,,0.000000,4.000000,4.000000,4.000000,4.000000,4.000000,4.000000,4.000000,4.000000,4.000000,4.000000,4.000000,4.000000,4.000000,4.000000,100.000000,,,,,,,,,,,,,,,,
1645711661.992304,1.000000,0.000000,4255.897461,4283.717773,4220.000000,4205.256348,4237.307617,4236.922852,4223.589844,4213.717773,4227.563965,4251.282227,4256.282227,4176.410156,4257.563965,4261.153809,3362.000000,4.000000,82.000000,,,,0.000000,4.000000,4.000000,4.000000,4.000000,4.000000,4.000000,4.000000,4.000000,4.000000,4.000000,4.000000,4.000000,4.000000,4.000000,100.000000,,,,,,,,,,,,,,,,
1645711661.996244,2.000000,0.000000,4266.922852,4276.410156,4216.025879,4201.666504,4229.743652,4232.436035,4217.948730,4213.077148,4227.436035,4250.897461,4248.205078,4171.153809,4256.538574,4257.051270,2134.000000,4.000000,82.000000,,,,0.000000,4.000000,4.000000,4.000000,4.000000,4.000000,4.000000,4.000000,4.000000,4.000000,4.000000,4.000000,4.000000,4.000000,4.000000,100.000000,,,,,,,,,,,,,,,,
1645711662.000184,3.000000,0.000000,4292.436035,4263.717773,4210.897461,4191.538574,4212.436035,4221.922852,4213.205078,4208.077148,4221.666504,4237.436035,4228.717773,4164.615234,4248.974121,4263.205078,3351.000000,4.000000,82.000000,,,,0.000000,4.000000,4.000000,4.000000,4.000000,4.000000,4.000000,4.000000,4.000000,4.000000,4.000000,4.000000,4.000000,4.000000,4.000000,100.000000,,,,,,,,,,,,,,,,
1645711662.004124,4.000000,0.000000,4299.487305,4260.769043,4211.410156,4190.000000,4207.436035,4221.153809,4217.051270,4208.589844,4219.102539,4231.282227,4221.666504,4165.256348,4244.743652,4271.666504,3510.000000,4.000000,82.000000,,,,0.000000,4.000000,4.000000,4.000000,4.000000,4.000000,4.000000,4.000000,4.000000,4.000000,4.000000,4.000000,4.000000,4.000000,4.000000,100.000000,,,,,,,,,,,,,,,,
1645711662.008065,5.000000,0.000000,4281.666504,4270.769043,4217.820313,4200.512695,4221.025879,4232.692383,4226.282227,4217.563965,4223.717773,4241.922852,4235.128418,4173.589844,4248.846191,4271.153809,3345.000000,4.000000,82.000000,,,,0.000000,4.000000,4.000000,4.000000,4.000000,4.000000,4.000000,4.000000,4.000000,4.000000,4.000000,4.000000,4.000000,4.000000,4.000000,100.000000,,,,,,,,,,,,,,,,
1645711662.012005,6.000000,0.000000,4266.282227,4280.897461,4224.102539,4209.871582,4234.871582,4242.179688,4230.897461,4226.666504,4230.000000,4255.512695,4252.563965,4181.538574,4256.282227,4262.307617,3262.000000,4.000000,82.000000,,,,0.000000,4.000000,4.000000,4.000000,4.000000,4.000000,4.000000,4.000000,4.000000,4.000000,4.000000,4.000000,4.000000,4.000000,4.000000,100.000000,,,,,,,,,,,,,,,,
1645711662.016045,7.000000,0.000000,4275.256348,4279.358887,4225.512695,4206.025879,4230.512695,4237.692383,4226.410156,4226.794922,4230.641113,4254.487305,4254.358887,4182.820313,4259.102539,4257.179688,2381.000000,4.000000,82.000000,,,,0.000000,4.000000,4.000000,4.000000,4.000000,4.000000,4.000000,4.000000,4.000000,4.000000,4.000000,4.000000,4.000000,4.000000,4.000000,100.000000,,,,,,,,,,,,,,,,
1645711662.019985,8.000000,0.000000,4294.871582,4271.282227,4224.358887,4194.743652,4213.846191,4226.282227,4220.128418,4220.641113,4226.025879,4241.666504,4241.922852,4179.230957,4256.666504,4262.179688,1481.000000,4.000000,82.000000,,,,0.000000,4.000000,4.000000,4.000000,4.000000,4.000000,4.000000,4.000000,4.000000,4.000000,4.000000,4.000000,4.000000,4.000000,4.000000,100.000000,,,,,,,,,,,,,,,,
1645711662.023925,9.000000,0.000000,4294.358887,4270.897461,4225.256348,4191.922852,4207.436035,4224.871582,4221.282227,4218.077148,4223.077148,4235.256348,4232.948730,4176.922852,4254.358887,4269.487305,3117.000000,4.000000,82.000000,,,,0.000000,4.000000,4.000000,4.000000,4.000000,4.000000,4.000000,4.000000,4.000000,4.000000,4.000000,4.000000,4.000000,4.000000,4.000000,100.000000,,,,,,,,,,,,,,,,
1645711662.027865,10.000000,0.000000,4269.487305,4281.922852,4227.948730,4202.563965,4219.487305,4237.563965,4228.974121,4222.563965,4225.512695,4243.717773,4236.282227,4177.179688,4255.128418,4266.922852,2295.000000,4.000000,82.000000,,,,0.000000,4.000000,4.000000,4.000000,4.000000,4.000000,4.000000,4.000000,4.000000,4.000000,4.000000,4.000000,4.000000,4.000000,4.000000,100.000000,,,,,,,,,,,,,,,,
1645711662.031805,11.000000,0.000000,4250.256348,4290.384766,4227.307617,4212.948730,4232.820313,4249.358887,4233.205078,4226.922852,4229.230957,4252.948730,4241.025879,4175.256348,4254.230957,4255.000000,2709.000000,4.000000,82.000000,,,,0.000000,4.000000,4.000000,4.000000,4.000000,4.000000,4.000000,4.000000,4.000000,4.000000,4.000000,4.000000,4.000000,4.000000,4.000000,100.000000,,,,,,,,,,,,,,,,
1645711662.035745,12.000000,0.000000,4261.282227,4282.563965,4220.384766,4208.974121,4227.692383,4245.512695,4228.333496,4222.307617,4227.948730,4245.512695,4233.205078,4167.563965,4246.538574,4247.051270,3066.000000,4.000000,82.000000,,,,0.000000,4.000000,4.000000,4.000000,4.000000,4.000000,4.000000,4.000000,4.000000,4.000000,4.000000,4.000000,4.000000,4.000000,4.000000,100.000000,,,,,,,,,,,,,,,,
1645711662.039685,13.000000,0.000000,4288.333496,4263.461426,4211.410156,4194.102539,4208.461426,4230.897461,4220.256348,4211.153809,4222.179688,4225.384766,4217.179688,4157.948730,4235.512695,4251.410156,3220.000000,4.000000,82.000000,,,,0.000000,4.000000,4.000000,4.000000,4.000000,4.000000,4.000000,4.000000,4.000000,4.000000,4.000000,4.000000,4.000000,4.000000,4.000000,100.000000,,,,,,,,,,,,,,,,
1645711662.043625,14.000000,0.000000,4296.025879,4251.922852,4207.179688,4185.384766,4198.333496,4222.948730,4218.333496,4204.487305,4218.717773,4213.846191,4211.025879,4153.589844,4230.256348,4260.641113,2295.000000,4.000000,82.000000,,,,0.000000,4.000000,4.000000,4.000000,4.000000,4.000000,4.000000,4.000000,4.000000,4.000000,4.000000,4.000000,4.000000,4.000000,4.000000,100.000000,,,,,,,,,,,,,,,,
1645711662.047566,15.000000,0.000000,4274.102539,4258.205078,4208.846191,4190.897461,4208.589844,4229.102539,4222.948730,4207.820313,4221.025879,4222.051270,4222.179688,4156.410156,4234.743652,4260.512695,2709.000000,4.000000,82.000000,,,,0.000000,4.000000,4.000000,4.000000,4.000000,4.000000,4.000000,4.000000,4.000000,4.000000,4.000000,4.000000,4.000000,4.000000,4.000000,100.000000,,,,,,,,,,,,,,,,
1645711662.051506,16.000000,0.000000,4250.769043,4271.922852,4211.922852,4200.641113,4224.487305,4237.820313,4225.769043,4214.487305,4224.230957,4236.153809,4236.794922,4160.769043,4242.307617,4249.871582,3066.000000,4.000000,82.000000,,,,0.000000,4.000000,4.000000,4.000000,4.000000,4.000000,4.000000,4.000000,4.000000,4.000000,4.000000,4.000000,4.000000,4.000000,4.000000,100.000000,,,,,,,,,,,,,,,,
1645711662.055446,17.000000,0.000000,4255.256348,4276.794922,4212.692383,4201.538574,4225.512695,4236.282227,4221.666504,4214.871582,4221.922852,4236.025879,4237.692383,4161.794922,4244.230957,4241.794922,3220.000000,4.000000,82.000000,,,,0.000000,4.000000,4.000000,4.000000,4.000000,4.000000,4.000000,4.000000,4.000000,4.000000,4.000000,4.000000,4.000000,4.000000,4.000000,100.000000,,,,,,,,,,,,,,,,
1645711662.059386,18.000000,0.000000,4278.846191,4269.871582,4212.820313,4195.384766,4212.948730,4228.077148,4216.922852,4209.230957,4215.897461,4222.307617,4226.666504,4161.025879,4240.128418,4246.282227,2295.000000,4.000000,82.000000,,,,0.000000,4.000000,4.000000,4.000000,4.000000,4.000000,4.000000,4.000000,4.000000,4.000000,4.000000,4.000000,4.000000,4.000000,4.000000,100.000000,,,,,,,,,,,,,,,,
1645711662.063326,19.000000,0.000000,4287.948730,4263.717773,4215.769043,4195.256348,4207.436035,4228.589844,4220.384766,4206.282227,4214.615234,4215.128418,4222.307617,4163.846191,4237.692383,4256.794922,2709.000000,4.000000,82.000000,,,,0.000000,4.000000,4.000000,4.000000,4.000000,4.000000,4.000000,4.000000,4.000000,4.000000,4.000000,4.000000,4.000000,4.000000,4.000000,100.000000,,,,,,,,,,,,,,,,
1645711662.067266,20.000000,0.000000,4268.974121,4267.307617,4220.897461,4205.641113,4220.128418,4242.692383,4231.153809,4211.282227,4222.051270,4227.307617,4233.333496,4170.769043,4242.051270,4258.717773,3066.000000,4.000000,82.000000,,,,0.000000,4.000000,4.000000,4.000000,4.000000,4.000000,4.000000,4.000000,4.000000,4.000000,4.000000,4.000000,4.000000,4.000000,4.000000,100.000000,,,,,,,,,,,,,,,,
1645711662.071206,21.000000,0.000000,4247.051270,4273.846191,4223.077148,4213.846191,4236.794922,4255.641113,4237.948730,4218.205078,4230.897461,4246.282227,4247.051270,4175.641113,4249.102539,4249.358887,3220.000000,4.000000,82.000000,,,,0.000000,4.000000,4.000000,4.000000,4.000000,4.000000,4.000000,4.000000,4.000000,4.000000,4.000000,4.000000,4.000000,4.000000,4.000000,100.000000,,,,,,,,,,,,,,,,
1645711662.075146,22.000000,0.000000,4251.410156,4270.512695,4219.102539,4206.282227,4235.641113,4251.666504,4233.461426,4218.846191,4231.025879,4250.128418,4245.384766,4173.846191,4251.153809,4242.051270,2295.000000,4.000000,82.000000,,,,0.000000,4.000000,4.000000,4.000000,4.000000,4.000000,4.000000,4.000000,4.000000,4.000000,4.000000,4.000000,4.000000,4.000000,4.000000,100.000000,,,,,,,,,,,,,,,,
1645711662.079086,23.000000,0.000000,4275.128418,4256.922852,4213.077148,4187.692383,4216.666504,4234.615234,4223.717773,4213.974121,4222.051270,4235.897461,4230.256348,4167.948730,4247.563965,4247.948730,2709.000000,4.000000,82.000000,,,,0.000000,4.000000,4.000000,4.000000,4.000000,4.000000,4.000000,4.000000,4.000000,4.000000,4.000000,4.000000,4.000000,4.000000,4.000000,100.000000,,,,,,,,,,,,,,,,
1645711662.083026,24.000000,0.000000,4284.102539,4246.025879,4211.153809,4177.051270,4201.794922,4224.230957,4220.769043,4212.563965,4214.487305,4223.205078,4221.666504,4164.871582,4244.871582,4260.897461,3066.000000,4.000000,82.000000,,,,0.000000,4.000000,4.000000,4.000000,4.000000,4.000000,4.000000,4.000000,4.000000,4.000000,4.000000,4.000000,4.000000,4.000000,4.000000,100.000000,,,,,,,,,,,,,,,,
1645711662.086967,25.000000,0.000000,4262.820313,4247.307617,4214.230957,4184.615234,4205.897461,4231.153809,4227.436035,4219.487305,4216.666504,4228.846191,4231.794922,4167.051270,4247.820313,4265.384766,3220.000000,4.000000,82.000000,,,,0.000000,4.000000,4.000000,4.000000,4.000000,4.000000,4.000000,4.000000,4.000000,4.000000,4.000000,4.000000,4.000000,4.000000,4.000000,100.000000,,,,,,,,,,,,,,,,
1645711662.091007,26.000000,0.000000,4236.410156,4253.974121,4217.436035,4198.461426,4218.205078,4244.102539,4235.384766,4227.948730,4225.384766,4244.487305,4249.102539,4169.102539,4252.051270,4256.410156,2295.000000,4.000000,82.000000,,,,0.000000,4.000000,4.000000,4.000000,4.000000,4.000000,4.000000,4.000000,4.000000,4.000000,4.000000,4.000000,4.000000,4.000000,4.000000,100.000000,,,,,,,,,,,,,,,,
1645711662.094947,27.000000,0.000000,4237.948730,4253.589844,4216.282227,4200.384766,4217.436035,4245.641113,4235.769043,4228.333496,4230.384766,4249.358887,4253.205078,4166.025879,4250.769043,4246.410156,2709.000000,4.000000,82.000000,,,,0.000000,4.000000,4.000000,4.000000,4.000000,4.000000,4.000000,4.000000,4.000000,4.000000,4.000000,4.000000,4.000000,4.000000,4.000000,100.000000,,,,,,,,,,,,,,,,
1645711662.098887,28.000000,0.000000,4264.871582,4244.358887,4212.692383,4188.077148,4201.153809,4234.743652,4231.538574,4221.794922,4227.948730,4237.563965,4240.769043,4160.000000,4243.461426,4248.589844,3066.000000,4.000000,82.000000,,,,0.000000,4.000000,4.000000,4.000000,4.000000,4.000000,4.000000,4.000000,4.000000,4.000000,4.000000,4.000000,4.000000,4.000000,4.000000,100.000000,,,,,,,,,,,,,,,,
1645711662.102827,29.000000,0.000000,4281.794922,4238.461426,4211.794922,4177.692383,4188.974121,4227.692383,4231.153809,4219.230957,4225.256348,4226.410156,4228.717773,4157.948730,4238.205078,4258.974121,3220.000000,4.000000,82.000000,,,,0.000000,4.000000,4.000000,4.000000,4.000000,4.000000,4.000000,4.000000,4.000000,4.000000,4.000000,4.000000,4.000000,4.000000,4.000000,100.000000,,,,,,,,,,,,,,,,
1645711662.106867,30.000000,0.000000,4267.436035,4244.230957,4214.743652,4181.282227,4195.769043,4234.743652,4236.794922,4227.051270,4229.615234,4231.666504,4231.025879,4161.922852,4240.641113,4261.410156,2295.000000,4.000000,82.000000,,,,0.000000,4.000000,4.000000,4.000000,4.000000,4.000000,4.000000,4.000000,4.000000,4.000000,4.000000,4.000000,4.000000,4.000000,4.000000,100.000000,,,,,,,,,,,,,,,,
1645711662.110807,31.000000,0.000000,4241.410156,4254.615234,4217.051270,4192.307617,4211.153809,4246.282227,4240.769043,4237.820313,4237.820313,4246.922852,4241.538574,4166.025879,4246.153809,4248.717773,2709.000000,4.000000,82.000000,,,,0.000000,4.000000,4.000000,4.000000,4.000000,4.000000,4.000000,4.000000,4.000000,4.000000,4.000000,4.000000,4.000000,4.000000,4.000000,100.000000,,,,,,,,,,,,,,,,
1645711662.114747,32.000000,0.000000,4237.179688,4255.512695,4215.256348,4194.871582,4213.461426,4245.512695,4236.410156,4237.948730,4240.000000,4251.282227,4243.205078,4163.974121,4245.897461,4232.436035,0.000000,4.000000,82.000000,,,,0.000000,4.000000,4.000000,4.000000,4.000000,4.000000,4.000000,4.000000,4.000000,4.000000,4.000000,4.000000,4.000000,4.000000,4.000000,100.000000,,,,,,,,,,,,,,,,
1645711662.118687,33.000000,0.000000,4257.436035,4245.384766,4211.666504,4186.282227,4198.589844,4231.666504,4227.179688,4224.358887,4231.922852,4238.461426,4231.922852,4157.948730,4238.205078,4228.205078,0.000000,4.000000,82.000000,,,,0.000000,4.000000,4.000000,4.000000,4.000000,4.000000,4.000000,4.000000,4.000000,4.000000,4.000000,4.000000,4.000000,4.000000,4.000000,100.000000,,,,,,,,,,,,,,,,
1645711662.122627,34.000000,0.000000,4272.179688,4238.461426,4212.563965,4180.000000,4186.282227,4221.282227,4222.563965,4208.589844,4221.153809,4224.743652,4222.051270,4156.794922,4231.794922,4237.179688,0.000000,4.000000,82.000000,,,,0.000000,4.000000,4.000000,4.000000,4.000000,4.000000,4.000000,4.000000,4.000000,4.000000,4.000000,4.000000,4.000000,4.000000,4.000000,100.000000,,,,,,,,,,,,,,,,
1645711662.126567,35.000000,0.000000,4260.000000,4245.256348,4219.615234,4187.307617,4193.077148,4226.538574,4225.641113,4203.205078,4217.307617,4227.307617,4226.025879,4164.358887,4234.615234,4246.538574,0.000000,4.000000,82.000000,,,,0.000000,4.000000,4.000000,4.000000,4.000000,4.000000,4.000000,4.000000,4.000000,4.000000,4.000000,4.000000,4.000000,4.000000,4.000000,100.000000,,,,,,,,,,,,,,,,
1645711662.130508,36.000000,0.000000,4237.820313,4259.102539,4227.820313,4201.410156,4210.512695,4239.358887,4229.230957,4208.205078,4220.512695,4240.641113,4237.179688,4174.358887,4243.717773,4247.179688,0.000000,4.000000,82.000000,,,,0.000000,4.000000,4.000000,4.000000,4.000000,4.000000,4.000000,4.000000,4.000000,4.000000,4.000000,4.000000,4.000000,4.000000,4.000000,100.000000,,,,,,,,,,,,,,,,
1645711662.134448,37.000000,0.000000,4237.563965,4263.333496,4230.512695,4206.153809,4215.769043,4242.051270,4226.538574,4213.717773,4222.563965,4244.871582,4239.230957,4177.692383,4249.487305,4245.512695,0.000000,4.000000,82.000000,,,,0.000000,4.000000,4.000000,4.000000,4.000000,4.000000,4.000000,4.000000,4.000000,4.000000,4.000000,4.000000,4.000000,4.000000,4.000000,100.000000,,,,,,,,,,,,,,,,
1645711662.138388,38.000000,0.000000,4262.692383,4253.717773,4227.436035,4197.436035,4202.436035,4231.282227,4220.256348,4213.717773,4219.102539,4232.436035,4228.717773,4172.948730,4247.307617,4251.410156,0.000000,4.000000,82.000000,,,,0.000000,4.000000,4.000000,4.000000,4.000000,4.000000,4.000000,4.000000,4.000000,4.000000,4.000000,4.000000,4.000000,4.000000,4.000000,100.000000,,,,,,,,,,,,,,,,
1645711662.142328,39.000000,0.000000,4282.692383,4243.589844,4224.230957,4188.461426,4188.717773,4221.410156,4219.487305,4212.051270,4214.743652,4219.358887,4221.410156,4167.436035,4242.436035,4262.948730,0.000000,4.000000,82.000000,,,,0.000000,4.000000,4.000000,4.000000,4.000000,4.000000,4.000000,4.000000,4.000000,4.000000,4.000000,4.000000,4.000000,4.000000,4.000000,100.000000,,,,,,,,,,,,,,,,
1645711662.146268,40.000000,0.000000,4273.717773,4245.769043,4224.871582,4192.179688,4193.205078,4224.871582,4226.410156,4214.230957,4215.897461,4223.205078,4230.256348,4167.563965,4242.051270,4266.538574,0.000000,4.000000,82.000000,,,,0.000000,4.000000,4.000000,4.000000,4.000000,4.000000,4.000000,4.000000,4.000000,4.000000,4.000000,4.000000,4.000000,4.000000,4.000000,100.000000,,,,,,,,,,,,,,,,
1645711662.150208,41.000000,0.000000,4250.384766,4256.922852,4227.436035,4204.230957,4210.128418,4235.769043,4232.820313,4217.692383,4221.025879,4239.871582,4247.436035,4171.410156,4245.641113,4256.025879,0.000000,4.000000,82.000000,,,,0.000000,4.000000,4.000000,4.000000,4.000000,4.000000,4.000000,4.000000,4.000000,4.000000,4.000000,4.000000,4.000000,4.000000,4.000000,100.000000,,,,,,,,,,,,,,,,
1645711662.154148,42.000000,0.000000,4246.153809,4262.436035,4227.436035,4209.615234,4216.922852,4237.436035,4229.871582,4214.487305,4222.179688,4248.461426,4253.333496,4173.461426,4247.436035,4241.794922,0.000000,4.000000,82.000000,,,,0.000000,4.000000,4.000000,4.000000,4.000000,4.000000,4.000000,4.000000,4.000000,4.000000,4.000000,4.000000,4.000000,4.000000,4.000000,100.000000,,,,,,,,,,,,,,,,
1645711662.158088,43.000000,0.000000,4267.820313,4257.436035,4225.256348,4203.333496,4205.000000,4226.282227,4220.000000,4203.589844,4216.794922,4239.743652,4242.307617,4171.922852,4245.512695,4239.615234,0.000000,4.000000,82.000000,,,,0.000000,4.000000,4.000000,4.000000,4.000000,4.000000,4.000000,4.000000,4.000000,4.000000,4.000000,4.000000,4.000000,4.000000,4.000000,100.000000,,,,,,,,,,,,,,,,
1645711662.162028,44.000000,0.000000,4286.410156,4252.436035,4225.000000,4197.051270,4191.153809,4216.794922,4213.974121,4194.487305,4211.410156,4227.692383,4230.128418,4170.769043,4245.128418,4250.641113,0.000000,4.000000,82.000000,,,,0.000000,4.000000,4.000000,4.000000,4.000000,4.000000,4.000000,4.000000,4.000000,4.000000,4.000000,4.000000,4.000000,4.000000,4.000000,100.000000,,,,,,,,,,,,,,,,
1645711662.165968,45.000000,0.000000,4275.897461,4257.948730,4228.589844,4202.051270,4194.871582,4221.410156,4216.794922,4196.794922,4213.589844,4230.512695,4232.692383,4172.436035,4250.128418,4259.358887,0.000000,4.000000,82.000000,,,,0.000000,4.000000,4.000000,4.000000,4.000000,4.000000,4.000000,4.000000,4.000000,4.000000,4.000000,4.000000,4.000000,4.000000,4.000000,100.000000,,,,,,,,,,,,,,,,
1645711662.169909,46.000000,0.000000,4248.461426,4268.333496,4231.794922,4212.436035,4211.666504,4233.846191,4221.922852,4207.436035,4221.410156,4245.128418,4244.615234,4172.820313,4254.871582,4253.717773,0.000000,4.000000,82.000000,,,,0.000000,4.000000,4.000000,4.000000,4.000000,4.000000,4.000000,4.000000,4.000000,4.000000,4.000000,4.000000,4.000000,4.000000,4.000000,100.000000,,,,,,,,,,,,,,,,
1645711662.173849,47.000000,0.000000,4238.974121,4268.461426,4229.871582,4212.692383,4218.974121,4236.282227,4220.256348,4215.128418,4225.641113,4250.897461,4246.153809,4167.436035,4250.641113,4239.102539,0.000000,4.000000,82.000000,,,,0.000000,4.000000,4.000000,4.000000,4.000000,4.000000,4.000000,4.000000,4.000000,4.000000,4.000000,4.000000,4.000000,4.000000,4.000000,100.000000,,,,,,,,,,,,,,,,
1645711662.177789,48.000000,0.000000,4258.461426,4254.102539,4223.846191,4198.846191,4207.179688,4224.358887,4212.948730,4214.487305,4221.794922,4238.461426,4230.512695,4158.717773,4237.436035,4230.897461,0.000000,4.000000,82.000000,,,,0.000000,4.000000,4.000000,4.000000,4.000000,4.000000,4.000000,4.000000,4.000000,4.000000,4.000000,4.000000,4.000000,4.000000,4.000000,100.000000,,,,,,,,,,,,,,,,
1645711662.181729,49.000000,0.000000,4279.358887,4239.358887,4220.512695,4186.025879,4192.436035,4213.461426,4210.000000,4212.051270,4215.897461,4222.820313,4214.743652,4156.153809,4227.051270,4234.871582,0.000000,4.000000,82.000000,,,,0.000000,4.000000,4.000000,4.000000,4.000000,4.000000,4.000000,4.000000,4.000000,4.000000,4.000000,4.000000,4.000000,4.000000,4.000000,100.000000,,,,,,,,,,,,,,,,
1645711662.185669,50.000000,0.000000,4272.563965,4239.358887,4223.717773,4188.846191,4195.641113,4218.461426,4216.794922,4216.025879,4216.538574,4223.974121,4218.461426,4164.871582,4230.256348,4241.410156,0.000000,4.000000,82.000000,,,,0.000000,4.000000,4.000000,4.000000,4.000000,4.000000,4.000000,4.000000,4.000000,4.000000,4.000000,4.000000,4.000000,4.000000,4.000000,100.000000,,,,,,,,,,,,,,,,
1645711662.189609,51.000000,0.000000,4245.512695,4251.282227,4229.743652,4202.563965,4213.205078,4234.230957,4226.666504,4224.743652,4222.820313,4239.230957,4238.461426,4177.692383,4243.717773,4240.000000,0.000000,4.000000,82.000000,,,,0.000000,4.000000,4.000000,4.000000,4.000000,4.000000,4.000000,4.000000,4.000000,4.000000,4.000000,4.000000,4.000000,4.000000,4.000000,100.000000,,,,,,,,,,,,,,,,
1645711662.193549,52.000000,0.000000,4232.307617,4258.205078,4231.282227,4208.589844,4222.051270,4242.051270,4229.487305,4228.205078,4226.025879,4246.922852,4251.922852,4182.436035,4253.717773,4233.846191,0.000000,4.000000,82.000000,,,,0.000000,4.000000,4.000000,4.000000,4.000000,4.000000,4.000000,4.000000,4.000000,4.000000,4.000000,4.000000,4.000000,4.000000,4.000000,100.000000,,,,,,,,,,,,,,,,
1645711662.197489,53.000000,0.000000,4248.461426,4250.897461,4227.436035,4198.461426,4210.641113,4234.871582,4225.769043,4223.205078,4221.282227,4235.256348,4245.256348,4175.769043,4251.282227,4234.358887,0.000000,4.000000,82.000000,,,,0.000000,4.000000,4.000000,4.000000,4.000000,4.000000,4.000000,4.000000,4.000000,4.000000,4.000000,4.000000,4.000000,4.000000,4.000000,100.000000,,,,,,,,,,,,,,,,
1645711662.201429,54.000000,0.000000,4271.666504,4239.743652,4225.384766,4186.153809,4196.282227,4227.820313,4226.153809,4218.846191,4215.641113,4220.128418,4231.538574,4167.179688,4242.820313,4244.358887,0.000000,4.000000,82.000000,,,,0.000000,4.000000,4.000000,4.000000,4.000000,4.000000,4.000000,4.000000,4.000000,4.000000,4.000000,4.000000,4.000000,4.000000,4.000000,100.000000,,,,,,,,,,,,,,,,
1645711662.205370,55.000000,0.000000,4273.205078,4240.384766,4231.922852,4190.128418,4203.589844,4238.589844,4238.974121,4226.410156,4219.358887,4226.025879,4232.820313,4168.205078,4241.666504,4253.846191,0.000000,4.000000,82.000000,,,,0.000000,4.000000,4.000000,4.000000,4.000000,4.000000,4.000000,4.000000,4.000000,4.000000,4.000000,4.000000,4.000000,4.000000,4.000000,100.000000,,,,,,,,,,,,,,,,
1645711662.209310,56.000000,0.000000,4256.794922,4253.589844,4244.871582,4209.743652,4231.922852,4264.358887,4258.717773,4245.000000,4233.077148,4254.358887,4252.692383,4179.743652,4252.820313,4254.230957,0.000000,4.000000,82.000000,,,,0.000000,4.000000,4.000000,4.000000,4.000000,4.000000,4.000000,4.000000,4.000000,4.000000,4.000000,4.000000,4.000000,4.000000,4.000000,100.000000,,,,,,,,,,,,,,,,
1645711662.213250,57.000000,0.000000,4252.179688,4263.589844,4255.128418,4225.769043,4255.256348,4283.717773,4272.692383,4261.025879,4246.153809,4280.641113,4273.589844,4193.461426,4268.717773,4251.282227,0.000000,4.000000,82.000000,,,,0.000000,4.000000,4.000000,4.000000,4.000000,4.000000,4.000000,4.000000,4.000000,4.000000,4.000000,4.000000,4.000000,4.000000,4.000000,100.000000,,,,,,,,,,,,,,,,
1645711662.217190,58.000000,0.000000,4272.307617,4259.102539,4257.307617,4223.974121,4253.846191,4282.692383,4275.000000,4264.230957,4249.743652,4283.846191,4279.102539,4201.922852,4279.230957,4257.307617,0.000000,4.000000,82.000000,,,,0.000000,4.000000,4.000000,4.000000,4.000000,4.000000,4.000000,4.000000,4.000000,4.000000,4.000000,4.000000,4.000000,4.000000,4.000000,100.000000,,,,,,,,,,,,,,,,
1645711662.221130,59.000000,0.000000,4292.948730,4246.410156,4253.974121,4211.410156,4236.922852,4269.487305,4271.538574,4258.333496,4246.153809,4271.153809,4274.358887,4205.000000,4282.307617,4272.692383,0.000000,4.000000,82.000000,,,,0.000000,4.000000,4.000000,4.000000,4.000000,4.000000,4.000000,4.000000,4.000000,4.000000,4.000000,4.000000,4.000000,4.000000,4.000000,100.000000,,,,,,,,,,,,,,,,
1645711662.225070,60.000000,0.000000,4284.230957,4240.128418,4251.153809,4205.384766,4227.948730,4262.051270,4269.743652,4254.871582,4244.487305,4265.384766,4274.743652,4205.641113,4282.948730,4282.179688,0.000000,4.000000,82.000000,,,,0.000000,4.000000,4.000000,4.000000,4.000000,4.000000,4.000000,4.000000,4.000000,4.000000,4.000000,4.000000,4.000000,4.000000,4.000000,100.000000,,,,,,,,,,,,,,,,
1645711662.229010,61.000000,0.000000,4252.307617,4243.717773,4249.743652,4210.769043,4234.102539,4264.487305,4268.717773,4257.307617,4248.333496,4275.000000,4283.461426,4202.948730,4283.846191,4273.077148,0.000000,4.000000,82.000000,,,,0.000000,4.000000,4.000000,4.000000,4.000000,4.000000,4.000000,4.000000,4.000000,4.000000,4.000000,4.000000,4.000000,4.000000,4.000000,100.000000,,,,,,,,,,,,,,,,
1645711662.232950,62.000000,0.000000,4233.461426,4246.922852,4246.538574,4215.769043,4239.615234,4265.512695,4263.077148,4258.974121,4251.794922,4285.000000,4287.948730,4194.102539,4282.563965,4252.179688,0.000000,4.000000,82.000000,,,,0.000000,4.000000,4.000000,4.000000,4.000000,4.000000,4.000000,4.000000,4.000000,4.000000,4.000000,4.000000,4.000000,4.000000,4.000000,100.000000,,,,,,,,,,,,,,,,
1645711662.236890,63.000000,0.000000,4248.333496,4240.641113,4240.384766,4209.871582,4230.897461,4256.794922,4253.589844,4253.205078,4249.102539,4279.871582,4278.846191,4181.153809,4277.179688,4239.102539,0.000000,4.000000,82.000000,,,,0.000000,4.000000,4.000000,4.000000,4.000000,4.000000,4.000000,4.000000,4.000000,4.000000,4.000000,4.000000,4.000000,4.000000,4.000000,100.000000,,,,,,,,,,,,,,,,
1645711662.240830,64.000000,0.000000,4274.743652,4231.282227,4234.871582,4198.717773,4216.666504,4246.922852,4248.461426,4244.487305,4242.948730,4265.512695,4265.384766,4172.179688,4272.307617,4242.820313,0.000000,4.000000,82.000000,,,,0.000000,4.000000,4.000000,4.000000,4.000000,4.000000,4.000000,4.000000,4.000000,4.000000,4.000000,4.000000,4.000000,4.000000,4.000000,100.000000,,,,,,,,,,,,,,,,
1645711662.244771,65.000000,0.000000,4277.179688,4230.897461,4233.589844,4196.153809,4215.897461,4248.974121,4252.948730,4242.051270,4241.153809,4260.641113,4264.230957,4173.589844,4273.717773,4252.563965,0.000000,4.000000,82.000000,,,,0.000000,4.000000,4.000000,4.000000,4.000000,4.000000,4.000000,4.000000,4.000000,4.000000,4.000000,4.000000,4.000000,4.000000,4.000000,100.000000,,,,,,,,,,,,,,,,
1645711662.248711,66.000000,0.000000,4252.563965,4240.128418,4234.743652,4203.589844,4229.743652,4260.641113,4260.769043,4247.051270,4245.256348,4270.256348,4276.666504,4181.666504,4280.256348,4252.948730,0.000000,4.000000,82.000000,,,,0.000000,4.000000,4.000000,4.000000,4.000000,4.000000,4.000000,4.000000,4.000000,4.000000,4.000000,4.000000,4.000000,4.000000,4.000000,100.000000,,,,,,,,,,,,,,,,
1645711662.252651,67.000000,0.000000,4232.820313,4246.025879,4233.077148,4208.205078,4238.333496,4264.743652,4260.512695,4250.641113,4248.333496,4277.563965,4285.384766,4186.153809,4283.846191,4244.102539,0.000000,4.000000,82.000000,,,,0.000000,4.000000,4.000000,4.000000,4.000000,4.000000,4.000000,4.000000,4.000000,4.000000,4.000000,4.000000,4.000000,4.000000,4.000000,100.000000,,,,,,,,,,,,,,,,
1645711662.256491,68.000000,0.000000,4241.282227,4238.461426,4227.179688,4200.128418,4226.282227,4251.794922,4250.000000,4245.512695,4244.102539,4267.307617,4276.922852,4181.666504,4278.974121,4239.358887,0.000000,4.000000,82.000000,,,,0.000000,4.000000,4.000000,4.000000,4.000000,4.000000,4.000000,4.000000,4.000000,4.000000,4.000000,4.000000,4.000000,4.000000,4.000000,100.000000,,,,,,,,,,,,,,,,
1645711662.260431,69.000000,0.000000,4262.179688,4224.102539,4221.538574,4186.538574,4204.871582,4233.461426,4239.487305,4235.384766,4235.641113,4247.179688,4260.000000,4173.333496,4269.743652,4246.538574,0.000000,4.000000,82.000000,,,,0.000000,4.000000,4.000000,4.000000,4.000000,4.000000,4.000000,4.000000,4.000000,4.000000,4.000000,4.000000,4.000000,4.000000,4.000000,100.000000,,,,,,,,,,,,,,,,
1645711662.264371,70.000000,0.000000,4262.820313,4218.333496,4221.282227,4182.563965,4198.333496,4229.102539,4238.461426,4230.384766,4231.922852,4239.102539,4254.615234,4168.974121,4265.512695,4256.538574,0.000000,4.000000,82.000000,,,,0.000000,4.000000,4.000000,4.000000,4.000000,4.000000,4.000000,4.000000,4.000000,4.000000,4.000000,4.000000,4.000000,4.000000,4.000000,100.000000,,,,,,,,,,,,,,,,
1645711662.268311,71.000000,0.000000,4239.358887,4225.000000,4225.256348,4190.769043,4212.692383,4241.025879,4244.871582,4233.589844,4235.897461,4251.025879,4265.769043,4170.128418,4268.974121,4255.641113,0.000000,4.000000,82.000000,,,,0.000000,4.000000,4.000000,4.000000,4.000000,4.000000,4.000000,4.000000,4.000000,4.000000,4.000000,4.000000,4.000000,4.000000,4.000000,100.000000,,,,,,,,,,,,,,,,
1645711662.272251,72.000000,0.000000,4221.922852,4232.051270,4227.563965,4197.563965,4227.692383,4251.922852,4248.077148,4237.563965,4240.512695,4266.153809,4277.179688,4171.794922,4273.974121,4243.846191,0.000000,4.000000,82.000000,,,,0.000000,4.000000,4.000000,4.000000,4.000000,4.000000,4.000000,4.000000,4.000000,4.000000,4.000000,4.000000,4.000000,4.000000,4.000000,100.000000,,,,,,,,,,,,,,,,
1645711662.276192,73.000000,0.000000,4233.461426,4227.692383,4225.000000,4191.410156,4222.820313,4246.794922,4242.948730,4235.000000,4238.077148,4264.487305,4271.922852,4170.128418,4273.717773,4235.256348,0.000000,4.000000,82.000000,,,,0.000000,4.000000,4.000000,4.000000,4.000000,4.000000,4.000000,4.000000,4.000000,4.000000,4.000000,4.000000,4.000000,4.000000,4.000000,100.000000,,,,,,,,,,,,,,,,
1645711662.280132,74.000000,0.000000,4257.436035,4215.769043,4221.922852,4178.717773,4203.461426,4231.282227,4236.282227,4229.102539,4230.384766,4248.589844,4255.384766,4167.692383,4270.000000,4239.230957,0.000000,4.000000,82.000000,,,,0.000000,4.000000,4.000000,4.000000,4.000000,4.000000,4.000000,4.000000,4.000000,4.000000,4.000000,4.000000,4.000000,4.000000,4.000000,100.000000,,,,,,,,,,,,,,,,
1645711662.284072,75.000000,0.000000,4259.743652,4210.897461,4223.589844,4175.256348,4192.692383,4223.333496,4236.282227,4229.487305,4226.153809,4238.846191,4247.563965,4168.974121,4270.256348,4248.717773,0.000000,4.000000,82.000000,,,,0.000000,4.000000,4.000000,4.000000,4.000000,4.000000,4.000000,4.000000,4.000000,4.000000,4.000000,4.000000,4.000000,4.000000,4.000000,100.000000,,,,,,,,,,,,,,,,
1645711662.288012,76.000000,0.000000,4234.615234,4218.846191,4229.358887,4185.000000,4200.769043,4228.846191,4241.922852,4238.717773,4229.358887,4245.384766,4257.179688,4173.589844,4276.410156,4250.512695,0.000000,4.000000,82.000000,,,,0.000000,4.000000,4.000000,4.000000,4.000000,4.000000,4.000000,4.000000,4.000000,4.000000,4.000000,4.000000,4.000000,4.000000,4.000000,100.000000,,,,,,,,,,,,,,,,
1645711662.291952,77.000000,0.000000,4213.077148,4228.205078,4232.820313,4193.846191,4212.436035,4235.000000,4243.846191,4247.820313,4234.230957,4255.512695,4270.384766,4176.153809,4281.538574,4242.436035,0.000000,4.000000,82.000000,,,,0.000000,4.000000,4.000000,4.000000,4.000000,4.000000,4.000000,4.000000,4.000000,4.000000,4.000000,4.000000,4.000000,4.000000,4.000000,100.000000,,,,,,,,,,,,,,,,
1645711662.295892,78.000000,0.000000,4222.436035,4225.641113,4229.615234,4187.692383,4208.589844,4228.974121,4237.692383,4247.307617,4233.846191,4252.307617,4269.487305,4172.692383,4277.948730,4234.871582,0.000000,4.000000,82.000000,,,,0.000000,4.000000,4.000000,4.000000,4.000000,4.000000,4.000000,4.000000,4.000000,4.000000,4.000000,4.000000,4.000000,4.000000,4.000000,100.000000,,,,,,,,,,,,,,,,
1645711662.299832,79.000000,0.000000,4249.230957,4212.692383,4222.179688,4171.025879,4192.307617,4215.769043,4230.256348,4239.615234,4229.102539,4238.333496,4255.641113,4166.666504,4267.563965,4235.769043,0.000000,4.000000,82.000000,,,,0.000000,4.000000,4.000000,4.000000,4.000000,4.000000,4.000000,4.000000,4.000000,4.000000,4.000000,4.000000,4.000000,4.000000,4.000000,100.000000,,,,,,,,,,,,,,,,
1645711662.303772,80.000000,0.000000,4257.179688,4203.333496,4216.282227,4160.641113,4184.230957,4211.922852,4230.128418,4235.897461,4227.692383,4232.563965,4246.153809,4163.461426,4259.615234,4238.846191,0.000000,4.000000,82.000000,,,,0.000000,4.000000,4.000000,4.000000,4.000000,4.000000,4.000000,4.000000,4.000000,4.000000,4.000000,4.000000,4.000000,4.000000,4.000000,100.000000,,,,,,,,,,,,,,,,
1645711662.307712,81.000000,0.000000,4235.128418,4204.871582,4213.717773,4164.743652,4194.358887,4222.692383,4236.794922,4240.512695,4232.948730,4242.820313,4250.769043,4164.487305,4259.487305,4233.333496,0.000000,4.000000,82.000000,,,,0.000000,4.000000,4.000000,4.000000,4.000000,4.000000,4.000000,4.000000,4.000000,4.000000,4.000000,4.000000,4.000000,4.000000,4.000000,100.000000,,,,,,,,,,,,,,,,
1645711662.311652,82.000000,0.000000,4211.410156,4209.615234,4211.794922,4172.692383,4207.820313,4233.974121,4240.384766,4246.282227,4238.205078,4253.974121,4259.102539,4165.512695,4262.179688,4220.256348,0.000000,4.000000,82.000000,,,,0.000000,4.000000,4.000000,4.000000,4.000000,4.000000,4.000000,4.000000,4.000000,4.000000,4.000000,4.000000,4.000000,4.000000,4.000000,100.000000,,,,,,,,,,,,,,,,
1645711662.315593,83.000000,0.000000,4215.512695,4206.922852,4208.717773,4171.282227,4205.384766,4230.769043,4235.512695,4243.717773,4235.897461,4247.307617,4256.666504,4163.333496,4260.128418,4212.820313,0.000000,4.000000,82.000000,,,,0.000000,4.000000,4.000000,4.000000,4.000000,4.000000,4.000000,4.000000,4.000000,4.000000,4.000000,4.000000,4.000000,4.000000,4.000000,100.000000,,,,,,,,,,,,,,,,
1645711662.319533,84.000000,0.000000,4239.358887,4199.358887,4207.307617,4162.563965,4189.615234,4217.692383,4228.205078,4234.487305,4227.692383,4226.922852,4245.512695,4160.897461,4253.461426,4219.743652,0.000000,4.000000,82.000000,,,,0.000000,4.000000,4.000000,4.000000,4.000000,4.000000,4.000000,4.000000,4.000000,4.000000,4.000000,4.000000,4.000000,4.000000,4.000000,100.000000,,,,,,,,,,,,,,,,
1645711662.323573,85.000000,0.000000,4248.461426,4198.846191,4211.153809,4160.384766,4181.922852,4212.051270,4227.692383,4229.743652,4223.461426,4215.512695,4241.794922,4161.922852,4249.743652,4232.692383,0.000000,4.000000,82.000000,,,,0.000000,4.000000,4.000000,4.000000,4.000000,4.000000,4.000000,4.000000,4.000000,4.000000,4.000000,4.000000,4.000000,4.000000,4.000000,100.000000,,,,,,,,,,,,,,,,
