title:Alex-gXqLz0RyIYznyJCHuEiFxg, start timestamp:1645707913.233856, stop timestamp:1645707939.505921, headset type:EPOCPLUS, headset serial:3B9AEBFF, headset firmware:626, channels:55, sampling rate:eeg_256, samples:6669      , version:2.1, 
Timestamp,OriginalTimestamp,EEG.Counter,EEG.Interpolated,EEG.AF3,EEG.F7,EEG.F3,EEG.FC5,EEG.T7,EEG.P7,EEG.O1,EEG.O2,EEG.P8,EEG.T8,EEG.FC6,EEG.F4,EEG.F8,EEG.AF4,EEG.RawCq,EEG.Battery,EEG.BatteryPercent,MarkerIndex,MarkerType,MarkerValueInt,EEG.MarkerHardware,CQ.AF3,CQ.F7,CQ.F3,CQ.FC5,CQ.T7,CQ.P7,CQ.O1,CQ.O2,CQ.P8,CQ.T8,CQ.FC6,CQ.F4,CQ.F8,CQ.AF4,CQ.Overall,EQ.SampleRateQuality,EQ.OVERALL,EQ.AF3,EQ.F7,EQ.F3,EQ.FC5,EQ.T7,EQ.P7,EQ.O1,EQ.O2,EQ.P8,EQ.T8,EQ.FC6,EQ.F4,EQ.F8,EQ.AF4
1645707913.233856,1645707913.235031,106.000000,0.000000,4238.717773,4219.871582,4234.230957,4161.666504,4243.846191,4223.974121,4234.743652,4231.025879,4237.051270,4232.179688,4224.102539,4217.179688,4245.641113,4226.410156,0.000000,4.000000,95.000000,,,,0.000000,4.000000,4.000000,4.000000,4.000000,4.000000,4.000000,4.000000,4.000000,4.000000,4.000000,4.000000,4.000000,4.000000,4.000000,100.000000,,,,,,,,,,,,,,,,
1645707913.237796,1645707913.239070,107.000000,0.000000,4236.282227,4221.153809,4233.974121,4169.743652,4244.230957,4223.333496,4234.358887,4228.077148,4236.538574,4230.000000,4226.538574,4217.820313,4243.589844,4226.282227,0.000000,4.000000,95.000000,,,,0.000000,4.000000,4.000000,4.000000,4.000000,4.000000,4.000000,4.000000,4.000000,4.000000,4.000000,4.000000,4.000000,4.000000,4.000000,100.000000,,,,,,,,,,,,,,,,
1645707913.241736,1645707913.243009,108.000000,0.000000,4238.589844,4221.666504,4237.948730,4169.230957,4241.025879,4224.743652,4236.666504,4229.102539,4238.205078,4227.563965,4226.794922,4217.436035,4242.179688,4226.153809,0.000000,4.000000,95.000000,,,,0.000000,4.000000,4.000000,4.000000,4.000000,4.000000,4.000000,4.000000,4.000000,4.000000,4.000000,4.000000,4.000000,4.000000,4.000000,100.000000,,,,,,,,,,,,,,,,
1645707913.245676,1645707913.246948,109.000000,0.000000,4242.436035,4218.846191,4243.333496,4162.948730,4234.871582,4226.794922,4239.615234,4232.307617,4240.641113,4225.769043,4223.717773,4215.000000,4242.436035,4225.256348,0.000000,4.000000,95.000000,,,,0.000000,4.000000,4.000000,4.000000,4.000000,4.000000,4.000000,4.000000,4.000000,4.000000,4.000000,4.000000,4.000000,4.000000,4.000000,100.000000,,,,,,,,,,,,,,,,
1645707913.249616,1645707913.250887,110.000000,0.000000,4243.974121,4212.948730,4245.897461,4156.922852,4230.256348,4227.692383,4240.128418,4234.102539,4241.794922,4224.487305,4217.563965,4210.512695,4243.974121,4223.077148,0.000000,4.000000,95.000000,,,,0.000000,4.000000,4.000000,4.000000,4.000000,4.000000,4.000000,4.000000,4.000000,4.000000,4.000000,4.000000,4.000000,4.000000,4.000000,100.000000,,,,,,,,,,,,,,,,
1645707913.253556,1645707913.254826,111.000000,0.000000,4243.077148,4208.461426,4244.230957,4154.871582,4231.410156,4226.794922,4236.794922,4232.179688,4240.641113,4223.461426,4210.512695,4205.512695,4245.128418,4219.615234,0.000000,4.000000,95.000000,,,,0.000000,4.000000,4.000000,4.000000,4.000000,4.000000,4.000000,4.000000,4.000000,4.000000,4.000000,4.000000,4.000000,4.000000,4.000000,100.000000,,,,,,,,,,,,,,,,
1645707913.257496,1645707913.258765,112.000000,0.000000,4241.922852,4210.897461,4240.384766,4157.179688,4237.820313,4225.384766,4231.794922,4227.436035,4237.820313,4223.205078,4205.769043,4201.410156,4244.358887,4216.410156,0.000000,4.000000,95.000000,,,,0.000000,4.000000,4.000000,4.000000,4.000000,4.000000,4.000000,4.000000,4.000000,4.000000,4.000000,4.000000,4.000000,4.000000,4.000000,100.000000,,,,,,,,,,,,,,,,
1645707913.261436,1645707913.262703,113.000000,0.000000,4242.051270,4220.641113,4236.538574,4161.794922,4244.743652,4224.743652,4228.589844,4222.820313,4234.487305,4223.589844,4205.769043,4199.358887,4241.410156,4213.974121,0.000000,4.000000,95.000000,,,,0.000000,4.000000,4.000000,4.000000,4.000000,4.000000,4.000000,4.000000,4.000000,4.000000,4.000000,4.000000,4.000000,4.000000,4.000000,100.000000,,,,,,,,,,,,,,,,
1645707913.265376,1645707913.266642,114.000000,0.000000,4242.436035,4232.051270,4233.461426,4166.282227,4248.077148,4225.128418,4228.333496,4219.743652,4231.666504,4223.717773,4210.128418,4199.102539,4236.922852,4212.179688,0.000000,4.000000,95.000000,,,,0.000000,4.000000,4.000000,4.000000,4.000000,4.000000,4.000000,4.000000,4.000000,4.000000,4.000000,4.000000,4.000000,4.000000,4.000000,100.000000,,,,,,,,,,,,,,,,
1645707913.269316,1645707913.270581,115.000000,0.000000,4241.153809,4237.179688,4230.512695,4167.563965,4247.307617,4225.641113,4229.615234,4218.077148,4229.358887,4221.794922,4215.128418,4199.615234,4233.589844,4210.384766,0.000000,4.000000,95.000000,,,,0.000000,4.000000,4.000000,4.000000,4.000000,4.000000,4.000000,4.000000,4.000000,4.000000,4.000000,4.000000,4.000000,4.000000,4.000000,100.000000,,,,,,,,,,,,,,,,
1645707913.273256,1645707913.274520,116.000000,0.000000,4237.948730,4232.820313,4228.205078,4163.846191,4244.487305,4225.128418,4229.615234,4216.922852,4227.436035,4216.666504,4216.666504,4199.358887,4233.077148,4208.333496,0.000000,4.000000,95.000000,,,,0.000000,4.000000,4.000000,4.000000,4.000000,4.000000,4.000000,4.000000,4.000000,4.000000,4.000000,4.000000,4.000000,4.000000,4.000000,100.000000,,,,,,,,,,,,,,,,
1645707913.277196,1645707913.278459,117.000000,0.000000,4234.743652,4221.538574,4228.461426,4155.897461,4241.666504,4221.922852,4227.948730,4216.410156,4225.769043,4209.615234,4212.692383,4197.692383,4234.871582,4206.922852,0.000000,4.000000,95.000000,,,,0.000000,4.000000,4.000000,4.000000,4.000000,4.000000,4.000000,4.000000,4.000000,4.000000,4.000000,4.000000,4.000000,4.000000,4.000000,100.000000,,,,,,,,,,,,,,,,
1645707913.281136,1645707913.282398,118.000000,0.000000,4234.102539,4209.743652,4231.922852,4147.692383,4239.487305,4216.025879,4226.025879,4217.179688,4224.871582,4203.717773,4205.641113,4195.769043,4235.641113,4207.307617,0.000000,4.000000,95.000000,,,,0.000000,4.000000,4.000000,4.000000,4.000000,4.000000,4.000000,4.000000,4.000000,4.000000,4.000000,4.000000,4.000000,4.000000,4.000000,100.000000,,,,,,,,,,,,,,,,
1645707913.285076,1645707913.286337,119.000000,0.000000,4236.794922,4203.717773,4236.538574,4143.846191,4237.307617,4209.487305,4225.641113,4218.974121,4225.897461,4203.077148,4200.512695,4195.256348,4233.077148,4209.487305,0.000000,4.000000,95.000000,,,,0.000000,4.000000,4.000000,4.000000,4.000000,4.000000,4.000000,4.000000,4.000000,4.000000,4.000000,4.000000,4.000000,4.000000,4.000000,100.000000,,,,,,,,,,,,,,,,
1645707913.289016,1645707913.290276,120.000000,0.000000,4240.641113,4205.256348,4238.589844,4146.666504,4235.641113,4205.512695,4226.410156,4220.256348,4229.358887,4209.230957,4200.384766,4197.307617,4228.077148,4212.307617,0.000000,4.000000,95.000000,,,,0.000000,4.000000,4.000000,4.000000,4.000000,4.000000,4.000000,4.000000,4.000000,4.000000,4.000000,4.000000,4.000000,4.000000,4.000000,100.000000,,,,,,,,,,,,,,,,
1645707913.292956,1645707913.294215,121.000000,0.000000,4242.563965,4211.794922,4236.538574,4155.384766,4234.230957,4205.384766,4226.538574,4219.743652,4233.461426,4219.358887,4204.230957,4201.794922,4224.358887,4213.974121,0.000000,4.000000,95.000000,,,,0.000000,4.000000,4.000000,4.000000,4.000000,4.000000,4.000000,4.000000,4.000000,4.000000,4.000000,4.000000,4.000000,4.000000,4.000000,100.000000,,,,,,,,,,,,,,,,
1645707913.296896,1645707913.298154,122.000000,0.000000,4241.282227,4218.589844,4232.563965,4166.153809,4232.179688,4207.179688,4224.743652,4217.692383,4235.641113,4226.922852,4208.333496,4207.051270,4225.128418,4213.717773,0.000000,4.000000,95.000000,,,,0.000000,4.000000,4.000000,4.000000,4.000000,4.000000,4.000000,4.000000,4.000000,4.000000,4.000000,4.000000,4.000000,4.000000,4.000000,100.000000,,,,,,,,,,,,,,,,
1645707913.300836,1645707913.302093,123.000000,0.000000,4238.461426,4222.307617,4230.769043,4174.615234,4229.615234,4207.692383,4221.153809,4216.153809,4235.256348,4227.307617,4210.256348,4211.794922,4230.384766,4213.846191,0.000000,4.000000,95.000000,,,,0.000000,4.000000,4.000000,4.000000,4.000000,4.000000,4.000000,4.000000,4.000000,4.000000,4.000000,4.000000,4.000000,4.000000,4.000000,100.000000,,,,,,,,,,,,,,,,
1645707913.304776,1645707913.306032,124.000000,0.000000,4238.205078,4223.461426,4234.230957,4178.974121,4228.974121,4206.666504,4218.461426,4217.948730,4233.846191,4222.307617,4211.153809,4215.769043,4237.307617,4217.692383,0.000000,4.000000,95.000000,,,,0.000000,4.000000,4.000000,4.000000,4.000000,4.000000,4.000000,4.000000,4.000000,4.000000,4.000000,4.000000,4.000000,4.000000,4.000000,100.000000,,,,,,,,,,,,,,,,
1645707913.308716,1645707913.309870,125.000000,0.000000,4243.077148,4225.384766,4242.692383,4181.025879,4232.563965,4206.025879,4219.358887,4223.974121,4234.102539,4218.974121,4214.358887,4219.743652,4242.179688,4227.051270,0.000000,4.000000,95.000000,,,,0.000000,4.000000,4.000000,4.000000,4.000000,4.000000,4.000000,4.000000,4.000000,4.000000,4.000000,4.000000,4.000000,4.000000,4.000000,100.000000,,,,,,,,,,,,,,,,
1645707913.312657,1645707913.313808,126.000000,0.000000,4251.666504,4229.358887,4253.077148,4183.205078,4237.436035,4208.205078,4223.974121,4231.410156,4236.410156,4222.563965,4221.025879,4223.333496,4243.077148,4238.077148,0.000000,4.000000,95.000000,,,,0.000000,4.000000,4.000000,4.000000,4.000000,4.000000,4.000000,4.000000,4.000000,4.000000,4.000000,4.000000,4.000000,4.000000,4.000000,100.000000,,,,,,,,,,,,,,,,
1645707913.316596,1645707913.317747,127.000000,0.000000,4258.461426,4232.692383,4260.256348,4184.871582,4236.922852,4212.820313,4229.615234,4235.128418,4238.589844,4231.025879,4228.461426,4225.256348,4239.615234,4243.589844,0.000000,4.000000,95.000000,,,,0.000000,4.000000,4.000000,4.000000,4.000000,4.000000,4.000000,4.000000,4.000000,4.000000,4.000000,4.000000,4.000000,4.000000,4.000000,100.000000,,,,,,,,,,,,,,,,
1645707913.320537,1645707913.321685,128.000000,0.000000,4258.333496,4232.179688,4260.000000,4183.333496,4228.461426,4217.692383,4233.077148,4232.051270,4238.205078,4237.051270,4232.436035,4224.230957,4233.589844,4239.102539,3443.000000,4.000000,95.000000,,,,0.000000,4.000000,4.000000,4.000000,4.000000,4.000000,4.000000,4.000000,4.000000,4.000000,4.000000,4.000000,4.000000,4.000000,4.000000,100.000000,,,,,,,,,,,,,,,,
1645707913.324477,1645707913.325624,129.000000,0.000000,4252.051270,4228.077148,4252.820313,4178.077148,4218.077148,4221.025879,4233.205078,4223.846191,4234.871582,4235.384766,4231.025879,4221.282227,4229.102539,4227.563965,3401.000000,4.000000,95.000000,,,,0.000000,4.000000,4.000000,4.000000,4.000000,4.000000,4.000000,4.000000,4.000000,4.000000,4.000000,4.000000,4.000000,4.000000,4.000000,100.000000,,,,,,,,,,,,,,,,
1645707913.328416,1645707913.329562,130.000000,0.000000,4245.512695,4223.974121,4243.077148,4172.948730,4216.025879,4222.692383,4231.538574,4216.666504,4230.641113,4228.205078,4226.410156,4218.846191,4229.358887,4217.948730,3461.000000,4.000000,95.000000,,,,0.000000,4.000000,4.000000,4.000000,4.000000,4.000000,4.000000,4.000000,4.000000,4.000000,4.000000,4.000000,4.000000,4.000000,4.000000,100.000000,,,,,,,,,,,,,,,,
1645707913.332357,1645707913.333501,131.000000,0.000000,4243.974121,4223.461426,4236.025879,4173.717773,4226.410156,4222.820313,4229.871582,4215.128418,4227.948730,4221.666504,4222.820313,4218.717773,4234.615234,4217.820313,3487.000000,4.000000,95.000000,,,,0.000000,4.000000,4.000000,4.000000,4.000000,4.000000,4.000000,4.000000,4.000000,4.000000,4.000000,4.000000,4.000000,4.000000,4.000000,100.000000,,,,,,,,,,,,,,,,
1645707913.336297,1645707913.337439,132.000000,0.000000,4247.948730,4226.282227,4234.743652,4181.922852,4243.077148,4221.025879,4229.230957,4219.358887,4227.307617,4219.358887,4222.436035,4220.256348,4241.282227,4226.794922,3680.000000,4.000000,95.000000,,,,0.000000,4.000000,4.000000,4.000000,4.000000,4.000000,4.000000,4.000000,4.000000,4.000000,4.000000,4.000000,4.000000,4.000000,4.000000,100.000000,,,,,,,,,,,,,,,,
1645707913.340237,1645707913.341378,133.000000,0.000000,4252.179688,4228.589844,4237.692383,4193.333496,4255.256348,4216.922852,4228.846191,4224.487305,4227.692383,4220.897461,4223.205078,4220.512695,4244.615234,4236.666504,3441.000000,4.000000,95.000000,,,,0.000000,4.000000,4.000000,4.000000,4.000000,4.000000,4.000000,4.000000,4.000000,4.000000,4.000000,4.000000,4.000000,4.000000,4.000000,100.000000,,,,,,,,,,,,,,,,
1645707913.344177,1645707913.345316,134.000000,0.000000,4251.666504,4228.205078,4240.641113,4201.025879,4256.538574,4211.666504,4227.692383,4226.153809,4227.820313,4223.333496,4221.922852,4217.436035,4242.307617,4239.102539,3080.000000,4.000000,95.000000,,,,0.000000,4.000000,4.000000,4.000000,4.000000,4.000000,4.000000,4.000000,4.000000,4.000000,4.000000,4.000000,4.000000,4.000000,4.000000,100.000000,,,,,,,,,,,,,,,,
1645707913.348117,1645707913.349254,135.000000,0.000000,4245.256348,4226.410156,4239.871582,4200.000000,4248.846191,4208.205078,4225.897461,4223.589844,4227.179688,4224.358887,4217.948730,4211.410156,4236.153809,4231.794922,2974.000000,4.000000,95.000000,,,,0.000000,4.000000,4.000000,4.000000,4.000000,4.000000,4.000000,4.000000,4.000000,4.000000,4.000000,4.000000,4.000000,4.000000,4.000000,100.000000,,,,,,,,,,,,,,,,
1645707913.352057,1645707913.353193,136.000000,0.000000,4235.897461,4225.769043,4234.487305,4190.000000,4239.358887,4208.205078,4224.743652,4219.615234,4226.410156,4222.307617,4213.461426,4204.487305,4229.743652,4219.615234,1427.000000,4.000000,95.000000,,,,0.000000,4.000000,4.000000,4.000000,4.000000,4.000000,4.000000,4.000000,4.000000,4.000000,4.000000,4.000000,4.000000,4.000000,4.000000,100.000000,,,,,,,,,,,,,,,,
1645707913.355997,1645707913.357131,137.000000,0.000000,4227.436035,4226.153809,4226.794922,4176.153809,4233.461426,4211.153809,4225.769043,4218.077148,4226.410156,4216.666504,4210.641113,4198.461426,4225.512695,4208.846191,3497.000000,4.000000,95.000000,,,,0.000000,4.000000,4.000000,4.000000,4.000000,4.000000,4.000000,4.000000,4.000000,4.000000,4.000000,4.000000,4.000000,4.000000,4.000000,100.000000,,,,,,,,,,,,,,,,
1645707913.359937,1645707913.361070,138.000000,0.000000,4222.820313,4225.512695,4220.384766,4164.871582,4233.077148,4215.128418,4229.358887,4220.641113,4228.205078,4209.230957,4209.743652,4195.128418,4223.717773,4203.846191,2686.000000,4.000000,95.000000,,,,0.000000,4.000000,4.000000,4.000000,4.000000,4.000000,4.000000,4.000000,4.000000,4.000000,4.000000,4.000000,4.000000,4.000000,4.000000,100.000000,,,,,,,,,,,,,,,,
1645707913.363877,1645707913.365008,139.000000,0.000000,4223.077148,4223.589844,4218.333496,4160.512695,4236.410156,4218.717773,4233.461426,4226.282227,4231.922852,4204.358887,4210.769043,4195.000000,4224.230957,4205.384766,3436.000000,4.000000,95.000000,,,,0.000000,4.000000,4.000000,4.000000,4.000000,4.000000,4.000000,4.000000,4.000000,4.000000,4.000000,4.000000,4.000000,4.000000,4.000000,100.000000,,,,,,,,,,,,,,,,
1645707913.367817,1645707913.368947,140.000000,0.000000,4227.307617,4222.051270,4221.153809,4162.820313,4240.256348,4221.282227,4235.769043,4231.794922,4236.025879,4205.641113,4213.974121,4197.820313,4226.794922,4211.794922,3322.000000,4.000000,95.000000,,,,0.000000,4.000000,4.000000,4.000000,4.000000,4.000000,4.000000,4.000000,4.000000,4.000000,4.000000,4.000000,4.000000,4.000000,4.000000,100.000000,,,,,,,,,,,,,,,,
1645707913.371757,1645707913.372885,141.000000,0.000000,4232.820313,4222.051270,4227.307617,4167.692383,4240.897461,4222.563965,4234.615234,4234.615234,4238.333496,4213.589844,4218.974121,4202.179688,4231.153809,4219.230957,3494.000000,4.000000,95.000000,,,,0.000000,4.000000,4.000000,4.000000,4.000000,4.000000,4.000000,4.000000,4.000000,4.000000,4.000000,4.000000,4.000000,4.000000,4.000000,100.000000,,,,,,,,,,,,,,,,
1645707913.375697,1645707913.376823,142.000000,0.000000,4236.153809,4222.436035,4233.461426,4172.051270,4237.820313,4221.538574,4230.384766,4233.333496,4237.820313,4224.102539,4223.846191,4205.897461,4235.384766,4223.846191,2686.000000,4.000000,95.000000,,,,0.000000,4.000000,4.000000,4.000000,4.000000,4.000000,4.000000,4.000000,4.000000,4.000000,4.000000,4.000000,4.000000,4.000000,4.000000,100.000000,,,,,,,,,,,,,,,,
1645707913.379637,1645707913.380862,143.000000,0.000000,4235.128418,4221.282227,4236.410156,4176.025879,4234.102539,4217.948730,4225.769043,4229.102539,4234.743652,4231.410156,4225.641113,4206.794922,4237.179688,4223.333496,3436.000000,4.000000,95.000000,,,,0.000000,4.000000,4.000000,4.000000,4.000000,4.000000,4.000000,4.000000,4.000000,4.000000,4.000000,4.000000,4.000000,4.000000,4.000000,100.000000,,,,,,,,,,,,,,,,
1645707913.383577,1645707913.384801,144.000000,0.000000,4230.769043,4218.974121,4235.256348,4181.282227,4232.692383,4213.461426,4223.205078,4223.717773,4231.153809,4231.538574,4222.948730,4204.615234,4235.769043,4219.358887,3322.000000,4.000000,95.000000,,,,0.000000,4.000000,4.000000,4.000000,4.000000,4.000000,4.000000,4.000000,4.000000,4.000000,4.000000,4.000000,4.000000,4.000000,4.000000,100.000000,,,,,,,,,,,,,,,,
1645707913.387517,1645707913.388739,145.000000,0.000000,4226.794922,4217.436035,4231.922852,4187.051270,4233.333496,4210.512695,4223.717773,4219.487305,4228.589844,4225.128418,4216.666504,4201.025879,4232.563965,4216.410156,3494.000000,4.000000,95.000000,,,,0.000000,4.000000,4.000000,4.000000,4.000000,4.000000,4.000000,4.000000,4.000000,4.000000,4.000000,4.000000,4.000000,4.000000,4.000000,100.000000,,,,,,,,,,,,,,,,
1645707913.391457,1645707913.392678,146.000000,0.000000,4226.794922,4218.461426,4229.743652,4189.743652,4231.794922,4210.641113,4226.153809,4217.051270,4228.461426,4217.179688,4210.128418,4198.846191,4230.641113,4218.077148,2686.000000,4.000000,95.000000,,,,0.000000,4.000000,4.000000,4.000000,4.000000,4.000000,4.000000,4.000000,4.000000,4.000000,4.000000,4.000000,4.000000,4.000000,4.000000,100.000000,,,,,,,,,,,,,,,,
1645707913.395397,1645707913.396617,147.000000,0.000000,4231.025879,4221.538574,4231.025879,4186.153809,4226.282227,4213.846191,4228.717773,4216.410156,4229.871582,4212.820313,4206.794922,4200.000000,4231.666504,4224.230957,3436.000000,4.000000,95.000000,,,,0.000000,4.000000,4.000000,4.000000,4.000000,4.000000,4.000000,4.000000,4.000000,4.000000,4.000000,4.000000,4.000000,4.000000,4.000000,100.000000,,,,,,,,,,,,,,,,
1645707913.399337,1645707913.400555,148.000000,0.000000,4236.666504,4224.743652,4235.256348,4177.436035,4219.358887,4217.948730,4230.128418,4217.307617,4231.282227,4214.230957,4208.077148,4204.102539,4234.743652,4231.282227,3322.000000,4.000000,95.000000,,,,0.000000,4.000000,4.000000,4.000000,4.000000,4.000000,4.000000,4.000000,4.000000,4.000000,4.000000,4.000000,4.000000,4.000000,4.000000,100.000000,,,,,,,,,,,,,,,,
1645707913.403277,1645707913.404494,149.000000,0.000000,4239.358887,4226.282227,4238.974121,4169.102539,4216.922852,4221.025879,4230.769043,4219.230957,4231.025879,4220.256348,4213.333496,4209.102539,4237.179688,4235.256348,3494.000000,4.000000,95.000000,,,,0.000000,4.000000,4.000000,4.000000,4.000000,4.000000,4.000000,4.000000,4.000000,4.000000,4.000000,4.000000,4.000000,4.000000,4.000000,100.000000,,,,,,,,,,,,,,,,
1645707913.407217,1645707913.408433,150.000000,0.000000,4237.692383,4225.384766,4239.230957,4166.922852,4222.563965,4221.538574,4231.153809,4221.538574,4229.102539,4227.820313,4220.641113,4212.436035,4237.563965,4234.615234,2686.000000,4.000000,95.000000,,,,0.000000,4.000000,4.000000,4.000000,4.000000,4.000000,4.000000,4.000000,4.000000,4.000000,4.000000,4.000000,4.000000,4.000000,4.000000,100.000000,,,,,,,,,,,,,,,,
1645707913.411157,1645707913.412371,151.000000,0.000000,4233.589844,4223.205078,4236.025879,4173.846191,4234.615234,4219.615234,4231.153809,4223.333496,4227.307617,4233.846191,4227.563965,4212.179688,4236.153809,4230.641113,3436.000000,4.000000,95.000000,,,,0.000000,4.000000,4.000000,4.000000,4.000000,4.000000,4.000000,4.000000,4.000000,4.000000,4.000000,4.000000,4.000000,4.000000,4.000000,100.000000,,,,,,,,,,,,,,,,
1645707913.415097,1645707913.416310,152.000000,0.000000,4230.256348,4221.666504,4231.794922,4186.922852,4246.922852,4216.282227,4230.641113,4224.230957,4227.051270,4235.512695,4231.153809,4208.589844,4234.487305,4225.769043,3322.000000,4.000000,95.000000,,,,0.000000,4.000000,4.000000,4.000000,4.000000,4.000000,4.000000,4.000000,4.000000,4.000000,4.000000,4.000000,4.000000,4.000000,4.000000,100.000000,,,,,,,,,,,,,,,,
1645707913.419037,1645707913.420249,153.000000,0.000000,4229.615234,4222.948730,4229.358887,4199.487305,4253.717773,4213.333496,4230.128418,4225.000000,4228.333496,4232.051270,4229.230957,4203.974121,4234.230957,4222.563965,3494.000000,4.000000,95.000000,,,,0.000000,4.000000,4.000000,4.000000,4.000000,4.000000,4.000000,4.000000,4.000000,4.000000,4.000000,4.000000,4.000000,4.000000,4.000000,100.000000,,,,,,,,,,,,,,,,
1645707913.422977,1645707913.424187,154.000000,0.000000,4231.538574,4226.794922,4229.102539,4204.615234,4252.563965,4211.794922,4230.897461,4226.282227,4229.743652,4225.512695,4223.205078,4201.153809,4235.256348,4222.179688,2686.000000,4.000000,95.000000,,,,0.000000,4.000000,4.000000,4.000000,4.000000,4.000000,4.000000,4.000000,4.000000,4.000000,4.000000,4.000000,4.000000,4.000000,4.000000,100.000000,,,,,,,,,,,,,,,,
1645707913.426917,1645707913.428126,155.000000,0.000000,4233.846191,4230.897461,4229.487305,4199.871582,4245.769043,4212.692383,4233.333496,4228.333496,4230.769043,4220.128418,4217.692383,4201.025879,4237.051270,4223.974121,3436.000000,4.000000,95.000000,,,,0.000000,4.000000,4.000000,4.000000,4.000000,4.000000,4.000000,4.000000,4.000000,4.000000,4.000000,4.000000,4.000000,4.000000,4.000000,100.000000,,,,,,,,,,,,,,,,
1645707913.430857,1645707913.432065,156.000000,0.000000,4234.230957,4231.410156,4229.230957,4189.102539,4239.102539,4215.769043,4236.666504,4230.769043,4231.410156,4219.871582,4216.538574,4202.307617,4238.333496,4226.153809,3322.000000,4.000000,95.000000,,,,0.000000,4.000000,4.000000,4.000000,4.000000,4.000000,4.000000,4.000000,4.000000,4.000000,4.000000,4.000000,4.000000,4.000000,4.000000,100.000000,,,,,,,,,,,,,,,,
1645707913.434797,1645707913.436003,157.000000,0.000000,4232.051270,4227.436035,4228.205078,4179.230957,4236.922852,4219.615234,4239.358887,4232.948730,4232.692383,4225.769043,4219.358887,4202.820313,4238.333496,4227.179688,3494.000000,4.000000,95.000000,,,,0.000000,4.000000,4.000000,4.000000,4.000000,4.000000,4.000000,4.000000,4.000000,4.000000,4.000000,4.000000,4.000000,4.000000,4.000000,100.000000,,,,,,,,,,,,,,,,
1645707913.438737,1645707913.439942,158.000000,0.000000,4228.461426,4222.051270,4227.307617,4176.153809,4239.871582,4223.205078,4241.153809,4234.743652,4235.000000,4234.615234,4222.307617,4201.538574,4236.666504,4226.794922,2686.000000,4.000000,95.000000,,,,0.000000,4.000000,4.000000,4.000000,4.000000,4.000000,4.000000,4.000000,4.000000,4.000000,4.000000,4.000000,4.000000,4.000000,4.000000,100.000000,,,,,,,,,,,,,,,,
1645707913.442677,1645707913.443881,159.000000,0.000000,4225.769043,4220.897461,4227.948730,4180.128418,4244.102539,4225.769043,4243.205078,4236.153809,4237.948730,4240.512695,4221.794922,4199.615234,4233.974121,4226.025879,3436.000000,4.000000,95.000000,,,,0.000000,4.000000,4.000000,4.000000,4.000000,4.000000,4.000000,4.000000,4.000000,4.000000,4.000000,4.000000,4.000000,4.000000,4.000000,100.000000,,,,,,,,,,,,,,,,
1645707913.446617,1645707913.447820,160.000000,0.000000,4226.282227,4227.179688,4230.512695,4187.179688,4245.256348,4227.692383,4245.512695,4237.179688,4240.000000,4239.487305,4217.948730,4199.102539,4231.666504,4225.641113,3322.000000,4.000000,95.000000,,,,0.000000,4.000000,4.000000,4.000000,4.000000,4.000000,4.000000,4.000000,4.000000,4.000000,4.000000,4.000000,4.000000,4.000000,4.000000,100.000000,,,,,,,,,,,,,,,,
1645707913.450557,1645707913.451758,161.000000,0.000000,4230.641113,4238.589844,4234.102539,4193.205078,4242.948730,4228.717773,4246.410156,4236.922852,4239.871582,4232.179688,4214.102539,4200.256348,4230.641113,4225.897461,3494.000000,4.000000,95.000000,,,,0.000000,4.000000,4.000000,4.000000,4.000000,4.000000,4.000000,4.000000,4.000000,4.000000,4.000000,4.000000,4.000000,4.000000,4.000000,100.000000,,,,,,,,,,,,,,,,
1645707913.454497,1645707913.455797,162.000000,0.000000,4237.179688,4249.230957,4236.410156,4196.282227,4240.256348,4228.333496,4243.717773,4234.358887,4237.179688,4222.820313,4212.692383,4201.922852,4230.256348,4225.769043,2686.000000,4.000000,95.000000,,,,0.000000,4.000000,4.000000,4.000000,4.000000,4.000000,4.000000,4.000000,4.000000,4.000000,4.000000,4.000000,4.000000,4.000000,4.000000,100.000000,,,,,,,,,,,,,,,,
1645707913.458437,1645707913.459735,163.000000,0.000000,4242.179688,4253.205078,4235.641113,4196.794922,4240.128418,4226.666504,4237.948730,4230.256348,4232.948730,4215.897461,4213.461426,4201.410156,4228.461426,4224.230957,3436.000000,4.000000,95.000000,,,,0.000000,4.000000,4.000000,4.000000,4.000000,4.000000,4.000000,4.000000,4.000000,4.000000,4.000000,4.000000,4.000000,4.000000,4.000000,100.000000,,,,,,,,,,,,,,,,
1645707913.462377,1645707913.463674,164.000000,0.000000,4242.436035,4249.615234,4231.666504,4195.128418,4241.922852,4224.358887,4231.538574,4226.153809,4229.487305,4212.692383,4213.077148,4196.410156,4224.230957,4219.871582,3322.000000,4.000000,95.000000,,,,0.000000,4.000000,4.000000,4.000000,4.000000,4.000000,4.000000,4.000000,4.000000,4.000000,4.000000,4.000000,4.000000,4.000000,4.000000,100.000000,,,,,,,,,,,,,,,,
1645707913.466317,1645707913.467613,165.000000,0.000000,4237.820313,4241.666504,4226.153809,4192.563965,4243.461426,4222.436035,4227.179688,4223.333496,4228.461426,4212.436035,4209.358887,4188.205078,4218.077148,4212.436035,3494.000000,4.000000,95.000000,,,,0.000000,4.000000,4.000000,4.000000,4.000000,4.000000,4.000000,4.000000,4.000000,4.000000,4.000000,4.000000,4.000000,4.000000,4.000000,100.000000,,,,,,,,,,,,,,,,
1645707913.470257,1645707913.471551,166.000000,0.000000,4231.025879,4235.000000,4221.410156,4191.025879,4243.846191,4221.153809,4225.512695,4221.922852,4230.000000,4213.205078,4202.948730,4180.897461,4212.179688,4203.333496,2686.000000,4.000000,95.000000,,,,0.000000,4.000000,4.000000,4.000000,4.000000,4.000000,4.000000,4.000000,4.000000,4.000000,4.000000,4.000000,4.000000,4.000000,4.000000,100.000000,,,,,,,,,,,,,,,,
1645707913.474197,1645707913.475490,167.000000,0.000000,4225.512695,4232.948730,4218.846191,4191.666504,4243.461426,4219.743652,4225.384766,4221.282227,4232.436035,4213.205078,4196.794922,4178.846191,4208.461426,4195.769043,3436.000000,4.000000,95.000000,,,,0.000000,4.000000,4.000000,4.000000,4.000000,4.000000,4.000000,4.000000,4.000000,4.000000,4.000000,4.000000,4.000000,4.000000,4.000000,100.000000,,,,,,,,,,,,,,,,
1645707913.478137,1645707913.479429,168.000000,0.000000,4223.461426,4235.128418,4218.589844,4192.820313,4241.666504,4217.563965,4225.769043,4221.410156,4233.333496,4212.563965,4194.871582,4183.077148,4207.820313,4193.717773,3322.000000,4.000000,95.000000,,,,0.000000,4.000000,4.000000,4.000000,4.000000,4.000000,4.000000,4.000000,4.000000,4.000000,4.000000,4.000000,4.000000,4.000000,4.000000,100.000000,,,,,,,,,,,,,,,,
1645707913.482077,1645707913.483367,169.000000,0.000000,4225.000000,4237.692383,4219.487305,4192.948730,4237.436035,4214.102539,4226.666504,4222.179688,4232.179688,4212.948730,4198.846191,4190.769043,4210.000000,4197.948730,3494.000000,4.000000,95.000000,,,,0.000000,4.000000,4.000000,4.000000,4.000000,4.000000,4.000000,4.000000,4.000000,4.000000,4.000000,4.000000,4.000000,4.000000,4.000000,100.000000,,,,,,,,,,,,,,,,
1645707913.486017,1645707913.487306,170.000000,0.000000,4228.333496,4237.692383,4220.000000,4192.436035,4231.153809,4210.256348,4228.205078,4223.333496,4230.384766,4216.538574,4207.051270,4196.922852,4213.717773,4206.410156,2686.000000,4.000000,95.000000,,,,0.000000,4.000000,4.000000,4.000000,4.000000,4.000000,4.000000,4.000000,4.000000,4.000000,4.000000,4.000000,4.000000,4.000000,4.000000,100.000000,,,,,,,,,,,,,,,,
1645707913.489957,1645707913.491245,171.000000,0.000000,4230.384766,4235.384766,4219.871582,4193.333496,4225.512695,4207.307617,4229.358887,4223.974121,4230.000000,4222.436035,4214.358887,4198.205078,4216.538574,4214.230957,3436.000000,4.000000,95.000000,,,,0.000000,4.000000,4.000000,4.000000,4.000000,4.000000,4.000000,4.000000,4.000000,4.000000,4.000000,4.000000,4.000000,4.000000,4.000000,100.000000,,,,,,,,,,,,,,,,
1645707913.493897,1645707913.495184,172.000000,0.000000,4228.974121,4232.948730,4218.846191,4195.641113,4224.102539,4205.641113,4228.846191,4223.461426,4230.897461,4227.051270,4215.000000,4194.615234,4216.410156,4216.794922,3322.000000,4.000000,95.000000,,,,0.000000,4.000000,4.000000,4.000000,4.000000,4.000000,4.000000,4.000000,4.000000,4.000000,4.000000,4.000000,4.000000,4.000000,4.000000,100.000000,,,,,,,,,,,,,,,,
1645707913.497837,1645707913.499022,173.000000,0.000000,4223.974121,4231.410156,4217.307617,4197.051270,4227.436035,4205.000000,4226.666504,4221.282227,4231.282227,4226.282227,4206.794922,4188.333496,4212.436035,4211.794922,3494.000000,4.000000,95.000000,1,1,2,0.000000,4.000000,4.000000,4.000000,4.000000,4.000000,4.000000,4.000000,4.000000,4.000000,4.000000,4.000000,4.000000,4.000000,4.000000,100.000000,,,,,,,,,,,,,,,,
1645707913.501778,1645707913.502961,174.000000,0.000000,4217.051270,4229.871582,4215.897461,4195.512695,4232.179688,4205.000000,4224.102539,4218.333496,4229.102539,4219.487305,4193.461426,4181.666504,4205.641113,4201.410156,2686.000000,4.000000,95.000000,,,,0.000000,4.000000,4.000000,4.000000,4.000000,4.000000,4.000000,4.000000,4.000000,4.000000,4.000000,4.000000,4.000000,4.000000,4.000000,100.000000,,,,,,,,,,,,,,,,
1645707913.505717,1645707913.506900,175.000000,0.000000,4211.666504,4227.051270,4214.487305,4192.051270,4233.461426,4206.025879,4222.436035,4216.153809,4225.641113,4209.743652,4182.692383,4176.666504,4199.230957,4190.897461,3436.000000,4.000000,95.000000,,,,0.000000,4.000000,4.000000,4.000000,4.000000,4.000000,4.000000,4.000000,4.000000,4.000000,4.000000,4.000000,4.000000,4.000000,4.000000,100.000000,,,,,,,,,,,,,,,,
1645707913.509658,1645707913.510838,176.000000,0.000000,4210.256348,4223.461426,4213.461426,4188.974121,4228.717773,4208.205078,4222.307617,4216.153809,4223.205078,4201.410156,4181.025879,4174.615234,4196.282227,4186.025879,3322.000000,4.000000,95.000000,,,,0.000000,4.000000,4.000000,4.000000,4.000000,4.000000,4.000000,4.000000,4.000000,4.000000,4.000000,4.000000,4.000000,4.000000,4.000000,100.000000,,,,,,,,,,,,,,,,
1645707913.513598,1645707913.514877,177.000000,0.000000,4213.205078,4221.538574,4213.589844,4187.307617,4219.743652,4210.769043,4223.717773,4219.358887,4224.102539,4197.179688,4189.102539,4176.282227,4197.820313,4188.846191,3494.000000,4.000000,95.000000,,,,0.000000,4.000000,4.000000,4.000000,4.000000,4.000000,4.000000,4.000000,4.000000,4.000000,4.000000,4.000000,4.000000,4.000000,4.000000,100.000000,,,,,,,,,,,,,,,,
1645707913.517537,1645707913.518816,178.000000,0.000000,4218.974121,4223.846191,4216.410156,4186.922852,4212.436035,4212.948730,4227.051270,4225.256348,4228.077148,4197.307617,4201.666504,4181.538574,4201.666504,4196.153809,2686.000000,4.000000,95.000000,,,,0.000000,4.000000,4.000000,4.000000,4.000000,4.000000,4.000000,4.000000,4.000000,4.000000,4.000000,4.000000,4.000000,4.000000,4.000000,100.000000,,,,,,,,,,,,,,,,
1645707913.521478,1645707913.522754,179.000000,0.000000,4224.871582,4230.000000,4222.179688,4188.077148,4212.692383,4214.102539,4231.153809,4232.051270,4232.307617,4201.025879,4211.282227,4188.205078,4205.384766,4202.179688,3436.000000,4.000000,95.000000,,,,0.000000,4.000000,4.000000,4.000000,4.000000,4.000000,4.000000,4.000000,4.000000,4.000000,4.000000,4.000000,4.000000,4.000000,4.000000,100.000000,,,,,,,,,,,,,,,,
1645707913.525418,1645707913.526693,180.000000,0.000000,4228.974121,4237.179688,4228.077148,4192.051270,4222.179688,4214.230957,4233.589844,4236.282227,4233.846191,4206.922852,4213.205078,4192.948730,4207.051270,4202.820313,3322.000000,4.000000,95.000000,,,,0.000000,4.000000,4.000000,4.000000,4.000000,4.000000,4.000000,4.000000,4.000000,4.000000,4.000000,4.000000,4.000000,4.000000,4.000000,100.000000,,,,,,,,,,,,,,,,
1645707913.529358,1645707913.530632,181.000000,0.000000,4230.512695,4242.051270,4230.384766,4199.102539,4236.666504,4213.974121,4231.666504,4235.256348,4232.436035,4213.589844,4207.820313,4193.077148,4206.410156,4198.846191,3494.000000,4.000000,95.000000,,,,0.000000,4.000000,4.000000,4.000000,4.000000,4.000000,4.000000,4.000000,4.000000,4.000000,4.000000,4.000000,4.000000,4.000000,4.000000,100.000000,,,,,,,,,,,,,,,,
1645707913.533298,1645707913.534570,182.000000,0.000000,4229.358887,4242.436035,4227.051270,4206.794922,4247.563965,4213.077148,4226.282227,4229.871582,4230.000000,4219.615234,4199.615234,4188.589844,4205.128418,4194.871582,2686.000000,4.000000,95.000000,,,,0.000000,4.000000,4.000000,4.000000,4.000000,4.000000,4.000000,4.000000,4.000000,4.000000,4.000000,4.000000,4.000000,4.000000,4.000000,100.000000,,,,,,,,,,,,,,,,
1645707913.537238,1645707913.538509,183.000000,0.000000,4226.282227,4238.717773,4220.512695,4212.179688,4247.948730,4211.410156,4220.769043,4223.717773,4228.846191,4223.589844,4193.974121,4182.051270,4204.615234,4194.487305,3436.000000,4.000000,95.000000,,,,0.000000,4.000000,4.000000,4.000000,4.000000,4.000000,4.000000,4.000000,4.000000,4.000000,4.000000,4.000000,4.000000,4.000000,4.000000,100.000000,,,,,,,,,,,,,,,,
1645707913.541178,1645707913.542448,184.000000,0.000000,4223.077148,4233.205078,4215.641113,4214.102539,4238.205078,4209.230957,4219.102539,4220.128418,4229.358887,4225.384766,4194.358887,4177.436035,4205.641113,4198.077148,3322.000000,4.000000,95.000000,,,,0.000000,4.000000,4.000000,4.000000,4.000000,4.000000,4.000000,4.000000,4.000000,4.000000,4.000000,4.000000,4.000000,4.000000,4.000000,100.000000,,,,,,,,,,,,,,,,
1645707913.545118,1645707913.546386,185.000000,0.000000,4222.307617,4229.102539,4215.769043,4214.743652,4226.153809,4208.205078,4221.666504,4219.743652,4230.256348,4225.384766,4200.641113,4177.692383,4207.948730,4202.820313,3494.000000,4.000000,95.000000,,,,0.000000,4.000000,4.000000,4.000000,4.000000,4.000000,4.000000,4.000000,4.000000,4.000000,4.000000,4.000000,4.000000,4.000000,4.000000,100.000000,,,,,,,,,,,,,,,,
1645707913.549058,1645707913.550325,186.000000,0.000000,4225.384766,4229.102539,4220.897461,4216.538574,4220.256348,4210.384766,4226.538574,4220.769043,4229.615234,4224.743652,4209.102539,4183.077148,4210.256348,4205.897461,2686.000000,4.000000,95.000000,,,,0.000000,4.000000,4.000000,4.000000,4.000000,4.000000,4.000000,4.000000,4.000000,4.000000,4.000000,4.000000,4.000000,4.000000,4.000000,100.000000,,,,,,,,,,,,,,,,
1645707913.552998,1645707913.554264,187.000000,0.000000,4231.410156,4233.461426,4227.820313,4219.487305,4223.077148,4215.641113,4230.897461,4221.922852,4227.563965,4223.589844,4215.128418,4189.871582,4211.666504,4206.282227,3436.000000,4.000000,95.000000,,,,0.000000,4.000000,4.000000,4.000000,4.000000,4.000000,4.000000,4.000000,4.000000,4.000000,4.000000,4.000000,4.000000,4.000000,4.000000,100.000000,,,,,,,,,,,,,,,,
1645707913.556938,1645707913.558202,188.000000,0.000000,4237.563965,4239.871582,4233.461426,4221.282227,4230.256348,4221.025879,4233.333496,4222.436035,4225.512695,4221.794922,4216.153809,4193.589844,4211.922852,4205.641113,3322.000000,4.000000,95.000000,,,,0.000000,4.000000,4.000000,4.000000,4.000000,4.000000,4.000000,4.000000,4.000000,4.000000,4.000000,4.000000,4.000000,4.000000,4.000000,100.000000,,,,,,,,,,,,,,,,
1645707913.560878,1645707913.562141,189.000000,0.000000,4240.384766,4244.358887,4235.769043,4219.871582,4235.769043,4223.205078,4233.205078,4221.794922,4225.512695,4219.102539,4213.461426,4192.179688,4211.538574,4206.153809,3494.000000,4.000000,95.000000,,,,0.000000,4.000000,4.000000,4.000000,4.000000,4.000000,4.000000,4.000000,4.000000,4.000000,4.000000,4.000000,4.000000,4.000000,4.000000,100.000000,,,,,,,,,,,,,,,,
1645707913.564818,1645707913.566080,190.000000,0.000000,4238.974121,4245.000000,4235.128418,4216.025879,4236.410156,4221.410156,4230.641113,4219.615234,4227.692383,4216.282227,4210.384766,4187.948730,4210.769043,4208.846191,2686.000000,4.000000,95.000000,,,,0.000000,4.000000,4.000000,4.000000,4.000000,4.000000,4.000000,4.000000,4.000000,4.000000,4.000000,4.000000,4.000000,4.000000,4.000000,100.000000,,,,,,,,,,,,,,,,
1645707913.568758,1645707913.570018,191.000000,0.000000,4234.487305,4241.666504,4232.179688,4212.307617,4232.948730,4218.461426,4227.051270,4216.794922,4230.769043,4213.846191,4209.230957,4184.871582,4209.358887,4212.692383,3436.000000,4.000000,95.000000,,,,0.000000,4.000000,4.000000,4.000000,4.000000,4.000000,4.000000,4.000000,4.000000,4.000000,4.000000,4.000000,4.000000,4.000000,4.000000,100.000000,,,,,,,,,,,,,,,,
1645707913.572698,1645707913.573857,192.000000,0.000000,4229.102539,4235.769043,4228.205078,4210.512695,4227.179688,4217.436035,4224.358887,4215.000000,4232.948730,4212.436035,4209.230957,4184.871582,4207.307617,4214.358887,3322.000000,4.000000,95.000000,,,,0.000000,4.000000,4.000000,4.000000,4.000000,4.000000,4.000000,4.000000,4.000000,4.000000,4.000000,4.000000,4.000000,4.000000,4.000000,100.000000,,,,,,,,,,,,,,,,
1645707913.576638,1645707913.577796,193.000000,0.000000,4223.717773,4228.846191,4223.846191,4210.641113,4221.025879,4218.717773,4224.487305,4216.025879,4233.333496,4211.666504,4207.820313,4185.769043,4203.974121,4211.282227,3494.000000,4.000000,95.000000,,,,0.000000,4.000000,4.000000,4.000000,4.000000,4.000000,4.000000,4.000000,4.000000,4.000000,4.000000,4.000000,4.000000,4.000000,4.000000,100.000000,,,,,,,,,,,,,,,,
1645707913.580578,1645707913.581734,194.000000,0.000000,4218.205078,4223.589844,4220.000000,4211.282227,4216.538574,4220.512695,4227.563965,4220.000000,4232.436035,4210.897461,4203.461426,4184.743652,4199.871582,4204.358887,2686.000000,4.000000,95.000000,,,,0.000000,4.000000,4.000000,4.000000,4.000000,4.000000,4.000000,4.000000,4.000000,4.000000,4.000000,4.000000,4.000000,4.000000,4.000000,100.000000,,,,,,,,,,,,,,,,
1645707913.584518,1645707913.585673,195.000000,0.000000,4212.948730,4221.922852,4216.666504,4211.153809,4215.769043,4220.000000,4231.666504,4224.871582,4231.538574,4210.128418,4197.692383,4180.897461,4196.410156,4197.436035,3436.000000,4.000000,95.000000,,,,0.000000,4.000000,4.000000,4.000000,4.000000,4.000000,4.000000,4.000000,4.000000,4.000000,4.000000,4.000000,4.000000,4.000000,4.000000,100.000000,,,,,,,,,,,,,,,,
1645707913.588458,1645707913.589612,196.000000,0.000000,4209.230957,4223.205078,4213.974121,4209.871582,4218.333496,4216.410156,4233.589844,4227.820313,4231.282227,4210.256348,4193.205078,4175.769043,4195.512695,4193.974121,3322.000000,4.000000,95.000000,,,,0.000000,4.000000,4.000000,4.000000,4.000000,4.000000,4.000000,4.000000,4.000000,4.000000,4.000000,4.000000,4.000000,4.000000,4.000000,100.000000,,,,,,,,,,,,,,,,
1645707913.592398,1645707913.593650,197.000000,0.000000,4208.077148,4224.487305,4212.179688,4208.077148,4220.512695,4211.666504,4231.538574,4227.179688,4231.794922,4211.922852,4191.666504,4171.538574,4196.922852,4193.461426,3494.000000,4.000000,95.000000,,,,0.000000,4.000000,4.000000,4.000000,4.000000,4.000000,4.000000,4.000000,4.000000,4.000000,4.000000,4.000000,4.000000,4.000000,4.000000,100.000000,,,,,,,,,,,,,,,,
1645707913.596338,1645707913.597589,198.000000,0.000000,4208.846191,4222.436035,4211.666504,4207.051270,4219.230957,4208.333496,4227.307617,4223.974121,4232.051270,4213.717773,4192.307617,4169.743652,4198.717773,4192.820313,2686.000000,4.000000,95.000000,,,,0.000000,4.000000,4.000000,4.000000,4.000000,4.000000,4.000000,4.000000,4.000000,4.000000,4.000000,4.000000,4.000000,4.000000,4.000000,100.000000,,,,,,,,,,,,,,,,
1645707913.600278,1645707913.601528,199.000000,0.000000,4210.000000,4217.307617,4212.948730,4208.846191,4215.256348,4208.461426,4224.102539,4220.512695,4231.025879,4213.717773,4192.948730,4170.128418,4198.589844,4190.000000,3436.000000,4.000000,95.000000,,,,0.000000,4.000000,4.000000,4.000000,4.000000,4.000000,4.000000,4.000000,4.000000,4.000000,4.000000,4.000000,4.000000,4.000000,4.000000,100.000000,,,,,,,,,,,,,,,,
1645707913.604218,1645707913.605466,200.000000,0.000000,4210.769043,4212.307617,4215.512695,4214.358887,4212.307617,4211.538574,4223.974121,4218.974121,4228.205078,4211.025879,4192.948730,4171.794922,4196.410156,4186.538574,3322.000000,4.000000,95.000000,,,,0.000000,4.000000,4.000000,4.000000,4.000000,4.000000,4.000000,4.000000,4.000000,4.000000,4.000000,4.000000,4.000000,4.000000,4.000000,100.000000,,,,,,,,,,,,,,,,
1645707913.608158,1645707913.609305,201.000000,0.000000,4211.025879,4211.410156,4217.692383,4222.692383,4213.717773,4215.641113,4226.153809,4219.358887,4224.871582,4206.922852,4193.077148,4173.205078,4193.589844,4185.897461,3494.000000,4.000000,95.000000,,,,0.000000,4.000000,4.000000,4.000000,4.000000,4.000000,4.000000,4.000000,4.000000,4.000000,4.000000,4.000000,4.000000,4.000000,4.000000,100.000000,,,,,,,,,,,,,,,,
1645707913.612098,1645707913.613244,202.000000,0.000000,4211.410156,4215.641113,4217.820313,4230.897461,4218.077148,4218.205078,4228.205078,4220.512695,4222.563965,4203.589844,4194.230957,4173.717773,4192.436035,4190.000000,2686.000000,4.000000,95.000000,,,,0.000000,4.000000,4.000000,4.000000,4.000000,4.000000,4.000000,4.000000,4.000000,4.000000,4.000000,4.000000,4.000000,4.000000,4.000000,100.000000,,,,,,,,,,,,,,,,
1645707913.616038,1645707913.617183,203.000000,0.000000,4212.179688,4222.948730,4216.153809,4236.282227,4220.512695,4217.436035,4227.820313,4220.256348,4221.922852,4202.563965,4196.410156,4173.589844,4194.358887,4197.307617,3436.000000,4.000000,95.000000,2,1,2,0.000000,4.000000,4.000000,4.000000,4.000000,4.000000,4.000000,4.000000,4.000000,4.000000,4.000000,4.000000,4.000000,4.000000,4.000000,100.000000,,,,,,,,,,,,,,,,
1645707913.619978,1645707913.621121,204.000000,0.000000,4214.230957,4229.230957,4214.871582,4238.333496,4217.820313,4213.333496,4224.615234,4218.333496,4222.051270,4203.589844,4198.974121,4173.974121,4198.589844,4204.358887,3322.000000,4.000000,95.000000,,,,0.000000,4.000000,4.000000,4.000000,4.000000,4.000000,4.000000,4.000000,4.000000,4.000000,4.000000,4.000000,4.000000,4.000000,4.000000,100.000000,,,,,,,,,,,,,,,,
1645707913.623918,1645707913.625060,205.000000,0.000000,4217.692383,4232.179688,4215.769043,4238.461426,4211.538574,4208.077148,4219.871582,4216.410156,4222.051270,4206.025879,4201.025879,4175.769043,4203.205078,4208.589844,3494.000000,4.000000,95.000000,,,,0.000000,4.000000,4.000000,4.000000,4.000000,4.000000,4.000000,4.000000,4.000000,4.000000,4.000000,4.000000,4.000000,4.000000,4.000000,100.000000,,,,,,,,,,,,,,,,
1645707913.627858,1645707913.628999,206.000000,0.000000,4221.538574,4232.307617,4218.589844,4238.077148,4207.563965,4204.230957,4215.769043,4216.153809,4221.410156,4208.717773,4201.922852,4179.102539,4205.897461,4209.230957,2686.000000,4.000000,95.000000,,,,0.000000,4.000000,4.000000,4.000000,4.000000,4.000000,4.000000,4.000000,4.000000,4.000000,4.000000,4.000000,4.000000,4.000000,4.000000,100.000000,,,,,,,,,,,,,,,,
1645707913.631798,1645707913.632937,207.000000,0.000000,4224.102539,4231.538574,4221.410156,4237.051270,4209.871582,4203.461426,4213.589844,4217.820313,4221.153809,4210.512695,4201.538574,4182.948730,4205.000000,4207.692383,3436.000000,4.000000,95.000000,,,,0.000000,4.000000,4.000000,4.000000,4.000000,4.000000,4.000000,4.000000,4.000000,4.000000,4.000000,4.000000,4.000000,4.000000,4.000000,100.000000,,,,,,,,,,,,,,,,
1645707913.635738,1645707913.636876,208.000000,0.000000,4223.333496,4230.128418,4222.692383,4234.615234,4217.051270,4205.897461,4213.333496,4219.102539,4222.051270,4209.743652,4199.871582,4186.025879,4200.641113,4205.384766,3322.000000,4.000000,95.000000,,,,0.000000,4.000000,4.000000,4.000000,4.000000,4.000000,4.000000,4.000000,4.000000,4.000000,4.000000,4.000000,4.000000,4.000000,4.000000,100.000000,,,,,,,,,,,,,,,,
1645707913.639678,1645707913.640815,209.000000,0.000000,4219.615234,4227.948730,4222.179688,4231.282227,4224.102539,4209.487305,4213.846191,4217.820313,4223.974121,4205.384766,4197.563965,4186.922852,4194.871582,4203.205078,3494.000000,4.000000,95.000000,,,,0.000000,4.000000,4.000000,4.000000,4.000000,4.000000,4.000000,4.000000,4.000000,4.000000,4.000000,4.000000,4.000000,4.000000,4.000000,100.000000,,,,,,,,,,,,,,,,
1645707913.643618,1645707913.644753,210.000000,0.000000,4215.384766,4225.000000,4220.769043,4228.589844,4226.025879,4211.922852,4213.974121,4213.589844,4225.384766,4198.077148,4195.256348,4185.256348,4190.256348,4201.282227,2686.000000,4.000000,95.000000,,,,0.000000,4.000000,4.000000,4.000000,4.000000,4.000000,4.000000,4.000000,4.000000,4.000000,4.000000,4.000000,4.000000,4.000000,4.000000,100.000000,,,,,,,,,,,,,,,,
1645707913.647558,1645707913.648692,211.000000,0.000000,4213.461426,4222.179688,4218.974121,4228.333496,4221.922852,4211.410156,4212.307617,4208.461426,4224.871582,4191.410156,4193.461426,4181.410156,4188.589844,4199.358887,3436.000000,4.000000,95.000000,,,,0.000000,4.000000,4.000000,4.000000,4.000000,4.000000,4.000000,4.000000,4.000000,4.000000,4.000000,4.000000,4.000000,4.000000,4.000000,100.000000,,,,,,,,,,,,,,,,
1645707913.651498,1645707913.652631,212.000000,0.000000,4213.846191,4220.512695,4215.897461,4230.769043,4214.871582,4208.333496,4209.743652,4205.000000,4223.205078,4189.871582,4191.794922,4176.922852,4189.743652,4196.666504,3322.000000,4.000000,95.000000,,,,0.000000,4.000000,4.000000,4.000000,4.000000,4.000000,4.000000,4.000000,4.000000,4.000000,4.000000,4.000000,4.000000,4.000000,4.000000,100.000000,,,,,,,,,,,,,,,,
1645707913.655438,1645707913.656669,213.000000,0.000000,4214.615234,4220.256348,4211.538574,4234.743652,4208.846191,4204.487305,4208.717773,4205.128418,4221.410156,4196.025879,4189.615234,4174.230957,4191.922852,4193.205078,3494.000000,4.000000,95.000000,,,,0.000000,4.000000,4.000000,4.000000,4.000000,4.000000,4.000000,4.000000,4.000000,4.000000,4.000000,4.000000,4.000000,4.000000,4.000000,100.000000,,,,,,,,,,,,,,,,
1645707913.659378,1645707913.660608,214.000000,0.000000,4215.128418,4222.179688,4207.179688,4238.077148,4206.538574,4202.948730,4211.922852,4209.230957,4220.512695,4207.692383,4187.692383,4175.769043,4193.077148,4190.512695,2686.000000,4.000000,95.000000,,,,0.000000,4.000000,4.000000,4.000000,4.000000,4.000000,4.000000,4.000000,4.000000,4.000000,4.000000,4.000000,4.000000,4.000000,4.000000,100.000000,,,,,,,,,,,,,,,,
1645707913.663318,1645707913.664547,215.000000,0.000000,4216.410156,4227.051270,4205.512695,4239.102539,4208.461426,4205.769043,4218.974121,4215.769043,4220.641113,4219.230957,4188.205078,4182.563965,4193.717773,4192.307617,3436.000000,4.000000,95.000000,,,,0.000000,4.000000,4.000000,4.000000,4.000000,4.000000,4.000000,4.000000,4.000000,4.000000,4.000000,4.000000,4.000000,4.000000,4.000000,100.000000,,,,,,,,,,,,,,,,
1645707913.667258,1645707913.668485,216.000000,0.000000,4219.871582,4233.717773,4207.948730,4236.922852,4213.205078,4212.820313,4226.025879,4222.436035,4221.666504,4224.358887,4193.333496,4192.307617,4195.641113,4200.641113,3322.000000,4.000000,95.000000,,,,0.000000,4.000000,4.000000,4.000000,4.000000,4.000000,4.000000,4.000000,4.000000,4.000000,4.000000,4.000000,4.000000,4.000000,4.000000,100.000000,,,,,,,,,,,,,,,,
1645707913.671198,1645707913.672424,217.000000,0.000000,4223.717773,4239.102539,4212.820313,4231.282227,4219.230957,4220.512695,4229.358887,4226.282227,4223.077148,4219.871582,4202.051270,4200.641113,4199.615234,4211.666504,3494.000000,4.000000,95.000000,,,,0.000000,4.000000,4.000000,4.000000,4.000000,4.000000,4.000000,4.000000,4.000000,4.000000,4.000000,4.000000,4.000000,4.000000,4.000000,100.000000,,,,,,,,,,,,,,,,
1645707913.675138,1645707913.676363,218.000000,0.000000,4224.230957,4239.615234,4217.051270,4223.461426,4223.974121,4224.102539,4227.692383,4225.769043,4224.230957,4207.820313,4209.743652,4203.589844,4202.948730,4217.436035,2686.000000,4.000000,95.000000,,,,0.000000,4.000000,4.000000,4.000000,4.000000,4.000000,4.000000,4.000000,4.000000,4.000000,4.000000,4.000000,4.000000,4.000000,4.000000,100.000000,,,,,,,,,,,,,,,,
1645707913.679078,1645707913.680301,219.000000,0.000000,4218.846191,4233.717773,4217.179688,4215.769043,4224.487305,4220.769043,4223.077148,4221.922852,4224.871582,4195.128418,4210.384766,4200.000000,4201.794922,4211.922852,3436.000000,4.000000,95.000000,,,,0.000000,4.000000,4.000000,4.000000,4.000000,4.000000,4.000000,4.000000,4.000000,4.000000,4.000000,4.000000,4.000000,4.000000,4.000000,100.000000,,,,,,,,,,,,,,,,
1645707913.683019,1645707913.684240,220.000000,0.000000,4209.358887,4223.846191,4212.051270,4211.922852,4219.230957,4212.692383,4218.589844,4217.692383,4225.512695,4189.615234,4202.436035,4191.922852,4195.769043,4197.051270,3322.000000,4.000000,95.000000,,,,0.000000,4.000000,4.000000,4.000000,4.000000,4.000000,4.000000,4.000000,4.000000,4.000000,4.000000,4.000000,4.000000,4.000000,4.000000,100.000000,,,,,,,,,,,,,,,,
1645707913.686958,1645707913.688179,221.000000,0.000000,4200.384766,4215.000000,4202.948730,4213.974121,4210.000000,4205.512695,4215.897461,4216.153809,4227.051270,4195.384766,4190.641113,4183.846191,4188.717773,4182.436035,3494.000000,4.000000,95.000000,3,1,2,0.000000,4.000000,4.000000,4.000000,4.000000,4.000000,4.000000,4.000000,4.000000,4.000000,4.000000,4.000000,4.000000,4.000000,4.000000,100.000000,,,,,,,,,,,,,,,,
1645707913.690899,1645707913.692117,222.000000,0.000000,4196.922852,4211.282227,4194.102539,4220.256348,4202.820313,4204.358887,4215.384766,4218.205078,4229.487305,4209.871582,4183.461426,4179.615234,4186.794922,4178.333496,2686.000000,4.000000,95.000000,,,,0.000000,4.000000,4.000000,4.000000,4.000000,4.000000,4.000000,4.000000,4.000000,4.000000,4.000000,4.000000,4.000000,4.000000,4.000000,100.000000,,,,,,,,,,,,,,,,
1645707913.694839,1645707913.696056,223.000000,0.000000,4200.128418,4212.692383,4189.871582,4226.666504,4202.948730,4209.358887,4216.282227,4222.692383,4231.666504,4225.000000,4185.512695,4181.025879,4192.692383,4187.563965,3436.000000,4.000000,95.000000,,,,0.000000,4.000000,4.000000,4.000000,4.000000,4.000000,4.000000,4.000000,4.000000,4.000000,4.000000,4.000000,4.000000,4.000000,4.000000,100.000000,,,,,,,,,,,,,,,,
1645707913.698779,1645707913.699995,224.000000,0.000000,4206.538574,4215.256348,4191.666504,4229.230957,4209.487305,4215.641113,4217.692383,4227.436035,4232.051270,4233.461426,4195.000000,4186.410156,4204.230957,4203.589844,3322.000000,4.000000,95.000000,,,,0.000000,4.000000,4.000000,4.000000,4.000000,4.000000,4.000000,4.000000,4.000000,4.000000,4.000000,4.000000,4.000000,4.000000,4.000000,100.000000,,,,,,,,,,,,,,,,
1645707913.702719,1645707913.703933,225.000000,0.000000,4210.897461,4214.743652,4196.538574,4226.666504,4216.538574,4217.948730,4218.333496,4230.128418,4230.256348,4232.692383,4205.641113,4192.563965,4215.897461,4216.025879,3494.000000,4.000000,95.000000,,,,0.000000,4.000000,4.000000,4.000000,4.000000,4.000000,4.000000,4.000000,4.000000,4.000000,4.000000,4.000000,4.000000,4.000000,4.000000,100.000000,,,,,,,,,,,,,,,,
1645707913.706659,1645707913.707872,226.000000,0.000000,4210.769043,4210.641113,4199.871582,4221.410156,4218.974121,4214.615234,4217.948730,4229.358887,4227.307617,4226.922852,4212.051270,4196.538574,4223.205078,4218.974121,2686.000000,4.000000,95.000000,,,,0.000000,4.000000,4.000000,4.000000,4.000000,4.000000,4.000000,4.000000,4.000000,4.000000,4.000000,4.000000,4.000000,4.000000,4.000000,100.000000,,,,,,,,,,,,,,,,
1645707913.710599,1645707913.711811,227.000000,0.000000,4207.563965,4206.025879,4199.615234,4216.794922,4216.282227,4208.974121,4216.538574,4226.025879,4225.256348,4222.307617,4213.461426,4198.461426,4225.256348,4214.743652,3436.000000,4.000000,95.000000,,,,0.000000,4.000000,4.000000,4.000000,4.000000,4.000000,4.000000,4.000000,4.000000,4.000000,4.000000,4.000000,4.000000,4.000000,4.000000,100.000000,,,,,,,,,,,,,,,,
1645707913.714539,1645707913.715749,228.000000,0.000000,4204.871582,4204.615234,4197.436035,4215.641113,4211.794922,4205.256348,4215.384766,4222.179688,4225.384766,4222.692383,4212.563965,4199.743652,4224.358887,4210.256348,3322.000000,4.000000,95.000000,,,,0.000000,4.000000,4.000000,4.000000,4.000000,4.000000,4.000000,4.000000,4.000000,4.000000,4.000000,4.000000,4.000000,4.000000,4.000000,100.000000,1.000000,83.333336,4.000000,4.000000,4.000000,4.000000,3.000000,3.000000,4.000000,4.000000,4.000000,4.000000,4.000000,4.000000,4.000000,4.000000
1645707913.718479,1645707913.719688,229.000000,0.000000,4204.615234,4207.436035,4196.922852,4217.179688,4207.948730,4205.128418,4215.384766,4220.128418,4226.794922,4225.897461,4211.922852,4201.538574,4222.436035,4210.384766,3494.000000,4.000000,95.000000,,,,0.000000,4.000000,4.000000,4.000000,4.000000,4.000000,4.000000,4.000000,4.000000,4.000000,4.000000,4.000000,4.000000,4.000000,4.000000,100.000000,,,,,,,,,,,,,,,,
1645707913.722419,1645707913.723627,230.000000,0.000000,4206.282227,4212.179688,4198.717773,4218.589844,4205.512695,4206.794922,4216.666504,4219.615234,4228.205078,4228.077148,4211.922852,4203.846191,4219.743652,4214.743652,2686.000000,4.000000,95.000000,,,,0.000000,4.000000,4.000000,4.000000,4.000000,4.000000,4.000000,4.000000,4.000000,4.000000,4.000000,4.000000,4.000000,4.000000,4.000000,100.000000,,,,,,,,,,,,,,,,
1645707913.726359,1645707913.727565,231.000000,0.000000,4207.692383,4215.512695,4200.641113,4217.820313,4203.974121,4207.563965,4217.820313,4219.487305,4228.461426,4227.179688,4211.922852,4205.256348,4216.666504,4219.102539,3436.000000,4.000000,95.000000,,,,0.000000,4.000000,4.000000,4.000000,4.000000,4.000000,4.000000,4.000000,4.000000,4.000000,4.000000,4.000000,4.000000,4.000000,4.000000,100.000000,,,,,,,,,,,,,,,,
1645707913.730299,1645707913.731504,232.000000,0.000000,4207.307617,4215.641113,4199.615234,4216.025879,4203.205078,4205.897461,4217.179688,4218.333496,4227.692383,4224.615234,4211.153809,4205.256348,4213.846191,4219.743652,3322.000000,4.000000,95.000000,,,,0.000000,4.000000,4.000000,4.000000,4.000000,4.000000,4.000000,4.000000,4.000000,4.000000,4.000000,4.000000,4.000000,4.000000,4.000000,100.000000,,,,,,,,,,,,,,,,
1645707913.734239,1645707913.735443,233.000000,0.000000,4205.000000,4212.820313,4195.000000,4215.897461,4203.077148,4202.436035,4214.615234,4216.153809,4226.153809,4222.563965,4209.871582,4204.102539,4212.179688,4216.410156,3494.000000,4.000000,95.000000,,,,0.000000,4.000000,4.000000,4.000000,4.000000,4.000000,4.000000,4.000000,4.000000,4.000000,4.000000,4.000000,4.000000,4.000000,4.000000,100.000000,,,,,,,,,,,,,,,,
1645707913.738179,1645707913.739381,234.000000,0.000000,4201.666504,4209.102539,4189.230957,4217.692383,4202.692383,4199.743652,4211.410156,4213.846191,4224.230957,4220.769043,4208.333496,4202.436035,4211.410156,4212.051270,2686.000000,4.000000,95.000000,,,,0.000000,4.000000,4.000000,4.000000,4.000000,4.000000,4.000000,4.000000,4.000000,4.000000,4.000000,4.000000,4.000000,4.000000,4.000000,100.000000,,,,,,,,,,,,,,,,
1645707913.742119,1645707913.743320,235.000000,0.000000,4198.333496,4206.282227,4185.128418,4218.077148,4201.282227,4199.743652,4209.871582,4212.436035,4222.051270,4218.205078,4206.410156,4200.384766,4210.769043,4210.641113,3436.000000,4.000000,95.000000,,,,0.000000,4.000000,4.000000,4.000000,4.000000,4.000000,4.000000,4.000000,4.000000,4.000000,4.000000,4.000000,4.000000,4.000000,4.000000,100.000000,,,,,,,,,,,,,,,,
1645707913.746059,1645707913.747259,236.000000,0.000000,4194.871582,4204.871582,4184.487305,4214.102539,4199.102539,4202.948730,4211.153809,4212.436035,4220.256348,4214.743652,4203.461426,4198.333496,4208.974121,4212.436035,3322.000000,4.000000,95.000000,,,,0.000000,4.000000,4.000000,4.000000,4.000000,4.000000,4.000000,4.000000,4.000000,4.000000,4.000000,4.000000,4.000000,4.000000,4.000000,100.000000,,,,,,,,,,,,,,,,
1645707913.749999,1645707913.751197,237.000000,0.000000,4191.025879,4204.102539,4186.666504,4207.051270,4197.692383,4207.436035,4214.230957,4213.205078,4220.128418,4211.538574,4199.358887,4196.794922,4205.641113,4214.102539,3494.000000,4.000000,95.000000,,,,0.000000,4.000000,4.000000,4.000000,4.000000,4.000000,4.000000,4.000000,4.000000,4.000000,4.000000,4.000000,4.000000,4.000000,4.000000,100.000000,,,,,,,,,,,,,,,,
1645707913.753939,1645707913.755136,238.000000,0.000000,4186.794922,4203.077148,4188.717773,4201.282227,4197.820313,4210.000000,4216.410156,4214.230957,4221.922852,4209.615234,4194.871582,4195.769043,4200.897461,4211.794922,2686.000000,4.000000,95.000000,,,,0.000000,4.000000,4.000000,4.000000,4.000000,4.000000,4.000000,4.000000,4.000000,4.000000,4.000000,4.000000,4.000000,4.000000,4.000000,100.000000,,,,,,,,,,,,,,,,
1645707913.757879,1645707913.759075,239.000000,0.000000,4182.692383,4201.153809,4188.333496,4200.769043,4198.846191,4208.333496,4215.256348,4215.000000,4225.256348,4208.461426,4191.410156,4194.871582,4196.282227,4205.384766,3436.000000,4.000000,95.000000,,,,0.000000,4.000000,4.000000,4.000000,4.000000,4.000000,4.000000,4.000000,4.000000,4.000000,4.000000,4.000000,4.000000,4.000000,4.000000,100.000000,,,,,,,,,,,,,,,,
1645707913.761819,1645707913.763013,240.000000,0.000000,4179.487305,4198.205078,4184.487305,4205.641113,4199.743652,4202.307617,4210.769043,4215.769043,4227.820313,4207.307617,4191.153809,4193.333496,4193.589844,4198.846191,3322.000000,4.000000,95.000000,,,,0.000000,4.000000,4.000000,4.000000,4.000000,4.000000,4.000000,4.000000,4.000000,4.000000,4.000000,4.000000,4.000000,4.000000,4.000000,100.000000,,,,,,,,,,,,,,,,
1645707913.765759,1645707913.766952,241.000000,0.000000,4178.974121,4195.512695,4179.487305,4211.922852,4200.512695,4195.000000,4205.641113,4217.179688,4228.077148,4206.538574,4195.641113,4192.307617,4194.487305,4197.307617,3494.000000,4.000000,95.000000,,,,0.000000,4.000000,4.000000,4.000000,4.000000,4.000000,4.000000,4.000000,4.000000,4.000000,4.000000,4.000000,4.000000,4.000000,4.000000,100.000000,,,,,,,,,,,,,,,,
1645707913.769699,1645707913.770891,242.000000,0.000000,4182.051270,4195.128418,4176.410156,4215.512695,4202.563965,4190.000000,4203.717773,4219.615234,4226.282227,4206.666504,4204.358887,4193.077148,4198.846191,4203.461426,2686.000000,4.000000,95.000000,,,,0.000000,4.000000,4.000000,4.000000,4.000000,4.000000,4.000000,4.000000,4.000000,4.000000,4.000000,4.000000,4.000000,4.000000,4.000000,100.000000,,,,,,,,,,,,,,,,
1645707913.773639,1645707913.774829,243.000000,0.000000,4187.820313,4197.948730,4177.436035,4215.384766,4206.282227,4189.615234,4206.410156,4223.333496,4224.230957,4208.077148,4213.077148,4196.282227,4204.615234,4215.000000,3436.000000,4.000000,95.000000,,,,0.000000,4.000000,4.000000,4.000000,4.000000,4.000000,4.000000,4.000000,4.000000,4.000000,4.000000,4.000000,4.000000,4.000000,4.000000,100.000000,,,,,,,,,,,,,,,,
1645707913.777579,1645707913.778768,244.000000,0.000000,4192.820313,4202.307617,4182.179688,4212.948730,4209.871582,4192.820313,4212.307617,4227.820313,4223.077148,4210.128418,4216.410156,4199.871582,4208.846191,4225.256348,3322.000000,4.000000,95.000000,,,,0.000000,4.000000,4.000000,4.000000,4.000000,4.000000,4.000000,4.000000,4.000000,4.000000,4.000000,4.000000,4.000000,4.000000,4.000000,100.000000,,,,,,,,,,,,,,,,
1645707913.781519,1645707913.782707,245.000000,0.000000,4193.974121,4204.871582,4188.333496,4210.384766,4210.897461,4196.666504,4218.205078,4232.051270,4223.077148,4211.538574,4212.051270,4200.512695,4209.358887,4228.974121,3494.000000,4.000000,95.000000,,,,0.000000,4.000000,4.000000,4.000000,4.000000,4.000000,4.000000,4.000000,4.000000,4.000000,4.000000,4.000000,4.000000,4.000000,4.000000,100.000000,,,,,,,,,,,,,,,,
1645707913.785459,1645707913.786645,246.000000,0.000000,4191.538574,4203.077148,4193.077148,4208.205078,4209.102539,4198.589844,4221.538574,4235.000000,4224.102539,4212.051270,4203.461426,4197.307617,4206.282227,4225.897461,2686.000000,4.000000,95.000000,,,,0.000000,4.000000,4.000000,4.000000,4.000000,4.000000,4.000000,4.000000,4.000000,4.000000,4.000000,4.000000,4.000000,4.000000,4.000000,100.000000,,,,,,,,,,,,,,,,
1645707913.789399,1645707913.790584,247.000000,0.000000,4188.846191,4197.948730,4195.000000,4206.153809,4205.256348,4197.948730,4220.897461,4235.769043,4225.641113,4211.922852,4197.051270,4192.820313,4202.563965,4220.256348,3436.000000,4.000000,95.000000,,,,0.000000,4.000000,4.000000,4.000000,4.000000,4.000000,4.000000,4.000000,4.000000,4.000000,4.000000,4.000000,4.000000,4.000000,4.000000,100.000000,,,,,,,,,,,,,,,,
1645707913.793339,1645707913.794523,248.000000,0.000000,4188.589844,4193.077148,4195.256348,4203.974121,4199.615234,4195.897461,4217.307617,4234.230957,4227.051270,4211.410156,4196.794922,4190.256348,4201.538574,4217.051270,3322.000000,4.000000,95.000000,,,,0.000000,4.000000,4.000000,4.000000,4.000000,4.000000,4.000000,4.000000,4.000000,4.000000,4.000000,4.000000,4.000000,4.000000,4.000000,100.000000,,,,,,,,,,,,,,,,
1645707913.797279,1645707913.798461,249.000000,0.000000,4190.897461,4191.538574,4195.512695,4202.179688,4192.436035,4193.717773,4213.205078,4231.025879,4227.179688,4210.384766,4201.538574,4190.897461,4203.974121,4218.077148,3494.000000,4.000000,95.000000,,,,0.000000,4.000000,4.000000,4.000000,4.000000,4.000000,4.000000,4.000000,4.000000,4.000000,4.000000,4.000000,4.000000,4.000000,4.000000,100.000000,,,,,,,,,,,,,,,,
1645707913.801219,1645707913.802500,250.000000,0.000000,4193.846191,4194.487305,4196.666504,4201.922852,4185.897461,4192.436035,4210.769043,4226.922852,4225.897461,4208.974121,4206.922852,4193.846191,4207.307617,4221.153809,2686.000000,4.000000,95.000000,,,,0.000000,4.000000,4.000000,4.000000,4.000000,4.000000,4.000000,4.000000,4.000000,4.000000,4.000000,4.000000,4.000000,4.000000,4.000000,100.000000,,,,,,,,,,,,,,,,
1645707913.805159,1645707913.806439,251.000000,0.000000,4195.128418,4200.256348,4198.077148,4203.974121,4183.461426,4191.794922,4210.000000,4222.692383,4224.102539,4207.179688,4208.974121,4196.410156,4208.205078,4223.205078,3436.000000,4.000000,95.000000,,,,0.000000,4.000000,4.000000,4.000000,4.000000,4.000000,4.000000,4.000000,4.000000,4.000000,4.000000,4.000000,4.000000,4.000000,4.000000,100.000000,,,,,,,,,,,,,,,,
1645707913.809099,1645707913.810377,252.000000,0.000000,4194.615234,4206.025879,4198.717773,4207.307617,4186.410156,4190.897461,4208.717773,4219.230957,4222.820313,4206.025879,4206.538574,4196.794922,4204.871582,4222.692383,3322.000000,4.000000,95.000000,,,,0.000000,4.000000,4.000000,4.000000,4.000000,4.000000,4.000000,4.000000,4.000000,4.000000,4.000000,4.000000,4.000000,4.000000,4.000000,100.000000,,,,,,,,,,,,,,,,
1645707913.813039,1645707913.814316,253.000000,0.000000,4193.205078,4208.589844,4197.436035,4209.743652,4192.179688,4189.487305,4206.282227,4216.666504,4221.794922,4205.897461,4201.794922,4194.102539,4198.077148,4220.897461,3494.000000,4.000000,95.000000,,,,0.000000,4.000000,4.000000,4.000000,4.000000,4.000000,4.000000,4.000000,4.000000,4.000000,4.000000,4.000000,4.000000,4.000000,4.000000,100.000000,,,,,,,,,,,,,,,,
1645707913.816979,1645707913.818255,254.000000,0.000000,4191.922852,4207.051270,4194.487305,4209.230957,4196.538574,4188.333496,4203.717773,4214.743652,4220.000000,4206.153809,4197.307617,4189.358887,4190.641113,4219.871582,2686.000000,4.000000,95.000000,,,,0.000000,4.000000,4.000000,4.000000,4.000000,4.000000,4.000000,4.000000,4.000000,4.000000,4.000000,4.000000,4.000000,4.000000,4.000000,100.000000,,,,,,,,,,,,,,,,
1645707913.820919,1645707913.822193,255.000000,0.000000,4190.641113,4203.077148,4190.512695,4206.538574,4196.794922,4188.846191,4203.333496,4213.461426,4217.436035,4206.025879,4195.000000,4184.615234,4186.282227,4220.128418,115.000000,4.000000,95.000000,,,,0.000000,4.000000,4.000000,4.000000,4.000000,4.000000,4.000000,4.000000,4.000000,4.000000,4.000000,4.000000,4.000000,4.000000,4.000000,100.000000,,,,,,,,,,,,,,,,
1645707913.824859,1645707913.826132,0.000000,0.000000,4189.487305,4200.128418,4186.794922,4204.871582,4194.743652,4191.538574,4206.410156,4212.820313,4215.641113,4205.641113,4195.256348,4182.179688,4187.436035,4220.897461,3292.000000,4.000000,95.000000,,,,0.000000,4.000000,4.000000,4.000000,4.000000,4.000000,4.000000,4.000000,4.000000,4.000000,4.000000,4.000000,4.000000,4.000000,4.000000,100.000000,,,,,,,,,,,,,,,,
1645707913.828799,1645707913.830071,1.000000,0.000000,4189.102539,4200.897461,4185.000000,4207.563965,4194.743652,4196.282227,4211.153809,4212.948730,4216.410156,4206.025879,4197.179688,4183.205078,4193.333496,4221.153809,3102.000000,4.000000,95.000000,,,,0.000000,4.000000,4.000000,4.000000,4.000000,4.000000,4.000000,4.000000,4.000000,4.000000,4.000000,4.000000,4.000000,4.000000,4.000000,100.000000,,,,,,,,,,,,,,,,
1645707913.832739,1645707913.834009,2.000000,0.000000,4189.871582,4204.487305,4185.256348,4214.358887,4199.743652,4201.794922,4215.000000,4214.102539,4219.743652,4207.948730,4200.128418,4186.666504,4200.769043,4220.897461,3470.000000,4.000000,95.000000,,,,0.000000,4.000000,4.000000,4.000000,4.000000,4.000000,4.000000,4.000000,4.000000,4.000000,4.000000,4.000000,4.000000,4.000000,4.000000,100.000000,,,,,,,,,,,,,,,,
1645707913.836679,1645707913.837948,3.000000,0.000000,4191.666504,4207.436035,4186.922852,4221.410156,4208.846191,4205.641113,4216.153809,4216.153809,4223.333496,4210.512695,4202.820313,4190.000000,4205.384766,4220.769043,3517.000000,4.000000,95.000000,,,,0.000000,4.000000,4.000000,4.000000,4.000000,4.000000,4.000000,4.000000,4.000000,4.000000,4.000000,4.000000,4.000000,4.000000,4.000000,100.000000,,,,,,,,,,,,,,,,
1645707913.840619,1645707913.841887,4.000000,0.000000,4192.692383,4206.794922,4188.205078,4223.974121,4217.051270,4206.282227,4214.358887,4218.077148,4225.256348,4211.025879,4204.615234,4191.153809,4204.743652,4221.282227,3292.000000,4.000000,95.000000,,,,0.000000,4.000000,4.000000,4.000000,4.000000,4.000000,4.000000,4.000000,4.000000,4.000000,4.000000,4.000000,4.000000,4.000000,4.000000,100.000000,,,,,,,,,,,,,,,,
1645707913.844559,1645707913.845825,5.000000,0.000000,4192.436035,4203.333496,4187.820313,4220.384766,4219.615234,4203.717773,4211.538574,4218.333496,4225.256348,4207.179688,4204.871582,4190.128418,4200.128418,4222.692383,3437.000000,4.000000,95.000000,,,,0.000000,4.000000,4.000000,4.000000,4.000000,4.000000,4.000000,4.000000,4.000000,4.000000,4.000000,4.000000,4.000000,4.000000,4.000000,100.000000,,,,,,,,,,,,,,,,
1645707913.848499,1645707913.849764,6.000000,0.000000,4191.025879,4200.769043,4186.282227,4213.205078,4215.384766,4199.871582,4209.358887,4216.666504,4224.230957,4199.743652,4203.461426,4188.589844,4195.128418,4225.000000,2800.000000,4.000000,95.000000,,,,0.000000,4.000000,4.000000,4.000000,4.000000,4.000000,4.000000,4.000000,4.000000,4.000000,4.000000,4.000000,4.000000,4.000000,4.000000,100.000000,,,,,,,,,,,,,,,,
1645707913.852440,1645707913.853703,7.000000,0.000000,4189.871582,4201.538574,4185.000000,4206.794922,4207.563965,4196.282227,4208.589844,4214.871582,4222.563965,4192.820313,4200.384766,4188.333496,4193.461426,4227.563965,2868.000000,4.000000,95.000000,,,,0.000000,4.000000,4.000000,4.000000,4.000000,4.000000,4.000000,4.000000,4.000000,4.000000,4.000000,4.000000,4.000000,4.000000,4.000000,100.000000,,,,,,,,,,,,,,,,
1645707913.856379,1645707913.857642,8.000000,0.000000,4189.615234,4204.358887,4185.128418,4204.230957,4200.512695,4193.205078,4209.102539,4215.128418,4219.871582,4190.897461,4196.538574,4189.358887,4195.128418,4228.846191,1418.000000,4.000000,95.000000,,,,0.000000,4.000000,4.000000,4.000000,4.000000,4.000000,4.000000,4.000000,4.000000,4.000000,4.000000,4.000000,4.000000,4.000000,4.000000,100.000000,,,,,,,,,,,,,,,,
1645707913.860320,1645707913.861580,9.000000,0.000000,4190.897461,4206.282227,4186.666504,4205.897461,4197.948730,4191.410156,4210.769043,4217.948730,4216.410156,4195.256348,4192.820313,4190.384766,4197.436035,4226.922852,3354.000000,4.000000,95.000000,,,,0.000000,4.000000,4.000000,4.000000,4.000000,4.000000,4.000000,4.000000,4.000000,4.000000,4.000000,4.000000,4.000000,4.000000,4.000000,100.000000,,,,,,,,,,,,,,,,
1645707913.864259,1645707913.865519,10.000000,0.000000,4193.333496,4205.769043,4188.077148,4211.410156,4200.897461,4192.563965,4212.948730,4221.410156,4214.230957,4203.461426,4191.025879,4190.256348,4197.436035,4222.820313,2755.000000,4.000000,95.000000,,,,0.000000,4.000000,4.000000,4.000000,4.000000,4.000000,4.000000,4.000000,4.000000,4.000000,4.000000,4.000000,4.000000,4.000000,4.000000,100.000000,,,,,,,,,,,,,,,,
1645707913.868199,1645707913.869458,11.000000,0.000000,4195.769043,4204.230957,4188.077148,4219.358887,4207.436035,4198.077148,4215.128418,4223.333496,4215.512695,4211.282227,4191.922852,4188.846191,4195.256348,4219.871582,3443.000000,4.000000,95.000000,,,,0.000000,4.000000,4.000000,4.000000,4.000000,4.000000,4.000000,4.000000,4.000000,4.000000,4.000000,4.000000,4.000000,4.000000,4.000000,100.000000,,,,,,,,,,,,,,,,
1645707913.872140,1645707913.873396,12.000000,0.000000,4197.051270,4204.358887,4186.666504,4226.794922,4213.205078,4206.025879,4217.179688,4222.692383,4220.256348,4214.871582,4195.256348,4187.179688,4192.948730,4221.025879,3176.000000,4.000000,95.000000,,,,0.000000,4.000000,4.000000,4.000000,4.000000,4.000000,4.000000,4.000000,4.000000,4.000000,4.000000,4.000000,4.000000,4.000000,4.000000,100.000000,,,,,,,,,,,,,,,,
1645707913.876079,1645707913.877335,13.000000,0.000000,4196.794922,4206.922852,4185.000000,4230.512695,4214.487305,4212.051270,4218.846191,4220.641113,4225.897461,4212.820313,4199.102539,4186.410156,4192.307617,4226.410156,3339.000000,4.000000,95.000000,,,,0.000000,4.000000,4.000000,4.000000,4.000000,4.000000,4.000000,4.000000,4.000000,4.000000,4.000000,4.000000,4.000000,4.000000,4.000000,100.000000,,,,,,,,,,,,,,,,
1645707913.880020,1645707913.881274,14.000000,0.000000,4196.153809,4211.282227,4184.487305,4228.461426,4210.897461,4212.692383,4219.487305,4218.846191,4228.974121,4207.051270,4201.025879,4186.922852,4193.589844,4233.461426,2755.000000,4.000000,95.000000,,,,0.000000,4.000000,4.000000,4.000000,4.000000,4.000000,4.000000,4.000000,4.000000,4.000000,4.000000,4.000000,4.000000,4.000000,4.000000,100.000000,,,,,,,,,,,,,,,,
1645707913.883960,1645707913.885212,15.000000,0.000000,4196.794922,4215.512695,4185.769043,4223.077148,4205.384766,4208.205078,4218.589844,4218.461426,4228.077148,4202.051270,4200.256348,4188.205078,4196.282227,4238.589844,3443.000000,4.000000,95.000000,,,,0.000000,4.000000,4.000000,4.000000,4.000000,4.000000,4.000000,4.000000,4.000000,4.000000,4.000000,4.000000,4.000000,4.000000,4.000000,100.000000,,,,,,,,,,,,,,,,
1645707913.887900,1645707913.889151,16.000000,0.000000,4199.230957,4218.461426,4188.846191,4219.615234,4202.051270,4203.077148,4216.282227,4218.974121,4224.230957,4201.666504,4197.948730,4189.615234,4199.743652,4239.615234,3176.000000,4.000000,95.000000,,,,0.000000,4.000000,4.000000,4.000000,4.000000,4.000000,4.000000,4.000000,4.000000,4.000000,4.000000,4.000000,4.000000,4.000000,4.000000,100.000000,,,,,,,,,,,,,,,,
1645707913.891840,1645707913.893090,17.000000,0.000000,4202.692383,4219.358887,4192.820313,4222.436035,4203.974121,4201.538574,4214.230957,4218.846191,4220.128418,4205.769043,4196.282227,4191.025879,4203.077148,4237.307617,3339.000000,4.000000,95.000000,,,,0.000000,4.000000,4.000000,4.000000,4.000000,4.000000,4.000000,4.000000,4.000000,4.000000,4.000000,4.000000,4.000000,4.000000,4.000000,100.000000,,,,,,,,,,,,,,,,
1645707913.895780,1645707913.897028,18.000000,0.000000,4205.769043,4218.846191,4196.666504,4231.153809,4210.128418,4204.102539,4213.717773,4217.563965,4218.333496,4210.897461,4196.282227,4192.692383,4205.000000,4234.102539,2755.000000,4.000000,95.000000,,,,0.000000,4.000000,4.000000,4.000000,4.000000,4.000000,4.000000,4.000000,4.000000,4.000000,4.000000,4.000000,4.000000,4.000000,4.000000,100.000000,,,,,,,,,,,,,,,,
1645707913.899720,1645707913.900967,19.000000,0.000000,4208.589844,4218.333496,4199.743652,4240.384766,4217.179688,4207.948730,4215.384766,4215.897461,4219.615234,4213.461426,4197.563965,4195.256348,4205.384766,4233.461426,3443.000000,4.000000,95.000000,,,,0.000000,4.000000,4.000000,4.000000,4.000000,4.000000,4.000000,4.000000,4.000000,4.000000,4.000000,4.000000,4.000000,4.000000,4.000000,100.000000,,,,,,,,,,,,,,,,
1645707913.903660,1645707913.904906,20.000000,0.000000,4212.051270,4220.128418,4202.436035,4244.743652,4221.282227,4210.000000,4217.948730,4215.641113,4222.820313,4214.230957,4200.128418,4198.974121,4206.282227,4237.436035,3176.000000,4.000000,95.000000,,,,0.000000,4.000000,4.000000,4.000000,4.000000,4.000000,4.000000,4.000000,4.000000,4.000000,4.000000,4.000000,4.000000,4.000000,4.000000,100.000000,,,,,,,,,,,,,,,,
1645707913.907600,1645707913.908844,21.000000,0.000000,4216.538574,4225.128418,4205.000000,4243.333496,4220.897461,4209.487305,4219.487305,4217.436035,4225.128418,4216.153809,4204.487305,4203.461426,4209.487305,4245.769043,3339.000000,4.000000,95.000000,,,,0.000000,4.000000,4.000000,4.000000,4.000000,4.000000,4.000000,4.000000,4.000000,4.000000,4.000000,4.000000,4.000000,4.000000,4.000000,100.000000,,,,,,,,,,,,,,,,
1645707913.911540,1645707913.912783,22.000000,0.000000,4220.384766,4230.769043,4206.922852,4239.871582,4216.922852,4207.051270,4218.717773,4220.897461,4224.102539,4220.256348,4210.128418,4206.794922,4214.230957,4254.871582,2755.000000,4.000000,95.000000,,,,0.000000,4.000000,4.000000,4.000000,4.000000,4.000000,4.000000,4.000000,4.000000,4.000000,4.000000,4.000000,4.000000,4.000000,4.000000,100.000000,,,,,,,,,,,,,,,,
1645707913.915480,1645707913.916722,23.000000,0.000000,4221.282227,4233.589844,4207.307617,4238.974121,4211.922852,4204.615234,4215.897461,4224.358887,4219.871582,4222.820313,4214.743652,4206.794922,4217.692383,4259.358887,3443.000000,4.000000,95.000000,,,,0.000000,4.000000,4.000000,4.000000,4.000000,4.000000,4.000000,4.000000,4.000000,4.000000,4.000000,4.000000,4.000000,4.000000,4.000000,100.000000,,,,,,,,,,,,,,,,
1645707913.919420,1645707913.920660,24.000000,0.000000,4218.717773,4232.307617,4205.512695,4241.538574,4209.615234,4204.230957,4213.461426,4226.794922,4215.769043,4219.871582,4215.897461,4203.205078,4217.179688,4256.410156,3176.000000,4.000000,95.000000,,,,0.000000,4.000000,4.000000,4.000000,4.000000,4.000000,4.000000,4.000000,4.000000,4.000000,4.000000,4.000000,4.000000,4.000000,4.000000,100.000000,,,,,,,,,,,,,,,,
1645707913.923360,1645707913.924599,25.000000,0.000000,4214.615234,4229.358887,4202.563965,4245.128418,4211.922852,4207.307617,4214.230957,4228.333496,4215.897461,4211.794922,4213.333496,4198.589844,4213.333496,4247.820313,3339.000000,4.000000,95.000000,,,,0.000000,4.000000,4.000000,4.000000,4.000000,4.000000,4.000000,4.000000,4.000000,4.000000,4.000000,4.000000,4.000000,4.000000,4.000000,100.000000,,,,,,,,,,,,,,,,
1645707913.927300,1645707913.928538,26.000000,0.000000,4212.563965,4228.717773,4200.128418,4246.282227,4217.307617,4213.461426,4218.461426,4229.487305,4221.538574,4204.102539,4209.871582,4196.666504,4208.717773,4239.615234,2755.000000,4.000000,95.000000,,,,0.000000,4.000000,4.000000,4.000000,4.000000,4.000000,4.000000,4.000000,4.000000,4.000000,4.000000,4.000000,4.000000,4.000000,4.000000,100.000000,,,,,,,,,,,,,,,,
1645707913.931240,1645707913.932476,27.000000,0.000000,4213.717773,4231.794922,4199.615234,4243.974121,4221.922852,4219.615234,4223.717773,4230.384766,4229.871582,4202.948730,4208.333496,4198.974121,4206.282227,4236.410156,3443.000000,4.000000,95.000000,,,,0.000000,4.000000,4.000000,4.000000,4.000000,4.000000,4.000000,4.000000,4.000000,4.000000,4.000000,4.000000,4.000000,4.000000,4.000000,100.000000,,,,,,,,,,,,,,,,
1645707913.935180,1645707913.936415,28.000000,0.000000,4216.410156,4236.410156,4201.153809,4239.358887,4222.948730,4222.307617,4226.794922,4231.025879,4235.769043,4209.871582,4209.615234,4204.102539,4207.307617,4238.974121,3176.000000,4.000000,95.000000,,,,0.000000,4.000000,4.000000,4.000000,4.000000,4.000000,4.000000,4.000000,4.000000,4.000000,4.000000,4.000000,4.000000,4.000000,4.000000,100.000000,,,,,,,,,,,,,,,,
1645707913.939120,1645707913.940354,29.000000,0.000000,4217.563965,4238.461426,4203.461426,4235.512695,4221.666504,4220.128418,4226.025879,4231.922852,4236.794922,4220.769043,4212.051270,4208.461426,4210.897461,4244.102539,3339.000000,4.000000,95.000000,,,,0.000000,4.000000,4.000000,4.000000,4.000000,4.000000,4.000000,4.000000,4.000000,4.000000,4.000000,4.000000,4.000000,4.000000,4.000000,100.000000,,,,,,,,,,,,,,,,
1645707913.943060,1645707913.944292,30.000000,0.000000,4215.384766,4235.256348,4204.743652,4233.846191,4221.025879,4215.641113,4222.820313,4234.358887,4234.487305,4229.487305,4213.717773,4209.743652,4214.743652,4247.563965,2755.000000,4.000000,95.000000,,,,0.000000,4.000000,4.000000,4.000000,4.000000,4.000000,4.000000,4.000000,4.000000,4.000000,4.000000,4.000000,4.000000,4.000000,4.000000,100.000000,,,,,,,,,,,,,,,,
1645707913.947000,1645707913.948231,31.000000,0.000000,4210.641113,4228.205078,4203.589844,4233.717773,4222.563965,4212.563965,4220.000000,4237.948730,4231.666504,4232.436035,4213.077148,4207.436035,4216.538574,4246.794922,3443.000000,4.000000,95.000000,,,,0.000000,4.000000,4.000000,4.000000,4.000000,4.000000,4.000000,4.000000,4.000000,4.000000,4.000000,4.000000,4.000000,4.000000,4.000000,100.000000,,,,,,,,,,,,,,,,
1645707913.950940,1645707913.952270,32.000000,0.000000,4206.025879,4222.179688,4200.256348,4233.717773,4224.487305,4213.077148,4219.615234,4240.897461,4230.512695,4229.615234,4210.256348,4203.461426,4214.743652,4242.948730,0.000000,4.000000,95.000000,,,,0.000000,4.000000,4.000000,4.000000,4.000000,4.000000,4.000000,4.000000,4.000000,4.000000,4.000000,4.000000,4.000000,4.000000,4.000000,100.000000,,,,,,,,,,,,,,,,
1645707913.954880,1645707913.956208,33.000000,0.000000,4203.974121,4221.794922,4196.794922,4234.615234,4223.974121,4216.282227,4221.794922,4241.794922,4230.769043,4224.743652,4206.282227,4200.256348,4210.512695,4238.974121,0.000000,4.000000,95.000000,,,,0.000000,4.000000,4.000000,4.000000,4.000000,4.000000,4.000000,4.000000,4.000000,4.000000,4.000000,4.000000,4.000000,4.000000,4.000000,100.000000,,,,,,,,,,,,,,,,
1645707913.958820,1645707913.960147,34.000000,0.000000,4205.256348,4228.589844,4195.512695,4239.102539,4221.538574,4219.487305,4225.641113,4241.538574,4231.794922,4222.436035,4203.461426,4199.743652,4207.051270,4237.820313,0.000000,4.000000,95.000000,,,,0.000000,4.000000,4.000000,4.000000,4.000000,4.000000,4.000000,4.000000,4.000000,4.000000,4.000000,4.000000,4.000000,4.000000,4.000000,100.000000,,,,,,,,,,,,,,,,
1645707913.962760,1645707913.964086,35.000000,0.000000,4207.948730,4238.333496,4196.666504,4246.538574,4220.384766,4221.153809,4230.128418,4242.692383,4233.077148,4225.256348,4204.358887,4202.307617,4207.692383,4240.769043,0.000000,4.000000,95.000000,,,,0.000000,4.000000,4.000000,4.000000,4.000000,4.000000,4.000000,4.000000,4.000000,4.000000,4.000000,4.000000,4.000000,4.000000,4.000000,100.000000,,,,,,,,,,,,,,,,
1645707913.966700,1645707913.968024,36.000000,0.000000,4209.358887,4244.102539,4198.461426,4252.563965,4222.820313,4221.538574,4233.846191,4246.025879,4234.230957,4231.794922,4209.615234,4206.282227,4212.692383,4245.897461,0.000000,4.000000,95.000000,,,,0.000000,4.000000,4.000000,4.000000,4.000000,4.000000,4.000000,4.000000,4.000000,4.000000,4.000000,4.000000,4.000000,4.000000,4.000000,100.000000,,,,,,,,,,,,,,,,
1645707913.970640,1645707913.971963,37.000000,0.000000,4207.948730,4240.769043,4198.846191,4252.179688,4227.307617,4221.282227,4235.384766,4249.358887,4234.487305,4236.410156,4216.410156,4208.205078,4218.846191,4249.743652,0.000000,4.000000,95.000000,,,,0.000000,4.000000,4.000000,4.000000,4.000000,4.000000,4.000000,4.000000,4.000000,4.000000,4.000000,4.000000,4.000000,4.000000,4.000000,100.000000,,,,,,,,,,,,,,,,
1645707913.974580,1645707913.975902,38.000000,0.000000,4203.974121,4228.846191,4197.436035,4244.358887,4229.230957,4220.769043,4234.615234,4248.717773,4233.461426,4233.717773,4220.000000,4206.025879,4221.666504,4248.974121,0.000000,4.000000,95.000000,,,,0.000000,4.000000,4.000000,4.000000,4.000000,4.000000,4.000000,4.000000,4.000000,4.000000,4.000000,4.000000,4.000000,4.000000,4.000000,100.000000,,,,,,,,,,,,,,,,
1645707913.978520,1645707913.979840,39.000000,0.000000,4199.615234,4215.256348,4195.641113,4234.358887,4225.256348,4220.000000,4232.820313,4242.948730,4231.282227,4223.846191,4217.820313,4200.897461,4219.487305,4243.846191,0.000000,4.000000,95.000000,,,,0.000000,4.000000,4.000000,4.000000,4.000000,4.000000,4.000000,4.000000,4.000000,4.000000,4.000000,4.000000,4.000000,4.000000,4.000000,100.000000,,,,,,,,,,,,,,,,
1645707913.982460,1645707913.983779,40.000000,0.000000,4197.948730,4209.230957,4195.512695,4229.358887,4217.179688,4218.974121,4232.051270,4235.641113,4229.230957,4212.692383,4212.179688,4196.538574,4214.487305,4237.948730,0.000000,4.000000,95.000000,,,,0.000000,4.000000,4.000000,4.000000,4.000000,4.000000,4.000000,4.000000,4.000000,4.000000,4.000000,4.000000,4.000000,4.000000,4.000000,100.000000,,,,,,,,,,,,,,,,
1645707913.986400,1645707913.987718,41.000000,0.000000,4200.769043,4215.000000,4197.179688,4232.820313,4210.897461,4217.820313,4232.948730,4231.538574,4228.717773,4208.077148,4207.820313,4196.410156,4211.025879,4235.512695,0.000000,4.000000,95.000000,,,,0.000000,4.000000,4.000000,4.000000,4.000000,4.000000,4.000000,4.000000,4.000000,4.000000,4.000000,4.000000,4.000000,4.000000,4.000000,100.000000,,,,,,,,,,,,,,,,
1645707913.990340,1645707913.991656,42.000000,0.000000,4207.436035,4229.102539,4199.487305,4241.666504,4211.410156,4217.692383,4234.871582,4233.846191,4230.128418,4213.205078,4208.077148,4200.384766,4211.922852,4238.333496,0.000000,4.000000,95.000000,,,,0.000000,4.000000,4.000000,4.000000,4.000000,4.000000,4.000000,4.000000,4.000000,4.000000,4.000000,4.000000,4.000000,4.000000,4.000000,100.000000,,,,,,,,,,,,,,,,
1645707913.994280,1645707913.995595,43.000000,0.000000,4214.487305,4242.307617,4201.025879,4248.461426,4218.974121,4219.615234,4236.410156,4241.025879,4232.179688,4224.230957,4211.922852,4205.641113,4216.410156,4243.717773,0.000000,4.000000,95.000000,,,,0.000000,4.000000,4.000000,4.000000,4.000000,4.000000,4.000000,4.000000,4.000000,4.000000,4.000000,4.000000,4.000000,4.000000,4.000000,100.000000,,,,,,,,,,,,,,,,
1645707913.998220,1645707913.999534,44.000000,0.000000,4217.436035,4245.384766,4201.410156,4247.948730,4227.820313,4223.205078,4237.179688,4248.205078,4233.205078,4233.077148,4215.641113,4208.333496,4221.282227,4247.179688,0.000000,4.000000,95.000000,,,,0.000000,4.000000,4.000000,4.000000,4.000000,4.000000,4.000000,4.000000,4.000000,4.000000,4.000000,4.000000,4.000000,4.000000,4.000000,100.000000,,,,,,,,,,,,,,,,
1645707914.002160,1645707914.003472,45.000000,0.000000,4214.230957,4236.410156,4201.153809,4241.922852,4231.794922,4226.794922,4237.563965,4250.512695,4232.436035,4234.358887,4216.410156,4206.666504,4223.461426,4246.666504,0.000000,4.000000,95.000000,,,,0.000000,4.000000,4.000000,4.000000,4.000000,4.000000,4.000000,4.000000,4.000000,4.000000,4.000000,4.000000,4.000000,4.000000,4.000000,100.000000,,,,,,,,,,,,,,,,
1645707914.006100,1645707914.007411,46.000000,0.000000,4207.307617,4222.307617,4200.641113,4236.282227,4229.487305,4228.589844,4237.436035,4246.666504,4230.769043,4229.615234,4214.743652,4202.051270,4222.051270,4242.948730,0.000000,4.000000,95.000000,,,,0.000000,4.000000,4.000000,4.000000,4.000000,4.000000,4.000000,4.000000,4.000000,4.000000,4.000000,4.000000,4.000000,4.000000,4.000000,100.000000,,,,,,,,,,,,,,,,
1645707914.010040,1645707914.011350,47.000000,0.000000,4202.179688,4214.102539,4200.384766,4235.256348,4224.743652,4227.948730,4236.153809,4239.487305,4229.743652,4225.000000,4213.717773,4197.948730,4219.230957,4239.358887,0.000000,4.000000,95.000000,,,,0.000000,4.000000,4.000000,4.000000,4.000000,4.000000,4.000000,4.000000,4.000000,4.000000,4.000000,4.000000,4.000000,4.000000,4.000000,100.000000,,,,,,,,,,,,,,,,
1645707914.013980,1645707914.015288,48.000000,0.000000,4203.461426,4218.077148,4200.897461,4238.333496,4222.563965,4225.512695,4233.205078,4233.589844,4230.769043,4225.641113,4216.410156,4197.563965,4217.820313,4238.077148,0.000000,4.000000,95.000000,,,,0.000000,4.000000,4.000000,4.000000,4.000000,4.000000,4.000000,4.000000,4.000000,4.000000,4.000000,4.000000,4.000000,4.000000,4.000000,100.000000,,,,,,,,,,,,,,,,
1645707914.017920,1645707914.019227,49.000000,0.000000,4211.282227,4231.410156,4202.820313,4241.666504,4224.615234,4222.436035,4229.102539,4231.794922,4232.820313,4230.897461,4222.179688,4201.410156,4218.974121,4239.102539,0.000000,4.000000,95.000000,,,,0.000000,4.000000,4.000000,4.000000,4.000000,4.000000,4.000000,4.000000,4.000000,4.000000,4.000000,4.000000,4.000000,4.000000,4.000000,100.000000,,,,,,,,,,,,,,,,
1645707914.021860,1645707914.023166,50.000000,0.000000,4221.282227,4244.230957,4206.153809,4243.077148,4228.846191,4218.974121,4225.769043,4234.102539,4234.230957,4235.512695,4227.563965,4207.563965,4222.307617,4241.282227,0.000000,4.000000,95.000000,,,,0.000000,4.000000,4.000000,4.000000,4.000000,4.000000,4.000000,4.000000,4.000000,4.000000,4.000000,4.000000,4.000000,4.000000,4.000000,100.000000,,,,,,,,,,,,,,,,
1645707914.025800,1645707914.027204,51.000000,0.000000,4227.948730,4248.333496,4210.128418,4242.563965,4232.307617,4215.897461,4224.358887,4237.051270,4233.589844,4235.512695,4228.846191,4212.692383,4226.153809,4243.461426,0.000000,4.000000,95.000000,,,,0.000000,4.000000,4.000000,4.000000,4.000000,4.000000,4.000000,4.000000,4.000000,4.000000,4.000000,4.000000,4.000000,4.000000,4.000000,100.000000,,,,,,,,,,,,,,,,
1645707914.029740,1645707914.031143,52.000000,0.000000,4228.461426,4242.948730,4213.333496,4241.922852,4232.051270,4213.974121,4224.871582,4237.436035,4231.538574,4231.538574,4226.025879,4215.128418,4229.487305,4245.769043,0.000000,4.000000,95.000000,,,,0.000000,4.000000,4.000000,4.000000,4.000000,4.000000,4.000000,4.000000,4.000000,4.000000,4.000000,4.000000,4.000000,4.000000,4.000000,100.000000,,,,,,,,,,,,,,,,
1645707914.033680,1645707914.035082,53.000000,0.000000,4224.487305,4234.743652,4215.128418,4242.307617,4227.307617,4213.333496,4225.897461,4235.128418,4230.256348,4229.358887,4221.922852,4215.512695,4231.922852,4248.974121,0.000000,4.000000,95.000000,,,,0.000000,4.000000,4.000000,4.000000,4.000000,4.000000,4.000000,4.000000,4.000000,4.000000,4.000000,4.000000,4.000000,4.000000,4.000000,100.000000,,,,,,,,,,,,,,,,
1645707914.037620,1645707914.039020,54.000000,0.000000,4220.897461,4231.025879,4216.153809,4243.461426,4218.717773,4213.846191,4226.666504,4232.179688,4230.641113,4233.205078,4220.128418,4215.641113,4233.333496,4252.820313,0.000000,4.000000,95.000000,,,,0.000000,4.000000,4.000000,4.000000,4.000000,4.000000,4.000000,4.000000,4.000000,4.000000,4.000000,4.000000,4.000000,4.000000,4.000000,100.000000,,,,,,,,,,,,,,,,
1645707914.041561,1645707914.043059,55.000000,0.000000,4221.666504,4233.974121,4216.922852,4245.000000,4210.000000,4214.230957,4227.051270,4230.384766,4231.666504,4242.307617,4221.794922,4215.897461,4233.717773,4256.025879,0.000000,4.000000,95.000000,,,,0.000000,4.000000,4.000000,4.000000,4.000000,4.000000,4.000000,4.000000,4.000000,4.000000,4.000000,4.000000,4.000000,4.000000,4.000000,100.000000,,,,,,,,,,,,,,,,
1645707914.045500,1645707914.046998,56.000000,0.000000,4226.538574,4239.871582,4217.436035,4246.410156,4206.153809,4213.846191,4226.666504,4229.871582,4231.282227,4250.512695,4223.974121,4215.512695,4233.077148,4256.794922,0.000000,4.000000,95.000000,,,,0.000000,4.000000,4.000000,4.000000,4.000000,4.000000,4.000000,4.000000,4.000000,4.000000,4.000000,4.000000,4.000000,4.000000,4.000000,100.000000,,,,,,,,,,,,,,,,
1645707914.049441,1645707914.050936,57.000000,0.000000,4231.922852,4243.205078,4217.179688,4246.922852,4210.512695,4212.820313,4225.000000,4228.717773,4228.333496,4252.051270,4222.820313,4213.077148,4231.410156,4253.589844,0.000000,4.000000,95.000000,,,,0.000000,4.000000,4.000000,4.000000,4.000000,4.000000,4.000000,4.000000,4.000000,4.000000,4.000000,4.000000,4.000000,4.000000,4.000000,100.000000,,,,,,,,,,,,,,,,
1645707914.053381,1645707914.054875,58.000000,0.000000,4232.820313,4241.025879,4215.769043,4244.615234,4222.051270,4211.794922,4222.692383,4225.897461,4223.589844,4245.769043,4216.153809,4208.717773,4228.589844,4246.922852,0.000000,4.000000,95.000000,,,,0.000000,4.000000,4.000000,4.000000,4.000000,4.000000,4.000000,4.000000,4.000000,4.000000,4.000000,4.000000,4.000000,4.000000,4.000000,100.000000,,,,,,,,,,,,,,,,
1645707914.057320,1645707914.058814,59.000000,0.000000,4227.179688,4234.871582,4212.948730,4238.333496,4234.102539,4211.538574,4220.512695,4221.538574,4219.102539,4235.384766,4206.025879,4203.461426,4224.230957,4239.102539,0.000000,4.000000,95.000000,,,,0.000000,4.000000,4.000000,4.000000,4.000000,4.000000,4.000000,4.000000,4.000000,4.000000,4.000000,4.000000,4.000000,4.000000,4.000000,100.000000,,,,,,,,,,,,,,,,
1645707914.061261,1645707914.062652,60.000000,0.000000,4217.563965,4228.974121,4209.358887,4231.282227,4239.487305,4212.179688,4219.743652,4217.179688,4216.666504,4225.769043,4196.794922,4198.717773,4218.717773,4232.692383,0.000000,4.000000,95.000000,,,,0.000000,4.000000,4.000000,4.000000,4.000000,4.000000,4.000000,4.000000,4.000000,4.000000,4.000000,4.000000,4.000000,4.000000,4.000000,100.000000,,,,,,,,,,,,,,,,
1645707914.065201,1645707914.066591,61.000000,0.000000,4208.846191,4226.282227,4205.512695,4228.333496,4234.487305,4213.205078,4220.128418,4214.102539,4216.282227,4219.743652,4192.179688,4195.256348,4213.589844,4228.974121,0.000000,4.000000,95.000000,,,,0.000000,4.000000,4.000000,4.000000,4.000000,4.000000,4.000000,4.000000,4.000000,4.000000,4.000000,4.000000,4.000000,4.000000,4.000000,100.000000,,,,,,,,,,,,,,,,
1645707914.069141,1645707914.070530,62.000000,0.000000,4204.358887,4226.410156,4202.179688,4231.410156,4222.820313,4214.230957,4221.025879,4213.205078,4217.051270,4217.307617,4192.563965,4192.307617,4210.512695,4227.051270,0.000000,4.000000,95.000000,,,,0.000000,4.000000,4.000000,4.000000,4.000000,4.000000,4.000000,4.000000,4.000000,4.000000,4.000000,4.000000,4.000000,4.000000,4.000000,100.000000,,,,,,,,,,,,,,,,
1645707914.073081,1645707914.074468,63.000000,0.000000,4203.974121,4225.641113,4200.384766,4236.025879,4211.666504,4214.615234,4221.410156,4213.717773,4217.563965,4216.025879,4194.743652,4189.487305,4209.487305,4225.128418,0.000000,4.000000,95.000000,,,,0.000000,4.000000,4.000000,4.000000,4.000000,4.000000,4.000000,4.000000,4.000000,4.000000,4.000000,4.000000,4.000000,4.000000,4.000000,100.000000,,,,,,,,,,,,,,,,
1645707914.077021,1645707914.078407,64.000000,0.000000,4204.230957,4220.769043,4200.641113,4235.512695,4206.922852,4214.102539,4220.512695,4214.615234,4217.179688,4213.461426,4194.615234,4186.538574,4208.205078,4221.282227,0.000000,4.000000,95.000000,,,,0.000000,4.000000,4.000000,4.000000,4.000000,4.000000,4.000000,4.000000,4.000000,4.000000,4.000000,4.000000,4.000000,4.000000,4.000000,100.000000,,,,,,,,,,,,,,,,
1645707914.080961,1645707914.082346,65.000000,0.000000,4201.666504,4213.205078,4202.179688,4227.563965,4208.717773,4212.563965,4219.358887,4215.128418,4216.538574,4209.358887,4190.641113,4183.461426,4204.358887,4215.384766,0.000000,4.000000,95.000000,,,,0.000000,4.000000,4.000000,4.000000,4.000000,4.000000,4.000000,4.000000,4.000000,4.000000,4.000000,4.000000,4.000000,4.000000,4.000000,100.000000,,,,,,,,,,,,,,,,
1645707914.084901,1645707914.086284,66.000000,0.000000,4196.794922,4207.820313,4202.820313,4217.436035,4213.589844,4210.897461,4218.846191,4215.256348,4216.538574,4206.538574,4185.128418,4181.282227,4198.717773,4209.487305,0.000000,4.000000,95.000000,,,,0.000000,4.000000,4.000000,4.000000,4.000000,4.000000,4.000000,4.000000,4.000000,4.000000,4.000000,4.000000,4.000000,4.000000,4.000000,100.000000,,,,,,,,,,,,,,,,
1645707914.088841,1645707914.090223,67.000000,0.000000,4193.205078,4209.487305,4201.282227,4213.974121,4218.205078,4210.769043,4219.615234,4215.769043,4217.692383,4207.692383,4182.948730,4180.897461,4195.128418,4206.794922,0.000000,4.000000,95.000000,,,,0.000000,4.000000,4.000000,4.000000,4.000000,4.000000,4.000000,4.000000,4.000000,4.000000,4.000000,4.000000,4.000000,4.000000,4.000000,100.000000,,,,,,,,,,,,,,,,
1645707914.092781,1645707914.094162,68.000000,0.000000,4194.358887,4217.820313,4197.948730,4222.051270,4221.794922,4212.436035,4221.794922,4217.948730,4219.743652,4212.307617,4187.051270,4182.820313,4197.307617,4208.974121,0.000000,4.000000,95.000000,,,,0.000000,4.000000,4.000000,4.000000,4.000000,4.000000,4.000000,4.000000,4.000000,4.000000,4.000000,4.000000,4.000000,4.000000,4.000000,100.000000,,,,,,,,,,,,,,,,
1645707914.096721,1645707914.098100,69.000000,0.000000,4200.384766,4227.948730,4195.128418,4237.820313,4225.000000,4215.512695,4224.615234,4221.794922,4221.282227,4216.922852,4196.025879,4186.153809,4205.000000,4214.102539,0.000000,4.000000,95.000000,,,,0.000000,4.000000,4.000000,4.000000,4.000000,4.000000,4.000000,4.000000,4.000000,4.000000,4.000000,4.000000,4.000000,4.000000,4.000000,100.000000,,,,,,,,,,,,,,,,
1645707914.100661,1645707914.102039,70.000000,0.000000,4207.948730,4233.461426,4194.871582,4250.897461,4227.820313,4218.846191,4227.051270,4225.769043,4221.410156,4216.922852,4204.743652,4189.230957,4213.333496,4218.077148,0.000000,4.000000,95.000000,,,,0.000000,4.000000,4.000000,4.000000,4.000000,4.000000,4.000000,4.000000,4.000000,4.000000,4.000000,4.000000,4.000000,4.000000,4.000000,100.000000,,,,,,,,,,,,,,,,
1645707914.104601,1645707914.105978,71.000000,0.000000,4212.563965,4232.179688,4196.410156,4252.563965,4227.563965,4221.282227,4227.692383,4226.538574,4220.000000,4211.666504,4207.948730,4189.615234,4217.051270,4217.948730,0.000000,4.000000,95.000000,,,,0.000000,4.000000,4.000000,4.000000,4.000000,4.000000,4.000000,4.000000,4.000000,4.000000,4.000000,4.000000,4.000000,4.000000,4.000000,100.000000,,,,,,,,,,,,,,,,
1645707914.108541,1645707914.109916,72.000000,0.000000,4212.051270,4226.922852,4197.563965,4242.307617,4222.692383,4222.307617,4225.256348,4222.563965,4218.461426,4204.230957,4204.487305,4186.538574,4214.358887,4213.717773,0.000000,4.000000,95.000000,,,,0.000000,4.000000,4.000000,4.000000,4.000000,4.000000,4.000000,4.000000,4.000000,4.000000,4.000000,4.000000,4.000000,4.000000,4.000000,100.000000,,,,,,,,,,,,,,,,
1645707914.112481,1645707914.113855,73.000000,0.000000,4207.563965,4222.307617,4196.025879,4226.794922,4215.128418,4220.897461,4220.512695,4216.153809,4218.077148,4199.102539,4196.666504,4181.153809,4207.820313,4208.205078,0.000000,4.000000,95.000000,,,,0.000000,4.000000,4.000000,4.000000,4.000000,4.000000,4.000000,4.000000,4.000000,4.000000,4.000000,4.000000,4.000000,4.000000,4.000000,100.000000,,,,,,,,,,,,,,,,
1645707914.116421,1645707914.117794,74.000000,0.000000,4202.563965,4221.153809,4191.538574,4214.487305,4209.615234,4217.563965,4216.666504,4211.922852,4218.846191,4198.589844,4188.717773,4175.769043,4202.563965,4204.358887,0.000000,4.000000,95.000000,,,,0.000000,4.000000,4.000000,4.000000,4.000000,4.000000,4.000000,4.000000,4.000000,4.000000,4.000000,4.000000,4.000000,4.000000,4.000000,100.000000,,,,,,,,,,,,,,,,
1645707914.120361,1645707914.121633,75.000000,0.000000,4200.000000,4223.461426,4187.179688,4209.358887,4210.128418,4213.846191,4216.025879,4213.461426,4219.358887,4202.179688,4184.871582,4173.333496,4202.179688,4204.230957,0.000000,4.000000,95.000000,,,,0.000000,4.000000,4.000000,4.000000,4.000000,4.000000,4.000000,4.000000,4.000000,4.000000,4.000000,4.000000,4.000000,4.000000,4.000000,100.000000,,,,,,,,,,,,,,,,
1645707914.124301,1645707914.125571,76.000000,0.000000,4200.641113,4227.179688,4185.897461,4210.512695,4216.410156,4212.051270,4218.589844,4220.256348,4218.333496,4207.692383,4187.563965,4175.128418,4206.666504,4208.333496,0.000000,4.000000,95.000000,,,,0.000000,4.000000,4.000000,4.000000,4.000000,4.000000,4.000000,4.000000,4.000000,4.000000,4.000000,4.000000,4.000000,4.000000,4.000000,100.000000,,,,,,,,,,,,,,,,
1645707914.128241,1645707914.129510,77.000000,0.000000,4203.461426,4230.641113,4188.461426,4215.641113,4224.743652,4212.948730,4221.282227,4228.717773,4216.794922,4213.974121,4196.538574,4180.384766,4213.461426,4215.512695,0.000000,4.000000,95.000000,,,,0.000000,4.000000,4.000000,4.000000,4.000000,4.000000,4.000000,4.000000,4.000000,4.000000,4.000000,4.000000,4.000000,4.000000,4.000000,100.000000,,,,,,,,,,,,,,,,
1645707914.132181,1645707914.133449,78.000000,0.000000,4206.538574,4232.820313,4193.846191,4223.205078,4230.897461,4215.256348,4221.410156,4234.743652,4217.307617,4220.256348,4207.692383,4186.794922,4219.230957,4223.205078,0.000000,4.000000,95.000000,,,,0.000000,4.000000,4.000000,4.000000,4.000000,4.000000,4.000000,4.000000,4.000000,4.000000,4.000000,4.000000,4.000000,4.000000,4.000000,100.000000,,,,,,,,,,,,,,,,
1645707914.136121,1645707914.137387,79.000000,0.000000,4208.846191,4233.717773,4199.615234,4231.666504,4231.666504,4216.794922,4219.230957,4237.051270,4221.666504,4225.512695,4215.641113,4191.410156,4221.922852,4227.948730,0.000000,4.000000,95.000000,,,,0.000000,4.000000,4.000000,4.000000,4.000000,4.000000,4.000000,4.000000,4.000000,4.000000,4.000000,4.000000,4.000000,4.000000,4.000000,100.000000,,,,,,,,,,,,,,,,
1645707914.140061,1645707914.141326,80.000000,0.000000,4210.512695,4233.333496,4204.102539,4238.717773,4226.794922,4216.153809,4217.179688,4236.153809,4227.820313,4228.461426,4216.794922,4192.820313,4221.153809,4227.563965,0.000000,4.000000,95.000000,,,,0.000000,4.000000,4.000000,4.000000,4.000000,4.000000,4.000000,4.000000,4.000000,4.000000,4.000000,4.000000,4.000000,4.000000,4.000000,100.000000,,,,,,,,,,,,,,,,
1645707914.144001,1645707914.145265,81.000000,0.000000,4212.436035,4232.051270,4206.666504,4241.410156,4219.358887,4214.230957,4217.820313,4234.230957,4231.922852,4228.077148,4211.922852,4192.563965,4218.077148,4222.051270,0.000000,4.000000,95.000000,,,,0.000000,4.000000,4.000000,4.000000,4.000000,4.000000,4.000000,4.000000,4.000000,4.000000,4.000000,4.000000,4.000000,4.000000,4.000000,100.000000,,,,,,,,,,,,,,,,
1645707914.147941,1645707914.149203,82.000000,0.000000,4215.128418,4230.256348,4207.692383,4239.102539,4214.230957,4212.820313,4220.256348,4232.436035,4231.025879,4225.000000,4205.641113,4192.436035,4213.974121,4215.128418,0.000000,4.000000,95.000000,,,,0.000000,4.000000,4.000000,4.000000,4.000000,4.000000,4.000000,4.000000,4.000000,4.000000,4.000000,4.000000,4.000000,4.000000,4.000000,100.000000,,,,,,,,,,,,,,,,
1645707914.151881,1645707914.153142,83.000000,0.000000,4217.307617,4228.846191,4207.948730,4234.102539,4215.128418,4213.077148,4222.436035,4231.153809,4226.153809,4220.128418,4201.538574,4193.333496,4209.743652,4210.512695,0.000000,4.000000,95.000000,,,,0.000000,4.000000,4.000000,4.000000,4.000000,4.000000,4.000000,4.000000,4.000000,4.000000,4.000000,4.000000,4.000000,4.000000,4.000000,100.000000,,,,,,,,,,,,,,,,
1645707914.155821,1645707914.157081,84.000000,0.000000,4216.794922,4229.230957,4207.051270,4229.358887,4221.666504,4213.589844,4222.692383,4230.512695,4221.153809,4214.487305,4199.102539,4193.077148,4205.897461,4208.717773,0.000000,4.000000,95.000000,,,,0.000000,4.000000,4.000000,4.000000,4.000000,4.000000,4.000000,4.000000,4.000000,4.000000,4.000000,4.000000,4.000000,4.000000,4.000000,100.000000,,,,,,,,,,,,,,,,
1645707914.159761,1645707914.161019,85.000000,0.000000,4213.077148,4231.282227,4204.487305,4225.769043,4230.000000,4213.077148,4221.922852,4230.769043,4219.230957,4209.102539,4195.769043,4189.615234,4203.077148,4208.205078,0.000000,4.000000,95.000000,,,,0.000000,4.000000,4.000000,4.000000,4.000000,4.000000,4.000000,4.000000,4.000000,4.000000,4.000000,4.000000,4.000000,4.000000,4.000000,100.000000,,,,,,,,,,,,,,,,
1645707914.163701,1645707914.164958,86.000000,0.000000,4208.589844,4234.743652,4201.410156,4223.461426,4236.666504,4211.794922,4221.666504,4231.666504,4220.897461,4205.769043,4191.410156,4184.230957,4202.948730,4207.051270,0.000000,4.000000,95.000000,,,,0.000000,4.000000,4.000000,4.000000,4.000000,4.000000,4.000000,4.000000,4.000000,4.000000,4.000000,4.000000,4.000000,4.000000,4.000000,100.000000,,,,,,,,,,,,,,,,
1645707914.167641,1645707914.168897,87.000000,0.000000,4207.692383,4238.717773,4199.871582,4222.948730,4240.641113,4211.538574,4222.820313,4232.820313,4223.974121,4207.051270,4189.102539,4181.410156,4206.538574,4206.025879,0.000000,4.000000,95.000000,,,,0.000000,4.000000,4.000000,4.000000,4.000000,4.000000,4.000000,4.000000,4.000000,4.000000,4.000000,4.000000,4.000000,4.000000,4.000000,100.000000,,,,,,,,,,,,,,,,
1645707914.171581,1645707914.172835,88.000000,0.000000,4211.794922,4241.794922,4201.410156,4225.769043,4241.794922,4213.205078,4224.743652,4233.205078,4225.769043,4213.333496,4191.922852,4185.000000,4213.077148,4207.179688,0.000000,4.000000,95.000000,,,,0.000000,4.000000,4.000000,4.000000,4.000000,4.000000,4.000000,4.000000,4.000000,4.000000,4.000000,4.000000,4.000000,4.000000,4.000000,100.000000,,,,,,,,,,,,,,,,
1645707914.175521,1645707914.176774,89.000000,0.000000,4218.077148,4242.051270,4204.743652,4232.051270,4239.487305,4215.641113,4225.897461,4232.051270,4224.743652,4221.538574,4198.717773,4193.333496,4219.102539,4210.256348,0.000000,4.000000,95.000000,,,,0.000000,4.000000,4.000000,4.000000,4.000000,4.000000,4.000000,4.000000,4.000000,4.000000,4.000000,4.000000,4.000000,4.000000,4.000000,100.000000,,,,,,,,,,,,,,,,
1645707914.179461,1645707914.180713,90.000000,0.000000,4220.769043,4238.205078,4206.025879,4239.230957,4233.205078,4216.025879,4225.000000,4228.077148,4220.897461,4226.025879,4204.743652,4200.000000,4221.410156,4212.563965,0.000000,4.000000,95.000000,,,,0.000000,4.000000,4.000000,4.000000,4.000000,4.000000,4.000000,4.000000,4.000000,4.000000,4.000000,4.000000,4.000000,4.000000,4.000000,100.000000,,,,,,,,,,,,,,,,
1645707914.183401,1645707914.184651,91.000000,0.000000,4217.051270,4230.769043,4202.563965,4243.717773,4224.615234,4213.205078,4222.307617,4221.538574,4216.538574,4223.589844,4205.000000,4198.846191,4218.589844,4211.538574,0.000000,4.000000,95.000000,,,,0.000000,4.000000,4.000000,4.000000,4.000000,4.000000,4.000000,4.000000,4.000000,4.000000,4.000000,4.000000,4.000000,4.000000,4.000000,100.000000,,,,,,,,,,,,,,,,
1645707914.187341,1645707914.188590,92.000000,0.000000,4208.717773,4222.692383,4195.641113,4243.589844,4217.307617,4209.102539,4218.846191,4215.256348,4214.230957,4214.871582,4198.974121,4189.487305,4212.051270,4206.282227,0.000000,4.000000,95.000000,,,,0.000000,4.000000,4.000000,4.000000,4.000000,4.000000,4.000000,4.000000,4.000000,4.000000,4.000000,4.000000,4.000000,4.000000,4.000000,100.000000,,,,,,,,,,,,,,,,
1645707914.191281,1645707914.192629,93.000000,0.000000,4201.794922,4217.948730,4189.871582,4240.897461,4214.230957,4206.666504,4215.512695,4212.436035,4216.410156,4204.871582,4190.512695,4177.179688,4205.384766,4199.102539,0.000000,4.000000,95.000000,,,,0.000000,4.000000,4.000000,4.000000,4.000000,4.000000,4.000000,4.000000,4.000000,4.000000,4.000000,4.000000,4.000000,4.000000,4.000000,100.000000,,,,,,,,,,,,,,,,
1645707914.195221,1645707914.196567,94.000000,0.000000,4200.641113,4218.333496,4189.102539,4239.743652,4215.128418,4206.922852,4213.589844,4214.358887,4222.051270,4199.102539,4184.743652,4169.102539,4201.794922,4194.487305,0.000000,4.000000,95.000000,,,,0.000000,4.000000,4.000000,4.000000,4.000000,4.000000,4.000000,4.000000,4.000000,4.000000,4.000000,4.000000,4.000000,4.000000,4.000000,100.000000,,,,,,,,,,,,,,,,
1645707914.199161,1645707914.200506,95.000000,0.000000,4206.282227,4223.461426,4193.589844,4242.692383,4217.179688,4208.333496,4213.461426,4220.128418,4227.307617,4201.153809,4184.487305,4168.974121,4202.948730,4195.769043,0.000000,4.000000,95.000000,,,,0.000000,4.000000,4.000000,4.000000,4.000000,4.000000,4.000000,4.000000,4.000000,4.000000,4.000000,4.000000,4.000000,4.000000,4.000000,100.000000,,,,,,,,,,,,,,,,
1645707914.203101,1645707914.204445,96.000000,0.000000,4215.512695,4231.153809,4200.384766,4247.692383,4219.358887,4209.102539,4215.256348,4226.666504,4229.102539,4210.128418,4189.230957,4175.641113,4208.333496,4203.077148,0.000000,4.000000,95.000000,,,,0.000000,4.000000,4.000000,4.000000,4.000000,4.000000,4.000000,4.000000,4.000000,4.000000,4.000000,4.000000,4.000000,4.000000,4.000000,100.000000,,,,,,,,,,,,,,,,
1645707914.207041,1645707914.208383,97.000000,0.000000,4223.846191,4238.974121,4205.769043,4251.153809,4222.948730,4208.717773,4218.333496,4231.794922,4227.051270,4221.282227,4196.025879,4184.871582,4215.897461,4213.333496,0.000000,4.000000,95.000000,,,,0.000000,4.000000,4.000000,4.000000,4.000000,4.000000,4.000000,4.000000,4.000000,4.000000,4.000000,4.000000,4.000000,4.000000,4.000000,100.000000,,,,,,,,,,,,,,,,
1645707914.210981,1645707914.212322,98.000000,0.000000,4228.077148,4244.230957,4207.563965,4250.256348,4228.717773,4208.846191,4221.538574,4234.487305,4223.717773,4229.230957,4201.666504,4192.563965,4222.692383,4221.922852,0.000000,4.000000,95.000000,,,,0.000000,4.000000,4.000000,4.000000,4.000000,4.000000,4.000000,4.000000,4.000000,4.000000,4.000000,4.000000,4.000000,4.000000,4.000000,100.000000,,,,,,,,,,,,,,,,
1645707914.214921,1645707914.216261,99.000000,0.000000,4226.794922,4244.358887,4205.641113,4245.384766,4233.589844,4210.769043,4223.974121,4234.487305,4221.538574,4230.000000,4204.230957,4195.256348,4225.897461,4225.000000,0.000000,4.000000,95.000000,,,,0.000000,4.000000,4.000000,4.000000,4.000000,4.000000,4.000000,4.000000,4.000000,4.000000,4.000000,4.000000,4.000000,4.000000,4.000000,100.000000,,,,,,,,,,,,,,,,
1645707914.218861,1645707914.220199,100.000000,0.000000,4220.384766,4238.461426,4201.025879,4239.871582,4233.333496,4214.102539,4225.128418,4232.692383,4221.538574,4223.589844,4202.948730,4192.051270,4223.333496,4222.051270,0.000000,4.000000,95.000000,,,,0.000000,4.000000,4.000000,4.000000,4.000000,4.000000,4.000000,4.000000,4.000000,4.000000,4.000000,4.000000,4.000000,4.000000,4.000000,100.000000,1.000000,91.666664,4.000000,4.000000,4.000000,4.000000,3.000000,4.000000,4.000000,4.000000,4.000000,4.000000,4.000000,4.000000,4.000000,4.000000
1645707914.222802,1645707914.224138,101.000000,0.000000,4211.794922,4228.974121,4195.128418,4236.410156,4226.794922,4216.666504,4224.487305,4230.897461,4223.077148,4214.358887,4198.461426,4184.615234,4215.769043,4215.256348,0.000000,4.000000,95.000000,,,,0.000000,4.000000,4.000000,4.000000,4.000000,4.000000,4.000000,4.000000,4.000000,4.000000,4.000000,4.000000,4.000000,4.000000,4.000000,100.000000,,,,,,,,,,,,,,,,
1645707914.226741,1645707914.228077,102.000000,0.000000,4204.487305,4221.025879,4189.487305,4235.256348,4217.563965,4216.794922,4222.820313,4230.384766,4224.615234,4208.077148,4193.333496,4176.410156,4207.563965,4209.487305,0.000000,4.000000,95.000000,,,,0.000000,4.000000,4.000000,4.000000,4.000000,4.000000,4.000000,4.000000,4.000000,4.000000,4.000000,4.000000,4.000000,4.000000,4.000000,100.000000,,,,,,,,,,,,,,,,
1645707914.230682,1645707914.232015,103.000000,0.000000,4201.153809,4219.102539,4185.512695,4234.615234,4210.641113,4215.000000,4221.025879,4230.897461,4224.615234,4208.333496,4190.256348,4171.410156,4203.205078,4207.820313,0.000000,4.000000,95.000000,,,,0.000000,4.000000,4.000000,4.000000,4.000000,4.000000,4.000000,4.000000,4.000000,4.000000,4.000000,4.000000,4.000000,4.000000,4.000000,100.000000,,,,,,,,,,,,,,,,
1645707914.234622,1645707914.235954,104.000000,0.000000,4202.051270,4222.436035,4184.487305,4233.333496,4208.846191,4212.307617,4219.871582,4231.666504,4222.692383,4212.948730,4190.128418,4171.666504,4204.615234,4210.256348,0.000000,4.000000,95.000000,,,,0.000000,4.000000,4.000000,4.000000,4.000000,4.000000,4.000000,4.000000,4.000000,4.000000,4.000000,4.000000,4.000000,4.000000,4.000000,100.000000,,,,,,,,,,,,,,,,
1645707914.238562,1645707914.239893,105.000000,0.000000,4205.384766,4226.410156,4186.410156,4233.461426,4211.153809,4209.743652,4218.974121,4231.153809,4219.871582,4216.666504,4191.666504,4175.641113,4208.717773,4213.717773,0.000000,4.000000,95.000000,,,,0.000000,4.000000,4.000000,4.000000,4.000000,4.000000,4.000000,4.000000,4.000000,4.000000,4.000000,4.000000,4.000000,4.000000,4.000000,100.000000,,,,,,,,,,,,,,,,
1645707914.242502,1645707914.243831,106.000000,0.000000,4208.333496,4226.922852,4189.743652,4237.820313,4214.743652,4207.563965,4217.563965,4228.846191,4218.077148,4215.384766,4192.820313,4179.615234,4210.512695,4214.615234,0.000000,4.000000,95.000000,,,,0.000000,4.000000,4.000000,4.000000,4.000000,4.000000,4.000000,4.000000,4.000000,4.000000,4.000000,4.000000,4.000000,4.000000,4.000000,100.000000,,,,,,,,,,,,,,,,
1645707914.246441,1645707914.247770,107.000000,0.000000,4209.102539,4224.615234,4192.307617,4246.153809,4218.333496,4205.897461,4215.641113,4224.743652,4218.461426,4210.641113,4191.922852,4180.128418,4208.077148,4212.179688,0.000000,4.000000,95.000000,,,,0.000000,4.000000,4.000000,4.000000,4.000000,4.000000,4.000000,4.000000,4.000000,4.000000,4.000000,4.000000,4.000000,4.000000,4.000000,100.000000,,,,,,,,,,,,,,,,
1645707914.250382,1645707914.251709,108.000000,0.000000,4206.794922,4223.589844,4191.794922,4252.948730,4221.282227,4204.615234,4213.589844,4218.974121,4220.128418,4207.051270,4189.871582,4176.538574,4203.589844,4208.333496,0.000000,4.000000,95.000000,,,,0.000000,4.000000,4.000000,4.000000,4.000000,4.000000,4.000000,4.000000,4.000000,4.000000,4.000000,4.000000,4.000000,4.000000,4.000000,100.000000,,,,,,,,,,,,,,,,
1645707914.254322,1645707914.255647,109.000000,0.000000,4202.563965,4226.410156,4188.333496,4251.922852,4222.948730,4203.846191,4212.051270,4212.948730,4221.153809,4207.948730,4189.358887,4172.307617,4201.282227,4206.153809,0.000000,4.000000,95.000000,,,,0.000000,4.000000,4.000000,4.000000,4.000000,4.000000,4.000000,4.000000,4.000000,4.000000,4.000000,4.000000,4.000000,4.000000,4.000000,100.000000,,,,,,,,,,,,,,,,
1645707914.258262,1645707914.259586,110.000000,0.000000,4198.333496,4231.922852,4184.615234,4241.794922,4222.563965,4204.102539,4211.538574,4208.333496,4219.487305,4211.794922,4191.922852,4171.666504,4203.077148,4206.922852,0.000000,4.000000,95.000000,,,,0.000000,4.000000,4.000000,4.000000,4.000000,4.000000,4.000000,4.000000,4.000000,4.000000,4.000000,4.000000,4.000000,4.000000,4.000000,100.000000,,,,,,,,,,,,,,,,
1645707914.262202,1645707914.263425,111.000000,0.000000,4196.153809,4235.897461,4183.846191,4227.820313,4219.615234,4205.256348,4212.179688,4206.282227,4215.897461,4214.230957,4196.025879,4175.641113,4206.666504,4209.230957,0.000000,4.000000,95.000000,,,,0.000000,4.000000,4.000000,4.000000,4.000000,4.000000,4.000000,4.000000,4.000000,4.000000,4.000000,4.000000,4.000000,4.000000,4.000000,100.000000,,,,,,,,,,,,,,,,
1645707914.266142,1645707914.267364,112.000000,0.000000,4196.538574,4235.128418,4186.153809,4218.717773,4215.000000,4206.410156,4212.692383,4206.410156,4212.179688,4211.153809,4197.820313,4180.512695,4207.820313,4210.512695,0.000000,4.000000,95.000000,,,,0.000000,4.000000,4.000000,4.000000,4.000000,4.000000,4.000000,4.000000,4.000000,4.000000,4.000000,4.000000,4.000000,4.000000,4.000000,100.000000,,,,,,,,,,,,,,,,
1645707914.270082,1645707914.271302,113.000000,0.000000,4198.077148,4229.615234,4188.717773,4220.000000,4210.256348,4206.025879,4211.538574,4206.922852,4209.871582,4202.692383,4194.871582,4181.666504,4204.230957,4207.948730,0.000000,4.000000,95.000000,,,,0.000000,4.000000,4.000000,4.000000,4.000000,4.000000,4.000000,4.000000,4.000000,4.000000,4.000000,4.000000,4.000000,4.000000,4.000000,100.000000,,,,,,,,,,,,,,,,
1645707914.274022,1645707914.275241,114.000000,0.000000,4198.461426,4222.948730,4188.461426,4229.871582,4206.666504,4203.205078,4208.333496,4206.666504,4209.102539,4192.948730,4188.333496,4177.179688,4197.820313,4202.436035,0.000000,4.000000,95.000000,,,,0.000000,4.000000,4.000000,4.000000,4.000000,4.000000,4.000000,4.000000,4.000000,4.000000,4.000000,4.000000,4.000000,4.000000,4.000000,100.000000,,,,,,,,,,,,,,,,
1645707914.277962,1645707914.279180,115.000000,0.000000,4196.922852,4219.230957,4185.897461,4240.512695,4205.128418,4198.717773,4204.871582,4206.025879,4209.743652,4187.051270,4181.666504,4170.641113,4193.205078,4197.563965,0.000000,4.000000,95.000000,,,,0.000000,4.000000,4.000000,4.000000,4.000000,4.000000,4.000000,4.000000,4.000000,4.000000,4.000000,4.000000,4.000000,4.000000,4.000000,100.000000,,,,,,,,,,,,,,,,
1645707914.281902,1645707914.283118,116.000000,0.000000,4195.128418,4220.769043,4184.358887,4244.871582,4206.666504,4195.128418,4203.589844,4206.666504,4211.922852,4188.461426,4179.102539,4167.692383,4194.230957,4197.692383,0.000000,4.000000,95.000000,,,,0.000000,4.000000,4.000000,4.000000,4.000000,4.000000,4.000000,4.000000,4.000000,4.000000,4.000000,4.000000,4.000000,4.000000,4.000000,100.000000,,,,,,,,,,,,,,,,
1645707914.285842,1645707914.287057,117.000000,0.000000,4196.153809,4226.538574,4186.410156,4241.538574,4210.769043,4194.743652,4205.256348,4209.487305,4215.641113,4197.307617,4182.692383,4172.051270,4200.512695,4204.358887,0.000000,4.000000,95.000000,,,,0.000000,4.000000,4.000000,4.000000,4.000000,4.000000,4.000000,4.000000,4.000000,4.000000,4.000000,4.000000,4.000000,4.000000,4.000000,100.000000,,,,,,,,,,,,,,,,
1645707914.289782,1645707914.290996,118.000000,0.000000,4201.025879,4232.051270,4190.769043,4234.615234,4214.615234,4197.179688,4208.077148,4213.461426,4219.358887,4209.615234,4190.897461,4181.922852,4208.205078,4214.615234,0.000000,4.000000,95.000000,,,,0.000000,4.000000,4.000000,4.000000,4.000000,4.000000,4.000000,4.000000,4.000000,4.000000,4.000000,4.000000,4.000000,4.000000,4.000000,100.000000,,,,,,,,,,,,,,,,
1645707914.293722,1645707914.294934,119.000000,0.000000,4207.692383,4232.563965,4193.589844,4228.846191,4213.846191,4199.358887,4210.256348,4216.538574,4220.897461,4218.846191,4198.717773,4191.410156,4212.307617,4222.563965,0.000000,4.000000,95.000000,,,,0.000000,4.000000,4.000000,4.000000,4.000000,4.000000,4.000000,4.000000,4.000000,4.000000,4.000000,4.000000,4.000000,4.000000,4.000000,100.000000,,,,,,,,,,,,,,,,
1645707914.297662,1645707914.298873,120.000000,0.000000,4211.922852,4226.538574,4192.307617,4225.769043,4207.051270,4198.205078,4211.025879,4217.563965,4219.230957,4219.358887,4200.769043,4194.743652,4209.871582,4223.717773,0.000000,4.000000,95.000000,,,,0.000000,4.000000,4.000000,4.000000,4.000000,4.000000,4.000000,4.000000,4.000000,4.000000,4.000000,4.000000,4.000000,4.000000,4.000000,100.000000,,,,,,,,,,,,,,,,
1645707914.301602,1645707914.302812,121.000000,0.000000,4211.153809,4217.307617,4188.205078,4225.128418,4197.436035,4193.717773,4210.897461,4216.410156,4215.769043,4210.897461,4196.282227,4190.384766,4202.307617,4217.820313,0.000000,4.000000,95.000000,,,,0.000000,4.000000,4.000000,4.000000,4.000000,4.000000,4.000000,4.000000,4.000000,4.000000,4.000000,4.000000,4.000000,4.000000,4.000000,100.000000,,,,,,,,,,,,,,,,
1645707914.305542,1645707914.306750,122.000000,0.000000,4206.794922,4211.282227,4185.000000,4225.897461,4191.538574,4189.230957,4210.897461,4214.487305,4213.333496,4199.743652,4189.743652,4182.436035,4195.128418,4209.871582,0.000000,4.000000,95.000000,,,,0.000000,4.000000,4.000000,4.000000,4.000000,4.000000,4.000000,4.000000,4.000000,4.000000,4.000000,4.000000,4.000000,4.000000,4.000000,100.000000,,,,,,,,,,,,,,,,
1645707914.309482,1645707914.310689,123.000000,0.000000,4203.077148,4213.205078,4185.897461,4228.077148,4193.846191,4188.333496,4211.666504,4213.461426,4213.717773,4194.487305,4186.794922,4176.922852,4193.461426,4205.897461,0.000000,4.000000,95.000000,,,,0.000000,4.000000,4.000000,4.000000,4.000000,4.000000,4.000000,4.000000,4.000000,4.000000,4.000000,4.000000,4.000000,4.000000,4.000000,100.000000,,,,,,,,,,,,,,,,
1645707914.313422,1645707914.314628,124.000000,0.000000,4202.948730,4222.436035,4190.897461,4231.025879,4202.436035,4191.794922,4213.077148,4214.487305,4216.794922,4198.461426,4190.000000,4177.179688,4198.461426,4207.820313,0.000000,4.000000,95.000000,,,,0.000000,4.000000,4.000000,4.000000,4.000000,4.000000,4.000000,4.000000,4.000000,4.000000,4.000000,4.000000,4.000000,4.000000,4.000000,100.000000,,,,,,,,,,,,,,,,
1645707914.317362,1645707914.318566,125.000000,0.000000,4206.025879,4232.820313,4196.666504,4232.051270,4211.025879,4196.794922,4215.000000,4217.307617,4220.000000,4208.205078,4195.769043,4181.538574,4206.025879,4212.692383,0.000000,4.000000,95.000000,,,,0.000000,4.000000,4.000000,4.000000,4.000000,4.000000,4.000000,4.000000,4.000000,4.000000,4.000000,4.000000,4.000000,4.000000,4.000000,100.000000,,,,,,,,,,,,,,,,
1645707914.321302,1645707914.322505,126.000000,0.000000,4209.230957,4237.692383,4198.717773,4229.487305,4214.102539,4200.000000,4217.051270,4219.743652,4220.384766,4216.538574,4198.589844,4185.128418,4210.512695,4215.769043,0.000000,4.000000,95.000000,,,,0.000000,4.000000,4.000000,4.000000,4.000000,4.000000,4.000000,4.000000,4.000000,4.000000,4.000000,4.000000,4.000000,4.000000,4.000000,100.000000,,,,,,,,,,,,,,,,
1645707914.325242,1645707914.326444,127.000000,0.000000,4209.615234,4235.128418,4194.871582,4225.000000,4212.051270,4200.512695,4218.589844,4219.358887,4217.307617,4218.589844,4195.897461,4184.487305,4209.487305,4214.615234,0.000000,4.000000,95.000000,,,,0.000000,4.000000,4.000000,4.000000,4.000000,4.000000,4.000000,4.000000,4.000000,4.000000,4.000000,4.000000,4.000000,4.000000,4.000000,100.000000,,,,,,,,,,,,,,,,
1645707914.329182,1645707914.330382,128.000000,0.000000,4206.794922,4228.846191,4187.051270,4222.692383,4209.487305,4200.512695,4218.077148,4215.897461,4213.589844,4214.871582,4190.128418,4179.871582,4205.256348,4210.641113,3252.000000,4.000000,95.000000,,,,0.000000,4.000000,4.000000,4.000000,4.000000,4.000000,4.000000,4.000000,4.000000,4.000000,4.000000,4.000000,4.000000,4.000000,4.000000,100.000000,,,,,,,,,,,,,,,,
1645707914.333122,1645707914.334321,129.000000,0.000000,4202.436035,4224.358887,4179.871582,4225.128418,4209.487305,4202.820313,4215.897461,4212.436035,4213.461426,4209.871582,4186.282227,4175.256348,4202.307617,4206.538574,3348.000000,4.000000,95.000000,,,,0.000000,4.000000,4.000000,4.000000,4.000000,4.000000,4.000000,4.000000,4.000000,4.000000,4.000000,4.000000,4.000000,4.000000,4.000000,100.000000,,,,,,,,,,,,,,,,
1645707914.337062,1645707914.338160,130.000000,0.000000,4199.102539,4224.358887,4177.563965,4231.153809,4211.410156,4207.307617,4213.846191,4211.922852,4218.974121,4208.717773,4187.307617,4173.717773,4203.077148,4203.974121,3657.000000,4.000000,95.000000,,,,0.000000,4.000000,4.000000,4.000000,4.000000,4.000000,4.000000,4.000000,4.000000,4.000000,4.000000,4.000000,4.000000,4.000000,4.000000,100.000000,,,,,,,,,,,,,,,,
1645707914.341002,1645707914.342099,131.000000,0.000000,4198.333496,4227.820313,4180.641113,4237.051270,4212.307617,4211.410156,4213.846191,4214.871582,4227.563965,4213.077148,4192.179688,4175.641113,4206.666504,4203.974121,3505.000000,4.000000,95.000000,,,,0.000000,4.000000,4.000000,4.000000,4.000000,4.000000,4.000000,4.000000,4.000000,4.000000,4.000000,4.000000,4.000000,4.000000,4.000000,100.000000,,,,,,,,,,,,,,,,
1645707914.344942,1645707914.346037,132.000000,0.000000,4199.743652,4231.410156,4185.897461,4240.512695,4210.641113,4212.179688,4215.128418,4218.846191,4233.974121,4220.384766,4198.077148,4178.717773,4210.641113,4207.436035,3473.000000,4.000000,95.000000,,,,0.000000,4.000000,4.000000,4.000000,4.000000,4.000000,4.000000,4.000000,4.000000,4.000000,4.000000,4.000000,4.000000,4.000000,4.000000,100.000000,,,,,,,,,,,,,,,,
1645707914.348882,1645707914.349976,133.000000,0.000000,4201.794922,4232.051270,4189.358887,4241.282227,4207.563965,4208.333496,4215.256348,4220.641113,4234.358887,4225.384766,4201.666504,4180.512695,4213.205078,4214.102539,3432.000000,4.000000,95.000000,,,,0.000000,4.000000,4.000000,4.000000,4.000000,4.000000,4.000000,4.000000,4.000000,4.000000,4.000000,4.000000,4.000000,4.000000,4.000000,100.000000,,,,,,,,,,,,,,,,
