title:Alex-g1tk7joMKNYY1ygi-bslig, start timestamp:1645707815.650288, stop timestamp:1645707841.926123, headset type:EPOCPLUS, headset serial:3B9AEBFF, headset firmware:626, channels:55, sampling rate:eeg_256, samples:6670      , version:2.1, 
Timestamp,OriginalTimestamp,EEG.Counter,EEG.Interpolated,EEG.AF3,EEG.F7,EEG.F3,EEG.FC5,EEG.T7,EEG.P7,EEG.O1,EEG.O2,EEG.P8,EEG.T8,EEG.FC6,EEG.F4,EEG.F8,EEG.AF4,EEG.RawCq,EEG.Battery,EEG.BatteryPercent,MarkerIndex,MarkerType,MarkerValueInt,EEG.MarkerHardware,CQ.AF3,CQ.F7,CQ.F3,CQ.FC5,CQ.T7,CQ.P7,CQ.O1,CQ.O2,CQ.P8,CQ.T8,CQ.FC6,CQ.F4,CQ.F8,CQ.AF4,CQ.Overall,EQ.SampleRateQuality,EQ.OVERALL,EQ.AF3,EQ.F7,EQ.F3,EQ.FC5,EQ.T7,EQ.P7,EQ.O1,EQ.O2,EQ.P8,EQ.T8,EQ.FC6,EQ.F4,EQ.F8,EQ.AF4
1645707815.650288,1645707815.674794,171.000000,0.000000,4223.205078,4198.077148,4176.538574,4242.051270,4224.230957,4215.641113,4221.153809,4219.871582,4200.256348,4111.922852,3972.051270,4215.384766,4192.692383,4204.102539,3465.000000,4.000000,95.000000,,,,0.000000,4.000000,4.000000,4.000000,4.000000,4.000000,4.000000,4.000000,4.000000,4.000000,4.000000,4.000000,4.000000,4.000000,4.000000,100.000000,,,,,,,,,,,,,,,,
1645707815.654228,1645707815.678834,172.000000,0.000000,4218.077148,4190.256348,4173.846191,4233.974121,4231.025879,4212.820313,4215.641113,4217.948730,4201.922852,4119.487305,3978.333252,4214.871582,4192.436035,4199.615234,3453.000000,4.000000,95.000000,,,,0.000000,4.000000,4.000000,4.000000,4.000000,4.000000,4.000000,4.000000,4.000000,4.000000,4.000000,4.000000,4.000000,4.000000,4.000000,100.000000,,,,,,,,,,,,,,,,
1645707815.658168,1645707815.682774,173.000000,0.000000,4211.538574,4180.128418,4168.846191,4224.230957,4235.384766,4210.384766,4208.589844,4213.205078,4204.102539,4119.743652,3980.000000,4210.512695,4189.743652,4193.717773,3300.000000,4.000000,95.000000,,,,0.000000,4.000000,4.000000,4.000000,4.000000,4.000000,4.000000,4.000000,4.000000,4.000000,4.000000,4.000000,4.000000,4.000000,4.000000,100.000000,,,,,,,,,,,,,,,,
1645707815.662108,1645707815.686714,174.000000,0.000000,4207.436035,4172.948730,4164.487305,4218.846191,4232.692383,4208.846191,4203.846191,4208.205078,4204.743652,4113.589844,3976.538574,4205.128418,4186.410156,4189.871582,2832.000000,4.000000,95.000000,,,,0.000000,4.000000,4.000000,4.000000,4.000000,4.000000,4.000000,4.000000,4.000000,4.000000,4.000000,4.000000,4.000000,4.000000,4.000000,100.000000,,,,,,,,,,,,,,,,
1645707815.666048,1645707815.690654,175.000000,0.000000,4206.538574,4170.897461,4162.179688,4219.743652,4222.307617,4207.436035,4202.563965,4204.615234,4202.948730,4106.025879,3969.871826,4201.153809,4182.948730,4189.102539,3465.000000,4.000000,95.000000,,,,0.000000,4.000000,4.000000,4.000000,4.000000,4.000000,4.000000,4.000000,4.000000,4.000000,4.000000,4.000000,4.000000,4.000000,4.000000,100.000000,,,,,,,,,,,,,,,,
1645707815.669988,1645707815.694594,176.000000,0.000000,4207.820313,4172.820313,4161.410156,4224.358887,4208.846191,4206.410156,4203.589844,4202.436035,4200.256348,4102.436035,3964.487061,4200.512695,4180.512695,4190.000000,3453.000000,4.000000,95.000000,,,,0.000000,4.000000,4.000000,4.000000,4.000000,4.000000,4.000000,4.000000,4.000000,4.000000,4.000000,4.000000,4.000000,4.000000,4.000000,100.000000,,,,,,,,,,,,,,,,
1645707815.673928,1645707815.698534,177.000000,0.000000,4208.974121,4177.051270,4160.897461,4228.461426,4199.871582,4206.410156,4205.128418,4201.282227,4199.102539,4104.871582,3962.820557,4202.948730,4180.000000,4190.641113,3300.000000,4.000000,95.000000,,,,0.000000,4.000000,4.000000,4.000000,4.000000,4.000000,4.000000,4.000000,4.000000,4.000000,4.000000,4.000000,4.000000,4.000000,4.000000,100.000000,,,,,,,,,,,,,,,,
1645707815.677868,1645707815.702474,178.000000,0.000000,4208.333496,4181.410156,4159.871582,4229.102539,4201.025879,4207.563965,4206.410156,4200.641113,4200.000000,4110.512695,3963.589844,4205.512695,4181.153809,4189.358887,2832.000000,4.000000,95.000000,,,,0.000000,4.000000,4.000000,4.000000,4.000000,4.000000,4.000000,4.000000,4.000000,4.000000,4.000000,4.000000,4.000000,4.000000,4.000000,100.000000,,,,,,,,,,,,,,,,
1645707815.681808,1645707815.706414,179.000000,0.000000,4205.000000,4183.974121,4157.948730,4227.051270,4211.538574,4208.589844,4207.179688,4200.384766,4201.153809,4112.948730,3962.948730,4204.358887,4181.666504,4185.897461,3465.000000,4.000000,95.000000,,,,0.000000,4.000000,4.000000,4.000000,4.000000,4.000000,4.000000,4.000000,4.000000,4.000000,4.000000,4.000000,4.000000,4.000000,4.000000,100.000000,,,,,,,,,,,,,,,,
1645707815.685748,1645707815.710354,180.000000,0.000000,4199.487305,4183.589844,4154.871582,4224.230957,4224.743652,4208.589844,4206.922852,4199.871582,4200.769043,4108.717773,3959.358887,4197.948730,4179.230957,4181.153809,3453.000000,4.000000,95.000000,,,,0.000000,4.000000,4.000000,4.000000,4.000000,4.000000,4.000000,4.000000,4.000000,4.000000,4.000000,4.000000,4.000000,4.000000,4.000000,100.000000,,,,,,,,,,,,,,,,
1645707815.689688,1645707815.714294,181.000000,0.000000,4194.230957,4180.512695,4151.282227,4222.179688,4232.051270,4207.307617,4205.384766,4198.333496,4198.077148,4100.000000,3955.256348,4189.230957,4174.102539,4177.307617,3300.000000,4.000000,95.000000,,,,0.000000,4.000000,4.000000,4.000000,4.000000,4.000000,4.000000,4.000000,4.000000,4.000000,4.000000,4.000000,4.000000,4.000000,4.000000,100.000000,,,,,,,,,,,,,,,,
1645707815.693628,1645707815.718235,182.000000,0.000000,4192.179688,4177.307617,4148.717773,4220.641113,4228.461426,4205.897461,4202.563965,4196.538574,4194.871582,4093.076904,3954.487061,4183.846191,4168.974121,4176.666504,2832.000000,4.000000,95.000000,,,,0.000000,4.000000,4.000000,4.000000,4.000000,4.000000,4.000000,4.000000,4.000000,4.000000,4.000000,4.000000,4.000000,4.000000,4.000000,100.000000,,,,,,,,,,,,,,,,
1645707815.697568,1645707815.722175,183.000000,0.000000,4194.871582,4176.153809,4148.846191,4218.589844,4216.025879,4204.743652,4199.358887,4195.897461,4193.333496,4092.051270,3957.820557,4185.256348,4166.282227,4179.615234,3465.000000,4.000000,95.000000,,,,0.000000,4.000000,4.000000,4.000000,4.000000,4.000000,4.000000,4.000000,4.000000,4.000000,4.000000,4.000000,4.000000,4.000000,4.000000,100.000000,,,,,,,,,,,,,,,,
1645707815.701508,1645707815.726115,184.000000,0.000000,4199.743652,4176.794922,4151.538574,4215.384766,4202.179688,4204.615234,4197.307617,4197.692383,4194.487305,4095.641113,3962.307617,4191.410156,4166.282227,4183.846191,3453.000000,4.000000,95.000000,,,,0.000000,4.000000,4.000000,4.000000,4.000000,4.000000,4.000000,4.000000,4.000000,4.000000,4.000000,4.000000,4.000000,4.000000,4.000000,100.000000,,,,,,,,,,,,,,,,
1645707815.705448,1645707815.730055,185.000000,0.000000,4202.436035,4176.922852,4154.743652,4212.179688,4195.512695,4206.282227,4197.692383,4200.769043,4197.563965,4098.333496,3963.718018,4196.538574,4167.051270,4186.025879,3300.000000,4.000000,95.000000,,,,0.000000,4.000000,4.000000,4.000000,4.000000,4.000000,4.000000,4.000000,4.000000,4.000000,4.000000,4.000000,4.000000,4.000000,4.000000,100.000000,,,,,,,,,,,,,,,,
1645707815.709388,1645707815.733995,186.000000,0.000000,4200.256348,4174.871582,4155.256348,4211.282227,4199.358887,4209.871582,4200.384766,4202.179688,4200.256348,4096.282227,3960.769287,4196.282227,4166.666504,4183.717773,2832.000000,4.000000,95.000000,,,,0.000000,4.000000,4.000000,4.000000,4.000000,4.000000,4.000000,4.000000,4.000000,4.000000,4.000000,4.000000,4.000000,4.000000,4.000000,100.000000,,,,,,,,,,,,,,,,
1645707815.713328,1645707815.737935,187.000000,0.000000,4195.128418,4171.538574,4151.666504,4213.717773,4210.256348,4214.358887,4203.461426,4200.256348,4200.769043,4090.897461,3956.153809,4191.153809,4165.512695,4178.077148,3465.000000,4.000000,95.000000,,,,0.000000,4.000000,4.000000,4.000000,4.000000,4.000000,4.000000,4.000000,4.000000,4.000000,4.000000,4.000000,4.000000,4.000000,4.000000,100.000000,,,,,,,,,,,,,,,,
1645707815.717268,1645707815.741875,188.000000,0.000000,4191.794922,4170.000000,4146.538574,4218.205078,4220.769043,4217.436035,4205.000000,4196.025879,4199.230957,4086.794922,3954.743652,4185.256348,4165.512695,4172.948730,3453.000000,4.000000,95.000000,,,,0.000000,4.000000,4.000000,4.000000,4.000000,4.000000,4.000000,4.000000,4.000000,4.000000,4.000000,4.000000,4.000000,4.000000,4.000000,100.000000,,,,,,,,,,,,,,,,
1645707815.721208,1645707815.745715,189.000000,0.000000,4193.589844,4173.205078,4144.743652,4222.179688,4225.000000,4217.692383,4205.256348,4193.589844,4197.692383,4088.589844,3959.487061,4183.717773,4168.461426,4172.563965,3300.000000,4.000000,95.000000,,,,0.000000,4.000000,4.000000,4.000000,4.000000,4.000000,4.000000,4.000000,4.000000,4.000000,4.000000,4.000000,4.000000,4.000000,4.000000,100.000000,,,,,,,,,,,,,,,,
1645707815.725148,1645707815.749656,190.000000,0.000000,4200.384766,4181.410156,4149.487305,4223.589844,4221.922852,4215.384766,4205.769043,4196.282227,4198.333496,4097.179688,3968.718018,4188.205078,4174.358887,4178.846191,2832.000000,4.000000,95.000000,,,,0.000000,4.000000,4.000000,4.000000,4.000000,4.000000,4.000000,4.000000,4.000000,4.000000,4.000000,4.000000,4.000000,4.000000,4.000000,100.000000,,,,,,,,,,,,,,,,
1645707815.729088,1645707815.753596,191.000000,0.000000,4209.102539,4191.922852,4159.358887,4222.436035,4215.128418,4212.692383,4207.436035,4203.589844,4201.410156,4109.102539,3977.307617,4196.794922,4180.512695,4190.128418,3465.000000,4.000000,95.000000,,,,0.000000,4.000000,4.000000,4.000000,4.000000,4.000000,4.000000,4.000000,4.000000,4.000000,4.000000,4.000000,4.000000,4.000000,4.000000,100.000000,,,,,,,,,,,,,,,,
1645707815.733028,1645707815.757536,192.000000,0.000000,4216.025879,4200.000000,4167.820313,4220.641113,4208.461426,4210.897461,4208.974121,4211.025879,4205.000000,4118.461426,3981.410156,4204.743652,4183.974121,4201.922852,3453.000000,4.000000,95.000000,,,,0.000000,4.000000,4.000000,4.000000,4.000000,4.000000,4.000000,4.000000,4.000000,4.000000,4.000000,4.000000,4.000000,4.000000,4.000000,100.000000,,,,,,,,,,,,,,,,
1645707815.736968,1645707815.761476,193.000000,0.000000,4218.333496,4201.282227,4169.743652,4219.871582,4205.000000,4210.128418,4208.333496,4213.333496,4206.025879,4120.256348,3981.025635,4207.307617,4182.692383,4209.102539,3300.000000,4.000000,95.000000,,,,0.000000,4.000000,4.000000,4.000000,4.000000,4.000000,4.000000,4.000000,4.000000,4.000000,4.000000,4.000000,4.000000,4.000000,4.000000,100.000000,,,,,,,,,,,,,,,,
1645707815.740908,1645707815.765416,194.000000,0.000000,4215.769043,4194.871582,4164.615234,4220.384766,4205.256348,4209.871582,4205.769043,4209.615234,4203.461426,4113.846191,3978.461426,4203.461426,4176.794922,4208.717773,2832.000000,4.000000,95.000000,,,,0.000000,4.000000,4.000000,4.000000,4.000000,4.000000,4.000000,4.000000,4.000000,4.000000,4.000000,4.000000,4.000000,4.000000,4.000000,100.000000,,,,,,,,,,,,,,,,
1645707815.744848,1645707815.769356,195.000000,0.000000,4209.615234,4184.230957,4156.282227,4221.410156,4207.948730,4210.128418,4204.230957,4203.717773,4199.230957,4104.230957,3976.281982,4196.282227,4169.230957,4201.666504,3465.000000,4.000000,95.000000,,,,0.000000,4.000000,4.000000,4.000000,4.000000,4.000000,4.000000,4.000000,4.000000,4.000000,4.000000,4.000000,4.000000,4.000000,4.000000,100.000000,,,,,,,,,,,,,,,,
1645707815.748788,1645707815.773296,196.000000,0.000000,4202.820313,4175.384766,4150.128418,4221.538574,4211.153809,4211.666504,4206.666504,4201.794922,4196.538574,4098.846191,3975.128174,4190.000000,4163.717773,4192.692383,3453.000000,4.000000,95.000000,,,,0.000000,4.000000,4.000000,4.000000,4.000000,4.000000,4.000000,4.000000,4.000000,4.000000,4.000000,4.000000,4.000000,4.000000,4.000000,100.000000,,,,,,,,,,,,,,,,
1645707815.752728,1645707815.777236,197.000000,0.000000,4197.692383,4172.563965,4148.205078,4219.230957,4213.717773,4215.641113,4212.692383,4206.153809,4197.307617,4101.538574,3975.128174,4187.307617,4162.307617,4186.410156,3300.000000,4.000000,95.000000,,,,0.000000,4.000000,4.000000,4.000000,4.000000,4.000000,4.000000,4.000000,4.000000,4.000000,4.000000,4.000000,4.000000,4.000000,4.000000,100.000000,,,,,,,,,,,,,,,,
1645707815.756668,1645707815.781176,198.000000,0.000000,4195.128418,4175.256348,4149.358887,4214.487305,4215.384766,4221.538574,4218.589844,4214.102539,4200.769043,4110.000000,3975.897461,4187.563965,4163.974121,4184.487305,2832.000000,4.000000,95.000000,,,,0.000000,4.000000,4.000000,4.000000,4.000000,4.000000,4.000000,4.000000,4.000000,4.000000,4.000000,4.000000,4.000000,4.000000,4.000000,100.000000,,,,,,,,,,,,,,,,
1645707815.760608,1645707815.785116,199.000000,0.000000,4193.846191,4179.743652,4149.871582,4209.487305,4217.051270,4227.051270,4220.769043,4220.128418,4204.230957,4117.820313,3976.923096,4188.205078,4166.282227,4184.230957,3465.000000,4.000000,95.000000,,,,0.000000,4.000000,4.000000,4.000000,4.000000,4.000000,4.000000,4.000000,4.000000,4.000000,4.000000,4.000000,4.000000,4.000000,4.000000,100.000000,,,,,,,,,,,,,,,,
1645707815.764548,1645707815.789057,200.000000,0.000000,4192.051270,4181.666504,4147.692383,4206.794922,4218.589844,4228.974121,4217.948730,4221.025879,4205.641113,4120.000000,3977.692383,4187.179688,4166.794922,4182.692383,3453.000000,4.000000,95.000000,,,,0.000000,4.000000,4.000000,4.000000,4.000000,4.000000,4.000000,4.000000,4.000000,4.000000,4.000000,4.000000,4.000000,4.000000,4.000000,100.000000,,,,,,,,,,,,,,,,
1645707815.768488,1645707815.792997,201.000000,0.000000,4188.077148,4180.256348,4142.948730,4208.077148,4218.589844,4225.769043,4211.922852,4218.077148,4204.615234,4116.794922,3977.948730,4184.615234,4165.384766,4178.461426,3300.000000,4.000000,95.000000,,,,0.000000,4.000000,4.000000,4.000000,4.000000,4.000000,4.000000,4.000000,4.000000,4.000000,4.000000,4.000000,4.000000,4.000000,4.000000,100.000000,,,,,,,,,,,,,,,,
1645707815.772428,1645707815.796937,202.000000,0.000000,4182.307617,4177.692383,4137.820313,4211.922852,4216.153809,4219.230957,4206.538574,4214.871582,4202.436035,4112.436035,3978.333252,4182.179688,4164.230957,4173.589844,2832.000000,4.000000,95.000000,,,,0.000000,4.000000,4.000000,4.000000,4.000000,4.000000,4.000000,4.000000,4.000000,4.000000,4.000000,4.000000,4.000000,4.000000,4.000000,100.000000,,,,,,,,,,,,,,,,
1645707815.776368,1645707815.800877,203.000000,0.000000,4176.922852,4176.153809,4134.871582,4214.743652,4211.794922,4212.820313,4204.615234,4214.358887,4201.153809,4111.153809,3980.000000,4181.922852,4165.641113,4170.769043,3465.000000,4.000000,95.000000,,,,0.000000,4.000000,4.000000,4.000000,4.000000,4.000000,4.000000,4.000000,4.000000,4.000000,4.000000,4.000000,4.000000,4.000000,4.000000,100.000000,,,,,,,,,,,,,,,,
1645707815.780308,1645707815.804817,204.000000,0.000000,4173.846191,4175.000000,4135.641113,4213.846191,4207.563965,4209.487305,4206.410156,4215.256348,4201.538574,4113.589844,3983.205078,4184.102539,4170.384766,4170.897461,3453.000000,4.000000,95.000000,,,,0.000000,4.000000,4.000000,4.000000,4.000000,4.000000,4.000000,4.000000,4.000000,4.000000,4.000000,4.000000,4.000000,4.000000,4.000000,100.000000,,,,,,,,,,,,,,,,
1645707815.784248,1645707815.808757,205.000000,0.000000,4173.461426,4171.666504,4139.871582,4210.000000,4206.282227,4209.487305,4209.102539,4214.487305,4202.820313,4117.179688,3986.794922,4186.794922,4176.410156,4172.692383,3300.000000,4.000000,95.000000,,,,0.000000,4.000000,4.000000,4.000000,4.000000,4.000000,4.000000,4.000000,4.000000,4.000000,4.000000,4.000000,4.000000,4.000000,4.000000,100.000000,,,,,,,,,,,,,,,,
1645707815.788188,1645707815.812697,206.000000,0.000000,4175.256348,4166.153809,4145.384766,4207.307617,4208.333496,4210.769043,4209.230957,4210.000000,4203.333496,4119.102539,3988.974365,4187.563965,4180.641113,4173.846191,2832.000000,4.000000,95.000000,,,,0.000000,4.000000,4.000000,4.000000,4.000000,4.000000,4.000000,4.000000,4.000000,4.000000,4.000000,4.000000,4.000000,4.000000,4.000000,100.000000,,,,,,,,,,,,,,,,
1645707815.792128,1645707815.816537,207.000000,0.000000,4178.205078,4161.538574,4150.000000,4209.743652,4211.794922,4211.922852,4205.256348,4202.692383,4202.436035,4119.230957,3990.128174,4186.025879,4182.179688,4173.974121,3465.000000,4.000000,95.000000,,,,0.000000,4.000000,4.000000,4.000000,4.000000,4.000000,4.000000,4.000000,4.000000,4.000000,4.000000,4.000000,4.000000,4.000000,4.000000,100.000000,,,,,,,,,,,,,,,,
1645707815.796068,1645707815.820478,208.000000,0.000000,4181.153809,4162.436035,4153.333496,4216.410156,4213.077148,4212.051270,4199.230957,4196.666504,4200.641113,4118.974121,3992.692383,4184.102539,4181.922852,4174.230957,3453.000000,4.000000,95.000000,,,,0.000000,4.000000,4.000000,4.000000,4.000000,4.000000,4.000000,4.000000,4.000000,4.000000,4.000000,4.000000,4.000000,4.000000,4.000000,100.000000,,,,,,,,,,,,,,,,
1645707815.800008,1645707815.824418,209.000000,0.000000,4182.436035,4170.128418,4155.641113,4221.794922,4210.256348,4211.666504,4195.384766,4195.769043,4199.615234,4119.615234,3998.333252,4184.871582,4181.666504,4176.025879,3300.000000,4.000000,95.000000,,,,0.000000,4.000000,4.000000,4.000000,4.000000,4.000000,4.000000,4.000000,4.000000,4.000000,4.000000,4.000000,4.000000,4.000000,4.000000,100.000000,,,,,,,,,,,,,,,,
1645707815.803948,1645707815.828358,210.000000,0.000000,4181.282227,4181.410156,4156.666504,4220.641113,4204.743652,4211.282227,4196.410156,4200.641113,4200.000000,4120.769043,4005.769287,4189.230957,4182.179688,4178.717773,2832.000000,4.000000,95.000000,,,,0.000000,4.000000,4.000000,4.000000,4.000000,4.000000,4.000000,4.000000,4.000000,4.000000,4.000000,4.000000,4.000000,4.000000,4.000000,100.000000,,,,,,,,,,,,,,,,
1645707815.807888,1645707815.832298,211.000000,0.000000,4178.717773,4190.512695,4155.897461,4213.077148,4201.410156,4211.282227,4201.282227,4207.436035,4201.282227,4121.666504,4011.153809,4193.974121,4182.307617,4181.025879,3465.000000,4.000000,95.000000,,,,0.000000,4.000000,4.000000,4.000000,4.000000,4.000000,4.000000,4.000000,4.000000,4.000000,4.000000,4.000000,4.000000,4.000000,4.000000,100.000000,,,,,,,,,,,,,,,,
1645707815.811828,1645707815.836238,212.000000,0.000000,4176.538574,4193.205078,4153.461426,4204.487305,4205.128418,4211.922852,4205.256348,4210.000000,4202.179688,4121.922852,4011.794922,4195.000000,4181.282227,4181.538574,3453.000000,4.000000,95.000000,,,,0.000000,4.000000,4.000000,4.000000,4.000000,4.000000,4.000000,4.000000,4.000000,4.000000,4.000000,4.000000,4.000000,4.000000,4.000000,100.000000,,,,,,,,,,,,,,,,
1645707815.815768,1645707815.840178,213.000000,0.000000,4175.769043,4189.615234,4150.384766,4201.282227,4216.025879,4212.563965,4204.743652,4205.384766,4202.051270,4121.922852,4008.333252,4190.512695,4179.615234,4180.256348,3300.000000,4.000000,95.000000,,,,0.000000,4.000000,4.000000,4.000000,4.000000,4.000000,4.000000,4.000000,4.000000,4.000000,4.000000,4.000000,4.000000,4.000000,4.000000,100.000000,,,,,,,,,,,,,,,,
1645707815.819708,1645707815.844018,214.000000,0.000000,4176.666504,4183.717773,4148.717773,4205.128418,4228.461426,4212.179688,4200.128418,4196.282227,4201.410156,4121.282227,4004.230713,4183.205078,4178.205078,4178.205078,2832.000000,4.000000,95.000000,,,,0.000000,4.000000,4.000000,4.000000,4.000000,4.000000,4.000000,4.000000,4.000000,4.000000,4.000000,4.000000,4.000000,4.000000,4.000000,100.000000,,,,,,,,,,,,,,,,
1645707815.823648,1645707815.847958,215.000000,0.000000,4178.589844,4179.871582,4150.128418,4212.692383,4233.717773,4210.256348,4195.000000,4189.102539,4200.897461,4118.589844,4003.333252,4178.205078,4178.077148,4177.051270,3465.000000,4.000000,95.000000,,,,0.000000,4.000000,4.000000,4.000000,4.000000,4.000000,4.000000,4.000000,4.000000,4.000000,4.000000,4.000000,4.000000,4.000000,4.000000,100.000000,,,,,,,,,,,,,,,,
1645707815.827588,1645707815.851898,216.000000,0.000000,4180.769043,4180.000000,4153.717773,4218.333496,4227.820313,4207.692383,4193.077148,4188.205078,4200.769043,4113.333496,4006.025635,4178.974121,4179.615234,4177.436035,3453.000000,4.000000,95.000000,,,,0.000000,4.000000,4.000000,4.000000,4.000000,4.000000,4.000000,4.000000,4.000000,4.000000,4.000000,4.000000,4.000000,4.000000,4.000000,100.000000,,,,,,,,,,,,,,,,
1645707815.831528,1645707815.855839,217.000000,0.000000,4181.922852,4182.436035,4157.051270,4217.948730,4215.000000,4206.666504,4195.000000,4192.948730,4201.025879,4107.820313,4010.000000,4184.102539,4182.179688,4179.230957,3300.000000,4.000000,95.000000,,,,0.000000,4.000000,4.000000,4.000000,4.000000,4.000000,4.000000,4.000000,4.000000,4.000000,4.000000,4.000000,4.000000,4.000000,4.000000,100.000000,,,,,,,,,,,,,,,,
1645707815.835468,1645707815.859779,218.000000,0.000000,4180.384766,4183.461426,4157.436035,4212.436035,4204.487305,4207.436035,4197.948730,4198.333496,4201.410156,4107.051270,4012.179443,4188.589844,4183.846191,4180.769043,2832.000000,4.000000,95.000000,,,,0.000000,4.000000,4.000000,4.000000,4.000000,4.000000,4.000000,4.000000,4.000000,4.000000,4.000000,4.000000,4.000000,4.000000,4.000000,100.000000,,,,,,,,,,,,,,,,
1645707815.839408,1645707815.863719,219.000000,0.000000,4176.410156,4181.025879,4154.358887,4206.666504,4203.077148,4208.717773,4199.102539,4200.256348,4201.410156,4113.077148,4011.281982,4188.974121,4183.589844,4180.512695,3465.000000,4.000000,95.000000,,,,0.000000,4.000000,4.000000,4.000000,4.000000,4.000000,4.000000,4.000000,4.000000,4.000000,4.000000,4.000000,4.000000,4.000000,4.000000,100.000000,,,,,,,,,,,,,,,,
1645707815.843348,1645707815.867659,220.000000,0.000000,4172.820313,4176.794922,4150.384766,4205.512695,4208.717773,4208.717773,4197.948730,4198.205078,4201.025879,4121.922852,4009.487061,4185.256348,4181.922852,4178.461426,3453.000000,4.000000,95.000000,,,,0.000000,4.000000,4.000000,4.000000,4.000000,4.000000,4.000000,4.000000,4.000000,4.000000,4.000000,4.000000,4.000000,4.000000,4.000000,100.000000,,,,,,,,,,,,,,,,
1645707815.847288,1645707815.871599,221.000000,0.000000,4172.563965,4174.487305,4148.333496,4209.487305,4213.077148,4207.307617,4195.384766,4195.384766,4200.256348,4126.410156,4010.256348,4181.153809,4180.641113,4175.897461,3300.000000,4.000000,95.000000,,,,0.000000,4.000000,4.000000,4.000000,4.000000,4.000000,4.000000,4.000000,4.000000,4.000000,4.000000,4.000000,4.000000,4.000000,4.000000,100.000000,,,,,,,,,,,,,,,,
1645707815.851228,1645707815.875539,222.000000,0.000000,4176.153809,4176.666504,4149.230957,4215.128418,4210.384766,4206.025879,4193.846191,4194.743652,4199.615234,4122.948730,4015.256348,4180.128418,4181.794922,4175.256348,2832.000000,4.000000,95.000000,,,,0.000000,4.000000,4.000000,4.000000,4.000000,4.000000,4.000000,4.000000,4.000000,4.000000,4.000000,4.000000,4.000000,4.000000,4.000000,100.000000,,,,,,,,,,,,,,,,
1645707815.855168,1645707815.879479,223.000000,0.000000,4180.384766,4181.922852,4151.538574,4217.948730,4203.461426,4206.282227,4195.384766,4196.538574,4199.487305,4115.384766,4022.179443,4182.692383,4185.256348,4177.307617,3465.000000,4.000000,95.000000,,,,0.000000,4.000000,4.000000,4.000000,4.000000,4.000000,4.000000,4.000000,4.000000,4.000000,4.000000,4.000000,4.000000,4.000000,4.000000,100.000000,,,,,,,,,,,,,,,,
1645707815.859108,1645707815.883419,224.000000,0.000000,4181.025879,4185.897461,4153.333496,4216.410156,4199.871582,4207.307617,4199.871582,4198.974121,4200.000000,4112.051270,4026.410156,4186.025879,4188.846191,4180.256348,3453.000000,4.000000,95.000000,,,,0.000000,4.000000,4.000000,4.000000,4.000000,4.000000,4.000000,4.000000,4.000000,4.000000,4.000000,4.000000,4.000000,4.000000,4.000000,100.000000,,,,,,,,,,,,,,,,
1645707815.863048,1645707815.887359,225.000000,0.000000,4176.666504,4185.256348,4152.820313,4211.922852,4204.487305,4206.538574,4205.000000,4199.102539,4200.384766,4117.436035,4025.000000,4186.794922,4189.230957,4181.538574,3300.000000,4.000000,95.000000,,,,0.000000,4.000000,4.000000,4.000000,4.000000,4.000000,4.000000,4.000000,4.000000,4.000000,4.000000,4.000000,4.000000,4.000000,4.000000,100.000000,,,,,,,,,,,,,,,,
1645707815.866988,1645707815.891300,226.000000,0.000000,4169.743652,4180.128418,4150.641113,4207.820313,4213.846191,4202.820313,4207.436035,4196.794922,4200.128418,4129.358887,4019.230713,4184.102539,4185.384766,4180.512695,2832.000000,4.000000,95.000000,,,,0.000000,4.000000,4.000000,4.000000,4.000000,4.000000,4.000000,4.000000,4.000000,4.000000,4.000000,4.000000,4.000000,4.000000,4.000000,100.000000,,,,,,,,,,,,,,,,
1645707815.870928,1645707815.895240,227.000000,0.000000,4165.000000,4173.846191,4148.589844,4205.641113,4219.743652,4197.563965,4205.641113,4193.974121,4198.974121,4140.769043,4014.743652,4179.871582,4179.871582,4178.077148,3465.000000,4.000000,95.000000,,,,0.000000,4.000000,4.000000,4.000000,4.000000,4.000000,4.000000,4.000000,4.000000,4.000000,4.000000,4.000000,4.000000,4.000000,4.000000,100.000000,,,,,,,,,,,,,,,,
1645707815.874868,1645707815.899180,228.000000,0.000000,4165.512695,4170.000000,4148.589844,4206.025879,4216.922852,4193.717773,4200.641113,4193.717773,4197.563965,4145.384766,4016.025635,4177.307617,4176.410156,4176.666504,3453.000000,4.000000,95.000000,,,,0.000000,4.000000,4.000000,4.000000,4.000000,4.000000,4.000000,4.000000,4.000000,4.000000,4.000000,4.000000,4.000000,4.000000,4.000000,100.000000,,,,,,,,,,,,,,,,
1645707815.878808,1645707815.903120,229.000000,0.000000,4170.512695,4170.641113,4150.769043,4208.589844,4208.589844,4193.333496,4195.769043,4198.205078,4197.179688,4142.179688,4023.205078,4178.461426,4177.307617,4177.820313,3300.000000,4.000000,95.000000,,,,0.000000,4.000000,4.000000,4.000000,4.000000,4.000000,4.000000,4.000000,4.000000,4.000000,4.000000,4.000000,4.000000,4.000000,4.000000,100.000000,,,,,,,,,,,,,,,,
1645707815.882748,1645707815.907060,230.000000,0.000000,4176.922852,4175.512695,4154.102539,4212.563965,4202.820313,4196.153809,4195.000000,4206.666504,4198.461426,4134.871582,4032.051270,4182.436035,4181.282227,4181.025879,2832.000000,4.000000,95.000000,,,,0.000000,4.000000,4.000000,4.000000,4.000000,4.000000,4.000000,4.000000,4.000000,4.000000,4.000000,4.000000,4.000000,4.000000,4.000000,100.000000,,,,,,,,,,,,,,,,
1645707815.886688,1645707815.911000,231.000000,0.000000,4181.025879,4182.820313,4156.794922,4215.769043,4205.641113,4200.897461,4199.743652,4215.897461,4200.641113,4129.871582,4038.076904,4186.666504,4185.256348,4184.230957,3465.000000,4.000000,95.000000,,,,0.000000,4.000000,4.000000,4.000000,4.000000,4.000000,4.000000,4.000000,4.000000,4.000000,4.000000,4.000000,4.000000,4.000000,4.000000,100.000000,,,,,,,,,,,,,,,,
1645707815.890628,1645707815.914940,232.000000,0.000000,4181.538574,4189.358887,4157.692383,4215.897461,4215.128418,4205.641113,4207.436035,4221.153809,4202.307617,4130.256348,4039.743652,4187.820313,4186.922852,4185.384766,3453.000000,4.000000,95.000000,,,,0.000000,4.000000,4.000000,4.000000,4.000000,4.000000,4.000000,4.000000,4.000000,4.000000,4.000000,4.000000,4.000000,4.000000,4.000000,100.000000,,,,,,,,,,,,,,,,
1645707815.894568,1645707815.918880,233.000000,0.000000,4179.743652,4192.179688,4156.794922,4211.922852,4223.589844,4209.743652,4213.333496,4220.256348,4202.820313,4134.615234,4038.589844,4184.615234,4185.128418,4183.717773,3300.000000,4.000000,95.000000,,,,0.000000,4.000000,4.000000,4.000000,4.000000,4.000000,4.000000,4.000000,4.000000,4.000000,4.000000,4.000000,4.000000,4.000000,4.000000,100.000000,,,,,,,,,,,,,,,,
1645707815.898508,1645707815.922820,234.000000,0.000000,4177.307617,4189.743652,4154.743652,4205.512695,4224.102539,4212.692383,4214.358887,4215.128418,4202.820313,4137.820313,4036.538574,4178.205078,4180.512695,4180.000000,2832.000000,4.000000,95.000000,,,,0.000000,4.000000,4.000000,4.000000,4.000000,4.000000,4.000000,4.000000,4.000000,4.000000,4.000000,4.000000,4.000000,4.000000,4.000000,100.000000,,,,,,,,,,,,,,,,
1645707815.902448,1645707815.926760,235.000000,0.000000,4175.512695,4183.077148,4152.948730,4200.256348,4216.666504,4214.230957,4211.282227,4210.512695,4203.589844,4136.922852,4034.487061,4172.051270,4175.256348,4176.282227,3465.000000,4.000000,95.000000,,,,0.000000,4.000000,4.000000,4.000000,4.000000,4.000000,4.000000,4.000000,4.000000,4.000000,4.000000,4.000000,4.000000,4.000000,4.000000,100.000000,,,,,,,,,,,,,,,,
1645707815.906388,1645707815.930701,236.000000,0.000000,4174.358887,4176.282227,4151.538574,4199.615234,4208.205078,4214.358887,4207.820313,4209.230957,4205.641113,4133.589844,4033.076904,4169.358887,4172.436035,4174.871582,3453.000000,4.000000,95.000000,,,,0.000000,4.000000,4.000000,4.000000,4.000000,4.000000,4.000000,4.000000,4.000000,4.000000,4.000000,4.000000,4.000000,4.000000,4.000000,100.000000,,,,,,,,,,,,,,,,
1645707815.910328,1645707815.934541,237.000000,0.000000,4173.846191,4174.102539,4149.871582,4203.974121,4206.538574,4213.333496,4206.794922,4211.153809,4208.333496,4131.794922,4033.205078,4171.282227,4173.717773,4176.794922,3300.000000,4.000000,95.000000,,,,0.000000,4.000000,4.000000,4.000000,4.000000,4.000000,4.000000,4.000000,4.000000,4.000000,4.000000,4.000000,4.000000,4.000000,4.000000,100.000000,,,,,,,,,,,,,,,,
1645707815.914268,1645707815.938481,238.000000,0.000000,4173.717773,4179.102539,4148.077148,4209.871582,4214.102539,4211.666504,4208.333496,4213.589844,4209.743652,4132.948730,4036.025635,4176.025879,4178.077148,4180.641113,2832.000000,4.000000,95.000000,,,,0.000000,4.000000,4.000000,4.000000,4.000000,4.000000,4.000000,4.000000,4.000000,4.000000,4.000000,4.000000,4.000000,4.000000,4.000000,100.000000,,,,,,,,,,,,,,,,
1645707815.918208,1645707815.942421,239.000000,0.000000,4174.615234,4189.871582,4147.563965,4212.436035,4225.256348,4209.615234,4210.384766,4213.974121,4208.717773,4133.974121,4040.897461,4181.410156,4182.179688,4183.589844,3465.000000,4.000000,95.000000,,,,0.000000,4.000000,4.000000,4.000000,4.000000,4.000000,4.000000,4.000000,4.000000,4.000000,4.000000,4.000000,4.000000,4.000000,4.000000,100.000000,,,,,,,,,,,,,,,,
1645707815.922148,1645707815.946361,240.000000,0.000000,4176.410156,4200.384766,4149.871582,4208.717773,4230.897461,4208.077148,4210.897461,4211.794922,4205.512695,4132.436035,4045.512939,4185.256348,4183.077148,4183.846191,3453.000000,4.000000,95.000000,,,,0.000000,4.000000,4.000000,4.000000,4.000000,4.000000,4.000000,4.000000,4.000000,4.000000,4.000000,4.000000,4.000000,4.000000,4.000000,100.000000,,,,,,,,,,,,,,,,
1645707815.926088,1645707815.950301,241.000000,0.000000,4178.717773,4205.128418,4154.230957,4200.512695,4226.666504,4207.692383,4209.102539,4208.077148,4201.538574,4129.615234,4048.076904,4186.666504,4181.025879,4181.794922,3300.000000,4.000000,95.000000,,,,0.000000,4.000000,4.000000,4.000000,4.000000,4.000000,4.000000,4.000000,4.000000,4.000000,4.000000,4.000000,4.000000,4.000000,4.000000,100.000000,,,,,,,,,,,,,,,,
1645707815.930028,1645707815.954241,242.000000,0.000000,4180.641113,4202.563965,4157.436035,4194.102539,4216.794922,4209.743652,4206.282227,4203.717773,4198.717773,4128.333496,4048.846191,4185.769043,4178.717773,4180.384766,2832.000000,4.000000,95.000000,,,,0.000000,4.000000,4.000000,4.000000,4.000000,4.000000,4.000000,4.000000,4.000000,4.000000,4.000000,4.000000,4.000000,4.000000,4.000000,100.000000,,,,,,,,,,,,,,,,
1645707815.933968,1645707815.958181,243.000000,0.000000,4182.692383,4196.410156,4157.563965,4194.615234,4209.487305,4214.230957,4204.743652,4198.974121,4197.948730,4128.717773,4049.615479,4184.230957,4179.358887,4182.051270,3465.000000,4.000000,95.000000,,,,0.000000,4.000000,4.000000,4.000000,4.000000,4.000000,4.000000,4.000000,4.000000,4.000000,4.000000,4.000000,4.000000,4.000000,4.000000,100.000000,,,,,,,,,,,,,,,,
1645707815.937908,1645707815.962122,244.000000,0.000000,4185.256348,4192.692383,4155.384766,4201.538574,4208.589844,4218.974121,4205.256348,4195.000000,4199.487305,4128.461426,4051.666748,4183.974121,4183.717773,4186.794922,3453.000000,4.000000,95.000000,,,,0.000000,4.000000,4.000000,4.000000,4.000000,4.000000,4.000000,4.000000,4.000000,4.000000,4.000000,4.000000,4.000000,4.000000,4.000000,100.000000,,,,,,,,,,,,,,,,
1645707815.941848,1645707815.966062,245.000000,0.000000,4188.077148,4194.358887,4154.487305,4209.871582,4212.307617,4220.512695,4207.051270,4194.102539,4202.179688,4126.153809,4054.743652,4185.641113,4189.743652,4193.461426,3300.000000,4.000000,95.000000,,,,0.000000,4.000000,4.000000,4.000000,4.000000,4.000000,4.000000,4.000000,4.000000,4.000000,4.000000,4.000000,4.000000,4.000000,4.000000,100.000000,,,,,,,,,,,,,,,,
1645707815.945788,1645707815.970002,246.000000,0.000000,4190.256348,4200.897461,4157.436035,4214.743652,4217.179688,4217.692383,4208.205078,4198.333496,4204.615234,4125.384766,4058.333252,4188.717773,4195.384766,4200.256348,2832.000000,4.000000,95.000000,1,1,1,0.000000,4.000000,4.000000,4.000000,4.000000,4.000000,4.000000,4.000000,4.000000,4.000000,4.000000,4.000000,4.000000,4.000000,4.000000,100.000000,,,,,,,,,,,,,,,,
1645707815.949728,1645707815.973942,247.000000,0.000000,4191.922852,4208.846191,4163.974121,4215.641113,4221.922852,4212.307617,4207.307617,4206.666504,4206.410156,4130.769043,4062.179443,4191.666504,4199.615234,4205.897461,3465.000000,4.000000,95.000000,,,,0.000000,4.000000,4.000000,4.000000,4.000000,4.000000,4.000000,4.000000,4.000000,4.000000,4.000000,4.000000,4.000000,4.000000,4.000000,100.000000,,,,,,,,,,,,,,,,
1645707815.953668,1645707815.977882,248.000000,0.000000,4193.333496,4214.102539,4170.641113,4215.000000,4227.051270,4207.307617,4203.846191,4214.230957,4207.563965,4142.436035,4066.025635,4193.077148,4202.307617,4209.487305,3453.000000,4.000000,95.000000,,,,0.000000,4.000000,4.000000,4.000000,4.000000,4.000000,4.000000,4.000000,4.000000,4.000000,4.000000,4.000000,4.000000,4.000000,4.000000,100.000000,,,,,,,,,,,,,,,,
1645707815.957608,1645707815.981822,249.000000,0.000000,4194.487305,4214.871582,4173.461426,4215.512695,4230.897461,4204.230957,4198.846191,4215.256348,4208.077148,4153.333496,4069.102539,4192.307617,4203.333496,4210.256348,3300.000000,4.000000,95.000000,,,,0.000000,4.000000,4.000000,4.000000,4.000000,4.000000,4.000000,4.000000,4.000000,4.000000,4.000000,4.000000,4.000000,4.000000,4.000000,100.000000,,,,,,,,,,,,,,,,
1645707815.961548,1645707815.985762,250.000000,0.000000,4195.000000,4211.538574,4172.051270,4216.410156,4230.897461,4202.436035,4194.871582,4208.717773,4206.794922,4155.384766,4070.512939,4190.000000,4202.820313,4207.563965,2832.000000,4.000000,95.000000,,,,0.000000,4.000000,4.000000,4.000000,4.000000,4.000000,4.000000,4.000000,4.000000,4.000000,4.000000,4.000000,4.000000,4.000000,4.000000,100.000000,,,,,,,,,,,,,,,,
1645707815.965488,1645707815.989702,251.000000,0.000000,4195.128418,4206.666504,4169.487305,4215.641113,4226.666504,4201.410156,4194.487305,4198.589844,4203.461426,4148.077148,4070.128174,4187.948730,4201.025879,4202.692383,3465.000000,4.000000,95.000000,,,,0.000000,4.000000,4.000000,4.000000,4.000000,4.000000,4.000000,4.000000,4.000000,4.000000,4.000000,4.000000,4.000000,4.000000,4.000000,100.000000,,,,,,,,,,,,,,,,
1645707815.969428,1645707815.993642,252.000000,0.000000,4196.410156,4203.846191,4169.230957,4213.461426,4223.205078,4201.922852,4198.461426,4191.538574,4199.871582,4139.615234,4069.743652,4188.205078,4199.102539,4198.205078,3453.000000,4.000000,95.000000,,,,0.000000,4.000000,4.000000,4.000000,4.000000,4.000000,4.000000,4.000000,4.000000,4.000000,4.000000,4.000000,4.000000,4.000000,4.000000,100.000000,,,,,,,,,,,,,,,,
1645707815.973368,1645707815.997582,253.000000,0.000000,4199.743652,4204.230957,4172.307617,4211.794922,4225.769043,4204.487305,4204.358887,4192.307617,4199.102539,4140.256348,4071.410156,4192.051270,4198.333496,4197.436035,3300.000000,4.000000,95.000000,,,,0.000000,4.000000,4.000000,4.000000,4.000000,4.000000,4.000000,4.000000,4.000000,4.000000,4.000000,4.000000,4.000000,4.000000,4.000000,100.000000,,,,,,,,,,,,,,,,
1645707815.977308,1645707816.001622,254.000000,0.000000,4203.974121,4206.153809,4177.051270,4211.922852,4233.333496,4208.974121,4208.846191,4200.512695,4203.077148,4152.820313,4075.897461,4198.846191,4200.000000,4201.922852,2832.000000,4.000000,95.000000,,,,0.000000,4.000000,4.000000,4.000000,4.000000,4.000000,4.000000,4.000000,4.000000,4.000000,4.000000,4.000000,4.000000,4.000000,4.000000,100.000000,,,,,,,,,,,,,,,,
1645707815.981248,1645707816.005563,255.000000,0.000000,4206.410156,4206.538574,4180.897461,4212.820313,4237.948730,4214.102539,4210.384766,4211.153809,4210.128418,4169.358887,4081.666748,4206.153809,4203.461426,4209.871582,115.000000,4.000000,95.000000,,,,0.000000,4.000000,4.000000,4.000000,4.000000,4.000000,4.000000,4.000000,4.000000,4.000000,4.000000,4.000000,4.000000,4.000000,4.000000,100.000000,,,,,,,,,,,,,,,,
1645707815.985188,1645707816.009503,0.000000,0.000000,4205.769043,4204.230957,4182.307617,4212.436035,4232.820313,4217.948730,4209.743652,4217.692383,4215.641113,4177.436035,4086.281982,4210.128418,4207.179688,4217.436035,3348.000000,4.000000,95.000000,,,,0.000000,4.000000,4.000000,4.000000,4.000000,4.000000,4.000000,4.000000,4.000000,4.000000,4.000000,4.000000,4.000000,4.000000,4.000000,100.000000,,,,,,,,,,,,,,,,
1645707815.989128,1645707816.013443,1.000000,0.000000,4203.717773,4202.051270,4181.153809,4210.384766,4220.256348,4220.384766,4208.846191,4216.666504,4216.282227,4171.282227,4087.948730,4208.717773,4209.871582,4221.794922,3422.000000,4.000000,95.000000,,,,0.000000,4.000000,4.000000,4.000000,4.000000,4.000000,4.000000,4.000000,4.000000,4.000000,4.000000,4.000000,4.000000,4.000000,4.000000,100.000000,,,,,,,,,,,,,,,,
1645707815.993068,1645707816.017383,2.000000,0.000000,4202.563965,4203.589844,4178.589844,4208.077148,4211.153809,4221.794922,4208.717773,4210.000000,4212.436035,4157.307617,4087.307617,4202.820313,4210.769043,4222.051270,3523.000000,4.000000,95.000000,,,,0.000000,4.000000,4.000000,4.000000,4.000000,4.000000,4.000000,4.000000,4.000000,4.000000,4.000000,4.000000,4.000000,4.000000,4.000000,100.000000,,,,,,,,,,,,,,,,
1645707815.997008,1645707816.021323,3.000000,0.000000,4203.333496,4208.717773,4176.666504,4207.179688,4214.615234,4223.077148,4210.000000,4203.205078,4207.436035,4147.307617,4085.641113,4196.153809,4210.512695,4219.102539,3634.000000,4.000000,95.000000,,,,0.000000,4.000000,4.000000,4.000000,4.000000,4.000000,4.000000,4.000000,4.000000,4.000000,4.000000,4.000000,4.000000,4.000000,4.000000,100.000000,,,,,,,,,,,,,,,,
1645707816.000948,1645707816.025263,4.000000,0.000000,4204.487305,4212.820313,4176.410156,4208.846191,4228.589844,4223.717773,4211.922852,4200.769043,4205.128418,4148.077148,4083.974365,4192.051270,4210.000000,4214.871582,3561.000000,4.000000,95.000000,,,,0.000000,4.000000,4.000000,4.000000,4.000000,4.000000,4.000000,4.000000,4.000000,4.000000,4.000000,4.000000,4.000000,4.000000,4.000000,100.000000,,,,,,,,,,,,,,,,
1645707816.004888,1645707816.029203,5.000000,0.000000,4203.461426,4211.410156,4176.794922,4212.179688,4242.436035,4222.051270,4212.563965,4202.948730,4206.025879,4156.410156,4082.564209,4191.410156,4209.102539,4210.769043,3507.000000,4.000000,95.000000,,,,0.000000,4.000000,4.000000,4.000000,4.000000,4.000000,4.000000,4.000000,4.000000,4.000000,4.000000,4.000000,4.000000,4.000000,4.000000,100.000000,,,,,,,,,,,,,,,,
1645707816.008828,1645707816.033143,6.000000,0.000000,4199.743652,4205.256348,4175.641113,4215.769043,4245.897461,4217.436035,4209.743652,4205.512695,4208.205078,4163.333496,4081.153809,4192.820313,4207.051270,4207.563965,3018.000000,4.000000,95.000000,,,,0.000000,4.000000,4.000000,4.000000,4.000000,4.000000,4.000000,4.000000,4.000000,4.000000,4.000000,4.000000,4.000000,4.000000,4.000000,100.000000,,,,,,,,,,,,,,,,
1645707816.012768,1645707816.037083,7.000000,0.000000,4195.384766,4199.743652,4171.794922,4218.461426,4237.563965,4211.153809,4203.589844,4205.256348,4208.846191,4163.205078,4080.256348,4193.846191,4203.846191,4205.897461,2787.000000,4.000000,95.000000,,,,0.000000,4.000000,4.000000,4.000000,4.000000,4.000000,4.000000,4.000000,4.000000,4.000000,4.000000,4.000000,4.000000,4.000000,4.000000,100.000000,,,,,,,,,,,,,,,,
1645707816.016708,1645707816.041024,8.000000,0.000000,4193.717773,4200.256348,4166.922852,4220.384766,4224.102539,4206.666504,4197.179688,4201.794922,4207.179688,4156.666504,4080.641113,4192.692383,4200.000000,4205.769043,1390.000000,4.000000,95.000000,,,,0.000000,4.000000,4.000000,4.000000,4.000000,4.000000,4.000000,4.000000,4.000000,4.000000,4.000000,4.000000,4.000000,4.000000,4.000000,100.000000,,,,,,,,,,,,,,,,
1645707816.020648,1645707816.044964,9.000000,0.000000,4195.641113,4207.692383,4163.846191,4221.153809,4213.589844,4206.538574,4194.743652,4198.461426,4204.102539,4149.102539,4081.794922,4189.487305,4196.410156,4206.025879,3297.000000,4.000000,95.000000,,,,0.000000,4.000000,4.000000,4.000000,4.000000,4.000000,4.000000,4.000000,4.000000,4.000000,4.000000,4.000000,4.000000,4.000000,4.000000,100.000000,,,,,,,,,,,,,,,,
1645707816.024588,1645707816.048904,10.000000,0.000000,4198.974121,4218.077148,4164.102539,4219.487305,4208.974121,4210.256348,4197.948730,4198.333496,4202.307617,4144.487305,4082.179443,4185.769043,4193.717773,4204.871582,2815.000000,4.000000,95.000000,,,,0.000000,4.000000,4.000000,4.000000,4.000000,4.000000,4.000000,4.000000,4.000000,4.000000,4.000000,4.000000,4.000000,4.000000,4.000000,100.000000,,,,,,,,,,,,,,,,
1645707816.028528,1645707816.052844,11.000000,0.000000,4200.769043,4225.384766,4166.410156,4214.487305,4208.461426,4215.000000,4203.974121,4201.666504,4203.589844,4143.846191,4081.025635,4183.077148,4192.051270,4201.025879,3460.000000,4.000000,95.000000,,,,0.000000,4.000000,4.000000,4.000000,4.000000,4.000000,4.000000,4.000000,4.000000,4.000000,4.000000,4.000000,4.000000,4.000000,4.000000,100.000000,,,,,,,,,,,,,,,,
1645707816.032468,1645707816.056784,12.000000,0.000000,4200.128418,4226.410156,4168.589844,4208.077148,4210.000000,4217.436035,4207.948730,4206.794922,4208.333496,4146.538574,4079.615479,4182.436035,4191.538574,4196.153809,3421.000000,4.000000,95.000000,,,,0.000000,4.000000,4.000000,4.000000,4.000000,4.000000,4.000000,4.000000,4.000000,4.000000,4.000000,4.000000,4.000000,4.000000,4.000000,100.000000,,,,,,,,,,,,,,,,
1645707816.036408,1645707816.060724,13.000000,0.000000,4198.717773,4223.205078,4169.102539,4205.128418,4214.487305,4216.282227,4206.794922,4211.666504,4214.487305,4151.922852,4080.641113,4183.846191,4193.461426,4193.205078,3331.000000,4.000000,95.000000,,,,0.000000,4.000000,4.000000,4.000000,4.000000,4.000000,4.000000,4.000000,4.000000,4.000000,4.000000,4.000000,4.000000,4.000000,4.000000,100.000000,,,,,,,,,,,,,,,,
1645707816.040348,1645707816.064564,14.000000,0.000000,4198.974121,4220.512695,4168.974121,4209.230957,4223.333496,4212.820313,4201.794922,4215.128418,4219.615234,4158.589844,4085.512939,4187.179688,4197.563965,4194.487305,2815.000000,4.000000,95.000000,,,,0.000000,4.000000,4.000000,4.000000,4.000000,4.000000,4.000000,4.000000,4.000000,4.000000,4.000000,4.000000,4.000000,4.000000,4.000000,100.000000,,,,,,,,,,,,,,,,
1645707816.044288,1645707816.068404,15.000000,0.000000,4201.282227,4220.641113,4169.743652,4218.333496,4234.358887,4209.487305,4197.179688,4215.641113,4221.282227,4164.230957,4092.051270,4190.384766,4201.794922,4199.102539,3460.000000,4.000000,95.000000,,,,0.000000,4.000000,4.000000,4.000000,4.000000,4.000000,4.000000,4.000000,4.000000,4.000000,4.000000,4.000000,4.000000,4.000000,4.000000,100.000000,,,,,,,,,,,,,,,,
1645707816.048228,1645707816.072345,16.000000,0.000000,4203.846191,4222.051270,4171.666504,4226.153809,4241.538574,4208.205078,4195.641113,4212.179688,4218.589844,4166.282227,4095.641113,4191.153809,4203.333496,4203.077148,3421.000000,4.000000,95.000000,,,,0.000000,4.000000,4.000000,4.000000,4.000000,4.000000,4.000000,4.000000,4.000000,4.000000,4.000000,4.000000,4.000000,4.000000,4.000000,100.000000,,,,,,,,,,,,,,,,
1645707816.052168,1645707816.076285,17.000000,0.000000,4204.487305,4222.051270,4173.333496,4227.051270,4239.615234,4209.358887,4197.051270,4205.128418,4212.948730,4163.589844,4093.461426,4187.820313,4200.641113,4203.077148,3331.000000,4.000000,95.000000,,,,0.000000,4.000000,4.000000,4.000000,4.000000,4.000000,4.000000,4.000000,4.000000,4.000000,4.000000,4.000000,4.000000,4.000000,4.000000,100.000000,,,,,,,,,,,,,,,,
1645707816.056108,1645707816.080225,18.000000,0.000000,4203.461426,4219.743652,4173.717773,4220.512695,4228.717773,4211.922852,4199.871582,4197.563965,4207.179688,4158.077148,4086.666748,4181.282227,4195.769043,4198.205078,2815.000000,4.000000,95.000000,,,,0.000000,4.000000,4.000000,4.000000,4.000000,4.000000,4.000000,4.000000,4.000000,4.000000,4.000000,4.000000,4.000000,4.000000,4.000000,100.000000,,,,,,,,,,,,,,,,
1645707816.060048,1645707816.084165,19.000000,0.000000,4202.692383,4217.563965,4172.948730,4212.307617,4215.769043,4214.871582,4202.948730,4193.461426,4204.102539,4153.461426,4079.615479,4175.256348,4191.794922,4191.410156,3460.000000,4.000000,95.000000,,,,0.000000,4.000000,4.000000,4.000000,4.000000,4.000000,4.000000,4.000000,4.000000,4.000000,4.000000,4.000000,4.000000,4.000000,4.000000,100.000000,,,,,,,,,,,,,,,,
1645707816.063988,1645707816.088105,20.000000,0.000000,4203.461426,4218.077148,4171.922852,4209.230957,4210.641113,4217.563965,4205.256348,4194.487305,4204.743652,4152.563965,4077.179443,4172.563965,4190.384766,4186.282227,3421.000000,4.000000,95.000000,,,,0.000000,4.000000,4.000000,4.000000,4.000000,4.000000,4.000000,4.000000,4.000000,4.000000,4.000000,4.000000,4.000000,4.000000,4.000000,100.000000,,,,,,,,,,,,,,,,
1645707816.067928,1645707816.092045,21.000000,0.000000,4205.641113,4222.051270,4171.538574,4213.717773,4218.974121,4219.615234,4205.769043,4198.717773,4207.820313,4155.000000,4081.025635,4173.717773,4191.410156,4185.256348,3331.000000,4.000000,95.000000,,,,0.000000,4.000000,4.000000,4.000000,4.000000,4.000000,4.000000,4.000000,4.000000,4.000000,4.000000,4.000000,4.000000,4.000000,4.000000,100.000000,,,,,,,,,,,,,,,,
1645707816.071868,1645707816.095985,22.000000,0.000000,4207.948730,4226.410156,4171.666504,4221.794922,4236.922852,4221.282227,4203.846191,4202.820313,4210.641113,4158.077148,4088.846191,4176.666504,4193.077148,4188.077148,2815.000000,4.000000,95.000000,,,,0.000000,4.000000,4.000000,4.000000,4.000000,4.000000,4.000000,4.000000,4.000000,4.000000,4.000000,4.000000,4.000000,4.000000,4.000000,100.000000,,,,,,,,,,,,,,,,
1645707816.075808,1645707816.099925,23.000000,0.000000,4209.102539,4227.948730,4172.307617,4226.666504,4253.461426,4222.307617,4200.256348,4203.974121,4211.153809,4157.948730,4095.512939,4178.461426,4193.846191,4191.282227,3460.000000,4.000000,95.000000,,,,0.000000,4.000000,4.000000,4.000000,4.000000,4.000000,4.000000,4.000000,4.000000,4.000000,4.000000,4.000000,4.000000,4.000000,4.000000,100.000000,,,,,,,,,,,,,,,,
1645707816.079748,1645707816.103865,24.000000,0.000000,4208.974121,4226.153809,4172.948730,4224.487305,4258.461426,4221.666504,4197.179688,4201.538574,4208.717773,4152.948730,4096.538574,4177.563965,4192.948730,4192.179688,3421.000000,4.000000,95.000000,2,1,1,0.000000,4.000000,4.000000,4.000000,4.000000,4.000000,4.000000,4.000000,4.000000,4.000000,4.000000,4.000000,4.000000,4.000000,4.000000,100.000000,,,,,,,,,,,,,,,,
1645707816.083688,1645707816.107806,25.000000,0.000000,4208.333496,4223.717773,4173.589844,4216.538574,4250.512695,4219.102539,4196.538574,4197.948730,4204.871582,4145.512695,4091.410156,4174.743652,4191.025879,4189.743652,3331.000000,4.000000,95.000000,,,,0.000000,4.000000,4.000000,4.000000,4.000000,4.000000,4.000000,4.000000,4.000000,4.000000,4.000000,4.000000,4.000000,4.000000,4.000000,100.000000,,,,,,,,,,,,,,,,
1645707816.087628,1645707816.111746,26.000000,0.000000,4207.820313,4223.717773,4173.717773,4208.333496,4236.025879,4215.512695,4198.846191,4197.051270,4201.794922,4140.897461,4084.615479,4172.179688,4189.871582,4185.769043,2815.000000,4.000000,95.000000,,,,0.000000,4.000000,4.000000,4.000000,4.000000,4.000000,4.000000,4.000000,4.000000,4.000000,4.000000,4.000000,4.000000,4.000000,4.000000,100.000000,1.000000,25.000000,4.000000,1.000000,3.000000,1.000000,1.000000,4.000000,4.000000,4.000000,4.000000,1.000000,1.000000,3.000000,1.000000,4.000000
1645707816.091568,1645707816.115686,27.000000,0.000000,4207.820313,4226.666504,4172.820313,4205.256348,4223.461426,4213.333496,4202.820313,4200.512695,4202.051270,4143.333496,4081.923096,4171.410156,4190.128418,4182.307617,3460.000000,4.000000,95.000000,,,,0.000000,4.000000,4.000000,4.000000,4.000000,4.000000,4.000000,4.000000,4.000000,4.000000,4.000000,4.000000,4.000000,4.000000,4.000000,100.000000,,,,,,,,,,,,,,,,
1645707816.095508,1645707816.119626,28.000000,0.000000,4208.077148,4229.871582,4170.641113,4208.333496,4218.077148,4213.077148,4205.769043,4206.794922,4206.153809,4152.307617,4085.256348,4171.922852,4191.538574,4180.769043,3421.000000,4.000000,95.000000,,,,0.000000,4.000000,4.000000,4.000000,4.000000,4.000000,4.000000,4.000000,4.000000,4.000000,4.000000,4.000000,4.000000,4.000000,4.000000,100.000000,,,,,,,,,,,,,,,,
1645707816.099448,1645707816.123566,29.000000,0.000000,4207.436035,4229.743652,4167.563965,4213.717773,4219.230957,4213.461426,4205.769043,4212.179688,4212.051270,4162.051270,4091.281982,4172.179688,4192.307617,4180.256348,3331.000000,4.000000,95.000000,,,,0.000000,4.000000,4.000000,4.000000,4.000000,4.000000,4.000000,4.000000,4.000000,4.000000,4.000000,4.000000,4.000000,4.000000,4.000000,100.000000,,,,,,,,,,,,,,,,
1645707816.103388,1645707816.127406,30.000000,0.000000,4205.897461,4224.871582,4164.743652,4217.307617,4223.589844,4213.461426,4203.589844,4213.589844,4216.666504,4165.897461,4095.512939,4171.282227,4192.051270,4180.000000,2815.000000,4.000000,95.000000,,,,0.000000,4.000000,4.000000,4.000000,4.000000,4.000000,4.000000,4.000000,4.000000,4.000000,4.000000,4.000000,4.000000,4.000000,4.000000,100.000000,,,,,,,,,,,,,,,,
1645707816.107328,1645707816.131346,31.000000,0.000000,4205.769043,4218.333496,4163.846191,4218.333496,4228.333496,4213.974121,4201.922852,4210.641113,4217.179688,4161.538574,4096.922852,4170.641113,4191.922852,4181.538574,3460.000000,4.000000,95.000000,,,,0.000000,4.000000,4.000000,4.000000,4.000000,4.000000,4.000000,4.000000,4.000000,4.000000,4.000000,4.000000,4.000000,4.000000,4.000000,100.000000,,,,,,,,,,,,,,,,
1645707816.111268,1645707816.135286,32.000000,0.000000,4209.615234,4215.769043,4166.025879,4219.102539,4232.563965,4216.794922,4202.563965,4205.769043,4213.717773,4153.717773,4098.461426,4172.820313,4194.358887,4186.922852,0.000000,4.000000,95.000000,,,,0.000000,4.000000,4.000000,4.000000,4.000000,4.000000,4.000000,4.000000,4.000000,4.000000,4.000000,4.000000,4.000000,4.000000,4.000000,100.000000,,,,,,,,,,,,,,,,
1645707816.115208,1645707816.139226,33.000000,0.000000,4217.179688,4219.871582,4171.025879,4221.025879,4236.153809,4221.025879,4204.871582,4203.077148,4209.615234,4150.384766,4102.692383,4179.358887,4199.615234,4195.769043,0.000000,4.000000,95.000000,,,,0.000000,4.000000,4.000000,4.000000,4.000000,4.000000,4.000000,4.000000,4.000000,4.000000,4.000000,4.000000,4.000000,4.000000,4.000000,100.000000,,,,,,,,,,,,,,,,
1645707816.119148,1645707816.143167,34.000000,0.000000,4224.358887,4227.820313,4176.538574,4222.820313,4237.820313,4223.461426,4207.179688,4205.384766,4208.333496,4156.410156,4108.077148,4188.077148,4205.641113,4203.717773,0.000000,4.000000,95.000000,,,,0.000000,4.000000,4.000000,4.000000,4.000000,4.000000,4.000000,4.000000,4.000000,4.000000,4.000000,4.000000,4.000000,4.000000,4.000000,100.000000,,,,,,,,,,,,,,,,
1645707816.123088,1645707816.147107,35.000000,0.000000,4226.666504,4233.461426,4179.358887,4221.282227,4235.897461,4221.025879,4208.333496,4212.563965,4211.025879,4169.358887,4110.641113,4193.589844,4208.205078,4205.128418,0.000000,4.000000,95.000000,,,,0.000000,4.000000,4.000000,4.000000,4.000000,4.000000,4.000000,4.000000,4.000000,4.000000,4.000000,4.000000,4.000000,4.000000,4.000000,100.000000,,,,,,,,,,,,,,,,
1645707816.127028,1645707816.151047,36.000000,0.000000,4222.692383,4233.333496,4177.692383,4216.025879,4230.769043,4214.871582,4208.077148,4220.512695,4214.871582,4181.153809,4107.436035,4192.051270,4205.128418,4198.333496,0.000000,4.000000,95.000000,,,,0.000000,4.000000,4.000000,4.000000,4.000000,4.000000,4.000000,4.000000,4.000000,4.000000,4.000000,4.000000,4.000000,4.000000,4.000000,100.000000,,,,,,,,,,,,,,,,
1645707816.130968,1645707816.154987,37.000000,0.000000,4215.897461,4228.846191,4172.307617,4209.743652,4225.384766,4209.487305,4207.307617,4224.102539,4217.051270,4184.743652,4100.384766,4184.102539,4197.948730,4187.692383,0.000000,4.000000,95.000000,,,,0.000000,4.000000,4.000000,4.000000,4.000000,4.000000,4.000000,4.000000,4.000000,4.000000,4.000000,4.000000,4.000000,4.000000,4.000000,100.000000,,,,,,,,,,,,,,,,
1645707816.134908,1645707816.158927,38.000000,0.000000,4211.794922,4225.000000,4166.666504,4206.538574,4222.948730,4209.102539,4206.666504,4220.384766,4216.282227,4179.230957,4093.718018,4174.615234,4190.897461,4180.512695,0.000000,4.000000,95.000000,,,,0.000000,4.000000,4.000000,4.000000,4.000000,4.000000,4.000000,4.000000,4.000000,4.000000,4.000000,4.000000,4.000000,4.000000,4.000000,100.000000,,,,,,,,,,,,,,,,
1645707816.138848,1645707816.162867,39.000000,0.000000,4213.077148,4224.102539,4164.358887,4208.846191,4224.871582,4213.077148,4206.666504,4211.282227,4213.333496,4169.743652,4090.769287,4168.846191,4187.820313,4181.282227,0.000000,4.000000,95.000000,,,,0.000000,4.000000,4.000000,4.000000,4.000000,4.000000,4.000000,4.000000,4.000000,4.000000,4.000000,4.000000,4.000000,4.000000,4.000000,100.000000,,,,,,,,,,,,,,,,
1645707816.142788,1645707816.166807,40.000000,0.000000,4217.820313,4224.743652,4166.410156,4215.128418,4230.384766,4217.307617,4206.922852,4202.692383,4209.487305,4161.666504,4092.564209,4169.230957,4189.230957,4187.692383,0.000000,4.000000,95.000000,,,,0.000000,4.000000,4.000000,4.000000,4.000000,4.000000,4.000000,4.000000,4.000000,4.000000,4.000000,4.000000,4.000000,4.000000,4.000000,100.000000,,,,,,,,,,,,,,,,
1645707816.146728,1645707816.170747,41.000000,0.000000,4221.538574,4224.358887,4170.769043,4221.410156,4236.922852,4217.436035,4206.794922,4200.512695,4206.025879,4157.820313,4098.205078,4174.487305,4193.205078,4194.358887,0.000000,4.000000,95.000000,,,,0.000000,4.000000,4.000000,4.000000,4.000000,4.000000,4.000000,4.000000,4.000000,4.000000,4.000000,4.000000,4.000000,4.000000,4.000000,100.000000,,,,,,,,,,,,,,,,
1645707816.150668,1645707816.174687,42.000000,0.000000,4221.922852,4223.205078,4173.717773,4223.846191,4240.000000,4213.717773,4205.384766,4205.769043,4204.230957,4158.077148,4106.153809,4181.538574,4197.051270,4197.307617,0.000000,4.000000,95.000000,,,,0.000000,4.000000,4.000000,4.000000,4.000000,4.000000,4.000000,4.000000,4.000000,4.000000,4.000000,4.000000,4.000000,4.000000,4.000000,100.000000,,,,,,,,,,,,,,,,
1645707816.154608,1645707816.178628,43.000000,0.000000,4219.487305,4223.717773,4173.205078,4220.641113,4235.897461,4209.487305,4202.436035,4213.589844,4205.128418,4160.512695,4114.230957,4187.436035,4198.974121,4196.922852,0.000000,4.000000,95.000000,,,,0.000000,4.000000,4.000000,4.000000,4.000000,4.000000,4.000000,4.000000,4.000000,4.000000,4.000000,4.000000,4.000000,4.000000,4.000000,100.000000,,,,,,,,,,,,,,,,
1645707816.158548,1645707816.182568,44.000000,0.000000,4216.025879,4226.410156,4169.871582,4212.692383,4223.846191,4207.820313,4198.974121,4217.563965,4207.692383,4162.563965,4118.846191,4189.615234,4197.563965,4195.384766,0.000000,4.000000,95.000000,,,,0.000000,4.000000,4.000000,4.000000,4.000000,4.000000,4.000000,4.000000,4.000000,4.000000,4.000000,4.000000,4.000000,4.000000,4.000000,100.000000,,,,,,,,,,,,,,,,
1645707816.162488,1645707816.186508,45.000000,0.000000,4212.307617,4228.205078,4166.410156,4203.333496,4208.333496,4208.461426,4196.922852,4214.615234,4210.128418,4162.563965,4116.666504,4186.410156,4192.179688,4193.333496,0.000000,4.000000,95.000000,,,,0.000000,4.000000,4.000000,4.000000,4.000000,4.000000,4.000000,4.000000,4.000000,4.000000,4.000000,4.000000,4.000000,4.000000,4.000000,100.000000,,,,,,,,,,,,,,,,
1645707816.166427,1645707816.190448,46.000000,0.000000,4208.717773,4225.512695,4165.256348,4197.307617,4197.051270,4209.615234,4198.461426,4207.563965,4211.025879,4160.769043,4107.692383,4178.589844,4184.487305,4189.871582,0.000000,4.000000,95.000000,,,,0.000000,4.000000,4.000000,4.000000,4.000000,4.000000,4.000000,4.000000,4.000000,4.000000,4.000000,4.000000,4.000000,4.000000,4.000000,100.000000,,,,,,,,,,,,,,,,
1645707816.170368,1645707816.194388,47.000000,0.000000,4205.641113,4218.589844,4166.794922,4197.179688,4196.538574,4209.743652,4202.563965,4201.794922,4210.512695,4159.871582,4097.179688,4169.871582,4178.077148,4185.384766,0.000000,4.000000,95.000000,,,,0.000000,4.000000,4.000000,4.000000,4.000000,4.000000,4.000000,4.000000,4.000000,4.000000,4.000000,4.000000,4.000000,4.000000,4.000000,100.000000,,,,,,,,,,,,,,,,
1645707816.174307,1645707816.198228,48.000000,0.000000,4204.358887,4211.922852,4169.871582,4202.051270,4207.436035,4209.102539,4206.410156,4200.769043,4209.230957,4161.410156,4091.794922,4165.256348,4177.051270,4182.436035,0.000000,4.000000,95.000000,,,,0.000000,4.000000,4.000000,4.000000,4.000000,4.000000,4.000000,4.000000,4.000000,4.000000,4.000000,4.000000,4.000000,4.000000,4.000000,100.000000,,,,,,,,,,,,,,,,
1645707816.178248,1645707816.202168,49.000000,0.000000,4205.512695,4210.000000,4173.205078,4208.333496,4223.717773,4208.461426,4207.179688,4204.230957,4206.922852,4163.846191,4095.000000,4167.051270,4181.794922,4183.589844,0.000000,4.000000,95.000000,,,,0.000000,4.000000,4.000000,4.000000,4.000000,4.000000,4.000000,4.000000,4.000000,4.000000,4.000000,4.000000,4.000000,4.000000,4.000000,100.000000,,,,,,,,,,,,,,,,
1645707816.182187,1645707816.206108,50.000000,0.000000,4208.717773,4214.102539,4175.641113,4212.820313,4237.051270,4208.205078,4204.743652,4208.589844,4203.077148,4163.846191,4104.871582,4173.589844,4188.846191,4188.461426,0.000000,4.000000,95.000000,,,,0.000000,4.000000,4.000000,4.000000,4.000000,4.000000,4.000000,4.000000,4.000000,4.000000,4.000000,4.000000,4.000000,4.000000,4.000000,100.000000,,,,,,,,,,,,,,,,
1645707816.186128,1645707816.210048,51.000000,0.000000,4211.922852,4221.538574,4176.794922,4214.358887,4242.692383,4208.461426,4201.794922,4210.512695,4198.846191,4161.153809,4114.743652,4180.512695,4192.563965,4193.461426,0.000000,4.000000,95.000000,,,,0.000000,4.000000,4.000000,4.000000,4.000000,4.000000,4.000000,4.000000,4.000000,4.000000,4.000000,4.000000,4.000000,4.000000,4.000000,100.000000,,,,,,,,,,,,,,,,
1645707816.190068,1645707816.213989,52.000000,0.000000,4213.589844,4228.077148,4177.179688,4214.487305,4241.410156,4209.102539,4201.538574,4208.974121,4197.051270,4159.615234,4119.615234,4184.358887,4190.897461,4194.615234,0.000000,4.000000,95.000000,,,,0.000000,4.000000,4.000000,4.000000,4.000000,4.000000,4.000000,4.000000,4.000000,4.000000,4.000000,4.000000,4.000000,4.000000,4.000000,100.000000,,,,,,,,,,,,,,,,
1645707816.194008,1645707816.217929,53.000000,0.000000,4213.717773,4230.512695,4177.948730,4215.512695,4236.410156,4210.128418,4204.487305,4206.153809,4200.256348,4162.307617,4119.230957,4184.743652,4186.794922,4191.282227,0.000000,4.000000,95.000000,,,,0.000000,4.000000,4.000000,4.000000,4.000000,4.000000,4.000000,4.000000,4.000000,4.000000,4.000000,4.000000,4.000000,4.000000,4.000000,100.000000,,,,,,,,,,,,,,,,
1645707816.197948,1645707816.221869,54.000000,0.000000,4213.205078,4228.333496,4179.358887,4217.307617,4229.358887,4211.410156,4208.717773,4205.512695,4207.820313,4167.563965,4117.179688,4183.846191,4184.615234,4186.410156,0.000000,4.000000,95.000000,,,,0.000000,4.000000,4.000000,4.000000,4.000000,4.000000,4.000000,4.000000,4.000000,4.000000,4.000000,4.000000,4.000000,4.000000,4.000000,100.000000,,,,,,,,,,,,,,,,
1645707816.201887,1645707816.225809,55.000000,0.000000,4212.820313,4223.461426,4180.641113,4217.820313,4220.128418,4212.051270,4211.282227,4208.461426,4215.384766,4169.487305,4116.410156,4183.846191,4185.897461,4183.333496,0.000000,4.000000,95.000000,,,,0.000000,4.000000,4.000000,4.000000,4.000000,4.000000,4.000000,4.000000,4.000000,4.000000,4.000000,4.000000,4.000000,4.000000,4.000000,100.000000,,,,,,,,,,,,,,,,
1645707816.205828,1645707816.229749,56.000000,0.000000,4211.794922,4218.077148,4179.743652,4214.743652,4209.871582,4211.410156,4210.512695,4212.948730,4218.077148,4164.358887,4116.794922,4184.743652,4187.948730,4183.205078,0.000000,4.000000,95.000000,,,,0.000000,4.000000,4.000000,4.000000,4.000000,4.000000,4.000000,4.000000,4.000000,4.000000,4.000000,4.000000,4.000000,4.000000,4.000000,100.000000,,,,,,,,,,,,,,,,
1645707816.209767,1645707816.233689,57.000000,0.000000,4209.102539,4213.589844,4175.769043,4209.358887,4203.974121,4209.230957,4207.179688,4216.025879,4215.512695,4155.128418,4116.538574,4184.871582,4186.794922,4184.230957,0.000000,4.000000,95.000000,,,,0.000000,4.000000,4.000000,4.000000,4.000000,4.000000,4.000000,4.000000,4.000000,4.000000,4.000000,4.000000,4.000000,4.000000,4.000000,100.000000,,,,,,,,,,,,,,,,
1645707816.213708,1645707816.237629,58.000000,0.000000,4205.256348,4210.512695,4170.128418,4205.384766,4208.461426,4206.666504,4203.589844,4215.769043,4210.641113,4148.846191,4114.487305,4182.820313,4181.538574,4184.102539,0.000000,4.000000,95.000000,,,,0.000000,4.000000,4.000000,4.000000,4.000000,4.000000,4.000000,4.000000,4.000000,4.000000,4.000000,4.000000,4.000000,4.000000,4.000000,100.000000,,,,,,,,,,,,,,,,
1645707816.217647,1645707816.241569,59.000000,0.000000,4201.794922,4209.358887,4165.769043,4205.641113,4223.589844,4205.000000,4202.179688,4212.948730,4207.051270,4150.128418,4111.538574,4178.589844,4175.641113,4182.307617,0.000000,4.000000,95.000000,,,,0.000000,4.000000,4.000000,4.000000,4.000000,4.000000,4.000000,4.000000,4.000000,4.000000,4.000000,4.000000,4.000000,4.000000,4.000000,100.000000,,,,,,,,,,,,,,,,
1645707816.221588,1645707816.245509,60.000000,0.000000,4199.871582,4210.128418,4164.743652,4208.846191,4240.769043,4205.384766,4203.974121,4209.487305,4205.769043,4157.692383,4109.230957,4174.230957,4173.333496,4179.615234,0.000000,4.000000,95.000000,,,,0.000000,4.000000,4.000000,4.000000,4.000000,4.000000,4.000000,4.000000,4.000000,4.000000,4.000000,4.000000,4.000000,4.000000,4.000000,100.000000,,,,,,,,,,,,,,,,
1645707816.225527,1645707816.249450,61.000000,0.000000,4199.487305,4212.436035,4166.794922,4210.897461,4247.948730,4207.820313,4208.077148,4206.538574,4206.282227,4165.897461,4108.205078,4171.282227,4175.256348,4177.436035,0.000000,4.000000,95.000000,,,,0.000000,4.000000,4.000000,4.000000,4.000000,4.000000,4.000000,4.000000,4.000000,4.000000,4.000000,4.000000,4.000000,4.000000,4.000000,100.000000,,,,,,,,,,,,,,,,
1645707816.229468,1645707816.253390,62.000000,0.000000,4198.717773,4214.358887,4169.230957,4209.102539,4240.000000,4211.410156,4212.563965,4204.487305,4207.820313,4169.871582,4107.436035,4169.102539,4178.333496,4176.153809,0.000000,4.000000,95.000000,,,,0.000000,4.000000,4.000000,4.000000,4.000000,4.000000,4.000000,4.000000,4.000000,4.000000,4.000000,4.000000,4.000000,4.000000,4.000000,100.000000,,,,,,,,,,,,,,,,
1645707816.233408,1645707816.257330,63.000000,0.000000,4196.666504,4214.102539,4169.615234,4204.487305,4223.205078,4214.743652,4214.615234,4203.077148,4209.102539,4168.333496,4106.025879,4166.410156,4178.974121,4174.743652,0.000000,4.000000,95.000000,,,,0.000000,4.000000,4.000000,4.000000,4.000000,4.000000,4.000000,4.000000,4.000000,4.000000,4.000000,4.000000,4.000000,4.000000,4.000000,100.000000,,,,,,,,,,,,,,,,
1645707816.237347,1645707816.261270,64.000000,0.000000,4193.717773,4210.641113,4167.948730,4201.025879,4210.128418,4216.538574,4213.205078,4202.051270,4209.230957,4163.333496,4103.974121,4163.077148,4175.769043,4172.436035,0.000000,4.000000,95.000000,,,,0.000000,4.000000,4.000000,4.000000,4.000000,4.000000,4.000000,4.000000,4.000000,4.000000,4.000000,4.000000,4.000000,4.000000,4.000000,100.000000,,,,,,,,,,,,,,,,
1645707816.241288,1645707816.265110,65.000000,0.000000,4192.436035,4206.666504,4167.436035,4202.179688,4209.102539,4215.512695,4209.615234,4201.153809,4208.461426,4158.589844,4103.333496,4161.282227,4171.153809,4170.384766,0.000000,4.000000,95.000000,,,,0.000000,4.000000,4.000000,4.000000,4.000000,4.000000,4.000000,4.000000,4.000000,4.000000,4.000000,4.000000,4.000000,4.000000,4.000000,100.000000,,,,,,,,,,,,,,,,
1645707816.245227,1645707816.269050,66.000000,0.000000,4196.153809,4207.051270,4170.897461,4207.692383,4219.230957,4212.307617,4206.282227,4200.641113,4207.820313,4157.948730,4106.538574,4163.461426,4170.000000,4171.538574,0.000000,4.000000,95.000000,,,,0.000000,4.000000,4.000000,4.000000,4.000000,4.000000,4.000000,4.000000,4.000000,4.000000,4.000000,4.000000,4.000000,4.000000,4.000000,100.000000,,,,,,,,,,,,,,,,
1645707816.249168,1645707816.272990,67.000000,0.000000,4206.282227,4215.000000,4178.589844,4214.615234,4232.820313,4208.589844,4204.487305,4200.641113,4208.589844,4162.307617,4114.743652,4170.384766,4175.384766,4178.974121,0.000000,4.000000,95.000000,,,,0.000000,4.000000,4.000000,4.000000,4.000000,4.000000,4.000000,4.000000,4.000000,4.000000,4.000000,4.000000,4.000000,4.000000,4.000000,100.000000,,,,,,,,,,,,,,,,
1645707816.253107,1645707816.276930,68.000000,0.000000,4221.153809,4227.948730,4187.948730,4219.871582,4241.282227,4206.794922,4204.102539,4201.666504,4210.769043,4170.384766,4125.641113,4180.512695,4186.153809,4191.794922,0.000000,4.000000,95.000000,,,,0.000000,4.000000,4.000000,4.000000,4.000000,4.000000,4.000000,4.000000,4.000000,4.000000,4.000000,4.000000,4.000000,4.000000,4.000000,100.000000,,,,,,,,,,,,,,,,
1645707816.257048,1645707816.280870,69.000000,0.000000,4236.282227,4239.358887,4196.282227,4222.820313,4241.025879,4207.820313,4205.256348,4203.205078,4213.205078,4178.205078,4134.487305,4190.641113,4197.051270,4205.769043,0.000000,4.000000,95.000000,,,,0.000000,4.000000,4.000000,4.000000,4.000000,4.000000,4.000000,4.000000,4.000000,4.000000,4.000000,4.000000,4.000000,4.000000,4.000000,100.000000,,,,,,,,,,,,,,,,
1645707816.260987,1645707816.284811,70.000000,0.000000,4246.282227,4243.589844,4201.538574,4225.256348,4233.461426,4210.897461,4207.179688,4204.102539,4214.743652,4182.051270,4137.563965,4197.692383,4203.205078,4215.641113,0.000000,4.000000,95.000000,,,,0.000000,4.000000,4.000000,4.000000,4.000000,4.000000,4.000000,4.000000,4.000000,4.000000,4.000000,4.000000,4.000000,4.000000,4.000000,100.000000,,,,,,,,,,,,,,,,
1645707816.264928,1645707816.288751,71.000000,0.000000,4247.948730,4239.615234,4202.820313,4228.077148,4222.820313,4213.333496,4208.333496,4202.820313,4214.871582,4180.384766,4135.641113,4200.384766,4202.820313,4218.589844,0.000000,4.000000,95.000000,,,,0.000000,4.000000,4.000000,4.000000,4.000000,4.000000,4.000000,4.000000,4.000000,4.000000,4.000000,4.000000,4.000000,4.000000,4.000000,100.000000,,,,,,,,,,,,,,,,
1645707816.268867,1645707816.292691,72.000000,0.000000,4242.692383,4231.410156,4200.000000,4230.384766,4213.717773,4212.692383,4207.051270,4198.846191,4213.589844,4174.358887,4132.051270,4198.974121,4198.205078,4216.282227,0.000000,4.000000,95.000000,,,,0.000000,4.000000,4.000000,4.000000,4.000000,4.000000,4.000000,4.000000,4.000000,4.000000,4.000000,4.000000,4.000000,4.000000,4.000000,100.000000,,,,,,,,,,,,,,,,
1645707816.272807,1645707816.296631,73.000000,0.000000,4235.256348,4223.974121,4194.743652,4230.128418,4210.256348,4208.333496,4202.436035,4193.461426,4211.025879,4166.794922,4130.769043,4195.512695,4192.820313,4212.692383,0.000000,4.000000,95.000000,,,,0.000000,4.000000,4.000000,4.000000,4.000000,4.000000,4.000000,4.000000,4.000000,4.000000,4.000000,4.000000,4.000000,4.000000,4.000000,100.000000,,,,,,,,,,,,,,,,
1645707816.276747,1645707816.300571,74.000000,0.000000,4229.871582,4219.871582,4189.358887,4226.025879,4214.102539,4202.307617,4195.897461,4189.615234,4208.205078,4160.641113,4131.666504,4191.666504,4188.461426,4210.000000,0.000000,4.000000,95.000000,,,,0.000000,4.000000,4.000000,4.000000,4.000000,4.000000,4.000000,4.000000,4.000000,4.000000,4.000000,4.000000,4.000000,4.000000,4.000000,100.000000,,,,,,,,,,,,,,,,
1645707816.280687,1645707816.304511,75.000000,0.000000,4227.692383,4218.717773,4185.769043,4219.358887,4222.820313,4197.436035,4191.410156,4189.871582,4205.897461,4158.717773,4132.179688,4188.974121,4185.512695,4207.948730,0.000000,4.000000,95.000000,,,,0.000000,4.000000,4.000000,4.000000,4.000000,4.000000,4.000000,4.000000,4.000000,4.000000,4.000000,4.000000,4.000000,4.000000,4.000000,100.000000,,,,,,,,,,,,,,,,
1645707816.284628,1645707816.308451,76.000000,0.000000,4227.179688,4218.974121,4184.487305,4213.205078,4230.641113,4196.025879,4192.563965,4194.358887,4206.025879,4162.051270,4130.512695,4188.333496,4184.230957,4205.641113,0.000000,4.000000,95.000000,,,,0.000000,4.000000,4.000000,4.000000,4.000000,4.000000,4.000000,4.000000,4.000000,4.000000,4.000000,4.000000,4.000000,4.000000,4.000000,100.000000,,,,,,,,,,,,,,,,
1645707816.288567,1645707816.312391,77.000000,0.000000,4226.922852,4219.230957,4184.743652,4211.666504,4231.922852,4199.230957,4199.102539,4201.153809,4209.358887,4169.230957,4128.974121,4190.384766,4185.769043,4204.230957,0.000000,4.000000,95.000000,,,,0.000000,4.000000,4.000000,4.000000,4.000000,4.000000,4.000000,4.000000,4.000000,4.000000,4.000000,4.000000,4.000000,4.000000,4.000000,100.000000,,,,,,,,,,,,,,,,
1645707816.292508,1645707816.316331,78.000000,0.000000,4227.179688,4219.615234,4185.256348,4215.769043,4225.256348,4205.897461,4206.410156,4206.794922,4214.743652,4177.436035,4131.153809,4194.871582,4190.641113,4205.384766,0.000000,4.000000,95.000000,,,,0.000000,4.000000,4.000000,4.000000,4.000000,4.000000,4.000000,4.000000,4.000000,4.000000,4.000000,4.000000,4.000000,4.000000,4.000000,100.000000,,,,,,,,,,,,,,,,
1645707816.296447,1645707816.320272,79.000000,0.000000,4228.205078,4220.512695,4185.512695,4222.948730,4215.000000,4213.205078,4210.128418,4208.589844,4219.230957,4183.333496,4138.205078,4200.128418,4197.436035,4209.230957,0.000000,4.000000,95.000000,,,,0.000000,4.000000,4.000000,4.000000,4.000000,4.000000,4.000000,4.000000,4.000000,4.000000,4.000000,4.000000,4.000000,4.000000,4.000000,100.000000,,,,,,,,,,,,,,,,
1645707816.300388,1645707816.324212,80.000000,0.000000,4228.974121,4220.256348,4185.384766,4228.589844,4209.102539,4217.692383,4208.974121,4206.538574,4220.384766,4185.000000,4146.794922,4203.333496,4203.205078,4213.461426,0.000000,4.000000,95.000000,,,,0.000000,4.000000,4.000000,4.000000,4.000000,4.000000,4.000000,4.000000,4.000000,4.000000,4.000000,4.000000,4.000000,4.000000,4.000000,100.000000,,,,,,,,,,,,,,,,
1645707816.304327,1645707816.328152,81.000000,0.000000,4228.461426,4217.692383,4184.871582,4229.487305,4213.205078,4217.692383,4205.512695,4202.948730,4218.717773,4182.692383,4151.666504,4203.077148,4205.512695,4215.512695,0.000000,4.000000,95.000000,,,,0.000000,4.000000,4.000000,4.000000,4.000000,4.000000,4.000000,4.000000,4.000000,4.000000,4.000000,4.000000,4.000000,4.000000,4.000000,100.000000,,,,,,,,,,,,,,,,
1645707816.308267,1645707816.332092,82.000000,0.000000,4226.794922,4214.615234,4183.974121,4226.153809,4226.410156,4215.000000,4203.589844,4201.025879,4216.538574,4178.974121,4150.769043,4200.384766,4204.487305,4215.000000,0.000000,4.000000,95.000000,,,,0.000000,4.000000,4.000000,4.000000,4.000000,4.000000,4.000000,4.000000,4.000000,4.000000,4.000000,4.000000,4.000000,4.000000,4.000000,100.000000,,,,,,,,,,,,,,,,
1645707816.312207,1645707816.336132,83.000000,0.000000,4226.153809,4214.487305,4182.692383,4221.666504,4241.538574,4213.333496,4205.128418,4202.051270,4215.769043,4176.922852,4146.282227,4197.692383,4202.563965,4214.358887,0.000000,4.000000,95.000000,,,,0.000000,4.000000,4.000000,4.000000,4.000000,4.000000,4.000000,4.000000,4.000000,4.000000,4.000000,4.000000,4.000000,4.000000,4.000000,100.000000,,,,,,,,,,,,,,,,
1645707816.316147,1645707816.340072,84.000000,0.000000,4228.077148,4219.487305,4181.282227,4219.230957,4249.230957,4214.615234,4208.974121,4204.743652,4216.538574,4177.563965,4142.692383,4197.051270,4201.922852,4215.384766,0.000000,4.000000,95.000000,,,,0.000000,4.000000,4.000000,4.000000,4.000000,4.000000,4.000000,4.000000,4.000000,4.000000,4.000000,4.000000,4.000000,4.000000,4.000000,100.000000,,,,,,,,,,,,,,,,
1645707816.320087,1645707816.344012,85.000000,0.000000,4231.922852,4227.051270,4181.410156,4220.128418,4245.512695,4217.179688,4212.179688,4207.051270,4217.692383,4179.615234,4142.563965,4198.589844,4202.436035,4218.205078,0.000000,4.000000,95.000000,,,,0.000000,4.000000,4.000000,4.000000,4.000000,4.000000,4.000000,4.000000,4.000000,4.000000,4.000000,4.000000,4.000000,4.000000,4.000000,100.000000,,,,,,,,,,,,,,,,
1645707816.324027,1645707816.347952,86.000000,0.000000,4236.153809,4232.307617,4184.230957,4224.358887,4235.256348,4218.717773,4212.948730,4208.077148,4218.333496,4181.794922,4146.153809,4200.769043,4203.717773,4221.666504,0.000000,4.000000,95.000000,,,,0.000000,4.000000,4.000000,4.000000,4.000000,4.000000,4.000000,4.000000,4.000000,4.000000,4.000000,4.000000,4.000000,4.000000,4.000000,100.000000,,,,,,,,,,,,,,,,
1645707816.327968,1645707816.351892,87.000000,0.000000,4239.871582,4232.179688,4189.102539,4230.128418,4227.692383,4219.102539,4211.538574,4208.333496,4218.589844,4184.743652,4151.922852,4202.563965,4206.153809,4225.384766,0.000000,4.000000,95.000000,,,,0.000000,4.000000,4.000000,4.000000,4.000000,4.000000,4.000000,4.000000,4.000000,4.000000,4.000000,4.000000,4.000000,4.000000,4.000000,100.000000,,,,,,,,,,,,,,,,
1645707816.331907,1645707816.355832,88.000000,0.000000,4242.692383,4228.589844,4193.974121,4234.871582,4229.102539,4220.128418,4210.256348,4208.461426,4218.846191,4188.974121,4157.820313,4203.205078,4210.512695,4228.333496,0.000000,4.000000,95.000000,,,,0.000000,4.000000,4.000000,4.000000,4.000000,4.000000,4.000000,4.000000,4.000000,4.000000,4.000000,4.000000,4.000000,4.000000,4.000000,100.000000,,,,,,,,,,,,,,,,
1645707816.335848,1645707816.359772,89.000000,0.000000,4243.205078,4225.641113,4195.769043,4235.512695,4237.948730,4222.948730,4210.384766,4209.102539,4219.230957,4192.179688,4160.897461,4202.436035,4215.256348,4228.846191,0.000000,4.000000,95.000000,,,,0.000000,4.000000,4.000000,4.000000,4.000000,4.000000,4.000000,4.000000,4.000000,4.000000,4.000000,4.000000,4.000000,4.000000,4.000000,100.000000,,,,,,,,,,,,,,,,
1645707816.339787,1645707816.363713,90.000000,0.000000,4239.487305,4225.512695,4192.948730,4230.512695,4246.922852,4226.153809,4211.153809,4210.256348,4218.846191,4190.256348,4159.102539,4198.846191,4217.563965,4225.128418,0.000000,4.000000,95.000000,,,,0.000000,4.000000,4.000000,4.000000,4.000000,4.000000,4.000000,4.000000,4.000000,4.000000,4.000000,4.000000,4.000000,4.000000,4.000000,100.000000,,,,,,,,,,,,,,,,
1645707816.343727,1645707816.367653,91.000000,0.000000,4232.563965,4227.179688,4186.922852,4222.179688,4249.743652,4227.179688,4210.769043,4211.922852,4216.922852,4182.307617,4153.077148,4192.692383,4215.512695,4217.948730,0.000000,4.000000,95.000000,,,,0.000000,4.000000,4.000000,4.000000,4.000000,4.000000,4.000000,4.000000,4.000000,4.000000,4.000000,4.000000,4.000000,4.000000,4.000000,100.000000,,,,,,,,,,,,,,,,
1645707816.347667,1645707816.371593,92.000000,0.000000,4226.538574,4228.333496,4181.538574,4215.256348,4246.282227,4225.128418,4208.589844,4213.974121,4214.615234,4173.717773,4147.179688,4186.538574,4211.153809,4211.666504,0.000000,4.000000,95.000000,,,,0.000000,4.000000,4.000000,4.000000,4.000000,4.000000,4.000000,4.000000,4.000000,4.000000,4.000000,4.000000,4.000000,4.000000,4.000000,100.000000,,,,,,,,,,,,,,,,
1645707816.351607,1645707816.375533,93.000000,0.000000,4226.025879,4228.461426,4180.384766,4213.846191,4240.769043,4222.179688,4205.384766,4215.641113,4214.358887,4171.922852,4145.384766,4183.589844,4209.102539,4211.153809,0.000000,4.000000,95.000000,,,,0.000000,4.000000,4.000000,4.000000,4.000000,4.000000,4.000000,4.000000,4.000000,4.000000,4.000000,4.000000,4.000000,4.000000,4.000000,100.000000,,,,,,,,,,,,,,,,
1645707816.355547,1645707816.379473,94.000000,0.000000,4231.025879,4227.563965,4182.820313,4217.436035,4237.051270,4220.897461,4203.077148,4215.897461,4217.563965,4179.743652,4148.846191,4184.615234,4211.538574,4216.666504,0.000000,4.000000,95.000000,,,,0.000000,4.000000,4.000000,4.000000,4.000000,4.000000,4.000000,4.000000,4.000000,4.000000,4.000000,4.000000,4.000000,4.000000,4.000000,100.000000,,,,,,,,,,,,,,,,
1645707816.359487,1645707816.383413,95.000000,0.000000,4236.282227,4226.153809,4184.871582,4221.538574,4236.153809,4222.307617,4202.692383,4213.974121,4222.692383,4191.922852,4153.461426,4187.436035,4216.538574,4222.692383,0.000000,4.000000,95.000000,,,,0.000000,4.000000,4.000000,4.000000,4.000000,4.000000,4.000000,4.000000,4.000000,4.000000,4.000000,4.000000,4.000000,4.000000,4.000000,100.000000,,,,,,,,,,,,,,,,
1645707816.363427,1645707816.387353,96.000000,0.000000,4236.282227,4224.230957,4182.692383,4222.179688,4237.179688,4225.641113,4203.974121,4210.256348,4226.282227,4200.000000,4154.743652,4188.461426,4219.615234,4222.692383,0.000000,4.000000,95.000000,,,,0.000000,4.000000,4.000000,4.000000,4.000000,4.000000,4.000000,4.000000,4.000000,4.000000,4.000000,4.000000,4.000000,4.000000,4.000000,100.000000,,,,,,,,,,,,,,,,
1645707816.367367,1645707816.391293,97.000000,0.000000,4230.000000,4222.436035,4175.897461,4219.230957,4239.487305,4228.974121,4205.384766,4206.794922,4225.512695,4199.743652,4151.410156,4186.153809,4218.205078,4215.256348,0.000000,4.000000,95.000000,,,,0.000000,4.000000,4.000000,4.000000,4.000000,4.000000,4.000000,4.000000,4.000000,4.000000,4.000000,4.000000,4.000000,4.000000,4.000000,100.000000,,,,,,,,,,,,,,,,
1645707816.371307,1645707816.395233,98.000000,0.000000,4221.538574,4221.282227,4167.307617,4215.256348,4241.922852,4230.256348,4205.512695,4205.384766,4221.282227,4193.717773,4147.948730,4182.179688,4214.615234,4205.769043,0.000000,4.000000,95.000000,,,,0.000000,4.000000,4.000000,4.000000,4.000000,4.000000,4.000000,4.000000,4.000000,4.000000,4.000000,4.000000,4.000000,4.000000,4.000000,100.000000,,,,,,,,,,,,,,,,
1645707816.375247,1645707816.399174,99.000000,0.000000,4216.538574,4220.897461,4161.282227,4213.077148,4243.205078,4227.820313,4203.717773,4206.666504,4217.563965,4187.948730,4148.846191,4180.128418,4213.461426,4201.025879,0.000000,4.000000,95.000000,,,,0.000000,4.000000,4.000000,4.000000,4.000000,4.000000,4.000000,4.000000,4.000000,4.000000,4.000000,4.000000,4.000000,4.000000,4.000000,100.000000,,,,,,,,,,,,,,,,
1645707816.379187,1645707816.403114,100.000000,0.000000,4217.179688,4219.871582,4160.769043,4213.205078,4241.282227,4222.051270,4201.410156,4209.487305,4218.461426,4186.538574,4155.128418,4181.922852,4217.948730,4203.717773,0.000000,4.000000,95.000000,,,,0.000000,4.000000,4.000000,4.000000,4.000000,4.000000,4.000000,4.000000,4.000000,4.000000,4.000000,4.000000,4.000000,4.000000,4.000000,100.000000,,,,,,,,,,,,,,,,
1645707816.383127,1645707816.407054,101.000000,0.000000,4221.538574,4216.922852,4166.025879,4214.615234,4235.641113,4215.384766,4200.769043,4212.307617,4224.102539,4188.974121,4162.563965,4186.282227,4226.282227,4211.025879,0.000000,4.000000,95.000000,,,,0.000000,4.000000,4.000000,4.000000,4.000000,4.000000,4.000000,4.000000,4.000000,4.000000,4.000000,4.000000,4.000000,4.000000,4.000000,100.000000,,,,,,,,,,,,,,,,
1645707816.387067,1645707816.411094,102.000000,0.000000,4225.641113,4213.205078,4174.358887,4215.897461,4227.692383,4211.025879,4202.307617,4213.077148,4230.256348,4192.948730,4166.410156,4190.384766,4233.461426,4217.948730,0.000000,4.000000,95.000000,,,,0.000000,4.000000,4.000000,4.000000,4.000000,4.000000,4.000000,4.000000,4.000000,4.000000,4.000000,4.000000,4.000000,4.000000,4.000000,100.000000,,,,,,,,,,,,,,,,
1645707816.391007,1645707816.415034,103.000000,0.000000,4227.436035,4211.282227,4181.025879,4216.153809,4220.641113,4210.641113,4204.743652,4210.641113,4232.563965,4196.538574,4165.769043,4191.922852,4235.000000,4222.307617,0.000000,4.000000,95.000000,,,,0.000000,4.000000,4.000000,4.000000,4.000000,4.000000,4.000000,4.000000,4.000000,4.000000,4.000000,4.000000,4.000000,4.000000,4.000000,100.000000,,,,,,,,,,,,,,,,
1645707816.394947,1645707816.418974,104.000000,0.000000,4226.794922,4213.589844,4182.436035,4215.256348,4216.922852,4213.717773,4206.410156,4205.512695,4229.487305,4199.230957,4163.589844,4191.153809,4230.897461,4224.615234,0.000000,4.000000,95.000000,,,,0.000000,4.000000,4.000000,4.000000,4.000000,4.000000,4.000000,4.000000,4.000000,4.000000,4.000000,4.000000,4.000000,4.000000,4.000000,100.000000,,,,,,,,,,,,,,,,
1645707816.398887,1645707816.422914,105.000000,0.000000,4225.128418,4219.487305,4179.487305,4213.717773,4218.077148,4218.205078,4206.282227,4201.410156,4223.717773,4201.153809,4163.846191,4190.512695,4224.743652,4226.282227,0.000000,4.000000,95.000000,,,,0.000000,4.000000,4.000000,4.000000,4.000000,4.000000,4.000000,4.000000,4.000000,4.000000,4.000000,4.000000,4.000000,4.000000,4.000000,100.000000,,,,,,,,,,,,,,,,
1645707816.402827,1645707816.426854,106.000000,0.000000,4223.974121,4225.897461,4175.512695,4211.794922,4224.487305,4222.436035,4206.025879,4201.666504,4219.615234,4202.307617,4169.102539,4192.051270,4220.897461,4227.820313,0.000000,4.000000,95.000000,,,,0.000000,4.000000,4.000000,4.000000,4.000000,4.000000,4.000000,4.000000,4.000000,4.000000,4.000000,4.000000,4.000000,4.000000,4.000000,100.000000,,,,,,,,,,,,,,,,
1645707816.406767,1645707816.430794,107.000000,0.000000,4223.717773,4229.487305,4173.589844,4210.512695,4234.743652,4225.897461,4207.563965,4206.794922,4219.615234,4203.717773,4178.077148,4195.512695,4221.025879,4228.589844,0.000000,4.000000,95.000000,,,,0.000000,4.000000,4.000000,4.000000,4.000000,4.000000,4.000000,4.000000,4.000000,4.000000,4.000000,4.000000,4.000000,4.000000,4.000000,100.000000,,,,,,,,,,,,,,,,
1645707816.410707,1645707816.434734,108.000000,0.000000,4223.846191,4228.717773,4173.974121,4211.538574,4245.641113,4228.846191,4211.153809,4212.692383,4222.563965,4206.282227,4186.153809,4198.717773,4223.461426,4227.692383,0.000000,4.000000,95.000000,,,,0.000000,4.000000,4.000000,4.000000,4.000000,4.000000,4.000000,4.000000,4.000000,4.000000,4.000000,4.000000,4.000000,4.000000,4.000000,100.000000,,,,,,,,,,,,,,,,
1645707816.414647,1645707816.438674,109.000000,0.000000,4224.230957,4225.769043,4175.384766,4215.897461,4252.179688,4231.153809,4215.128418,4214.615234,4225.384766,4209.871582,4188.589844,4198.974121,4224.871582,4226.153809,0.000000,4.000000,95.000000,,,,0.000000,4.000000,4.000000,4.000000,4.000000,4.000000,4.000000,4.000000,4.000000,4.000000,4.000000,4.000000,4.000000,4.000000,4.000000,100.000000,,,,,,,,,,,,,,,,
1645707816.418587,1645707816.442615,110.000000,0.000000,4225.384766,4223.461426,4176.922852,4222.563965,4250.256348,4232.563965,4217.179688,4211.025879,4225.000000,4211.025879,4183.461426,4195.641113,4222.563965,4225.000000,0.000000,4.000000,95.000000,,,,0.000000,4.000000,4.000000,4.000000,4.000000,4.000000,4.000000,4.000000,4.000000,4.000000,4.000000,4.000000,4.000000,4.000000,4.000000,100.000000,,,,,,,,,,,,,,,,
1645707816.422527,1645707816.446555,111.000000,0.000000,4226.922852,4223.589844,4177.948730,4227.692383,4240.641113,4232.307617,4216.538574,4204.487305,4220.897461,4205.256348,4174.487305,4190.384766,4216.025879,4224.871582,0.000000,4.000000,95.000000,,,,0.000000,4.000000,4.000000,4.000000,4.000000,4.000000,4.000000,4.000000,4.000000,4.000000,4.000000,4.000000,4.000000,4.000000,4.000000,100.000000,,,,,,,,,,,,,,,,
1645707816.426467,1645707816.450495,112.000000,0.000000,4227.436035,4225.256348,4178.589844,4228.333496,4229.487305,4229.743652,4213.846191,4199.230957,4215.256348,4191.153809,4167.179688,4185.512695,4207.692383,4225.000000,0.000000,4.000000,95.000000,,,,0.000000,4.000000,4.000000,4.000000,4.000000,4.000000,4.000000,4.000000,4.000000,4.000000,4.000000,4.000000,4.000000,4.000000,4.000000,100.000000,,,,,,,,,,,,,,,,
1645707816.430407,1645707816.454435,113.000000,0.000000,4226.282227,4226.410156,4178.333496,4224.487305,4224.743652,4225.128418,4210.000000,4197.820313,4211.794922,4173.205078,4165.384766,4182.820313,4201.153809,4224.358887,0.000000,4.000000,95.000000,,,,0.000000,4.000000,4.000000,4.000000,4.000000,4.000000,4.000000,4.000000,4.000000,4.000000,4.000000,4.000000,4.000000,4.000000,4.000000,100.000000,,,,,,,,,,,,,,,,
1645707816.434347,1645707816.458375,114.000000,0.000000,4224.102539,4226.025879,4178.205078,4219.615234,4230.512695,4220.000000,4206.410156,4200.256348,4212.436035,4161.538574,4168.589844,4182.692383,4200.000000,4222.820313,0.000000,4.000000,95.000000,,,,0.000000,4.000000,4.000000,4.000000,4.000000,4.000000,4.000000,4.000000,4.000000,4.000000,4.000000,4.000000,4.000000,4.000000,4.000000,100.000000,,,,,,,,,,,,,,,,
1645707816.438287,1645707816.462315,115.000000,0.000000,4222.820313,4225.128418,4179.871582,4217.436035,4243.205078,4216.538574,4205.128418,4204.743652,4216.666504,4164.102539,4172.692383,4184.230957,4204.615234,4221.794922,0.000000,4.000000,95.000000,,,,0.000000,4.000000,4.000000,4.000000,4.000000,4.000000,4.000000,4.000000,4.000000,4.000000,4.000000,4.000000,4.000000,4.000000,4.000000,100.000000,,,,,,,,,,,,,,,,
1645707816.442227,1645707816.466255,116.000000,0.000000,4223.333496,4225.769043,4183.974121,4218.846191,4253.589844,4216.025879,4206.922852,4208.846191,4221.666504,4180.384766,4173.846191,4186.153809,4212.179688,4222.563965,0.000000,4.000000,95.000000,,,,0.000000,4.000000,4.000000,4.000000,4.000000,4.000000,4.000000,4.000000,4.000000,4.000000,4.000000,4.000000,4.000000,4.000000,4.000000,100.000000,,,,,,,,,,,,,,,,
1645707816.446167,1645707816.470195,117.000000,0.000000,4224.615234,4228.974121,4188.333496,4221.538574,4253.717773,4217.820313,4210.512695,4210.512695,4225.000000,4200.641113,4171.410156,4187.307617,4217.948730,4225.641113,0.000000,4.000000,95.000000,,,,0.000000,4.000000,4.000000,4.000000,4.000000,4.000000,4.000000,4.000000,4.000000,4.000000,4.000000,4.000000,4.000000,4.000000,4.000000,100.000000,,,,,,,,,,,,,,,,
1645707816.450107,1645707816.474135,118.000000,0.000000,4225.256348,4232.563965,4188.589844,4222.948730,4243.974121,4219.743652,4212.563965,4208.717773,4225.384766,4213.205078,4168.589844,4187.436035,4219.358887,4229.230957,0.000000,4.000000,95.000000,,,,0.000000,4.000000,4.000000,4.000000,4.000000,4.000000,4.000000,4.000000,4.000000,4.000000,4.000000,4.000000,4.000000,4.000000,4.000000,100.000000,,,,,,,,,,,,,,,,
1645707816.454047,1645707816.478076,119.000000,0.000000,4225.000000,4234.230957,4183.205078,4221.922852,4231.666504,4219.487305,4210.512695,4204.487305,4223.333496,4212.948730,4169.230957,4187.179688,4217.692383,4231.538574,0.000000,4.000000,95.000000,,,,0.000000,4.000000,4.000000,4.000000,4.000000,4.000000,4.000000,4.000000,4.000000,4.000000,4.000000,4.000000,4.000000,4.000000,4.000000,100.000000,,,,,,,,,,,,,,,,
1645707816.457987,1645707816.482016,120.000000,0.000000,4225.384766,4231.922852,4175.769043,4219.743652,4224.871582,4216.666504,4205.384766,4200.641113,4220.128418,4203.589844,4173.974121,4187.563965,4216.538574,4231.666504,0.000000,4.000000,95.000000,,,,0.000000,4.000000,4.000000,4.000000,4.000000,4.000000,4.000000,4.000000,4.000000,4.000000,4.000000,4.000000,4.000000,4.000000,4.000000,100.000000,,,,,,,,,,,,,,,,
1645707816.461927,1645707816.485856,121.000000,0.000000,4227.051270,4225.641113,4171.666504,4217.436035,4225.256348,4212.307617,4201.025879,4199.358887,4216.666504,4193.205078,4179.358887,4188.333496,4218.333496,4230.769043,0.000000,4.000000,95.000000,,,,0.000000,4.000000,4.000000,4.000000,4.000000,4.000000,4.000000,4.000000,4.000000,4.000000,4.000000,4.000000,4.000000,4.000000,4.000000,100.000000,,,,,,,,,,,,,,,,
1645707816.465867,1645707816.489796,122.000000,0.000000,4228.077148,4217.179688,4173.205078,4214.615234,4228.205078,4208.974121,4200.384766,4200.641113,4214.487305,4187.307617,4181.282227,4188.974121,4222.179688,4230.128418,0.000000,4.000000,95.000000,,,,0.000000,4.000000,4.000000,4.000000,4.000000,4.000000,4.000000,4.000000,4.000000,4.000000,4.000000,4.000000,4.000000,4.000000,4.000000,100.000000,,,,,,,,,,,,,,,,
1645707816.469807,1645707816.493736,123.000000,0.000000,4226.153809,4209.871582,4177.307617,4210.769043,4227.179688,4208.205078,4202.692383,4202.692383,4214.615234,4187.179688,4178.333496,4188.461426,4225.128418,4229.615234,0.000000,4.000000,95.000000,,,,0.000000,4.000000,4.000000,4.000000,4.000000,4.000000,4.000000,4.000000,4.000000,4.000000,4.000000,4.000000,4.000000,4.000000,4.000000,100.000000,,,,,,,,,,,,,,,,
1645707816.473747,1645707816.497676,124.000000,0.000000,4220.641113,4206.025879,4178.974121,4206.538574,4220.128418,4209.230957,4204.230957,4203.333496,4216.666504,4190.384766,4172.820313,4186.794922,4225.256348,4228.205078,0.000000,4.000000,95.000000,,,,0.000000,4.000000,4.000000,4.000000,4.000000,4.000000,4.000000,4.000000,4.000000,4.000000,4.000000,4.000000,4.000000,4.000000,4.000000,100.000000,,,,,,,,,,,,,,,,
1645707816.477687,1645707816.501616,125.000000,0.000000,4213.589844,4205.512695,4176.153809,4203.717773,4210.512695,4209.487305,4201.794922,4201.538574,4218.589844,4193.974121,4168.333496,4184.615234,4222.563965,4225.384766,0.000000,4.000000,95.000000,,,,0.000000,4.000000,4.000000,4.000000,4.000000,4.000000,4.000000,4.000000,4.000000,4.000000,4.000000,4.000000,4.000000,4.000000,4.000000,100.000000,,,,,,,,,,,,,,,,
1645707816.481627,1645707816.505556,126.000000,0.000000,4208.461426,4206.666504,4171.538574,4203.461426,4204.230957,4207.051270,4196.153809,4198.077148,4218.461426,4195.897461,4167.051270,4183.333496,4218.717773,4222.307617,0.000000,4.000000,95.000000,,,,0.000000,4.000000,4.000000,4.000000,4.000000,4.000000,4.000000,4.000000,4.000000,4.000000,4.000000,4.000000,4.000000,4.000000,4.000000,100.000000,,,,,,,,,,,,,,,,
1645707816.485567,1645707816.509496,127.000000,0.000000,4208.077148,4208.333496,4168.974121,4205.641113,4204.615234,4203.077148,4191.025879,4194.615234,4216.282227,4195.128418,4169.358887,4183.846191,4216.538574,4221.282227,0.000000,4.000000,95.000000,,,,0.000000,4.000000,4.000000,4.000000,4.000000,4.000000,4.000000,4.000000,4.000000,4.000000,4.000000,4.000000,4.000000,4.000000,4.000000,100.000000,,,,,,,,,,,,,,,,
1645707816.489507,1645707816.513437,128.000000,0.000000,4213.333496,4211.538574,4171.025879,4209.358887,4210.384766,4200.512695,4189.743652,4192.948730,4213.974121,4192.179688,4172.820313,4186.025879,4217.692383,4223.974121,3263.000000,4.000000,95.000000,,,,0.000000,4.000000,4.000000,4.000000,4.000000,4.000000,4.000000,4.000000,4.000000,4.000000,4.000000,4.000000,4.000000,4.000000,4.000000,100.000000,,,,,,,,,,,,,,,,
1645707816.493447,1645707816.517377,129.000000,0.000000,4221.794922,4217.307617,4176.410156,4212.948730,4215.769043,4201.538574,4192.563965,4193.717773,4213.461426,4188.205078,4175.128418,4189.230957,4221.538574,4229.487305,3282.000000,4.000000,95.000000,,,,0.000000,4.000000,4.000000,4.000000,4.000000,4.000000,4.000000,4.000000,4.000000,4.000000,4.000000,4.000000,4.000000,4.000000,4.000000,100.000000,,,,,,,,,,,,,,,,
1645707816.497387,1645707816.521317,130.000000,0.000000,4228.846191,4224.230957,4181.282227,4214.230957,4215.256348,4204.615234,4197.051270,4196.410156,4215.000000,4184.615234,4175.256348,4191.282227,4224.743652,4234.743652,3524.000000,4.000000,95.000000,,,,0.000000,4.000000,4.000000,4.000000,4.000000,4.000000,4.000000,4.000000,4.000000,4.000000,4.000000,4.000000,4.000000,4.000000,4.000000,100.000000,,,,,,,,,,,,,,,,
1645707816.501327,1645707816.525257,131.000000,0.000000,4230.641113,4228.461426,4182.307617,4211.922852,4208.077148,4206.410156,4199.358887,4198.974121,4217.179688,4182.436035,4173.205078,4190.769043,4224.358887,4236.025879,3670.000000,4.000000,95.000000,,,,0.000000,4.000000,4.000000,4.000000,4.000000,4.000000,4.000000,4.000000,4.000000,4.000000,4.000000,4.000000,4.000000,4.000000,4.000000,100.000000,,,,,,,,,,,,,,,,
1645707816.505267,1645707816.529197,132.000000,0.000000,4226.794922,4227.820313,4179.743652,4207.179688,4198.589844,4204.615234,4198.077148,4199.358887,4218.333496,4182.820313,4169.615234,4187.820313,4219.871582,4232.563965,3530.000000,4.000000,95.000000,,,,0.000000,4.000000,4.000000,4.000000,4.000000,4.000000,4.000000,4.000000,4.000000,4.000000,4.000000,4.000000,4.000000,4.000000,4.000000,100.000000,,,,,,,,,,,,,,,,
1645707816.509207,1645707816.533137,133.000000,0.000000,4221.666504,4223.846191,4177.179688,4202.948730,4193.461426,4200.256348,4193.717773,4196.922852,4217.948730,4185.256348,4166.410156,4184.743652,4214.615234,4227.179688,3580.000000,4.000000,95.000000,,,,0.000000,4.000000,4.000000,4.000000,4.000000,4.000000,4.000000,4.000000,4.000000,4.000000,4.000000,4.000000,4.000000,4.000000,4.000000,100.000000,,,,,,,,,,,,,,,,
1645707816.513147,1645707816.537077,134.000000,0.000000,4219.358887,4220.256348,4177.820313,4201.922852,4195.641113,4197.179688,4189.615234,4193.846191,4216.922852,4189.230957,4166.025879,4183.974121,4212.820313,4223.974121,3117.000000,4.000000,95.000000,,,,0.000000,4.000000,4.000000,4.000000,4.000000,4.000000,4.000000,4.000000,4.000000,4.000000,4.000000,4.000000,4.000000,4.000000,4.000000,100.000000,,,,,,,,,,,,,,,,
1645707816.517087,1645707816.541017,135.000000,0.000000,4221.025879,4218.974121,4181.666504,4204.358887,4202.692383,4197.948730,4188.974121,4193.077148,4216.153809,4193.205078,4169.230957,4185.769043,4215.256348,4224.102539,2683.000000,4.000000,95.000000,,,,0.000000,4.000000,4.000000,4.000000,4.000000,4.000000,4.000000,4.000000,4.000000,4.000000,4.000000,4.000000,4.000000,4.000000,4.000000,100.000000,,,,,,,,,,,,,,,,
1645707816.521027,1645707816.544957,136.000000,0.000000,4223.205078,4219.230957,4185.384766,4208.717773,4209.615234,4202.051270,4192.563965,4195.769043,4215.897461,4195.384766,4173.974121,4187.820313,4219.487305,4225.897461,1409.000000,4.000000,95.000000,,,,0.000000,4.000000,4.000000,4.000000,4.000000,4.000000,4.000000,4.000000,4.000000,4.000000,4.000000,4.000000,4.000000,4.000000,4.000000,100.000000,,,,,,,,,,,,,,,,
1645707816.524967,1645707816.548898,137.000000,0.000000,4222.563965,4218.846191,4185.512695,4212.436035,4214.102539,4206.922852,4198.717773,4200.000000,4216.153809,4195.000000,4176.538574,4186.794922,4222.051270,4226.282227,3191.000000,4.000000,95.000000,,,,0.000000,4.000000,4.000000,4.000000,4.000000,4.000000,4.000000,4.000000,4.000000,4.000000,4.000000,4.000000,4.000000,4.000000,4.000000,100.000000,,,,,,,,,,,,,,,,
1645707816.528907,1645707816.552838,138.000000,0.000000,4218.461426,4216.922852,4181.666504,4213.846191,4216.666504,4210.769043,4203.974121,4203.333496,4216.282227,4192.692383,4174.743652,4181.794922,4221.410156,4224.358887,2812.000000,4.000000,95.000000,,,,0.000000,4.000000,4.000000,4.000000,4.000000,4.000000,4.000000,4.000000,4.000000,4.000000,4.000000,4.000000,4.000000,4.000000,4.000000,100.000000,,,,,,,,,,,,,,,,
1645707816.532847,1645707816.556878,139.000000,0.000000,4213.461426,4214.358887,4176.794922,4212.051270,4219.102539,4213.077148,4206.282227,4204.615234,4216.153809,4189.871582,4169.230957,4175.000000,4218.974121,4221.666504,3619.000000,4.000000,95.000000,,,,0.000000,4.000000,4.000000,4.000000,4.000000,4.000000,4.000000,4.000000,4.000000,4.000000,4.000000,4.000000,4.000000,4.000000,4.000000,100.000000,,,,,,,,,,,,,,,,
1645707816.536787,1645707816.560818,140.000000,0.000000,4209.743652,4211.922852,4174.230957,4207.692383,4220.897461,4214.102539,4205.512695,4203.717773,4216.025879,4187.436035,4163.205078,4169.743652,4216.538574,4219.487305,3411.000000,4.000000,95.000000,,,,0.000000,4.000000,4.000000,4.000000,4.000000,4.000000,4.000000,4.000000,4.000000,4.000000,4.000000,4.000000,4.000000,4.000000,4.000000,100.000000,,,,,,,,,,,,,,,,
1645707816.540727,1645707816.564758,141.000000,0.000000,4207.436035,4209.102539,4174.743652,4202.051270,4219.615234,4214.102539,4203.333496,4201.794922,4215.897461,4184.615234,4159.615234,4167.820313,4214.230957,4217.307617,3188.000000,4.000000,95.000000,,,,0.000000,4.000000,4.000000,4.000000,4.000000,4.000000,4.000000,4.000000,4.000000,4.000000,4.000000,4.000000,4.000000,4.000000,4.000000,100.000000,,,,,,,,,,,,,,,,
1645707816.544667,1645707816.568698,142.000000,0.000000,4206.025879,4205.897461,4176.794922,4197.051270,4214.487305,4213.077148,4202.179688,4200.512695,4215.897461,4181.922852,4159.871582,4169.743652,4212.051270,4214.230957,2812.000000,4.000000,95.000000,,,,0.000000,4.000000,4.000000,4.000000,4.000000,4.000000,4.000000,4.000000,4.000000,4.000000,4.000000,4.000000,4.000000,4.000000,4.000000,100.000000,,,,,,,,,,,,,,,,
1645707816.548607,1645707816.572638,143.000000,0.000000,4206.282227,4204.871582,4178.717773,4195.128418,4209.358887,4211.922852,4203.205078,4200.897461,4216.025879,4181.410156,4163.205078,4173.846191,4211.025879,4211.538574,3619.000000,4.000000,95.000000,,,,0.000000,4.000000,4.000000,4.000000,4.000000,4.000000,4.000000,4.000000,4.000000,4.000000,4.000000,4.000000,4.000000,4.000000,4.000000,100.000000,,,,,,,,,,,,,,,,
1645707816.552547,1645707816.576578,144.000000,0.000000,4209.230957,4209.102539,4179.743652,4197.948730,4209.615234,4211.922852,4205.897461,4203.461426,4216.282227,4185.512695,4167.692383,4178.589844,4213.205078,4212.051270,3411.000000,4.000000,95.000000,,,,0.000000,4.000000,4.000000,4.000000,4.000000,4.000000,4.000000,4.000000,4.000000,4.000000,4.000000,4.000000,4.000000,4.000000,4.000000,100.000000,,,,,,,,,,,,,,,,
1645707816.556487,1645707816.580518,145.000000,0.000000,4214.615234,4219.230957,4180.384766,4203.974121,4216.922852,4213.589844,4208.974121,4207.820313,4216.794922,4192.948730,4171.922852,4182.179688,4219.358887,4217.820313,3188.000000,4.000000,95.000000,,,,0.000000,4.000000,4.000000,4.000000,4.000000,4.000000,4.000000,4.000000,4.000000,4.000000,4.000000,4.000000,4.000000,4.000000,4.000000,100.000000,,,,,,,,,,,,,,,,
1645707816.560427,1645707816.584458,146.000000,0.000000,4220.000000,4231.794922,4181.666504,4209.358887,4225.897461,4215.384766,4210.769043,4212.563965,4217.820313,4199.615234,4175.128418,4184.102539,4227.179688,4227.179688,2812.000000,4.000000,95.000000,,,,0.000000,4.000000,4.000000,4.000000,4.000000,4.000000,4.000000,4.000000,4.000000,4.000000,4.000000,4.000000,4.000000,4.000000,4.000000,100.000000,,,,,,,,,,,,,,,,
1645707816.564367,1645707816.588399,147.000000,0.000000,4223.846191,4240.256348,4184.230957,4210.128418,4227.179688,4215.128418,4210.384766,4215.769043,4218.846191,4201.538574,4177.563965,4184.358887,4232.563965,4236.410156,3619.000000,4.000000,95.000000,,,,0.000000,4.000000,4.000000,4.000000,4.000000,4.000000,4.000000,4.000000,4.000000,4.000000,4.000000,4.000000,4.000000,4.000000,4.000000,100.000000,,,,,,,,,,,,,,,,
1645707816.568307,1645707816.592339,148.000000,0.000000,4226.025879,4240.384766,4187.307617,4206.538574,4216.410156,4211.794922,4208.333496,4215.000000,4219.230957,4198.461426,4179.102539,4184.102539,4232.692383,4242.307617,3411.000000,4.000000,95.000000,,,,0.000000,4.000000,4.000000,4.000000,4.000000,4.000000,4.000000,4.000000,4.000000,4.000000,4.000000,4.000000,4.000000,4.000000,4.000000,100.000000,,,,,,,,,,,,,,,,
1645707816.572247,1645707816.596279,149.000000,0.000000,4227.051270,4232.820313,4190.000000,4202.948730,4198.717773,4207.436035,4205.256348,4209.743652,4218.333496,4193.589844,4179.487305,4183.846191,4228.205078,4243.717773,3188.000000,4.000000,95.000000,,,,0.000000,4.000000,4.000000,4.000000,4.000000,4.000000,4.000000,4.000000,4.000000,4.000000,4.000000,4.000000,4.000000,4.000000,4.000000,100.000000,,,,,,,,,,,,,,,,
1645707816.576187,1645707816.600219,150.000000,0.000000,4226.410156,4223.205078,4191.666504,4203.461426,4185.897461,4204.102539,4202.179688,4202.692383,4216.025879,4190.128418,4178.717773,4183.717773,4222.692383,4241.666504,2812.000000,4.000000,95.000000,,,,0.000000,4.000000,4.000000,4.000000,4.000000,4.000000,4.000000,4.000000,4.000000,4.000000,4.000000,4.000000,4.000000,4.000000,4.000000,100.000000,,,,,,,,,,,,,,,,
1645707816.580127,1645707816.604159,151.000000,0.000000,4223.333496,4218.077148,4192.307617,4207.948730,4186.666504,4202.820313,4200.128418,4197.948730,4213.846191,4189.358887,4177.051270,4183.205078,4219.615234,4236.666504,3619.000000,4.000000,95.000000,,,,0.000000,4.000000,4.000000,4.000000,4.000000,4.000000,4.000000,4.000000,4.000000,4.000000,4.000000,4.000000,4.000000,4.000000,4.000000,100.000000,,,,,,,,,,,,,,,,
1645707816.584067,1645707816.608099,152.000000,0.000000,4217.948730,4220.641113,4192.307617,4212.436035,4200.000000,4203.205078,4199.871582,4198.077148,4213.077148,4190.512695,4174.358887,4181.666504,4218.974121,4230.000000,3411.000000,4.000000,95.000000,,,,0.000000,4.000000,4.000000,4.000000,4.000000,4.000000,4.000000,4.000000,4.000000,4.000000,4.000000,4.000000,4.000000,4.000000,4.000000,100.000000,,,,,,,,,,,,,,,,
1645707816.588007,1645707816.612039,153.000000,0.000000,4212.563965,4228.974121,4192.051270,4213.205078,4217.307617,4204.743652,4201.538574,4201.922852,4214.487305,4191.922852,4171.538574,4178.846191,4218.461426,4223.205078,3188.000000,4.000000,95.000000,,,,0.000000,4.000000,4.000000,4.000000,4.000000,4.000000,4.000000,4.000000,4.000000,4.000000,4.000000,4.000000,4.000000,4.000000,4.000000,100.000000,,,,,,,,,,,,,,,,
1645707816.591947,1645707816.615979,154.000000,0.000000,4210.512695,4237.820313,4192.179688,4210.256348,4230.256348,4206.794922,4203.974121,4205.384766,4216.666504,4192.436035,4170.000000,4175.897461,4216.410156,4218.717773,2812.000000,4.000000,95.000000,,,,0.000000,4.000000,4.000000,4.000000,4.000000,4.000000,4.000000,4.000000,4.000000,4.000000,4.000000,4.000000,4.000000,4.000000,4.000000,100.000000,1.000000,25.000000,4.000000,4.000000,4.000000,3.000000,1.000000,4.000000,4.000000,4.000000,4.000000,1.000000,1.000000,4.000000,3.000000,4.000000
1645707816.595887,1645707816.619919,155.000000,0.000000,4213.846191,4242.563965,4193.846191,4207.820313,4235.641113,4208.846191,4205.769043,4205.128418,4218.461426,4191.538574,4171.025879,4175.128418,4213.589844,4218.589844,3619.000000,4.000000,95.000000,,,,0.000000,4.000000,4.000000,4.000000,4.000000,4.000000,4.000000,4.000000,4.000000,4.000000,4.000000,4.000000,4.000000,4.000000,4.000000,100.000000,,,,,,,,,,,,,,,,
1645707816.599827,1645707816.623859,156.000000,0.000000,4221.666504,4242.179688,4197.948730,4209.871582,4234.615234,4210.000000,4206.410156,4201.153809,4219.230957,4189.743652,4174.358887,4178.205078,4212.692383,4223.077148,3411.000000,4.000000,95.000000,,,,0.000000,4.000000,4.000000,4.000000,4.000000,4.000000,4.000000,4.000000,4.000000,4.000000,4.000000,4.000000,4.000000,4.000000,4.000000,100.000000,,,,,,,,,,,,,,,,
1645707816.603767,1645707816.627899,157.000000,0.000000,4230.641113,4239.615234,4204.230957,4216.153809,4230.384766,4210.512695,4206.922852,4197.307617,4218.717773,4188.846191,4177.948730,4184.615234,4215.512695,4230.256348,3188.000000,4.000000,95.000000,,,,0.000000,4.000000,4.000000,4.000000,4.000000,4.000000,4.000000,4.000000,4.000000,4.000000,4.000000,4.000000,4.000000,4.000000,4.000000,100.000000,,,,,,,,,,,,,,,,
1645707816.607707,1645707816.631840,158.000000,0.000000,4237.051270,4239.102539,4210.256348,4222.436035,4225.384766,4211.794922,4208.205078,4197.051270,4217.051270,4190.641113,4179.358887,4191.282227,4220.641113,4237.051270,2812.000000,4.000000,95.000000,,,,0.000000,4.000000,4.000000,4.000000,4.000000,4.000000,4.000000,4.000000,4.000000,4.000000,4.000000,4.000000,4.000000,4.000000,4.000000,100.000000,,,,,,,,,,,,,,,,
1645707816.611647,1645707816.635780,159.000000,0.000000,4239.102539,4242.820313,4213.461426,4224.358887,4222.307617,4214.871582,4210.128418,4201.666504,4215.128418,4195.897461,4178.589844,4195.128418,4225.384766,4240.897461,3619.000000,4.000000,95.000000,,,,0.000000,4.000000,4.000000,4.000000,4.000000,4.000000,4.000000,4.000000,4.000000,4.000000,4.000000,4.000000,4.000000,4.000000,4.000000,100.000000,,,,,,,,,,,,,,,,
1645707816.615587,1645707816.639720,160.000000,0.000000,4237.948730,4249.102539,4213.461426,4222.563965,4222.820313,4218.846191,4211.282227,4208.589844,4214.358887,4203.333496,4177.692383,4195.384766,4226.666504,4241.666504,3411.000000,4.000000,95.000000,,,,0.000000,4.000000,4.000000,4.000000,4.000000,4.000000,4.000000,4.000000,4.000000,4.000000,4.000000,4.000000,4.000000,4.000000,4.000000,100.000000,,,,,,,,,,,,,,,,
1645707816.619527,1645707816.643660,161.000000,0.000000,4236.666504,4253.846191,4212.436035,4220.384766,4227.051270,4221.282227,4211.282227,4214.102539,4216.153809,4210.641113,4179.102539,4194.358887,4224.743652,4241.666504,3188.000000,4.000000,95.000000,,,,0.000000,4.000000,4.000000,4.000000,4.000000,4.000000,4.000000,4.000000,4.000000,4.000000,4.000000,4.000000,4.000000,4.000000,4.000000,100.000000,,,,,,,,,,,,,,,,
1645707816.623467,1645707816.647600,162.000000,0.000000,4237.307617,4253.846191,4212.948730,4220.769043,4232.563965,4220.128418,4210.512695,4216.922852,4219.743652,4215.256348,4182.307617,4195.256348,4221.922852,4243.077148,2812.000000,4.000000,95.000000,,,,0.000000,4.000000,4.000000,4.000000,4.000000,4.000000,4.000000,4.000000,4.000000,4.000000,4.000000,4.000000,4.000000,4.000000,4.000000,100.000000,,,,,,,,,,,,,,,,
1645707816.627407,1645707816.651540,163.000000,0.000000,4239.871582,4250.256348,4216.410156,4223.077148,4235.897461,4215.512695,4210.512695,4217.820313,4223.333496,4215.512695,4185.512695,4199.102539,4221.666504,4246.025879,3619.000000,4.000000,95.000000,,,,0.000000,4.000000,4.000000,4.000000,4.000000,4.000000,4.000000,4.000000,4.000000,4.000000,4.000000,4.000000,4.000000,4.000000,4.000000,100.000000,,,,,,,,,,,,,,,,
1645707816.631347,1645707816.655480,164.000000,0.000000,4242.692383,4247.436035,4220.641113,4224.487305,4234.615234,4210.384766,4211.282227,4217.692383,4225.256348,4211.410156,4187.820313,4203.846191,4225.256348,4249.487305,3411.000000,4.000000,95.000000,,,,0.000000,4.000000,4.000000,4.000000,4.000000,4.000000,4.000000,4.000000,4.000000,4.000000,4.000000,4.000000,4.000000,4.000000,4.000000,100.000000,,,,,,,,,,,,,,,,
1645707816.635287,1645707816.659420,165.000000,0.000000,4244.487305,4248.205078,4222.692383,4222.436035,4228.974121,4207.692383,4211.794922,4216.410156,4224.743652,4204.871582,4190.512695,4206.282227,4230.384766,4252.051270,3188.000000,4.000000,95.000000,,,,0.000000,4.000000,4.000000,4.000000,4.000000,4.000000,4.000000,4.000000,4.000000,4.000000,4.000000,4.000000,4.000000,4.000000,4.000000,100.000000,,,,,,,,,,,,,,,,
1645707816.639227,1645707816.663360,166.000000,0.000000,4244.102539,4251.922852,4221.794922,4216.922852,4221.922852,4208.589844,4211.410156,4214.102539,4222.436035,4198.974121,4194.358887,4205.384766,4233.589844,4253.333496,2812.000000,4.000000,95.000000,,,,0.000000,4.000000,4.000000,4.000000,4.000000,4.000000,4.000000,4.000000,4.000000,4.000000,4.000000,4.000000,4.000000,4.000000,4.000000,100.000000,,,,,,,,,,,,,,,,
1645707816.643167,1645707816.667301,167.000000,0.000000,4242.307617,4255.000000,4219.102539,4211.410156,4217.307617,4211.922852,4211.025879,4211.153809,4219.102539,4196.794922,4199.358887,4202.948730,4232.948730,4253.974121,3619.000000,4.000000,95.000000,,,,0.000000,4.000000,4.000000,4.000000,4.000000,4.000000,4.000000,4.000000,4.000000,4.000000,4.000000,4.000000,4.000000,4.000000,4.000000,100.000000,,,,,,,,,,,,,,,,
1645707816.647107,1645707816.671241,168.000000,0.000000,4240.641113,4255.512695,4216.666504,4210.128418,4217.820313,4215.128418,4211.025879,4208.846191,4216.153809,4200.000000,4204.230957,4202.179688,4230.769043,4254.358887,3411.000000,4.000000,95.000000,,,,0.000000,4.000000,4.000000,4.000000,4.000000,4.000000,4.000000,4.000000,4.000000,4.000000,4.000000,4.000000,4.000000,4.000000,4.000000,100.000000,,,,,,,,,,,,,,,,
1645707816.651047,1645707816.675181,169.000000,0.000000,4241.025879,4254.743652,4216.282227,4215.000000,4222.692383,4216.538574,4211.666504,4208.205078,4215.000000,4207.051270,4208.077148,4205.256348,4230.512695,4255.384766,3188.000000,4.000000,95.000000,,,,0.000000,4.000000,4.000000,4.000000,4.000000,4.000000,4.000000,4.000000,4.000000,4.000000,4.000000,4.000000,4.000000,4.000000,4.000000,100.000000,,,,,,,,,,,,,,,,
1645707816.654987,1645707816.679121,170.000000,0.000000,4244.487305,4255.256348,4218.077148,4222.948730,4227.563965,4215.384766,4211.922852,4209.230957,4216.282227,4213.589844,4210.512695,4211.153809,4233.846191,4257.179688,2812.000000,4.000000,95.000000,,,,0.000000,4.000000,4.000000,4.000000,4.000000,4.000000,4.000000,4.000000,4.000000,4.000000,4.000000,4.000000,4.000000,4.000000,4.000000,100.000000,,,,,,,,,,,,,,,,
1645707816.658927,1645707816.683061,171.000000,0.000000,4249.487305,4257.179688,4221.282227,4228.589844,4227.820313,4212.948730,4211.410156,4210.769043,4219.615234,4215.512695,4210.641113,4216.410156,4237.948730,4259.102539,3619.000000,4.000000,95.000000,,,,0.000000,4.000000,4.000000,4.000000,4.000000,4.000000,4.000000,4.000000,4.000000,4.000000,4.000000,4.000000,4.000000,4.000000,4.000000,100.000000,,,,,,,,,,,,,,,,
1645707816.662867,1645707816.687001,172.000000,0.000000,4253.077148,4259.102539,4224.102539,4228.974121,4223.333496,4211.025879,4210.641113,4211.025879,4222.948730,4212.051270,4208.077148,4217.436035,4238.333496,4260.641113,3411.000000,4.000000,95.000000,,,,0.000000,4.000000,4.000000,4.000000,4.000000,4.000000,4.000000,4.000000,4.000000,4.000000,4.000000,4.000000,4.000000,4.000000,4.000000,100.000000,,,,,,,,,,,,,,,,
1645707816.666807,1645707816.690941,173.000000,0.000000,4253.717773,4260.256348,4225.384766,4226.922852,4219.358887,4210.897461,4210.384766,4208.717773,4224.358887,4207.692383,4204.230957,4214.102539,4233.461426,4262.692383,3188.000000,4.000000,95.000000,,,,0.000000,4.000000,4.000000,4.000000,4.000000,4.000000,4.000000,4.000000,4.000000,4.000000,4.000000,4.000000,4.000000,4.000000,4.000000,100.000000,,,,,,,,,,,,,,,,
1645707816.670747,1645707816.694881,174.000000,0.000000,4253.077148,4261.666504,4226.153809,4227.051270,4222.436035,4212.948730,4210.769043,4204.615234,4223.974121,4208.333496,4202.563965,4209.615234,4226.666504,4265.897461,2812.000000,4.000000,95.000000,,,,0.000000,4.000000,4.000000,4.000000,4.000000,4.000000,4.000000,4.000000,4.000000,4.000000,4.000000,4.000000,4.000000,4.000000,4.000000,100.000000,,,,,,,,,,,,,,,,
1645707816.674687,1645707816.698821,175.000000,0.000000,4253.589844,4264.358887,4228.077148,4231.282227,4233.589844,4216.538574,4211.666504,4200.769043,4222.948730,4216.282227,4205.512695,4207.948730,4222.948730,4270.000000,3619.000000,4.000000,95.000000,,,,0.000000,4.000000,4.000000,4.000000,4.000000,4.000000,4.000000,4.000000,4.000000,4.000000,4.000000,4.000000,4.000000,4.000000,4.000000,100.000000,,,,,,,,,,,,,,,,
1645707816.678627,1645707816.702662,176.000000,0.000000,4256.282227,4267.948730,4231.922852,4236.794922,4246.794922,4220.769043,4212.820313,4199.102539,4221.794922,4227.563965,4211.025879,4210.384766,4224.102539,4272.820313,3411.000000,4.000000,95.000000,,,,0.000000,4.000000,4.000000,4.000000,4.000000,4.000000,4.000000,4.000000,4.000000,4.000000,4.000000,4.000000,4.000000,4.000000,4.000000,100.000000,,,,,,,,,,,,,,,,
1645707816.682567,1645707816.706602,177.000000,0.000000,4258.717773,4270.641113,4235.641113,4239.358887,4253.333496,4223.846191,4213.717773,4199.743652,4220.128418,4235.000000,4214.871582,4214.615234,4227.563965,4272.051270,3188.000000,4.000000,95.000000,,,,0.000000,4.000000,4.000000,4.000000,4.000000,4.000000,4.000000,4.000000,4.000000,4.000000,4.000000,4.000000,4.000000,4.000000,4.000000,100.000000,,,,,,,,,,,,,,,,
1645707816.686507,1645707816.710542,178.000000,0.000000,4258.333496,4271.025879,4236.410156,4237.563965,4249.871582,4224.615234,4213.589844,4201.153809,4217.563965,4234.487305,4214.230957,4217.307617,4230.000000,4268.205078,2812.000000,4.000000,95.000000,,,,0.000000,4.000000,4.000000,4.000000,4.000000,4.000000,4.000000,4.000000,4.000000,4.000000,4.000000,4.000000,4.000000,4.000000,4.000000,100.000000,,,,,,,,,,,,,,,,
1645707816.690447,1645707816.714482,179.000000,0.000000,4254.871582,4269.487305,4233.205078,4234.487305,4240.641113,4223.717773,4212.051270,4202.692383,4215.641113,4227.692383,4211.538574,4217.563965,4230.000000,4264.358887,3619.000000,4.000000,95.000000,,,,0.000000,4.000000,4.000000,4.000000,4.000000,4.000000,4.000000,4.000000,4.000000,4.000000,4.000000,4.000000,4.000000,4.000000,4.000000,100.000000,,,,,,,,,,,,,,,,
1645707816.694387,1645707816.718422,180.000000,0.000000,4250.897461,4268.077148,4228.717773,4233.846191,4233.846191,4222.563965,4209.871582,4204.743652,4216.922852,4220.384766,4210.769043,4216.794922,4228.974121,4263.461426,3411.000000,4.000000,95.000000,,,,0.000000,4.000000,4.000000,4.000000,4.000000,4.000000,4.000000,4.000000,4.000000,4.000000,4.000000,4.000000,4.000000,4.000000,4.000000,100.000000,,,,,,,,,,,,,,,,
1645707816.698327,1645707816.722362,181.000000,0.000000,4248.461426,4268.205078,4226.666504,4236.538574,4235.000000,4222.436035,4209.102539,4208.205078,4221.666504,4217.307617,4213.205078,4217.307617,4228.205078,4265.512695,3188.000000,4.000000,95.000000,,,,0.000000,4.000000,4.000000,4.000000,4.000000,4.000000,4.000000,4.000000,4.000000,4.000000,4.000000,4.000000,4.000000,4.000000,4.000000,100.000000,,,,,,,,,,,,,,,,
1645707816.702267,1645707816.726302,182.000000,0.000000,4247.820313,4269.871582,4228.205078,4240.128418,4242.948730,4223.077148,4211.666504,4212.436035,4227.307617,4219.102539,4216.410156,4219.102539,4227.436035,4267.692383,2812.000000,4.000000,95.000000,,,,0.000000,4.000000,4.000000,4.000000,4.000000,4.000000,4.000000,4.000000,4.000000,4.000000,4.000000,4.000000,4.000000,4.000000,4.000000,100.000000,,,,,,,,,,,,,,,,
1645707816.706207,1645707816.730242,183.000000,0.000000,4247.948730,4271.666504,4231.538574,4242.307617,4251.410156,4223.589844,4216.922852,4215.897461,4230.256348,4223.077148,4217.692383,4219.743652,4226.025879,4266.538574,3619.000000,4.000000,95.000000,,,,0.000000,4.000000,4.000000,4.000000,4.000000,4.000000,4.000000,4.000000,4.000000,4.000000,4.000000,4.000000,4.000000,4.000000,4.000000,100.000000,,,,,,,,,,,,,,,,
1645707816.710147,1645707816.734182,184.000000,0.000000,4248.333496,4271.922852,4233.205078,4243.846191,4255.000000,4223.717773,4221.922852,4217.563965,4229.358887,4226.410156,4216.410156,4217.179688,4224.230957,4262.179688,3411.000000,4.000000,95.000000,,,,0.000000,4.000000,4.000000,4.000000,4.000000,4.000000,4.000000,4.000000,4.000000,4.000000,4.000000,4.000000,4.000000,4.000000,4.000000,100.000000,,,,,,,,,,,,,,,,
1645707816.714087,1645707816.738123,185.000000,0.000000,4249.743652,4271.025879,4232.179688,4246.282227,4252.820313,4224.743652,4224.230957,4217.820313,4226.538574,4227.563965,4214.615234,4213.077148,4223.461426,4257.948730,3188.000000,4.000000,95.000000,,,,0.000000,4.000000,4.000000,4.000000,4.000000,4.000000,4.000000,4.000000,4.000000,4.000000,4.000000,4.000000,4.000000,4.000000,4.000000,100.000000,,,,,,,,,,,,,,,,
1645707816.718027,1645707816.742063,186.000000,0.000000,4252.179688,4270.769043,4230.128418,4249.230957,4248.461426,4227.307617,4224.230957,4218.077148,4224.871582,4226.538574,4213.974121,4210.512695,4223.974121,4256.666504,2812.000000,4.000000,95.000000,,,,0.000000,4.000000,4.000000,4.000000,4.000000,4.000000,4.000000,4.000000,4.000000,4.000000,4.000000,4.000000,4.000000,4.000000,4.000000,100.000000,,,,,,,,,,,,,,,,
1645707816.721967,1645707816.746003,187.000000,0.000000,4254.102539,4272.820313,4229.871582,4250.000000,4245.512695,4231.794922,4224.615234,4219.102539,4225.641113,4223.974121,4213.974121,4211.538574,4224.743652,4258.077148,3619.000000,4.000000,95.000000,,,,0.000000,4.000000,4.000000,4.000000,4.000000,4.000000,4.000000,4.000000,4.000000,4.000000,4.000000,4.000000,4.000000,4.000000,4.000000,100.000000,,,,,,,,,,,,,,,,
1645707816.725907,1645707816.749943,188.000000,0.000000,4253.589844,4276.794922,4231.666504,4246.153809,4244.871582,4237.563965,4227.436035,4219.615234,4227.436035,4220.641113,4213.205078,4214.871582,4223.205078,4259.615234,3411.000000,4.000000,95.000000,,,,0.000000,4.000000,4.000000,4.000000,4.000000,4.000000,4.000000,4.000000,4.000000,4.000000,4.000000,4.000000,4.000000,4.000000,4.000000,100.000000,,,,,,,,,,,,,,,,
1645707816.729847,1645707816.753883,189.000000,0.000000,4250.512695,4279.743652,4233.205078,4238.333496,4245.128418,4243.333496,4231.538574,4217.820313,4227.307617,4217.820313,4211.025879,4216.794922,4218.461426,4258.974121,3188.000000,4.000000,95.000000,,,,0.000000,4.000000,4.000000,4.000000,4.000000,4.000000,4.000000,4.000000,4.000000,4.000000,4.000000,4.000000,4.000000,4.000000,4.000000,100.000000,,,,,,,,,,,,,,,,
1645707816.733787,1645707816.757823,190.000000,0.000000,4246.410156,4279.230957,4232.051270,4229.743652,4245.256348,4247.179688,4233.589844,4213.333496,4224.487305,4216.794922,4208.333496,4214.743652,4212.307617,4256.282227,2812.000000,4.000000,95.000000,,,,0.000000,4.000000,4.000000,4.000000,4.000000,4.000000,4.000000,4.000000,4.000000,4.000000,4.000000,4.000000,4.000000,4.000000,4.000000,100.000000,,,,,,,,,,,,,,,,
1645707816.737727,1645707816.761763,191.000000,0.000000,4243.333496,4275.256348,4228.205078,4224.743652,4245.897461,4246.922852,4231.922852,4208.589844,4220.641113,4218.846191,4207.179688,4209.358887,4208.589844,4253.333496,3619.000000,4.000000,95.000000,,,,0.000000,4.000000,4.000000,4.000000,4.000000,4.000000,4.000000,4.000000,4.000000,4.000000,4.000000,4.000000,4.000000,4.000000,4.000000,100.000000,,,,,,,,,,,,,,,,
1645707816.741667,1645707816.765703,192.000000,0.000000,4243.333496,4271.153809,4224.871582,4225.897461,4247.563965,4241.153809,4227.307617,4207.307617,4219.615234,4223.974121,4209.615234,4205.128418,4210.256348,4253.333496,3411.000000,4.000000,95.000000,,,,0.000000,4.000000,4.000000,4.000000,4.000000,4.000000,4.000000,4.000000,4.000000,4.000000,4.000000,4.000000,4.000000,4.000000,4.000000,100.000000,,,,,,,,,,,,,,,,
1645707816.745607,1645707816.769643,193.000000,0.000000,4246.538574,4270.769043,4225.128418,4232.436035,4249.743652,4231.666504,4222.692383,4211.025879,4222.820313,4230.000000,4216.538574,4205.641113,4217.051270,4257.179688,3188.000000,4.000000,95.000000,,,,0.000000,4.000000,4.000000,4.000000,4.000000,4.000000,4.000000,4.000000,4.000000,4.000000,4.000000,4.000000,4.000000,4.000000,4.000000,100.000000,,,,,,,,,,,,,,,,
1645707816.749547,1645707816.773683,194.000000,0.000000,4251.153809,4275.641113,4229.102539,4240.256348,4251.538574,4222.436035,4219.871582,4217.436035,4228.461426,4234.102539,4226.282227,4210.897461,4225.897461,4263.333496,2812.000000,4.000000,95.000000,,,,0.000000,4.000000,4.000000,4.000000,4.000000,4.000000,4.000000,4.000000,4.000000,4.000000,4.000000,4.000000,4.000000,4.000000,4.000000,100.000000,,,,,,,,,,,,,,,,
1645707816.753487,1645707816.777623,195.000000,0.000000,4253.205078,4282.692383,4232.436035,4244.358887,4252.307617,4218.205078,4218.333496,4221.666504,4232.051270,4233.846191,4233.974121,4215.512695,4231.282227,4266.794922,3619.000000,4.000000,95.000000,,,,0.000000,4.000000,4.000000,4.000000,4.000000,4.000000,4.000000,4.000000,4.000000,4.000000,4.000000,4.000000,4.000000,4.000000,4.000000,100.000000,,,,,,,,,,,,,,,,
1645707816.757427,1645707816.781564,196.000000,0.000000,4249.230957,4286.025879,4230.384766,4242.563965,4251.666504,4220.128418,4216.666504,4220.512695,4230.000000,4229.358887,4234.358887,4213.077148,4229.102539,4263.461426,3411.000000,4.000000,95.000000,,,,0.000000,4.000000,4.000000,4.000000,4.000000,4.000000,4.000000,4.000000,4.000000,4.000000,4.000000,4.000000,4.000000,4.000000,4.000000,100.000000,,,,,,,,,,,,,,,,
1645707816.761367,1645707816.785504,197.000000,0.000000,4238.974121,4281.794922,4221.922852,4236.025879,4249.358887,4225.384766,4214.358887,4214.743652,4223.205078,4222.307617,4226.153809,4202.307617,4220.384766,4252.692383,3188.000000,4.000000,95.000000,,,,0.000000,4.000000,4.000000,4.000000,4.000000,4.000000,4.000000,4.000000,4.000000,4.000000,4.000000,4.000000,4.000000,4.000000,4.000000,100.000000,,,,,,,,,,,,,,,,
1645707816.765307,1645707816.789444,198.000000,0.000000,4227.179688,4271.794922,4211.666504,4228.333496,4245.769043,4229.615234,4212.051270,4208.333496,4215.512695,4216.153809,4214.358887,4188.333496,4211.025879,4239.615234,2812.000000,4.000000,95.000000,,,,0.000000,4.000000,4.000000,4.000000,4.000000,4.000000,4.000000,4.000000,4.000000,4.000000,4.000000,4.000000,4.000000,4.000000,4.000000,100.000000,,,,,,,,,,,,,,,,
