title:Alex-IZDrSdHrazdCpFrIMURw9g, start timestamp:1645712037.216576, stop timestamp:1645712064.113589, headset type:EPOCPLUS, headset serial:3B9AEBFF, headset firmware:626, channels:55, sampling rate:eeg_256, samples:6826      , version:2.1, 
Timestamp,EEG.Counter,EEG.Interpolated,EEG.AF3,EEG.F7,EEG.F3,EEG.FC5,EEG.T7,EEG.P7,EEG.O1,EEG.O2,EEG.P8,EEG.T8,EEG.FC6,EEG.F4,EEG.F8,EEG.AF4,EEG.RawCq,EEG.Battery,EEG.BatteryPercent,MarkerIndex,MarkerType,MarkerValueInt,EEG.MarkerHardware,CQ.AF3,CQ.F7,CQ.F3,CQ.FC5,CQ.T7,CQ.P7,CQ.O1,CQ.O2,CQ.P8,CQ.T8,CQ.FC6,CQ.F4,CQ.F8,CQ.AF4,CQ.Overall,EQ.SampleRateQuality,EQ.OVERALL,EQ.AF3,EQ.F7,EQ.F3,EQ.FC5,EQ.T7,EQ.P7,EQ.O1,EQ.O2,EQ.P8,EQ.T8,EQ.FC6,EQ.F4,EQ.F8,EQ.AF4
1645712037.216576,5.000000,0.000000,4238.205078,4219.358887,4223.077148,4196.282227,4216.666504,4213.461426,4213.974121,4212.563965,4210.897461,4208.205078,4222.948730,4168.333496,4213.717773,4238.717773,3458.000000,4.000000,82.000000,,,,0.000000,4.000000,4.000000,4.000000,4.000000,4.000000,4.000000,4.000000,4.000000,4.000000,4.000000,4.000000,4.000000,4.000000,4.000000,100.000000,,,,,,,,,,,,,,,,
1645712037.220616,6.000000,0.000000,4231.153809,4210.000000,4220.256348,4189.487305,4215.641113,4213.205078,4213.717773,4211.922852,4210.641113,4209.615234,4221.153809,4163.589844,4210.769043,4235.641113,3355.000000,4.000000,82.000000,,,,0.000000,4.000000,4.000000,4.000000,4.000000,4.000000,4.000000,4.000000,4.000000,4.000000,4.000000,4.000000,4.000000,4.000000,4.000000,100.000000,,,,,,,,,,,,,,,,
1645712037.224556,7.000000,0.000000,4232.948730,4212.051270,4230.256348,4200.000000,4229.487305,4224.230957,4222.692383,4220.512695,4216.410156,4221.666504,4231.153809,4170.641113,4216.410156,4240.512695,2669.000000,4.000000,82.000000,,,,0.000000,4.000000,4.000000,4.000000,4.000000,4.000000,4.000000,4.000000,4.000000,4.000000,4.000000,4.000000,4.000000,4.000000,4.000000,100.000000,,,,,,,,,,,,,,,,
1645712037.228496,8.000000,0.000000,4249.230957,4228.974121,4253.077148,4226.025879,4256.025879,4245.384766,4241.282227,4237.948730,4227.820313,4240.769043,4251.794922,4189.871582,4231.282227,4255.641113,1628.000000,4.000000,82.000000,,,,0.000000,4.000000,4.000000,4.000000,4.000000,4.000000,4.000000,4.000000,4.000000,4.000000,4.000000,4.000000,4.000000,4.000000,4.000000,100.000000,,,,,,,,,,,,,,,,
1645712037.232436,9.000000,0.000000,4272.563965,4256.538574,4279.743652,4256.922852,4285.769043,4269.615234,4263.846191,4258.846191,4241.410156,4260.897461,4275.384766,4213.974121,4250.000000,4274.743652,3132.000000,4.000000,82.000000,,,,0.000000,4.000000,4.000000,4.000000,4.000000,4.000000,4.000000,4.000000,4.000000,4.000000,4.000000,4.000000,4.000000,4.000000,4.000000,100.000000,,,,,,,,,,,,,,,,
1645712037.236376,10.000000,0.000000,4288.717773,4283.205078,4297.563965,4278.205078,4306.153809,4286.282227,4279.871582,4273.717773,4251.666504,4276.410156,4290.128418,4231.794922,4263.974121,4285.897461,2312.000000,4.000000,82.000000,,,,0.000000,4.000000,4.000000,4.000000,4.000000,4.000000,4.000000,4.000000,4.000000,4.000000,4.000000,4.000000,4.000000,4.000000,4.000000,100.000000,,,,,,,,,,,,,,,,
1645712037.240316,11.000000,0.000000,4288.461426,4295.000000,4297.436035,4279.487305,4306.922852,4286.538574,4279.743652,4274.487305,4253.077148,4280.897461,4287.051270,4234.743652,4266.025879,4280.512695,2676.000000,4.000000,82.000000,,,,0.000000,4.000000,4.000000,4.000000,4.000000,4.000000,4.000000,4.000000,4.000000,4.000000,4.000000,4.000000,4.000000,4.000000,4.000000,100.000000,,,,,,,,,,,,,,,,
1645712037.244256,12.000000,0.000000,4274.615234,4283.717773,4279.615234,4260.641113,4287.051270,4268.717773,4262.307617,4259.358887,4244.230957,4271.025879,4266.410156,4221.666504,4255.256348,4261.794922,3243.000000,4.000000,82.000000,,,,0.000000,4.000000,4.000000,4.000000,4.000000,4.000000,4.000000,4.000000,4.000000,4.000000,4.000000,4.000000,4.000000,4.000000,4.000000,100.000000,,,,,,,,,,,,,,,,
1645712037.248196,13.000000,0.000000,4257.051270,4254.358887,4255.000000,4232.436035,4257.307617,4242.436035,4237.436035,4236.410156,4229.743652,4250.512695,4239.487305,4201.025879,4237.948730,4242.179688,3440.000000,4.000000,82.000000,,,,0.000000,4.000000,4.000000,4.000000,4.000000,4.000000,4.000000,4.000000,4.000000,4.000000,4.000000,4.000000,4.000000,4.000000,4.000000,100.000000,,,,,,,,,,,,,,,,
1645712037.252137,14.000000,0.000000,4243.717773,4223.717773,4238.077148,4210.897461,4234.743652,4222.692383,4219.487305,4218.589844,4217.820313,4231.282227,4222.820313,4184.871582,4223.846191,4233.333496,2312.000000,4.000000,82.000000,,,,0.000000,4.000000,4.000000,4.000000,4.000000,4.000000,4.000000,4.000000,4.000000,4.000000,4.000000,4.000000,4.000000,4.000000,4.000000,100.000000,,,,,,,,,,,,,,,,
1645712037.256077,15.000000,0.000000,4236.922852,4207.948730,4236.538574,4206.025879,4230.384766,4218.974121,4216.666504,4214.487305,4213.974121,4224.230957,4225.128418,4180.384766,4219.102539,4236.794922,2676.000000,4.000000,82.000000,,,,0.000000,4.000000,4.000000,4.000000,4.000000,4.000000,4.000000,4.000000,4.000000,4.000000,4.000000,4.000000,4.000000,4.000000,4.000000,100.000000,,,,,,,,,,,,,,,,
1645712037.260017,16.000000,0.000000,4236.153809,4210.512695,4245.256348,4215.641113,4240.000000,4227.051270,4224.230957,4221.666504,4216.794922,4228.974121,4239.102539,4183.846191,4221.666504,4243.589844,3243.000000,4.000000,82.000000,,,,0.000000,4.000000,4.000000,4.000000,4.000000,4.000000,4.000000,4.000000,4.000000,4.000000,4.000000,4.000000,4.000000,4.000000,4.000000,100.000000,,,,,,,,,,,,,,,,
1645712037.263957,17.000000,0.000000,4239.487305,4221.538574,4251.794922,4226.282227,4248.589844,4233.846191,4230.641113,4229.615234,4219.230957,4234.230957,4248.205078,4185.256348,4224.358887,4244.358887,3440.000000,4.000000,82.000000,,,,0.000000,4.000000,4.000000,4.000000,4.000000,4.000000,4.000000,4.000000,4.000000,4.000000,4.000000,4.000000,4.000000,4.000000,4.000000,100.000000,,,,,,,,,,,,,,,,
1645712037.267897,18.000000,0.000000,4243.205078,4228.077148,4248.589844,4226.153809,4245.128418,4230.128418,4228.205078,4230.641113,4216.410156,4230.128418,4242.948730,4178.846191,4222.179688,4237.948730,2312.000000,4.000000,82.000000,,,,0.000000,4.000000,4.000000,4.000000,4.000000,4.000000,4.000000,4.000000,4.000000,4.000000,4.000000,4.000000,4.000000,4.000000,4.000000,100.000000,,,,,,,,,,,,,,,,
1645712037.271837,19.000000,0.000000,4243.077148,4226.410156,4238.461426,4215.000000,4232.436035,4218.717773,4219.487305,4226.282227,4209.871582,4218.077148,4228.461426,4168.205078,4216.794922,4230.897461,2676.000000,4.000000,82.000000,,,,0.000000,4.000000,4.000000,4.000000,4.000000,4.000000,4.000000,4.000000,4.000000,4.000000,4.000000,4.000000,4.000000,4.000000,4.000000,100.000000,,,,,,,,,,,,,,,,
1645712037.275777,20.000000,0.000000,4237.179688,4221.538574,4230.128418,4202.692383,4222.051270,4209.743652,4212.436035,4223.205078,4205.256348,4208.077148,4218.077148,4161.794922,4213.461426,4229.487305,3243.000000,4.000000,82.000000,,,,0.000000,4.000000,4.000000,4.000000,4.000000,4.000000,4.000000,4.000000,4.000000,4.000000,4.000000,4.000000,4.000000,4.000000,4.000000,100.000000,,,,,,,,,,,,,,,,
1645712037.279717,21.000000,0.000000,4228.717773,4219.102539,4227.820313,4197.436035,4220.512695,4209.487305,4211.153809,4225.000000,4205.128418,4205.512695,4217.436035,4162.563965,4214.487305,4232.436035,3440.000000,4.000000,82.000000,,,,0.000000,4.000000,4.000000,4.000000,4.000000,4.000000,4.000000,4.000000,4.000000,4.000000,4.000000,4.000000,4.000000,4.000000,4.000000,100.000000,,,,,,,,,,,,,,,,
1645712037.283657,22.000000,0.000000,4223.974121,4218.333496,4228.205078,4198.589844,4223.077148,4214.615234,4213.077148,4228.333496,4206.794922,4205.897461,4219.743652,4166.025879,4215.769043,4233.333496,2312.000000,4.000000,82.000000,,,,0.000000,4.000000,4.000000,4.000000,4.000000,4.000000,4.000000,4.000000,4.000000,4.000000,4.000000,4.000000,4.000000,4.000000,4.000000,100.000000,,,,,,,,,,,,,,,,
1645712037.287597,23.000000,0.000000,4226.025879,4215.384766,4225.897461,4199.871582,4221.922852,4217.820313,4213.461426,4228.077148,4206.025879,4201.922852,4215.384766,4165.641113,4212.436035,4228.589844,2676.000000,4.000000,82.000000,,,,0.000000,4.000000,4.000000,4.000000,4.000000,4.000000,4.000000,4.000000,4.000000,4.000000,4.000000,4.000000,4.000000,4.000000,4.000000,100.000000,,,,,,,,,,,,,,,,
1645712037.291637,24.000000,0.000000,4231.282227,4210.384766,4220.641113,4200.641113,4216.794922,4217.436035,4211.922852,4224.487305,4202.948730,4194.487305,4205.512695,4161.538574,4205.769043,4221.922852,3243.000000,4.000000,82.000000,,,,0.000000,4.000000,4.000000,4.000000,4.000000,4.000000,4.000000,4.000000,4.000000,4.000000,4.000000,4.000000,4.000000,4.000000,4.000000,100.000000,,,,,,,,,,,,,,,,
1645712037.295578,25.000000,0.000000,4233.974121,4208.333496,4217.179688,4205.256348,4215.128418,4217.563965,4211.538574,4222.692383,4201.666504,4192.307617,4200.384766,4158.974121,4202.436035,4220.769043,3440.000000,4.000000,82.000000,,,,0.000000,4.000000,4.000000,4.000000,4.000000,4.000000,4.000000,4.000000,4.000000,4.000000,4.000000,4.000000,4.000000,4.000000,4.000000,100.000000,,,,,,,,,,,,,,,,
1645712037.299518,26.000000,0.000000,4231.794922,4212.948730,4218.205078,4214.615234,4221.538574,4220.769043,4213.717773,4225.641113,4204.743652,4200.384766,4206.538574,4160.769043,4206.025879,4227.436035,2312.000000,4.000000,82.000000,,,,0.000000,4.000000,4.000000,4.000000,4.000000,4.000000,4.000000,4.000000,4.000000,4.000000,4.000000,4.000000,4.000000,4.000000,4.000000,100.000000,,,,,,,,,,,,,,,,
1645712037.303458,27.000000,0.000000,4228.846191,4220.128418,4221.794922,4221.922852,4230.512695,4223.589844,4215.897461,4230.384766,4209.102539,4212.820313,4218.205078,4163.717773,4213.461426,4237.179688,2676.000000,4.000000,82.000000,,,,0.000000,4.000000,4.000000,4.000000,4.000000,4.000000,4.000000,4.000000,4.000000,4.000000,4.000000,4.000000,4.000000,4.000000,4.000000,100.000000,,,,,,,,,,,,,,,,
1645712037.307398,28.000000,0.000000,4229.102539,4222.820313,4224.358887,4219.358887,4233.205078,4221.410156,4215.128418,4231.794922,4210.256348,4219.358887,4224.102539,4163.205078,4217.820313,4243.205078,3243.000000,4.000000,82.000000,,,,0.000000,4.000000,4.000000,4.000000,4.000000,4.000000,4.000000,4.000000,4.000000,4.000000,4.000000,4.000000,4.000000,4.000000,4.000000,100.000000,,,,,,,,,,,,,,,,
1645712037.311338,29.000000,0.000000,4231.794922,4218.333496,4224.358887,4208.461426,4227.948730,4215.512695,4212.307617,4228.846191,4207.307617,4216.666504,4220.512695,4159.102539,4217.179688,4242.563965,3440.000000,4.000000,82.000000,,,,0.000000,4.000000,4.000000,4.000000,4.000000,4.000000,4.000000,4.000000,4.000000,4.000000,4.000000,4.000000,4.000000,4.000000,4.000000,100.000000,,,,,,,,,,,,,,,,
1645712037.315278,30.000000,0.000000,4231.538574,4211.025879,4222.948730,4198.846191,4221.538574,4212.051270,4210.897461,4225.769043,4204.102539,4210.384766,4214.230957,4156.410156,4214.871582,4237.948730,2312.000000,4.000000,82.000000,,,,0.000000,4.000000,4.000000,4.000000,4.000000,4.000000,4.000000,4.000000,4.000000,4.000000,4.000000,4.000000,4.000000,4.000000,4.000000,100.000000,,,,,,,,,,,,,,,,
1645712037.319218,31.000000,0.000000,4226.538574,4207.051270,4221.153809,4197.436035,4220.128418,4214.743652,4212.692383,4226.025879,4204.358887,4207.820313,4213.333496,4158.077148,4215.256348,4233.589844,2676.000000,4.000000,82.000000,,,,0.000000,4.000000,4.000000,4.000000,4.000000,4.000000,4.000000,4.000000,4.000000,4.000000,4.000000,4.000000,4.000000,4.000000,4.000000,100.000000,,,,,,,,,,,,,,,,
1645712037.323158,32.000000,0.000000,4220.897461,4208.205078,4219.230957,4203.077148,4222.563965,4220.128418,4215.769043,4228.846191,4207.692383,4210.128418,4217.051270,4161.794922,4217.820313,4231.538574,0.000000,4.000000,82.000000,,,,0.000000,4.000000,4.000000,4.000000,4.000000,4.000000,4.000000,4.000000,4.000000,4.000000,4.000000,4.000000,4.000000,4.000000,4.000000,100.000000,,,,,,,,,,,,,,,,
1645712037.327098,33.000000,0.000000,4220.769043,4212.307617,4217.563965,4209.102539,4223.461426,4222.563965,4218.333496,4230.128418,4210.384766,4212.436035,4218.846191,4162.563965,4219.358887,4232.436035,0.000000,4.000000,82.000000,,,,0.000000,4.000000,4.000000,4.000000,4.000000,4.000000,4.000000,4.000000,4.000000,4.000000,4.000000,4.000000,4.000000,4.000000,4.000000,100.000000,,,,,,,,,,,,,,,,
1645712037.331039,34.000000,0.000000,4226.025879,4217.563965,4218.077148,4211.794922,4221.538574,4220.769043,4220.256348,4228.205078,4209.871582,4211.666504,4215.897461,4159.487305,4218.205078,4235.384766,0.000000,4.000000,82.000000,,,,0.000000,4.000000,4.000000,4.000000,4.000000,4.000000,4.000000,4.000000,4.000000,4.000000,4.000000,4.000000,4.000000,4.000000,4.000000,100.000000,,,,,,,,,,,,,,,,
1645712037.334979,35.000000,0.000000,4230.897461,4223.333496,4221.922852,4211.922852,4221.282227,4218.974121,4222.563965,4225.128418,4207.820313,4209.487305,4212.436035,4156.410156,4216.538574,4239.487305,0.000000,4.000000,82.000000,,,,0.000000,4.000000,4.000000,4.000000,4.000000,4.000000,4.000000,4.000000,4.000000,4.000000,4.000000,4.000000,4.000000,4.000000,4.000000,100.000000,,,,,,,,,,,,,,,,
1645712037.338919,36.000000,0.000000,4230.897461,4227.563965,4227.563965,4211.282227,4226.153809,4220.128418,4223.846191,4224.230957,4206.666504,4209.102539,4214.871582,4157.436035,4217.436035,4242.563965,0.000000,4.000000,82.000000,,,,0.000000,4.000000,4.000000,4.000000,4.000000,4.000000,4.000000,4.000000,4.000000,4.000000,4.000000,4.000000,4.000000,4.000000,4.000000,100.000000,,,,,,,,,,,,,,,,
1645712037.342859,37.000000,0.000000,4228.205078,4226.666504,4231.282227,4209.358887,4232.563965,4221.922852,4222.051270,4226.025879,4207.563965,4211.282227,4223.205078,4162.051270,4221.153809,4242.820313,0.000000,4.000000,82.000000,,,,0.000000,4.000000,4.000000,4.000000,4.000000,4.000000,4.000000,4.000000,4.000000,4.000000,4.000000,4.000000,4.000000,4.000000,4.000000,100.000000,,,,,,,,,,,,,,,,
1645712037.346799,38.000000,0.000000,4228.077148,4219.102539,4231.025879,4204.871582,4233.846191,4220.769043,4216.922852,4228.077148,4209.487305,4214.358887,4232.051270,4166.410156,4225.512695,4240.512695,0.000000,4.000000,82.000000,,,,0.000000,4.000000,4.000000,4.000000,4.000000,4.000000,4.000000,4.000000,4.000000,4.000000,4.000000,4.000000,4.000000,4.000000,4.000000,100.000000,1.000000,75.000000,3.000000,4.000000,3.000000,4.000000,3.000000,3.000000,3.000000,3.000000,3.000000,3.000000,3.000000,4.000000,3.000000,4.000000
1645712037.350739,39.000000,0.000000,4232.051270,4208.846191,4227.948730,4200.128418,4228.205078,4216.666504,4212.436035,4229.102539,4211.410156,4217.307617,4235.512695,4167.692383,4228.205078,4238.717773,0.000000,4.000000,82.000000,,,,0.000000,4.000000,4.000000,4.000000,4.000000,4.000000,4.000000,4.000000,4.000000,4.000000,4.000000,4.000000,4.000000,4.000000,4.000000,100.000000,,,,,,,,,,,,,,,,
1645712037.354679,40.000000,0.000000,4236.153809,4203.846191,4225.897461,4199.871582,4220.769043,4214.230957,4211.922852,4229.487305,4213.333496,4221.282227,4232.436035,4166.410156,4228.589844,4239.230957,0.000000,4.000000,82.000000,,,,0.000000,4.000000,4.000000,4.000000,4.000000,4.000000,4.000000,4.000000,4.000000,4.000000,4.000000,4.000000,4.000000,4.000000,4.000000,100.000000,,,,,,,,,,,,,,,,
1645712037.358619,41.000000,0.000000,4236.922852,4208.333496,4226.538574,4204.743652,4217.307617,4215.769043,4215.384766,4229.743652,4214.230957,4226.153809,4225.256348,4164.102539,4226.794922,4241.025879,0.000000,4.000000,82.000000,,,,0.000000,4.000000,4.000000,4.000000,4.000000,4.000000,4.000000,4.000000,4.000000,4.000000,4.000000,4.000000,4.000000,4.000000,4.000000,100.000000,,,,,,,,,,,,,,,,
1645712037.362559,42.000000,0.000000,4235.000000,4218.077148,4227.563965,4210.000000,4217.307617,4218.077148,4218.205078,4228.589844,4212.563965,4228.589844,4216.922852,4160.769043,4221.794922,4240.769043,0.000000,4.000000,82.000000,,,,0.000000,4.000000,4.000000,4.000000,4.000000,4.000000,4.000000,4.000000,4.000000,4.000000,4.000000,4.000000,4.000000,4.000000,4.000000,100.000000,,,,,,,,,,,,,,,,
1645712037.366599,43.000000,0.000000,4233.077148,4224.230957,4225.897461,4209.358887,4216.282227,4215.897461,4216.282227,4224.358887,4207.692383,4225.641113,4210.000000,4155.512695,4214.615234,4237.179688,0.000000,4.000000,82.000000,,,,0.000000,4.000000,4.000000,4.000000,4.000000,4.000000,4.000000,4.000000,4.000000,4.000000,4.000000,4.000000,4.000000,4.000000,4.000000,100.000000,,,,,,,,,,,,,,,,
1645712037.370539,44.000000,0.000000,4231.153809,4221.666504,4220.769043,4202.563965,4212.436035,4208.717773,4210.256348,4218.205078,4201.794922,4217.692383,4206.922852,4149.358887,4208.846191,4232.820313,0.000000,4.000000,82.000000,,,,0.000000,4.000000,4.000000,4.000000,4.000000,4.000000,4.000000,4.000000,4.000000,4.000000,4.000000,4.000000,4.000000,4.000000,4.000000,100.000000,,,,,,,,,,,,,,,,
1645712037.374480,45.000000,0.000000,4226.538574,4213.589844,4215.769043,4195.512695,4208.974121,4201.153809,4203.846191,4213.717773,4198.846191,4210.128418,4209.358887,4145.128418,4209.102539,4230.641113,0.000000,4.000000,82.000000,,,,0.000000,4.000000,4.000000,4.000000,4.000000,4.000000,4.000000,4.000000,4.000000,4.000000,4.000000,4.000000,4.000000,4.000000,4.000000,100.000000,,,,,,,,,,,,,,,,
1645712037.378420,46.000000,0.000000,4219.358887,4206.666504,4214.230957,4193.461426,4209.358887,4198.077148,4200.384766,4213.589844,4200.512695,4206.922852,4215.128418,4144.487305,4215.128418,4230.641113,0.000000,4.000000,82.000000,,,,0.000000,4.000000,4.000000,4.000000,4.000000,4.000000,4.000000,4.000000,4.000000,4.000000,4.000000,4.000000,4.000000,4.000000,4.000000,100.000000,,,,,,,,,,,,,,,,
1645712037.382360,47.000000,0.000000,4214.487305,4203.974121,4215.769043,4196.282227,4212.051270,4199.230957,4199.230957,4216.666504,4204.743652,4206.538574,4218.846191,4145.897461,4221.666504,4229.871582,0.000000,4.000000,82.000000,,,,0.000000,4.000000,4.000000,4.000000,4.000000,4.000000,4.000000,4.000000,4.000000,4.000000,4.000000,4.000000,4.000000,4.000000,4.000000,100.000000,,,,,,,,,,,,,,,,
1645712037.386300,48.000000,0.000000,4216.410156,4203.717773,4217.563965,4199.230957,4211.922852,4200.641113,4198.589844,4218.974121,4206.922852,4205.128418,4216.153809,4145.897461,4222.692383,4226.538574,0.000000,4.000000,82.000000,,,,0.000000,4.000000,4.000000,4.000000,4.000000,4.000000,4.000000,4.000000,4.000000,4.000000,4.000000,4.000000,4.000000,4.000000,4.000000,100.000000,,,,,,,,,,,,,,,,
1645712037.390240,49.000000,0.000000,4223.077148,4204.230957,4217.307617,4198.589844,4207.436035,4200.128418,4198.077148,4218.333496,4205.641113,4202.179688,4209.487305,4143.717773,4217.179688,4222.692383,0.000000,4.000000,82.000000,,,,0.000000,4.000000,4.000000,4.000000,4.000000,4.000000,4.000000,4.000000,4.000000,4.000000,4.000000,4.000000,4.000000,4.000000,4.000000,100.000000,,,,,,,,,,,,,,,,
1645712037.394180,50.000000,0.000000,4227.436035,4206.666504,4216.153809,4195.769043,4203.461426,4200.256348,4199.230957,4216.538574,4203.205078,4201.922852,4205.384766,4142.563965,4210.641113,4223.333496,0.000000,4.000000,82.000000,,,,0.000000,4.000000,4.000000,4.000000,4.000000,4.000000,4.000000,4.000000,4.000000,4.000000,4.000000,4.000000,4.000000,4.000000,4.000000,100.000000,,,,,,,,,,,,,,,,
1645712037.398120,51.000000,0.000000,4225.769043,4212.051270,4216.538574,4195.000000,4206.282227,4203.846191,4203.461426,4217.051270,4203.846191,4208.077148,4208.461426,4146.025879,4208.589844,4230.384766,0.000000,4.000000,82.000000,,,,0.000000,4.000000,4.000000,4.000000,4.000000,4.000000,4.000000,4.000000,4.000000,4.000000,4.000000,4.000000,4.000000,4.000000,4.000000,100.000000,,,,,,,,,,,,,,,,
1645712037.402060,52.000000,0.000000,4222.179688,4217.436035,4219.743652,4198.333496,4216.025879,4210.384766,4209.102539,4220.641113,4208.205078,4217.948730,4215.384766,4153.205078,4211.794922,4240.256348,0.000000,4.000000,82.000000,,,,0.000000,4.000000,4.000000,4.000000,4.000000,4.000000,4.000000,4.000000,4.000000,4.000000,4.000000,4.000000,4.000000,4.000000,4.000000,100.000000,,,,,,,,,,,,,,,,
1645712037.406000,53.000000,0.000000,4223.333496,4218.461426,4224.102539,4204.102539,4225.769043,4216.025879,4213.846191,4224.615234,4212.948730,4224.230957,4219.615234,4159.358887,4216.538574,4246.282227,0.000000,4.000000,82.000000,,,,0.000000,4.000000,4.000000,4.000000,4.000000,4.000000,4.000000,4.000000,4.000000,4.000000,4.000000,4.000000,4.000000,4.000000,4.000000,100.000000,,,,,,,,,,,,,,,,
1645712037.409941,54.000000,0.000000,4230.128418,4214.743652,4227.307617,4208.846191,4229.615234,4218.205078,4216.666504,4226.282227,4214.871582,4222.820313,4217.948730,4160.769043,4219.358887,4244.871582,0.000000,4.000000,82.000000,,,,0.000000,4.000000,4.000000,4.000000,4.000000,4.000000,4.000000,4.000000,4.000000,4.000000,4.000000,4.000000,4.000000,4.000000,4.000000,100.000000,,,,,,,,,,,,,,,,
1645712037.413881,55.000000,0.000000,4235.897461,4210.897461,4228.589844,4210.384766,4228.077148,4218.589844,4218.077148,4225.512695,4213.974121,4217.051270,4214.871582,4158.333496,4220.512695,4237.692383,0.000000,4.000000,82.000000,,,,0.000000,4.000000,4.000000,4.000000,4.000000,4.000000,4.000000,4.000000,4.000000,4.000000,4.000000,4.000000,4.000000,4.000000,4.000000,100.000000,,,,,,,,,,,,,,,,
1645712037.417821,56.000000,0.000000,4234.230957,4211.025879,4228.589844,4208.333496,4225.256348,4219.358887,4218.461426,4224.487305,4212.692383,4213.461426,4216.025879,4155.641113,4222.563965,4229.230957,0.000000,4.000000,82.000000,,,,0.000000,4.000000,4.000000,4.000000,4.000000,4.000000,4.000000,4.000000,4.000000,4.000000,4.000000,4.000000,4.000000,4.000000,4.000000,100.000000,,,,,,,,,,,,,,,,
1645712037.421761,57.000000,0.000000,4226.794922,4213.974121,4227.436035,4203.077148,4222.820313,4219.743652,4217.179688,4223.974121,4212.307617,4213.717773,4221.538574,4154.743652,4225.897461,4223.589844,0.000000,4.000000,82.000000,,,,0.000000,4.000000,4.000000,4.000000,4.000000,4.000000,4.000000,4.000000,4.000000,4.000000,4.000000,4.000000,4.000000,4.000000,4.000000,100.000000,,,,,,,,,,,,,,,,
1645712037.425701,58.000000,0.000000,4220.641113,4214.871582,4225.128418,4195.512695,4218.846191,4217.820313,4214.358887,4222.692383,4212.436035,4214.615234,4225.128418,4155.128418,4227.692383,4222.948730,0.000000,4.000000,82.000000,,,,0.000000,4.000000,4.000000,4.000000,4.000000,4.000000,4.000000,4.000000,4.000000,4.000000,4.000000,4.000000,4.000000,4.000000,4.000000,100.000000,,,,,,,,,,,,,,,,
1645712037.429641,59.000000,0.000000,4220.128418,4211.794922,4222.307617,4188.974121,4212.692383,4214.615234,4211.794922,4220.512695,4212.179688,4213.205078,4222.948730,4156.666504,4226.025879,4227.692383,0.000000,4.000000,82.000000,,,,0.000000,4.000000,4.000000,4.000000,4.000000,4.000000,4.000000,4.000000,4.000000,4.000000,4.000000,4.000000,4.000000,4.000000,4.000000,100.000000,,,,,,,,,,,,,,,,
1645712037.433581,60.000000,0.000000,4222.563965,4208.077148,4221.025879,4189.102539,4208.461426,4214.102539,4212.436035,4218.717773,4211.666504,4211.922852,4218.205078,4160.128418,4221.794922,4236.410156,0.000000,4.000000,82.000000,,,,0.000000,4.000000,4.000000,4.000000,4.000000,4.000000,4.000000,4.000000,4.000000,4.000000,4.000000,4.000000,4.000000,4.000000,4.000000,100.000000,,,,,,,,,,,,,,,,
1645712037.437521,61.000000,0.000000,4223.077148,4208.717773,4221.922852,4198.077148,4211.282227,4219.102539,4216.922852,4219.487305,4212.179688,4215.000000,4217.436035,4165.384766,4218.717773,4245.256348,0.000000,4.000000,82.000000,,,,0.000000,4.000000,4.000000,4.000000,4.000000,4.000000,4.000000,4.000000,4.000000,4.000000,4.000000,4.000000,4.000000,4.000000,4.000000,100.000000,,,,,,,,,,,,,,,,
1645712037.441561,62.000000,0.000000,4221.538574,4213.717773,4223.717773,4210.000000,4220.641113,4226.538574,4221.922852,4222.436035,4213.333496,4221.282227,4222.179688,4169.358887,4218.589844,4249.615234,0.000000,4.000000,82.000000,,,,0.000000,4.000000,4.000000,4.000000,4.000000,4.000000,4.000000,4.000000,4.000000,4.000000,4.000000,4.000000,4.000000,4.000000,4.000000,100.000000,,,,,,,,,,,,,,,,
1645712037.445501,63.000000,0.000000,4222.307617,4219.102539,4224.358887,4214.615234,4229.358887,4229.743652,4223.717773,4225.000000,4213.461426,4225.256348,4226.794922,4167.820313,4219.615234,4247.051270,0.000000,4.000000,82.000000,,,,0.000000,4.000000,4.000000,4.000000,4.000000,4.000000,4.000000,4.000000,4.000000,4.000000,4.000000,4.000000,4.000000,4.000000,4.000000,100.000000,,,,,,,,,,,,,,,,
1645712037.449441,64.000000,0.000000,4227.179688,4221.410156,4223.333496,4207.436035,4231.666504,4226.282227,4221.410156,4225.000000,4212.179688,4223.333496,4225.897461,4160.000000,4219.358887,4239.230957,0.000000,4.000000,82.000000,,,,0.000000,4.000000,4.000000,4.000000,4.000000,4.000000,4.000000,4.000000,4.000000,4.000000,4.000000,4.000000,4.000000,4.000000,4.000000,100.000000,,,,,,,,,,,,,,,,
1645712037.453382,65.000000,0.000000,4232.051270,4221.282227,4222.436035,4195.512695,4228.589844,4219.871582,4217.948730,4223.717773,4210.769043,4219.102539,4220.641113,4151.025879,4218.461426,4231.025879,0.000000,4.000000,82.000000,,,,0.000000,4.000000,4.000000,4.000000,4.000000,4.000000,4.000000,4.000000,4.000000,4.000000,4.000000,4.000000,4.000000,4.000000,4.000000,100.000000,,,,,,,,,,,,,,,,
1645712037.457322,66.000000,0.000000,4231.410156,4220.769043,4223.205078,4190.512695,4225.256348,4216.794922,4216.666504,4223.205078,4210.897461,4218.205078,4216.538574,4146.538574,4218.846191,4225.897461,0.000000,4.000000,82.000000,,,,0.000000,4.000000,4.000000,4.000000,4.000000,4.000000,4.000000,4.000000,4.000000,4.000000,4.000000,4.000000,4.000000,4.000000,4.000000,100.000000,,,,,,,,,,,,,,,,
1645712037.461262,67.000000,0.000000,4225.128418,4219.871582,4224.615234,4196.538574,4223.589844,4218.717773,4217.692383,4223.333496,4212.179688,4220.769043,4216.666504,4148.461426,4221.025879,4224.743652,0.000000,4.000000,82.000000,,,,0.000000,4.000000,4.000000,4.000000,4.000000,4.000000,4.000000,4.000000,4.000000,4.000000,4.000000,4.000000,4.000000,4.000000,4.000000,100.000000,,,,,,,,,,,,,,,,
1645712037.465202,68.000000,0.000000,4219.743652,4216.538574,4224.487305,4206.410156,4220.512695,4221.282227,4218.461426,4221.794922,4211.922852,4220.897461,4218.205078,4153.333496,4222.179688,4226.153809,0.000000,4.000000,82.000000,,,,0.000000,4.000000,4.000000,4.000000,4.000000,4.000000,4.000000,4.000000,4.000000,4.000000,4.000000,4.000000,4.000000,4.000000,4.000000,100.000000,,,,,,,,,,,,,,,,
1645712037.469142,69.000000,0.000000,4220.000000,4210.769043,4222.436035,4209.743652,4214.358887,4220.769043,4217.307617,4218.205078,4208.846191,4215.000000,4217.563965,4157.563965,4220.000000,4229.487305,0.000000,4.000000,82.000000,,,,0.000000,4.000000,4.000000,4.000000,4.000000,4.000000,4.000000,4.000000,4.000000,4.000000,4.000000,4.000000,4.000000,4.000000,4.000000,100.000000,,,,,,,,,,,,,,,,
1645712037.473082,70.000000,0.000000,4223.846191,4206.025879,4220.512695,4204.230957,4210.128418,4218.589844,4215.384766,4215.512695,4205.256348,4207.307617,4215.512695,4160.000000,4216.538574,4234.743652,0.000000,4.000000,82.000000,,,,0.000000,4.000000,4.000000,4.000000,4.000000,4.000000,4.000000,4.000000,4.000000,4.000000,4.000000,4.000000,4.000000,4.000000,4.000000,100.000000,,,,,,,,,,,,,,,,
1645712037.477022,71.000000,0.000000,4225.128418,4205.641113,4220.897461,4196.410156,4213.717773,4218.333496,4214.487305,4217.179688,4204.743652,4205.769043,4216.410156,4161.794922,4215.897461,4239.743652,0.000000,4.000000,82.000000,,,,0.000000,4.000000,4.000000,4.000000,4.000000,4.000000,4.000000,4.000000,4.000000,4.000000,4.000000,4.000000,4.000000,4.000000,4.000000,100.000000,,,,,,,,,,,,,,,,
1645712037.480962,72.000000,0.000000,4222.179688,4209.487305,4223.461426,4193.717773,4223.333496,4220.384766,4214.743652,4222.307617,4207.948730,4212.307617,4221.153809,4163.333496,4219.230957,4241.153809,0.000000,4.000000,82.000000,,,,0.000000,4.000000,4.000000,4.000000,4.000000,4.000000,4.000000,4.000000,4.000000,4.000000,4.000000,4.000000,4.000000,4.000000,4.000000,100.000000,,,,,,,,,,,,,,,,
1645712037.484902,73.000000,0.000000,4219.487305,4213.333496,4225.256348,4196.538574,4230.128418,4221.153809,4214.615234,4226.410156,4212.051270,4220.512695,4226.025879,4162.948730,4223.717773,4237.051270,0.000000,4.000000,82.000000,1,1,2,0.000000,4.000000,4.000000,4.000000,4.000000,4.000000,4.000000,4.000000,4.000000,4.000000,4.000000,4.000000,4.000000,4.000000,4.000000,100.000000,,,,,,,,,,,,,,,,
1645712037.488843,74.000000,0.000000,4221.153809,4213.974121,4224.358887,4200.512695,4227.692383,4217.948730,4213.205078,4226.153809,4213.717773,4222.820313,4226.410156,4159.615234,4225.256348,4230.128418,0.000000,4.000000,82.000000,,,,0.000000,4.000000,4.000000,4.000000,4.000000,4.000000,4.000000,4.000000,4.000000,4.000000,4.000000,4.000000,4.000000,4.000000,4.000000,100.000000,,,,,,,,,,,,,,,,
1645712037.492783,75.000000,0.000000,4224.743652,4211.922852,4221.666504,4202.051270,4219.358887,4213.333496,4211.666504,4223.333496,4212.692383,4219.102539,4222.563965,4154.871582,4222.692383,4225.128418,0.000000,4.000000,82.000000,,,,0.000000,4.000000,4.000000,4.000000,4.000000,4.000000,4.000000,4.000000,4.000000,4.000000,4.000000,4.000000,4.000000,4.000000,4.000000,100.000000,,,,,,,,,,,,,,,,
1645712037.496723,76.000000,0.000000,4223.974121,4209.358887,4218.717773,4201.025879,4213.589844,4211.538574,4211.794922,4222.051270,4211.410156,4215.641113,4218.589844,4150.897461,4218.333496,4224.230957,0.000000,4.000000,82.000000,,,,0.000000,4.000000,4.000000,4.000000,4.000000,4.000000,4.000000,4.000000,4.000000,4.000000,4.000000,4.000000,4.000000,4.000000,4.000000,100.000000,,,,,,,,,,,,,,,,
1645712037.500663,77.000000,0.000000,4217.563965,4206.794922,4216.025879,4198.846191,4213.333496,4213.333496,4213.077148,4223.205078,4211.794922,4216.153809,4216.153809,4148.461426,4214.230957,4225.769043,0.000000,4.000000,82.000000,,,,0.000000,4.000000,4.000000,4.000000,4.000000,4.000000,4.000000,4.000000,4.000000,4.000000,4.000000,4.000000,4.000000,4.000000,4.000000,100.000000,,,,,,,,,,,,,,,,
1645712037.504603,78.000000,0.000000,4210.384766,4202.948730,4212.179688,4195.641113,4214.487305,4215.128418,4213.333496,4223.846191,4212.820313,4217.692383,4212.692383,4145.512695,4210.512695,4226.666504,0.000000,4.000000,82.000000,,,,0.000000,4.000000,4.000000,4.000000,4.000000,4.000000,4.000000,4.000000,4.000000,4.000000,4.000000,4.000000,4.000000,4.000000,4.000000,100.000000,,,,,,,,,,,,,,,,
1645712037.508543,79.000000,0.000000,4208.333496,4197.179688,4207.307617,4191.666504,4212.563965,4213.333496,4212.051270,4221.538574,4212.820313,4215.256348,4206.410156,4140.641113,4206.922852,4226.153809,0.000000,4.000000,82.000000,,,,0.000000,4.000000,4.000000,4.000000,4.000000,4.000000,4.000000,4.000000,4.000000,4.000000,4.000000,4.000000,4.000000,4.000000,4.000000,100.000000,,,,,,,,,,,,,,,,
1645712037.512583,80.000000,0.000000,4210.769043,4192.051270,4204.102539,4189.743652,4209.743652,4209.871582,4211.025879,4218.077148,4211.538574,4209.102539,4200.256348,4135.256348,4205.256348,4225.512695,0.000000,4.000000,82.000000,,,,0.000000,4.000000,4.000000,4.000000,4.000000,4.000000,4.000000,4.000000,4.000000,4.000000,4.000000,4.000000,4.000000,4.000000,4.000000,100.000000,,,,,,,,,,,,,,,,
1645712037.516523,81.000000,0.000000,4213.589844,4191.282227,4204.615234,4191.922852,4210.769043,4209.102539,4212.179688,4217.692383,4210.769043,4204.743652,4199.102539,4132.820313,4207.307617,4226.025879,0.000000,4.000000,82.000000,,,,0.000000,4.000000,4.000000,4.000000,4.000000,4.000000,4.000000,4.000000,4.000000,4.000000,4.000000,4.000000,4.000000,4.000000,4.000000,100.000000,,,,,,,,,,,,,,,,
1645712037.520463,82.000000,0.000000,4215.000000,4195.512695,4208.461426,4196.666504,4215.641113,4212.179688,4215.000000,4221.410156,4211.794922,4206.025879,4203.846191,4134.871582,4212.307617,4226.922852,0.000000,4.000000,82.000000,,,,0.000000,4.000000,4.000000,4.000000,4.000000,4.000000,4.000000,4.000000,4.000000,4.000000,4.000000,4.000000,4.000000,4.000000,4.000000,100.000000,,,,,,,,,,,,,,,,
1645712037.524403,83.000000,0.000000,4217.307617,4201.922852,4212.820313,4199.487305,4218.717773,4216.153809,4216.922852,4226.025879,4213.717773,4210.384766,4209.871582,4139.487305,4216.282227,4227.436035,0.000000,4.000000,82.000000,,,,0.000000,4.000000,4.000000,4.000000,4.000000,4.000000,4.000000,4.000000,4.000000,4.000000,4.000000,4.000000,4.000000,4.000000,4.000000,100.000000,,,,,,,,,,,,,,,,
1645712037.528343,84.000000,0.000000,4222.563965,4207.307617,4216.538574,4198.589844,4216.025879,4217.820313,4217.563965,4227.307617,4214.743652,4212.820313,4212.692383,4144.230957,4216.538574,4228.077148,0.000000,4.000000,82.000000,,,,0.000000,4.000000,4.000000,4.000000,4.000000,4.000000,4.000000,4.000000,4.000000,4.000000,4.000000,4.000000,4.000000,4.000000,4.000000,100.000000,,,,,,,,,,,,,,,,
1645712037.532284,85.000000,0.000000,4227.692383,4211.153809,4220.256348,4197.948730,4211.794922,4217.692383,4218.333496,4225.384766,4214.743652,4213.077148,4213.333496,4148.589844,4214.615234,4230.512695,0.000000,4.000000,82.000000,,,,0.000000,4.000000,4.000000,4.000000,4.000000,4.000000,4.000000,4.000000,4.000000,4.000000,4.000000,4.000000,4.000000,4.000000,4.000000,100.000000,,,,,,,,,,,,,,,,
1645712037.536224,86.000000,0.000000,4227.948730,4215.000000,4225.000000,4202.436035,4213.333496,4218.205078,4220.512695,4223.589844,4214.743652,4214.871582,4215.256348,4152.948730,4214.230957,4234.358887,0.000000,4.000000,82.000000,,,,0.000000,4.000000,4.000000,4.000000,4.000000,4.000000,4.000000,4.000000,4.000000,4.000000,4.000000,4.000000,4.000000,4.000000,4.000000,100.000000,,,,,,,,,,,,,,,,
1645712037.540164,87.000000,0.000000,4223.077148,4217.179688,4228.333496,4210.897461,4221.282227,4218.974121,4222.051270,4223.589844,4215.256348,4219.615234,4218.974121,4155.641113,4215.769043,4236.666504,0.000000,4.000000,82.000000,,,,0.000000,4.000000,4.000000,4.000000,4.000000,4.000000,4.000000,4.000000,4.000000,4.000000,4.000000,4.000000,4.000000,4.000000,4.000000,100.000000,,,,,,,,,,,,,,,,
1645712037.544104,88.000000,0.000000,4217.948730,4213.974121,4226.153809,4215.769043,4227.563965,4216.538574,4219.743652,4223.205078,4214.615234,4223.461426,4220.897461,4153.589844,4215.384766,4233.461426,0.000000,4.000000,82.000000,,,,0.000000,4.000000,4.000000,4.000000,4.000000,4.000000,4.000000,4.000000,4.000000,4.000000,4.000000,4.000000,4.000000,4.000000,4.000000,100.000000,,,,,,,,,,,,,,,,
1645712037.548044,89.000000,0.000000,4216.794922,4204.230957,4218.077148,4211.153809,4224.358887,4209.871582,4212.820313,4220.128418,4211.666504,4220.897461,4217.692383,4145.897461,4210.000000,4224.487305,0.000000,4.000000,82.000000,,,,0.000000,4.000000,4.000000,4.000000,4.000000,4.000000,4.000000,4.000000,4.000000,4.000000,4.000000,4.000000,4.000000,4.000000,4.000000,100.000000,,,,,,,,,,,,,,,,
1645712037.551984,90.000000,0.000000,4218.461426,4193.589844,4209.358887,4199.615234,4213.717773,4202.948730,4205.384766,4214.871582,4207.307617,4212.051270,4211.794922,4137.436035,4202.948730,4214.743652,0.000000,4.000000,82.000000,,,,0.000000,4.000000,4.000000,4.000000,4.000000,4.000000,4.000000,4.000000,4.000000,4.000000,4.000000,4.000000,4.000000,4.000000,4.000000,100.000000,,,,,,,,,,,,,,,,
1645712037.555924,91.000000,0.000000,4218.717773,4190.641113,4207.307617,4190.384766,4206.410156,4201.666504,4202.692383,4210.512695,4204.871582,4203.974121,4209.615234,4135.512695,4200.256348,4210.641113,0.000000,4.000000,82.000000,,,,0.000000,4.000000,4.000000,4.000000,4.000000,4.000000,4.000000,4.000000,4.000000,4.000000,4.000000,4.000000,4.000000,4.000000,4.000000,100.000000,,,,,,,,,,,,,,,,
1645712037.559864,92.000000,0.000000,4217.051270,4197.948730,4213.974121,4190.256348,4210.128418,4207.051270,4205.769043,4208.974121,4206.153809,4202.820313,4214.230957,4142.436035,4205.000000,4214.871582,0.000000,4.000000,82.000000,,,,0.000000,4.000000,4.000000,4.000000,4.000000,4.000000,4.000000,4.000000,4.000000,4.000000,4.000000,4.000000,4.000000,4.000000,4.000000,100.000000,,,,,,,,,,,,,,,,
1645712037.563804,93.000000,0.000000,4217.051270,4208.205078,4224.358887,4197.563965,4221.153809,4213.205078,4210.641113,4208.717773,4208.974121,4208.333496,4221.410156,4153.461426,4212.051270,4224.358887,0.000000,4.000000,82.000000,,,,0.000000,4.000000,4.000000,4.000000,4.000000,4.000000,4.000000,4.000000,4.000000,4.000000,4.000000,4.000000,4.000000,4.000000,4.000000,100.000000,,,,,,,,,,,,,,,,
1645712037.567745,94.000000,0.000000,4221.153809,4212.179688,4231.153809,4205.000000,4229.230957,4214.230957,4212.436035,4206.538574,4210.000000,4213.846191,4223.717773,4160.641113,4214.102539,4232.820313,0.000000,4.000000,82.000000,,,,0.000000,4.000000,4.000000,4.000000,4.000000,4.000000,4.000000,4.000000,4.000000,4.000000,4.000000,4.000000,4.000000,4.000000,4.000000,100.000000,,,,,,,,,,,,,,,,
1645712037.571685,95.000000,0.000000,4226.282227,4208.205078,4231.153809,4207.051270,4228.077148,4210.128418,4210.641113,4202.692383,4207.692383,4215.256348,4218.717773,4160.512695,4208.205078,4236.025879,0.000000,4.000000,82.000000,,,,0.000000,4.000000,4.000000,4.000000,4.000000,4.000000,4.000000,4.000000,4.000000,4.000000,4.000000,4.000000,4.000000,4.000000,4.000000,100.000000,,,,,,,,,,,,,,,,
1645712037.575625,96.000000,0.000000,4227.307617,4204.102539,4227.307617,4203.974121,4221.025879,4206.410156,4208.077148,4200.128418,4204.358887,4213.846191,4210.769043,4156.282227,4199.358887,4234.358887,0.000000,4.000000,82.000000,,,,0.000000,4.000000,4.000000,4.000000,4.000000,4.000000,4.000000,4.000000,4.000000,4.000000,4.000000,4.000000,4.000000,4.000000,4.000000,100.000000,,,,,,,,,,,,,,,,
1645712037.579565,97.000000,0.000000,4223.974121,4207.307617,4224.358887,4198.717773,4215.641113,4206.794922,4206.922852,4200.512695,4202.820313,4212.948730,4206.153809,4153.205078,4194.487305,4231.153809,0.000000,4.000000,82.000000,,,,0.000000,4.000000,4.000000,4.000000,4.000000,4.000000,4.000000,4.000000,4.000000,4.000000,4.000000,4.000000,4.000000,4.000000,4.000000,100.000000,,,,,,,,,,,,,,,,
1645712037.583605,98.000000,0.000000,4221.025879,4216.538574,4223.717773,4194.615234,4215.384766,4209.230957,4206.922852,4202.436035,4202.948730,4212.307617,4205.897461,4152.820313,4196.538574,4229.102539,0.000000,4.000000,82.000000,,,,0.000000,4.000000,4.000000,4.000000,4.000000,4.000000,4.000000,4.000000,4.000000,4.000000,4.000000,4.000000,4.000000,4.000000,4.000000,100.000000,,,,,,,,,,,,,,,,
1645712037.587545,99.000000,0.000000,4222.179688,4223.333496,4223.846191,4194.102539,4217.436035,4209.358887,4206.666504,4202.692383,4202.948730,4208.974121,4207.179688,4153.333496,4202.436035,4228.846191,0.000000,4.000000,82.000000,,,,0.000000,4.000000,4.000000,4.000000,4.000000,4.000000,4.000000,4.000000,4.000000,4.000000,4.000000,4.000000,4.000000,4.000000,4.000000,100.000000,,,,,,,,,,,,,,,,
1645712037.591485,100.000000,0.000000,4224.743652,4221.410156,4223.333496,4198.717773,4217.948730,4206.538574,4206.025879,4201.153809,4201.794922,4203.077148,4208.461426,4153.205078,4208.717773,4229.487305,0.000000,4.000000,82.000000,,,,0.000000,4.000000,4.000000,4.000000,4.000000,4.000000,4.000000,4.000000,4.000000,4.000000,4.000000,4.000000,4.000000,4.000000,4.000000,100.000000,,,,,,,,,,,,,,,,
1645712037.595425,101.000000,0.000000,4223.205078,4212.563965,4222.692383,4206.922852,4216.282227,4204.615234,4206.410156,4201.538574,4201.282227,4199.230957,4211.922852,4153.333496,4214.102539,4230.000000,0.000000,4.000000,82.000000,,,,0.000000,4.000000,4.000000,4.000000,4.000000,4.000000,4.000000,4.000000,4.000000,4.000000,4.000000,4.000000,4.000000,4.000000,4.000000,100.000000,,,,,,,,,,,,,,,,
1645712037.599465,102.000000,0.000000,4216.410156,4203.717773,4223.205078,4214.230957,4214.871582,4206.282227,4208.205078,4206.538574,4202.692383,4201.538574,4218.589844,4154.230957,4218.077148,4229.487305,0.000000,4.000000,82.000000,,,,0.000000,4.000000,4.000000,4.000000,4.000000,4.000000,4.000000,4.000000,4.000000,4.000000,4.000000,4.000000,4.000000,4.000000,4.000000,100.000000,,,,,,,,,,,,,,,,
1645712037.603405,103.000000,0.000000,4210.128418,4199.743652,4224.358887,4215.256348,4215.128418,4209.615234,4210.384766,4214.615234,4205.641113,4208.205078,4224.230957,4154.230957,4219.102539,4227.692383,0.000000,4.000000,82.000000,,,,0.000000,4.000000,4.000000,4.000000,4.000000,4.000000,4.000000,4.000000,4.000000,4.000000,4.000000,4.000000,4.000000,4.000000,4.000000,100.000000,,,,,,,,,,,,,,,,
1645712037.607345,104.000000,0.000000,4210.897461,4201.153809,4224.358887,4208.333496,4216.153809,4210.897461,4212.307617,4221.025879,4207.692383,4213.077148,4223.205078,4151.666504,4215.256348,4225.384766,0.000000,4.000000,82.000000,,,,0.000000,4.000000,4.000000,4.000000,4.000000,4.000000,4.000000,4.000000,4.000000,4.000000,4.000000,4.000000,4.000000,4.000000,4.000000,100.000000,,,,,,,,,,,,,,,,
1645712037.611285,105.000000,0.000000,4217.948730,4205.897461,4223.077148,4197.948730,4216.922852,4208.846191,4214.102539,4223.461426,4208.333496,4213.077148,4215.384766,4147.820313,4208.205078,4224.102539,0.000000,4.000000,82.000000,,,,0.000000,4.000000,4.000000,4.000000,4.000000,4.000000,4.000000,4.000000,4.000000,4.000000,4.000000,4.000000,4.000000,4.000000,4.000000,100.000000,,,,,,,,,,,,,,,,
1645712037.615325,106.000000,0.000000,4223.846191,4211.922852,4221.922852,4191.282227,4217.820313,4206.794922,4216.410156,4223.589844,4209.102539,4211.410156,4207.179688,4147.051270,4202.948730,4224.230957,0.000000,4.000000,82.000000,,,,0.000000,4.000000,4.000000,4.000000,4.000000,4.000000,4.000000,4.000000,4.000000,4.000000,4.000000,4.000000,4.000000,4.000000,4.000000,100.000000,,,,,,,,,,,,,,,,
1645712037.619266,107.000000,0.000000,4222.692383,4216.666504,4222.948730,4191.922852,4218.717773,4207.307617,4218.461426,4224.102539,4211.666504,4212.051270,4205.256348,4151.282227,4203.589844,4224.358887,0.000000,4.000000,82.000000,,,,0.000000,4.000000,4.000000,4.000000,4.000000,4.000000,4.000000,4.000000,4.000000,4.000000,4.000000,4.000000,4.000000,4.000000,4.000000,100.000000,,,,,,,,,,,,,,,,
1645712037.623206,108.000000,0.000000,4216.922852,4217.820313,4225.384766,4197.307617,4217.307617,4210.128418,4218.333496,4225.128418,4214.615234,4215.000000,4209.102539,4157.051270,4209.102539,4223.846191,0.000000,4.000000,82.000000,,,,0.000000,4.000000,4.000000,4.000000,4.000000,4.000000,4.000000,4.000000,4.000000,4.000000,4.000000,4.000000,4.000000,4.000000,4.000000,100.000000,,,,,,,,,,,,,,,,
1645712037.627146,109.000000,0.000000,4213.589844,4215.769043,4226.666504,4202.436035,4213.589844,4212.436035,4215.641113,4224.743652,4215.897461,4216.538574,4213.717773,4159.358887,4215.128418,4224.102539,0.000000,4.000000,82.000000,,,,0.000000,4.000000,4.000000,4.000000,4.000000,4.000000,4.000000,4.000000,4.000000,4.000000,4.000000,4.000000,4.000000,4.000000,4.000000,100.000000,,,,,,,,,,,,,,,,
1645712037.631086,110.000000,0.000000,4216.538574,4214.615234,4225.897461,4206.666504,4211.282227,4213.717773,4213.077148,4222.563965,4214.615234,4215.897461,4216.153809,4156.666504,4218.461426,4227.436035,0.000000,4.000000,82.000000,,,,0.000000,4.000000,4.000000,4.000000,4.000000,4.000000,4.000000,4.000000,4.000000,4.000000,4.000000,4.000000,4.000000,4.000000,4.000000,100.000000,,,,,,,,,,,,,,,,
1645712037.635026,111.000000,0.000000,4222.436035,4218.205078,4224.615234,4212.436035,4215.641113,4216.025879,4213.333496,4220.384766,4213.205078,4216.666504,4218.589844,4152.820313,4219.358887,4233.846191,0.000000,4.000000,82.000000,2,1,2,0.000000,4.000000,4.000000,4.000000,4.000000,4.000000,4.000000,4.000000,4.000000,4.000000,4.000000,4.000000,4.000000,4.000000,4.000000,100.000000,,,,,,,,,,,,,,,,
1645712037.638966,112.000000,0.000000,4226.025879,4225.641113,4225.000000,4220.128418,4226.410156,4219.743652,4215.769043,4219.743652,4213.846191,4221.410156,4223.717773,4152.179688,4218.974121,4239.102539,0.000000,4.000000,82.000000,,,,0.000000,4.000000,4.000000,4.000000,4.000000,4.000000,4.000000,4.000000,4.000000,4.000000,4.000000,4.000000,4.000000,4.000000,4.000000,100.000000,,,,,,,,,,,,,,,,
1645712037.642906,113.000000,0.000000,4226.538574,4231.410156,4227.436035,4224.743652,4236.025879,4221.538574,4216.282227,4219.487305,4216.025879,4227.179688,4228.589844,4154.615234,4216.666504,4238.333496,0.000000,4.000000,82.000000,,,,0.000000,4.000000,4.000000,4.000000,4.000000,4.000000,4.000000,4.000000,4.000000,4.000000,4.000000,4.000000,4.000000,4.000000,4.000000,100.000000,,,,,,,,,,,,,,,,
1645712037.646846,114.000000,0.000000,4226.794922,4230.641113,4230.256348,4221.410156,4236.538574,4217.436035,4212.179688,4216.666504,4216.794922,4227.692383,4227.307617,4156.410156,4211.922852,4231.410156,0.000000,4.000000,82.000000,,,,0.000000,4.000000,4.000000,4.000000,4.000000,4.000000,4.000000,4.000000,4.000000,4.000000,4.000000,4.000000,4.000000,4.000000,4.000000,100.000000,,,,,,,,,,,,,,,,
1645712037.650786,115.000000,0.000000,4228.205078,4224.615234,4232.051270,4212.820313,4227.563965,4208.717773,4205.128418,4210.512695,4214.358887,4220.897461,4218.205078,4155.384766,4206.410156,4223.589844,0.000000,4.000000,82.000000,,,,0.000000,4.000000,4.000000,4.000000,4.000000,4.000000,4.000000,4.000000,4.000000,4.000000,4.000000,4.000000,4.000000,4.000000,4.000000,100.000000,,,,,,,,,,,,,,,,
1645712037.654727,116.000000,0.000000,4228.589844,4218.846191,4233.077148,4207.563965,4217.948730,4201.410156,4199.487305,4203.846191,4210.128418,4211.922852,4207.563965,4153.077148,4203.846191,4220.256348,0.000000,4.000000,82.000000,,,,0.000000,4.000000,4.000000,4.000000,4.000000,4.000000,4.000000,4.000000,4.000000,4.000000,4.000000,4.000000,4.000000,4.000000,4.000000,100.000000,,,,,,,,,,,,,,,,
1645712037.658667,117.000000,0.000000,4225.897461,4217.307617,4233.461426,4211.794922,4215.897461,4200.641113,4198.333496,4200.384766,4206.538574,4206.538574,4203.205078,4152.051270,4206.666504,4222.179688,0.000000,4.000000,82.000000,,,,0.000000,4.000000,4.000000,4.000000,4.000000,4.000000,4.000000,4.000000,4.000000,4.000000,4.000000,4.000000,4.000000,4.000000,4.000000,100.000000,,,,,,,,,,,,,,,,
1645712037.662607,118.000000,0.000000,4222.820313,4219.230957,4233.461426,4221.153809,4221.025879,4205.256348,4200.384766,4201.153809,4204.615234,4206.282227,4206.538574,4152.563965,4211.922852,4225.512695,0.000000,4.000000,82.000000,,,,0.000000,4.000000,4.000000,4.000000,4.000000,4.000000,4.000000,4.000000,4.000000,4.000000,4.000000,4.000000,4.000000,4.000000,4.000000,100.000000,,,,,,,,,,,,,,,,
1645712037.666547,119.000000,0.000000,4223.846191,4221.282227,4232.563965,4225.512695,4226.666504,4209.743652,4202.948730,4203.974121,4203.589844,4208.205078,4212.563965,4152.436035,4214.743652,4227.307617,0.000000,4.000000,82.000000,,,,0.000000,4.000000,4.000000,4.000000,4.000000,4.000000,4.000000,4.000000,4.000000,4.000000,4.000000,4.000000,4.000000,4.000000,4.000000,100.000000,,,,,,,,,,,,,,,,
1645712037.670487,120.000000,0.000000,4228.974121,4222.179688,4231.794922,4219.358887,4228.205078,4211.025879,4205.000000,4206.282227,4202.692383,4210.128418,4216.153809,4150.256348,4212.692383,4228.205078,0.000000,4.000000,82.000000,,,,0.000000,4.000000,4.000000,4.000000,4.000000,4.000000,4.000000,4.000000,4.000000,4.000000,4.000000,4.000000,4.000000,4.000000,4.000000,100.000000,,,,,,,,,,,,,,,,
1645712037.674427,121.000000,0.000000,4232.563965,4223.461426,4232.051270,4208.205078,4227.563965,4211.282227,4207.563965,4207.563965,4202.820313,4212.820313,4217.436035,4147.307617,4208.205078,4229.871582,0.000000,4.000000,82.000000,,,,0.000000,4.000000,4.000000,4.000000,4.000000,4.000000,4.000000,4.000000,4.000000,4.000000,4.000000,4.000000,4.000000,4.000000,4.000000,100.000000,,,,,,,,,,,,,,,,
1645712037.678367,122.000000,0.000000,4229.487305,4226.282227,4233.077148,4202.692383,4228.717773,4213.205078,4210.641113,4208.333496,4204.230957,4217.436035,4218.333496,4145.512695,4205.128418,4231.922852,0.000000,4.000000,82.000000,,,,0.000000,4.000000,4.000000,4.000000,4.000000,4.000000,4.000000,4.000000,4.000000,4.000000,4.000000,4.000000,4.000000,4.000000,4.000000,100.000000,,,,,,,,,,,,,,,,
1645712037.682407,123.000000,0.000000,4221.794922,4228.205078,4232.948730,4207.692383,4231.282227,4216.282227,4212.692383,4208.589844,4205.769043,4221.410156,4217.948730,4145.641113,4204.230957,4230.769043,0.000000,4.000000,82.000000,,,,0.000000,4.000000,4.000000,4.000000,4.000000,4.000000,4.000000,4.000000,4.000000,4.000000,4.000000,4.000000,4.000000,4.000000,4.000000,100.000000,,,,,,,,,,,,,,,,
1645712037.686347,124.000000,0.000000,4216.153809,4225.512695,4231.153809,4217.179688,4231.666504,4216.666504,4212.179688,4208.205078,4205.641113,4220.512695,4214.487305,4146.666504,4204.102539,4225.384766,0.000000,4.000000,82.000000,,,,0.000000,4.000000,4.000000,4.000000,4.000000,4.000000,4.000000,4.000000,4.000000,4.000000,4.000000,4.000000,4.000000,4.000000,4.000000,100.000000,,,,,,,,,,,,,,,,
1645712037.690287,125.000000,0.000000,4216.794922,4218.589844,4229.487305,4222.820313,4228.974121,4213.846191,4210.384766,4208.077148,4203.717773,4215.512695,4208.717773,4148.589844,4203.717773,4219.102539,0.000000,4.000000,82.000000,,,,0.000000,4.000000,4.000000,4.000000,4.000000,4.000000,4.000000,4.000000,4.000000,4.000000,4.000000,4.000000,4.000000,4.000000,4.000000,100.000000,,,,,,,,,,,,,,,,
1645712037.694228,126.000000,0.000000,4220.000000,4212.563965,4231.153809,4222.307617,4227.436035,4211.794922,4211.282227,4210.128418,4203.205078,4212.563965,4206.025879,4152.436035,4204.871582,4217.563965,0.000000,4.000000,82.000000,,,,0.000000,4.000000,4.000000,4.000000,4.000000,4.000000,4.000000,4.000000,4.000000,4.000000,4.000000,4.000000,4.000000,4.000000,4.000000,100.000000,,,,,,,,,,,,,,,,
1645712037.698168,127.000000,0.000000,4220.000000,4212.563965,4235.769043,4220.000000,4230.512695,4214.871582,4216.410156,4214.743652,4206.282227,4216.282227,4210.769043,4157.179688,4209.230957,4222.948730,0.000000,4.000000,82.000000,,,,0.000000,4.000000,4.000000,4.000000,4.000000,4.000000,4.000000,4.000000,4.000000,4.000000,4.000000,4.000000,4.000000,4.000000,4.000000,100.000000,,,,,,,,,,,,,,,,
1645712037.702108,128.000000,0.000000,4216.410156,4217.948730,4239.230957,4218.717773,4235.256348,4221.922852,4222.948730,4219.615234,4211.666504,4224.487305,4220.384766,4159.230957,4215.256348,4232.820313,3357.000000,4.000000,82.000000,,,,0.000000,4.000000,4.000000,4.000000,4.000000,4.000000,4.000000,4.000000,4.000000,4.000000,4.000000,4.000000,4.000000,4.000000,4.000000,100.000000,,,,,,,,,,,,,,,,
1645712037.706048,129.000000,0.000000,4214.487305,4223.205078,4237.948730,4217.179688,4235.512695,4227.436035,4226.538574,4221.794922,4216.153809,4229.358887,4227.948730,4155.128418,4219.487305,4242.563965,3131.000000,4.000000,82.000000,,,,0.000000,4.000000,4.000000,4.000000,4.000000,4.000000,4.000000,4.000000,4.000000,4.000000,4.000000,4.000000,4.000000,4.000000,4.000000,100.000000,,,,,,,,,,,,,,,,
1645712037.709988,130.000000,0.000000,4217.820313,4223.974121,4232.692383,4213.846191,4229.743652,4227.948730,4226.666504,4221.410156,4217.563965,4227.436035,4229.358887,4147.051270,4219.615234,4248.974121,2219.000000,4.000000,82.000000,,,,0.000000,4.000000,4.000000,4.000000,4.000000,4.000000,4.000000,4.000000,4.000000,4.000000,4.000000,4.000000,4.000000,4.000000,4.000000,100.000000,,,,,,,,,,,,,,,,
1645712037.713928,131.000000,0.000000,4223.589844,4222.179688,4228.589844,4210.641113,4223.589844,4226.282227,4226.025879,4221.794922,4217.692383,4224.102539,4227.820313,4141.922852,4217.436035,4250.769043,3372.000000,4.000000,82.000000,,,,0.000000,4.000000,4.000000,4.000000,4.000000,4.000000,4.000000,4.000000,4.000000,4.000000,4.000000,4.000000,4.000000,4.000000,4.000000,100.000000,,,,,,,,,,,,,,,,
1645712037.717868,132.000000,0.000000,4226.282227,4222.563965,4230.128418,4211.410156,4225.128418,4227.051270,4227.307617,4226.025879,4219.230957,4226.794922,4227.948730,4145.128418,4216.282227,4247.948730,3515.000000,4.000000,82.000000,,,,0.000000,4.000000,4.000000,4.000000,4.000000,4.000000,4.000000,4.000000,4.000000,4.000000,4.000000,4.000000,4.000000,4.000000,4.000000,100.000000,,,,,,,,,,,,,,,,
1645712037.721808,133.000000,0.000000,4224.871582,4226.922852,4236.025879,4215.512695,4234.358887,4230.384766,4229.230957,4232.051270,4222.436035,4236.282227,4230.512695,4154.487305,4217.179688,4240.641113,3367.000000,4.000000,82.000000,3,1,2,0.000000,4.000000,4.000000,4.000000,4.000000,4.000000,4.000000,4.000000,4.000000,4.000000,4.000000,4.000000,4.000000,4.000000,4.000000,100.000000,,,,,,,,,,,,,,,,
1645712037.725748,134.000000,0.000000,4223.461426,4231.025879,4241.410156,4218.717773,4243.205078,4231.794922,4228.461426,4234.230957,4224.743652,4244.358887,4231.282227,4161.282227,4218.589844,4230.769043,3264.000000,4.000000,82.000000,,,,0.000000,4.000000,4.000000,4.000000,4.000000,4.000000,4.000000,4.000000,4.000000,4.000000,4.000000,4.000000,4.000000,4.000000,4.000000,100.000000,,,,,,,,,,,,,,,,
1645712037.729688,135.000000,0.000000,4224.871582,4229.487305,4241.794922,4217.948730,4243.589844,4227.820313,4223.717773,4229.743652,4223.589844,4242.563965,4227.307617,4159.230957,4217.563965,4222.436035,2449.000000,4.000000,82.000000,,,,0.000000,4.000000,4.000000,4.000000,4.000000,4.000000,4.000000,4.000000,4.000000,4.000000,4.000000,4.000000,4.000000,4.000000,4.000000,100.000000,,,,,,,,,,,,,,,,
1645712037.733629,136.000000,0.000000,4227.307617,4222.307617,4237.948730,4215.128418,4235.897461,4220.897461,4217.948730,4221.410156,4219.871582,4231.410156,4221.025879,4149.358887,4214.358887,4219.615234,1453.000000,4.000000,82.000000,,,,0.000000,4.000000,4.000000,4.000000,4.000000,4.000000,4.000000,4.000000,4.000000,4.000000,4.000000,4.000000,4.000000,4.000000,4.000000,100.000000,,,,,,,,,,,,,,,,
1645712037.737569,137.000000,0.000000,4226.025879,4215.000000,4233.589844,4214.615234,4228.333496,4216.538574,4214.743652,4215.512695,4216.410156,4218.717773,4216.794922,4138.846191,4211.025879,4222.948730,3125.000000,4.000000,82.000000,,,,0.000000,4.000000,4.000000,4.000000,4.000000,4.000000,4.000000,4.000000,4.000000,4.000000,4.000000,4.000000,4.000000,4.000000,4.000000,100.000000,,,,,,,,,,,,,,,,
1645712037.741609,138.000000,0.000000,4221.282227,4212.820313,4231.666504,4217.307617,4226.410156,4216.922852,4214.743652,4214.743652,4215.000000,4211.410156,4215.769043,4133.461426,4208.846191,4228.589844,2316.000000,4.000000,82.000000,,,,0.000000,4.000000,4.000000,4.000000,4.000000,4.000000,4.000000,4.000000,4.000000,4.000000,4.000000,4.000000,4.000000,4.000000,4.000000,100.000000,,,,,,,,,,,,,,,,
1645712037.745549,139.000000,0.000000,4217.820313,4215.384766,4231.153809,4220.256348,4228.333496,4219.102539,4215.512695,4216.666504,4214.871582,4210.384766,4214.615234,4134.102539,4206.794922,4231.282227,2670.000000,4.000000,82.000000,,,,0.000000,4.000000,4.000000,4.000000,4.000000,4.000000,4.000000,4.000000,4.000000,4.000000,4.000000,4.000000,4.000000,4.000000,4.000000,100.000000,,,,,,,,,,,,,,,,
1645712037.749489,140.000000,0.000000,4219.230957,4219.487305,4230.256348,4220.384766,4228.589844,4219.487305,4215.512695,4217.692383,4214.743652,4212.820313,4211.666504,4138.077148,4203.717773,4229.358887,2971.000000,4.000000,82.000000,,,,0.000000,4.000000,4.000000,4.000000,4.000000,4.000000,4.000000,4.000000,4.000000,4.000000,4.000000,4.000000,4.000000,4.000000,4.000000,100.000000,,,,,,,,,,,,,,,,
1645712037.753429,141.000000,0.000000,4222.820313,4223.077148,4228.974121,4218.461426,4226.153809,4218.717773,4215.641113,4217.563965,4214.871582,4216.538574,4209.487305,4142.948730,4200.897461,4225.384766,3283.000000,4.000000,82.000000,,,,0.000000,4.000000,4.000000,4.000000,4.000000,4.000000,4.000000,4.000000,4.000000,4.000000,4.000000,4.000000,4.000000,4.000000,4.000000,100.000000,,,,,,,,,,,,,,,,
1645712037.757369,142.000000,0.000000,4223.461426,4226.410156,4228.461426,4217.307617,4224.615234,4219.358887,4216.794922,4218.077148,4215.897461,4220.769043,4211.922852,4147.307617,4201.025879,4222.692383,2316.000000,4.000000,82.000000,,,,0.000000,4.000000,4.000000,4.000000,4.000000,4.000000,4.000000,4.000000,4.000000,4.000000,4.000000,4.000000,4.000000,4.000000,4.000000,100.000000,,,,,,,,,,,,,,,,
1645712037.761409,143.000000,0.000000,4220.256348,4228.846191,4229.358887,4217.563965,4227.051270,4221.153809,4217.692383,4219.102539,4217.307617,4223.461426,4217.436035,4149.230957,4203.974121,4222.692383,2670.000000,4.000000,82.000000,,,,0.000000,4.000000,4.000000,4.000000,4.000000,4.000000,4.000000,4.000000,4.000000,4.000000,4.000000,4.000000,4.000000,4.000000,4.000000,100.000000,,,,,,,,,,,,,,,,
1645712037.765349,144.000000,0.000000,4217.692383,4227.179688,4229.743652,4216.282227,4231.025879,4220.384766,4215.897461,4218.717773,4217.051270,4221.538574,4220.000000,4146.666504,4206.794922,4224.102539,2971.000000,4.000000,82.000000,,,,0.000000,4.000000,4.000000,4.000000,4.000000,4.000000,4.000000,4.000000,4.000000,4.000000,4.000000,4.000000,4.000000,4.000000,4.000000,100.000000,,,,,,,,,,,,,,,,
1645712037.769289,145.000000,0.000000,4219.358887,4220.641113,4228.205078,4211.282227,4232.820313,4215.000000,4210.641113,4215.512695,4214.230957,4215.128418,4215.384766,4140.512695,4206.794922,4225.769043,3283.000000,4.000000,82.000000,,,,0.000000,4.000000,4.000000,4.000000,4.000000,4.000000,4.000000,4.000000,4.000000,4.000000,4.000000,4.000000,4.000000,4.000000,4.000000,100.000000,,,,,,,,,,,,,,,,
1645712037.773229,146.000000,0.000000,4223.717773,4213.461426,4225.641113,4205.384766,4231.922852,4208.205078,4205.128418,4211.666504,4211.153809,4210.128418,4207.563965,4135.641113,4205.000000,4227.563965,2316.000000,4.000000,82.000000,,,,0.000000,4.000000,4.000000,4.000000,4.000000,4.000000,4.000000,4.000000,4.000000,4.000000,4.000000,4.000000,4.000000,4.000000,4.000000,100.000000,,,,,,,,,,,,,,,,
1645712037.777269,147.000000,0.000000,4225.641113,4212.051270,4224.743652,4203.333496,4230.897461,4206.025879,4202.563965,4211.025879,4210.897461,4212.307617,4205.000000,4136.666504,4205.128418,4229.358887,2670.000000,4.000000,82.000000,,,,0.000000,4.000000,4.000000,4.000000,4.000000,4.000000,4.000000,4.000000,4.000000,4.000000,4.000000,4.000000,4.000000,4.000000,4.000000,100.000000,,,,,,,,,,,,,,,,
1645712037.781210,148.000000,0.000000,4223.846191,4217.948730,4226.794922,4207.179688,4231.153809,4209.615234,4203.205078,4213.717773,4213.589844,4219.743652,4210.641113,4143.205078,4207.820313,4230.384766,2971.000000,4.000000,82.000000,,,,0.000000,4.000000,4.000000,4.000000,4.000000,4.000000,4.000000,4.000000,4.000000,4.000000,4.000000,4.000000,4.000000,4.000000,4.000000,100.000000,,,,,,,,,,,,,,,,
1645712037.785150,149.000000,0.000000,4221.410156,4225.512695,4230.128418,4213.077148,4230.384766,4214.102539,4204.743652,4216.153809,4215.769043,4223.333496,4218.461426,4149.102539,4210.256348,4229.743652,3283.000000,4.000000,82.000000,,,,0.000000,4.000000,4.000000,4.000000,4.000000,4.000000,4.000000,4.000000,4.000000,4.000000,4.000000,4.000000,4.000000,4.000000,4.000000,100.000000,,,,,,,,,,,,,,,,
1645712037.789090,150.000000,0.000000,4221.025879,4227.436035,4230.897461,4216.794922,4226.282227,4214.358887,4205.000000,4214.615234,4214.102539,4217.051270,4220.000000,4149.230957,4209.102539,4227.820313,2316.000000,4.000000,82.000000,4,1,2,0.000000,4.000000,4.000000,4.000000,4.000000,4.000000,4.000000,4.000000,4.000000,4.000000,4.000000,4.000000,4.000000,4.000000,4.000000,100.000000,,,,,,,,,,,,,,,,
1645712037.793030,151.000000,0.000000,4221.538574,4222.948730,4227.692383,4217.436035,4220.641113,4210.641113,4204.358887,4210.128418,4209.230957,4206.025879,4214.102539,4144.230957,4206.025879,4226.794922,2670.000000,4.000000,82.000000,,,,0.000000,4.000000,4.000000,4.000000,4.000000,4.000000,4.000000,4.000000,4.000000,4.000000,4.000000,4.000000,4.000000,4.000000,4.000000,100.000000,,,,,,,,,,,,,,,,
1645712037.796970,152.000000,0.000000,4219.871582,4218.333496,4223.077148,4216.282227,4218.205078,4207.948730,4204.615234,4207.307617,4205.512695,4202.179688,4207.948730,4139.743652,4206.025879,4228.589844,2971.000000,4.000000,82.000000,,,,0.000000,4.000000,4.000000,4.000000,4.000000,4.000000,4.000000,4.000000,4.000000,4.000000,4.000000,4.000000,4.000000,4.000000,4.000000,100.000000,,,,,,,,,,,,,,,,
1645712037.800910,153.000000,0.000000,4216.922852,4219.615234,4220.384766,4214.615234,4220.512695,4209.358887,4206.538574,4209.102539,4206.666504,4211.282227,4208.846191,4140.641113,4211.153809,4232.307617,3283.000000,4.000000,82.000000,,,,0.000000,4.000000,4.000000,4.000000,4.000000,4.000000,4.000000,4.000000,4.000000,4.000000,4.000000,4.000000,4.000000,4.000000,4.000000,100.000000,,,,,,,,,,,,,,,,
1645712037.804850,154.000000,0.000000,4217.307617,4225.256348,4220.897461,4212.179688,4223.333496,4212.563965,4208.846191,4214.102539,4211.538574,4226.025879,4215.897461,4146.410156,4218.333496,4234.743652,2316.000000,4.000000,82.000000,,,,0.000000,4.000000,4.000000,4.000000,4.000000,4.000000,4.000000,4.000000,4.000000,4.000000,4.000000,4.000000,4.000000,4.000000,4.000000,100.000000,,,,,,,,,,,,,,,,
1645712037.808790,155.000000,0.000000,4222.692383,4228.846191,4223.461426,4209.871582,4222.692383,4213.974121,4210.641113,4218.333496,4216.538574,4233.461426,4223.205078,4153.461426,4221.666504,4233.974121,2670.000000,4.000000,82.000000,,,,0.000000,4.000000,4.000000,4.000000,4.000000,4.000000,4.000000,4.000000,4.000000,4.000000,4.000000,4.000000,4.000000,4.000000,4.000000,100.000000,,,,,,,,,,,,,,,,
1645712037.812730,156.000000,0.000000,4229.230957,4227.436035,4226.666504,4210.128418,4221.025879,4213.974121,4212.563965,4220.641113,4218.846191,4228.589844,4226.666504,4159.230957,4219.615234,4230.512695,2971.000000,4.000000,82.000000,,,,0.000000,4.000000,4.000000,4.000000,4.000000,4.000000,4.000000,4.000000,4.000000,4.000000,4.000000,4.000000,4.000000,4.000000,4.000000,100.000000,,,,,,,,,,,,,,,,
1645712037.816670,157.000000,0.000000,4231.282227,4224.230957,4230.256348,4213.846191,4225.128418,4215.641113,4215.769043,4222.436035,4219.230957,4218.974121,4228.077148,4163.461426,4216.282227,4226.922852,3283.000000,4.000000,82.000000,,,,0.000000,4.000000,4.000000,4.000000,4.000000,4.000000,4.000000,4.000000,4.000000,4.000000,4.000000,4.000000,4.000000,4.000000,4.000000,100.000000,,,,,,,,,,,,,,,,
1645712037.820611,158.000000,0.000000,4228.461426,4223.589844,4233.333496,4218.333496,4236.410156,4220.128418,4219.615234,4224.871582,4219.871582,4215.256348,4229.615234,4165.769043,4215.769043,4224.230957,2316.000000,4.000000,82.000000,,,,0.000000,4.000000,4.000000,4.000000,4.000000,4.000000,4.000000,4.000000,4.000000,4.000000,4.000000,4.000000,4.000000,4.000000,4.000000,100.000000,,,,,,,,,,,,,,,,
1645712037.824551,159.000000,0.000000,4225.897461,4225.000000,4234.102539,4218.974121,4246.794922,4223.974121,4221.282227,4226.410156,4221.025879,4220.256348,4229.615234,4163.717773,4218.077148,4222.948730,2670.000000,4.000000,82.000000,,,,0.000000,4.000000,4.000000,4.000000,4.000000,4.000000,4.000000,4.000000,4.000000,4.000000,4.000000,4.000000,4.000000,4.000000,4.000000,100.000000,,,,,,,,,,,,,,,,
1645712037.828591,160.000000,0.000000,4226.922852,4224.358887,4231.794922,4214.358887,4246.922852,4223.461426,4219.102539,4224.871582,4221.282227,4227.948730,4225.384766,4156.666504,4219.230957,4223.333496,2971.000000,4.000000,82.000000,,,,0.000000,4.000000,4.000000,4.000000,4.000000,4.000000,4.000000,4.000000,4.000000,4.000000,4.000000,4.000000,4.000000,4.000000,4.000000,100.000000,,,,,,,,,,,,,,,,
1645712037.832531,161.000000,0.000000,4228.205078,4220.512695,4227.820313,4209.487305,4237.179688,4218.974121,4214.487305,4221.025879,4219.615234,4231.025879,4218.717773,4147.563965,4216.922852,4226.282227,3283.000000,4.000000,82.000000,,,,0.000000,4.000000,4.000000,4.000000,4.000000,4.000000,4.000000,4.000000,4.000000,4.000000,4.000000,4.000000,4.000000,4.000000,4.000000,100.000000,,,,,,,,,,,,,,,,
1645712037.836471,162.000000,0.000000,4224.871582,4216.794922,4224.615234,4210.512695,4227.307617,4215.384766,4211.153809,4218.717773,4216.922852,4228.461426,4214.487305,4141.282227,4211.922852,4231.538574,2316.000000,4.000000,82.000000,,,,0.000000,4.000000,4.000000,4.000000,4.000000,4.000000,4.000000,4.000000,4.000000,4.000000,4.000000,4.000000,4.000000,4.000000,4.000000,100.000000,,,,,,,,,,,,,,,,
1645712037.840411,163.000000,0.000000,4217.179688,4217.307617,4223.333496,4218.077148,4226.153809,4215.512695,4211.025879,4220.384766,4214.871582,4224.230957,4215.512695,4140.512695,4207.051270,4235.641113,2670.000000,4.000000,82.000000,,,,0.000000,4.000000,4.000000,4.000000,4.000000,4.000000,4.000000,4.000000,4.000000,4.000000,4.000000,4.000000,4.000000,4.000000,4.000000,100.000000,,,,,,,,,,,,,,,,
1645712037.844351,164.000000,0.000000,4212.436035,4221.922852,4223.205078,4225.897461,4232.948730,4217.948730,4213.333496,4224.615234,4213.846191,4221.282227,4218.333496,4143.589844,4204.358887,4234.743652,2971.000000,4.000000,82.000000,,,,0.000000,4.000000,4.000000,4.000000,4.000000,4.000000,4.000000,4.000000,4.000000,4.000000,4.000000,4.000000,4.000000,4.000000,4.000000,100.000000,,,,,,,,,,,,,,,,
1645712037.848291,165.000000,0.000000,4216.666504,4226.666504,4224.102539,4228.205078,4241.666504,4219.743652,4216.025879,4227.563965,4213.077148,4220.128418,4218.205078,4147.563965,4205.384766,4228.717773,3283.000000,4.000000,82.000000,,,,0.000000,4.000000,4.000000,4.000000,4.000000,4.000000,4.000000,4.000000,4.000000,4.000000,4.000000,4.000000,4.000000,4.000000,4.000000,100.000000,,,,,,,,,,,,,,,,
1645712037.852231,166.000000,0.000000,4227.436035,4228.974121,4227.436035,4225.512695,4248.974121,4221.153809,4218.461426,4228.077148,4212.692383,4220.512695,4215.769043,4151.922852,4211.153809,4222.051270,2316.000000,4.000000,82.000000,,,,0.000000,4.000000,4.000000,4.000000,4.000000,4.000000,4.000000,4.000000,4.000000,4.000000,4.000000,4.000000,4.000000,4.000000,4.000000,100.000000,1.000000,83.333336,3.000000,4.000000,3.000000,4.000000,4.000000,4.000000,4.000000,4.000000,4.000000,4.000000,4.000000,4.000000,4.000000,4.000000
1645712037.856171,167.000000,0.000000,4235.769043,4229.102539,4234.230957,4224.102539,4256.153809,4224.871582,4221.153809,4227.692383,4213.205078,4223.589844,4216.153809,4157.948730,4219.871582,4219.615234,2670.000000,4.000000,82.000000,,,,0.000000,4.000000,4.000000,4.000000,4.000000,4.000000,4.000000,4.000000,4.000000,4.000000,4.000000,4.000000,4.000000,4.000000,4.000000,100.000000,,,,,,,,,,,,,,,,
1645712037.860112,168.000000,0.000000,4235.256348,4228.077148,4242.307617,4226.794922,4263.205078,4231.153809,4224.230957,4227.948730,4215.384766,4228.333496,4221.666504,4165.128418,4226.794922,4222.692383,2971.000000,4.000000,82.000000,,,,0.000000,4.000000,4.000000,4.000000,4.000000,4.000000,4.000000,4.000000,4.000000,4.000000,4.000000,4.000000,4.000000,4.000000,4.000000,100.000000,,,,,,,,,,,,,,,,
1645712037.864052,169.000000,0.000000,4228.974121,4225.769043,4246.282227,4229.358887,4265.128418,4235.384766,4225.641113,4227.948730,4217.307617,4230.384766,4227.436035,4170.000000,4226.153809,4227.563965,3283.000000,4.000000,82.000000,,,,0.000000,4.000000,4.000000,4.000000,4.000000,4.000000,4.000000,4.000000,4.000000,4.000000,4.000000,4.000000,4.000000,4.000000,4.000000,100.000000,,,,,,,,,,,,,,,,
1645712037.867992,170.000000,0.000000,4224.615234,4222.307617,4242.436035,4226.025879,4256.922852,4232.948730,4224.230957,4226.025879,4216.794922,4225.769043,4227.179688,4168.974121,4216.922852,4230.641113,2316.000000,4.000000,82.000000,,,,0.000000,4.000000,4.000000,4.000000,4.000000,4.000000,4.000000,4.000000,4.000000,4.000000,4.000000,4.000000,4.000000,4.000000,4.000000,100.000000,,,,,,,,,,,,,,,,
1645712037.871932,171.000000,0.000000,4225.000000,4220.256348,4233.589844,4217.307617,4242.436035,4225.769043,4222.307617,4222.692383,4213.846191,4217.179688,4220.769043,4162.563965,4205.256348,4231.282227,2670.000000,4.000000,82.000000,,,,0.000000,4.000000,4.000000,4.000000,4.000000,4.000000,4.000000,4.000000,4.000000,4.000000,4.000000,4.000000,4.000000,4.000000,4.000000,100.000000,,,,,,,,,,,,,,,,
1645712037.875872,172.000000,0.000000,4226.538574,4222.948730,4226.538574,4209.615234,4232.948730,4220.512695,4222.692383,4221.282227,4211.282227,4212.307617,4215.256348,4156.025879,4200.000000,4231.538574,2971.000000,4.000000,82.000000,,,,0.000000,4.000000,4.000000,4.000000,4.000000,4.000000,4.000000,4.000000,4.000000,4.000000,4.000000,4.000000,4.000000,4.000000,4.000000,100.000000,,,,,,,,,,,,,,,,
1645712037.879812,173.000000,0.000000,4225.128418,4228.974121,4225.897461,4208.589844,4235.897461,4221.410156,4225.769043,4223.846191,4211.410156,4216.153809,4216.025879,4154.102539,4205.000000,4232.692383,3283.000000,4.000000,82.000000,,,,0.000000,4.000000,4.000000,4.000000,4.000000,4.000000,4.000000,4.000000,4.000000,4.000000,4.000000,4.000000,4.000000,4.000000,4.000000,100.000000,,,,,,,,,,,,,,,,
1645712037.883752,174.000000,0.000000,4221.410156,4231.666504,4230.000000,4212.051270,4246.794922,4225.897461,4227.692383,4228.333496,4213.333496,4224.358887,4221.025879,4156.538574,4215.128418,4232.820313,2316.000000,4.000000,82.000000,,,,0.000000,4.000000,4.000000,4.000000,4.000000,4.000000,4.000000,4.000000,4.000000,4.000000,4.000000,4.000000,4.000000,4.000000,4.000000,100.000000,,,,,,,,,,,,,,,,
1645712037.887692,175.000000,0.000000,4219.487305,4225.512695,4233.461426,4213.589844,4253.974121,4227.307617,4225.256348,4230.512695,4213.589844,4227.820313,4222.948730,4159.871582,4221.538574,4230.128418,2670.000000,4.000000,82.000000,,,,0.000000,4.000000,4.000000,4.000000,4.000000,4.000000,4.000000,4.000000,4.000000,4.000000,4.000000,4.000000,4.000000,4.000000,4.000000,100.000000,,,,,,,,,,,,,,,,
1645712037.891632,176.000000,0.000000,4219.615234,4212.692383,4232.436035,4210.000000,4251.538574,4223.205078,4219.230957,4228.333496,4211.025879,4222.563965,4218.333496,4161.282227,4219.358887,4224.358887,2971.000000,4.000000,82.000000,,,,0.000000,4.000000,4.000000,4.000000,4.000000,4.000000,4.000000,4.000000,4.000000,4.000000,4.000000,4.000000,4.000000,4.000000,4.000000,100.000000,,,,,,,,,,,,,,,,
1645712037.895572,177.000000,0.000000,4218.077148,4201.794922,4227.948730,4204.743652,4244.102539,4217.179688,4214.358887,4225.000000,4207.948730,4213.205078,4210.384766,4161.153809,4211.410156,4217.820313,3283.000000,4.000000,82.000000,,,,0.000000,4.000000,4.000000,4.000000,4.000000,4.000000,4.000000,4.000000,4.000000,4.000000,4.000000,4.000000,4.000000,4.000000,4.000000,100.000000,,,,,,,,,,,,,,,,
1645712037.899513,178.000000,0.000000,4213.461426,4199.871582,4223.077148,4204.358887,4239.487305,4214.487305,4214.230957,4224.487305,4208.333496,4208.077148,4205.384766,4160.384766,4203.846191,4213.461426,2316.000000,4.000000,82.000000,,,,0.000000,4.000000,4.000000,4.000000,4.000000,4.000000,4.000000,4.000000,4.000000,4.000000,4.000000,4.000000,4.000000,4.000000,4.000000,100.000000,,,,,,,,,,,,,,,,
1645712037.903553,179.000000,0.000000,4209.615234,4206.410156,4219.871582,4209.487305,4240.128418,4215.897461,4217.563965,4227.436035,4212.563965,4211.153809,4206.794922,4158.461426,4200.641113,4212.948730,2670.000000,4.000000,82.000000,,,,0.000000,4.000000,4.000000,4.000000,4.000000,4.000000,4.000000,4.000000,4.000000,4.000000,4.000000,4.000000,4.000000,4.000000,4.000000,100.000000,,,,,,,,,,,,,,,,
1645712037.907493,180.000000,0.000000,4211.922852,4215.128418,4218.333496,4214.871582,4241.794922,4217.820313,4220.384766,4231.025879,4217.436035,4219.358887,4213.077148,4154.102539,4202.179688,4216.538574,2971.000000,4.000000,82.000000,,,,0.000000,4.000000,4.000000,4.000000,4.000000,4.000000,4.000000,4.000000,4.000000,4.000000,4.000000,4.000000,4.000000,4.000000,4.000000,100.000000,,,,,,,,,,,,,,,,
1645712037.911433,181.000000,0.000000,4219.615234,4221.282227,4217.820313,4215.641113,4241.025879,4217.820313,4220.512695,4232.179688,4219.871582,4227.820313,4220.641113,4148.333496,4206.666504,4222.692383,3283.000000,4.000000,82.000000,,,,0.000000,4.000000,4.000000,4.000000,4.000000,4.000000,4.000000,4.000000,4.000000,4.000000,4.000000,4.000000,4.000000,4.000000,4.000000,100.000000,,,,,,,,,,,,,,,,
1645712037.915373,182.000000,0.000000,4225.641113,4224.358887,4218.205078,4213.205078,4238.974121,4217.307617,4218.974121,4231.025879,4219.487305,4232.692383,4226.410156,4144.230957,4212.820313,4228.205078,2316.000000,4.000000,82.000000,,,,0.000000,4.000000,4.000000,4.000000,4.000000,4.000000,4.000000,4.000000,4.000000,4.000000,4.000000,4.000000,4.000000,4.000000,4.000000,100.000000,,,,,,,,,,,,,,,,
1645712037.919313,183.000000,0.000000,4224.230957,4225.128418,4219.615234,4212.436035,4238.589844,4218.205078,4217.436035,4229.487305,4218.205078,4232.179688,4228.589844,4145.256348,4218.461426,4229.487305,2670.000000,4.000000,82.000000,,,,0.000000,4.000000,4.000000,4.000000,4.000000,4.000000,4.000000,4.000000,4.000000,4.000000,4.000000,4.000000,4.000000,4.000000,4.000000,100.000000,,,,,,,,,,,,,,,,
1645712037.923253,184.000000,0.000000,4217.436035,4222.820313,4221.025879,4214.871582,4239.743652,4219.487305,4216.282227,4228.717773,4217.436035,4225.128418,4226.153809,4150.512695,4220.128418,4224.871582,2971.000000,4.000000,82.000000,,,,0.000000,4.000000,4.000000,4.000000,4.000000,4.000000,4.000000,4.000000,4.000000,4.000000,4.000000,4.000000,4.000000,4.000000,4.000000,100.000000,,,,,,,,,,,,,,,,
1645712037.927193,185.000000,0.000000,4213.077148,4215.897461,4221.794922,4216.538574,4239.358887,4217.948730,4215.256348,4228.205078,4216.666504,4214.230957,4220.128418,4156.410156,4215.641113,4216.794922,3283.000000,4.000000,82.000000,,,,0.000000,4.000000,4.000000,4.000000,4.000000,4.000000,4.000000,4.000000,4.000000,4.000000,4.000000,4.000000,4.000000,4.000000,4.000000,100.000000,,,,,,,,,,,,,,,,
1645712037.931133,186.000000,0.000000,4215.256348,4207.436035,4222.692383,4213.846191,4236.025879,4213.333496,4215.000000,4228.205078,4216.282227,4206.666504,4214.871582,4159.487305,4206.922852,4211.538574,2316.000000,4.000000,82.000000,,,,0.000000,4.000000,4.000000,4.000000,4.000000,4.000000,4.000000,4.000000,4.000000,4.000000,4.000000,4.000000,4.000000,4.000000,4.000000,100.000000,,,,,,,,,,,,,,,,
1645712037.935073,187.000000,0.000000,4220.256348,4203.846191,4225.000000,4207.692383,4232.436035,4209.871582,4216.410156,4229.615234,4217.307617,4209.871582,4215.128418,4159.743652,4200.000000,4213.846191,2670.000000,4.000000,82.000000,,,,0.000000,4.000000,4.000000,4.000000,4.000000,4.000000,4.000000,4.000000,4.000000,4.000000,4.000000,4.000000,4.000000,4.000000,4.000000,100.000000,,,,,,,,,,,,,,,,
1645712037.939014,188.000000,0.000000,4221.794922,4208.974121,4228.461426,4201.538574,4230.897461,4211.025879,4218.333496,4233.077148,4220.384766,4223.589844,4221.282227,4158.846191,4199.358887,4222.051270,2971.000000,4.000000,82.000000,,,,0.000000,4.000000,4.000000,4.000000,4.000000,4.000000,4.000000,4.000000,4.000000,4.000000,4.000000,4.000000,4.000000,4.000000,4.000000,100.000000,,,,,,,,,,,,,,,,
1645712037.942954,189.000000,0.000000,4218.974121,4218.461426,4230.128418,4197.179688,4229.358887,4215.128418,4218.077148,4236.153809,4223.717773,4237.692383,4227.692383,4157.692383,4202.948730,4228.846191,3283.000000,4.000000,82.000000,,,,0.000000,4.000000,4.000000,4.000000,4.000000,4.000000,4.000000,4.000000,4.000000,4.000000,4.000000,4.000000,4.000000,4.000000,4.000000,100.000000,,,,,,,,,,,,,,,,
1645712037.946894,190.000000,0.000000,4216.153809,4223.974121,4227.563965,4194.358887,4224.871582,4217.436035,4214.358887,4235.256348,4224.230957,4240.512695,4227.563965,4156.025879,4205.256348,4228.589844,2316.000000,4.000000,82.000000,,,,0.000000,4.000000,4.000000,4.000000,4.000000,4.000000,4.000000,4.000000,4.000000,4.000000,4.000000,4.000000,4.000000,4.000000,4.000000,100.000000,,,,,,,,,,,,,,,,
1645712037.950834,191.000000,0.000000,4216.666504,4221.538574,4221.794922,4193.717773,4218.461426,4215.897461,4210.000000,4230.256348,4221.410156,4231.282227,4220.512695,4154.487305,4202.820313,4222.436035,2670.000000,4.000000,82.000000,,,,0.000000,4.000000,4.000000,4.000000,4.000000,4.000000,4.000000,4.000000,4.000000,4.000000,4.000000,4.000000,4.000000,4.000000,4.000000,100.000000,,,,,,,,,,,,,,,,
1645712037.954774,192.000000,0.000000,4219.358887,4214.743652,4218.077148,4198.461426,4216.794922,4214.102539,4209.615234,4225.384766,4218.589844,4220.641113,4214.102539,4156.025879,4199.487305,4217.051270,2971.000000,4.000000,82.000000,,,,0.000000,4.000000,4.000000,4.000000,4.000000,4.000000,4.000000,4.000000,4.000000,4.000000,4.000000,4.000000,4.000000,4.000000,4.000000,100.000000,,,,,,,,,,,,,,,,
1645712037.958714,193.000000,0.000000,4220.769043,4210.128418,4219.615234,4210.000000,4225.000000,4216.922852,4215.000000,4225.000000,4219.230957,4220.641113,4215.641113,4161.794922,4201.282227,4217.563965,3283.000000,4.000000,82.000000,,,,0.000000,4.000000,4.000000,4.000000,4.000000,4.000000,4.000000,4.000000,4.000000,4.000000,4.000000,4.000000,4.000000,4.000000,4.000000,100.000000,,,,,,,,,,,,,,,,
1645712037.962654,194.000000,0.000000,4220.897461,4210.128418,4225.256348,4223.461426,4239.102539,4223.461426,4223.461426,4228.717773,4222.948730,4231.922852,4224.487305,4168.461426,4209.615234,4223.333496,2316.000000,4.000000,82.000000,,,,0.000000,4.000000,4.000000,4.000000,4.000000,4.000000,4.000000,4.000000,4.000000,4.000000,4.000000,4.000000,4.000000,4.000000,4.000000,100.000000,,,,,,,,,,,,,,,,
1645712037.966594,195.000000,0.000000,4222.820313,4212.179688,4230.000000,4230.769043,4249.102539,4229.102539,4229.230957,4231.666504,4225.897461,4244.102539,4232.692383,4170.641113,4218.205078,4229.230957,2670.000000,4.000000,82.000000,,,,0.000000,4.000000,4.000000,4.000000,4.000000,4.000000,4.000000,4.000000,4.000000,4.000000,4.000000,4.000000,4.000000,4.000000,4.000000,100.000000,,,,,,,,,,,,,,,,
1645712037.970534,196.000000,0.000000,4227.307617,4213.333496,4230.641113,4228.461426,4248.333496,4230.256348,4229.743652,4229.358887,4224.871582,4247.179688,4234.358887,4167.179688,4220.000000,4231.666504,2971.000000,4.000000,82.000000,,,,0.000000,4.000000,4.000000,4.000000,4.000000,4.000000,4.000000,4.000000,4.000000,4.000000,4.000000,4.000000,4.000000,4.000000,4.000000,100.000000,,,,,,,,,,,,,,,,
1645712037.974574,197.000000,0.000000,4230.897461,4214.230957,4228.717773,4220.512695,4240.384766,4228.589844,4226.666504,4223.589844,4221.282227,4241.410156,4231.666504,4162.820313,4214.743652,4230.641113,3283.000000,4.000000,82.000000,,,,0.000000,4.000000,4.000000,4.000000,4.000000,4.000000,4.000000,4.000000,4.000000,4.000000,4.000000,4.000000,4.000000,4.000000,4.000000,100.000000,,,,,,,,,,,,,,,,
1645712037.978514,198.000000,0.000000,4230.128418,4216.794922,4227.051270,4213.974121,4233.333496,4227.436035,4223.461426,4219.358887,4218.846191,4234.615234,4230.384766,4163.077148,4207.563965,4228.974121,2316.000000,4.000000,82.000000,,,,0.000000,4.000000,4.000000,4.000000,4.000000,4.000000,4.000000,4.000000,4.000000,4.000000,4.000000,4.000000,4.000000,4.000000,4.000000,100.000000,,,,,,,,,,,,,,,,
1645712037.982455,199.000000,0.000000,4226.025879,4219.743652,4226.666504,4210.641113,4231.410156,4226.922852,4221.538574,4218.846191,4219.102539,4231.794922,4231.666504,4167.692383,4204.487305,4228.205078,2670.000000,4.000000,82.000000,,,,0.000000,4.000000,4.000000,4.000000,4.000000,4.000000,4.000000,4.000000,4.000000,4.000000,4.000000,4.000000,4.000000,4.000000,4.000000,100.000000,,,,,,,,,,,,,,,,
1645712037.986395,200.000000,0.000000,4223.589844,4219.871582,4226.410156,4207.179688,4232.179688,4224.230957,4220.512695,4220.641113,4219.871582,4231.025879,4231.794922,4171.794922,4206.410156,4228.717773,2971.000000,4.000000,82.000000,,,,0.000000,4.000000,4.000000,4.000000,4.000000,4.000000,4.000000,4.000000,4.000000,4.000000,4.000000,4.000000,4.000000,4.000000,4.000000,100.000000,,,,,,,,,,,,,,,,
1645712037.990335,201.000000,0.000000,4225.000000,4216.538574,4225.897461,4201.794922,4232.436035,4219.487305,4220.384766,4222.307617,4219.358887,4228.205078,4228.333496,4172.051270,4211.025879,4230.641113,3283.000000,4.000000,82.000000,,,,0.000000,4.000000,4.000000,4.000000,4.000000,4.000000,4.000000,4.000000,4.000000,4.000000,4.000000,4.000000,4.000000,4.000000,4.000000,100.000000,,,,,,,,,,,,,,,,
1645712037.994275,202.000000,0.000000,4227.179688,4214.230957,4226.794922,4198.846191,4233.717773,4217.307617,4222.948730,4224.102539,4218.461426,4224.615234,4225.512695,4171.410156,4215.897461,4233.717773,2316.000000,4.000000,82.000000,,,,0.000000,4.000000,4.000000,4.000000,4.000000,4.000000,4.000000,4.000000,4.000000,4.000000,4.000000,4.000000,4.000000,4.000000,4.000000,100.000000,,,,,,,,,,,,,,,,
1645712037.998215,203.000000,0.000000,4225.769043,4216.794922,4230.384766,4203.333496,4239.102539,4221.666504,4228.077148,4227.692383,4219.487305,4225.512695,4229.102539,4174.102539,4219.487305,4236.410156,2670.000000,4.000000,82.000000,,,,0.000000,4.000000,4.000000,4.000000,4.000000,4.000000,4.000000,4.000000,4.000000,4.000000,4.000000,4.000000,4.000000,4.000000,4.000000,100.000000,,,,,,,,,,,,,,,,
1645712038.002155,204.000000,0.000000,4221.153809,4222.436035,4234.487305,4214.487305,4246.538574,4230.128418,4233.461426,4232.563965,4222.692383,4232.436035,4238.205078,4180.256348,4220.641113,4235.641113,2971.000000,4.000000,82.000000,,,,0.000000,4.000000,4.000000,4.000000,4.000000,4.000000,4.000000,4.000000,4.000000,4.000000,4.000000,4.000000,4.000000,4.000000,4.000000,100.000000,,,,,,,,,,,,,,,,
1645712038.006095,205.000000,0.000000,4218.589844,4224.743652,4235.512695,4225.000000,4249.102539,4234.871582,4235.000000,4235.256348,4225.769043,4239.358887,4244.615234,4184.230957,4218.461426,4230.256348,3283.000000,4.000000,82.000000,,,,0.000000,4.000000,4.000000,4.000000,4.000000,4.000000,4.000000,4.000000,4.000000,4.000000,4.000000,4.000000,4.000000,4.000000,4.000000,100.000000,,,,,,,,,,,,,,,,
1645712038.010035,206.000000,0.000000,4221.282227,4220.512695,4232.307617,4228.846191,4242.948730,4231.410156,4231.666504,4233.333496,4226.282227,4239.615234,4241.538574,4181.666504,4213.846191,4223.589844,2316.000000,4.000000,82.000000,,,,0.000000,4.000000,4.000000,4.000000,4.000000,4.000000,4.000000,4.000000,4.000000,4.000000,4.000000,4.000000,4.000000,4.000000,4.000000,100.000000,,,,,,,,,,,,,,,,
1645712038.013975,207.000000,0.000000,4226.025879,4214.102539,4227.820313,4226.794922,4232.948730,4223.077148,4226.282227,4228.461426,4224.102539,4233.077148,4231.666504,4174.102539,4210.128418,4220.512695,2670.000000,4.000000,82.000000,,,,0.000000,4.000000,4.000000,4.000000,4.000000,4.000000,4.000000,4.000000,4.000000,4.000000,4.000000,4.000000,4.000000,4.000000,4.000000,100.000000,,,,,,,,,,,,,,,,
1645712038.017916,208.000000,0.000000,4226.794922,4212.563965,4225.897461,4223.461426,4227.948730,4217.563965,4222.436035,4224.358887,4221.025879,4226.538574,4223.974121,4167.563965,4209.358887,4222.563965,2971.000000,4.000000,82.000000,,,,0.000000,4.000000,4.000000,4.000000,4.000000,4.000000,4.000000,4.000000,4.000000,4.000000,4.000000,4.000000,4.000000,4.000000,4.000000,100.000000,,,,,,,,,,,,,,,,
1645712038.021856,209.000000,0.000000,4222.692383,4217.051270,4227.307617,4220.769043,4230.897461,4218.461426,4221.538574,4223.077148,4218.461426,4225.512695,4223.333496,4165.641113,4210.128418,4226.410156,3283.000000,4.000000,82.000000,,,,0.000000,4.000000,4.000000,4.000000,4.000000,4.000000,4.000000,4.000000,4.000000,4.000000,4.000000,4.000000,4.000000,4.000000,4.000000,100.000000,,,,,,,,,,,,,,,,
1645712038.025796,210.000000,0.000000,4218.205078,4222.179688,4229.358887,4216.410156,4235.769043,4222.179688,4221.922852,4223.077148,4216.153809,4227.820313,4225.000000,4166.410156,4208.077148,4226.666504,2316.000000,4.000000,82.000000,,,,0.000000,4.000000,4.000000,4.000000,4.000000,4.000000,4.000000,4.000000,4.000000,4.000000,4.000000,4.000000,4.000000,4.000000,4.000000,100.000000,,,,,,,,,,,,,,,,
1645712038.029736,211.000000,0.000000,4218.077148,4222.179688,4228.589844,4208.333496,4235.512695,4224.102539,4222.051270,4221.922852,4213.717773,4227.948730,4221.410156,4165.384766,4201.282227,4221.410156,2670.000000,4.000000,82.000000,,,,0.000000,4.000000,4.000000,4.000000,4.000000,4.000000,4.000000,4.000000,4.000000,4.000000,4.000000,4.000000,4.000000,4.000000,4.000000,100.000000,,,,,,,,,,,,,,,,
1645712038.033676,212.000000,0.000000,4221.025879,4217.948730,4225.256348,4199.871582,4230.256348,4222.948730,4221.538574,4220.256348,4212.436035,4223.717773,4211.538574,4161.025879,4193.077148,4213.333496,2971.000000,4.000000,82.000000,,,,0.000000,4.000000,4.000000,4.000000,4.000000,4.000000,4.000000,4.000000,4.000000,4.000000,4.000000,4.000000,4.000000,4.000000,4.000000,100.000000,,,,,,,,,,,,,,,,
1645712038.037616,213.000000,0.000000,4222.179688,4215.000000,4222.051270,4197.563965,4226.922852,4221.794922,4221.666504,4220.384766,4213.589844,4219.871582,4201.922852,4155.897461,4189.358887,4207.051270,3283.000000,4.000000,82.000000,,,,0.000000,4.000000,4.000000,4.000000,4.000000,4.000000,4.000000,4.000000,4.000000,4.000000,4.000000,4.000000,4.000000,4.000000,4.000000,100.000000,,,,,,,,,,,,,,,,
1645712038.041556,214.000000,0.000000,4220.256348,4217.692383,4222.051270,4203.589844,4230.384766,4222.692383,4222.051270,4223.589844,4217.179688,4221.282227,4199.743652,4152.436035,4192.563965,4206.153809,2316.000000,4.000000,82.000000,,,,0.000000,4.000000,4.000000,4.000000,4.000000,4.000000,4.000000,4.000000,4.000000,4.000000,4.000000,4.000000,4.000000,4.000000,4.000000,100.000000,,,,,,,,,,,,,,,,
1645712038.045496,215.000000,0.000000,4219.102539,4223.974121,4225.769043,4213.077148,4237.820313,4224.102539,4221.794922,4227.948730,4220.897461,4227.179688,4205.512695,4151.410156,4199.358887,4210.641113,2670.000000,4.000000,82.000000,,,,0.000000,4.000000,4.000000,4.000000,4.000000,4.000000,4.000000,4.000000,4.000000,4.000000,4.000000,4.000000,4.000000,4.000000,4.000000,100.000000,,,,,,,,,,,,,,,,
1645712038.049436,216.000000,0.000000,4222.051270,4228.846191,4231.153809,4219.230957,4243.205078,4223.846191,4220.769043,4230.769043,4222.179688,4232.307617,4214.487305,4152.051270,4204.230957,4217.692383,2971.000000,4.000000,82.000000,,,,0.000000,4.000000,4.000000,4.000000,4.000000,4.000000,4.000000,4.000000,4.000000,4.000000,4.000000,4.000000,4.000000,4.000000,4.000000,100.000000,,,,,,,,,,,,,,,,
1645712038.053476,217.000000,0.000000,4226.410156,4229.358887,4235.897461,4219.743652,4243.974121,4222.692383,4220.897461,4231.282227,4221.025879,4232.948730,4222.436035,4153.589844,4204.743652,4223.846191,3283.000000,4.000000,82.000000,,,,0.000000,4.000000,4.000000,4.000000,4.000000,4.000000,4.000000,4.000000,4.000000,4.000000,4.000000,4.000000,4.000000,4.000000,4.000000,100.000000,,,,,,,,,,,,,,,,
1645712038.057416,218.000000,0.000000,4226.922852,4227.563965,4238.077148,4218.077148,4242.563965,4223.333496,4223.333496,4230.641113,4219.358887,4230.000000,4227.563965,4156.282227,4203.589844,4226.025879,2316.000000,4.000000,82.000000,,,,0.000000,4.000000,4.000000,4.000000,4.000000,4.000000,4.000000,4.000000,4.000000,4.000000,4.000000,4.000000,4.000000,4.000000,4.000000,100.000000,,,,,,,,,,,,,,,,
1645712038.061357,219.000000,0.000000,4222.692383,4226.282227,4237.179688,4217.307617,4242.051270,4225.641113,4226.153809,4229.487305,4218.974121,4226.153809,4228.974121,4159.358887,4203.589844,4223.461426,2670.000000,4.000000,82.000000,,,,0.000000,4.000000,4.000000,4.000000,4.000000,4.000000,4.000000,4.000000,4.000000,4.000000,4.000000,4.000000,4.000000,4.000000,4.000000,100.000000,,,,,,,,,,,,,,,,
1645712038.065297,220.000000,0.000000,4219.230957,4225.256348,4233.461426,4216.666504,4242.051270,4226.538574,4226.025879,4226.922852,4219.230957,4222.692383,4224.871582,4161.922852,4205.128418,4218.077148,2971.000000,4.000000,82.000000,,,,0.000000,4.000000,4.000000,4.000000,4.000000,4.000000,4.000000,4.000000,4.000000,4.000000,4.000000,4.000000,4.000000,4.000000,4.000000,100.000000,,,,,,,,,,,,,,,,
1645712038.069237,221.000000,0.000000,4221.794922,4223.717773,4229.230957,4214.230957,4239.871582,4223.717773,4222.307617,4222.692383,4218.333496,4219.871582,4215.000000,4162.948730,4206.025879,4213.717773,3283.000000,4.000000,82.000000,,,,0.000000,4.000000,4.000000,4.000000,4.000000,4.000000,4.000000,4.000000,4.000000,4.000000,4.000000,4.000000,4.000000,4.000000,4.000000,100.000000,,,,,,,,,,,,,,,,
1645712038.073177,222.000000,0.000000,4227.948730,4222.051270,4227.307617,4210.897461,4235.256348,4219.487305,4218.205078,4218.717773,4215.769043,4219.102539,4204.743652,4162.820313,4205.512695,4213.717773,2316.000000,4.000000,82.000000,,,,0.000000,4.000000,4.000000,4.000000,4.000000,4.000000,4.000000,4.000000,4.000000,4.000000,4.000000,4.000000,4.000000,4.000000,4.000000,100.000000,,,,,,,,,,,,,,,,
1645712038.077117,223.000000,0.000000,4230.641113,4223.333496,4228.974121,4209.871582,4230.897461,4218.846191,4217.436035,4217.692383,4213.461426,4222.051270,4201.538574,4162.436035,4205.128418,4217.948730,2670.000000,4.000000,82.000000,,,,0.000000,4.000000,4.000000,4.000000,4.000000,4.000000,4.000000,4.000000,4.000000,4.000000,4.000000,4.000000,4.000000,4.000000,4.000000,100.000000,,,,,,,,,,,,,,,,
1645712038.081057,224.000000,0.000000,4226.922852,4227.692383,4232.179688,4212.820313,4229.102539,4222.692383,4219.743652,4219.871582,4213.205078,4227.179688,4207.820313,4161.666504,4206.538574,4222.948730,2971.000000,4.000000,82.000000,,,,0.000000,4.000000,4.000000,4.000000,4.000000,4.000000,4.000000,4.000000,4.000000,4.000000,4.000000,4.000000,4.000000,4.000000,4.000000,100.000000,,,,,,,,,,,,,,,,
1645712038.084997,225.000000,0.000000,4221.153809,4232.051270,4233.589844,4216.282227,4229.102539,4226.666504,4221.282227,4222.436035,4214.743652,4230.384766,4217.563965,4159.743652,4209.102539,4225.641113,3283.000000,4.000000,82.000000,,,,0.000000,4.000000,4.000000,4.000000,4.000000,4.000000,4.000000,4.000000,4.000000,4.000000,4.000000,4.000000,4.000000,4.000000,4.000000,100.000000,,,,,,,,,,,,,,,,
1645712038.088937,226.000000,0.000000,4220.256348,4232.179688,4231.410156,4216.410156,4228.717773,4225.128418,4218.846191,4222.692383,4216.666504,4228.846191,4223.333496,4156.794922,4210.897461,4225.512695,2316.000000,4.000000,82.000000,,,,0.000000,4.000000,4.000000,4.000000,4.000000,4.000000,4.000000,4.000000,4.000000,4.000000,4.000000,4.000000,4.000000,4.000000,4.000000,100.000000,,,,,,,,,,,,,,,,
1645712038.092877,227.000000,0.000000,4225.000000,4228.333496,4227.820313,4212.820313,4228.589844,4218.974121,4214.102539,4221.538574,4217.820313,4225.512695,4223.589844,4155.512695,4211.282227,4225.128418,2670.000000,4.000000,82.000000,,,,0.000000,4.000000,4.000000,4.000000,4.000000,4.000000,4.000000,4.000000,4.000000,4.000000,4.000000,4.000000,4.000000,4.000000,4.000000,100.000000,,,,,,,,,,,,,,,,
1645712038.096818,228.000000,0.000000,4229.487305,4225.256348,4226.922852,4210.384766,4232.051270,4214.487305,4211.410156,4222.563965,4219.230957,4226.282227,4224.102539,4158.717773,4211.666504,4226.538574,2971.000000,4.000000,82.000000,,,,0.000000,4.000000,4.000000,4.000000,4.000000,4.000000,4.000000,4.000000,4.000000,4.000000,4.000000,4.000000,4.000000,4.000000,4.000000,100.000000,,,,,,,,,,,,,,,,
1645712038.100758,229.000000,0.000000,4229.230957,4227.820313,4230.641113,4213.461426,4240.897461,4216.666504,4213.717773,4228.205078,4222.307617,4232.820313,4229.102539,4166.153809,4213.333496,4228.974121,3283.000000,4.000000,82.000000,,,,0.000000,4.000000,4.000000,4.000000,4.000000,4.000000,4.000000,4.000000,4.000000,4.000000,4.000000,4.000000,4.000000,4.000000,4.000000,100.000000,,,,,,,,,,,,,,,,
1645712038.104698,230.000000,0.000000,4226.153809,4235.512695,4236.538574,4221.538574,4251.794922,4224.358887,4219.743652,4236.153809,4226.282227,4239.743652,4236.025879,4173.333496,4215.512695,4230.384766,2316.000000,4.000000,82.000000,,,,0.000000,4.000000,4.000000,4.000000,4.000000,4.000000,4.000000,4.000000,4.000000,4.000000,4.000000,4.000000,4.000000,4.000000,4.000000,100.000000,,,,,,,,,,,,,,,,
1645712038.108638,231.000000,0.000000,4225.128418,4243.589844,4240.000000,4229.487305,4258.974121,4231.666504,4225.897461,4241.794922,4229.358887,4240.384766,4238.974121,4175.512695,4216.538574,4229.743652,2670.000000,4.000000,82.000000,,,,0.000000,4.000000,4.000000,4.000000,4.000000,4.000000,4.000000,4.000000,4.000000,4.000000,4.000000,4.000000,4.000000,4.000000,4.000000,100.000000,,,,,,,,,,,,,,,,
1645712038.112578,232.000000,0.000000,4227.436035,4247.563965,4239.102539,4232.051270,4259.230957,4234.230957,4229.615234,4242.692383,4230.128418,4234.487305,4235.641113,4172.051270,4216.922852,4229.102539,2971.000000,4.000000,82.000000,,,,0.000000,4.000000,4.000000,4.000000,4.000000,4.000000,4.000000,4.000000,4.000000,4.000000,4.000000,4.000000,4.000000,4.000000,4.000000,100.000000,,,,,,,,,,,,,,,,
1645712038.116518,233.000000,0.000000,4229.358887,4247.179688,4235.256348,4227.820313,4253.974121,4232.820313,4230.000000,4240.512695,4229.871582,4229.102539,4229.358887,4166.538574,4218.077148,4230.256348,3283.000000,4.000000,82.000000,,,,0.000000,4.000000,4.000000,4.000000,4.000000,4.000000,4.000000,4.000000,4.000000,4.000000,4.000000,4.000000,4.000000,4.000000,4.000000,100.000000,,,,,,,,,,,,,,,,
1645712038.120458,234.000000,0.000000,4227.820313,4244.102539,4231.922852,4218.717773,4246.538574,4229.871582,4227.436035,4238.077148,4230.000000,4229.871582,4224.358887,4162.563965,4220.000000,4232.179688,2316.000000,4.000000,82.000000,,,,0.000000,4.000000,4.000000,4.000000,4.000000,4.000000,4.000000,4.000000,4.000000,4.000000,4.000000,4.000000,4.000000,4.000000,4.000000,100.000000,,,,,,,,,,,,,,,,
1645712038.124398,235.000000,0.000000,4225.128418,4239.487305,4230.384766,4208.461426,4239.358887,4226.666504,4222.692383,4236.538574,4230.512695,4234.871582,4221.282227,4160.128418,4219.615234,4231.538574,2670.000000,4.000000,82.000000,,,,0.000000,4.000000,4.000000,4.000000,4.000000,4.000000,4.000000,4.000000,4.000000,4.000000,4.000000,4.000000,4.000000,4.000000,4.000000,100.000000,,,,,,,,,,,,,,,,
1645712038.128438,236.000000,0.000000,4225.256348,4234.487305,4230.256348,4201.794922,4234.743652,4223.974121,4217.948730,4235.128418,4229.871582,4238.077148,4218.846191,4157.563965,4214.102539,4226.025879,2971.000000,4.000000,82.000000,,,,0.000000,4.000000,4.000000,4.000000,4.000000,4.000000,4.000000,4.000000,4.000000,4.000000,4.000000,4.000000,4.000000,4.000000,4.000000,100.000000,,,,,,,,,,,,,,,,
1645712038.132378,237.000000,0.000000,4227.820313,4231.282227,4231.153809,4202.436035,4236.153809,4223.589844,4216.666504,4234.230957,4227.948730,4236.410156,4217.051270,4154.230957,4205.256348,4218.077148,3283.000000,4.000000,82.000000,,,,0.000000,4.000000,4.000000,4.000000,4.000000,4.000000,4.000000,4.000000,4.000000,4.000000,4.000000,4.000000,4.000000,4.000000,4.000000,100.000000,,,,,,,,,,,,,,,,
1645712038.136318,238.000000,0.000000,4228.589844,4232.948730,4232.948730,4210.641113,4245.384766,4227.948730,4220.641113,4234.871582,4226.794922,4232.948730,4217.436035,4152.179688,4198.589844,4212.436035,2316.000000,4.000000,82.000000,,,,0.000000,4.000000,4.000000,4.000000,4.000000,4.000000,4.000000,4.000000,4.000000,4.000000,4.000000,4.000000,4.000000,4.000000,4.000000,100.000000,,,,,,,,,,,,,,,,
1645712038.140259,239.000000,0.000000,4225.641113,4238.461426,4234.487305,4221.666504,4258.589844,4235.512695,4227.436035,4236.410156,4227.692383,4230.769043,4219.230957,4152.307617,4197.948730,4211.666504,2670.000000,4.000000,82.000000,,,,0.000000,4.000000,4.000000,4.000000,4.000000,4.000000,4.000000,4.000000,4.000000,4.000000,4.000000,4.000000,4.000000,4.000000,4.000000,100.000000,,,,,,,,,,,,,,,,
1645712038.144299,240.000000,0.000000,4221.410156,4242.948730,4233.589844,4228.205078,4266.794922,4240.769043,4231.922852,4236.538574,4229.230957,4229.102539,4218.461426,4152.692383,4201.282227,4214.102539,2971.000000,4.000000,82.000000,,,,0.000000,4.000000,4.000000,4.000000,4.000000,4.000000,4.000000,4.000000,4.000000,4.000000,4.000000,4.000000,4.000000,4.000000,4.000000,100.000000,,,,,,,,,,,,,,,,
1645712038.148239,241.000000,0.000000,4220.256348,4241.794922,4228.974121,4226.922852,4263.333496,4239.487305,4231.282227,4233.589844,4228.589844,4225.641113,4212.436035,4150.512695,4203.589844,4216.794922,3283.000000,4.000000,82.000000,,,,0.000000,4.000000,4.000000,4.000000,4.000000,4.000000,4.000000,4.000000,4.000000,4.000000,4.000000,4.000000,4.000000,4.000000,4.000000,100.000000,,,,,,,,,,,,,,,,
1645712038.152179,242.000000,0.000000,4221.410156,4235.769043,4223.205078,4221.153809,4251.025879,4233.589844,4227.563965,4229.230957,4226.025879,4221.666504,4204.743652,4146.538574,4203.077148,4218.589844,2316.000000,4.000000,82.000000,,,,0.000000,4.000000,4.000000,4.000000,4.000000,4.000000,4.000000,4.000000,4.000000,4.000000,4.000000,4.000000,4.000000,4.000000,4.000000,100.000000,,,,,,,,,,,,,,,,
1645712038.156119,243.000000,0.000000,4220.384766,4230.000000,4220.128418,4217.692383,4240.000000,4228.974121,4225.256348,4227.820313,4224.743652,4222.563965,4202.820313,4145.000000,4202.179688,4219.102539,2670.000000,4.000000,82.000000,,,,0.000000,4.000000,4.000000,4.000000,4.000000,4.000000,4.000000,4.000000,4.000000,4.000000,4.000000,4.000000,4.000000,4.000000,4.000000,100.000000,,,,,,,,,,,,,,,,
1645712038.160059,244.000000,0.000000,4214.615234,4228.077148,4221.538574,4217.948730,4237.820313,4229.487305,4226.025879,4230.641113,4226.410156,4230.256348,4209.487305,4148.589844,4203.717773,4217.948730,2971.000000,4.000000,82.000000,,,,0.000000,4.000000,4.000000,4.000000,4.000000,4.000000,4.000000,4.000000,4.000000,4.000000,4.000000,4.000000,4.000000,4.000000,4.000000,100.000000,,,,,,,,,,,,,,,,
1645712038.163999,245.000000,0.000000,4207.563965,4228.333496,4224.358887,4216.922852,4241.794922,4231.794922,4227.692383,4234.102539,4228.846191,4238.846191,4219.102539,4154.743652,4206.282227,4214.487305,3283.000000,4.000000,82.000000,,,,0.000000,4.000000,4.000000,4.000000,4.000000,4.000000,4.000000,4.000000,4.000000,4.000000,4.000000,4.000000,4.000000,4.000000,4.000000,100.000000,,,,,,,,,,,,,,,,
1645712038.167939,246.000000,0.000000,4205.769043,4226.794922,4224.615234,4208.717773,4244.102539,4230.384766,4227.307617,4232.563965,4227.692383,4239.230957,4223.589844,4158.333496,4206.282227,4209.615234,2316.000000,4.000000,82.000000,,,,0.000000,4.000000,4.000000,4.000000,4.000000,4.000000,4.000000,4.000000,4.000000,4.000000,4.000000,4.000000,4.000000,4.000000,4.000000,100.000000,,,,,,,,,,,,,,,,
1645712038.171879,247.000000,0.000000,4211.025879,4223.717773,4221.666504,4196.025879,4241.538574,4224.871582,4224.743652,4225.897461,4222.563965,4229.871582,4221.025879,4157.179688,4202.948730,4207.436035,2670.000000,4.000000,82.000000,,,,0.000000,4.000000,4.000000,4.000000,4.000000,4.000000,4.000000,4.000000,4.000000,4.000000,4.000000,4.000000,4.000000,4.000000,4.000000,100.000000,,,,,,,,,,,,,,,,
1645712038.175819,248.000000,0.000000,4218.333496,4223.717773,4219.615234,4189.871582,4239.871582,4220.897461,4223.461426,4219.743652,4217.436035,4219.615234,4217.563965,4154.615234,4200.128418,4211.538574,2971.000000,4.000000,82.000000,,,,0.000000,4.000000,4.000000,4.000000,4.000000,4.000000,4.000000,4.000000,4.000000,4.000000,4.000000,4.000000,4.000000,4.000000,4.000000,100.000000,,,,,,,,,,,,,,,,
1645712038.179760,249.000000,0.000000,4222.179688,4230.256348,4222.179688,4199.358887,4245.256348,4223.077148,4225.769043,4220.256348,4217.563965,4219.487305,4220.128418,4155.128418,4202.436035,4220.897461,3283.000000,4.000000,82.000000,,,,0.000000,4.000000,4.000000,4.000000,4.000000,4.000000,4.000000,4.000000,4.000000,4.000000,4.000000,4.000000,4.000000,4.000000,4.000000,100.000000,,,,,,,,,,,,,,,,
1645712038.183700,250.000000,0.000000,4222.692383,4239.615234,4228.717773,4221.282227,4255.384766,4229.871582,4230.384766,4226.666504,4223.205078,4231.025879,4227.820313,4159.102539,4209.230957,4229.743652,2316.000000,4.000000,82.000000,,,,0.000000,4.000000,4.000000,4.000000,4.000000,4.000000,4.000000,4.000000,4.000000,4.000000,4.000000,4.000000,4.000000,4.000000,4.000000,100.000000,,,,,,,,,,,,,,,,
1645712038.187640,251.000000,0.000000,4223.717773,4244.871582,4235.000000,4241.538574,4261.025879,4235.128418,4233.717773,4233.205078,4230.000000,4245.256348,4233.333496,4163.333496,4215.897461,4232.948730,2670.000000,4.000000,82.000000,,,,0.000000,4.000000,4.000000,4.000000,4.000000,4.000000,4.000000,4.000000,4.000000,4.000000,4.000000,4.000000,4.000000,4.000000,4.000000,100.000000,,,,,,,,,,,,,,,,
1645712038.191580,252.000000,0.000000,4227.307617,4243.205078,4237.820313,4247.820313,4256.538574,4235.384766,4234.102539,4234.615234,4233.077148,4252.436035,4231.794922,4165.384766,4218.077148,4231.153809,2971.000000,4.000000,82.000000,,,,0.000000,4.000000,4.000000,4.000000,4.000000,4.000000,4.000000,4.000000,4.000000,4.000000,4.000000,4.000000,4.000000,4.000000,4.000000,100.000000,,,,,,,,,,,,,,,,
1645712038.195520,253.000000,0.000000,4230.384766,4238.461426,4237.948730,4239.743652,4247.179688,4233.461426,4232.948730,4232.179688,4232.307617,4250.769043,4226.666504,4165.897461,4216.666504,4228.846191,3283.000000,4.000000,82.000000,,,,0.000000,4.000000,4.000000,4.000000,4.000000,4.000000,4.000000,4.000000,4.000000,4.000000,4.000000,4.000000,4.000000,4.000000,4.000000,100.000000,,,,,,,,,,,,,,,,
1645712038.199460,254.000000,0.000000,4230.384766,4235.897461,4238.205078,4228.205078,4243.205078,4234.102539,4232.051270,4230.512695,4230.769043,4245.256348,4225.256348,4167.051270,4215.384766,4229.358887,2316.000000,4.000000,82.000000,,,,0.000000,4.000000,4.000000,4.000000,4.000000,4.000000,4.000000,4.000000,4.000000,4.000000,4.000000,4.000000,4.000000,4.000000,4.000000,100.000000,,,,,,,,,,,,,,,,
1645712038.203400,255.000000,0.000000,4228.589844,4236.538574,4240.000000,4223.717773,4248.333496,4237.692383,4231.922852,4231.922852,4230.769043,4240.897461,4230.256348,4169.102539,4216.025879,4231.794922,112.000000,4.000000,82.000000,,,,0.000000,4.000000,4.000000,4.000000,4.000000,4.000000,4.000000,4.000000,4.000000,4.000000,4.000000,4.000000,4.000000,4.000000,4.000000,100.000000,,,,,,,,,,,,,,,,
1645712038.207340,0.000000,0.000000,4228.846191,4237.563965,4242.436035,4227.820313,4257.563965,4240.384766,4231.666504,4235.128418,4231.538574,4238.974121,4237.820313,4169.871582,4217.948730,4233.846191,3319.000000,4.000000,82.000000,,,,0.000000,4.000000,4.000000,4.000000,4.000000,4.000000,4.000000,4.000000,4.000000,4.000000,4.000000,4.000000,4.000000,4.000000,4.000000,100.000000,,,,,,,,,,,,,,,,
1645712038.211380,1.000000,0.000000,4231.410156,4237.692383,4244.102539,4235.000000,4263.974121,4239.487305,4231.794922,4237.692383,4231.794922,4239.230957,4242.051270,4168.589844,4219.871582,4234.743652,3300.000000,4.000000,82.000000,,,,0.000000,4.000000,4.000000,4.000000,4.000000,4.000000,4.000000,4.000000,4.000000,4.000000,4.000000,4.000000,4.000000,4.000000,4.000000,100.000000,,,,,,,,,,,,,,,,
1645712038.215320,2.000000,0.000000,4232.436035,4238.589844,4245.256348,4239.743652,4266.666504,4237.051270,4233.205078,4239.102539,4232.307617,4243.333496,4241.922852,4167.051270,4222.051270,4235.512695,2218.000000,4.000000,82.000000,,,,0.000000,4.000000,4.000000,4.000000,4.000000,4.000000,4.000000,4.000000,4.000000,4.000000,4.000000,4.000000,4.000000,4.000000,4.000000,100.000000,,,,,,,,,,,,,,,,
1645712038.219261,3.000000,0.000000,4228.333496,4242.179688,4245.641113,4240.000000,4268.974121,4237.436035,4235.897461,4240.512695,4234.358887,4251.410156,4239.743652,4167.563965,4224.487305,4236.025879,3560.000000,4.000000,82.000000,,,,0.000000,4.000000,4.000000,4.000000,4.000000,4.000000,4.000000,4.000000,4.000000,4.000000,4.000000,4.000000,4.000000,4.000000,4.000000,100.000000,,,,,,,,,,,,,,,,
1645712038.223201,4.000000,0.000000,4222.307617,4246.282227,4244.358887,4235.256348,4270.512695,4240.641113,4237.436035,4241.282227,4236.794922,4259.487305,4236.153809,4169.487305,4225.128418,4234.358887,3522.000000,4.000000,82.000000,,,,0.000000,4.000000,4.000000,4.000000,4.000000,4.000000,4.000000,4.000000,4.000000,4.000000,4.000000,4.000000,4.000000,4.000000,4.000000,100.000000,,,,,,,,,,,,,,,,
1645712038.227141,5.000000,0.000000,4220.256348,4245.897461,4240.000000,4225.897461,4267.051270,4242.692383,4235.256348,4239.358887,4236.410156,4260.000000,4230.128418,4170.000000,4221.282227,4228.974121,3535.000000,4.000000,82.000000,,,,0.000000,4.000000,4.000000,4.000000,4.000000,4.000000,4.000000,4.000000,4.000000,4.000000,4.000000,4.000000,4.000000,4.000000,4.000000,100.000000,,,,,,,,,,,,,,,,
1645712038.231081,6.000000,0.000000,4223.974121,4238.589844,4232.948730,4215.256348,4256.410156,4240.000000,4230.000000,4233.846191,4231.538574,4250.000000,4221.794922,4167.307617,4213.461426,4221.538574,3424.000000,4.000000,82.000000,,,,0.000000,4.000000,4.000000,4.000000,4.000000,4.000000,4.000000,4.000000,4.000000,4.000000,4.000000,4.000000,4.000000,4.000000,4.000000,100.000000,,,,,,,,,,,,,,,,
1645712038.235021,7.000000,0.000000,4228.461426,4227.436035,4226.410156,4210.256348,4244.743652,4234.230957,4225.256348,4227.563965,4224.615234,4235.512695,4214.871582,4162.436035,4206.538574,4216.025879,2681.000000,4.000000,82.000000,,,,0.000000,4.000000,4.000000,4.000000,4.000000,4.000000,4.000000,4.000000,4.000000,4.000000,4.000000,4.000000,4.000000,4.000000,4.000000,100.000000,,,,,,,,,,,,,,,,
1645712038.238961,8.000000,0.000000,4227.436035,4219.230957,4223.077148,4215.897461,4240.769043,4230.000000,4224.230957,4224.358887,4220.256348,4226.666504,4213.205078,4158.333496,4205.384766,4215.128418,1655.000000,4.000000,82.000000,,,,0.000000,4.000000,4.000000,4.000000,4.000000,4.000000,4.000000,4.000000,4.000000,4.000000,4.000000,4.000000,4.000000,4.000000,4.000000,100.000000,,,,,,,,,,,,,,,,
1645712038.242901,9.000000,0.000000,4221.666504,4218.589844,4223.717773,4229.230957,4246.538574,4229.615234,4226.282227,4224.871582,4220.897461,4227.820313,4216.410156,4155.512695,4209.871582,4217.692383,3115.000000,4.000000,82.000000,,,,0.000000,4.000000,4.000000,4.000000,4.000000,4.000000,4.000000,4.000000,4.000000,4.000000,4.000000,4.000000,4.000000,4.000000,4.000000,100.000000,,,,,,,,,,,,,,,,
1645712038.246841,10.000000,0.000000,4217.948730,4224.102539,4225.769043,4240.512695,4254.871582,4230.897461,4228.461426,4226.282227,4224.102539,4234.358887,4219.615234,4152.307617,4214.487305,4220.512695,2316.000000,4.000000,82.000000,,,,0.000000,4.000000,4.000000,4.000000,4.000000,4.000000,4.000000,4.000000,4.000000,4.000000,4.000000,4.000000,4.000000,4.000000,4.000000,100.000000,,,,,,,,,,,,,,,,
1645712038.250781,11.000000,0.000000,4219.871582,4231.410156,4227.307617,4242.436035,4257.948730,4231.538574,4228.589844,4225.641113,4226.025879,4238.077148,4219.615234,4148.205078,4213.974121,4221.794922,2852.000000,4.000000,82.000000,,,,0.000000,4.000000,4.000000,4.000000,4.000000,4.000000,4.000000,4.000000,4.000000,4.000000,4.000000,4.000000,4.000000,4.000000,4.000000,100.000000,,,,,,,,,,,,,,,,
1645712038.254721,12.000000,0.000000,4223.846191,4236.410156,4227.948730,4236.025879,4254.743652,4231.538574,4227.692383,4223.205078,4224.743652,4235.384766,4217.692383,4145.256348,4208.461426,4222.563965,3181.000000,4.000000,82.000000,,,,0.000000,4.000000,4.000000,4.000000,4.000000,4.000000,4.000000,4.000000,4.000000,4.000000,4.000000,4.000000,4.000000,4.000000,4.000000,100.000000,,,,,,,,,,,,,,,,
1645712038.258662,13.000000,0.000000,4223.846191,4237.307617,4228.589844,4228.205078,4250.769043,4232.692383,4227.436035,4222.051270,4222.051270,4228.974121,4217.179688,4145.897461,4202.563965,4224.102539,3242.000000,4.000000,82.000000,,,,0.000000,4.000000,4.000000,4.000000,4.000000,4.000000,4.000000,4.000000,4.000000,4.000000,4.000000,4.000000,4.000000,4.000000,4.000000,100.000000,,,,,,,,,,,,,,,,
1645712038.262602,14.000000,0.000000,4219.358887,4233.846191,4229.487305,4223.205078,4250.000000,4234.743652,4227.820313,4223.461426,4220.512695,4222.820313,4217.820313,4148.974121,4199.487305,4226.538574,2316.000000,4.000000,82.000000,,,,0.000000,4.000000,4.000000,4.000000,4.000000,4.000000,4.000000,4.000000,4.000000,4.000000,4.000000,4.000000,4.000000,4.000000,4.000000,100.000000,,,,,,,,,,,,,,,,
1645712038.266542,15.000000,0.000000,4215.769043,4227.820313,4229.743652,4220.256348,4250.641113,4234.871582,4227.436035,4225.769043,4220.769043,4218.974121,4216.410156,4150.897461,4198.717773,4228.205078,2852.000000,4.000000,82.000000,,,,0.000000,4.000000,4.000000,4.000000,4.000000,4.000000,4.000000,4.000000,4.000000,4.000000,4.000000,4.000000,4.000000,4.000000,4.000000,100.000000,,,,,,,,,,,,,,,,
1645712038.270482,16.000000,0.000000,4216.794922,4222.692383,4228.846191,4217.307617,4249.358887,4232.307617,4226.282227,4226.666504,4222.179688,4217.948730,4211.794922,4149.615234,4198.589844,4228.333496,3181.000000,4.000000,82.000000,,,,0.000000,4.000000,4.000000,4.000000,4.000000,4.000000,4.000000,4.000000,4.000000,4.000000,4.000000,4.000000,4.000000,4.000000,4.000000,100.000000,,,,,,,,,,,,,,,,
1645712038.274422,17.000000,0.000000,4219.615234,4222.179688,4227.563965,4215.641113,4247.051270,4229.358887,4225.641113,4225.769043,4224.487305,4221.153809,4207.948730,4146.922852,4198.589844,4226.666504,3242.000000,4.000000,82.000000,,,,0.000000,4.000000,4.000000,4.000000,4.000000,4.000000,4.000000,4.000000,4.000000,4.000000,4.000000,4.000000,4.000000,4.000000,4.000000,100.000000,,,,,,,,,,,,,,,,
1645712038.278362,18.000000,0.000000,4218.974121,4226.410156,4227.436035,4217.692383,4246.794922,4229.102539,4226.410156,4224.743652,4226.794922,4228.846191,4209.102539,4146.282227,4200.000000,4223.205078,2316.000000,4.000000,82.000000,,,,0.000000,4.000000,4.000000,4.000000,4.000000,4.000000,4.000000,4.000000,4.000000,4.000000,4.000000,4.000000,4.000000,4.000000,4.000000,100.000000,,,,,,,,,,,,,,,,
1645712038.282402,19.000000,0.000000,4214.743652,4231.282227,4228.077148,4222.307617,4248.205078,4231.153809,4227.051270,4223.974121,4227.436035,4237.179688,4214.358887,4148.461426,4201.922852,4218.205078,2852.000000,4.000000,82.000000,,,,0.000000,4.000000,4.000000,4.000000,4.000000,4.000000,4.000000,4.000000,4.000000,4.000000,4.000000,4.000000,4.000000,4.000000,4.000000,100.000000,,,,,,,,,,,,,,,,
1645712038.286342,20.000000,0.000000,4212.179688,4231.025879,4228.077148,4224.230957,4246.794922,4231.538574,4225.641113,4222.948730,4224.871582,4238.846191,4217.436035,4150.641113,4201.538574,4212.820313,3181.000000,4.000000,82.000000,,,,0.000000,4.000000,4.000000,4.000000,4.000000,4.000000,4.000000,4.000000,4.000000,4.000000,4.000000,4.000000,4.000000,4.000000,4.000000,100.000000,,,,,,,,,,,,,,,,
1645712038.290282,21.000000,0.000000,4215.769043,4224.615234,4227.179688,4221.153809,4240.512695,4228.717773,4222.436035,4221.538574,4219.871582,4231.025879,4214.102539,4150.512695,4198.461426,4209.871582,3242.000000,4.000000,82.000000,,,,0.000000,4.000000,4.000000,4.000000,4.000000,4.000000,4.000000,4.000000,4.000000,4.000000,4.000000,4.000000,4.000000,4.000000,4.000000,100.000000,,,,,,,,,,,,,,,,
1645712038.294222,22.000000,0.000000,4222.692383,4216.794922,4227.436035,4216.025879,4234.230957,4225.769043,4220.128418,4221.794922,4216.410156,4220.128418,4207.948730,4149.871582,4196.025879,4211.922852,2316.000000,4.000000,82.000000,,,,0.000000,4.000000,4.000000,4.000000,4.000000,4.000000,4.000000,4.000000,4.000000,4.000000,4.000000,4.000000,4.000000,4.000000,4.000000,100.000000,,,,,,,,,,,,,,,,
1645712038.298163,23.000000,0.000000,4226.153809,4214.487305,4230.384766,4214.487305,4234.487305,4227.051270,4220.897461,4225.384766,4217.692383,4215.769043,4206.282227,4152.563965,4198.846191,4218.717773,2852.000000,4.000000,82.000000,,,,0.000000,4.000000,4.000000,4.000000,4.000000,4.000000,4.000000,4.000000,4.000000,4.000000,4.000000,4.000000,4.000000,4.000000,4.000000,100.000000,,,,,,,,,,,,,,,,
1645712038.302103,24.000000,0.000000,4223.974121,4219.871582,4234.871582,4217.820313,4241.666504,4231.666504,4223.205078,4231.025879,4223.205078,4221.153809,4211.794922,4159.102539,4206.922852,4227.307617,3181.000000,4.000000,82.000000,,,,0.000000,4.000000,4.000000,4.000000,4.000000,4.000000,4.000000,4.000000,4.000000,4.000000,4.000000,4.000000,4.000000,4.000000,4.000000,100.000000,,,,,,,,,,,,,,,,
1645712038.306043,25.000000,0.000000,4220.769043,4227.948730,4237.179688,4222.179688,4248.333496,4234.230957,4223.205078,4234.615234,4228.205078,4229.102539,4219.358887,4164.743652,4214.487305,4233.205078,3242.000000,4.000000,82.000000,,,,0.000000,4.000000,4.000000,4.000000,4.000000,4.000000,4.000000,4.000000,4.000000,4.000000,4.000000,4.000000,4.000000,4.000000,4.000000,100.000000,,,,,,,,,,,,,,,,
1645712038.309983,26.000000,0.000000,4221.666504,4232.179688,4235.384766,4223.846191,4247.436035,4231.153809,4219.230957,4233.077148,4228.717773,4231.153809,4221.282227,4164.487305,4215.384766,4234.230957,2316.000000,4.000000,82.000000,,,,0.000000,4.000000,4.000000,4.000000,4.000000,4.000000,4.000000,4.000000,4.000000,4.000000,4.000000,4.000000,4.000000,4.000000,4.000000,100.000000,,,,,,,,,,,,,,,,
1645712038.313923,27.000000,0.000000,4225.641113,4230.769043,4231.794922,4223.077148,4240.897461,4225.897461,4214.743652,4228.461426,4225.512695,4226.922852,4216.666504,4158.974121,4209.358887,4231.025879,2852.000000,4.000000,82.000000,,,,0.000000,4.000000,4.000000,4.000000,4.000000,4.000000,4.000000,4.000000,4.000000,4.000000,4.000000,4.000000,4.000000,4.000000,4.000000,100.000000,,,,,,,,,,,,,,,,
1645712038.317863,28.000000,0.000000,4227.820313,4228.077148,4231.025879,4223.461426,4237.436035,4225.128418,4214.615234,4226.282227,4222.948730,4224.102539,4212.179688,4154.230957,4202.051270,4226.410156,3181.000000,4.000000,82.000000,,,,0.000000,4.000000,4.000000,4.000000,4.000000,4.000000,4.000000,4.000000,4.000000,4.000000,4.000000,4.000000,4.000000,4.000000,4.000000,100.000000,,,,,,,,,,,,,,,,
1645712038.321803,29.000000,0.000000,4226.153809,4228.205078,4235.000000,4226.922852,4241.794922,4230.384766,4220.256348,4229.871582,4224.871582,4228.461426,4213.461426,4155.512695,4199.487305,4223.077148,3242.000000,4.000000,82.000000,,,,0.000000,4.000000,4.000000,4.000000,4.000000,4.000000,4.000000,4.000000,4.000000,4.000000,4.000000,4.000000,4.000000,4.000000,4.000000,100.000000,,,,,,,,,,,,,,,,
1645712038.325743,30.000000,0.000000,4223.846191,4230.128418,4241.025879,4231.282227,4249.230957,4236.410156,4227.051270,4236.794922,4230.000000,4236.410156,4218.589844,4161.666504,4202.948730,4222.820313,2316.000000,4.000000,82.000000,,,,0.000000,4.000000,4.000000,4.000000,4.000000,4.000000,4.000000,4.000000,4.000000,4.000000,4.000000,4.000000,4.000000,4.000000,4.000000,100.000000,,,,,,,,,,,,,,,,
1645712038.329683,31.000000,0.000000,4224.743652,4230.128418,4243.974121,4232.948730,4251.410156,4236.922852,4230.000000,4241.538574,4233.846191,4240.128418,4221.410156,4167.820313,4208.717773,4225.641113,2852.000000,4.000000,82.000000,,,,0.000000,4.000000,4.000000,4.000000,4.000000,4.000000,4.000000,4.000000,4.000000,4.000000,4.000000,4.000000,4.000000,4.000000,4.000000,100.000000,,,,,,,,,,,,,,,,
1645712038.333623,32.000000,0.000000,4227.948730,4226.922852,4242.051270,4231.025879,4246.410156,4231.538574,4227.692383,4241.410156,4233.461426,4236.025879,4219.743652,4170.000000,4212.820313,4229.871582,0.000000,4.000000,82.000000,,,,0.000000,4.000000,4.000000,4.000000,4.000000,4.000000,4.000000,4.000000,4.000000,4.000000,4.000000,4.000000,4.000000,4.000000,4.000000,100.000000,,,,,,,,,,,,,,,,
1645712038.337564,33.000000,0.000000,4228.077148,4222.948730,4236.794922,4227.051270,4239.358887,4225.641113,4223.461426,4237.948730,4229.230957,4227.948730,4217.179688,4168.461426,4213.717773,4232.179688,0.000000,4.000000,82.000000,,,,0.000000,4.000000,4.000000,4.000000,4.000000,4.000000,4.000000,4.000000,4.000000,4.000000,4.000000,4.000000,4.000000,4.000000,4.000000,100.000000,,,,,,,,,,,,,,,,
1645712038.341504,34.000000,0.000000,4222.820313,4220.256348,4230.256348,4222.820313,4235.384766,4223.717773,4220.256348,4234.102539,4223.717773,4221.666504,4217.051270,4164.743652,4211.794922,4229.230957,0.000000,4.000000,82.000000,,,,0.000000,4.000000,4.000000,4.000000,4.000000,4.000000,4.000000,4.000000,4.000000,4.000000,4.000000,4.000000,4.000000,4.000000,4.000000,100.000000,,,,,,,,,,,,,,,,
1645712038.345444,35.000000,0.000000,4215.897461,4217.436035,4223.846191,4217.563965,4233.461426,4224.487305,4218.717773,4230.384766,4218.333496,4218.589844,4217.307617,4159.487305,4207.820313,4221.538574,0.000000,4.000000,82.000000,,,,0.000000,4.000000,4.000000,4.000000,4.000000,4.000000,4.000000,4.000000,4.000000,4.000000,4.000000,4.000000,4.000000,4.000000,4.000000,100.000000,,,,,,,,,,,,,,,,
1645712038.349384,36.000000,0.000000,4212.820313,4212.820313,4217.948730,4211.025879,4229.615234,4224.358887,4217.948730,4226.153809,4213.846191,4216.410156,4213.846191,4152.692383,4203.974121,4214.358887,0.000000,4.000000,82.000000,,,,0.000000,4.000000,4.000000,4.000000,4.000000,4.000000,4.000000,4.000000,4.000000,4.000000,4.000000,4.000000,4.000000,4.000000,4.000000,100.000000,,,,,,,,,,,,,,,,
1645712038.353324,37.000000,0.000000,4214.615234,4208.717773,4215.000000,4206.282227,4224.615234,4222.820313,4217.820313,4222.179688,4211.794922,4215.384766,4207.436035,4146.153809,4202.948730,4214.358887,0.000000,4.000000,82.000000,,,,0.000000,4.000000,4.000000,4.000000,4.000000,4.000000,4.000000,4.000000,4.000000,4.000000,4.000000,4.000000,4.000000,4.000000,4.000000,100.000000,,,,,,,,,,,,,,,,
1645712038.357364,38.000000,0.000000,4217.692383,4210.512695,4216.922852,4207.820313,4224.102539,4222.563965,4219.230957,4221.794922,4213.846191,4218.333496,4204.615234,4143.589844,4206.025879,4222.692383,0.000000,4.000000,82.000000,,,,0.000000,4.000000,4.000000,4.000000,4.000000,4.000000,4.000000,4.000000,4.000000,4.000000,4.000000,4.000000,4.000000,4.000000,4.000000,100.000000,1.000000,83.333336,3.000000,4.000000,3.000000,4.000000,4.000000,4.000000,4.000000,4.000000,4.000000,4.000000,4.000000,4.000000,4.000000,4.000000
1645712038.361304,39.000000,0.000000,4218.846191,4218.846191,4222.820313,4215.897461,4230.512695,4225.128418,4221.794922,4225.769043,4219.102539,4226.538574,4209.615234,4146.282227,4210.897461,4233.205078,0.000000,4.000000,82.000000,,,,0.000000,4.000000,4.000000,4.000000,4.000000,4.000000,4.000000,4.000000,4.000000,4.000000,4.000000,4.000000,4.000000,4.000000,4.000000,100.000000,,,,,,,,,,,,,,,,
1645712038.365244,40.000000,0.000000,4219.230957,4226.794922,4228.333496,4225.128418,4239.358887,4227.692383,4223.461426,4230.769043,4223.717773,4235.256348,4218.974121,4151.538574,4213.461426,4237.563965,0.000000,4.000000,82.000000,,,,0.000000,4.000000,4.000000,4.000000,4.000000,4.000000,4.000000,4.000000,4.000000,4.000000,4.000000,4.000000,4.000000,4.000000,4.000000,100.000000,,,,,,,,,,,,,,,,
1645712038.369184,41.000000,0.000000,4221.025879,4226.025879,4229.102539,4229.743652,4243.974121,4226.794922,4222.820313,4231.666504,4224.487305,4238.077148,4224.615234,4154.871582,4211.410156,4232.820313,0.000000,4.000000,82.000000,,,,0.000000,4.000000,4.000000,4.000000,4.000000,4.000000,4.000000,4.000000,4.000000,4.000000,4.000000,4.000000,4.000000,4.000000,4.000000,100.000000,,,,,,,,,,,,,,,,
1645712038.373124,42.000000,0.000000,4223.461426,4216.538574,4225.641113,4229.487305,4242.948730,4223.717773,4221.666504,4227.820313,4221.666504,4234.487305,4223.077148,4155.384766,4207.307617,4223.717773,0.000000,4.000000,82.000000,,,,0.000000,4.000000,4.000000,4.000000,4.000000,4.000000,4.000000,4.000000,4.000000,4.000000,4.000000,4.000000,4.000000,4.000000,4.000000,100.000000,,,,,,,,,,,,,,,,
1645712038.377065,43.000000,0.000000,4222.948730,4208.333496,4222.563965,4228.846191,4241.282227,4223.333496,4222.436035,4223.717773,4219.358887,4231.025879,4218.717773,4155.256348,4206.153809,4218.333496,0.000000,4.000000,82.000000,,,,0.000000,4.000000,4.000000,4.000000,4.000000,4.000000,4.000000,4.000000,4.000000,4.000000,4.000000,4.000000,4.000000,4.000000,4.000000,100.000000,,,,,,,,,,,,,,,,
1645712038.381005,44.000000,0.000000,4219.615234,4210.897461,4223.589844,4230.897461,4243.205078,4228.589844,4225.384766,4223.974121,4220.641113,4233.333496,4217.563965,4157.051270,4210.128418,4220.000000,0.000000,4.000000,82.000000,,,,0.000000,4.000000,4.000000,4.000000,4.000000,4.000000,4.000000,4.000000,4.000000,4.000000,4.000000,4.000000,4.000000,4.000000,4.000000,100.000000,,,,,,,,,,,,,,,,
