title:Alex-eBJ1yEdXp2iUAQUfoZpiGQ, start timestamp:1645708384.220125, stop timestamp:1645708410.386365, headset type:EPOCPLUS, headset serial:3B9AEBFF, headset firmware:626, channels:55, sampling rate:eeg_256, samples:6642      , version:2.1, 
Timestamp,EEG.Counter,EEG.Interpolated,EEG.AF3,EEG.F7,EEG.F3,EEG.FC5,EEG.T7,EEG.P7,EEG.O1,EEG.O2,EEG.P8,EEG.T8,EEG.FC6,EEG.F4,EEG.F8,EEG.AF4,EEG.RawCq,EEG.Battery,EEG.BatteryPercent,MarkerIndex,MarkerType,MarkerValueInt,EEG.MarkerHardware,CQ.AF3,CQ.F7,CQ.F3,CQ.FC5,CQ.T7,CQ.P7,CQ.O1,CQ.O2,CQ.P8,CQ.T8,CQ.FC6,CQ.F4,CQ.F8,CQ.AF4,CQ.Overall,EQ.SampleRateQuality,EQ.OVERALL,EQ.AF3,EQ.F7,EQ.F3,EQ.FC5,EQ.T7,EQ.P7,EQ.O1,EQ.O2,EQ.P8,EQ.T8,EQ.FC6,EQ.F4,EQ.F8,EQ.AF4
1645708384.220125,87.000000,0.000000,4194.230957,4217.820313,4212.307617,4227.436035,4221.410156,4213.846191,4213.846191,4214.871582,4221.153809,4221.922852,4231.538574,4189.487305,4231.666504,4220.512695,0.000000,4.000000,91.000000,,,,0.000000,4.000000,4.000000,4.000000,4.000000,4.000000,4.000000,4.000000,4.000000,4.000000,4.000000,4.000000,4.000000,4.000000,4.000000,100.000000,,,,,,,,,,,,,,,,
1645708384.224165,88.000000,0.000000,4192.563965,4219.358887,4213.205078,4230.128418,4227.436035,4212.820313,4210.128418,4211.666504,4218.974121,4218.205078,4230.897461,4185.384766,4229.871582,4215.384766,0.000000,4.000000,91.000000,,,,0.000000,4.000000,4.000000,4.000000,4.000000,4.000000,4.000000,4.000000,4.000000,4.000000,4.000000,4.000000,4.000000,4.000000,4.000000,100.000000,,,,,,,,,,,,,,,,
1645708384.228105,89.000000,0.000000,4195.256348,4219.230957,4219.230957,4231.025879,4232.948730,4214.230957,4211.282227,4212.948730,4220.128418,4219.615234,4233.589844,4185.384766,4229.871582,4214.487305,0.000000,4.000000,91.000000,,,,0.000000,4.000000,4.000000,4.000000,4.000000,4.000000,4.000000,4.000000,4.000000,4.000000,4.000000,4.000000,4.000000,4.000000,4.000000,100.000000,,,,,,,,,,,,,,,,
1645708384.232045,90.000000,0.000000,4200.769043,4218.974121,4226.025879,4230.769043,4236.922852,4217.820313,4217.179688,4218.974121,4225.512695,4226.153809,4239.102539,4189.230957,4232.948730,4218.205078,0.000000,4.000000,91.000000,,,,0.000000,4.000000,4.000000,4.000000,4.000000,4.000000,4.000000,4.000000,4.000000,4.000000,4.000000,4.000000,4.000000,4.000000,4.000000,100.000000,,,,,,,,,,,,,,,,
1645708384.235985,91.000000,0.000000,4205.000000,4219.358887,4229.102539,4230.512695,4239.487305,4222.051270,4224.230957,4226.666504,4232.563965,4234.743652,4245.512695,4194.615234,4238.333496,4223.846191,0.000000,4.000000,91.000000,,,,0.000000,4.000000,4.000000,4.000000,4.000000,4.000000,4.000000,4.000000,4.000000,4.000000,4.000000,4.000000,4.000000,4.000000,4.000000,100.000000,,,,,,,,,,,,,,,,
1645708384.239925,92.000000,0.000000,4204.743652,4219.743652,4227.051270,4231.025879,4240.641113,4224.615234,4228.333496,4231.153809,4236.794922,4240.512695,4249.358887,4198.333496,4243.461426,4227.820313,0.000000,4.000000,91.000000,,,,0.000000,4.000000,4.000000,4.000000,4.000000,4.000000,4.000000,4.000000,4.000000,4.000000,4.000000,4.000000,4.000000,4.000000,4.000000,100.000000,,,,,,,,,,,,,,,,
1645708384.243865,93.000000,0.000000,4200.256348,4219.230957,4222.820313,4231.922852,4239.743652,4223.717773,4227.692383,4230.000000,4235.512695,4240.000000,4248.589844,4198.333496,4245.256348,4228.333496,0.000000,4.000000,91.000000,,,,0.000000,4.000000,4.000000,4.000000,4.000000,4.000000,4.000000,4.000000,4.000000,4.000000,4.000000,4.000000,4.000000,4.000000,4.000000,100.000000,,,,,,,,,,,,,,,,
1645708384.247805,94.000000,0.000000,4195.641113,4217.948730,4220.128418,4232.820313,4236.410156,4219.871582,4224.230957,4224.358887,4229.615234,4233.974121,4243.974121,4195.256348,4243.077148,4226.282227,0.000000,4.000000,91.000000,,,,0.000000,4.000000,4.000000,4.000000,4.000000,4.000000,4.000000,4.000000,4.000000,4.000000,4.000000,4.000000,4.000000,4.000000,4.000000,100.000000,,,,,,,,,,,,,,,,
1645708384.251745,95.000000,0.000000,4194.743652,4217.051270,4220.769043,4233.717773,4232.051270,4215.256348,4220.641113,4217.307617,4223.205078,4226.538574,4238.333496,4191.922852,4239.102539,4223.717773,0.000000,4.000000,91.000000,,,,0.000000,4.000000,4.000000,4.000000,4.000000,4.000000,4.000000,4.000000,4.000000,4.000000,4.000000,4.000000,4.000000,4.000000,4.000000,100.000000,,,,,,,,,,,,,,,,
1645708384.255685,96.000000,0.000000,4197.820313,4217.563965,4223.077148,4234.230957,4228.717773,4212.820313,4218.717773,4212.051270,4220.128418,4221.538574,4234.358887,4191.025879,4236.153809,4222.436035,0.000000,4.000000,91.000000,,,,0.000000,4.000000,4.000000,4.000000,4.000000,4.000000,4.000000,4.000000,4.000000,4.000000,4.000000,4.000000,4.000000,4.000000,4.000000,100.000000,,,,,,,,,,,,,,,,
1645708384.259625,97.000000,0.000000,4201.153809,4218.846191,4224.871582,4233.717773,4227.820313,4213.205078,4218.461426,4210.000000,4221.153809,4220.512695,4232.563965,4192.692383,4235.512695,4222.563965,0.000000,4.000000,91.000000,,,,0.000000,4.000000,4.000000,4.000000,4.000000,4.000000,4.000000,4.000000,4.000000,4.000000,4.000000,4.000000,4.000000,4.000000,4.000000,100.000000,,,,,,,,,,,,,,,,
1645708384.263566,98.000000,0.000000,4201.282227,4219.615234,4223.974121,4232.307617,4228.461426,4215.384766,4219.358887,4211.153809,4223.974121,4222.436035,4232.563965,4194.871582,4236.410156,4222.948730,0.000000,4.000000,91.000000,,,,0.000000,4.000000,4.000000,4.000000,4.000000,4.000000,4.000000,4.000000,4.000000,4.000000,4.000000,4.000000,4.000000,4.000000,4.000000,100.000000,,,,,,,,,,,,,,,,
1645708384.267506,99.000000,0.000000,4197.948730,4218.717773,4220.512695,4230.769043,4228.205078,4217.436035,4221.025879,4214.871582,4225.897461,4226.025879,4233.717773,4195.512695,4237.051270,4223.077148,0.000000,4.000000,91.000000,,,,0.000000,4.000000,4.000000,4.000000,4.000000,4.000000,4.000000,4.000000,4.000000,4.000000,4.000000,4.000000,4.000000,4.000000,4.000000,100.000000,,,,,,,,,,,,,,,,
1645708384.271446,100.000000,0.000000,4193.846191,4216.153809,4215.897461,4229.102539,4226.410156,4218.717773,4222.820313,4220.128418,4225.512695,4229.487305,4235.897461,4193.974121,4237.051270,4222.436035,0.000000,4.000000,91.000000,,,,0.000000,4.000000,4.000000,4.000000,4.000000,4.000000,4.000000,4.000000,4.000000,4.000000,4.000000,4.000000,4.000000,4.000000,4.000000,100.000000,,,,,,,,,,,,,,,,
1645708384.275386,101.000000,0.000000,4191.922852,4213.077148,4212.820313,4226.922852,4224.230957,4219.487305,4223.717773,4224.743652,4223.974121,4231.282227,4238.461426,4191.282227,4236.794922,4221.025879,0.000000,4.000000,91.000000,,,,0.000000,4.000000,4.000000,4.000000,4.000000,4.000000,4.000000,4.000000,4.000000,4.000000,4.000000,4.000000,4.000000,4.000000,4.000000,100.000000,,,,,,,,,,,,,,,,
1645708384.279326,102.000000,0.000000,4192.820313,4210.769043,4212.692383,4224.358887,4223.717773,4219.358887,4223.205078,4226.538574,4222.948730,4230.000000,4240.256348,4189.102539,4236.794922,4218.589844,0.000000,4.000000,91.000000,,,,0.000000,4.000000,4.000000,4.000000,4.000000,4.000000,4.000000,4.000000,4.000000,4.000000,4.000000,4.000000,4.000000,4.000000,4.000000,100.000000,,,,,,,,,,,,,,,,
1645708384.283266,103.000000,0.000000,4194.871582,4209.615234,4215.256348,4222.179688,4225.897461,4218.077148,4221.666504,4225.384766,4223.846191,4225.641113,4240.256348,4188.461426,4237.307617,4216.025879,0.000000,4.000000,91.000000,,,,0.000000,4.000000,4.000000,4.000000,4.000000,4.000000,4.000000,4.000000,4.000000,4.000000,4.000000,4.000000,4.000000,4.000000,4.000000,100.000000,,,,,,,,,,,,,,,,
1645708384.287206,104.000000,0.000000,4195.897461,4210.128418,4217.820313,4221.410156,4230.128418,4216.922852,4220.384766,4222.948730,4225.769043,4221.153809,4239.487305,4189.871582,4238.333496,4215.256348,0.000000,4.000000,91.000000,,,,0.000000,4.000000,4.000000,4.000000,4.000000,4.000000,4.000000,4.000000,4.000000,4.000000,4.000000,4.000000,4.000000,4.000000,4.000000,100.000000,,,,,,,,,,,,,,,,
1645708384.291246,105.000000,0.000000,4194.871582,4212.307617,4217.820313,4221.922852,4234.487305,4217.179688,4220.641113,4220.897461,4227.436035,4220.641113,4239.487305,4193.077148,4239.871582,4217.948730,0.000000,4.000000,91.000000,,,,0.000000,4.000000,4.000000,4.000000,4.000000,4.000000,4.000000,4.000000,4.000000,4.000000,4.000000,4.000000,4.000000,4.000000,4.000000,100.000000,,,,,,,,,,,,,,,,
1645708384.295186,106.000000,0.000000,4193.461426,4215.512695,4215.000000,4222.820313,4236.666504,4219.487305,4221.922852,4219.743652,4228.333496,4225.897461,4241.666504,4196.410156,4241.794922,4223.333496,0.000000,4.000000,91.000000,,,,0.000000,4.000000,4.000000,4.000000,4.000000,4.000000,4.000000,4.000000,4.000000,4.000000,4.000000,4.000000,4.000000,4.000000,4.000000,100.000000,,,,,,,,,,,,,,,,
1645708384.299126,107.000000,0.000000,4193.461426,4217.179688,4212.307617,4224.102539,4235.641113,4221.794922,4222.948730,4219.743652,4228.717773,4234.615234,4245.128418,4198.077148,4243.974121,4228.717773,0.000000,4.000000,91.000000,,,,0.000000,4.000000,4.000000,4.000000,4.000000,4.000000,4.000000,4.000000,4.000000,4.000000,4.000000,4.000000,4.000000,4.000000,4.000000,100.000000,,,,,,,,,,,,,,,,
1645708384.303067,108.000000,0.000000,4196.153809,4215.641113,4213.077148,4226.538574,4232.051270,4221.666504,4222.948730,4220.897461,4229.230957,4241.666504,4248.077148,4198.205078,4245.769043,4231.153809,0.000000,4.000000,91.000000,,,,0.000000,4.000000,4.000000,4.000000,4.000000,4.000000,4.000000,4.000000,4.000000,4.000000,4.000000,4.000000,4.000000,4.000000,4.000000,100.000000,,,,,,,,,,,,,,,,
1645708384.307007,109.000000,0.000000,4200.384766,4211.410156,4217.051270,4230.384766,4228.077148,4218.974121,4221.922852,4223.333496,4229.615234,4243.461426,4249.102539,4198.205078,4246.282227,4229.871582,0.000000,4.000000,91.000000,,,,0.000000,4.000000,4.000000,4.000000,4.000000,4.000000,4.000000,4.000000,4.000000,4.000000,4.000000,4.000000,4.000000,4.000000,4.000000,100.000000,,,,,,,,,,,,,,,,
1645708384.310947,110.000000,0.000000,4203.333496,4207.692383,4221.282227,4234.230957,4225.769043,4216.153809,4220.512695,4226.153809,4229.743652,4240.256348,4248.589844,4198.846191,4245.000000,4226.794922,0.000000,4.000000,91.000000,,,,0.000000,4.000000,4.000000,4.000000,4.000000,4.000000,4.000000,4.000000,4.000000,4.000000,4.000000,4.000000,4.000000,4.000000,4.000000,100.000000,1.000000,100.000000,4.000000,4.000000,4.000000,4.000000,4.000000,4.000000,4.000000,4.000000,4.000000,4.000000,4.000000,4.000000,4.000000,4.000000
1645708384.314887,111.000000,0.000000,4203.077148,4207.179688,4222.563965,4235.769043,4225.384766,4215.384766,4218.974121,4227.948730,4229.102539,4235.512695,4247.948730,4200.256348,4241.794922,4224.615234,0.000000,4.000000,91.000000,,,,0.000000,4.000000,4.000000,4.000000,4.000000,4.000000,4.000000,4.000000,4.000000,4.000000,4.000000,4.000000,4.000000,4.000000,4.000000,100.000000,,,,,,,,,,,,,,,,
1645708384.318827,112.000000,0.000000,4200.000000,4209.358887,4220.256348,4234.230957,4225.384766,4216.410156,4217.948730,4227.307617,4227.820313,4232.563965,4248.077148,4201.282227,4237.436035,4225.512695,0.000000,4.000000,91.000000,,,,0.000000,4.000000,4.000000,4.000000,4.000000,4.000000,4.000000,4.000000,4.000000,4.000000,4.000000,4.000000,4.000000,4.000000,4.000000,100.000000,,,,,,,,,,,,,,,,
1645708384.322767,113.000000,0.000000,4197.051270,4211.794922,4216.538574,4231.794922,4225.256348,4217.307617,4218.077148,4224.358887,4226.410156,4232.436035,4248.589844,4201.794922,4233.974121,4229.743652,0.000000,4.000000,91.000000,,,,0.000000,4.000000,4.000000,4.000000,4.000000,4.000000,4.000000,4.000000,4.000000,4.000000,4.000000,4.000000,4.000000,4.000000,4.000000,100.000000,,,,,,,,,,,,,,,,
1645708384.326707,114.000000,0.000000,4197.051270,4212.436035,4214.871582,4232.179688,4226.282227,4216.794922,4219.358887,4220.897461,4225.897461,4234.358887,4249.102539,4202.179688,4233.461426,4235.897461,0.000000,4.000000,91.000000,,,,0.000000,4.000000,4.000000,4.000000,4.000000,4.000000,4.000000,4.000000,4.000000,4.000000,4.000000,4.000000,4.000000,4.000000,4.000000,100.000000,,,,,,,,,,,,,,,,
1645708384.330647,115.000000,0.000000,4201.025879,4212.307617,4216.922852,4236.794922,4230.256348,4216.025879,4220.641113,4218.974121,4227.051270,4237.307617,4249.615234,4203.461426,4236.153809,4241.666504,0.000000,4.000000,91.000000,,,,0.000000,4.000000,4.000000,4.000000,4.000000,4.000000,4.000000,4.000000,4.000000,4.000000,4.000000,4.000000,4.000000,4.000000,4.000000,100.000000,,,,,,,,,,,,,,,,
1645708384.334587,116.000000,0.000000,4207.307617,4213.461426,4222.179688,4243.461426,4236.282227,4216.410156,4220.512695,4219.743652,4229.230957,4240.128418,4250.769043,4205.128418,4239.358887,4245.000000,0.000000,4.000000,91.000000,,,,0.000000,4.000000,4.000000,4.000000,4.000000,4.000000,4.000000,4.000000,4.000000,4.000000,4.000000,4.000000,4.000000,4.000000,4.000000,100.000000,,,,,,,,,,,,,,,,
1645708384.338527,117.000000,0.000000,4213.333496,4217.179688,4228.205078,4247.436035,4240.897461,4217.692383,4218.846191,4222.948730,4231.025879,4241.538574,4251.410156,4206.666504,4239.871582,4244.743652,0.000000,4.000000,91.000000,,,,0.000000,4.000000,4.000000,4.000000,4.000000,4.000000,4.000000,4.000000,4.000000,4.000000,4.000000,4.000000,4.000000,4.000000,4.000000,100.000000,,,,,,,,,,,,,,,,
1645708384.342468,118.000000,0.000000,4216.794922,4221.794922,4232.692383,4246.282227,4240.000000,4218.205078,4217.307617,4227.307617,4231.153809,4240.897461,4251.025879,4207.820313,4235.897461,4241.282227,0.000000,4.000000,91.000000,,,,0.000000,4.000000,4.000000,4.000000,4.000000,4.000000,4.000000,4.000000,4.000000,4.000000,4.000000,4.000000,4.000000,4.000000,4.000000,100.000000,,,,,,,,,,,,,,,,
1645708384.346308,119.000000,0.000000,4217.692383,4224.487305,4234.743652,4241.922852,4233.974121,4216.666504,4217.436035,4230.897461,4229.743652,4239.487305,4250.000000,4209.871582,4229.871582,4237.436035,0.000000,4.000000,91.000000,,,,0.000000,4.000000,4.000000,4.000000,4.000000,4.000000,4.000000,4.000000,4.000000,4.000000,4.000000,4.000000,4.000000,4.000000,4.000000,100.000000,,,,,,,,,,,,,,,,
1645708384.350248,120.000000,0.000000,4217.820313,4224.102539,4235.256348,4238.461426,4227.820313,4214.743652,4218.846191,4231.794922,4228.205078,4239.871582,4251.282227,4213.974121,4226.538574,4237.307617,0.000000,4.000000,91.000000,,,,0.000000,4.000000,4.000000,4.000000,4.000000,4.000000,4.000000,4.000000,4.000000,4.000000,4.000000,4.000000,4.000000,4.000000,4.000000,100.000000,,,,,,,,,,,,,,,,
1645708384.354188,121.000000,0.000000,4219.102539,4222.179688,4234.743652,4238.974121,4227.051270,4214.615234,4220.128418,4230.000000,4228.205078,4243.589844,4256.282227,4219.871582,4228.846191,4242.820313,0.000000,4.000000,91.000000,,,,0.000000,4.000000,4.000000,4.000000,4.000000,4.000000,4.000000,4.000000,4.000000,4.000000,4.000000,4.000000,4.000000,4.000000,4.000000,100.000000,,,,,,,,,,,,,,,,
1645708384.358128,122.000000,0.000000,4220.256348,4219.871582,4233.589844,4242.692383,4230.897461,4216.538574,4219.487305,4226.922852,4229.615234,4248.461426,4263.717773,4224.615234,4235.128418,4251.025879,0.000000,4.000000,91.000000,,,,0.000000,4.000000,4.000000,4.000000,4.000000,4.000000,4.000000,4.000000,4.000000,4.000000,4.000000,4.000000,4.000000,4.000000,4.000000,100.000000,,,,,,,,,,,,,,,,
1645708384.362068,123.000000,0.000000,4219.230957,4218.333496,4231.666504,4245.384766,4233.333496,4218.589844,4216.666504,4224.358887,4230.512695,4250.128418,4268.846191,4225.769043,4240.512695,4256.538574,0.000000,4.000000,91.000000,,,,0.000000,4.000000,4.000000,4.000000,4.000000,4.000000,4.000000,4.000000,4.000000,4.000000,4.000000,4.000000,4.000000,4.000000,4.000000,100.000000,,,,,,,,,,,,,,,,
1645708384.366008,124.000000,0.000000,4215.384766,4218.077148,4229.487305,4244.102539,4229.487305,4219.102539,4212.948730,4222.436035,4229.615234,4245.897461,4268.077148,4223.077148,4241.410156,4255.769043,0.000000,4.000000,91.000000,,,,0.000000,4.000000,4.000000,4.000000,4.000000,4.000000,4.000000,4.000000,4.000000,4.000000,4.000000,4.000000,4.000000,4.000000,4.000000,100.000000,,,,,,,,,,,,,,,,
1645708384.369948,125.000000,0.000000,4210.897461,4219.102539,4227.948730,4240.128418,4222.051270,4218.077148,4210.000000,4219.871582,4227.179688,4238.589844,4262.692383,4218.846191,4238.589844,4250.256348,0.000000,4.000000,91.000000,,,,0.000000,4.000000,4.000000,4.000000,4.000000,4.000000,4.000000,4.000000,4.000000,4.000000,4.000000,4.000000,4.000000,4.000000,4.000000,100.000000,,,,,,,,,,,,,,,,
1645708384.373889,126.000000,0.000000,4209.102539,4220.512695,4227.436035,4237.820313,4218.077148,4216.666504,4209.102539,4216.282227,4225.256348,4233.717773,4257.179688,4215.769043,4235.128418,4244.358887,0.000000,4.000000,91.000000,,,,0.000000,4.000000,4.000000,4.000000,4.000000,4.000000,4.000000,4.000000,4.000000,4.000000,4.000000,4.000000,4.000000,4.000000,4.000000,100.000000,,,,,,,,,,,,,,,,
1645708384.377829,127.000000,0.000000,4210.384766,4220.384766,4227.307617,4239.615234,4221.794922,4216.025879,4210.256348,4213.461426,4225.256348,4234.358887,4255.000000,4215.128418,4233.974121,4240.897461,0.000000,4.000000,91.000000,,,,0.000000,4.000000,4.000000,4.000000,4.000000,4.000000,4.000000,4.000000,4.000000,4.000000,4.000000,4.000000,4.000000,4.000000,4.000000,100.000000,,,,,,,,,,,,,,,,
1645708384.381769,128.000000,0.000000,4212.179688,4218.077148,4226.410156,4244.102539,4231.153809,4215.897461,4212.307617,4213.333496,4226.538574,4238.333496,4255.769043,4216.153809,4235.000000,4240.256348,3262.000000,4.000000,91.000000,,,,0.000000,4.000000,4.000000,4.000000,4.000000,4.000000,4.000000,4.000000,4.000000,4.000000,4.000000,4.000000,4.000000,4.000000,4.000000,100.000000,,,,,,,,,,,,,,,,
1645708384.385709,129.000000,0.000000,4211.538574,4215.512695,4223.589844,4247.692383,4239.871582,4216.410156,4214.358887,4215.897461,4227.179688,4241.153809,4256.922852,4217.179688,4235.769043,4240.641113,3323.000000,4.000000,91.000000,,,,0.000000,4.000000,4.000000,4.000000,4.000000,4.000000,4.000000,4.000000,4.000000,4.000000,4.000000,4.000000,4.000000,4.000000,4.000000,100.000000,,,,,,,,,,,,,,,,
1645708384.389649,130.000000,0.000000,4208.205078,4215.769043,4219.358887,4248.077148,4242.948730,4217.563965,4215.897461,4218.717773,4226.410156,4241.282227,4256.922852,4217.307617,4234.743652,4240.512695,3457.000000,4.000000,91.000000,,,,0.000000,4.000000,4.000000,4.000000,4.000000,4.000000,4.000000,4.000000,4.000000,4.000000,4.000000,4.000000,4.000000,4.000000,4.000000,100.000000,,,,,,,,,,,,,,,,
1645708384.393589,131.000000,0.000000,4204.615234,4219.871582,4214.615234,4245.641113,4239.871582,4219.487305,4216.922852,4219.615234,4224.487305,4240.000000,4256.025879,4217.307617,4232.307617,4240.128418,3292.000000,4.000000,91.000000,,,,0.000000,4.000000,4.000000,4.000000,4.000000,4.000000,4.000000,4.000000,4.000000,4.000000,4.000000,4.000000,4.000000,4.000000,4.000000,100.000000,,,,,,,,,,,,,,,,
1645708384.397529,132.000000,0.000000,4202.948730,4225.384766,4211.153809,4242.051270,4234.102539,4221.282227,4217.692383,4218.333496,4222.563965,4239.615234,4255.384766,4217.563965,4230.256348,4240.512695,3444.000000,4.000000,91.000000,,,,0.000000,4.000000,4.000000,4.000000,4.000000,4.000000,4.000000,4.000000,4.000000,4.000000,4.000000,4.000000,4.000000,4.000000,4.000000,100.000000,,,,,,,,,,,,,,,,
1645708384.401469,133.000000,0.000000,4203.974121,4228.846191,4210.256348,4238.717773,4229.358887,4221.282227,4218.205078,4216.666504,4221.410156,4240.000000,4254.743652,4218.205078,4230.384766,4242.051270,3434.000000,4.000000,91.000000,,,,0.000000,4.000000,4.000000,4.000000,4.000000,4.000000,4.000000,4.000000,4.000000,4.000000,4.000000,4.000000,4.000000,4.000000,4.000000,100.000000,,,,,,,,,,,,,,,,
1645708384.405409,134.000000,0.000000,4206.794922,4228.717773,4211.410156,4236.794922,4228.205078,4219.102539,4218.205078,4216.666504,4221.666504,4240.000000,4253.589844,4218.333496,4231.410156,4243.077148,3251.000000,4.000000,91.000000,,,,0.000000,4.000000,4.000000,4.000000,4.000000,4.000000,4.000000,4.000000,4.000000,4.000000,4.000000,4.000000,4.000000,4.000000,4.000000,100.000000,,,,,,,,,,,,,,,,
1645708384.409349,135.000000,0.000000,4209.487305,4226.538574,4213.077148,4236.922852,4230.128418,4216.025879,4217.307617,4218.205078,4222.820313,4238.077148,4251.025879,4217.307617,4231.282227,4242.051270,2743.000000,4.000000,91.000000,,,,0.000000,4.000000,4.000000,4.000000,4.000000,4.000000,4.000000,4.000000,4.000000,4.000000,4.000000,4.000000,4.000000,4.000000,4.000000,100.000000,,,,,,,,,,,,,,,,
1645708384.413389,136.000000,0.000000,4210.256348,4225.128418,4213.717773,4238.974121,4231.794922,4214.102539,4215.897461,4219.230957,4223.333496,4234.230957,4247.820313,4215.512695,4228.461426,4239.102539,1559.000000,4.000000,91.000000,,,,0.000000,4.000000,4.000000,4.000000,4.000000,4.000000,4.000000,4.000000,4.000000,4.000000,4.000000,4.000000,4.000000,4.000000,4.000000,100.000000,,,,,,,,,,,,,,,,
1645708384.417330,137.000000,0.000000,4208.333496,4225.256348,4212.820313,4241.153809,4230.256348,4213.974121,4214.487305,4218.205078,4221.410156,4229.487305,4244.358887,4214.615234,4223.974121,4235.897461,3289.000000,4.000000,91.000000,,,,0.000000,4.000000,4.000000,4.000000,4.000000,4.000000,4.000000,4.000000,4.000000,4.000000,4.000000,4.000000,4.000000,4.000000,4.000000,100.000000,,,,,,,,,,,,,,,,
1645708384.421270,138.000000,0.000000,4204.358887,4225.641113,4211.794922,4240.641113,4225.384766,4214.615234,4213.846191,4215.641113,4217.307617,4226.025879,4241.666504,4215.897461,4220.128418,4234.487305,2662.000000,4.000000,91.000000,,,,0.000000,4.000000,4.000000,4.000000,4.000000,4.000000,4.000000,4.000000,4.000000,4.000000,4.000000,4.000000,4.000000,4.000000,4.000000,100.000000,,,,,,,,,,,,,,,,
1645708384.425210,139.000000,0.000000,4201.666504,4225.000000,4212.948730,4236.922852,4221.282227,4215.000000,4215.000000,4214.230957,4213.717773,4225.897461,4240.384766,4219.615234,4218.974121,4236.794922,3385.000000,4.000000,91.000000,,,,0.000000,4.000000,4.000000,4.000000,4.000000,4.000000,4.000000,4.000000,4.000000,4.000000,4.000000,4.000000,4.000000,4.000000,4.000000,100.000000,,,,,,,,,,,,,,,,
1645708384.429150,140.000000,0.000000,4204.230957,4224.487305,4217.307617,4233.077148,4222.563965,4215.512695,4217.692383,4215.769043,4213.461426,4230.128418,4242.051270,4224.871582,4221.666504,4243.333496,3386.000000,4.000000,91.000000,,,,0.000000,4.000000,4.000000,4.000000,4.000000,4.000000,4.000000,4.000000,4.000000,4.000000,4.000000,4.000000,4.000000,4.000000,4.000000,100.000000,,,,,,,,,,,,,,,,
1645708384.433090,141.000000,0.000000,4213.333496,4226.153809,4224.230957,4233.846191,4229.743652,4217.436035,4220.769043,4219.871582,4216.794922,4237.820313,4246.794922,4229.743652,4227.436035,4252.692383,3061.000000,4.000000,91.000000,,,,0.000000,4.000000,4.000000,4.000000,4.000000,4.000000,4.000000,4.000000,4.000000,4.000000,4.000000,4.000000,4.000000,4.000000,4.000000,100.000000,,,,,,,,,,,,,,,,
1645708384.437030,142.000000,0.000000,4224.743652,4231.025879,4231.410156,4240.512695,4237.820313,4221.025879,4222.948730,4223.846191,4220.897461,4245.256348,4252.692383,4232.307617,4233.461426,4260.897461,2662.000000,4.000000,91.000000,,,,0.000000,4.000000,4.000000,4.000000,4.000000,4.000000,4.000000,4.000000,4.000000,4.000000,4.000000,4.000000,4.000000,4.000000,4.000000,100.000000,,,,,,,,,,,,,,,,
1645708384.440970,143.000000,0.000000,4231.153809,4237.307617,4235.512695,4247.563965,4240.000000,4224.102539,4223.974121,4225.128418,4222.179688,4247.563965,4255.897461,4230.512695,4235.897461,4263.717773,3385.000000,4.000000,91.000000,,,,0.000000,4.000000,4.000000,4.000000,4.000000,4.000000,4.000000,4.000000,4.000000,4.000000,4.000000,4.000000,4.000000,4.000000,4.000000,100.000000,,,,,,,,,,,,,,,,
1645708384.444910,144.000000,0.000000,4227.692383,4241.538574,4233.717773,4248.077148,4233.974121,4224.487305,4224.230957,4223.205078,4219.615234,4242.692383,4253.333496,4223.846191,4232.948730,4259.358887,3386.000000,4.000000,91.000000,,,,0.000000,4.000000,4.000000,4.000000,4.000000,4.000000,4.000000,4.000000,4.000000,4.000000,4.000000,4.000000,4.000000,4.000000,4.000000,100.000000,,,,,,,,,,,,,,,,
1645708384.448850,145.000000,0.000000,4215.384766,4241.025879,4226.410156,4240.128418,4225.128418,4221.794922,4223.846191,4219.615234,4215.769043,4233.077148,4245.384766,4213.974121,4225.769043,4249.487305,3061.000000,4.000000,91.000000,,,,0.000000,4.000000,4.000000,4.000000,4.000000,4.000000,4.000000,4.000000,4.000000,4.000000,4.000000,4.000000,4.000000,4.000000,4.000000,100.000000,,,,,,,,,,,,,,,,
1645708384.452791,146.000000,0.000000,4201.538574,4235.128418,4217.051270,4229.102539,4221.025879,4217.820313,4222.051270,4216.025879,4213.589844,4223.846191,4236.794922,4204.487305,4218.846191,4238.846191,2662.000000,4.000000,91.000000,,,,0.000000,4.000000,4.000000,4.000000,4.000000,4.000000,4.000000,4.000000,4.000000,4.000000,4.000000,4.000000,4.000000,4.000000,4.000000,100.000000,,,,,,,,,,,,,,,,
1645708384.456731,147.000000,0.000000,4193.333496,4226.025879,4210.128418,4223.461426,4225.128418,4214.487305,4219.230957,4212.948730,4214.487305,4219.102539,4231.666504,4199.615234,4216.410156,4232.179688,3385.000000,4.000000,91.000000,,,,0.000000,4.000000,4.000000,4.000000,4.000000,4.000000,4.000000,4.000000,4.000000,4.000000,4.000000,4.000000,4.000000,4.000000,4.000000,100.000000,,,,,,,,,,,,,,,,
1645708384.460671,148.000000,0.000000,4194.102539,4217.948730,4208.461426,4226.538574,4233.077148,4213.077148,4216.410156,4210.641113,4216.666504,4218.461426,4231.410156,4200.897461,4218.846191,4231.282227,3386.000000,4.000000,91.000000,,,,0.000000,4.000000,4.000000,4.000000,4.000000,4.000000,4.000000,4.000000,4.000000,4.000000,4.000000,4.000000,4.000000,4.000000,4.000000,100.000000,,,,,,,,,,,,,,,,
1645708384.464611,149.000000,0.000000,4201.153809,4215.256348,4211.922852,4235.128418,4237.820313,4213.461426,4215.641113,4209.230957,4217.563965,4219.487305,4234.358887,4206.025879,4223.717773,4234.615234,3061.000000,4.000000,91.000000,,,,0.000000,4.000000,4.000000,4.000000,4.000000,4.000000,4.000000,4.000000,4.000000,4.000000,4.000000,4.000000,4.000000,4.000000,4.000000,100.000000,,,,,,,,,,,,,,,,
1645708384.468551,150.000000,0.000000,4208.717773,4218.974121,4217.436035,4242.179688,4234.743652,4215.128418,4217.307617,4208.974121,4216.410156,4220.000000,4238.205078,4211.025879,4227.307617,4238.974121,2662.000000,4.000000,91.000000,,,,0.000000,4.000000,4.000000,4.000000,4.000000,4.000000,4.000000,4.000000,4.000000,4.000000,4.000000,4.000000,4.000000,4.000000,4.000000,100.000000,,,,,,,,,,,,,,,,
1645708384.472491,151.000000,0.000000,4212.692383,4225.897461,4220.769043,4243.333496,4226.794922,4217.051270,4219.743652,4209.743652,4214.230957,4220.384766,4241.153809,4213.077148,4228.077148,4242.307617,3385.000000,4.000000,91.000000,,,,0.000000,4.000000,4.000000,4.000000,4.000000,4.000000,4.000000,4.000000,4.000000,4.000000,4.000000,4.000000,4.000000,4.000000,4.000000,100.000000,,,,,,,,,,,,,,,,
1645708384.476431,152.000000,0.000000,4212.436035,4230.256348,4220.769043,4239.230957,4220.256348,4217.948730,4220.128418,4210.897461,4212.948730,4221.538574,4242.820313,4212.436035,4227.436035,4244.871582,3386.000000,4.000000,91.000000,,,,0.000000,4.000000,4.000000,4.000000,4.000000,4.000000,4.000000,4.000000,4.000000,4.000000,4.000000,4.000000,4.000000,4.000000,4.000000,100.000000,,,,,,,,,,,,,,,,
1645708384.480371,153.000000,0.000000,4210.512695,4228.589844,4219.615234,4233.974121,4219.615234,4217.051270,4217.179688,4212.179688,4213.205078,4223.333496,4242.820313,4211.025879,4227.436035,4247.051270,3061.000000,4.000000,91.000000,,,,0.000000,4.000000,4.000000,4.000000,4.000000,4.000000,4.000000,4.000000,4.000000,4.000000,4.000000,4.000000,4.000000,4.000000,4.000000,100.000000,,,,,,,,,,,,,,,,
1645708384.484311,154.000000,0.000000,4210.128418,4223.077148,4220.512695,4230.512695,4224.230957,4214.871582,4212.948730,4213.717773,4214.487305,4224.871582,4241.666504,4210.769043,4229.102539,4248.589844,2662.000000,4.000000,91.000000,,,,0.000000,4.000000,4.000000,4.000000,4.000000,4.000000,4.000000,4.000000,4.000000,4.000000,4.000000,4.000000,4.000000,4.000000,4.000000,100.000000,,,,,,,,,,,,,,,,
1645708384.488251,155.000000,0.000000,4212.179688,4219.358887,4224.102539,4229.487305,4229.615234,4213.205078,4210.641113,4215.384766,4216.153809,4226.410156,4241.025879,4211.666504,4231.794922,4249.358887,3385.000000,4.000000,91.000000,,,,0.000000,4.000000,4.000000,4.000000,4.000000,4.000000,4.000000,4.000000,4.000000,4.000000,4.000000,4.000000,4.000000,4.000000,4.000000,100.000000,,,,,,,,,,,,,,,,
1645708384.492192,156.000000,0.000000,4215.769043,4222.179688,4228.077148,4230.512695,4232.307617,4213.461426,4211.666504,4216.538574,4217.563965,4228.717773,4242.948730,4212.692383,4234.615234,4249.102539,3386.000000,4.000000,91.000000,,,,0.000000,4.000000,4.000000,4.000000,4.000000,4.000000,4.000000,4.000000,4.000000,4.000000,4.000000,4.000000,4.000000,4.000000,4.000000,100.000000,,,,,,,,,,,,,,,,
1645708384.496132,157.000000,0.000000,4219.230957,4231.794922,4229.230957,4233.205078,4232.692383,4215.128418,4214.615234,4216.666504,4219.358887,4231.922852,4247.436035,4212.692383,4236.922852,4247.820313,3061.000000,4.000000,91.000000,,,,0.000000,4.000000,4.000000,4.000000,4.000000,4.000000,4.000000,4.000000,4.000000,4.000000,4.000000,4.000000,4.000000,4.000000,4.000000,100.000000,,,,,,,,,,,,,,,,
1645708384.500072,158.000000,0.000000,4221.025879,4243.077148,4226.922852,4238.077148,4233.333496,4216.410156,4216.922852,4215.769043,4221.794922,4234.487305,4252.307617,4211.153809,4237.563965,4245.641113,2662.000000,4.000000,91.000000,,,,0.000000,4.000000,4.000000,4.000000,4.000000,4.000000,4.000000,4.000000,4.000000,4.000000,4.000000,4.000000,4.000000,4.000000,4.000000,100.000000,,,,,,,,,,,,,,,,
1645708384.504012,159.000000,0.000000,4220.641113,4250.641113,4223.077148,4245.128418,4235.512695,4216.666504,4217.563965,4215.000000,4224.230957,4235.256348,4255.128418,4209.102539,4236.666504,4243.589844,3385.000000,4.000000,91.000000,,,,0.000000,4.000000,4.000000,4.000000,4.000000,4.000000,4.000000,4.000000,4.000000,4.000000,4.000000,4.000000,4.000000,4.000000,4.000000,100.000000,,,,,,,,,,,,,,,,
1645708384.507952,160.000000,0.000000,4219.230957,4252.179688,4221.282227,4253.461426,4238.333496,4217.563965,4218.077148,4215.512695,4225.128418,4234.871582,4255.512695,4208.974121,4235.512695,4243.461426,3386.000000,4.000000,91.000000,,,,0.000000,4.000000,4.000000,4.000000,4.000000,4.000000,4.000000,4.000000,4.000000,4.000000,4.000000,4.000000,4.000000,4.000000,4.000000,100.000000,,,,,,,,,,,,,,,,
1645708384.511892,161.000000,0.000000,4219.230957,4249.358887,4223.205078,4260.256348,4239.871582,4220.769043,4220.000000,4217.692383,4224.102539,4235.641113,4255.000000,4212.307617,4235.512695,4246.410156,3061.000000,4.000000,91.000000,,,,0.000000,4.000000,4.000000,4.000000,4.000000,4.000000,4.000000,4.000000,4.000000,4.000000,4.000000,4.000000,4.000000,4.000000,4.000000,100.000000,,,,,,,,,,,,,,,,
1645708384.515832,162.000000,0.000000,4221.153809,4245.000000,4227.820313,4261.794922,4238.846191,4226.153809,4223.333496,4220.512695,4221.538574,4238.205078,4254.743652,4218.205078,4237.436035,4251.025879,2662.000000,4.000000,91.000000,,,,0.000000,4.000000,4.000000,4.000000,4.000000,4.000000,4.000000,4.000000,4.000000,4.000000,4.000000,4.000000,4.000000,4.000000,4.000000,100.000000,,,,,,,,,,,,,,,,
1645708384.519772,163.000000,0.000000,4222.948730,4240.384766,4231.538574,4255.897461,4235.512695,4230.897461,4226.410156,4221.922852,4219.358887,4240.128418,4253.589844,4222.820313,4239.615234,4253.333496,3385.000000,4.000000,91.000000,,,,0.000000,4.000000,4.000000,4.000000,4.000000,4.000000,4.000000,4.000000,4.000000,4.000000,4.000000,4.000000,4.000000,4.000000,4.000000,100.000000,,,,,,,,,,,,,,,,
1645708384.523712,164.000000,0.000000,4221.538574,4234.743652,4231.410156,4244.615234,4231.410156,4231.922852,4227.051270,4221.025879,4218.205078,4238.461426,4250.512695,4222.563965,4240.256348,4250.769043,3386.000000,4.000000,91.000000,,,,0.000000,4.000000,4.000000,4.000000,4.000000,4.000000,4.000000,4.000000,4.000000,4.000000,4.000000,4.000000,4.000000,4.000000,4.000000,100.000000,,,,,,,,,,,,,,,,
1645708384.527653,165.000000,0.000000,4216.794922,4227.948730,4227.307617,4234.230957,4229.102539,4229.102539,4225.000000,4218.974121,4218.589844,4233.461426,4246.153809,4217.051270,4238.461426,4244.358887,3061.000000,4.000000,91.000000,,,,0.000000,4.000000,4.000000,4.000000,4.000000,4.000000,4.000000,4.000000,4.000000,4.000000,4.000000,4.000000,4.000000,4.000000,4.000000,100.000000,,,,,,,,,,,,,,,,
1645708384.531593,166.000000,0.000000,4212.051270,4222.307617,4222.307617,4231.153809,4230.641113,4225.384766,4221.922852,4217.692383,4219.743652,4228.717773,4243.333496,4209.871582,4235.641113,4238.846191,2662.000000,4.000000,91.000000,,,,0.000000,4.000000,4.000000,4.000000,4.000000,4.000000,4.000000,4.000000,4.000000,4.000000,4.000000,4.000000,4.000000,4.000000,4.000000,100.000000,,,,,,,,,,,,,,,,
1645708384.535533,167.000000,0.000000,4211.153809,4220.897461,4220.128418,4236.538574,4235.256348,4224.230957,4220.256348,4218.461426,4221.153809,4227.436035,4243.846191,4205.769043,4233.717773,4237.820313,3385.000000,4.000000,91.000000,,,,0.000000,4.000000,4.000000,4.000000,4.000000,4.000000,4.000000,4.000000,4.000000,4.000000,4.000000,4.000000,4.000000,4.000000,4.000000,100.000000,,,,,,,,,,,,,,,,
1645708384.539473,168.000000,0.000000,4214.743652,4224.230957,4222.179688,4245.128418,4239.487305,4226.153809,4221.282227,4221.025879,4222.179688,4230.256348,4246.666504,4206.922852,4233.974121,4241.153809,3386.000000,4.000000,91.000000,,,,0.000000,4.000000,4.000000,4.000000,4.000000,4.000000,4.000000,4.000000,4.000000,4.000000,4.000000,4.000000,4.000000,4.000000,4.000000,100.000000,,,,,,,,,,,,,,,,
1645708384.543413,169.000000,0.000000,4219.487305,4229.743652,4227.563965,4250.128418,4241.153809,4229.615234,4225.000000,4224.871582,4223.461426,4234.743652,4249.871582,4212.563965,4236.153809,4246.410156,3061.000000,4.000000,91.000000,,,,0.000000,4.000000,4.000000,4.000000,4.000000,4.000000,4.000000,4.000000,4.000000,4.000000,4.000000,4.000000,4.000000,4.000000,4.000000,100.000000,,,,,,,,,,,,,,,,
1645708384.547353,170.000000,0.000000,4222.820313,4234.743652,4232.692383,4249.743652,4242.051270,4232.563965,4229.871582,4229.487305,4225.897461,4239.102539,4252.820313,4220.256348,4240.128418,4251.794922,2662.000000,4.000000,91.000000,1,1,1,0.000000,4.000000,4.000000,4.000000,4.000000,4.000000,4.000000,4.000000,4.000000,4.000000,4.000000,4.000000,4.000000,4.000000,4.000000,100.000000,,,,,,,,,,,,,,,,
1645708384.551393,171.000000,0.000000,4224.230957,4238.589844,4235.000000,4248.717773,4245.897461,4234.743652,4233.846191,4234.230957,4229.743652,4243.589844,4256.794922,4227.179688,4245.512695,4257.820313,3385.000000,4.000000,91.000000,,,,0.000000,4.000000,4.000000,4.000000,4.000000,4.000000,4.000000,4.000000,4.000000,4.000000,4.000000,4.000000,4.000000,4.000000,4.000000,100.000000,,,,,,,,,,,,,,,,
1645708384.555333,172.000000,0.000000,4226.025879,4243.333496,4234.871582,4251.794922,4253.333496,4236.666504,4235.512695,4238.461426,4233.589844,4248.974121,4262.436035,4232.179688,4251.666504,4265.256348,3386.000000,4.000000,91.000000,,,,0.000000,4.000000,4.000000,4.000000,4.000000,4.000000,4.000000,4.000000,4.000000,4.000000,4.000000,4.000000,4.000000,4.000000,4.000000,100.000000,,,,,,,,,,,,,,,,
1645708384.559273,173.000000,0.000000,4229.358887,4249.102539,4235.769043,4258.333496,4259.743652,4238.205078,4235.384766,4241.538574,4235.641113,4254.743652,4268.461426,4234.615234,4257.307617,4272.307617,3061.000000,4.000000,91.000000,,,,0.000000,4.000000,4.000000,4.000000,4.000000,4.000000,4.000000,4.000000,4.000000,4.000000,4.000000,4.000000,4.000000,4.000000,4.000000,100.000000,,,,,,,,,,,,,,,,
1645708384.563213,174.000000,0.000000,4233.717773,4253.846191,4239.871582,4263.589844,4259.102539,4239.230957,4235.000000,4243.205078,4235.128418,4258.974121,4272.307617,4234.743652,4260.897461,4275.256348,2662.000000,4.000000,91.000000,,,,0.000000,4.000000,4.000000,4.000000,4.000000,4.000000,4.000000,4.000000,4.000000,4.000000,4.000000,4.000000,4.000000,4.000000,4.000000,100.000000,,,,,,,,,,,,,,,,
1645708384.567154,175.000000,0.000000,4236.922852,4254.487305,4246.282227,4263.077148,4250.769043,4239.871582,4235.641113,4243.461426,4233.077148,4260.769043,4272.692383,4232.820313,4262.179688,4272.692383,3385.000000,4.000000,91.000000,,,,0.000000,4.000000,4.000000,4.000000,4.000000,4.000000,4.000000,4.000000,4.000000,4.000000,4.000000,4.000000,4.000000,4.000000,4.000000,100.000000,,,,,,,,,,,,,,,,
1645708384.571094,176.000000,0.000000,4237.307617,4250.897461,4251.025879,4257.563965,4241.153809,4240.769043,4236.538574,4242.563965,4231.282227,4260.641113,4270.512695,4229.615234,4261.282227,4266.794922,3386.000000,4.000000,91.000000,,,,0.000000,4.000000,4.000000,4.000000,4.000000,4.000000,4.000000,4.000000,4.000000,4.000000,4.000000,4.000000,4.000000,4.000000,4.000000,100.000000,,,,,,,,,,,,,,,,
1645708384.575034,177.000000,0.000000,4234.358887,4246.025879,4250.769043,4251.153809,4237.820313,4242.179688,4236.410156,4240.897461,4231.153809,4260.000000,4267.307617,4226.538574,4258.846191,4261.666504,3061.000000,4.000000,91.000000,,,,0.000000,4.000000,4.000000,4.000000,4.000000,4.000000,4.000000,4.000000,4.000000,4.000000,4.000000,4.000000,4.000000,4.000000,4.000000,100.000000,,,,,,,,,,,,,,,,
1645708384.578974,178.000000,0.000000,4229.102539,4243.205078,4245.384766,4247.948730,4242.563965,4242.436035,4234.871582,4238.846191,4232.307617,4259.615234,4264.230957,4224.615234,4255.128418,4259.358887,2662.000000,4.000000,91.000000,,,,0.000000,4.000000,4.000000,4.000000,4.000000,4.000000,4.000000,4.000000,4.000000,4.000000,4.000000,4.000000,4.000000,4.000000,4.000000,100.000000,,,,,,,,,,,,,,,,
1645708384.582914,179.000000,0.000000,4223.461426,4243.589844,4237.948730,4248.846191,4250.000000,4240.384766,4232.692383,4237.307617,4233.205078,4258.589844,4260.897461,4223.846191,4250.512695,4259.102539,3385.000000,4.000000,91.000000,,,,0.000000,4.000000,4.000000,4.000000,4.000000,4.000000,4.000000,4.000000,4.000000,4.000000,4.000000,4.000000,4.000000,4.000000,4.000000,100.000000,,,,,,,,,,,,,,,,
1645708384.586854,180.000000,0.000000,4220.000000,4246.410156,4232.948730,4252.051270,4252.563965,4236.666504,4231.153809,4236.538574,4232.307617,4255.769043,4257.436035,4223.589844,4246.794922,4260.000000,3386.000000,4.000000,91.000000,,,,0.000000,4.000000,4.000000,4.000000,4.000000,4.000000,4.000000,4.000000,4.000000,4.000000,4.000000,4.000000,4.000000,4.000000,4.000000,100.000000,,,,,,,,,,,,,,,,
1645708384.590794,181.000000,0.000000,4220.769043,4249.871582,4233.333496,4254.487305,4248.077148,4233.333496,4231.282227,4235.897461,4229.871582,4251.025879,4254.871582,4223.077148,4245.897461,4261.666504,3061.000000,4.000000,91.000000,,,,0.000000,4.000000,4.000000,4.000000,4.000000,4.000000,4.000000,4.000000,4.000000,4.000000,4.000000,4.000000,4.000000,4.000000,4.000000,100.000000,,,,,,,,,,,,,,,,
1645708384.594734,182.000000,0.000000,4225.384766,4251.666504,4238.461426,4254.487305,4240.000000,4232.563965,4232.948730,4235.000000,4227.820313,4246.282227,4254.615234,4222.307617,4248.077148,4264.102539,2662.000000,4.000000,91.000000,,,,0.000000,4.000000,4.000000,4.000000,4.000000,4.000000,4.000000,4.000000,4.000000,4.000000,4.000000,4.000000,4.000000,4.000000,4.000000,100.000000,,,,,,,,,,,,,,,,
1645708384.598674,183.000000,0.000000,4230.512695,4250.769043,4245.256348,4252.436035,4233.846191,4234.487305,4235.256348,4235.128418,4228.077148,4244.102539,4256.666504,4221.922852,4251.538574,4266.794922,3385.000000,4.000000,91.000000,,,,0.000000,4.000000,4.000000,4.000000,4.000000,4.000000,4.000000,4.000000,4.000000,4.000000,4.000000,4.000000,4.000000,4.000000,4.000000,100.000000,,,,,,,,,,,,,,,,
1645708384.602614,184.000000,0.000000,4233.205078,4248.205078,4249.743652,4250.128418,4233.717773,4237.948730,4237.820313,4238.077148,4230.897461,4246.282227,4259.871582,4222.692383,4254.102539,4268.717773,3386.000000,4.000000,91.000000,,,,0.000000,4.000000,4.000000,4.000000,4.000000,4.000000,4.000000,4.000000,4.000000,4.000000,4.000000,4.000000,4.000000,4.000000,4.000000,100.000000,,,,,,,,,,,,,,,,
1645708384.606555,185.000000,0.000000,4232.436035,4246.282227,4249.743652,4248.589844,4239.615234,4241.153809,4240.128418,4243.205078,4235.384766,4252.307617,4262.692383,4224.871582,4254.615234,4269.102539,3061.000000,4.000000,91.000000,,,,0.000000,4.000000,4.000000,4.000000,4.000000,4.000000,4.000000,4.000000,4.000000,4.000000,4.000000,4.000000,4.000000,4.000000,4.000000,100.000000,,,,,,,,,,,,,,,,
1645708384.610495,186.000000,0.000000,4230.256348,4247.179688,4245.897461,4247.563965,4248.461426,4243.205078,4241.282227,4247.563965,4239.358887,4259.230957,4263.974121,4227.563965,4254.102539,4268.333496,2662.000000,4.000000,91.000000,,,,0.000000,4.000000,4.000000,4.000000,4.000000,4.000000,4.000000,4.000000,4.000000,4.000000,4.000000,4.000000,4.000000,4.000000,4.000000,100.000000,,,,,,,,,,,,,,,,
1645708384.614335,187.000000,0.000000,4228.333496,4249.871582,4240.512695,4246.153809,4255.256348,4244.102539,4240.641113,4247.436035,4240.769043,4263.205078,4263.461426,4228.333496,4253.589844,4267.307617,3385.000000,4.000000,91.000000,,,,0.000000,4.000000,4.000000,4.000000,4.000000,4.000000,4.000000,4.000000,4.000000,4.000000,4.000000,4.000000,4.000000,4.000000,4.000000,100.000000,,,,,,,,,,,,,,,,
1645708384.618275,188.000000,0.000000,4227.563965,4250.641113,4236.538574,4244.487305,4255.769043,4243.589844,4238.205078,4242.179688,4238.846191,4261.282227,4260.641113,4226.025879,4253.333496,4266.666504,3386.000000,4.000000,91.000000,,,,0.000000,4.000000,4.000000,4.000000,4.000000,4.000000,4.000000,4.000000,4.000000,4.000000,4.000000,4.000000,4.000000,4.000000,4.000000,100.000000,,,,,,,,,,,,,,,,
1645708384.622215,189.000000,0.000000,4227.692383,4246.666504,4235.128418,4243.846191,4249.358887,4242.179688,4235.256348,4234.743652,4234.102539,4254.102539,4255.897461,4221.153809,4252.436035,4266.666504,3061.000000,4.000000,91.000000,,,,0.000000,4.000000,4.000000,4.000000,4.000000,4.000000,4.000000,4.000000,4.000000,4.000000,4.000000,4.000000,4.000000,4.000000,4.000000,100.000000,,,,,,,,,,,,,,,,
1645708384.626155,190.000000,0.000000,4228.461426,4239.743652,4235.897461,4245.769043,4240.256348,4240.769043,4233.974121,4229.487305,4229.230957,4245.641113,4250.641113,4216.538574,4250.769043,4267.179688,2662.000000,4.000000,91.000000,,,,0.000000,4.000000,4.000000,4.000000,4.000000,4.000000,4.000000,4.000000,4.000000,4.000000,4.000000,4.000000,4.000000,4.000000,4.000000,100.000000,,,,,,,,,,,,,,,,
1645708384.630095,191.000000,0.000000,4229.743652,4234.871582,4236.922852,4249.743652,4235.384766,4240.512695,4235.128418,4228.717773,4227.051270,4240.641113,4247.436035,4214.743652,4248.717773,4268.205078,3385.000000,4.000000,91.000000,,,,0.000000,4.000000,4.000000,4.000000,4.000000,4.000000,4.000000,4.000000,4.000000,4.000000,4.000000,4.000000,4.000000,4.000000,4.000000,100.000000,,,,,,,,,,,,,,,,
1645708384.634035,192.000000,0.000000,4230.769043,4236.410156,4236.794922,4253.205078,4237.820313,4241.794922,4237.563965,4231.153809,4228.717773,4241.666504,4247.307617,4216.282227,4247.563965,4269.102539,3386.000000,4.000000,91.000000,,,,0.000000,4.000000,4.000000,4.000000,4.000000,4.000000,4.000000,4.000000,4.000000,4.000000,4.000000,4.000000,4.000000,4.000000,4.000000,100.000000,,,,,,,,,,,,,,,,
1645708384.637976,193.000000,0.000000,4230.256348,4243.333496,4235.128418,4252.820313,4244.487305,4243.717773,4238.974121,4233.717773,4232.436035,4246.025879,4249.230957,4218.846191,4247.948730,4268.846191,3061.000000,4.000000,91.000000,,,,0.000000,4.000000,4.000000,4.000000,4.000000,4.000000,4.000000,4.000000,4.000000,4.000000,4.000000,4.000000,4.000000,4.000000,4.000000,100.000000,,,,,,,,,,,,,,,,
1645708384.641916,194.000000,0.000000,4227.820313,4251.025879,4233.589844,4248.461426,4249.102539,4244.230957,4238.077148,4233.717773,4234.871582,4249.230957,4250.384766,4219.615234,4249.230957,4266.153809,2662.000000,4.000000,91.000000,,,,0.000000,4.000000,4.000000,4.000000,4.000000,4.000000,4.000000,4.000000,4.000000,4.000000,4.000000,4.000000,4.000000,4.000000,4.000000,100.000000,,,,,,,,,,,,,,,,
1645708384.645856,195.000000,0.000000,4224.487305,4254.743652,4232.692383,4243.205078,4248.077148,4242.820313,4236.025879,4230.512695,4233.205078,4248.333496,4249.102539,4217.179688,4249.871582,4261.538574,3385.000000,4.000000,91.000000,,,,0.000000,4.000000,4.000000,4.000000,4.000000,4.000000,4.000000,4.000000,4.000000,4.000000,4.000000,4.000000,4.000000,4.000000,4.000000,100.000000,,,,,,,,,,,,,,,,
1645708384.649696,196.000000,0.000000,4222.307617,4253.077148,4232.436035,4241.410156,4243.205078,4240.000000,4234.743652,4225.128418,4227.692383,4244.743652,4246.922852,4213.077148,4249.230957,4256.922852,3386.000000,4.000000,91.000000,,,,0.000000,4.000000,4.000000,4.000000,4.000000,4.000000,4.000000,4.000000,4.000000,4.000000,4.000000,4.000000,4.000000,4.000000,4.000000,100.000000,,,,,,,,,,,,,,,,
1645708384.653636,197.000000,0.000000,4222.179688,4248.461426,4232.051270,4244.358887,4238.717773,4236.922852,4234.230957,4219.743652,4221.794922,4241.282227,4246.153809,4209.358887,4247.948730,4253.846191,3061.000000,4.000000,91.000000,,,,0.000000,4.000000,4.000000,4.000000,4.000000,4.000000,4.000000,4.000000,4.000000,4.000000,4.000000,4.000000,4.000000,4.000000,4.000000,100.000000,,,,,,,,,,,,,,,,
1645708384.657576,198.000000,0.000000,4223.333496,4243.974121,4231.410156,4248.846191,4236.794922,4233.461426,4232.563965,4215.128418,4218.333496,4239.743652,4246.922852,4206.922852,4246.666504,4251.922852,2662.000000,4.000000,91.000000,2,1,1,0.000000,4.000000,4.000000,4.000000,4.000000,4.000000,4.000000,4.000000,4.000000,4.000000,4.000000,4.000000,4.000000,4.000000,4.000000,100.000000,,,,,,,,,,,,,,,,
1645708384.661516,199.000000,0.000000,4223.461426,4241.410156,4230.897461,4250.128418,4235.897461,4229.230957,4228.205078,4211.410156,4217.692383,4238.333496,4246.666504,4205.128418,4245.000000,4249.615234,3385.000000,4.000000,91.000000,,,,0.000000,4.000000,4.000000,4.000000,4.000000,4.000000,4.000000,4.000000,4.000000,4.000000,4.000000,4.000000,4.000000,4.000000,4.000000,100.000000,,,,,,,,,,,,,,,,
1645708384.665456,200.000000,0.000000,4221.538574,4240.641113,4230.384766,4246.282227,4234.871582,4224.743652,4222.307617,4208.589844,4218.205078,4235.384766,4243.077148,4202.563965,4242.051270,4246.410156,3386.000000,4.000000,91.000000,,,,0.000000,4.000000,4.000000,4.000000,4.000000,4.000000,4.000000,4.000000,4.000000,4.000000,4.000000,4.000000,4.000000,4.000000,4.000000,100.000000,,,,,,,,,,,,,,,,
1645708384.669396,201.000000,0.000000,4218.846191,4241.410156,4229.487305,4240.512695,4235.000000,4222.051270,4218.205078,4207.436035,4218.333496,4231.922852,4237.692383,4199.230957,4238.717773,4243.077148,3061.000000,4.000000,91.000000,,,,0.000000,4.000000,4.000000,4.000000,4.000000,4.000000,4.000000,4.000000,4.000000,4.000000,4.000000,4.000000,4.000000,4.000000,4.000000,100.000000,,,,,,,,,,,,,,,,
1645708384.673337,202.000000,0.000000,4218.461426,4243.717773,4228.589844,4237.820313,4238.333496,4222.948730,4218.333496,4209.615234,4218.589844,4231.538574,4235.128418,4197.179688,4237.563965,4242.307617,2662.000000,4.000000,91.000000,,,,0.000000,4.000000,4.000000,4.000000,4.000000,4.000000,4.000000,4.000000,4.000000,4.000000,4.000000,4.000000,4.000000,4.000000,4.000000,100.000000,,,,,,,,,,,,,,,,
1645708384.677277,203.000000,0.000000,4221.666504,4247.051270,4228.717773,4240.641113,4244.230957,4227.436035,4221.922852,4215.256348,4220.256348,4236.153809,4238.205078,4198.589844,4240.641113,4245.256348,3385.000000,4.000000,91.000000,,,,0.000000,4.000000,4.000000,4.000000,4.000000,4.000000,4.000000,4.000000,4.000000,4.000000,4.000000,4.000000,4.000000,4.000000,4.000000,100.000000,,,,,,,,,,,,,,,,
1645708384.681217,204.000000,0.000000,4226.538574,4249.358887,4231.153809,4245.641113,4248.461426,4232.436035,4226.025879,4222.307617,4223.461426,4243.589844,4245.000000,4203.974121,4246.922852,4250.512695,3386.000000,4.000000,91.000000,,,,0.000000,4.000000,4.000000,4.000000,4.000000,4.000000,4.000000,4.000000,4.000000,4.000000,4.000000,4.000000,4.000000,4.000000,4.000000,100.000000,,,,,,,,,,,,,,,,
1645708384.685157,205.000000,0.000000,4229.358887,4248.461426,4235.128418,4247.179688,4247.051270,4234.230957,4228.205078,4227.051270,4226.794922,4249.358887,4250.897461,4210.897461,4252.692383,4254.615234,3061.000000,4.000000,91.000000,,,,0.000000,4.000000,4.000000,4.000000,4.000000,4.000000,4.000000,4.000000,4.000000,4.000000,4.000000,4.000000,4.000000,4.000000,4.000000,100.000000,,,,,,,,,,,,,,,,
1645708384.689197,206.000000,0.000000,4227.436035,4244.487305,4237.563965,4243.589844,4240.897461,4231.922852,4227.051270,4227.051270,4228.333496,4250.769043,4251.922852,4216.153809,4254.358887,4254.871582,2662.000000,4.000000,91.000000,,,,0.000000,4.000000,4.000000,4.000000,4.000000,4.000000,4.000000,4.000000,4.000000,4.000000,4.000000,4.000000,4.000000,4.000000,4.000000,100.000000,,,,,,,,,,,,,,,,
1645708384.693137,207.000000,0.000000,4222.051270,4240.000000,4235.641113,4238.333496,4234.615234,4227.692383,4223.589844,4223.333496,4227.307617,4249.358887,4248.461426,4216.794922,4251.025879,4251.666504,3385.000000,4.000000,91.000000,,,,0.000000,4.000000,4.000000,4.000000,4.000000,4.000000,4.000000,4.000000,4.000000,4.000000,4.000000,4.000000,4.000000,4.000000,4.000000,100.000000,,,,,,,,,,,,,,,,
1645708384.697077,208.000000,0.000000,4216.538574,4238.589844,4229.102539,4235.384766,4232.563965,4225.128418,4219.615234,4218.589844,4225.000000,4246.794922,4243.205078,4212.563965,4244.871582,4247.436035,3386.000000,4.000000,91.000000,,,,0.000000,4.000000,4.000000,4.000000,4.000000,4.000000,4.000000,4.000000,4.000000,4.000000,4.000000,4.000000,4.000000,4.000000,4.000000,100.000000,,,,,,,,,,,,,,,,
1645708384.701017,209.000000,0.000000,4213.333496,4241.666504,4221.282227,4235.256348,4233.974121,4225.641113,4217.307617,4215.000000,4222.948730,4243.205078,4238.333496,4205.128418,4238.589844,4244.230957,3061.000000,4.000000,91.000000,,,,0.000000,4.000000,4.000000,4.000000,4.000000,4.000000,4.000000,4.000000,4.000000,4.000000,4.000000,4.000000,4.000000,4.000000,4.000000,100.000000,,,,,,,,,,,,,,,,
1645708384.704957,210.000000,0.000000,4212.179688,4247.179688,4216.410156,4235.897461,4235.384766,4227.692383,4217.820313,4213.461426,4221.282227,4237.692383,4234.615234,4198.077148,4234.102539,4243.077148,2662.000000,4.000000,91.000000,,,,0.000000,4.000000,4.000000,4.000000,4.000000,4.000000,4.000000,4.000000,4.000000,4.000000,4.000000,4.000000,4.000000,4.000000,4.000000,100.000000,,,,,,,,,,,,,,,,
1645708384.708897,211.000000,0.000000,4212.051270,4251.666504,4216.922852,4235.512695,4234.871582,4229.743652,4221.153809,4214.102539,4219.871582,4231.410156,4231.794922,4194.358887,4231.794922,4243.846191,3385.000000,4.000000,91.000000,,,,0.000000,4.000000,4.000000,4.000000,4.000000,4.000000,4.000000,4.000000,4.000000,4.000000,4.000000,4.000000,4.000000,4.000000,4.000000,100.000000,,,,,,,,,,,,,,,,
1645708384.712838,212.000000,0.000000,4212.051270,4252.179688,4221.666504,4234.358887,4234.615234,4231.153809,4225.512695,4216.794922,4218.717773,4227.948730,4230.256348,4194.615234,4231.794922,4246.025879,3386.000000,4.000000,91.000000,,,,0.000000,4.000000,4.000000,4.000000,4.000000,4.000000,4.000000,4.000000,4.000000,4.000000,4.000000,4.000000,4.000000,4.000000,4.000000,100.000000,,,,,,,,,,,,,,,,
1645708384.716778,213.000000,0.000000,4212.307617,4248.077148,4227.307617,4232.307617,4236.794922,4232.179688,4228.846191,4220.769043,4218.846191,4230.128418,4231.153809,4197.563965,4233.846191,4248.205078,3061.000000,4.000000,91.000000,,,,0.000000,4.000000,4.000000,4.000000,4.000000,4.000000,4.000000,4.000000,4.000000,4.000000,4.000000,4.000000,4.000000,4.000000,4.000000,100.000000,,,,,,,,,,,,,,,,
1645708384.720718,214.000000,0.000000,4212.692383,4241.410156,4231.025879,4228.205078,4240.897461,4232.179688,4229.615234,4224.871582,4220.897461,4236.282227,4234.230957,4200.384766,4236.794922,4248.846191,2662.000000,4.000000,91.000000,,,,0.000000,4.000000,4.000000,4.000000,4.000000,4.000000,4.000000,4.000000,4.000000,4.000000,4.000000,4.000000,4.000000,4.000000,4.000000,100.000000,,,,,,,,,,,,,,,,
1645708384.724658,215.000000,0.000000,4213.205078,4235.512695,4232.051270,4222.307617,4243.717773,4230.641113,4228.077148,4227.051270,4223.461426,4242.307617,4237.948730,4201.025879,4239.102539,4247.436035,3385.000000,4.000000,91.000000,,,,0.000000,4.000000,4.000000,4.000000,4.000000,4.000000,4.000000,4.000000,4.000000,4.000000,4.000000,4.000000,4.000000,4.000000,4.000000,100.000000,,,,,,,,,,,,,,,,
1645708384.728598,216.000000,0.000000,4213.589844,4233.205078,4231.282227,4217.948730,4242.692383,4228.461426,4225.256348,4226.410156,4225.128418,4244.615234,4240.769043,4199.871582,4240.256348,4245.256348,3386.000000,4.000000,91.000000,,,,0.000000,4.000000,4.000000,4.000000,4.000000,4.000000,4.000000,4.000000,4.000000,4.000000,4.000000,4.000000,4.000000,4.000000,4.000000,100.000000,,,,,,,,,,,,,,,,
1645708384.732538,217.000000,0.000000,4214.358887,4235.384766,4230.000000,4218.333496,4239.102539,4227.307617,4223.205078,4223.717773,4225.641113,4243.974121,4242.307617,4199.102539,4240.641113,4245.384766,3061.000000,4.000000,91.000000,,,,0.000000,4.000000,4.000000,4.000000,4.000000,4.000000,4.000000,4.000000,4.000000,4.000000,4.000000,4.000000,4.000000,4.000000,4.000000,100.000000,,,,,,,,,,,,,,,,
1645708384.736478,218.000000,0.000000,4215.641113,4239.871582,4229.358887,4223.846191,4236.025879,4227.948730,4222.948730,4221.025879,4226.153809,4242.948730,4242.820313,4200.769043,4241.153809,4248.974121,2662.000000,4.000000,91.000000,,,,0.000000,4.000000,4.000000,4.000000,4.000000,4.000000,4.000000,4.000000,4.000000,4.000000,4.000000,4.000000,4.000000,4.000000,4.000000,100.000000,,,,,,,,,,,,,,,,
1645708384.740418,219.000000,0.000000,4217.179688,4243.333496,4230.000000,4231.538574,4235.000000,4229.358887,4224.230957,4220.000000,4227.051270,4243.717773,4242.563965,4204.743652,4241.794922,4254.102539,3385.000000,4.000000,91.000000,,,,0.000000,4.000000,4.000000,4.000000,4.000000,4.000000,4.000000,4.000000,4.000000,4.000000,4.000000,4.000000,4.000000,4.000000,4.000000,100.000000,,,,,,,,,,,,,,,,
1645708384.744358,220.000000,0.000000,4217.820313,4243.846191,4231.794922,4237.307617,4234.102539,4229.358887,4225.641113,4220.641113,4227.436035,4245.384766,4241.538574,4208.077148,4241.922852,4257.436035,3386.000000,4.000000,91.000000,,,,0.000000,4.000000,4.000000,4.000000,4.000000,4.000000,4.000000,4.000000,4.000000,4.000000,4.000000,4.000000,4.000000,4.000000,4.000000,100.000000,,,,,,,,,,,,,,,,
1645708384.748298,221.000000,0.000000,4217.307617,4241.922852,4234.230957,4239.230957,4230.641113,4227.948730,4226.025879,4221.538574,4226.282227,4246.410156,4240.256348,4208.717773,4241.794922,4256.282227,3061.000000,4.000000,91.000000,,,,0.000000,4.000000,4.000000,4.000000,4.000000,4.000000,4.000000,4.000000,4.000000,4.000000,4.000000,4.000000,4.000000,4.000000,4.000000,100.000000,,,,,,,,,,,,,,,,
1645708384.752239,222.000000,0.000000,4216.538574,4239.615234,4236.282227,4237.563965,4224.615234,4226.410156,4225.128418,4221.538574,4223.974121,4246.153809,4240.256348,4206.538574,4241.666504,4251.538574,2662.000000,4.000000,91.000000,,,,0.000000,4.000000,4.000000,4.000000,4.000000,4.000000,4.000000,4.000000,4.000000,4.000000,4.000000,4.000000,4.000000,4.000000,4.000000,100.000000,,,,,,,,,,,,,,,,
1645708384.756279,223.000000,0.000000,4216.025879,4238.589844,4236.794922,4233.461426,4219.358887,4226.025879,4223.589844,4220.897461,4222.051270,4245.641113,4242.179688,4203.846191,4241.922852,4245.512695,3385.000000,4.000000,91.000000,,,,0.000000,4.000000,4.000000,4.000000,4.000000,4.000000,4.000000,4.000000,4.000000,4.000000,4.000000,4.000000,4.000000,4.000000,4.000000,100.000000,,,,,,,,,,,,,,,,
1645708384.760219,224.000000,0.000000,4215.769043,4238.717773,4236.025879,4227.307617,4219.358887,4225.897461,4222.307617,4220.641113,4222.051270,4245.641113,4244.358887,4202.820313,4241.922852,4241.538574,3386.000000,4.000000,91.000000,,,,0.000000,4.000000,4.000000,4.000000,4.000000,4.000000,4.000000,4.000000,4.000000,4.000000,4.000000,4.000000,4.000000,4.000000,4.000000,100.000000,,,,,,,,,,,,,,,,
1645708384.764159,225.000000,0.000000,4215.384766,4239.871582,4235.128418,4220.641113,4225.769043,4223.974121,4221.794922,4221.410156,4223.589844,4246.153809,4245.128418,4204.102539,4241.410156,4241.666504,3061.000000,4.000000,91.000000,,,,0.000000,4.000000,4.000000,4.000000,4.000000,4.000000,4.000000,4.000000,4.000000,4.000000,4.000000,4.000000,4.000000,4.000000,4.000000,100.000000,,,,,,,,,,,,,,,,
1645708384.768099,226.000000,0.000000,4215.384766,4241.794922,4235.769043,4216.153809,4235.128418,4220.000000,4222.307617,4222.820313,4225.512695,4246.538574,4243.717773,4206.538574,4240.769043,4246.025879,2662.000000,4.000000,91.000000,,,,0.000000,4.000000,4.000000,4.000000,4.000000,4.000000,4.000000,4.000000,4.000000,4.000000,4.000000,4.000000,4.000000,4.000000,4.000000,100.000000,,,,,,,,,,,,,,,,
1645708384.772039,227.000000,0.000000,4216.794922,4244.615234,4238.205078,4216.794922,4241.922852,4216.025879,4223.333496,4224.230957,4226.282227,4246.282227,4241.794922,4208.589844,4240.897461,4251.922852,3385.000000,4.000000,91.000000,,,,0.000000,4.000000,4.000000,4.000000,4.000000,4.000000,4.000000,4.000000,4.000000,4.000000,4.000000,4.000000,4.000000,4.000000,4.000000,100.000000,,,,,,,,,,,,,,,,
1645708384.775979,228.000000,0.000000,4219.358887,4247.820313,4241.153809,4222.820313,4242.820313,4214.358887,4224.487305,4225.384766,4226.025879,4245.512695,4241.282227,4208.846191,4242.179688,4255.641113,3386.000000,4.000000,91.000000,,,,0.000000,4.000000,4.000000,4.000000,4.000000,4.000000,4.000000,4.000000,4.000000,4.000000,4.000000,4.000000,4.000000,4.000000,4.000000,100.000000,,,,,,,,,,,,,,,,
1645708384.779919,229.000000,0.000000,4221.794922,4249.615234,4243.205078,4230.897461,4238.589844,4215.256348,4225.641113,4226.538574,4225.128418,4244.230957,4242.563965,4207.179688,4243.846191,4254.871582,3061.000000,4.000000,91.000000,,,,0.000000,4.000000,4.000000,4.000000,4.000000,4.000000,4.000000,4.000000,4.000000,4.000000,4.000000,4.000000,4.000000,4.000000,4.000000,100.000000,,,,,,,,,,,,,,,,
1645708384.783859,230.000000,0.000000,4222.563965,4249.230957,4243.461426,4236.538574,4232.948730,4216.794922,4227.179688,4228.589844,4224.358887,4243.333496,4244.358887,4204.358887,4244.743652,4250.641113,2662.000000,4.000000,91.000000,,,,0.000000,4.000000,4.000000,4.000000,4.000000,4.000000,4.000000,4.000000,4.000000,4.000000,4.000000,4.000000,4.000000,4.000000,4.000000,100.000000,,,,,,,,,,,,,,,,
1645708384.787799,231.000000,0.000000,4221.922852,4246.922852,4242.307617,4236.538574,4229.487305,4217.436035,4228.333496,4230.512695,4224.102539,4243.461426,4244.871582,4201.282227,4243.974121,4246.153809,3385.000000,4.000000,91.000000,,,,0.000000,4.000000,4.000000,4.000000,4.000000,4.000000,4.000000,4.000000,4.000000,4.000000,4.000000,4.000000,4.000000,4.000000,4.000000,100.000000,,,,,,,,,,,,,,,,
1645708384.791740,232.000000,0.000000,4220.769043,4244.487305,4240.641113,4230.769043,4229.487305,4217.692383,4228.589844,4230.256348,4224.230957,4244.487305,4243.461426,4197.948730,4241.922852,4243.589844,3386.000000,4.000000,91.000000,,,,0.000000,4.000000,4.000000,4.000000,4.000000,4.000000,4.000000,4.000000,4.000000,4.000000,4.000000,4.000000,4.000000,4.000000,4.000000,100.000000,,,,,,,,,,,,,,,,
1645708384.795680,233.000000,0.000000,4218.974121,4242.820313,4238.846191,4222.051270,4230.897461,4217.820313,4226.794922,4225.641113,4224.615234,4244.487305,4239.743652,4194.230957,4239.358887,4242.563965,3061.000000,4.000000,91.000000,,,,0.000000,4.000000,4.000000,4.000000,4.000000,4.000000,4.000000,4.000000,4.000000,4.000000,4.000000,4.000000,4.000000,4.000000,4.000000,100.000000,,,,,,,,,,,,,,,,
1645708384.799620,234.000000,0.000000,4216.153809,4241.666504,4236.794922,4215.128418,4230.641113,4217.436035,4223.461426,4218.205078,4224.743652,4241.666504,4233.846191,4189.871582,4237.307617,4241.025879,2662.000000,4.000000,91.000000,,,,0.000000,4.000000,4.000000,4.000000,4.000000,4.000000,4.000000,4.000000,4.000000,4.000000,4.000000,4.000000,4.000000,4.000000,4.000000,100.000000,,,,,,,,,,,,,,,,
1645708384.803560,235.000000,0.000000,4212.179688,4239.615234,4234.102539,4213.974121,4227.948730,4215.512695,4220.384766,4212.179688,4224.230957,4236.922852,4226.922852,4185.000000,4236.153809,4237.820313,3385.000000,4.000000,91.000000,,,,0.000000,4.000000,4.000000,4.000000,4.000000,4.000000,4.000000,4.000000,4.000000,4.000000,4.000000,4.000000,4.000000,4.000000,4.000000,100.000000,,,,,,,,,,,,,,,,
1645708384.807500,236.000000,0.000000,4208.846191,4236.922852,4230.897461,4219.102539,4225.769043,4212.948730,4219.102539,4210.769043,4223.846191,4233.846191,4222.692383,4181.153809,4236.153809,4234.615234,3386.000000,4.000000,91.000000,,,,0.000000,4.000000,4.000000,4.000000,4.000000,4.000000,4.000000,4.000000,4.000000,4.000000,4.000000,4.000000,4.000000,4.000000,4.000000,100.000000,,,,,,,,,,,,,,,,
1645708384.811440,237.000000,0.000000,4207.948730,4235.769043,4228.205078,4226.410156,4227.692383,4211.922852,4220.128418,4213.717773,4224.487305,4235.769043,4224.358887,4180.128418,4237.820313,4234.358887,3061.000000,4.000000,91.000000,,,,0.000000,4.000000,4.000000,4.000000,4.000000,4.000000,4.000000,4.000000,4.000000,4.000000,4.000000,4.000000,4.000000,4.000000,4.000000,100.000000,,,,,,,,,,,,,,,,
1645708384.815380,238.000000,0.000000,4210.384766,4238.077148,4226.922852,4231.153809,4233.717773,4213.846191,4222.436035,4217.820313,4226.025879,4242.692383,4231.666504,4182.692383,4240.897461,4238.461426,2662.000000,4.000000,91.000000,,,,0.000000,4.000000,4.000000,4.000000,4.000000,4.000000,4.000000,4.000000,4.000000,4.000000,4.000000,4.000000,4.000000,4.000000,4.000000,100.000000,1.000000,100.000000,4.000000,4.000000,4.000000,4.000000,4.000000,4.000000,4.000000,4.000000,4.000000,4.000000,4.000000,4.000000,4.000000,4.000000
1645708384.819320,239.000000,0.000000,4215.000000,4243.846191,4228.205078,4231.153809,4239.871582,4218.077148,4224.871582,4220.000000,4227.307617,4250.256348,4240.128418,4187.948730,4244.743652,4244.871582,3385.000000,4.000000,91.000000,,,,0.000000,4.000000,4.000000,4.000000,4.000000,4.000000,4.000000,4.000000,4.000000,4.000000,4.000000,4.000000,4.000000,4.000000,4.000000,100.000000,,,,,,,,,,,,,,,,
1645708384.823360,240.000000,0.000000,4219.358887,4249.615234,4231.922852,4228.846191,4242.692383,4222.563965,4227.563965,4220.256348,4227.436035,4253.717773,4244.871582,4192.820313,4248.077148,4250.128418,3386.000000,4.000000,91.000000,,,,0.000000,4.000000,4.000000,4.000000,4.000000,4.000000,4.000000,4.000000,4.000000,4.000000,4.000000,4.000000,4.000000,4.000000,4.000000,100.000000,,,,,,,,,,,,,,,,
1645708384.827300,241.000000,0.000000,4222.051270,4251.794922,4236.666504,4228.974121,4242.563965,4225.897461,4230.384766,4220.256348,4227.051270,4252.051270,4244.615234,4195.256348,4250.512695,4252.051270,3061.000000,4.000000,91.000000,,,,0.000000,4.000000,4.000000,4.000000,4.000000,4.000000,4.000000,4.000000,4.000000,4.000000,4.000000,4.000000,4.000000,4.000000,4.000000,100.000000,,,,,,,,,,,,,,,,
1645708384.831240,242.000000,0.000000,4222.563965,4250.256348,4240.512695,4233.205078,4241.538574,4227.307617,4232.948730,4220.897461,4226.922852,4248.717773,4242.692383,4194.871582,4252.563965,4251.025879,2662.000000,4.000000,91.000000,,,,0.000000,4.000000,4.000000,4.000000,4.000000,4.000000,4.000000,4.000000,4.000000,4.000000,4.000000,4.000000,4.000000,4.000000,4.000000,100.000000,,,,,,,,,,,,,,,,
1645708384.835181,243.000000,0.000000,4220.897461,4247.563965,4241.538574,4238.077148,4240.256348,4226.153809,4233.077148,4221.282227,4227.051270,4247.820313,4241.922852,4193.205078,4253.717773,4248.846191,3385.000000,4.000000,91.000000,,,,0.000000,4.000000,4.000000,4.000000,4.000000,4.000000,4.000000,4.000000,4.000000,4.000000,4.000000,4.000000,4.000000,4.000000,4.000000,100.000000,,,,,,,,,,,,,,,,
1645708384.839121,244.000000,0.000000,4217.307617,4246.410156,4239.102539,4238.333496,4237.051270,4222.436035,4230.000000,4219.871582,4226.410156,4250.000000,4242.692383,4191.410156,4252.948730,4246.153809,3386.000000,4.000000,91.000000,,,,0.000000,4.000000,4.000000,4.000000,4.000000,4.000000,4.000000,4.000000,4.000000,4.000000,4.000000,4.000000,4.000000,4.000000,4.000000,100.000000,,,,,,,,,,,,,,,,
1645708384.843061,245.000000,0.000000,4213.205078,4247.179688,4235.000000,4232.820313,4231.410156,4217.692383,4225.000000,4216.922852,4224.487305,4252.179688,4242.563965,4190.000000,4249.230957,4242.692383,3061.000000,4.000000,91.000000,,,,0.000000,4.000000,4.000000,4.000000,4.000000,4.000000,4.000000,4.000000,4.000000,4.000000,4.000000,4.000000,4.000000,4.000000,4.000000,100.000000,,,,,,,,,,,,,,,,
1645708384.847001,246.000000,0.000000,4211.538574,4248.974121,4232.179688,4225.897461,4226.410156,4214.615234,4221.410156,4215.256348,4222.692383,4252.051270,4240.641113,4189.358887,4243.846191,4239.615234,2662.000000,4.000000,91.000000,,,,0.000000,4.000000,4.000000,4.000000,4.000000,4.000000,4.000000,4.000000,4.000000,4.000000,4.000000,4.000000,4.000000,4.000000,4.000000,100.000000,,,,,,,,,,,,,,,,
1645708384.850941,247.000000,0.000000,4214.615234,4250.769043,4232.820313,4223.974121,4226.666504,4216.025879,4221.153809,4216.922852,4223.717773,4251.282227,4238.974121,4190.384766,4240.384766,4239.102539,3385.000000,4.000000,91.000000,,,,0.000000,4.000000,4.000000,4.000000,4.000000,4.000000,4.000000,4.000000,4.000000,4.000000,4.000000,4.000000,4.000000,4.000000,4.000000,100.000000,,,,,,,,,,,,,,,,
1645708384.854881,248.000000,0.000000,4221.282227,4252.307617,4237.051270,4228.974121,4233.333496,4221.666504,4223.974121,4221.794922,4228.205078,4252.692383,4240.769043,4193.846191,4241.922852,4243.333496,3386.000000,4.000000,91.000000,,,,0.000000,4.000000,4.000000,4.000000,4.000000,4.000000,4.000000,4.000000,4.000000,4.000000,4.000000,4.000000,4.000000,4.000000,4.000000,100.000000,,,,,,,,,,,,,,,,
1645708384.858821,249.000000,0.000000,4227.692383,4252.436035,4242.307617,4236.922852,4242.051270,4227.307617,4227.051270,4226.922852,4233.461426,4256.794922,4246.153809,4198.333496,4248.077148,4251.153809,3061.000000,4.000000,91.000000,,,,0.000000,4.000000,4.000000,4.000000,4.000000,4.000000,4.000000,4.000000,4.000000,4.000000,4.000000,4.000000,4.000000,4.000000,4.000000,100.000000,,,,,,,,,,,,,,,,
1645708384.862761,250.000000,0.000000,4229.358887,4250.256348,4245.128418,4241.538574,4246.282227,4228.077148,4227.948730,4229.230957,4235.512695,4259.230957,4251.666504,4201.153809,4254.487305,4258.333496,2662.000000,4.000000,91.000000,,,,0.000000,4.000000,4.000000,4.000000,4.000000,4.000000,4.000000,4.000000,4.000000,4.000000,4.000000,4.000000,4.000000,4.000000,4.000000,100.000000,,,,,,,,,,,,,,,,
1645708384.866701,251.000000,0.000000,4224.743652,4246.025879,4243.205078,4240.000000,4243.333496,4222.563965,4226.153809,4227.051270,4232.307617,4256.153809,4253.205078,4199.102539,4256.282227,4260.384766,3385.000000,4.000000,91.000000,,,,0.000000,4.000000,4.000000,4.000000,4.000000,4.000000,4.000000,4.000000,4.000000,4.000000,4.000000,4.000000,4.000000,4.000000,4.000000,100.000000,,,,,,,,,,,,,,,,
1645708384.870642,252.000000,0.000000,4216.410156,4241.922852,4236.922852,4235.000000,4236.025879,4214.871582,4223.205078,4221.794922,4225.641113,4247.948730,4249.615234,4191.922852,4252.179688,4256.538574,3386.000000,4.000000,91.000000,,,,0.000000,4.000000,4.000000,4.000000,4.000000,4.000000,4.000000,4.000000,4.000000,4.000000,4.000000,4.000000,4.000000,4.000000,4.000000,100.000000,,,,,,,,,,,,,,,,
1645708384.874582,253.000000,0.000000,4208.589844,4240.512695,4229.358887,4230.769043,4229.871582,4210.897461,4221.410156,4216.282227,4219.743652,4239.743652,4243.589844,4182.820313,4245.000000,4249.487305,3061.000000,4.000000,91.000000,,,,0.000000,4.000000,4.000000,4.000000,4.000000,4.000000,4.000000,4.000000,4.000000,4.000000,4.000000,4.000000,4.000000,4.000000,4.000000,100.000000,,,,,,,,,,,,,,,,
1645708384.878522,254.000000,0.000000,4204.615234,4242.307617,4224.102539,4229.615234,4228.205078,4213.205078,4222.307617,4213.589844,4218.205078,4236.922852,4238.589844,4176.410156,4239.230957,4243.333496,2662.000000,4.000000,91.000000,,,,0.000000,4.000000,4.000000,4.000000,4.000000,4.000000,4.000000,4.000000,4.000000,4.000000,4.000000,4.000000,4.000000,4.000000,4.000000,100.000000,,,,,,,,,,,,,,,,
1645708384.882462,255.000000,0.000000,4204.487305,4245.384766,4222.948730,4230.000000,4230.256348,4219.615234,4225.384766,4215.000000,4221.282227,4240.512695,4236.666504,4175.000000,4237.692383,4240.000000,114.000000,4.000000,91.000000,,,,0.000000,4.000000,4.000000,4.000000,4.000000,4.000000,4.000000,4.000000,4.000000,4.000000,4.000000,4.000000,4.000000,4.000000,4.000000,100.000000,,,,,,,,,,,,,,,,
1645708384.886402,0.000000,0.000000,4206.666504,4246.666504,4225.000000,4229.487305,4233.717773,4225.769043,4229.358887,4218.974121,4226.025879,4247.307617,4237.948730,4178.205078,4240.000000,4240.000000,3258.000000,4.000000,91.000000,,,,0.000000,4.000000,4.000000,4.000000,4.000000,4.000000,4.000000,4.000000,4.000000,4.000000,4.000000,4.000000,4.000000,4.000000,4.000000,100.000000,,,,,,,,,,,,,,,,
1645708384.890342,1.000000,0.000000,4209.230957,4245.256348,4227.051270,4227.692383,4235.769043,4228.461426,4232.179688,4222.692383,4229.487305,4252.692383,4240.897461,4183.205078,4243.077148,4242.436035,3487.000000,4.000000,91.000000,,,,0.000000,4.000000,4.000000,4.000000,4.000000,4.000000,4.000000,4.000000,4.000000,4.000000,4.000000,4.000000,4.000000,4.000000,4.000000,100.000000,,,,,,,,,,,,,,,,
1645708384.894182,2.000000,0.000000,4211.282227,4242.179688,4226.794922,4226.666504,4235.641113,4227.436035,4232.436035,4223.974121,4230.256348,4253.846191,4242.563965,4186.794922,4243.846191,4245.897461,3453.000000,4.000000,91.000000,,,,0.000000,4.000000,4.000000,4.000000,4.000000,4.000000,4.000000,4.000000,4.000000,4.000000,4.000000,4.000000,4.000000,4.000000,4.000000,100.000000,,,,,,,,,,,,,,,,
1645708384.898122,3.000000,0.000000,4211.666504,4238.205078,4223.974121,4227.179688,4232.563965,4224.102539,4230.128418,4222.051270,4228.333496,4250.641113,4240.384766,4186.410156,4240.897461,4248.333496,3328.000000,4.000000,91.000000,,,,0.000000,4.000000,4.000000,4.000000,4.000000,4.000000,4.000000,4.000000,4.000000,4.000000,4.000000,4.000000,4.000000,4.000000,4.000000,100.000000,,,,,,,,,,,,,,,,
1645708384.902062,4.000000,0.000000,4210.000000,4233.974121,4219.871582,4227.820313,4227.051270,4220.512695,4226.538574,4218.461426,4224.871582,4244.487305,4233.589844,4181.666504,4235.384766,4248.205078,3443.000000,4.000000,91.000000,,,,0.000000,4.000000,4.000000,4.000000,4.000000,4.000000,4.000000,4.000000,4.000000,4.000000,4.000000,4.000000,4.000000,4.000000,4.000000,100.000000,,,,,,,,,,,,,,,,
1645708384.906003,5.000000,0.000000,4206.666504,4230.641113,4216.538574,4225.512695,4220.641113,4217.051270,4223.333496,4215.384766,4221.538574,4238.333496,4224.615234,4175.384766,4230.256348,4245.769043,3423.000000,4.000000,91.000000,,,,0.000000,4.000000,4.000000,4.000000,4.000000,4.000000,4.000000,4.000000,4.000000,4.000000,4.000000,4.000000,4.000000,4.000000,4.000000,100.000000,,,,,,,,,,,,,,,,
1645708384.909943,6.000000,0.000000,4203.974121,4230.000000,4215.512695,4219.743652,4215.256348,4213.717773,4221.282227,4214.487305,4220.128418,4235.128418,4217.563965,4171.666504,4228.205078,4243.333496,3155.000000,4.000000,91.000000,,,,0.000000,4.000000,4.000000,4.000000,4.000000,4.000000,4.000000,4.000000,4.000000,4.000000,4.000000,4.000000,4.000000,4.000000,4.000000,100.000000,,,,,,,,,,,,,,,,
1645708384.913883,7.000000,0.000000,4203.717773,4232.820313,4216.282227,4213.589844,4213.077148,4210.769043,4220.000000,4215.641113,4221.153809,4236.282227,4216.153809,4172.436035,4229.743652,4242.563965,2967.000000,4.000000,91.000000,,,,0.000000,4.000000,4.000000,4.000000,4.000000,4.000000,4.000000,4.000000,4.000000,4.000000,4.000000,4.000000,4.000000,4.000000,4.000000,100.000000,,,,,,,,,,,,,,,,
1645708384.917823,8.000000,0.000000,4206.025879,4236.282227,4217.563965,4211.410156,4213.846191,4209.487305,4219.358887,4218.205078,4223.461426,4240.256348,4220.384766,4176.282227,4232.820313,4243.846191,1463.000000,4.000000,91.000000,,,,0.000000,4.000000,4.000000,4.000000,4.000000,4.000000,4.000000,4.000000,4.000000,4.000000,4.000000,4.000000,4.000000,4.000000,4.000000,100.000000,,,,,,,,,,,,,,,,
1645708384.921763,9.000000,0.000000,4209.102539,4236.794922,4218.461426,4214.871582,4216.282227,4210.512695,4219.743652,4220.897461,4225.897461,4243.846191,4227.051270,4180.384766,4235.512695,4245.769043,3474.000000,4.000000,91.000000,,,,0.000000,4.000000,4.000000,4.000000,4.000000,4.000000,4.000000,4.000000,4.000000,4.000000,4.000000,4.000000,4.000000,4.000000,4.000000,100.000000,,,,,,,,,,,,,,,,
1645708384.925703,10.000000,0.000000,4210.769043,4234.358887,4218.846191,4221.153809,4218.717773,4213.589844,4221.025879,4222.563965,4227.307617,4245.000000,4232.051270,4183.461426,4236.282227,4247.179688,2585.000000,4.000000,91.000000,,,,0.000000,4.000000,4.000000,4.000000,4.000000,4.000000,4.000000,4.000000,4.000000,4.000000,4.000000,4.000000,4.000000,4.000000,4.000000,100.000000,,,,,,,,,,,,,,,,
1645708384.929643,11.000000,0.000000,4210.512695,4233.333496,4219.743652,4226.025879,4221.153809,4217.307617,4222.307617,4221.922852,4227.307617,4244.358887,4233.717773,4185.641113,4235.897461,4247.692383,3410.000000,4.000000,91.000000,,,,0.000000,4.000000,4.000000,4.000000,4.000000,4.000000,4.000000,4.000000,4.000000,4.000000,4.000000,4.000000,4.000000,4.000000,4.000000,100.000000,,,,,,,,,,,,,,,,
1645708384.933583,12.000000,0.000000,4209.743652,4237.307617,4221.666504,4227.436035,4224.358887,4220.000000,4222.051270,4218.974121,4225.384766,4243.974121,4232.820313,4187.179688,4236.025879,4247.563965,3390.000000,4.000000,91.000000,,,,0.000000,4.000000,4.000000,4.000000,4.000000,4.000000,4.000000,4.000000,4.000000,4.000000,4.000000,4.000000,4.000000,4.000000,4.000000,100.000000,,,,,,,,,,,,,,,,
1645708384.937523,13.000000,0.000000,4209.615234,4245.000000,4224.743652,4226.922852,4227.948730,4219.743652,4219.358887,4214.743652,4221.666504,4244.615234,4231.153809,4188.205078,4236.922852,4246.922852,3392.000000,4.000000,91.000000,,,,0.000000,4.000000,4.000000,4.000000,4.000000,4.000000,4.000000,4.000000,4.000000,4.000000,4.000000,4.000000,4.000000,4.000000,4.000000,100.000000,,,,,,,,,,,,,,,,
1645708384.941464,14.000000,0.000000,4209.871582,4250.128418,4228.205078,4227.179688,4229.358887,4216.922852,4215.897461,4211.410156,4217.436035,4244.871582,4229.743652,4188.205078,4238.205078,4245.256348,2585.000000,4.000000,91.000000,,,,0.000000,4.000000,4.000000,4.000000,4.000000,4.000000,4.000000,4.000000,4.000000,4.000000,4.000000,4.000000,4.000000,4.000000,4.000000,100.000000,,,,,,,,,,,,,,,,
1645708384.945404,15.000000,0.000000,4208.974121,4247.948730,4230.641113,4229.230957,4227.051270,4213.846191,4214.871582,4210.769043,4214.487305,4244.102539,4228.974121,4187.307617,4238.974121,4242.820313,3410.000000,4.000000,91.000000,,,,0.000000,4.000000,4.000000,4.000000,4.000000,4.000000,4.000000,4.000000,4.000000,4.000000,4.000000,4.000000,4.000000,4.000000,4.000000,100.000000,,,,,,,,,,,,,,,,
1645708384.949344,16.000000,0.000000,4206.922852,4240.000000,4230.512695,4231.794922,4223.461426,4214.230957,4218.077148,4213.205078,4213.974121,4243.333496,4229.743652,4186.538574,4239.230957,4241.794922,3390.000000,4.000000,91.000000,,,,0.000000,4.000000,4.000000,4.000000,4.000000,4.000000,4.000000,4.000000,4.000000,4.000000,4.000000,4.000000,4.000000,4.000000,4.000000,100.000000,,,,,,,,,,,,,,,,
1645708384.953284,17.000000,0.000000,4205.000000,4233.205078,4227.948730,4233.077148,4223.205078,4219.102539,4223.333496,4216.922852,4215.897461,4244.230957,4232.436035,4186.794922,4240.256348,4243.846191,3392.000000,4.000000,91.000000,,,,0.000000,4.000000,4.000000,4.000000,4.000000,4.000000,4.000000,4.000000,4.000000,4.000000,4.000000,4.000000,4.000000,4.000000,4.000000,100.000000,,,,,,,,,,,,,,,,
1645708384.957224,18.000000,0.000000,4205.128418,4234.230957,4224.487305,4232.179688,4228.205078,4225.641113,4226.666504,4219.102539,4218.846191,4246.410156,4236.410156,4188.205078,4242.307617,4248.717773,2585.000000,4.000000,91.000000,,,,0.000000,4.000000,4.000000,4.000000,4.000000,4.000000,4.000000,4.000000,4.000000,4.000000,4.000000,4.000000,4.000000,4.000000,4.000000,100.000000,,,,,,,,,,,,,,,,
1645708384.961164,19.000000,0.000000,4207.051270,4243.717773,4222.436035,4230.000000,4234.743652,4228.717773,4225.769043,4218.077148,4220.769043,4247.307617,4239.102539,4189.102539,4244.743652,4253.974121,3410.000000,4.000000,91.000000,,,,0.000000,4.000000,4.000000,4.000000,4.000000,4.000000,4.000000,4.000000,4.000000,4.000000,4.000000,4.000000,4.000000,4.000000,4.000000,100.000000,,,,,,,,,,,,,,,,
1645708384.965104,20.000000,0.000000,4208.974121,4255.897461,4222.820313,4227.948730,4237.179688,4225.897461,4221.922852,4215.128418,4220.897461,4244.871582,4238.461426,4188.717773,4246.153809,4257.051270,3390.000000,4.000000,91.000000,,,,0.000000,4.000000,4.000000,4.000000,4.000000,4.000000,4.000000,4.000000,4.000000,4.000000,4.000000,4.000000,4.000000,4.000000,4.000000,100.000000,,,,,,,,,,,,,,,,
1645708384.968944,21.000000,0.000000,4209.871582,4263.205078,4224.743652,4227.051270,4233.333496,4219.615234,4218.717773,4213.974121,4220.000000,4240.897461,4235.000000,4188.077148,4245.897461,4257.051270,3392.000000,4.000000,91.000000,,,,0.000000,4.000000,4.000000,4.000000,4.000000,4.000000,4.000000,4.000000,4.000000,4.000000,4.000000,4.000000,4.000000,4.000000,4.000000,100.000000,,,,,,,,,,,,,,,,
1645708384.972884,22.000000,0.000000,4209.871582,4262.051270,4226.538574,4227.307617,4226.794922,4214.743652,4218.461426,4216.922852,4220.128418,4239.230957,4231.666504,4188.589844,4245.384766,4255.641113,2585.000000,4.000000,91.000000,,,,0.000000,4.000000,4.000000,4.000000,4.000000,4.000000,4.000000,4.000000,4.000000,4.000000,4.000000,4.000000,4.000000,4.000000,4.000000,100.000000,,,,,,,,,,,,,,,,
1645708384.976825,23.000000,0.000000,4210.128418,4254.871582,4227.051270,4227.692383,4223.077148,4214.358887,4220.897461,4222.692383,4222.179688,4241.922852,4230.897461,4190.384766,4245.641113,4255.000000,3410.000000,4.000000,91.000000,,,,0.000000,4.000000,4.000000,4.000000,4.000000,4.000000,4.000000,4.000000,4.000000,4.000000,4.000000,4.000000,4.000000,4.000000,4.000000,100.000000,,,,,,,,,,,,,,,,
1645708384.980765,24.000000,0.000000,4210.512695,4247.307617,4226.025879,4226.666504,4224.487305,4217.436035,4224.358887,4227.692383,4225.000000,4246.538574,4232.563965,4192.051270,4246.538574,4255.512695,3390.000000,4.000000,91.000000,,,,0.000000,4.000000,4.000000,4.000000,4.000000,4.000000,4.000000,4.000000,4.000000,4.000000,4.000000,4.000000,4.000000,4.000000,4.000000,100.000000,,,,,,,,,,,,,,,,
1645708384.984605,25.000000,0.000000,4209.743652,4243.846191,4223.846191,4224.102539,4228.461426,4220.256348,4226.538574,4229.230957,4226.666504,4248.333496,4233.717773,4192.692383,4246.282227,4256.025879,3392.000000,4.000000,91.000000,,,,0.000000,4.000000,4.000000,4.000000,4.000000,4.000000,4.000000,4.000000,4.000000,4.000000,4.000000,4.000000,4.000000,4.000000,4.000000,100.000000,,,,,,,,,,,,,,,,
1645708384.988545,26.000000,0.000000,4206.794922,4244.487305,4221.282227,4221.922852,4230.384766,4220.384766,4226.025879,4227.307617,4226.922852,4245.384766,4231.794922,4191.666504,4244.102539,4255.384766,2585.000000,4.000000,91.000000,,,,0.000000,4.000000,4.000000,4.000000,4.000000,4.000000,4.000000,4.000000,4.000000,4.000000,4.000000,4.000000,4.000000,4.000000,4.000000,100.000000,,,,,,,,,,,,,,,,
1645708384.992485,27.000000,0.000000,4202.436035,4245.769043,4219.102539,4222.436035,4228.589844,4218.461426,4222.948730,4224.230957,4226.666504,4240.128418,4226.922852,4189.358887,4240.897461,4253.333496,3410.000000,4.000000,91.000000,,,,0.000000,4.000000,4.000000,4.000000,4.000000,4.000000,4.000000,4.000000,4.000000,4.000000,4.000000,4.000000,4.000000,4.000000,4.000000,100.000000,,,,,,,,,,,,,,,,
1645708384.996525,28.000000,0.000000,4198.846191,4244.230957,4217.692383,4225.897461,4224.615234,4216.794922,4218.589844,4222.179688,4227.692383,4236.922852,4221.410156,4186.538574,4238.333496,4250.256348,3390.000000,4.000000,91.000000,,,,0.000000,4.000000,4.000000,4.000000,4.000000,4.000000,4.000000,4.000000,4.000000,4.000000,4.000000,4.000000,4.000000,4.000000,4.000000,100.000000,,,,,,,,,,,,,,,,
1645708385.000465,29.000000,0.000000,4197.179688,4239.743652,4217.563965,4230.128418,4221.282227,4215.897461,4214.871582,4221.666504,4229.615234,4237.051270,4216.922852,4184.358887,4236.666504,4246.153809,3392.000000,4.000000,91.000000,,,,0.000000,4.000000,4.000000,4.000000,4.000000,4.000000,4.000000,4.000000,4.000000,4.000000,4.000000,4.000000,4.000000,4.000000,4.000000,100.000000,,,,,,,,,,,,,,,,
1645708385.004405,30.000000,0.000000,4196.922852,4235.256348,4218.461426,4232.051270,4220.000000,4215.256348,4213.077148,4222.179688,4231.153809,4238.205078,4214.487305,4183.205078,4235.897461,4241.794922,2585.000000,4.000000,91.000000,,,,0.000000,4.000000,4.000000,4.000000,4.000000,4.000000,4.000000,4.000000,4.000000,4.000000,4.000000,4.000000,4.000000,4.000000,4.000000,100.000000,,,,,,,,,,,,,,,,
1645708385.008345,31.000000,0.000000,4196.666504,4234.230957,4219.102539,4231.025879,4220.128418,4214.487305,4213.974121,4223.205078,4229.871582,4237.307617,4213.974121,4183.077148,4235.769043,4238.846191,3410.000000,4.000000,91.000000,,,,0.000000,4.000000,4.000000,4.000000,4.000000,4.000000,4.000000,4.000000,4.000000,4.000000,4.000000,4.000000,4.000000,4.000000,4.000000,100.000000,,,,,,,,,,,,,,,,
1645708385.012286,32.000000,0.000000,4196.410156,4237.692383,4218.717773,4228.461426,4220.769043,4214.871582,4217.436035,4224.102539,4226.153809,4234.358887,4215.769043,4183.974121,4236.922852,4238.974121,0.000000,4.000000,91.000000,,,,0.000000,4.000000,4.000000,4.000000,4.000000,4.000000,4.000000,4.000000,4.000000,4.000000,4.000000,4.000000,4.000000,4.000000,4.000000,100.000000,,,,,,,,,,,,,,,,
1645708385.016226,33.000000,0.000000,4196.922852,4243.589844,4217.820313,4225.897461,4221.922852,4216.922852,4222.051270,4224.743652,4222.692383,4232.820313,4218.846191,4185.641113,4239.230957,4242.436035,0.000000,4.000000,91.000000,,,,0.000000,4.000000,4.000000,4.000000,4.000000,4.000000,4.000000,4.000000,4.000000,4.000000,4.000000,4.000000,4.000000,4.000000,4.000000,100.000000,,,,,,,,,,,,,,,,
1645708385.020166,34.000000,0.000000,4198.461426,4247.436035,4217.948730,4222.948730,4223.717773,4220.000000,4225.897461,4225.000000,4222.179688,4235.000000,4221.025879,4187.179688,4241.025879,4246.666504,0.000000,4.000000,91.000000,,,,0.000000,4.000000,4.000000,4.000000,4.000000,4.000000,4.000000,4.000000,4.000000,4.000000,4.000000,4.000000,4.000000,4.000000,4.000000,100.000000,,,,,,,,,,,,,,,,
1645708385.024106,35.000000,0.000000,4200.000000,4246.025879,4219.358887,4219.871582,4226.282227,4221.666504,4227.436035,4225.256348,4224.358887,4240.384766,4220.256348,4186.922852,4240.897461,4248.333496,0.000000,4.000000,91.000000,,,,0.000000,4.000000,4.000000,4.000000,4.000000,4.000000,4.000000,4.000000,4.000000,4.000000,4.000000,4.000000,4.000000,4.000000,4.000000,100.000000,,,,,,,,,,,,,,,,
1645708385.028046,36.000000,0.000000,4200.769043,4239.615234,4220.641113,4218.077148,4229.102539,4220.769043,4226.282227,4226.025879,4227.051270,4245.512695,4217.179688,4183.974121,4238.461426,4246.410156,0.000000,4.000000,91.000000,,,,0.000000,4.000000,4.000000,4.000000,4.000000,4.000000,4.000000,4.000000,4.000000,4.000000,4.000000,4.000000,4.000000,4.000000,4.000000,100.000000,,,,,,,,,,,,,,,,
1645708385.031986,37.000000,0.000000,4200.000000,4232.436035,4220.641113,4220.128418,4231.794922,4217.820313,4223.205078,4226.666504,4228.333496,4247.179688,4214.487305,4179.615234,4235.000000,4242.948730,0.000000,4.000000,91.000000,,,,0.000000,4.000000,4.000000,4.000000,4.000000,4.000000,4.000000,4.000000,4.000000,4.000000,4.000000,4.000000,4.000000,4.000000,4.000000,100.000000,,,,,,,,,,,,,,,,
1645708385.035926,38.000000,0.000000,4198.077148,4229.487305,4219.102539,4226.153809,4232.692383,4214.487305,4219.743652,4226.666504,4228.077148,4244.615234,4214.743652,4176.794922,4233.077148,4241.153809,0.000000,4.000000,91.000000,,,,0.000000,4.000000,4.000000,4.000000,4.000000,4.000000,4.000000,4.000000,4.000000,4.000000,4.000000,4.000000,4.000000,4.000000,4.000000,100.000000,,,,,,,,,,,,,,,,
1645708385.039866,39.000000,0.000000,4196.153809,4232.436035,4217.692383,4232.692383,4230.897461,4212.307617,4217.948730,4226.025879,4227.051270,4239.487305,4217.179688,4177.563965,4233.846191,4243.077148,0.000000,4.000000,91.000000,,,,0.000000,4.000000,4.000000,4.000000,4.000000,4.000000,4.000000,4.000000,4.000000,4.000000,4.000000,4.000000,4.000000,4.000000,4.000000,100.000000,,,,,,,,,,,,,,,,
1645708385.043806,40.000000,0.000000,4196.282227,4239.102539,4218.974121,4235.512695,4226.922852,4212.820313,4218.974121,4225.000000,4225.769043,4234.615234,4220.000000,4181.922852,4237.179688,4247.563965,0.000000,4.000000,91.000000,,,,0.000000,4.000000,4.000000,4.000000,4.000000,4.000000,4.000000,4.000000,4.000000,4.000000,4.000000,4.000000,4.000000,4.000000,4.000000,100.000000,,,,,,,,,,,,,,,,
1645708385.047846,41.000000,0.000000,4200.256348,4245.256348,4223.717773,4233.077148,4224.102539,4216.410156,4222.051270,4223.589844,4224.230957,4232.051270,4221.153809,4187.563965,4240.897461,4251.794922,0.000000,4.000000,91.000000,,,,0.000000,4.000000,4.000000,4.000000,4.000000,4.000000,4.000000,4.000000,4.000000,4.000000,4.000000,4.000000,4.000000,4.000000,4.000000,100.000000,,,,,,,,,,,,,,,,
1645708385.051786,42.000000,0.000000,4206.666504,4248.974121,4230.256348,4227.820313,4225.256348,4221.922852,4225.256348,4221.153809,4223.205078,4232.436035,4220.897461,4190.897461,4243.205078,4253.333496,0.000000,4.000000,91.000000,,,,0.000000,4.000000,4.000000,4.000000,4.000000,4.000000,4.000000,4.000000,4.000000,4.000000,4.000000,4.000000,4.000000,4.000000,4.000000,100.000000,,,,,,,,,,,,,,,,
1645708385.055727,43.000000,0.000000,4211.666504,4250.512695,4234.743652,4223.333496,4230.128418,4226.794922,4226.538574,4217.692383,4223.077148,4234.615234,4219.871582,4190.000000,4242.948730,4250.897461,0.000000,4.000000,91.000000,,,,0.000000,4.000000,4.000000,4.000000,4.000000,4.000000,4.000000,4.000000,4.000000,4.000000,4.000000,4.000000,4.000000,4.000000,4.000000,100.000000,,,,,,,,,,,,,,,,
1645708385.059667,44.000000,0.000000,4211.153809,4251.153809,4234.358887,4222.051270,4235.256348,4228.333496,4225.769043,4214.871582,4223.589844,4236.410156,4218.333496,4185.512695,4240.897461,4246.153809,0.000000,4.000000,91.000000,,,,0.000000,4.000000,4.000000,4.000000,4.000000,4.000000,4.000000,4.000000,4.000000,4.000000,4.000000,4.000000,4.000000,4.000000,4.000000,100.000000,,,,,,,,,,,,,,,,
1645708385.063607,45.000000,0.000000,4205.000000,4250.897461,4229.230957,4223.589844,4236.410156,4226.153809,4223.333496,4214.358887,4224.358887,4236.666504,4217.051270,4180.512695,4239.102539,4242.179688,0.000000,4.000000,91.000000,,,,0.000000,4.000000,4.000000,4.000000,4.000000,4.000000,4.000000,4.000000,4.000000,4.000000,4.000000,4.000000,4.000000,4.000000,4.000000,100.000000,,,,,,,,,,,,,,,,
1645708385.067447,46.000000,0.000000,4198.333496,4249.358887,4223.205078,4227.436035,4232.948730,4222.436035,4221.025879,4216.153809,4224.743652,4236.538574,4217.179688,4178.077148,4239.487305,4241.922852,0.000000,4.000000,91.000000,,,,0.000000,4.000000,4.000000,4.000000,4.000000,4.000000,4.000000,4.000000,4.000000,4.000000,4.000000,4.000000,4.000000,4.000000,4.000000,100.000000,,,,,,,,,,,,,,,,
1645708385.071387,47.000000,0.000000,4196.794922,4246.410156,4220.384766,4232.820313,4228.461426,4220.512695,4220.384766,4217.948730,4224.871582,4237.820313,4220.000000,4179.230957,4242.051270,4246.666504,0.000000,4.000000,91.000000,,,,0.000000,4.000000,4.000000,4.000000,4.000000,4.000000,4.000000,4.000000,4.000000,4.000000,4.000000,4.000000,4.000000,4.000000,4.000000,100.000000,,,,,,,,,,,,,,,,
1645708385.075327,48.000000,0.000000,4201.410156,4242.051270,4222.948730,4237.307617,4226.538574,4222.179688,4221.666504,4217.820313,4225.000000,4240.769043,4225.000000,4183.461426,4245.000000,4254.102539,0.000000,4.000000,91.000000,,,,0.000000,4.000000,4.000000,4.000000,4.000000,4.000000,4.000000,4.000000,4.000000,4.000000,4.000000,4.000000,4.000000,4.000000,4.000000,100.000000,,,,,,,,,,,,,,,,
1645708385.079267,49.000000,0.000000,4207.820313,4236.538574,4228.846191,4237.436035,4227.820313,4225.897461,4223.846191,4216.282227,4224.743652,4242.820313,4229.871582,4188.461426,4246.153809,4259.358887,0.000000,4.000000,91.000000,,,,0.000000,4.000000,4.000000,4.000000,4.000000,4.000000,4.000000,4.000000,4.000000,4.000000,4.000000,4.000000,4.000000,4.000000,4.000000,100.000000,,,,,,,,,,,,,,,,
1645708385.083207,50.000000,0.000000,4210.256348,4231.025879,4234.102539,4231.538574,4229.871582,4228.974121,4226.410156,4215.512695,4224.487305,4241.538574,4231.794922,4191.410156,4244.487305,4258.974121,0.000000,4.000000,91.000000,,,,0.000000,4.000000,4.000000,4.000000,4.000000,4.000000,4.000000,4.000000,4.000000,4.000000,4.000000,4.000000,4.000000,4.000000,4.000000,100.000000,,,,,,,,,,,,,,,,
1645708385.087148,51.000000,0.000000,4207.692383,4228.589844,4235.384766,4222.948730,4231.410156,4230.256348,4229.358887,4217.179688,4224.743652,4237.820313,4230.256348,4191.282227,4241.410156,4253.589844,0.000000,4.000000,91.000000,,,,0.000000,4.000000,4.000000,4.000000,4.000000,4.000000,4.000000,4.000000,4.000000,4.000000,4.000000,4.000000,4.000000,4.000000,4.000000,100.000000,,,,,,,,,,,,,,,,
1645708385.091088,52.000000,0.000000,4203.974121,4232.179688,4232.820313,4218.205078,4233.589844,4231.025879,4232.436035,4220.897461,4226.282227,4235.897461,4228.333496,4189.615234,4239.743652,4247.820313,0.000000,4.000000,91.000000,,,,0.000000,4.000000,4.000000,4.000000,4.000000,4.000000,4.000000,4.000000,4.000000,4.000000,4.000000,4.000000,4.000000,4.000000,4.000000,100.000000,,,,,,,,,,,,,,,,
1645708385.095028,53.000000,0.000000,4203.846191,4240.897461,4229.358887,4222.051270,4237.051270,4232.563965,4235.128418,4224.871582,4228.461426,4238.717773,4229.230957,4188.717773,4241.282227,4245.769043,0.000000,4.000000,91.000000,,,,0.000000,4.000000,4.000000,4.000000,4.000000,4.000000,4.000000,4.000000,4.000000,4.000000,4.000000,4.000000,4.000000,4.000000,4.000000,100.000000,,,,,,,,,,,,,,,,
1645708385.098968,54.000000,0.000000,4208.205078,4250.512695,4228.205078,4232.948730,4239.487305,4234.358887,4236.922852,4228.205078,4230.128418,4245.256348,4233.461426,4190.128418,4244.871582,4248.333496,0.000000,4.000000,91.000000,,,,0.000000,4.000000,4.000000,4.000000,4.000000,4.000000,4.000000,4.000000,4.000000,4.000000,4.000000,4.000000,4.000000,4.000000,4.000000,100.000000,,,,,,,,,,,,,,,,
1645708385.102808,55.000000,0.000000,4214.230957,4255.897461,4230.512695,4244.358887,4237.948730,4234.615234,4237.820313,4231.025879,4230.256348,4251.025879,4238.717773,4193.077148,4247.563965,4252.948730,0.000000,4.000000,91.000000,,,,0.000000,4.000000,4.000000,4.000000,4.000000,4.000000,4.000000,4.000000,4.000000,4.000000,4.000000,4.000000,4.000000,4.000000,4.000000,100.000000,,,,,,,,,,,,,,,,
1645708385.106748,56.000000,0.000000,4217.948730,4255.897461,4234.487305,4249.743652,4232.692383,4233.205078,4238.589844,4233.717773,4229.743652,4253.205078,4242.179688,4195.897461,4247.307617,4256.538574,0.000000,4.000000,91.000000,,,,0.000000,4.000000,4.000000,4.000000,4.000000,4.000000,4.000000,4.000000,4.000000,4.000000,4.000000,4.000000,4.000000,4.000000,4.000000,100.000000,,,,,,,,,,,,,,,,
1645708385.110688,57.000000,0.000000,4217.820313,4252.692383,4237.179688,4246.282227,4228.077148,4231.538574,4238.974121,4235.256348,4230.384766,4252.436035,4242.820313,4197.179688,4244.743652,4257.820313,0.000000,4.000000,91.000000,,,,0.000000,4.000000,4.000000,4.000000,4.000000,4.000000,4.000000,4.000000,4.000000,4.000000,4.000000,4.000000,4.000000,4.000000,4.000000,100.000000,,,,,,,,,,,,,,,,
1645708385.114628,58.000000,0.000000,4214.871582,4249.615234,4236.538574,4236.282227,4228.461426,4231.282227,4237.692383,4234.358887,4232.692383,4251.153809,4241.538574,4196.282227,4242.307617,4257.692383,0.000000,4.000000,91.000000,,,,0.000000,4.000000,4.000000,4.000000,4.000000,4.000000,4.000000,4.000000,4.000000,4.000000,4.000000,4.000000,4.000000,4.000000,4.000000,100.000000,,,,,,,,,,,,,,,,
1645708385.118568,59.000000,0.000000,4211.153809,4247.563965,4232.820313,4225.512695,4233.461426,4232.051270,4233.974121,4230.897461,4234.871582,4250.641113,4238.974121,4193.589844,4241.922852,4257.051270,0.000000,4.000000,91.000000,,,,0.000000,4.000000,4.000000,4.000000,4.000000,4.000000,4.000000,4.000000,4.000000,4.000000,4.000000,4.000000,4.000000,4.000000,4.000000,100.000000,,,,,,,,,,,,,,,,
1645708385.122509,60.000000,0.000000,4207.948730,4245.256348,4228.589844,4219.487305,4238.205078,4232.436035,4229.487305,4226.538574,4234.871582,4250.128418,4235.769043,4189.615234,4243.077148,4255.641113,0.000000,4.000000,91.000000,,,,0.000000,4.000000,4.000000,4.000000,4.000000,4.000000,4.000000,4.000000,4.000000,4.000000,4.000000,4.000000,4.000000,4.000000,4.000000,100.000000,,,,,,,,,,,,,,,,
1645708385.126449,61.000000,0.000000,4205.897461,4241.538574,4226.153809,4219.615234,4238.717773,4231.153809,4226.794922,4223.589844,4231.538574,4248.589844,4232.820313,4185.769043,4244.230957,4253.205078,0.000000,4.000000,91.000000,,,,0.000000,4.000000,4.000000,4.000000,4.000000,4.000000,4.000000,4.000000,4.000000,4.000000,4.000000,4.000000,4.000000,4.000000,4.000000,100.000000,,,,,,,,,,,,,,,,
1645708385.130389,62.000000,0.000000,4205.512695,4238.333496,4226.282227,4223.461426,4235.512695,4229.102539,4226.922852,4223.846191,4226.794922,4246.922852,4231.794922,4183.461426,4244.743652,4251.153809,0.000000,4.000000,91.000000,,,,0.000000,4.000000,4.000000,4.000000,4.000000,4.000000,4.000000,4.000000,4.000000,4.000000,4.000000,4.000000,4.000000,4.000000,4.000000,100.000000,,,,,,,,,,,,,,,,
1645708385.134329,63.000000,0.000000,4206.794922,4237.948730,4228.205078,4227.179688,4232.820313,4227.820313,4228.333496,4226.025879,4223.461426,4246.666504,4233.846191,4183.974121,4245.128418,4251.153809,0.000000,4.000000,91.000000,,,,0.000000,4.000000,4.000000,4.000000,4.000000,4.000000,4.000000,4.000000,4.000000,4.000000,4.000000,4.000000,4.000000,4.000000,4.000000,100.000000,,,,,,,,,,,,,,,,
1645708385.138269,64.000000,0.000000,4208.974121,4241.153809,4231.153809,4227.948730,4233.461426,4227.436035,4228.333496,4227.563965,4223.333496,4247.307617,4237.948730,4186.922852,4245.897461,4253.589844,0.000000,4.000000,91.000000,,,,0.000000,4.000000,4.000000,4.000000,4.000000,4.000000,4.000000,4.000000,4.000000,4.000000,4.000000,4.000000,4.000000,4.000000,4.000000,100.000000,,,,,,,,,,,,,,,,
1645708385.142209,65.000000,0.000000,4210.897461,4245.256348,4234.102539,4225.512695,4236.410156,4226.666504,4225.641113,4226.410156,4225.000000,4245.897461,4240.512695,4190.128418,4246.025879,4256.538574,0.000000,4.000000,91.000000,,,,0.000000,4.000000,4.000000,4.000000,4.000000,4.000000,4.000000,4.000000,4.000000,4.000000,4.000000,4.000000,4.000000,4.000000,4.000000,100.000000,,,,,,,,,,,,,,,,
1645708385.146149,66.000000,0.000000,4211.282227,4246.922852,4235.897461,4221.794922,4237.820313,4224.230957,4221.922852,4222.820313,4226.666504,4241.025879,4239.487305,4191.794922,4244.102539,4258.205078,0.000000,4.000000,91.000000,,,,0.000000,4.000000,4.000000,4.000000,4.000000,4.000000,4.000000,4.000000,4.000000,4.000000,4.000000,4.000000,4.000000,4.000000,4.000000,100.000000,,,,,,,,,,,,,,,,
1645708385.150089,67.000000,0.000000,4210.384766,4244.230957,4235.897461,4219.358887,4235.769043,4221.025879,4219.487305,4219.487305,4226.666504,4234.487305,4235.897461,4191.922852,4240.128418,4258.205078,0.000000,4.000000,91.000000,,,,0.000000,4.000000,4.000000,4.000000,4.000000,4.000000,4.000000,4.000000,4.000000,4.000000,4.000000,4.000000,4.000000,4.000000,4.000000,100.000000,,,,,,,,,,,,,,,,
1645708385.154029,68.000000,0.000000,4209.615234,4238.333496,4234.230957,4219.487305,4232.051270,4218.974121,4219.615234,4218.589844,4225.512695,4230.897461,4233.461426,4192.307617,4236.025879,4258.333496,0.000000,4.000000,91.000000,,,,0.000000,4.000000,4.000000,4.000000,4.000000,4.000000,4.000000,4.000000,4.000000,4.000000,4.000000,4.000000,4.000000,4.000000,4.000000,100.000000,,,,,,,,,,,,,,,,
1645708385.157970,69.000000,0.000000,4209.743652,4232.051270,4231.666504,4222.179688,4230.000000,4218.846191,4221.538574,4221.025879,4223.974121,4232.436035,4234.358887,4193.846191,4234.358887,4260.512695,0.000000,4.000000,91.000000,,,,0.000000,4.000000,4.000000,4.000000,4.000000,4.000000,4.000000,4.000000,4.000000,4.000000,4.000000,4.000000,4.000000,4.000000,4.000000,100.000000,,,,,,,,,,,,,,,,
1645708385.161910,70.000000,0.000000,4211.153809,4229.487305,4229.615234,4226.538574,4231.153809,4219.743652,4223.589844,4224.871582,4222.948730,4236.922852,4237.692383,4196.282227,4236.410156,4264.358887,0.000000,4.000000,91.000000,,,,0.000000,4.000000,4.000000,4.000000,4.000000,4.000000,4.000000,4.000000,4.000000,4.000000,4.000000,4.000000,4.000000,4.000000,4.000000,100.000000,,,,,,,,,,,,,,,,
1645708385.165850,71.000000,0.000000,4213.589844,4233.205078,4229.743652,4231.282227,4234.743652,4221.153809,4224.358887,4227.563965,4222.692383,4239.743652,4240.769043,4198.461426,4241.025879,4268.333496,0.000000,4.000000,91.000000,,,,0.000000,4.000000,4.000000,4.000000,4.000000,4.000000,4.000000,4.000000,4.000000,4.000000,4.000000,4.000000,4.000000,4.000000,4.000000,100.000000,,,,,,,,,,,,,,,,
1645708385.169790,72.000000,0.000000,4216.410156,4241.794922,4231.922852,4234.743652,4237.692383,4222.179688,4223.589844,4226.666504,4222.436035,4238.077148,4241.666504,4199.871582,4245.000000,4270.000000,0.000000,4.000000,91.000000,,,,0.000000,4.000000,4.000000,4.000000,4.000000,4.000000,4.000000,4.000000,4.000000,4.000000,4.000000,4.000000,4.000000,4.000000,4.000000,100.000000,,,,,,,,,,,,,,,,
1645708385.173730,73.000000,0.000000,4218.717773,4250.000000,4234.358887,4235.384766,4236.794922,4222.563965,4221.282227,4221.666504,4221.794922,4232.692383,4240.256348,4199.487305,4245.769043,4268.077148,0.000000,4.000000,91.000000,,,,0.000000,4.000000,4.000000,4.000000,4.000000,4.000000,4.000000,4.000000,4.000000,4.000000,4.000000,4.000000,4.000000,4.000000,4.000000,100.000000,,,,,,,,,,,,,,,,
1645708385.177670,74.000000,0.000000,4219.358887,4251.666504,4234.487305,4232.563965,4231.282227,4221.282227,4218.461426,4214.358887,4221.025879,4226.666504,4236.666504,4197.179688,4242.948730,4262.692383,0.000000,4.000000,91.000000,,,,0.000000,4.000000,4.000000,4.000000,4.000000,4.000000,4.000000,4.000000,4.000000,4.000000,4.000000,4.000000,4.000000,4.000000,4.000000,100.000000,,,,,,,,,,,,,,,,
1645708385.181610,75.000000,0.000000,4217.179688,4244.871582,4231.538574,4226.922852,4223.717773,4218.205078,4215.769043,4208.077148,4220.256348,4222.179688,4230.769043,4193.589844,4238.461426,4256.666504,0.000000,4.000000,91.000000,,,,0.000000,4.000000,4.000000,4.000000,4.000000,4.000000,4.000000,4.000000,4.000000,4.000000,4.000000,4.000000,4.000000,4.000000,4.000000,100.000000,,,,,,,,,,,,,,,,
1645708385.185450,76.000000,0.000000,4213.077148,4233.205078,4227.179688,4220.000000,4218.077148,4214.102539,4213.974121,4205.512695,4220.000000,4220.128418,4223.974121,4190.000000,4234.358887,4252.692383,0.000000,4.000000,91.000000,,,,0.000000,4.000000,4.000000,4.000000,4.000000,4.000000,4.000000,4.000000,4.000000,4.000000,4.000000,4.000000,4.000000,4.000000,4.000000,100.000000,,,,,,,,,,,,,,,,
1645708385.189390,77.000000,0.000000,4209.102539,4223.333496,4223.717773,4213.461426,4217.051270,4210.256348,4213.333496,4207.307617,4220.512695,4219.615234,4218.846191,4187.307617,4232.436035,4252.179688,0.000000,4.000000,91.000000,,,,0.000000,4.000000,4.000000,4.000000,4.000000,4.000000,4.000000,4.000000,4.000000,4.000000,4.000000,4.000000,4.000000,4.000000,4.000000,100.000000,,,,,,,,,,,,,,,,
1645708385.193331,78.000000,0.000000,4206.922852,4220.128418,4222.692383,4209.358887,4220.641113,4207.820313,4212.948730,4211.282227,4221.666504,4219.358887,4217.307617,4185.641113,4232.051270,4254.102539,0.000000,4.000000,91.000000,,,,0.000000,4.000000,4.000000,4.000000,4.000000,4.000000,4.000000,4.000000,4.000000,4.000000,4.000000,4.000000,4.000000,4.000000,4.000000,100.000000,,,,,,,,,,,,,,,,
1645708385.197271,79.000000,0.000000,4206.794922,4223.077148,4223.461426,4208.846191,4225.897461,4207.051270,4212.307617,4215.256348,4222.820313,4218.717773,4219.358887,4184.871582,4231.922852,4255.769043,0.000000,4.000000,91.000000,,,,0.000000,4.000000,4.000000,4.000000,4.000000,4.000000,4.000000,4.000000,4.000000,4.000000,4.000000,4.000000,4.000000,4.000000,4.000000,100.000000,,,,,,,,,,,,,,,,
1645708385.201211,80.000000,0.000000,4207.179688,4227.179688,4224.102539,4211.794922,4228.846191,4207.820313,4212.051270,4217.692383,4223.077148,4218.461426,4222.563965,4184.743652,4231.282227,4255.128418,0.000000,4.000000,91.000000,,,,0.000000,4.000000,4.000000,4.000000,4.000000,4.000000,4.000000,4.000000,4.000000,4.000000,4.000000,4.000000,4.000000,4.000000,4.000000,100.000000,,,,,,,,,,,,,,,,
1645708385.205251,81.000000,0.000000,4207.051270,4228.717773,4223.205078,4216.538574,4227.820313,4209.487305,4212.692383,4218.717773,4221.922852,4219.615234,4224.743652,4184.615234,4230.769043,4252.179688,0.000000,4.000000,91.000000,,,,0.000000,4.000000,4.000000,4.000000,4.000000,4.000000,4.000000,4.000000,4.000000,4.000000,4.000000,4.000000,4.000000,4.000000,4.000000,100.000000,,,,,,,,,,,,,,,,
1645708385.209191,82.000000,0.000000,4206.153809,4228.205078,4220.769043,4221.410156,4225.000000,4211.410156,4213.846191,4218.974121,4220.256348,4223.333496,4225.769043,4183.846191,4231.666504,4248.589844,0.000000,4.000000,91.000000,,,,0.000000,4.000000,4.000000,4.000000,4.000000,4.000000,4.000000,4.000000,4.000000,4.000000,4.000000,4.000000,4.000000,4.000000,4.000000,100.000000,,,,,,,,,,,,,,,,
1645708385.213131,83.000000,0.000000,4205.128418,4229.615234,4217.436035,4225.384766,4223.077148,4213.205078,4214.230957,4218.717773,4219.358887,4228.846191,4226.282227,4182.179688,4233.846191,4246.282227,0.000000,4.000000,91.000000,,,,0.000000,4.000000,4.000000,4.000000,4.000000,4.000000,4.000000,4.000000,4.000000,4.000000,4.000000,4.000000,4.000000,4.000000,4.000000,100.000000,,,,,,,,,,,,,,,,
1645708385.217071,84.000000,0.000000,4204.743652,4234.487305,4214.743652,4227.179688,4223.205078,4214.230957,4213.846191,4217.948730,4220.000000,4233.205078,4226.410156,4179.615234,4235.384766,4245.384766,0.000000,4.000000,91.000000,,,,0.000000,4.000000,4.000000,4.000000,4.000000,4.000000,4.000000,4.000000,4.000000,4.000000,4.000000,4.000000,4.000000,4.000000,4.000000,100.000000,,,,,,,,,,,,,,,,
1645708385.221111,85.000000,0.000000,4205.256348,4240.641113,4214.102539,4226.153809,4223.846191,4214.615234,4213.717773,4217.179688,4221.410156,4234.102539,4225.256348,4177.051270,4234.102539,4245.512695,0.000000,4.000000,91.000000,,,,0.000000,4.000000,4.000000,4.000000,4.000000,4.000000,4.000000,4.000000,4.000000,4.000000,4.000000,4.000000,4.000000,4.000000,4.000000,100.000000,,,,,,,,,,,,,,,,
1645708385.225051,86.000000,0.000000,4206.794922,4244.615234,4216.153809,4222.948730,4224.102539,4214.487305,4214.743652,4217.307617,4222.692383,4231.666504,4222.436035,4175.769043,4230.384766,4246.282227,0.000000,4.000000,91.000000,,,,0.000000,4.000000,4.000000,4.000000,4.000000,4.000000,4.000000,4.000000,4.000000,4.000000,4.000000,4.000000,4.000000,4.000000,4.000000,100.000000,,,,,,,,,,,,,,,,
1645708385.228991,87.000000,0.000000,4209.230957,4244.871582,4219.743652,4220.128418,4225.000000,4215.256348,4216.794922,4218.846191,4223.461426,4229.102539,4219.487305,4176.794922,4226.922852,4248.205078,0.000000,4.000000,91.000000,,,,0.000000,4.000000,4.000000,4.000000,4.000000,4.000000,4.000000,4.000000,4.000000,4.000000,4.000000,4.000000,4.000000,4.000000,4.000000,100.000000,,,,,,,,,,,,,,,,
1645708385.232931,88.000000,0.000000,4212.307617,4243.077148,4222.948730,4221.025879,4228.974121,4218.077148,4218.461426,4221.025879,4223.974121,4228.974121,4218.974121,4179.743652,4227.051270,4251.153809,0.000000,4.000000,91.000000,,,,0.000000,4.000000,4.000000,4.000000,4.000000,4.000000,4.000000,4.000000,4.000000,4.000000,4.000000,4.000000,4.000000,4.000000,4.000000,100.000000,,,,,,,,,,,,,,,,
1645708385.236872,89.000000,0.000000,4214.615234,4242.436035,4223.974121,4225.641113,4235.897461,4222.563965,4218.461426,4223.205078,4224.615234,4231.410156,4221.025879,4182.948730,4230.897461,4253.461426,0.000000,4.000000,91.000000,,,,0.000000,4.000000,4.000000,4.000000,4.000000,4.000000,4.000000,4.000000,4.000000,4.000000,4.000000,4.000000,4.000000,4.000000,4.000000,100.000000,,,,,,,,,,,,,,,,
1645708385.240812,90.000000,0.000000,4214.743652,4243.717773,4222.179688,4230.256348,4241.666504,4226.282227,4216.794922,4224.102539,4225.000000,4232.820313,4223.717773,4183.974121,4235.128418,4252.948730,0.000000,4.000000,91.000000,,,,0.000000,4.000000,4.000000,4.000000,4.000000,4.000000,4.000000,4.000000,4.000000,4.000000,4.000000,4.000000,4.000000,4.000000,4.000000,100.000000,,,,,,,,,,,,,,,,
1645708385.244752,91.000000,0.000000,4211.410156,4244.487305,4218.461426,4230.000000,4241.025879,4226.538574,4214.743652,4222.820313,4224.743652,4229.871582,4223.461426,4181.410156,4235.384766,4248.717773,0.000000,4.000000,91.000000,,,,0.000000,4.000000,4.000000,4.000000,4.000000,4.000000,4.000000,4.000000,4.000000,4.000000,4.000000,4.000000,4.000000,4.000000,4.000000,100.000000,,,,,,,,,,,,,,,,
1645708385.248792,92.000000,0.000000,4205.769043,4242.051270,4214.615234,4223.974121,4233.205078,4222.692383,4214.102539,4219.358887,4223.846191,4222.820313,4218.974121,4176.538574,4230.256348,4242.179688,0.000000,4.000000,91.000000,,,,0.000000,4.000000,4.000000,4.000000,4.000000,4.000000,4.000000,4.000000,4.000000,4.000000,4.000000,4.000000,4.000000,4.000000,4.000000,100.000000,,,,,,,,,,,,,,,,
1645708385.252732,93.000000,0.000000,4200.769043,4236.410156,4212.692383,4216.282227,4223.589844,4217.692383,4215.512695,4214.871582,4222.820313,4215.769043,4212.692383,4172.563965,4223.333496,4237.179688,0.000000,4.000000,91.000000,,,,0.000000,4.000000,4.000000,4.000000,4.000000,4.000000,4.000000,4.000000,4.000000,4.000000,4.000000,4.000000,4.000000,4.000000,4.000000,100.000000,,,,,,,,,,,,,,,,
1645708385.256672,94.000000,0.000000,4199.358887,4230.897461,4214.358887,4211.666504,4218.846191,4215.128418,4218.461426,4212.179688,4222.051270,4212.948730,4208.974121,4172.820313,4219.871582,4237.307617,0.000000,4.000000,91.000000,,,,0.000000,4.000000,4.000000,4.000000,4.000000,4.000000,4.000000,4.000000,4.000000,4.000000,4.000000,4.000000,4.000000,4.000000,4.000000,100.000000,,,,,,,,,,,,,,,,
1645708385.260612,95.000000,0.000000,4201.794922,4229.102539,4219.615234,4211.282227,4220.897461,4216.025879,4221.282227,4212.692383,4221.282227,4215.256348,4210.256348,4178.077148,4222.179688,4242.436035,0.000000,4.000000,91.000000,,,,0.000000,4.000000,4.000000,4.000000,4.000000,4.000000,4.000000,4.000000,4.000000,4.000000,4.000000,4.000000,4.000000,4.000000,4.000000,100.000000,,,,,,,,,,,,,,,,
1645708385.264552,96.000000,0.000000,4205.897461,4231.025879,4226.666504,4212.948730,4224.743652,4218.077148,4222.692383,4215.128418,4220.000000,4219.102539,4215.384766,4186.153809,4227.436035,4248.846191,0.000000,4.000000,91.000000,,,,0.000000,4.000000,4.000000,4.000000,4.000000,4.000000,4.000000,4.000000,4.000000,4.000000,4.000000,4.000000,4.000000,4.000000,4.000000,100.000000,,,,,,,,,,,,,,,,
1645708385.268492,97.000000,0.000000,4209.487305,4233.846191,4232.179688,4213.717773,4224.358887,4218.974121,4221.922852,4217.307617,4218.589844,4221.025879,4220.897461,4192.563965,4231.025879,4252.436035,0.000000,4.000000,91.000000,,,,0.000000,4.000000,4.000000,4.000000,4.000000,4.000000,4.000000,4.000000,4.000000,4.000000,4.000000,4.000000,4.000000,4.000000,4.000000,100.000000,,,,,,,,,,,,,,,,
1645708385.272432,98.000000,0.000000,4211.410156,4235.000000,4234.230957,4213.077148,4218.846191,4218.461426,4219.358887,4217.563965,4218.077148,4220.384766,4223.717773,4194.615234,4230.897461,4252.179688,0.000000,4.000000,91.000000,,,,0.000000,4.000000,4.000000,4.000000,4.000000,4.000000,4.000000,4.000000,4.000000,4.000000,4.000000,4.000000,4.000000,4.000000,4.000000,100.000000,,,,,,,,,,,,,,,,
1645708385.276372,99.000000,0.000000,4211.922852,4233.589844,4231.922852,4212.051270,4213.333496,4217.948730,4216.666504,4216.666504,4219.230957,4218.974121,4223.077148,4192.692383,4228.077148,4250.384766,0.000000,4.000000,91.000000,,,,0.000000,4.000000,4.000000,4.000000,4.000000,4.000000,4.000000,4.000000,4.000000,4.000000,4.000000,4.000000,4.000000,4.000000,4.000000,100.000000,,,,,,,,,,,,,,,,
1645708385.280313,100.000000,0.000000,4211.025879,4230.512695,4226.282227,4211.538574,4213.077148,4217.948730,4215.641113,4216.410156,4221.538574,4218.333496,4220.384766,4189.230957,4224.871582,4249.487305,0.000000,4.000000,91.000000,,,,0.000000,4.000000,4.000000,4.000000,4.000000,4.000000,4.000000,4.000000,4.000000,4.000000,4.000000,4.000000,4.000000,4.000000,4.000000,100.000000,,,,,,,,,,,,,,,,
1645708385.284253,101.000000,0.000000,4208.461426,4228.077148,4219.615234,4211.538574,4219.358887,4217.948730,4216.922852,4217.307617,4223.461426,4218.205078,4217.820313,4186.538574,4223.333496,4250.000000,0.000000,4.000000,91.000000,,,,0.000000,4.000000,4.000000,4.000000,4.000000,4.000000,4.000000,4.000000,4.000000,4.000000,4.000000,4.000000,4.000000,4.000000,4.000000,100.000000,,,,,,,,,,,,,,,,
1645708385.288193,102.000000,0.000000,4205.641113,4228.846191,4215.000000,4211.922852,4228.846191,4217.051270,4219.615234,4218.717773,4223.846191,4218.461426,4217.436035,4186.666504,4224.487305,4250.769043,0.000000,4.000000,91.000000,,,,0.000000,4.000000,4.000000,4.000000,4.000000,4.000000,4.000000,4.000000,4.000000,4.000000,4.000000,4.000000,4.000000,4.000000,4.000000,100.000000,,,,,,,,,,,,,,,,
1645708385.292133,103.000000,0.000000,4205.512695,4233.974121,4214.615234,4213.333496,4235.384766,4215.512695,4221.410156,4219.743652,4223.589844,4219.743652,4220.641113,4190.128418,4228.205078,4251.794922,0.000000,4.000000,91.000000,,,,0.000000,4.000000,4.000000,4.000000,4.000000,4.000000,4.000000,4.000000,4.000000,4.000000,4.000000,4.000000,4.000000,4.000000,4.000000,100.000000,,,,,,,,,,,,,,,,
1645708385.296073,104.000000,0.000000,4210.256348,4241.538574,4218.717773,4215.512695,4234.871582,4213.846191,4220.897461,4219.743652,4223.846191,4223.205078,4226.666504,4196.153809,4232.820313,4252.820313,0.000000,4.000000,91.000000,,,,0.000000,4.000000,4.000000,4.000000,4.000000,4.000000,4.000000,4.000000,4.000000,4.000000,4.000000,4.000000,4.000000,4.000000,4.000000,100.000000,,,,,,,,,,,,,,,,
1645708385.299913,105.000000,0.000000,4218.589844,4247.307617,4224.871582,4217.179688,4227.692383,4211.794922,4218.205078,4219.102539,4224.487305,4228.205078,4232.563965,4201.794922,4235.897461,4254.102539,0.000000,4.000000,91.000000,,,,0.000000,4.000000,4.000000,4.000000,4.000000,4.000000,4.000000,4.000000,4.000000,4.000000,4.000000,4.000000,4.000000,4.000000,4.000000,100.000000,,,,,,,,,,,,,,,,
1645708385.303853,106.000000,0.000000,4225.000000,4247.563965,4229.102539,4217.179688,4219.358887,4209.230957,4215.000000,4217.948730,4224.743652,4231.666504,4234.230957,4204.230957,4235.384766,4254.743652,0.000000,4.000000,91.000000,,,,0.000000,4.000000,4.000000,4.000000,4.000000,4.000000,4.000000,4.000000,4.000000,4.000000,4.000000,4.000000,4.000000,4.000000,4.000000,100.000000,,,,,,,,,,,,,,,,
1645708385.307793,107.000000,0.000000,4225.128418,4242.563965,4228.333496,4215.000000,4215.769043,4207.307617,4212.820313,4215.769043,4223.589844,4231.025879,4230.256348,4202.179688,4230.769043,4254.487305,0.000000,4.000000,91.000000,,,,0.000000,4.000000,4.000000,4.000000,4.000000,4.000000,4.000000,4.000000,4.000000,4.000000,4.000000,4.000000,4.000000,4.000000,4.000000,100.000000,,,,,,,,,,,,,,,,
1645708385.311734,108.000000,0.000000,4219.230957,4235.641113,4222.820313,4211.410156,4218.077148,4206.922852,4211.922852,4212.179688,4221.410156,4226.922852,4222.563965,4197.436035,4224.230957,4253.974121,0.000000,4.000000,91.000000,,,,0.000000,4.000000,4.000000,4.000000,4.000000,4.000000,4.000000,4.000000,4.000000,4.000000,4.000000,4.000000,4.000000,4.000000,4.000000,100.000000,,,,,,,,,,,,,,,,
1645708385.315674,109.000000,0.000000,4212.563965,4231.153809,4216.153809,4208.461426,4221.666504,4208.333496,4211.666504,4207.820313,4219.615234,4222.307617,4215.256348,4192.436035,4218.846191,4253.846191,0.000000,4.000000,91.000000,,,,0.000000,4.000000,4.000000,4.000000,4.000000,4.000000,4.000000,4.000000,4.000000,4.000000,4.000000,4.000000,4.000000,4.000000,4.000000,100.000000,,,,,,,,,,,,,,,,
1645708385.319614,110.000000,0.000000,4210.769043,4231.282227,4213.333496,4207.692383,4220.512695,4210.000000,4211.025879,4204.743652,4219.230957,4220.256348,4211.666504,4189.615234,4217.436035,4254.102539,0.000000,4.000000,91.000000,,,,0.000000,4.000000,4.000000,4.000000,4.000000,4.000000,4.000000,4.000000,4.000000,4.000000,4.000000,4.000000,4.000000,4.000000,4.000000,100.000000,1.000000,100.000000,4.000000,4.000000,4.000000,4.000000,4.000000,4.000000,4.000000,4.000000,4.000000,4.000000,4.000000,4.000000,4.000000,4.000000
1645708385.323554,111.000000,0.000000,4216.153809,4235.769043,4216.922852,4210.000000,4214.358887,4210.769043,4210.897461,4205.641113,4220.641113,4221.666504,4212.820313,4190.000000,4220.512695,4254.743652,0.000000,4.000000,91.000000,,,,0.000000,4.000000,4.000000,4.000000,4.000000,4.000000,4.000000,4.000000,4.000000,4.000000,4.000000,4.000000,4.000000,4.000000,4.000000,100.000000,,,,,,,,,,,,,,,,
1645708385.327494,112.000000,0.000000,4225.897461,4242.820313,4225.384766,4214.871582,4208.974121,4211.282227,4212.692383,4211.410156,4223.077148,4225.512695,4218.077148,4193.589844,4226.538574,4257.051270,0.000000,4.000000,91.000000,,,,0.000000,4.000000,4.000000,4.000000,4.000000,4.000000,4.000000,4.000000,4.000000,4.000000,4.000000,4.000000,4.000000,4.000000,4.000000,100.000000,,,,,,,,,,,,,,,,
1645708385.331434,113.000000,0.000000,4234.871582,4249.230957,4233.461426,4220.641113,4211.025879,4212.820313,4216.282227,4219.487305,4225.512695,4230.256348,4226.025879,4198.846191,4233.333496,4262.179688,0.000000,4.000000,91.000000,,,,0.000000,4.000000,4.000000,4.000000,4.000000,4.000000,4.000000,4.000000,4.000000,4.000000,4.000000,4.000000,4.000000,4.000000,4.000000,100.000000,,,,,,,,,,,,,,,,
1645708385.335374,114.000000,0.000000,4238.333496,4251.666504,4236.410156,4225.256348,4220.384766,4215.128418,4219.102539,4224.230957,4226.794922,4233.974121,4233.846191,4203.589844,4238.461426,4268.205078,0.000000,4.000000,91.000000,,,,0.000000,4.000000,4.000000,4.000000,4.000000,4.000000,4.000000,4.000000,4.000000,4.000000,4.000000,4.000000,4.000000,4.000000,4.000000,100.000000,,,,,,,,,,,,,,,,
1645708385.339314,115.000000,0.000000,4235.769043,4248.077148,4233.717773,4227.436035,4230.512695,4215.769043,4218.205078,4222.179688,4226.410156,4234.487305,4238.205078,4206.282227,4240.512695,4270.384766,0.000000,4.000000,91.000000,,,,0.000000,4.000000,4.000000,4.000000,4.000000,4.000000,4.000000,4.000000,4.000000,4.000000,4.000000,4.000000,4.000000,4.000000,4.000000,100.000000,,,,,,,,,,,,,,,,
1645708385.343254,116.000000,0.000000,4230.512695,4240.769043,4229.358887,4227.179688,4234.102539,4212.692383,4213.461426,4214.358887,4224.743652,4231.666504,4237.307617,4207.179688,4239.230957,4266.666504,0.000000,4.000000,91.000000,,,,0.000000,4.000000,4.000000,4.000000,4.000000,4.000000,4.000000,4.000000,4.000000,4.000000,4.000000,4.000000,4.000000,4.000000,4.000000,100.000000,,,,,,,,,,,,,,,,
1645708385.347194,117.000000,0.000000,4227.692383,4235.000000,4228.205078,4226.025879,4229.871582,4207.307617,4208.077148,4206.282227,4222.692383,4228.333496,4232.820313,4207.179688,4237.307617,4261.282227,0.000000,4.000000,91.000000,,,,0.000000,4.000000,4.000000,4.000000,4.000000,4.000000,4.000000,4.000000,4.000000,4.000000,4.000000,4.000000,4.000000,4.000000,4.000000,100.000000,,,,,,,,,,,,,,,,
1645708385.351135,118.000000,0.000000,4230.256348,4235.769043,4232.179688,4225.897461,4221.794922,4203.077148,4205.769043,4203.461426,4221.282227,4227.692383,4229.358887,4207.820313,4238.077148,4261.410156,0.000000,4.000000,91.000000,,,,0.000000,4.000000,4.000000,4.000000,4.000000,4.000000,4.000000,4.000000,4.000000,4.000000,4.000000,4.000000,4.000000,4.000000,4.000000,100.000000,,,,,,,,,,,,,,,,
1645708385.355075,119.000000,0.000000,4235.769043,4242.820313,4237.948730,4227.179688,4215.384766,4202.051270,4207.436035,4206.794922,4221.410156,4230.000000,4229.871582,4210.000000,4241.794922,4269.487305,0.000000,4.000000,91.000000,,,,0.000000,4.000000,4.000000,4.000000,4.000000,4.000000,4.000000,4.000000,4.000000,4.000000,4.000000,4.000000,4.000000,4.000000,4.000000,100.000000,,,,,,,,,,,,,,,,
1645708385.359015,120.000000,0.000000,4238.846191,4251.666504,4240.769043,4228.077148,4213.077148,4203.589844,4210.128418,4213.205078,4222.436035,4232.307617,4233.717773,4213.077148,4245.128418,4278.205078,0.000000,4.000000,91.000000,,,,0.000000,4.000000,4.000000,4.000000,4.000000,4.000000,4.000000,4.000000,4.000000,4.000000,4.000000,4.000000,4.000000,4.000000,4.000000,100.000000,,,,,,,,,,,,,,,,
1645708385.362955,121.000000,0.000000,4236.025879,4256.025879,4238.717773,4226.025879,4214.102539,4205.512695,4210.641113,4218.333496,4223.974121,4231.666504,4237.563965,4215.256348,4244.230957,4276.922852,0.000000,4.000000,91.000000,,,,0.000000,4.000000,4.000000,4.000000,4.000000,4.000000,4.000000,4.000000,4.000000,4.000000,4.000000,4.000000,4.000000,4.000000,4.000000,100.000000,,,,,,,,,,,,,,,,
1645708385.366895,122.000000,0.000000,4229.102539,4253.205078,4234.487305,4220.897461,4216.410156,4205.897461,4208.589844,4220.000000,4225.897461,4229.230957,4238.333496,4214.871582,4239.230957,4262.563965,0.000000,4.000000,91.000000,,,,0.000000,4.000000,4.000000,4.000000,4.000000,4.000000,4.000000,4.000000,4.000000,4.000000,4.000000,4.000000,4.000000,4.000000,4.000000,100.000000,,,,,,,,,,,,,,,,
1645708385.370735,123.000000,0.000000,4223.461426,4245.256348,4232.948730,4215.000000,4218.717773,4205.512695,4206.153809,4218.589844,4227.436035,4228.846191,4236.153809,4212.051270,4233.717773,4241.410156,0.000000,4.000000,91.000000,,,,0.000000,4.000000,4.000000,4.000000,4.000000,4.000000,4.000000,4.000000,4.000000,4.000000,4.000000,4.000000,4.000000,4.000000,4.000000,100.000000,,,,,,,,,,,,,,,,
1645708385.374675,124.000000,0.000000,4222.563965,4236.538574,4235.897461,4211.794922,4220.128418,4206.025879,4206.153809,4215.641113,4227.436035,4232.179688,4232.948730,4208.333496,4230.641113,4224.487305,0.000000,4.000000,91.000000,,,,0.000000,4.000000,4.000000,4.000000,4.000000,4.000000,4.000000,4.000000,4.000000,4.000000,4.000000,4.000000,4.000000,4.000000,4.000000,100.000000,,,,,,,,,,,,,,,,
1645708385.378615,125.000000,0.000000,4224.230957,4230.769043,4241.153809,4213.077148,4220.000000,4207.948730,4208.974121,4212.436035,4225.000000,4235.769043,4230.256348,4205.384766,4230.512695,4218.717773,0.000000,4.000000,91.000000,,,,0.000000,4.000000,4.000000,4.000000,4.000000,4.000000,4.000000,4.000000,4.000000,4.000000,4.000000,4.000000,4.000000,4.000000,4.000000,100.000000,,,,,,,,,,,,,,,,
1645708385.382556,126.000000,0.000000,4222.692383,4228.717773,4243.589844,4217.820313,4218.461426,4209.487305,4212.563965,4209.358887,4220.641113,4234.102539,4227.436035,4203.461426,4231.025879,4223.589844,0.000000,4.000000,91.000000,,,,0.000000,4.000000,4.000000,4.000000,4.000000,4.000000,4.000000,4.000000,4.000000,4.000000,4.000000,4.000000,4.000000,4.000000,4.000000,100.000000,,,,,,,,,,,,,,,,
1645708385.386496,127.000000,0.000000,4215.384766,4229.358887,4239.487305,4222.179688,4216.025879,4209.230957,4213.589844,4206.666504,4216.666504,4225.512695,4223.589844,4202.051270,4230.000000,4234.358887,0.000000,4.000000,91.000000,,,,0.000000,4.000000,4.000000,4.000000,4.000000,4.000000,4.000000,4.000000,4.000000,4.000000,4.000000,4.000000,4.000000,4.000000,4.000000,100.000000,,,,,,,,,,,,,,,,
