title:Alex-NxSOzVBxLNPWugHw-odkuw, start timestamp:1645708162.027411, stop timestamp:1645708187.594156, headset type:EPOCPLUS, headset serial:3B9AEBFF, headset firmware:626, channels:55, sampling rate:eeg_256, samples:6490      , version:2.1, 
Timestamp,EEG.Counter,EEG.Interpolated,EEG.AF3,EEG.F7,EEG.F3,EEG.FC5,EEG.T7,EEG.P7,EEG.O1,EEG.O2,EEG.P8,EEG.T8,EEG.FC6,EEG.F4,EEG.F8,EEG.AF4,EEG.RawCq,EEG.Battery,EEG.BatteryPercent,MarkerIndex,MarkerType,MarkerValueInt,EEG.MarkerHardware,CQ.AF3,CQ.F7,CQ.F3,CQ.FC5,CQ.T7,CQ.P7,CQ.O1,CQ.O2,CQ.P8,CQ.T8,CQ.FC6,CQ.F4,CQ.F8,CQ.AF4,CQ.Overall,EQ.SampleRateQuality,EQ.OVERALL,EQ.AF3,EQ.F7,EQ.F3,EQ.FC5,EQ.T7,EQ.P7,EQ.O1,EQ.O2,EQ.P8,EQ.T8,EQ.FC6,EQ.F4,EQ.F8,EQ.AF4
1645708162.027411,16.000000,0.000000,4240.256348,4164.358887,4216.538574,4209.871582,4188.717773,4226.666504,4242.179688,4242.692383,4234.102539,4187.307617,4137.436035,4191.538574,4146.025879,4210.769043,3454.000000,4.000000,91.000000,,,,0.000000,4.000000,4.000000,4.000000,4.000000,4.000000,4.000000,4.000000,4.000000,4.000000,4.000000,4.000000,4.000000,4.000000,4.000000,100.000000,,,,,,,,,,,,,,,,
1645708162.031251,17.000000,0.000000,4242.563965,4170.128418,4217.051270,4213.205078,4202.307617,4227.948730,4242.307617,4246.153809,4236.025879,4190.897461,4140.897461,4193.461426,4146.922852,4213.846191,3280.000000,4.000000,91.000000,,,,0.000000,4.000000,4.000000,4.000000,4.000000,4.000000,4.000000,4.000000,4.000000,4.000000,4.000000,4.000000,4.000000,4.000000,4.000000,100.000000,,,,,,,,,,,,,,,,
1645708162.035192,18.000000,0.000000,4248.333496,4176.025879,4220.384766,4216.282227,4216.282227,4228.205078,4242.307617,4249.358887,4237.820313,4195.512695,4146.282227,4197.436035,4151.025879,4218.077148,2417.000000,4.000000,91.000000,,,,0.000000,4.000000,4.000000,4.000000,4.000000,4.000000,4.000000,4.000000,4.000000,4.000000,4.000000,4.000000,4.000000,4.000000,4.000000,100.000000,,,,,,,,,,,,,,,,
1645708162.039132,19.000000,0.000000,4255.641113,4179.743652,4225.384766,4219.615234,4222.436035,4227.563965,4242.307617,4249.615234,4238.077148,4197.563965,4151.410156,4202.436035,4155.128418,4222.692383,3427.000000,4.000000,91.000000,,,,0.000000,4.000000,4.000000,4.000000,4.000000,4.000000,4.000000,4.000000,4.000000,4.000000,4.000000,4.000000,4.000000,4.000000,4.000000,100.000000,,,,,,,,,,,,,,,,
1645708162.043072,20.000000,0.000000,4261.282227,4180.384766,4230.384766,4223.333496,4218.974121,4226.153809,4241.666504,4246.794922,4236.410156,4195.641113,4154.743652,4207.307617,4156.666504,4226.666504,3454.000000,4.000000,91.000000,,,,0.000000,4.000000,4.000000,4.000000,4.000000,4.000000,4.000000,4.000000,4.000000,4.000000,4.000000,4.000000,4.000000,4.000000,4.000000,100.000000,,,,,,,,,,,,,,,,
1645708162.047012,21.000000,0.000000,4262.948730,4178.846191,4233.846191,4227.051270,4210.897461,4224.230957,4239.871582,4243.333496,4233.717773,4192.307617,4156.025879,4210.641113,4155.897461,4229.358887,3280.000000,4.000000,91.000000,,,,0.000000,4.000000,4.000000,4.000000,4.000000,4.000000,4.000000,4.000000,4.000000,4.000000,4.000000,4.000000,4.000000,4.000000,4.000000,100.000000,,,,,,,,,,,,,,,,
1645708162.050952,22.000000,0.000000,4261.282227,4178.077148,4235.128418,4229.358887,4205.128418,4222.948730,4237.820313,4242.051270,4231.410156,4191.410156,4156.153809,4211.922852,4154.615234,4230.641113,2417.000000,4.000000,91.000000,,,,0.000000,4.000000,4.000000,4.000000,4.000000,4.000000,4.000000,4.000000,4.000000,4.000000,4.000000,4.000000,4.000000,4.000000,4.000000,100.000000,,,,,,,,,,,,,,,,
1645708162.054892,23.000000,0.000000,4258.717773,4179.358887,4234.230957,4228.974121,4205.000000,4223.333496,4236.410156,4243.717773,4231.282227,4195.256348,4156.282227,4211.025879,4154.358887,4230.769043,3427.000000,4.000000,91.000000,,,,0.000000,4.000000,4.000000,4.000000,4.000000,4.000000,4.000000,4.000000,4.000000,4.000000,4.000000,4.000000,4.000000,4.000000,4.000000,100.000000,,,,,,,,,,,,,,,,
1645708162.058832,24.000000,0.000000,4257.563965,4181.410156,4231.282227,4226.410156,4208.461426,4225.641113,4236.410156,4247.051270,4234.358887,4202.307617,4156.794922,4208.461426,4155.000000,4230.256348,3454.000000,4.000000,91.000000,,,,0.000000,4.000000,4.000000,4.000000,4.000000,4.000000,4.000000,4.000000,4.000000,4.000000,4.000000,4.000000,4.000000,4.000000,4.000000,100.000000,,,,,,,,,,,,,,,,
1645708162.062772,25.000000,0.000000,4257.692383,4181.153809,4227.179688,4223.461426,4211.410156,4227.948730,4237.948730,4250.256348,4239.102539,4208.333496,4156.666504,4205.000000,4155.128418,4229.871582,3280.000000,4.000000,91.000000,,,,0.000000,4.000000,4.000000,4.000000,4.000000,4.000000,4.000000,4.000000,4.000000,4.000000,4.000000,4.000000,4.000000,4.000000,4.000000,100.000000,,,,,,,,,,,,,,,,
1645708162.066712,26.000000,0.000000,4257.692383,4177.692383,4223.461426,4222.307617,4211.025879,4228.077148,4240.128418,4252.051270,4242.692383,4209.871582,4155.256348,4201.538574,4153.846191,4229.615234,2417.000000,4.000000,91.000000,,,,0.000000,4.000000,4.000000,4.000000,4.000000,4.000000,4.000000,4.000000,4.000000,4.000000,4.000000,4.000000,4.000000,4.000000,4.000000,100.000000,,,,,,,,,,,,,,,,
1645708162.070653,27.000000,0.000000,4256.410156,4173.717773,4220.769043,4223.589844,4208.333496,4225.769043,4241.538574,4252.307617,4243.589844,4207.051270,4153.077148,4198.974121,4151.922852,4230.256348,3427.000000,4.000000,91.000000,,,,0.000000,4.000000,4.000000,4.000000,4.000000,4.000000,4.000000,4.000000,4.000000,4.000000,4.000000,4.000000,4.000000,4.000000,4.000000,100.000000,,,,,,,,,,,,,,,,
1645708162.074593,28.000000,0.000000,4254.743652,4173.205078,4219.743652,4225.769043,4206.410156,4222.692383,4240.769043,4250.897461,4241.794922,4203.077148,4152.179688,4198.846191,4151.282227,4232.307617,3454.000000,4.000000,91.000000,,,,0.000000,4.000000,4.000000,4.000000,4.000000,4.000000,4.000000,4.000000,4.000000,4.000000,4.000000,4.000000,4.000000,4.000000,4.000000,100.000000,,,,,,,,,,,,,,,,
1645708162.078533,29.000000,0.000000,4253.974121,4177.692383,4220.897461,4226.794922,4208.205078,4220.897461,4238.461426,4248.846191,4239.102539,4201.153809,4153.717773,4201.282227,4152.692383,4235.256348,3280.000000,4.000000,91.000000,,,,0.000000,4.000000,4.000000,4.000000,4.000000,4.000000,4.000000,4.000000,4.000000,4.000000,4.000000,4.000000,4.000000,4.000000,4.000000,100.000000,,,,,,,,,,,,,,,,
1645708162.082473,30.000000,0.000000,4254.487305,4183.333496,4223.461426,4225.641113,4212.563965,4221.153809,4237.051270,4247.179688,4236.922852,4201.794922,4156.282227,4204.743652,4154.615234,4236.922852,2417.000000,4.000000,91.000000,,,,0.000000,4.000000,4.000000,4.000000,4.000000,4.000000,4.000000,4.000000,4.000000,4.000000,4.000000,4.000000,4.000000,4.000000,4.000000,100.000000,,,,,,,,,,,,,,,,
1645708162.086413,31.000000,0.000000,4254.615234,4185.384766,4225.641113,4223.333496,4215.256348,4222.692383,4238.717773,4247.436035,4236.538574,4202.948730,4156.794922,4206.282227,4154.358887,4235.897461,3427.000000,4.000000,91.000000,,,,0.000000,4.000000,4.000000,4.000000,4.000000,4.000000,4.000000,4.000000,4.000000,4.000000,4.000000,4.000000,4.000000,4.000000,4.000000,100.000000,,,,,,,,,,,,,,,,
1645708162.090353,32.000000,0.000000,4253.077148,4182.179688,4225.641113,4221.153809,4213.077148,4224.230957,4243.077148,4249.230957,4237.563965,4202.436035,4153.717773,4204.230957,4150.512695,4231.666504,0.000000,4.000000,91.000000,,,,0.000000,4.000000,4.000000,4.000000,4.000000,4.000000,4.000000,4.000000,4.000000,4.000000,4.000000,4.000000,4.000000,4.000000,4.000000,100.000000,,,,,,,,,,,,,,,,
1645708162.094293,33.000000,0.000000,4250.256348,4177.051270,4223.205078,4219.743652,4206.538574,4225.256348,4246.666504,4250.641113,4238.974121,4199.743652,4148.461426,4199.102539,4144.487305,4225.641113,0.000000,4.000000,91.000000,,,,0.000000,4.000000,4.000000,4.000000,4.000000,4.000000,4.000000,4.000000,4.000000,4.000000,4.000000,4.000000,4.000000,4.000000,4.000000,100.000000,,,,,,,,,,,,,,,,
1645708162.098233,34.000000,0.000000,4248.205078,4175.000000,4220.641113,4218.333496,4199.358887,4225.897461,4246.538574,4249.230957,4238.717773,4196.410156,4143.717773,4193.717773,4139.230957,4219.230957,0.000000,4.000000,91.000000,,,,0.000000,4.000000,4.000000,4.000000,4.000000,4.000000,4.000000,4.000000,4.000000,4.000000,4.000000,4.000000,4.000000,4.000000,4.000000,100.000000,,,,,,,,,,,,,,,,
1645708162.102273,35.000000,0.000000,4248.846191,4178.333496,4220.256348,4216.153809,4195.897461,4225.897461,4243.077148,4245.000000,4236.025879,4193.717773,4141.794922,4191.025879,4136.922852,4214.358887,0.000000,4.000000,91.000000,,,,0.000000,4.000000,4.000000,4.000000,4.000000,4.000000,4.000000,4.000000,4.000000,4.000000,4.000000,4.000000,4.000000,4.000000,4.000000,100.000000,,,,,,,,,,,,,,,,
1645708162.106213,36.000000,0.000000,4252.051270,4185.000000,4222.948730,4213.461426,4198.205078,4225.512695,4239.358887,4240.769043,4232.051270,4191.922852,4143.589844,4192.051270,4138.077148,4212.307617,0.000000,4.000000,91.000000,,,,0.000000,4.000000,4.000000,4.000000,4.000000,4.000000,4.000000,4.000000,4.000000,4.000000,4.000000,4.000000,4.000000,4.000000,4.000000,100.000000,,,,,,,,,,,,,,,,
1645708162.110153,37.000000,0.000000,4255.384766,4191.025879,4226.922852,4212.307617,4205.512695,4225.641113,4238.205078,4239.230957,4229.487305,4191.025879,4148.461426,4195.641113,4141.153809,4213.333496,0.000000,4.000000,91.000000,,,,0.000000,4.000000,4.000000,4.000000,4.000000,4.000000,4.000000,4.000000,4.000000,4.000000,4.000000,4.000000,4.000000,4.000000,4.000000,100.000000,,,,,,,,,,,,,,,,
1645708162.114094,38.000000,0.000000,4257.051270,4193.974121,4230.128418,4214.487305,4213.461426,4226.666504,4239.743652,4240.769043,4230.000000,4191.410156,4154.102539,4199.102539,4144.102539,4216.538574,0.000000,4.000000,91.000000,,,,0.000000,4.000000,4.000000,4.000000,4.000000,4.000000,4.000000,4.000000,4.000000,4.000000,4.000000,4.000000,4.000000,4.000000,4.000000,100.000000,,,,,,,,,,,,,,,,
1645708162.118034,39.000000,0.000000,4256.410156,4193.333496,4231.410156,4219.615234,4216.794922,4227.307617,4241.922852,4242.692383,4232.307617,4192.692383,4157.692383,4200.769043,4145.256348,4219.487305,0.000000,4.000000,91.000000,,,,0.000000,4.000000,4.000000,4.000000,4.000000,4.000000,4.000000,4.000000,4.000000,4.000000,4.000000,4.000000,4.000000,4.000000,4.000000,100.000000,,,,,,,,,,,,,,,,
1645708162.121974,40.000000,0.000000,4254.358887,4189.871582,4231.410156,4223.846191,4211.922852,4226.410156,4242.436035,4242.179688,4233.846191,4193.974121,4157.179688,4199.743652,4144.358887,4219.743652,0.000000,4.000000,91.000000,,,,0.000000,4.000000,4.000000,4.000000,4.000000,4.000000,4.000000,4.000000,4.000000,4.000000,4.000000,4.000000,4.000000,4.000000,4.000000,100.000000,,,,,,,,,,,,,,,,
1645708162.125914,41.000000,0.000000,4252.307617,4184.487305,4230.897461,4223.077148,4201.282227,4223.717773,4240.641113,4238.974121,4232.692383,4193.717773,4153.461426,4197.307617,4141.794922,4216.794922,0.000000,4.000000,91.000000,,,,0.000000,4.000000,4.000000,4.000000,4.000000,4.000000,4.000000,4.000000,4.000000,4.000000,4.000000,4.000000,4.000000,4.000000,4.000000,100.000000,,,,,,,,,,,,,,,,
1645708162.129854,42.000000,0.000000,4252.051270,4178.974121,4231.153809,4216.025879,4191.794922,4220.641113,4237.307617,4235.897461,4230.000000,4192.179688,4150.128418,4195.512695,4138.846191,4212.692383,0.000000,4.000000,91.000000,,,,0.000000,4.000000,4.000000,4.000000,4.000000,4.000000,4.000000,4.000000,4.000000,4.000000,4.000000,4.000000,4.000000,4.000000,4.000000,100.000000,,,,,,,,,,,,,,,,
1645708162.133794,43.000000,0.000000,4254.230957,4175.128418,4232.051270,4206.410156,4190.512695,4218.717773,4234.230957,4235.897461,4228.461426,4190.769043,4150.256348,4194.871582,4136.794922,4209.871582,0.000000,4.000000,91.000000,,,,0.000000,4.000000,4.000000,4.000000,4.000000,4.000000,4.000000,4.000000,4.000000,4.000000,4.000000,4.000000,4.000000,4.000000,4.000000,100.000000,,,,,,,,,,,,,,,,
1645708162.137734,44.000000,0.000000,4257.692383,4174.358887,4232.436035,4199.743652,4197.692383,4217.820313,4233.077148,4239.230957,4229.230957,4190.897461,4153.846191,4194.615234,4137.051270,4209.487305,0.000000,4.000000,91.000000,,,,0.000000,4.000000,4.000000,4.000000,4.000000,4.000000,4.000000,4.000000,4.000000,4.000000,4.000000,4.000000,4.000000,4.000000,4.000000,100.000000,,,,,,,,,,,,,,,,
1645708162.141674,45.000000,0.000000,4260.256348,4177.179688,4232.051270,4199.358887,4207.179688,4217.051270,4233.974121,4243.333496,4231.282227,4192.179688,4157.692383,4193.461426,4139.358887,4210.128418,0.000000,4.000000,91.000000,,,,0.000000,4.000000,4.000000,4.000000,4.000000,4.000000,4.000000,4.000000,4.000000,4.000000,4.000000,4.000000,4.000000,4.000000,4.000000,100.000000,,,,,,,,,,,,,,,,
1645708162.145614,46.000000,0.000000,4260.641113,4182.820313,4231.410156,4203.461426,4212.820313,4215.897461,4236.025879,4245.384766,4232.436035,4193.717773,4158.846191,4191.282227,4142.179688,4210.256348,0.000000,4.000000,91.000000,,,,0.000000,4.000000,4.000000,4.000000,4.000000,4.000000,4.000000,4.000000,4.000000,4.000000,4.000000,4.000000,4.000000,4.000000,4.000000,100.000000,,,,,,,,,,,,,,,,
1645708162.149555,47.000000,0.000000,4259.358887,4189.102539,4230.641113,4207.820313,4212.692383,4214.871582,4237.179688,4243.589844,4232.436035,4194.102539,4156.025879,4189.358887,4143.461426,4209.102539,0.000000,4.000000,91.000000,,,,0.000000,4.000000,4.000000,4.000000,4.000000,4.000000,4.000000,4.000000,4.000000,4.000000,4.000000,4.000000,4.000000,4.000000,4.000000,100.000000,,,,,,,,,,,,,,,,
1645708162.153495,48.000000,0.000000,4257.436035,4192.307617,4229.230957,4208.717773,4209.102539,4215.000000,4236.153809,4238.717773,4231.794922,4193.461426,4150.384766,4188.205078,4141.922852,4207.436035,0.000000,4.000000,91.000000,,,,0.000000,4.000000,4.000000,4.000000,4.000000,4.000000,4.000000,4.000000,4.000000,4.000000,4.000000,4.000000,4.000000,4.000000,4.000000,100.000000,,,,,,,,,,,,,,,,
1645708162.157435,49.000000,0.000000,4255.128418,4189.487305,4226.666504,4205.769043,4204.743652,4216.025879,4233.461426,4233.333496,4231.025879,4191.922852,4144.615234,4187.179688,4137.948730,4205.769043,0.000000,4.000000,91.000000,,,,0.000000,4.000000,4.000000,4.000000,4.000000,4.000000,4.000000,4.000000,4.000000,4.000000,4.000000,4.000000,4.000000,4.000000,4.000000,100.000000,,,,,,,,,,,,,,,,
1645708162.161375,50.000000,0.000000,4252.692383,4181.666504,4223.461426,4201.025879,4200.769043,4216.666504,4230.897461,4230.512695,4230.384766,4189.743652,4140.769043,4185.256348,4133.205078,4203.717773,0.000000,4.000000,91.000000,,,,0.000000,4.000000,4.000000,4.000000,4.000000,4.000000,4.000000,4.000000,4.000000,4.000000,4.000000,4.000000,4.000000,4.000000,4.000000,100.000000,,,,,,,,,,,,,,,,
1645708162.165315,51.000000,0.000000,4250.256348,4173.974121,4220.897461,4197.051270,4198.077148,4215.897461,4230.128418,4231.922852,4230.256348,4187.563965,4140.000000,4182.436035,4129.743652,4201.538574,0.000000,4.000000,91.000000,,,,0.000000,4.000000,4.000000,4.000000,4.000000,4.000000,4.000000,4.000000,4.000000,4.000000,4.000000,4.000000,4.000000,4.000000,4.000000,100.000000,,,,,,,,,,,,,,,,
1645708162.169255,52.000000,0.000000,4248.974121,4172.307617,4220.256348,4194.487305,4197.820313,4214.230957,4231.410156,4236.282227,4230.897461,4187.179688,4142.563965,4180.512695,4129.487305,4200.000000,0.000000,4.000000,91.000000,,,,0.000000,4.000000,4.000000,4.000000,4.000000,4.000000,4.000000,4.000000,4.000000,4.000000,4.000000,4.000000,4.000000,4.000000,4.000000,100.000000,,,,,,,,,,,,,,,,
1645708162.173195,53.000000,0.000000,4249.487305,4178.205078,4222.179688,4193.077148,4200.128418,4213.717773,4234.102539,4241.538574,4232.179688,4190.256348,4147.307617,4180.769043,4133.077148,4200.256348,0.000000,4.000000,91.000000,,,,0.000000,4.000000,4.000000,4.000000,4.000000,4.000000,4.000000,4.000000,4.000000,4.000000,4.000000,4.000000,4.000000,4.000000,4.000000,100.000000,,,,,,,,,,,,,,,,
1645708162.177235,54.000000,0.000000,4251.794922,4187.436035,4225.897461,4192.307617,4203.846191,4215.769043,4237.179688,4245.641113,4233.461426,4196.025879,4151.922852,4183.077148,4138.974121,4202.436035,0.000000,4.000000,91.000000,,,,0.000000,4.000000,4.000000,4.000000,4.000000,4.000000,4.000000,4.000000,4.000000,4.000000,4.000000,4.000000,4.000000,4.000000,4.000000,100.000000,,,,,,,,,,,,,,,,
1645708162.181175,55.000000,0.000000,4253.846191,4193.589844,4229.358887,4192.436035,4206.025879,4219.743652,4239.615234,4247.948730,4234.102539,4200.641113,4153.589844,4184.615234,4143.205078,4204.615234,0.000000,4.000000,91.000000,,,,0.000000,4.000000,4.000000,4.000000,4.000000,4.000000,4.000000,4.000000,4.000000,4.000000,4.000000,4.000000,4.000000,4.000000,4.000000,100.000000,,,,,,,,,,,,,,,,
1645708162.185115,56.000000,0.000000,4253.589844,4191.794922,4230.384766,4193.589844,4205.000000,4222.948730,4240.000000,4248.461426,4234.230957,4200.256348,4150.128418,4182.563965,4142.307617,4203.717773,0.000000,4.000000,91.000000,1,1,0,0.000000,4.000000,4.000000,4.000000,4.000000,4.000000,4.000000,4.000000,4.000000,4.000000,4.000000,4.000000,4.000000,4.000000,4.000000,100.000000,1.000000,41.666668,4.000000,4.000000,4.000000,1.000000,1.000000,4.000000,4.000000,4.000000,4.000000,4.000000,4.000000,4.000000,4.000000,3.000000
1645708162.189055,57.000000,0.000000,4250.512695,4182.692383,4227.692383,4195.128418,4200.641113,4223.461426,4238.077148,4247.307617,4234.102539,4195.000000,4142.307617,4176.410156,4135.897461,4198.333496,0.000000,4.000000,91.000000,,,,0.000000,4.000000,4.000000,4.000000,4.000000,4.000000,4.000000,4.000000,4.000000,4.000000,4.000000,4.000000,4.000000,4.000000,4.000000,100.000000,,,,,,,,,,,,,,,,
1645708162.192996,58.000000,0.000000,4246.153809,4172.307617,4222.692383,4196.794922,4195.256348,4221.282227,4234.615234,4245.512695,4233.974121,4189.102539,4134.102539,4169.487305,4127.436035,4190.641113,0.000000,4.000000,91.000000,,,,0.000000,4.000000,4.000000,4.000000,4.000000,4.000000,4.000000,4.000000,4.000000,4.000000,4.000000,4.000000,4.000000,4.000000,4.000000,100.000000,,,,,,,,,,,,,,,,
1645708162.196936,59.000000,0.000000,4242.692383,4167.179688,4217.692383,4197.820313,4192.307617,4218.589844,4232.307617,4244.358887,4234.102539,4186.922852,4130.256348,4166.538574,4121.922852,4185.256348,0.000000,4.000000,91.000000,,,,0.000000,4.000000,4.000000,4.000000,4.000000,4.000000,4.000000,4.000000,4.000000,4.000000,4.000000,4.000000,4.000000,4.000000,4.000000,100.000000,,,,,,,,,,,,,,,,
1645708162.200876,60.000000,0.000000,4241.666504,4169.230957,4215.000000,4197.563965,4193.333496,4218.077148,4232.820313,4244.615234,4234.102539,4189.487305,4133.461426,4169.487305,4122.436035,4185.384766,0.000000,4.000000,91.000000,,,,0.000000,4.000000,4.000000,4.000000,4.000000,4.000000,4.000000,4.000000,4.000000,4.000000,4.000000,4.000000,4.000000,4.000000,4.000000,100.000000,,,,,,,,,,,,,,,,
1645708162.204816,61.000000,0.000000,4243.205078,4175.000000,4215.384766,4196.025879,4197.307617,4220.000000,4235.897461,4246.538574,4233.717773,4193.717773,4141.153809,4176.153809,4127.563965,4190.256348,0.000000,4.000000,91.000000,,,,0.000000,4.000000,4.000000,4.000000,4.000000,4.000000,4.000000,4.000000,4.000000,4.000000,4.000000,4.000000,4.000000,4.000000,4.000000,100.000000,,,,,,,,,,,,,,,,
1645708162.208756,62.000000,0.000000,4246.410156,4179.358887,4217.820313,4194.487305,4202.179688,4222.692383,4238.846191,4248.717773,4232.820313,4196.666504,4148.077148,4182.307617,4133.589844,4195.641113,0.000000,4.000000,91.000000,,,,0.000000,4.000000,4.000000,4.000000,4.000000,4.000000,4.000000,4.000000,4.000000,4.000000,4.000000,4.000000,4.000000,4.000000,4.000000,100.000000,,,,,,,,,,,,,,,,
1645708162.212696,63.000000,0.000000,4250.128418,4180.128418,4219.871582,4194.230957,4205.897461,4223.846191,4239.102539,4249.487305,4232.179688,4197.563965,4151.153809,4183.974121,4137.692383,4197.692383,0.000000,4.000000,91.000000,,,,0.000000,4.000000,4.000000,4.000000,4.000000,4.000000,4.000000,4.000000,4.000000,4.000000,4.000000,4.000000,4.000000,4.000000,4.000000,100.000000,,,,,,,,,,,,,,,,
1645708162.216536,64.000000,0.000000,4253.077148,4178.846191,4219.743652,4194.615234,4208.205078,4222.948730,4236.153809,4247.692383,4232.051270,4198.077148,4151.025879,4180.769043,4140.000000,4195.512695,0.000000,4.000000,91.000000,,,,0.000000,4.000000,4.000000,4.000000,4.000000,4.000000,4.000000,4.000000,4.000000,4.000000,4.000000,4.000000,4.000000,4.000000,4.000000,100.000000,,,,,,,,,,,,,,,,
1645708162.220476,65.000000,0.000000,4254.230957,4177.436035,4217.563965,4193.333496,4209.230957,4221.538574,4231.922852,4243.974121,4232.436035,4198.846191,4150.384766,4175.000000,4141.794922,4191.282227,0.000000,4.000000,91.000000,,,,0.000000,4.000000,4.000000,4.000000,4.000000,4.000000,4.000000,4.000000,4.000000,4.000000,4.000000,4.000000,4.000000,4.000000,4.000000,100.000000,,,,,,,,,,,,,,,,
1645708162.224417,66.000000,0.000000,4252.948730,4177.051270,4215.256348,4188.589844,4208.846191,4220.769043,4229.230957,4239.871582,4232.692383,4198.205078,4149.615234,4170.384766,4142.051270,4187.692383,0.000000,4.000000,91.000000,,,,0.000000,4.000000,4.000000,4.000000,4.000000,4.000000,4.000000,4.000000,4.000000,4.000000,4.000000,4.000000,4.000000,4.000000,4.000000,100.000000,,,,,,,,,,,,,,,,
1645708162.228357,67.000000,0.000000,4249.102539,4176.153809,4213.846191,4181.922852,4206.282227,4220.897461,4229.871582,4236.922852,4232.307617,4194.102539,4146.922852,4167.820313,4139.102539,4185.000000,0.000000,4.000000,91.000000,,,,0.000000,4.000000,4.000000,4.000000,4.000000,4.000000,4.000000,4.000000,4.000000,4.000000,4.000000,4.000000,4.000000,4.000000,4.000000,100.000000,,,,,,,,,,,,,,,,
1645708162.232297,68.000000,0.000000,4243.717773,4173.717773,4212.820313,4177.948730,4202.179688,4221.282227,4233.205078,4235.512695,4230.897461,4186.666504,4141.153809,4166.538574,4131.922852,4182.307617,0.000000,4.000000,91.000000,,,,0.000000,4.000000,4.000000,4.000000,4.000000,4.000000,4.000000,4.000000,4.000000,4.000000,4.000000,4.000000,4.000000,4.000000,4.000000,100.000000,,,,,,,,,,,,,,,,
1645708162.236237,69.000000,0.000000,4238.974121,4170.512695,4211.666504,4180.384766,4199.230957,4221.538574,4236.282227,4235.769043,4229.487305,4179.743652,4134.102539,4165.769043,4123.589844,4179.487305,0.000000,4.000000,91.000000,,,,0.000000,4.000000,4.000000,4.000000,4.000000,4.000000,4.000000,4.000000,4.000000,4.000000,4.000000,4.000000,4.000000,4.000000,4.000000,100.000000,,,,,,,,,,,,,,,,
1645708162.240177,70.000000,0.000000,4237.179688,4169.615234,4210.641113,4188.717773,4200.897461,4221.922852,4237.307617,4237.436035,4229.358887,4177.692383,4130.128418,4166.153809,4118.974121,4179.102539,0.000000,4.000000,91.000000,,,,0.000000,4.000000,4.000000,4.000000,4.000000,4.000000,4.000000,4.000000,4.000000,4.000000,4.000000,4.000000,4.000000,4.000000,4.000000,100.000000,,,,,,,,,,,,,,,,
1645708162.244117,71.000000,0.000000,4239.230957,4172.692383,4210.512695,4197.948730,4207.820313,4222.692383,4236.666504,4240.128418,4230.256348,4182.307617,4132.179688,4168.461426,4122.436035,4182.948730,0.000000,4.000000,91.000000,,,,0.000000,4.000000,4.000000,4.000000,4.000000,4.000000,4.000000,4.000000,4.000000,4.000000,4.000000,4.000000,4.000000,4.000000,4.000000,100.000000,,,,,,,,,,,,,,,,
1645708162.248057,72.000000,0.000000,4244.102539,4178.589844,4211.282227,4202.436035,4215.897461,4223.589844,4236.282227,4242.436035,4231.410156,4191.153809,4140.000000,4171.794922,4133.461426,4190.897461,0.000000,4.000000,91.000000,,,,0.000000,4.000000,4.000000,4.000000,4.000000,4.000000,4.000000,4.000000,4.000000,4.000000,4.000000,4.000000,4.000000,4.000000,4.000000,100.000000,,,,,,,,,,,,,,,,
1645708162.251997,73.000000,0.000000,4249.358887,4182.563965,4212.692383,4200.641113,4218.846191,4224.743652,4237.051270,4243.846191,4232.051270,4199.615234,4150.128418,4174.743652,4147.436035,4200.128418,0.000000,4.000000,91.000000,,,,0.000000,4.000000,4.000000,4.000000,4.000000,4.000000,4.000000,4.000000,4.000000,4.000000,4.000000,4.000000,4.000000,4.000000,4.000000,100.000000,,,,,,,,,,,,,,,,
1645708162.255937,74.000000,0.000000,4253.077148,4180.641113,4214.358887,4195.641113,4213.461426,4226.025879,4238.205078,4244.487305,4232.820313,4204.743652,4158.846191,4176.282227,4158.205078,4207.179688,0.000000,4.000000,91.000000,,,,0.000000,4.000000,4.000000,4.000000,4.000000,4.000000,4.000000,4.000000,4.000000,4.000000,4.000000,4.000000,4.000000,4.000000,4.000000,100.000000,,,,,,,,,,,,,,,,
1645708162.259877,75.000000,0.000000,4254.230957,4173.205078,4215.897461,4191.153809,4201.538574,4226.410156,4238.205078,4245.000000,4234.358887,4206.025879,4163.333496,4176.666504,4161.410156,4209.487305,0.000000,4.000000,91.000000,,,,0.000000,4.000000,4.000000,4.000000,4.000000,4.000000,4.000000,4.000000,4.000000,4.000000,4.000000,4.000000,4.000000,4.000000,4.000000,100.000000,,,,,,,,,,,,,,,,
1645708162.263818,76.000000,0.000000,4252.948730,4164.743652,4216.794922,4189.615234,4189.743652,4225.000000,4236.666504,4245.897461,4236.282227,4205.256348,4162.820313,4176.153809,4157.563965,4207.051270,0.000000,4.000000,91.000000,,,,0.000000,4.000000,4.000000,4.000000,4.000000,4.000000,4.000000,4.000000,4.000000,4.000000,4.000000,4.000000,4.000000,4.000000,4.000000,100.000000,,,,,,,,,,,,,,,,
1645708162.267758,77.000000,0.000000,4250.384766,4161.666504,4216.538574,4191.410156,4185.000000,4222.179688,4234.487305,4246.666504,4237.307617,4204.358887,4158.974121,4175.128418,4150.512695,4202.179688,0.000000,4.000000,91.000000,,,,0.000000,4.000000,4.000000,4.000000,4.000000,4.000000,4.000000,4.000000,4.000000,4.000000,4.000000,4.000000,4.000000,4.000000,4.000000,100.000000,,,,,,,,,,,,,,,,
1645708162.271698,78.000000,0.000000,4249.358887,4167.179688,4215.897461,4196.538574,4191.153809,4219.615234,4233.333496,4247.051270,4236.794922,4205.000000,4155.897461,4175.384766,4145.897461,4199.358887,0.000000,4.000000,91.000000,,,,0.000000,4.000000,4.000000,4.000000,4.000000,4.000000,4.000000,4.000000,4.000000,4.000000,4.000000,4.000000,4.000000,4.000000,4.000000,100.000000,,,,,,,,,,,,,,,,
1645708162.275638,79.000000,0.000000,4251.794922,4179.102539,4216.538574,4203.589844,4205.641113,4219.487305,4233.077148,4246.538574,4236.025879,4207.948730,4156.922852,4178.589844,4146.794922,4201.538574,0.000000,4.000000,91.000000,,,,0.000000,4.000000,4.000000,4.000000,4.000000,4.000000,4.000000,4.000000,4.000000,4.000000,4.000000,4.000000,4.000000,4.000000,4.000000,100.000000,,,,,,,,,,,,,,,,
1645708162.279578,80.000000,0.000000,4257.563965,4190.641113,4219.615234,4211.282227,4220.256348,4221.794922,4233.461426,4245.512695,4236.538574,4212.436035,4163.077148,4184.487305,4152.436035,4208.461426,0.000000,4.000000,91.000000,,,,0.000000,4.000000,4.000000,4.000000,4.000000,4.000000,4.000000,4.000000,4.000000,4.000000,4.000000,4.000000,4.000000,4.000000,4.000000,100.000000,,,,,,,,,,,,,,,,
1645708162.283518,81.000000,0.000000,4264.102539,4195.769043,4224.358887,4218.461426,4227.051270,4224.230957,4234.230957,4245.000000,4239.102539,4216.922852,4171.153809,4191.153809,4159.358887,4216.794922,0.000000,4.000000,91.000000,,,,0.000000,4.000000,4.000000,4.000000,4.000000,4.000000,4.000000,4.000000,4.000000,4.000000,4.000000,4.000000,4.000000,4.000000,4.000000,100.000000,,,,,,,,,,,,,,,,
1645708162.287358,82.000000,0.000000,4267.820313,4192.692383,4228.717773,4223.589844,4223.846191,4225.256348,4235.641113,4245.897461,4242.692383,4219.615234,4177.179688,4196.025879,4164.615234,4222.692383,0.000000,4.000000,91.000000,,,,0.000000,4.000000,4.000000,4.000000,4.000000,4.000000,4.000000,4.000000,4.000000,4.000000,4.000000,4.000000,4.000000,4.000000,4.000000,100.000000,,,,,,,,,,,,,,,,
1645708162.291298,83.000000,0.000000,4267.179688,4184.615234,4230.000000,4224.871582,4215.384766,4224.615234,4237.563965,4247.948730,4245.000000,4219.871582,4178.846191,4197.436035,4166.666504,4224.102539,0.000000,4.000000,91.000000,2,1,0,0.000000,4.000000,4.000000,4.000000,4.000000,4.000000,4.000000,4.000000,4.000000,4.000000,4.000000,4.000000,4.000000,4.000000,4.000000,100.000000,,,,,,,,,,,,,,,,
1645708162.295239,84.000000,0.000000,4262.948730,4176.282227,4227.051270,4220.384766,4208.717773,4223.461426,4238.974121,4249.743652,4243.974121,4217.436035,4176.538574,4194.871582,4165.384766,4221.153809,0.000000,4.000000,91.000000,,,,0.000000,4.000000,4.000000,4.000000,4.000000,4.000000,4.000000,4.000000,4.000000,4.000000,4.000000,4.000000,4.000000,4.000000,4.000000,100.000000,,,,,,,,,,,,,,,,
1645708162.299179,85.000000,0.000000,4257.307617,4171.538574,4221.025879,4210.897461,4206.025879,4222.307617,4238.846191,4249.615234,4239.871582,4212.563965,4171.538574,4189.615234,4161.153809,4215.128418,0.000000,4.000000,91.000000,,,,0.000000,4.000000,4.000000,4.000000,4.000000,4.000000,4.000000,4.000000,4.000000,4.000000,4.000000,4.000000,4.000000,4.000000,4.000000,100.000000,,,,,,,,,,,,,,,,
1645708162.303119,86.000000,0.000000,4252.307617,4170.641113,4215.128418,4200.384766,4205.384766,4221.025879,4237.436035,4247.307617,4234.871582,4206.538574,4165.769043,4183.589844,4155.256348,4207.436035,0.000000,4.000000,91.000000,,,,0.000000,4.000000,4.000000,4.000000,4.000000,4.000000,4.000000,4.000000,4.000000,4.000000,4.000000,4.000000,4.000000,4.000000,4.000000,100.000000,,,,,,,,,,,,,,,,
1645708162.307059,87.000000,0.000000,4249.743652,4172.307617,4212.436035,4194.871582,4203.333496,4220.128418,4236.025879,4244.230957,4232.051270,4201.666504,4161.282227,4179.487305,4150.256348,4201.025879,0.000000,4.000000,91.000000,,,,0.000000,4.000000,4.000000,4.000000,4.000000,4.000000,4.000000,4.000000,4.000000,4.000000,4.000000,4.000000,4.000000,4.000000,4.000000,100.000000,,,,,,,,,,,,,,,,
1645708162.310999,88.000000,0.000000,4249.743652,4174.743652,4213.333496,4198.077148,4200.128418,4220.384766,4235.641113,4242.307617,4232.692383,4200.000000,4160.128418,4178.589844,4148.974121,4197.948730,0.000000,4.000000,91.000000,,,,0.000000,4.000000,4.000000,4.000000,4.000000,4.000000,4.000000,4.000000,4.000000,4.000000,4.000000,4.000000,4.000000,4.000000,4.000000,100.000000,,,,,,,,,,,,,,,,
1645708162.314939,89.000000,0.000000,4251.410156,4176.922852,4215.641113,4208.589844,4199.358887,4222.563965,4236.025879,4243.461426,4235.256348,4202.307617,4162.436035,4181.410156,4151.794922,4199.102539,0.000000,4.000000,91.000000,,,,0.000000,4.000000,4.000000,4.000000,4.000000,4.000000,4.000000,4.000000,4.000000,4.000000,4.000000,4.000000,4.000000,4.000000,4.000000,100.000000,,,,,,,,,,,,,,,,
1645708162.318879,90.000000,0.000000,4253.333496,4178.846191,4217.051270,4220.256348,4203.846191,4225.641113,4236.282227,4247.051270,4237.563965,4206.794922,4166.538574,4186.025879,4156.538574,4202.179688,0.000000,4.000000,91.000000,,,,0.000000,4.000000,4.000000,4.000000,4.000000,4.000000,4.000000,4.000000,4.000000,4.000000,4.000000,4.000000,4.000000,4.000000,4.000000,100.000000,,,,,,,,,,,,,,,,
1645708162.322819,91.000000,0.000000,4253.846191,4179.615234,4216.794922,4226.025879,4212.051270,4227.307617,4235.512695,4250.512695,4237.692383,4210.897461,4169.230957,4189.358887,4159.871582,4203.846191,0.000000,4.000000,91.000000,,,,0.000000,4.000000,4.000000,4.000000,4.000000,4.000000,4.000000,4.000000,4.000000,4.000000,4.000000,4.000000,4.000000,4.000000,4.000000,100.000000,,,,,,,,,,,,,,,,
1645708162.326759,92.000000,0.000000,4252.563965,4178.461426,4215.769043,4223.333496,4219.230957,4226.410156,4234.358887,4251.153809,4235.897461,4212.051270,4168.589844,4189.487305,4159.871582,4201.922852,0.000000,4.000000,91.000000,,,,0.000000,4.000000,4.000000,4.000000,4.000000,4.000000,4.000000,4.000000,4.000000,4.000000,4.000000,4.000000,4.000000,4.000000,4.000000,100.000000,,,,,,,,,,,,,,,,
1645708162.330699,93.000000,0.000000,4250.256348,4176.025879,4214.871582,4214.358887,4221.282227,4224.743652,4234.230957,4249.230957,4233.717773,4210.256348,4165.000000,4186.410156,4156.922852,4197.179688,0.000000,4.000000,91.000000,,,,0.000000,4.000000,4.000000,4.000000,4.000000,4.000000,4.000000,4.000000,4.000000,4.000000,4.000000,4.000000,4.000000,4.000000,4.000000,100.000000,,,,,,,,,,,,,,,,
1645708162.334640,94.000000,0.000000,4248.205078,4174.743652,4214.102539,4205.512695,4218.461426,4225.128418,4235.769043,4246.922852,4233.205078,4206.538574,4160.384766,4181.666504,4153.077148,4192.436035,0.000000,4.000000,91.000000,,,,0.000000,4.000000,4.000000,4.000000,4.000000,4.000000,4.000000,4.000000,4.000000,4.000000,4.000000,4.000000,4.000000,4.000000,4.000000,100.000000,,,,,,,,,,,,,,,,
1645708162.338580,95.000000,0.000000,4246.025879,4176.410156,4212.307617,4202.179688,4213.589844,4227.948730,4238.333496,4246.794922,4234.487305,4201.922852,4156.666504,4176.538574,4149.743652,4189.102539,0.000000,4.000000,91.000000,,,,0.000000,4.000000,4.000000,4.000000,4.000000,4.000000,4.000000,4.000000,4.000000,4.000000,4.000000,4.000000,4.000000,4.000000,4.000000,100.000000,,,,,,,,,,,,,,,,
1645708162.342520,96.000000,0.000000,4242.948730,4180.641113,4209.230957,4205.641113,4209.743652,4230.769043,4239.743652,4248.717773,4235.769043,4196.410156,4154.102539,4171.538574,4146.538574,4186.922852,0.000000,4.000000,91.000000,,,,0.000000,4.000000,4.000000,4.000000,4.000000,4.000000,4.000000,4.000000,4.000000,4.000000,4.000000,4.000000,4.000000,4.000000,4.000000,100.000000,,,,,,,,,,,,,,,,
1645708162.346460,97.000000,0.000000,4239.230957,4184.102539,4206.153809,4211.794922,4207.307617,4230.256348,4237.820313,4249.871582,4236.025879,4191.025879,4151.666504,4167.563965,4143.077148,4183.846191,0.000000,4.000000,91.000000,,,,0.000000,4.000000,4.000000,4.000000,4.000000,4.000000,4.000000,4.000000,4.000000,4.000000,4.000000,4.000000,4.000000,4.000000,4.000000,100.000000,,,,,,,,,,,,,,,,
1645708162.350400,98.000000,0.000000,4236.922852,4183.846191,4204.615234,4214.230957,4205.512695,4225.000000,4232.436035,4247.307617,4234.615234,4187.436035,4148.846191,4165.512695,4139.487305,4178.974121,0.000000,4.000000,91.000000,,,,0.000000,4.000000,4.000000,4.000000,4.000000,4.000000,4.000000,4.000000,4.000000,4.000000,4.000000,4.000000,4.000000,4.000000,4.000000,100.000000,,,,,,,,,,,,,,,,
1645708162.354440,99.000000,0.000000,4237.179688,4179.230957,4205.384766,4209.230957,4203.333496,4217.051270,4225.256348,4240.641113,4232.692383,4186.666504,4145.384766,4165.128418,4136.794922,4173.846191,0.000000,4.000000,91.000000,,,,0.000000,4.000000,4.000000,4.000000,4.000000,4.000000,4.000000,4.000000,4.000000,4.000000,4.000000,4.000000,4.000000,4.000000,4.000000,100.000000,,,,,,,,,,,,,,,,
1645708162.358380,100.000000,0.000000,4239.487305,4172.820313,4207.692383,4198.974121,4201.410156,4210.256348,4220.128418,4232.948730,4231.153809,4188.461426,4141.794922,4166.025879,4136.153809,4171.410156,0.000000,4.000000,91.000000,,,,0.000000,4.000000,4.000000,4.000000,4.000000,4.000000,4.000000,4.000000,4.000000,4.000000,4.000000,4.000000,4.000000,4.000000,4.000000,100.000000,,,,,,,,,,,,,,,,
1645708162.362320,101.000000,0.000000,4242.179688,4168.333496,4210.256348,4190.641113,4200.641113,4207.436035,4220.128418,4228.846191,4230.769043,4191.153809,4138.974121,4167.820313,4138.333496,4173.974121,0.000000,4.000000,91.000000,,,,0.000000,4.000000,4.000000,4.000000,4.000000,4.000000,4.000000,4.000000,4.000000,4.000000,4.000000,4.000000,4.000000,4.000000,4.000000,100.000000,,,,,,,,,,,,,,,,
1645708162.366260,102.000000,0.000000,4244.358887,4168.846191,4212.820313,4190.256348,4201.025879,4208.205078,4224.487305,4231.025879,4231.410156,4193.717773,4139.358887,4171.025879,4142.563965,4180.641113,0.000000,4.000000,91.000000,,,,0.000000,4.000000,4.000000,4.000000,4.000000,4.000000,4.000000,4.000000,4.000000,4.000000,4.000000,4.000000,4.000000,4.000000,4.000000,100.000000,,,,,,,,,,,,,,,,
1645708162.370200,103.000000,0.000000,4246.282227,4174.487305,4215.128418,4197.948730,4201.282227,4210.384766,4229.487305,4238.205078,4233.077148,4196.153809,4144.487305,4175.769043,4147.307617,4188.589844,0.000000,4.000000,91.000000,,,,0.000000,4.000000,4.000000,4.000000,4.000000,4.000000,4.000000,4.000000,4.000000,4.000000,4.000000,4.000000,4.000000,4.000000,4.000000,100.000000,,,,,,,,,,,,,,,,
1645708162.374141,104.000000,0.000000,4248.589844,4182.436035,4216.922852,4208.717773,4200.256348,4211.666504,4232.179688,4246.153809,4234.615234,4198.717773,4153.333496,4181.025879,4151.538574,4194.358887,0.000000,4.000000,91.000000,,,,0.000000,4.000000,4.000000,4.000000,4.000000,4.000000,4.000000,4.000000,4.000000,4.000000,4.000000,4.000000,4.000000,4.000000,4.000000,100.000000,,,,,,,,,,,,,,,,
1645708162.378081,105.000000,0.000000,4251.025879,4188.077148,4217.307617,4215.897461,4198.717773,4211.410156,4231.922852,4251.025879,4235.769043,4201.025879,4161.666504,4185.256348,4154.358887,4196.666504,0.000000,4.000000,91.000000,,,,0.000000,4.000000,4.000000,4.000000,4.000000,4.000000,4.000000,4.000000,4.000000,4.000000,4.000000,4.000000,4.000000,4.000000,4.000000,100.000000,,,,,,,,,,,,,,,,
1645708162.382021,106.000000,0.000000,4252.436035,4187.051270,4216.538574,4215.641113,4197.563965,4211.025879,4231.410156,4251.922852,4236.282227,4202.179688,4165.000000,4187.307617,4155.512695,4196.025879,0.000000,4.000000,91.000000,,,,0.000000,4.000000,4.000000,4.000000,4.000000,4.000000,4.000000,4.000000,4.000000,4.000000,4.000000,4.000000,4.000000,4.000000,4.000000,100.000000,,,,,,,,,,,,,,,,
1645708162.385961,107.000000,0.000000,4252.179688,4178.717773,4215.256348,4209.102539,4197.179688,4211.538574,4232.436035,4250.769043,4236.153809,4201.025879,4161.922852,4186.922852,4154.487305,4194.230957,0.000000,4.000000,91.000000,,,,0.000000,4.000000,4.000000,4.000000,4.000000,4.000000,4.000000,4.000000,4.000000,4.000000,4.000000,4.000000,4.000000,4.000000,4.000000,100.000000,,,,,,,,,,,,,,,,
1645708162.389901,108.000000,0.000000,4250.256348,4167.563965,4214.487305,4200.769043,4196.794922,4212.948730,4234.871582,4248.974121,4235.000000,4197.692383,4155.641113,4184.615234,4151.153809,4192.307617,0.000000,4.000000,91.000000,,,,0.000000,4.000000,4.000000,4.000000,4.000000,4.000000,4.000000,4.000000,4.000000,4.000000,4.000000,4.000000,4.000000,4.000000,4.000000,100.000000,,,,,,,,,,,,,,,,
1645708162.393841,109.000000,0.000000,4247.179688,4160.128418,4214.102539,4195.384766,4195.897461,4213.974121,4236.538574,4246.794922,4232.948730,4193.589844,4151.025879,4181.410156,4146.922852,4191.025879,0.000000,4.000000,91.000000,,,,0.000000,4.000000,4.000000,4.000000,4.000000,4.000000,4.000000,4.000000,4.000000,4.000000,4.000000,4.000000,4.000000,4.000000,4.000000,100.000000,,,,,,,,,,,,,,,,
1645708162.397781,110.000000,0.000000,4243.589844,4160.000000,4212.820313,4195.000000,4195.384766,4213.077148,4235.000000,4243.461426,4230.769043,4190.769043,4150.897461,4177.948730,4143.974121,4190.384766,0.000000,4.000000,91.000000,,,,0.000000,4.000000,4.000000,4.000000,4.000000,4.000000,4.000000,4.000000,4.000000,4.000000,4.000000,4.000000,4.000000,4.000000,4.000000,100.000000,,,,,,,,,,,,,,,,
1645708162.401721,111.000000,0.000000,4239.230957,4164.487305,4209.871582,4197.307617,4195.897461,4210.256348,4230.641113,4239.743652,4229.358887,4190.769043,4154.358887,4174.487305,4143.846191,4190.384766,0.000000,4.000000,91.000000,,,,0.000000,4.000000,4.000000,4.000000,4.000000,4.000000,4.000000,4.000000,4.000000,4.000000,4.000000,4.000000,4.000000,4.000000,4.000000,100.000000,,,,,,,,,,,,,,,,
1645708162.405661,112.000000,0.000000,4234.487305,4167.692383,4205.512695,4198.846191,4197.436035,4207.436035,4226.666504,4238.077148,4229.487305,4193.077148,4158.589844,4171.538574,4145.897461,4191.410156,0.000000,4.000000,91.000000,,,,0.000000,4.000000,4.000000,4.000000,4.000000,4.000000,4.000000,4.000000,4.000000,4.000000,4.000000,4.000000,4.000000,4.000000,4.000000,100.000000,,,,,,,,,,,,,,,,
1645708162.409601,113.000000,0.000000,4231.153809,4165.897461,4201.922852,4197.179688,4199.102539,4207.436035,4226.025879,4240.128418,4231.282227,4196.410156,4161.794922,4170.384766,4148.461426,4193.461426,0.000000,4.000000,91.000000,,,,0.000000,4.000000,4.000000,4.000000,4.000000,4.000000,4.000000,4.000000,4.000000,4.000000,4.000000,4.000000,4.000000,4.000000,4.000000,100.000000,,,,,,,,,,,,,,,,
1645708162.413542,114.000000,0.000000,4231.025879,4160.897461,4201.025879,4193.461426,4199.615234,4210.769043,4229.102539,4244.358887,4233.717773,4199.615234,4163.846191,4171.666504,4150.897461,4196.153809,0.000000,4.000000,91.000000,,,,0.000000,4.000000,4.000000,4.000000,4.000000,4.000000,4.000000,4.000000,4.000000,4.000000,4.000000,4.000000,4.000000,4.000000,4.000000,100.000000,,,,,,,,,,,,,,,,
1645708162.417582,115.000000,0.000000,4233.589844,4157.307617,4202.307617,4190.128418,4198.717773,4215.641113,4233.333496,4246.922852,4235.384766,4201.282227,4165.000000,4173.974121,4152.563965,4197.179688,0.000000,4.000000,91.000000,,,,0.000000,4.000000,4.000000,4.000000,4.000000,4.000000,4.000000,4.000000,4.000000,4.000000,4.000000,4.000000,4.000000,4.000000,4.000000,100.000000,,,,,,,,,,,,,,,,
1645708162.421522,116.000000,0.000000,4235.769043,4157.563965,4203.077148,4188.333496,4196.410156,4218.461426,4235.256348,4245.000000,4235.384766,4200.897461,4163.974121,4174.358887,4153.077148,4194.615234,0.000000,4.000000,91.000000,,,,0.000000,4.000000,4.000000,4.000000,4.000000,4.000000,4.000000,4.000000,4.000000,4.000000,4.000000,4.000000,4.000000,4.000000,4.000000,100.000000,,,,,,,,,,,,,,,,
1645708162.425462,117.000000,0.000000,4234.230957,4160.897461,4200.512695,4187.051270,4193.589844,4216.666504,4233.589844,4239.871582,4233.846191,4198.333496,4159.615234,4170.384766,4151.410156,4188.333496,0.000000,4.000000,91.000000,,,,0.000000,4.000000,4.000000,4.000000,4.000000,4.000000,4.000000,4.000000,4.000000,4.000000,4.000000,4.000000,4.000000,4.000000,4.000000,100.000000,,,,,,,,,,,,,,,,
1645708162.429402,118.000000,0.000000,4228.717773,4163.461426,4194.615234,4185.769043,4192.179688,4211.538574,4229.615234,4235.128418,4232.051270,4195.000000,4152.948730,4162.692383,4148.077148,4181.538574,0.000000,4.000000,91.000000,,,,0.000000,4.000000,4.000000,4.000000,4.000000,4.000000,4.000000,4.000000,4.000000,4.000000,4.000000,4.000000,4.000000,4.000000,4.000000,100.000000,,,,,,,,,,,,,,,,
1645708162.433342,119.000000,0.000000,4222.179688,4163.461426,4188.333496,4184.871582,4193.333496,4206.282227,4226.025879,4233.717773,4231.153809,4192.563965,4147.307617,4155.641113,4144.743652,4178.461426,0.000000,4.000000,91.000000,,,,0.000000,4.000000,4.000000,4.000000,4.000000,4.000000,4.000000,4.000000,4.000000,4.000000,4.000000,4.000000,4.000000,4.000000,4.000000,100.000000,,,,,,,,,,,,,,,,
1645708162.437282,120.000000,0.000000,4218.461426,4161.794922,4185.256348,4185.256348,4196.410156,4203.717773,4224.743652,4235.897461,4231.794922,4192.436035,4146.153809,4153.333496,4143.589844,4180.512695,0.000000,4.000000,91.000000,,,,0.000000,4.000000,4.000000,4.000000,4.000000,4.000000,4.000000,4.000000,4.000000,4.000000,4.000000,4.000000,4.000000,4.000000,4.000000,100.000000,,,,,,,,,,,,,,,,
1645708162.441222,121.000000,0.000000,4219.743652,4161.025879,4187.051270,4186.538574,4198.205078,4204.230957,4225.641113,4239.871582,4233.205078,4194.487305,4149.871582,4156.794922,4145.641113,4185.641113,0.000000,4.000000,91.000000,,,,0.000000,4.000000,4.000000,4.000000,4.000000,4.000000,4.000000,4.000000,4.000000,4.000000,4.000000,4.000000,4.000000,4.000000,4.000000,100.000000,,,,,,,,,,,,,,,,
1645708162.445162,122.000000,0.000000,4224.615234,4162.563965,4191.794922,4187.051270,4195.897461,4206.666504,4227.820313,4242.948730,4234.871582,4197.307617,4155.769043,4163.461426,4149.487305,4189.871582,0.000000,4.000000,91.000000,,,,0.000000,4.000000,4.000000,4.000000,4.000000,4.000000,4.000000,4.000000,4.000000,4.000000,4.000000,4.000000,4.000000,4.000000,4.000000,100.000000,,,,,,,,,,,,,,,,
1645708162.449102,123.000000,0.000000,4229.230957,4165.769043,4195.897461,4185.128418,4190.000000,4209.102539,4230.128418,4243.333496,4235.641113,4198.205078,4159.743652,4168.461426,4152.820313,4191.153809,0.000000,4.000000,91.000000,,,,0.000000,4.000000,4.000000,4.000000,4.000000,4.000000,4.000000,4.000000,4.000000,4.000000,4.000000,4.000000,4.000000,4.000000,4.000000,100.000000,,,,,,,,,,,,,,,,
1645708162.453043,124.000000,0.000000,4229.487305,4168.333496,4196.025879,4180.384766,4184.615234,4210.128418,4231.025879,4240.384766,4234.743652,4195.641113,4158.717773,4168.461426,4153.589844,4189.230957,0.000000,4.000000,91.000000,,,,0.000000,4.000000,4.000000,4.000000,4.000000,4.000000,4.000000,4.000000,4.000000,4.000000,4.000000,4.000000,4.000000,4.000000,4.000000,100.000000,,,,,,,,,,,,,,,,
1645708162.456983,125.000000,0.000000,4224.487305,4168.461426,4191.282227,4174.743652,4183.589844,4208.974121,4228.589844,4234.230957,4231.922852,4189.615234,4152.563965,4162.820313,4150.769043,4184.487305,0.000000,4.000000,91.000000,,,,0.000000,4.000000,4.000000,4.000000,4.000000,4.000000,4.000000,4.000000,4.000000,4.000000,4.000000,4.000000,4.000000,4.000000,4.000000,100.000000,,,,,,,,,,,,,,,,
1645708162.460923,126.000000,0.000000,4216.794922,4164.871582,4184.358887,4170.384766,4186.922852,4205.256348,4222.436035,4225.897461,4227.436035,4181.410156,4143.846191,4153.461426,4145.128418,4176.666504,0.000000,4.000000,91.000000,,,,0.000000,4.000000,4.000000,4.000000,4.000000,4.000000,4.000000,4.000000,4.000000,4.000000,4.000000,4.000000,4.000000,4.000000,4.000000,100.000000,,,,,,,,,,,,,,,,
1645708162.464863,127.000000,0.000000,4210.769043,4159.487305,4179.615234,4168.846191,4191.025879,4200.128418,4214.743652,4217.692383,4222.051270,4173.717773,4136.025879,4144.230957,4138.974121,4167.307617,0.000000,4.000000,91.000000,,,,0.000000,4.000000,4.000000,4.000000,4.000000,4.000000,4.000000,4.000000,4.000000,4.000000,4.000000,4.000000,4.000000,4.000000,4.000000,100.000000,,,,,,,,,,,,,,,,
1645708162.468803,128.000000,0.000000,4210.384766,4156.538574,4180.256348,4170.512695,4193.077148,4195.769043,4209.358887,4212.563965,4217.563965,4170.256348,4132.820313,4139.230957,4135.128418,4160.641113,3245.000000,4.000000,91.000000,,,,0.000000,4.000000,4.000000,4.000000,4.000000,4.000000,4.000000,4.000000,4.000000,4.000000,4.000000,4.000000,4.000000,4.000000,4.000000,100.000000,,,,,,,,,,,,,,,,
1645708162.472743,129.000000,0.000000,4216.666504,4159.743652,4186.538574,4173.846191,4193.333496,4194.743652,4209.230957,4212.436035,4215.641113,4173.589844,4136.282227,4141.153809,4136.025879,4161.153809,3416.000000,4.000000,91.000000,,,,0.000000,4.000000,4.000000,4.000000,4.000000,4.000000,4.000000,4.000000,4.000000,4.000000,4.000000,4.000000,4.000000,4.000000,4.000000,100.000000,,,,,,,,,,,,,,,,
1645708162.476683,130.000000,0.000000,4227.051270,4168.333496,4195.256348,4177.307617,4193.333496,4197.436035,4213.461426,4217.179688,4217.307617,4182.563965,4145.128418,4148.974121,4141.666504,4170.128418,3460.000000,4.000000,91.000000,,,,0.000000,4.000000,4.000000,4.000000,4.000000,4.000000,4.000000,4.000000,4.000000,4.000000,4.000000,4.000000,4.000000,4.000000,4.000000,100.000000,,,,,,,,,,,,,,,,
1645708162.480623,131.000000,0.000000,4235.897461,4177.179688,4201.794922,4180.000000,4192.436035,4201.794922,4219.102539,4223.589844,4221.282227,4191.794922,4154.743652,4157.948730,4149.102539,4182.307617,3598.000000,4.000000,91.000000,,,,0.000000,4.000000,4.000000,4.000000,4.000000,4.000000,4.000000,4.000000,4.000000,4.000000,4.000000,4.000000,4.000000,4.000000,4.000000,100.000000,,,,,,,,,,,,,,,,
1645708162.484563,132.000000,0.000000,4237.948730,4180.641113,4203.205078,4182.436035,4189.871582,4204.358887,4222.563965,4228.846191,4225.128418,4195.256348,4159.615234,4162.307617,4153.717773,4190.000000,3505.000000,4.000000,91.000000,,,,0.000000,4.000000,4.000000,4.000000,4.000000,4.000000,4.000000,4.000000,4.000000,4.000000,4.000000,4.000000,4.000000,4.000000,4.000000,100.000000,,,,,,,,,,,,,,,,
1645708162.488504,133.000000,0.000000,4231.794922,4176.922852,4198.717773,4184.871582,4186.153809,4203.717773,4222.692383,4231.666504,4227.436035,4191.410156,4157.436035,4158.846191,4153.333496,4188.205078,3385.000000,4.000000,91.000000,,,,0.000000,4.000000,4.000000,4.000000,4.000000,4.000000,4.000000,4.000000,4.000000,4.000000,4.000000,4.000000,4.000000,4.000000,4.000000,100.000000,,,,,,,,,,,,,,,,
1645708162.492544,134.000000,0.000000,4221.538574,4169.358887,4190.384766,4186.538574,4184.358887,4201.410156,4220.641113,4233.077148,4228.205078,4185.128418,4150.512695,4149.358887,4149.487305,4179.102539,3042.000000,4.000000,91.000000,,,,0.000000,4.000000,4.000000,4.000000,4.000000,4.000000,4.000000,4.000000,4.000000,4.000000,4.000000,4.000000,4.000000,4.000000,4.000000,100.000000,,,,,,,,,,,,,,,,
1645708162.496484,135.000000,0.000000,4213.846191,4162.307617,4181.794922,4186.410156,4186.666504,4200.641113,4219.487305,4235.000000,4228.974121,4182.436035,4144.102539,4139.230957,4145.769043,4170.384766,3004.000000,4.000000,91.000000,,,,0.000000,4.000000,4.000000,4.000000,4.000000,4.000000,4.000000,4.000000,4.000000,4.000000,4.000000,4.000000,4.000000,4.000000,4.000000,100.000000,,,,,,,,,,,,,,,,
1645708162.500424,136.000000,0.000000,4213.077148,4158.333496,4177.563965,4184.743652,4192.436035,4202.692383,4221.410156,4238.717773,4230.384766,4186.025879,4142.307617,4133.717773,4144.358887,4168.461426,1456.000000,4.000000,91.000000,,,,0.000000,4.000000,4.000000,4.000000,4.000000,4.000000,4.000000,4.000000,4.000000,4.000000,4.000000,4.000000,4.000000,4.000000,4.000000,100.000000,,,,,,,,,,,,,,,,
1645708162.504364,137.000000,0.000000,4218.461426,4158.717773,4179.615234,4183.205078,4198.205078,4206.794922,4225.897461,4243.077148,4232.051270,4192.563965,4144.743652,4135.000000,4145.384766,4173.846191,3297.000000,4.000000,91.000000,,,,0.000000,4.000000,4.000000,4.000000,4.000000,4.000000,4.000000,4.000000,4.000000,4.000000,4.000000,4.000000,4.000000,4.000000,4.000000,100.000000,,,,,,,,,,,,,,,,
1645708162.508304,138.000000,0.000000,4225.512695,4163.077148,4186.025879,4183.461426,4201.282227,4210.384766,4230.769043,4246.025879,4232.563965,4196.794922,4148.205078,4140.128418,4147.692383,4181.153809,2603.000000,4.000000,91.000000,,,,0.000000,4.000000,4.000000,4.000000,4.000000,4.000000,4.000000,4.000000,4.000000,4.000000,4.000000,4.000000,4.000000,4.000000,4.000000,100.000000,,,,,,,,,,,,,,,,
1645708162.512244,139.000000,0.000000,4228.974121,4169.615234,4192.051270,4185.384766,4200.384766,4212.179688,4233.077148,4246.025879,4231.922852,4196.025879,4150.000000,4144.230957,4149.487305,4185.000000,3425.000000,4.000000,91.000000,,,,0.000000,4.000000,4.000000,4.000000,4.000000,4.000000,4.000000,4.000000,4.000000,4.000000,4.000000,4.000000,4.000000,4.000000,4.000000,100.000000,,,,,,,,,,,,,,,,
1645708162.516184,140.000000,0.000000,4227.563965,4174.743652,4194.102539,4187.563965,4196.538574,4212.563965,4232.436035,4244.615234,4231.282227,4192.179688,4150.128418,4144.743652,4150.128418,4183.974121,3598.000000,4.000000,91.000000,,,,0.000000,4.000000,4.000000,4.000000,4.000000,4.000000,4.000000,4.000000,4.000000,4.000000,4.000000,4.000000,4.000000,4.000000,4.000000,100.000000,,,,,,,,,,,,,,,,
1645708162.520124,141.000000,0.000000,4223.974121,4175.256348,4192.179688,4188.846191,4192.563965,4212.436035,4230.897461,4244.487305,4232.051270,4189.871582,4150.256348,4142.948730,4149.743652,4180.256348,3290.000000,4.000000,91.000000,,,,0.000000,4.000000,4.000000,4.000000,4.000000,4.000000,4.000000,4.000000,4.000000,4.000000,4.000000,4.000000,4.000000,4.000000,4.000000,100.000000,,,,,,,,,,,,,,,,
1645708162.524064,142.000000,0.000000,4221.922852,4170.512695,4189.230957,4188.461426,4191.410156,4212.563965,4231.025879,4247.179688,4234.102539,4192.179688,4152.051270,4142.179688,4149.487305,4176.922852,2603.000000,4.000000,91.000000,,,,0.000000,4.000000,4.000000,4.000000,4.000000,4.000000,4.000000,4.000000,4.000000,4.000000,4.000000,4.000000,4.000000,4.000000,4.000000,100.000000,,,,,,,,,,,,,,,,
1645708162.528004,143.000000,0.000000,4223.077148,4164.102539,4187.436035,4186.025879,4193.589844,4212.820313,4233.333496,4251.666504,4236.153809,4198.461426,4155.384766,4144.230957,4150.128418,4175.000000,3425.000000,4.000000,91.000000,,,,0.000000,4.000000,4.000000,4.000000,4.000000,4.000000,4.000000,4.000000,4.000000,4.000000,4.000000,4.000000,4.000000,4.000000,4.000000,100.000000,,,,,,,,,,,,,,,,
1645708162.531945,144.000000,0.000000,4225.769043,4161.282227,4187.692383,4182.692383,4196.794922,4212.948730,4235.897461,4255.000000,4237.179688,4205.641113,4159.358887,4147.307617,4151.922852,4174.102539,3598.000000,4.000000,91.000000,,,,0.000000,4.000000,4.000000,4.000000,4.000000,4.000000,4.000000,4.000000,4.000000,4.000000,4.000000,4.000000,4.000000,4.000000,4.000000,100.000000,,,,,,,,,,,,,,,,
1645708162.535885,145.000000,0.000000,4227.436035,4164.871582,4188.717773,4180.256348,4197.436035,4213.205078,4236.282227,4254.358887,4237.179688,4210.769043,4162.179688,4147.948730,4154.871582,4173.205078,3290.000000,4.000000,91.000000,,,,0.000000,4.000000,4.000000,4.000000,4.000000,4.000000,4.000000,4.000000,4.000000,4.000000,4.000000,4.000000,4.000000,4.000000,4.000000,100.000000,,,,,,,,,,,,,,,,
1645708162.539825,146.000000,0.000000,4226.666504,4172.436035,4188.974121,4180.384766,4194.743652,4213.333496,4233.974121,4249.487305,4236.666504,4212.179688,4162.179688,4144.102539,4157.436035,4171.538574,2603.000000,4.000000,91.000000,,,,0.000000,4.000000,4.000000,4.000000,4.000000,4.000000,4.000000,4.000000,4.000000,4.000000,4.000000,4.000000,4.000000,4.000000,4.000000,100.000000,,,,,,,,,,,,,,,,
1645708162.543765,147.000000,0.000000,4223.461426,4178.461426,4187.820313,4182.563965,4190.384766,4212.436035,4231.025879,4242.436035,4235.512695,4209.358887,4158.333496,4136.410156,4157.436035,4168.974121,3425.000000,4.000000,91.000000,,,,0.000000,4.000000,4.000000,4.000000,4.000000,4.000000,4.000000,4.000000,4.000000,4.000000,4.000000,4.000000,4.000000,4.000000,4.000000,100.000000,,,,,,,,,,,,,,,,
1645708162.547705,148.000000,0.000000,4219.487305,4178.717773,4185.897461,4185.384766,4188.461426,4210.128418,4229.358887,4236.282227,4233.333496,4203.205078,4151.666504,4128.205078,4153.589844,4165.641113,3598.000000,4.000000,91.000000,,,,0.000000,4.000000,4.000000,4.000000,4.000000,4.000000,4.000000,4.000000,4.000000,4.000000,4.000000,4.000000,4.000000,4.000000,4.000000,100.000000,,,,,,,,,,,,,,,,
1645708162.551645,149.000000,0.000000,4217.051270,4174.487305,4184.358887,4188.205078,4191.282227,4207.563965,4229.487305,4232.436035,4230.256348,4195.769043,4145.512695,4123.461426,4147.820313,4162.179688,3290.000000,4.000000,91.000000,,,,0.000000,4.000000,4.000000,4.000000,4.000000,4.000000,4.000000,4.000000,4.000000,4.000000,4.000000,4.000000,4.000000,4.000000,4.000000,100.000000,,,,,,,,,,,,,,,,
1645708162.555585,150.000000,0.000000,4218.589844,4171.153809,4185.256348,4191.153809,4197.948730,4206.666504,4230.512695,4230.512695,4227.307617,4189.871582,4143.589844,4124.743652,4143.589844,4159.615234,2603.000000,4.000000,91.000000,,,,0.000000,4.000000,4.000000,4.000000,4.000000,4.000000,4.000000,4.000000,4.000000,4.000000,4.000000,4.000000,4.000000,4.000000,4.000000,100.000000,,,,,,,,,,,,,,,,
1645708162.559525,151.000000,0.000000,4224.230957,4172.563965,4189.487305,4194.230957,4205.128418,4208.461426,4231.282227,4229.230957,4225.641113,4187.563965,4146.922852,4131.538574,4143.974121,4159.487305,3425.000000,4.000000,91.000000,,,,0.000000,4.000000,4.000000,4.000000,4.000000,4.000000,4.000000,4.000000,4.000000,4.000000,4.000000,4.000000,4.000000,4.000000,4.000000,100.000000,,,,,,,,,,,,,,,,
1645708162.563465,152.000000,0.000000,4231.282227,4178.205078,4196.025879,4195.769043,4209.230957,4211.153809,4231.153809,4228.846191,4226.025879,4188.717773,4153.589844,4140.256348,4148.461426,4162.820313,3598.000000,4.000000,91.000000,,,,0.000000,4.000000,4.000000,4.000000,4.000000,4.000000,4.000000,4.000000,4.000000,4.000000,4.000000,4.000000,4.000000,4.000000,4.000000,100.000000,,,,,,,,,,,,,,,,
1645708162.567406,153.000000,0.000000,4235.897461,4183.077148,4202.051270,4194.615234,4208.589844,4212.563965,4230.128418,4230.128418,4228.205078,4191.794922,4160.384766,4147.179688,4153.974121,4168.974121,3290.000000,4.000000,91.000000,,,,0.000000,4.000000,4.000000,4.000000,4.000000,4.000000,4.000000,4.000000,4.000000,4.000000,4.000000,4.000000,4.000000,4.000000,4.000000,100.000000,,,,,,,,,,,,,,,,
1645708162.571346,154.000000,0.000000,4236.025879,4182.436035,4205.128418,4192.051270,4204.615234,4211.922852,4229.102539,4233.846191,4231.282227,4195.384766,4164.487305,4150.384766,4157.051270,4175.897461,2603.000000,4.000000,91.000000,,,,0.000000,4.000000,4.000000,4.000000,4.000000,4.000000,4.000000,4.000000,4.000000,4.000000,4.000000,4.000000,4.000000,4.000000,4.000000,100.000000,,,,,,,,,,,,,,,,
1645708162.575286,155.000000,0.000000,4232.692383,4175.384766,4204.743652,4190.897461,4200.256348,4210.000000,4229.102539,4239.230957,4233.717773,4198.333496,4165.256348,4150.128418,4156.666504,4180.000000,3425.000000,4.000000,91.000000,,,,0.000000,4.000000,4.000000,4.000000,4.000000,4.000000,4.000000,4.000000,4.000000,4.000000,4.000000,4.000000,4.000000,4.000000,4.000000,100.000000,,,,,,,,,,,,,,,,
1645708162.579226,156.000000,0.000000,4228.205078,4166.410156,4202.820313,4191.666504,4197.692383,4208.333496,4230.256348,4244.230957,4234.358887,4200.128418,4163.333496,4147.820313,4153.846191,4178.077148,3598.000000,4.000000,91.000000,,,,0.000000,4.000000,4.000000,4.000000,4.000000,4.000000,4.000000,4.000000,4.000000,4.000000,4.000000,4.000000,4.000000,4.000000,4.000000,100.000000,,,,,,,,,,,,,,,,
1645708162.583166,157.000000,0.000000,4224.102539,4160.769043,4201.153809,4191.538574,4197.179688,4207.563965,4231.794922,4246.922852,4232.820313,4199.743652,4159.487305,4144.487305,4150.256348,4169.358887,3290.000000,4.000000,91.000000,,,,0.000000,4.000000,4.000000,4.000000,4.000000,4.000000,4.000000,4.000000,4.000000,4.000000,4.000000,4.000000,4.000000,4.000000,4.000000,100.000000,,,,,,,,,,,,,,,,
1645708162.587106,158.000000,0.000000,4220.641113,4160.641113,4200.897461,4186.922852,4196.666504,4207.692383,4232.948730,4246.025879,4230.256348,4196.282227,4155.000000,4140.512695,4147.436035,4157.051270,2603.000000,4.000000,91.000000,,,,0.000000,4.000000,4.000000,4.000000,4.000000,4.000000,4.000000,4.000000,4.000000,4.000000,4.000000,4.000000,4.000000,4.000000,4.000000,100.000000,,,,,,,,,,,,,,,,
1645708162.591046,159.000000,0.000000,4218.077148,4164.358887,4201.794922,4178.974121,4194.871582,4208.205078,4233.077148,4242.179688,4228.077148,4190.769043,4151.153809,4136.794922,4145.384766,4147.436035,3425.000000,4.000000,91.000000,,,,0.000000,4.000000,4.000000,4.000000,4.000000,4.000000,4.000000,4.000000,4.000000,4.000000,4.000000,4.000000,4.000000,4.000000,4.000000,100.000000,,,,,,,,,,,,,,,,
1645708162.594986,160.000000,0.000000,4217.179688,4168.717773,4203.333496,4173.461426,4192.563965,4208.461426,4231.922852,4237.692383,4226.922852,4185.769043,4149.230957,4135.384766,4144.102539,4145.897461,3598.000000,4.000000,91.000000,,,,0.000000,4.000000,4.000000,4.000000,4.000000,4.000000,4.000000,4.000000,4.000000,4.000000,4.000000,4.000000,4.000000,4.000000,4.000000,100.000000,,,,,,,,,,,,,,,,
1645708162.598926,161.000000,0.000000,4219.102539,4172.051270,4205.641113,4175.384766,4192.179688,4207.820313,4229.743652,4235.897461,4227.051270,4184.615234,4149.871582,4138.077148,4144.358887,4152.948730,3290.000000,4.000000,91.000000,,,,0.000000,4.000000,4.000000,4.000000,4.000000,4.000000,4.000000,4.000000,4.000000,4.000000,4.000000,4.000000,4.000000,4.000000,4.000000,100.000000,,,,,,,,,,,,,,,,
1645708162.602866,162.000000,0.000000,4223.333496,4174.230957,4209.230957,4183.717773,4195.256348,4206.282227,4227.820313,4237.948730,4228.461426,4188.461426,4153.589844,4145.000000,4146.410156,4164.358887,2603.000000,4.000000,91.000000,,,,0.000000,4.000000,4.000000,4.000000,4.000000,4.000000,4.000000,4.000000,4.000000,4.000000,4.000000,4.000000,4.000000,4.000000,4.000000,100.000000,,,,,,,,,,,,,,,,
1645708162.606807,163.000000,0.000000,4229.102539,4176.153809,4214.230957,4191.666504,4200.641113,4204.487305,4226.666504,4243.205078,4230.769043,4196.153809,4159.871582,4154.358887,4150.641113,4174.871582,3425.000000,4.000000,91.000000,,,,0.000000,4.000000,4.000000,4.000000,4.000000,4.000000,4.000000,4.000000,4.000000,4.000000,4.000000,4.000000,4.000000,4.000000,4.000000,100.000000,,,,,,,,,,,,,,,,
1645708162.610747,164.000000,0.000000,4234.871582,4178.205078,4219.358887,4193.846191,4205.897461,4203.846191,4226.794922,4248.846191,4233.589844,4205.128418,4167.307617,4163.589844,4156.666504,4181.538574,3598.000000,4.000000,91.000000,,,,0.000000,4.000000,4.000000,4.000000,4.000000,4.000000,4.000000,4.000000,4.000000,4.000000,4.000000,4.000000,4.000000,4.000000,4.000000,100.000000,,,,,,,,,,,,,,,,
1645708162.614687,165.000000,0.000000,4239.358887,4180.897461,4223.205078,4190.641113,4209.230957,4204.871582,4227.563965,4252.436035,4236.025879,4213.205078,4173.974121,4170.128418,4163.461426,4184.230957,3290.000000,4.000000,91.000000,,,,0.000000,4.000000,4.000000,4.000000,4.000000,4.000000,4.000000,4.000000,4.000000,4.000000,4.000000,4.000000,4.000000,4.000000,4.000000,100.000000,,,,,,,,,,,,,,,,
1645708162.618627,166.000000,0.000000,4241.410156,4183.846191,4224.871582,4187.563965,4210.256348,4207.179688,4228.846191,4252.948730,4236.794922,4218.717773,4178.205078,4173.205078,4168.846191,4184.230957,2603.000000,4.000000,91.000000,,,,0.000000,4.000000,4.000000,4.000000,4.000000,4.000000,4.000000,4.000000,4.000000,4.000000,4.000000,4.000000,4.000000,4.000000,4.000000,100.000000,,,,,,,,,,,,,,,,
1645708162.622567,167.000000,0.000000,4240.897461,4186.538574,4224.743652,4189.230957,4209.487305,4209.615234,4230.512695,4251.153809,4235.512695,4220.128418,4178.846191,4172.948730,4171.282227,4182.563965,3425.000000,4.000000,91.000000,,,,0.000000,4.000000,4.000000,4.000000,4.000000,4.000000,4.000000,4.000000,4.000000,4.000000,4.000000,4.000000,4.000000,4.000000,4.000000,100.000000,,,,,,,,,,,,,,,,
1645708162.626507,168.000000,0.000000,4238.461426,4187.563965,4224.102539,4195.256348,4207.436035,4210.897461,4232.179688,4248.461426,4232.820313,4216.666504,4176.282227,4169.871582,4170.000000,4180.000000,3598.000000,4.000000,91.000000,,,,0.000000,4.000000,4.000000,4.000000,4.000000,4.000000,4.000000,4.000000,4.000000,4.000000,4.000000,4.000000,4.000000,4.000000,4.000000,100.000000,,,,,,,,,,,,,,,,
1645708162.630447,169.000000,0.000000,4235.641113,4185.897461,4223.205078,4201.153809,4205.128418,4211.025879,4233.077148,4245.769043,4230.769043,4209.102539,4172.179688,4165.128418,4166.282227,4177.051270,3290.000000,4.000000,91.000000,,,,0.000000,4.000000,4.000000,4.000000,4.000000,4.000000,4.000000,4.000000,4.000000,4.000000,4.000000,4.000000,4.000000,4.000000,4.000000,100.000000,,,,,,,,,,,,,,,,
1645708162.634387,170.000000,0.000000,4233.461426,4181.538574,4221.794922,4201.794922,4203.333496,4210.000000,4232.820313,4242.692383,4230.256348,4199.487305,4168.077148,4160.256348,4162.051270,4174.358887,2603.000000,4.000000,91.000000,,,,0.000000,4.000000,4.000000,4.000000,4.000000,4.000000,4.000000,4.000000,4.000000,4.000000,4.000000,4.000000,4.000000,4.000000,4.000000,100.000000,,,,,,,,,,,,,,,,
1645708162.638228,171.000000,0.000000,4232.820313,4175.641113,4219.230957,4195.641113,4201.538574,4209.230957,4231.794922,4239.743652,4231.282227,4191.666504,4164.743652,4156.922852,4158.846191,4173.205078,3425.000000,4.000000,91.000000,,,,0.000000,4.000000,4.000000,4.000000,4.000000,4.000000,4.000000,4.000000,4.000000,4.000000,4.000000,4.000000,4.000000,4.000000,4.000000,100.000000,,,,,,,,,,,,,,,,
1645708162.642168,172.000000,0.000000,4233.205078,4171.153809,4216.282227,4186.282227,4199.615234,4209.487305,4231.025879,4238.077148,4232.692383,4188.333496,4162.692383,4156.153809,4157.563965,4174.487305,3598.000000,4.000000,91.000000,,,,0.000000,4.000000,4.000000,4.000000,4.000000,4.000000,4.000000,4.000000,4.000000,4.000000,4.000000,4.000000,4.000000,4.000000,4.000000,100.000000,,,,,,,,,,,,,,,,
1645708162.646108,173.000000,0.000000,4234.743652,4170.769043,4214.487305,4179.358887,4197.436035,4210.769043,4231.282227,4239.358887,4233.461426,4190.769043,4162.563965,4157.692383,4158.717773,4177.563965,3290.000000,4.000000,91.000000,,,,0.000000,4.000000,4.000000,4.000000,4.000000,4.000000,4.000000,4.000000,4.000000,4.000000,4.000000,4.000000,4.000000,4.000000,4.000000,100.000000,,,,,,,,,,,,,,,,
1645708162.650048,174.000000,0.000000,4237.051270,4175.512695,4215.128418,4179.358887,4196.282227,4211.794922,4232.563965,4242.948730,4233.717773,4198.077148,4165.000000,4160.769043,4162.692383,4180.384766,2603.000000,4.000000,91.000000,,,,0.000000,4.000000,4.000000,4.000000,4.000000,4.000000,4.000000,4.000000,4.000000,4.000000,4.000000,4.000000,4.000000,4.000000,4.000000,100.000000,,,,,,,,,,,,,,,,
1645708162.653988,175.000000,0.000000,4239.871582,4182.307617,4217.692383,4185.128418,4197.692383,4211.410156,4233.461426,4246.794922,4233.974121,4207.051270,4169.487305,4163.589844,4168.333496,4180.512695,3425.000000,4.000000,91.000000,,,,0.000000,4.000000,4.000000,4.000000,4.000000,4.000000,4.000000,4.000000,4.000000,4.000000,4.000000,4.000000,4.000000,4.000000,4.000000,100.000000,,,,,,,,,,,,,,,,
1645708162.657928,176.000000,0.000000,4241.794922,4186.666504,4220.256348,4191.153809,4201.794922,4209.358887,4233.205078,4247.948730,4234.743652,4213.589844,4173.846191,4164.487305,4172.307617,4177.051270,3598.000000,4.000000,91.000000,,,,0.000000,4.000000,4.000000,4.000000,4.000000,4.000000,4.000000,4.000000,4.000000,4.000000,4.000000,4.000000,4.000000,4.000000,4.000000,100.000000,,,,,,,,,,,,,,,,
1645708162.661868,177.000000,0.000000,4241.282227,4185.641113,4221.025879,4192.563965,4206.282227,4206.410156,4231.410156,4244.871582,4235.256348,4214.102539,4175.256348,4162.436035,4172.563965,4171.794922,3290.000000,4.000000,91.000000,,,,0.000000,4.000000,4.000000,4.000000,4.000000,4.000000,4.000000,4.000000,4.000000,4.000000,4.000000,4.000000,4.000000,4.000000,4.000000,100.000000,,,,,,,,,,,,,,,,
1645708162.665808,178.000000,0.000000,4238.461426,4181.153809,4220.000000,4188.846191,4208.461426,4204.487305,4229.615234,4238.717773,4234.871582,4207.692383,4172.179688,4158.205078,4169.102539,4167.820313,2603.000000,4.000000,91.000000,,,,0.000000,4.000000,4.000000,4.000000,4.000000,4.000000,4.000000,4.000000,4.000000,4.000000,4.000000,4.000000,4.000000,4.000000,4.000000,100.000000,,,,,,,,,,,,,,,,
1645708162.669748,179.000000,0.000000,4235.384766,4177.948730,4217.948730,4185.512695,4207.307617,4205.256348,4228.974121,4232.179688,4233.077148,4197.692383,4166.025879,4154.102539,4164.743652,4167.563965,3425.000000,4.000000,91.000000,,,,0.000000,4.000000,4.000000,4.000000,4.000000,4.000000,4.000000,4.000000,4.000000,4.000000,4.000000,4.000000,4.000000,4.000000,4.000000,100.000000,,,,,,,,,,,,,,,,
1645708162.673688,180.000000,0.000000,4234.487305,4179.615234,4216.153809,4187.307617,4205.128418,4208.717773,4229.487305,4228.589844,4230.384766,4190.000000,4160.641113,4153.077148,4162.948730,4171.153809,3598.000000,4.000000,91.000000,,,,0.000000,4.000000,4.000000,4.000000,4.000000,4.000000,4.000000,4.000000,4.000000,4.000000,4.000000,4.000000,4.000000,4.000000,4.000000,100.000000,,,,,,,,,,,,,,,,
1645708162.677629,181.000000,0.000000,4236.282227,4185.256348,4214.743652,4192.948730,4204.615234,4212.948730,4230.641113,4229.230957,4228.589844,4189.230957,4158.974121,4155.897461,4165.128418,4176.538574,3290.000000,4.000000,91.000000,,,,0.000000,4.000000,4.000000,4.000000,4.000000,4.000000,4.000000,4.000000,4.000000,4.000000,4.000000,4.000000,4.000000,4.000000,4.000000,100.000000,,,,,,,,,,,,,,,,
1645708162.681569,182.000000,0.000000,4239.230957,4190.128418,4213.974121,4195.641113,4206.282227,4215.000000,4231.282227,4232.307617,4228.717773,4195.000000,4160.512695,4160.897461,4169.615234,4180.897461,2603.000000,4.000000,91.000000,,,,0.000000,4.000000,4.000000,4.000000,4.000000,4.000000,4.000000,4.000000,4.000000,4.000000,4.000000,4.000000,4.000000,4.000000,4.000000,100.000000,,,,,,,,,,,,,,,,
1645708162.685509,183.000000,0.000000,4241.410156,4190.128418,4214.871582,4190.256348,4208.077148,4213.205078,4231.282227,4235.256348,4230.384766,4202.820313,4162.692383,4165.512695,4173.205078,4182.563965,3425.000000,4.000000,91.000000,,,,0.000000,4.000000,4.000000,4.000000,4.000000,4.000000,4.000000,4.000000,4.000000,4.000000,4.000000,4.000000,4.000000,4.000000,4.000000,100.000000,,,,,,,,,,,,,,,,
1645708162.689449,184.000000,0.000000,4242.563965,4185.512695,4217.948730,4179.358887,4208.717773,4209.487305,4231.153809,4236.282227,4232.307617,4208.205078,4164.358887,4168.205078,4173.461426,4181.666504,3598.000000,4.000000,91.000000,,,,0.000000,4.000000,4.000000,4.000000,4.000000,4.000000,4.000000,4.000000,4.000000,4.000000,4.000000,4.000000,4.000000,4.000000,4.000000,100.000000,1.000000,91.666664,4.000000,4.000000,4.000000,3.000000,4.000000,4.000000,4.000000,4.000000,4.000000,4.000000,4.000000,4.000000,4.000000,4.000000
1645708162.693389,185.000000,0.000000,4244.102539,4181.410156,4223.077148,4172.051270,4208.846191,4207.051270,4231.538574,4235.641113,4233.589844,4209.743652,4166.794922,4169.487305,4170.128418,4179.743652,3290.000000,4.000000,91.000000,,,,0.000000,4.000000,4.000000,4.000000,4.000000,4.000000,4.000000,4.000000,4.000000,4.000000,4.000000,4.000000,4.000000,4.000000,4.000000,100.000000,,,,,,,,,,,,,,,,
1645708162.697229,186.000000,0.000000,4246.410156,4182.307617,4228.077148,4175.512695,4210.000000,4208.205078,4232.436035,4234.743652,4233.589844,4208.974121,4171.794922,4170.384766,4165.512695,4178.077148,2603.000000,4.000000,91.000000,,,,0.000000,4.000000,4.000000,4.000000,4.000000,4.000000,4.000000,4.000000,4.000000,4.000000,4.000000,4.000000,4.000000,4.000000,4.000000,100.000000,,,,,,,,,,,,,,,,
1645708162.701169,187.000000,0.000000,4248.333496,4188.974121,4230.384766,4188.461426,4211.538574,4211.538574,4233.333496,4235.000000,4232.820313,4207.692383,4178.333496,4170.769043,4161.666504,4177.179688,3425.000000,4.000000,91.000000,,,,0.000000,4.000000,4.000000,4.000000,4.000000,4.000000,4.000000,4.000000,4.000000,4.000000,4.000000,4.000000,4.000000,4.000000,4.000000,100.000000,,,,,,,,,,,,,,,,
1645708162.705109,188.000000,0.000000,4248.077148,4197.179688,4228.205078,4201.666504,4212.563965,4213.846191,4233.589844,4236.025879,4231.922852,4207.179688,4182.307617,4170.128418,4160.256348,4176.153809,3598.000000,4.000000,91.000000,,,,0.000000,4.000000,4.000000,4.000000,4.000000,4.000000,4.000000,4.000000,4.000000,4.000000,4.000000,4.000000,4.000000,4.000000,4.000000,100.000000,,,,,,,,,,,,,,,,
1645708162.709050,189.000000,0.000000,4244.743652,4201.153809,4222.692383,4206.410156,4212.051270,4213.205078,4232.563965,4236.410156,4231.410156,4207.051270,4180.769043,4167.948730,4161.538574,4174.230957,3290.000000,4.000000,91.000000,,,,0.000000,4.000000,4.000000,4.000000,4.000000,4.000000,4.000000,4.000000,4.000000,4.000000,4.000000,4.000000,4.000000,4.000000,4.000000,100.000000,,,,,,,,,,,,,,,,
1645708162.712990,190.000000,0.000000,4240.000000,4198.077148,4216.794922,4200.897461,4210.641113,4210.512695,4230.897461,4235.512695,4231.025879,4206.538574,4174.102539,4164.358887,4164.871582,4171.282227,2603.000000,4.000000,91.000000,,,,0.000000,4.000000,4.000000,4.000000,4.000000,4.000000,4.000000,4.000000,4.000000,4.000000,4.000000,4.000000,4.000000,4.000000,4.000000,100.000000,,,,,,,,,,,,,,,,
1645708162.716930,191.000000,0.000000,4235.769043,4189.871582,4213.077148,4191.282227,4209.358887,4208.461426,4229.358887,4233.589844,4230.769043,4205.128418,4166.025879,4160.128418,4168.974121,4168.333496,3425.000000,4.000000,91.000000,,,,0.000000,4.000000,4.000000,4.000000,4.000000,4.000000,4.000000,4.000000,4.000000,4.000000,4.000000,4.000000,4.000000,4.000000,4.000000,100.000000,,,,,,,,,,,,,,,,
1645708162.720870,192.000000,0.000000,4233.461426,4181.153809,4212.179688,4185.256348,4208.461426,4208.589844,4228.974121,4232.051270,4230.512695,4202.307617,4160.769043,4156.282227,4171.794922,4166.538574,3598.000000,4.000000,91.000000,,,,0.000000,4.000000,4.000000,4.000000,4.000000,4.000000,4.000000,4.000000,4.000000,4.000000,4.000000,4.000000,4.000000,4.000000,4.000000,100.000000,,,,,,,,,,,,,,,,
1645708162.724810,193.000000,0.000000,4232.179688,4176.025879,4212.307617,4185.000000,4207.820313,4210.256348,4230.128418,4232.307617,4230.512695,4198.461426,4159.615234,4153.461426,4172.051270,4165.897461,3290.000000,4.000000,91.000000,,,,0.000000,4.000000,4.000000,4.000000,4.000000,4.000000,4.000000,4.000000,4.000000,4.000000,4.000000,4.000000,4.000000,4.000000,4.000000,100.000000,,,,,,,,,,,,,,,,
1645708162.728750,194.000000,0.000000,4230.897461,4175.897461,4211.282227,4186.794922,4207.307617,4211.410156,4232.436035,4234.615234,4230.641113,4195.512695,4160.769043,4152.307617,4169.743652,4165.384766,2603.000000,4.000000,91.000000,,,,0.000000,4.000000,4.000000,4.000000,4.000000,4.000000,4.000000,4.000000,4.000000,4.000000,4.000000,4.000000,4.000000,4.000000,4.000000,100.000000,,,,,,,,,,,,,,,,
1645708162.732690,195.000000,0.000000,4228.974121,4179.358887,4207.692383,4185.128418,4207.436035,4210.641113,4233.974121,4237.307617,4230.897461,4195.384766,4162.051270,4152.563965,4166.410156,4164.743652,3425.000000,4.000000,91.000000,,,,0.000000,4.000000,4.000000,4.000000,4.000000,4.000000,4.000000,4.000000,4.000000,4.000000,4.000000,4.000000,4.000000,4.000000,4.000000,100.000000,,,,,,,,,,,,,,,,
1645708162.736630,196.000000,0.000000,4226.538574,4182.948730,4202.563965,4178.846191,4207.820313,4207.692383,4232.820313,4238.589844,4230.897461,4198.205078,4162.436035,4153.077148,4163.717773,4163.717773,3598.000000,4.000000,91.000000,,,,0.000000,4.000000,4.000000,4.000000,4.000000,4.000000,4.000000,4.000000,4.000000,4.000000,4.000000,4.000000,4.000000,4.000000,4.000000,100.000000,,,,,,,,,,,,,,,,
1645708162.740570,197.000000,0.000000,4224.102539,4183.589844,4198.589844,4172.436035,4207.436035,4203.589844,4229.102539,4238.461426,4230.897461,4201.538574,4161.794922,4152.692383,4162.948730,4161.922852,3290.000000,4.000000,91.000000,,,,0.000000,4.000000,4.000000,4.000000,4.000000,4.000000,4.000000,4.000000,4.000000,4.000000,4.000000,4.000000,4.000000,4.000000,4.000000,100.000000,,,,,,,,,,,,,,,,
1645708162.744510,198.000000,0.000000,4222.948730,4180.769043,4197.820313,4172.692383,4206.410156,4201.282227,4225.897461,4238.589844,4231.025879,4202.820313,4160.384766,4151.282227,4163.205078,4159.487305,2603.000000,4.000000,91.000000,,,,0.000000,4.000000,4.000000,4.000000,4.000000,4.000000,4.000000,4.000000,4.000000,4.000000,4.000000,4.000000,4.000000,4.000000,4.000000,100.000000,,,,,,,,,,,,,,,,
1645708162.748451,199.000000,0.000000,4224.615234,4176.794922,4201.025879,4181.922852,4206.922852,4203.589844,4227.051270,4240.512695,4231.666504,4202.051270,4158.461426,4149.871582,4163.461426,4157.820313,3425.000000,4.000000,91.000000,,,,0.000000,4.000000,4.000000,4.000000,4.000000,4.000000,4.000000,4.000000,4.000000,4.000000,4.000000,4.000000,4.000000,4.000000,4.000000,100.000000,,,,,,,,,,,,,,,,
1645708162.752391,200.000000,0.000000,4229.743652,4175.897461,4206.666504,4196.025879,4211.025879,4210.512695,4232.948730,4243.589844,4232.436035,4201.666504,4156.794922,4150.000000,4163.333496,4159.615234,3598.000000,4.000000,91.000000,,,,0.000000,4.000000,4.000000,4.000000,4.000000,4.000000,4.000000,4.000000,4.000000,4.000000,4.000000,4.000000,4.000000,4.000000,4.000000,100.000000,,,,,,,,,,,,,,,,
1645708162.756331,201.000000,0.000000,4237.820313,4180.897461,4213.589844,4207.179688,4217.948730,4218.333496,4240.000000,4245.512695,4233.077148,4202.692383,4156.922852,4152.820313,4164.487305,4166.025879,3290.000000,4.000000,91.000000,,,,0.000000,4.000000,4.000000,4.000000,4.000000,4.000000,4.000000,4.000000,4.000000,4.000000,4.000000,4.000000,4.000000,4.000000,4.000000,100.000000,,,,,,,,,,,,,,,,
1645708162.760271,202.000000,0.000000,4247.051270,4190.897461,4221.153809,4210.769043,4223.205078,4222.563965,4243.974121,4244.871582,4233.717773,4204.871582,4160.384766,4158.974121,4167.820313,4175.128418,2603.000000,4.000000,91.000000,,,,0.000000,4.000000,4.000000,4.000000,4.000000,4.000000,4.000000,4.000000,4.000000,4.000000,4.000000,4.000000,4.000000,4.000000,4.000000,100.000000,,,,,,,,,,,,,,,,
1645708162.764311,203.000000,0.000000,4255.128418,4201.538574,4228.974121,4207.051270,4223.077148,4221.666504,4242.820313,4242.692383,4233.974121,4207.307617,4167.307617,4167.692383,4172.820313,4183.077148,3425.000000,4.000000,91.000000,,,,0.000000,4.000000,4.000000,4.000000,4.000000,4.000000,4.000000,4.000000,4.000000,4.000000,4.000000,4.000000,4.000000,4.000000,4.000000,100.000000,,,,,,,,,,,,,,,,
1645708162.768251,204.000000,0.000000,4259.743652,4207.948730,4235.128418,4200.512695,4218.461426,4217.563965,4237.820313,4241.410156,4234.102539,4209.743652,4175.128418,4176.025879,4177.563965,4186.410156,3598.000000,4.000000,91.000000,,,,0.000000,4.000000,4.000000,4.000000,4.000000,4.000000,4.000000,4.000000,4.000000,4.000000,4.000000,4.000000,4.000000,4.000000,4.000000,100.000000,,,,,,,,,,,,,,,,
1645708162.772191,205.000000,0.000000,4260.128418,4207.948730,4237.692383,4195.128418,4213.461426,4214.743652,4232.179688,4242.563965,4233.974121,4212.563965,4180.769043,4180.897461,4180.000000,4184.871582,3290.000000,4.000000,91.000000,,,,0.000000,4.000000,4.000000,4.000000,4.000000,4.000000,4.000000,4.000000,4.000000,4.000000,4.000000,4.000000,4.000000,4.000000,4.000000,100.000000,,,,,,,,,,,,,,,,
1645708162.776131,206.000000,0.000000,4256.538574,4202.436035,4235.769043,4192.436035,4212.051270,4215.128418,4228.717773,4245.384766,4233.974121,4215.512695,4181.922852,4180.000000,4179.743652,4180.256348,2603.000000,4.000000,91.000000,,,,0.000000,4.000000,4.000000,4.000000,4.000000,4.000000,4.000000,4.000000,4.000000,4.000000,4.000000,4.000000,4.000000,4.000000,4.000000,100.000000,,,,,,,,,,,,,,,,
1645708162.780071,207.000000,0.000000,4251.153809,4195.128418,4231.153809,4192.436035,4214.358887,4217.948730,4228.461426,4247.563965,4234.487305,4217.051270,4179.102539,4174.615234,4177.820313,4175.000000,3425.000000,4.000000,91.000000,,,,0.000000,4.000000,4.000000,4.000000,4.000000,4.000000,4.000000,4.000000,4.000000,4.000000,4.000000,4.000000,4.000000,4.000000,4.000000,100.000000,,,,,,,,,,,,,,,,
1645708162.784011,208.000000,0.000000,4247.051270,4190.384766,4227.436035,4195.641113,4217.948730,4220.128418,4230.641113,4247.948730,4235.512695,4216.153809,4175.128418,4168.333496,4176.025879,4171.025879,3598.000000,4.000000,91.000000,,,,0.000000,4.000000,4.000000,4.000000,4.000000,4.000000,4.000000,4.000000,4.000000,4.000000,4.000000,4.000000,4.000000,4.000000,4.000000,100.000000,,,,,,,,,,,,,,,,
1645708162.787952,209.000000,0.000000,4246.794922,4191.666504,4227.436035,4202.436035,4219.743652,4219.743652,4233.333496,4247.436035,4236.922852,4213.589844,4173.461426,4164.871582,4176.410156,4169.358887,3290.000000,4.000000,91.000000,,,,0.000000,4.000000,4.000000,4.000000,4.000000,4.000000,4.000000,4.000000,4.000000,4.000000,4.000000,4.000000,4.000000,4.000000,4.000000,100.000000,,,,,,,,,,,,,,,,
1645708162.791892,210.000000,0.000000,4249.743652,4198.333496,4230.641113,4211.025879,4218.461426,4217.179688,4234.487305,4247.307617,4237.820313,4211.538574,4175.641113,4165.384766,4178.974121,4170.000000,2603.000000,4.000000,91.000000,,,,0.000000,4.000000,4.000000,4.000000,4.000000,4.000000,4.000000,4.000000,4.000000,4.000000,4.000000,4.000000,4.000000,4.000000,4.000000,100.000000,,,,,,,,,,,,,,,,
1645708162.795832,211.000000,0.000000,4253.077148,4206.282227,4233.461426,4216.410156,4216.282227,4214.487305,4233.589844,4247.563965,4237.820313,4211.410156,4180.000000,4168.717773,4181.922852,4171.922852,3425.000000,4.000000,91.000000,,,,0.000000,4.000000,4.000000,4.000000,4.000000,4.000000,4.000000,4.000000,4.000000,4.000000,4.000000,4.000000,4.000000,4.000000,4.000000,100.000000,,,,,,,,,,,,,,,,
1645708162.799772,212.000000,0.000000,4253.589844,4210.128418,4232.179688,4213.846191,4216.153809,4213.589844,4231.922852,4247.051270,4236.794922,4212.436035,4182.692383,4171.794922,4182.692383,4173.077148,3598.000000,4.000000,91.000000,,,,0.000000,4.000000,4.000000,4.000000,4.000000,4.000000,4.000000,4.000000,4.000000,4.000000,4.000000,4.000000,4.000000,4.000000,4.000000,100.000000,,,,,,,,,,,,,,,,
1645708162.803712,213.000000,0.000000,4250.769043,4207.692383,4227.179688,4204.358887,4219.871582,4214.358887,4231.153809,4245.384766,4235.384766,4213.205078,4181.666504,4172.051270,4181.282227,4172.436035,3290.000000,4.000000,91.000000,,,,0.000000,4.000000,4.000000,4.000000,4.000000,4.000000,4.000000,4.000000,4.000000,4.000000,4.000000,4.000000,4.000000,4.000000,4.000000,100.000000,,,,,,,,,,,,,,,,
1645708162.807652,214.000000,0.000000,4247.051270,4201.666504,4221.794922,4194.743652,4225.128418,4215.000000,4231.666504,4242.948730,4234.102539,4212.692383,4178.205078,4168.974121,4179.871582,4169.743652,2603.000000,4.000000,91.000000,,,,0.000000,4.000000,4.000000,4.000000,4.000000,4.000000,4.000000,4.000000,4.000000,4.000000,4.000000,4.000000,4.000000,4.000000,4.000000,100.000000,,,,,,,,,,,,,,,,
1645708162.811592,215.000000,0.000000,4245.512695,4197.307617,4219.615234,4192.436035,4227.179688,4214.615234,4232.563965,4240.641113,4233.461426,4211.410156,4175.384766,4164.102539,4180.641113,4166.666504,3425.000000,4.000000,91.000000,,,,0.000000,4.000000,4.000000,4.000000,4.000000,4.000000,4.000000,4.000000,4.000000,4.000000,4.000000,4.000000,4.000000,4.000000,4.000000,100.000000,,,,,,,,,,,,,,,,
1645708162.815532,216.000000,0.000000,4247.051270,4197.948730,4220.769043,4197.948730,4223.333496,4213.333496,4232.563965,4239.102539,4233.846191,4210.769043,4174.358887,4159.743652,4183.974121,4164.230957,3598.000000,4.000000,91.000000,,,,0.000000,4.000000,4.000000,4.000000,4.000000,4.000000,4.000000,4.000000,4.000000,4.000000,4.000000,4.000000,4.000000,4.000000,4.000000,100.000000,,,,,,,,,,,,,,,,
1645708162.819472,217.000000,0.000000,4249.615234,4202.051270,4223.333496,4204.871582,4215.384766,4212.179688,4232.179688,4239.487305,4235.000000,4211.922852,4173.974121,4157.051270,4187.948730,4162.948730,3290.000000,4.000000,91.000000,,,,0.000000,4.000000,4.000000,4.000000,4.000000,4.000000,4.000000,4.000000,4.000000,4.000000,4.000000,4.000000,4.000000,4.000000,4.000000,100.000000,,,,,,,,,,,,,,,,
1645708162.823412,218.000000,0.000000,4250.384766,4205.128418,4224.615234,4206.153809,4207.948730,4212.307617,4232.820313,4242.436035,4236.153809,4214.743652,4171.794922,4156.153809,4189.871582,4162.179688,2603.000000,4.000000,91.000000,,,,0.000000,4.000000,4.000000,4.000000,4.000000,4.000000,4.000000,4.000000,4.000000,4.000000,4.000000,4.000000,4.000000,4.000000,4.000000,100.000000,,,,,,,,,,,,,,,,
1645708162.827452,219.000000,0.000000,4247.948730,4203.717773,4224.230957,4201.153809,4204.871582,4212.948730,4234.487305,4247.179688,4236.666504,4217.563965,4167.948730,4155.512695,4187.820313,4162.179688,3425.000000,4.000000,91.000000,,,,0.000000,4.000000,4.000000,4.000000,4.000000,4.000000,4.000000,4.000000,4.000000,4.000000,4.000000,4.000000,4.000000,4.000000,4.000000,100.000000,,,,,,,,,,,,,,,,
1645708162.831393,220.000000,0.000000,4244.230957,4198.717773,4223.589844,4195.384766,4206.666504,4213.461426,4235.641113,4251.282227,4236.410156,4218.205078,4164.871582,4154.102539,4182.692383,4163.717773,3598.000000,4.000000,91.000000,,,,0.000000,4.000000,4.000000,4.000000,4.000000,4.000000,4.000000,4.000000,4.000000,4.000000,4.000000,4.000000,4.000000,4.000000,4.000000,100.000000,,,,,,,,,,,,,,,,
1645708162.835333,221.000000,0.000000,4242.820313,4194.487305,4224.743652,4194.615234,4211.282227,4213.205078,4235.128418,4252.307617,4235.897461,4216.025879,4164.871582,4152.179688,4177.820313,4166.282227,3290.000000,4.000000,91.000000,,,,0.000000,4.000000,4.000000,4.000000,4.000000,4.000000,4.000000,4.000000,4.000000,4.000000,4.000000,4.000000,4.000000,4.000000,4.000000,100.000000,,,,,,,,,,,,,,,,
1645708162.839273,222.000000,0.000000,4245.000000,4194.230957,4227.692383,4199.102539,4215.641113,4212.948730,4233.205078,4249.358887,4235.384766,4212.436035,4167.692383,4151.410156,4175.897461,4168.717773,2603.000000,4.000000,91.000000,,,,0.000000,4.000000,4.000000,4.000000,4.000000,4.000000,4.000000,4.000000,4.000000,4.000000,4.000000,4.000000,4.000000,4.000000,4.000000,100.000000,,,,,,,,,,,,,,,,
1645708162.843213,223.000000,0.000000,4248.589844,4197.307617,4230.897461,4204.871582,4217.692383,4213.333496,4231.282227,4243.461426,4234.358887,4209.615234,4170.256348,4152.307617,4176.666504,4169.487305,3425.000000,4.000000,91.000000,,,,0.000000,4.000000,4.000000,4.000000,4.000000,4.000000,4.000000,4.000000,4.000000,4.000000,4.000000,4.000000,4.000000,4.000000,4.000000,100.000000,,,,,,,,,,,,,,,,
1645708162.847153,224.000000,0.000000,4249.487305,4199.871582,4231.282227,4207.179688,4216.666504,4213.846191,4230.384766,4237.051270,4232.820313,4208.974121,4169.615234,4153.461426,4177.820313,4168.077148,3598.000000,4.000000,91.000000,,,,0.000000,4.000000,4.000000,4.000000,4.000000,4.000000,4.000000,4.000000,4.000000,4.000000,4.000000,4.000000,4.000000,4.000000,4.000000,100.000000,,,,,,,,,,,,,,,,
1645708162.851093,225.000000,0.000000,4245.897461,4198.461426,4227.563965,4205.384766,4213.846191,4214.230957,4231.282227,4233.077148,4231.538574,4210.000000,4165.769043,4153.205078,4177.436035,4165.000000,3290.000000,4.000000,91.000000,,,,0.000000,4.000000,4.000000,4.000000,4.000000,4.000000,4.000000,4.000000,4.000000,4.000000,4.000000,4.000000,4.000000,4.000000,4.000000,100.000000,,,,,,,,,,,,,,,,
1645708162.855033,226.000000,0.000000,4240.128418,4193.589844,4221.153809,4202.307617,4210.897461,4214.102539,4232.820313,4233.205078,4231.666504,4211.153809,4161.538574,4151.153809,4175.897461,4161.153809,2603.000000,4.000000,91.000000,,,,0.000000,4.000000,4.000000,4.000000,4.000000,4.000000,4.000000,4.000000,4.000000,4.000000,4.000000,4.000000,4.000000,4.000000,4.000000,100.000000,,,,,,,,,,,,,,,,
1645708162.858973,227.000000,0.000000,4236.153809,4189.230957,4215.512695,4200.897461,4209.743652,4213.589844,4233.717773,4237.307617,4233.077148,4211.410156,4159.871582,4148.461426,4174.871582,4157.307617,3425.000000,4.000000,91.000000,,,,0.000000,4.000000,4.000000,4.000000,4.000000,4.000000,4.000000,4.000000,4.000000,4.000000,4.000000,4.000000,4.000000,4.000000,4.000000,100.000000,,,,,,,,,,,,,,,,
1645708162.862913,228.000000,0.000000,4236.410156,4188.974121,4213.461426,4201.666504,4210.512695,4212.820313,4233.077148,4243.205078,4234.743652,4210.256348,4161.282227,4146.538574,4175.897461,4154.743652,3598.000000,4.000000,91.000000,,,,0.000000,4.000000,4.000000,4.000000,4.000000,4.000000,4.000000,4.000000,4.000000,4.000000,4.000000,4.000000,4.000000,4.000000,4.000000,100.000000,,,,,,,,,,,,,,,,
1645708162.866854,229.000000,0.000000,4239.487305,4192.820313,4215.512695,4203.205078,4211.410156,4211.538574,4231.410156,4248.077148,4235.641113,4208.333496,4163.717773,4145.641113,4178.461426,4154.487305,3290.000000,4.000000,91.000000,,,,0.000000,4.000000,4.000000,4.000000,4.000000,4.000000,4.000000,4.000000,4.000000,4.000000,4.000000,4.000000,4.000000,4.000000,4.000000,100.000000,,,,,,,,,,,,,,,,
1645708162.870794,230.000000,0.000000,4241.794922,4197.179688,4218.717773,4203.333496,4210.769043,4210.512695,4230.897461,4249.358887,4235.384766,4206.794922,4164.615234,4145.512695,4180.897461,4155.256348,2603.000000,4.000000,91.000000,,,,0.000000,4.000000,4.000000,4.000000,4.000000,4.000000,4.000000,4.000000,4.000000,4.000000,4.000000,4.000000,4.000000,4.000000,4.000000,100.000000,,,,,,,,,,,,,,,,
1645708162.874734,231.000000,0.000000,4241.153809,4197.948730,4219.743652,4200.897461,4209.358887,4210.512695,4232.820313,4247.179688,4234.230957,4205.769043,4162.692383,4145.641113,4180.641113,4155.384766,3425.000000,4.000000,91.000000,,,,0.000000,4.000000,4.000000,4.000000,4.000000,4.000000,4.000000,4.000000,4.000000,4.000000,4.000000,4.000000,4.000000,4.000000,4.000000,100.000000,,,,,,,,,,,,,,,,
1645708162.878674,232.000000,0.000000,4238.717773,4194.615234,4217.692383,4197.051270,4208.717773,4211.538574,4236.025879,4243.461426,4232.948730,4204.487305,4158.461426,4145.769043,4177.179688,4153.846191,3598.000000,4.000000,91.000000,,,,0.000000,4.000000,4.000000,4.000000,4.000000,4.000000,4.000000,4.000000,4.000000,4.000000,4.000000,4.000000,4.000000,4.000000,4.000000,100.000000,,,,,,,,,,,,,,,,
1645708162.882614,233.000000,0.000000,4237.692383,4190.512695,4215.128418,4193.974121,4210.000000,4212.692383,4237.948730,4241.282227,4231.922852,4202.820313,4154.743652,4146.153809,4172.563965,4152.051270,3290.000000,4.000000,91.000000,,,,0.000000,4.000000,4.000000,4.000000,4.000000,4.000000,4.000000,4.000000,4.000000,4.000000,4.000000,4.000000,4.000000,4.000000,4.000000,100.000000,,,,,,,,,,,,,,,,
1645708162.886554,234.000000,0.000000,4239.487305,4189.487305,4215.256348,4193.717773,4212.051270,4212.820313,4237.179688,4242.307617,4231.666504,4202.179688,4154.230957,4147.563965,4170.641113,4152.179688,2603.000000,4.000000,91.000000,,,,0.000000,4.000000,4.000000,4.000000,4.000000,4.000000,4.000000,4.000000,4.000000,4.000000,4.000000,4.000000,4.000000,4.000000,4.000000,100.000000,,,,,,,,,,,,,,,,
1645708162.890494,235.000000,0.000000,4243.077148,4192.948730,4218.077148,4196.410156,4213.846191,4211.794922,4234.743652,4245.769043,4232.436035,4204.743652,4158.333496,4150.769043,4173.846191,4155.512695,3425.000000,4.000000,91.000000,,,,0.000000,4.000000,4.000000,4.000000,4.000000,4.000000,4.000000,4.000000,4.000000,4.000000,4.000000,4.000000,4.000000,4.000000,4.000000,100.000000,,,,,,,,,,,,,,,,
1645708162.894434,236.000000,0.000000,4245.641113,4198.333496,4221.410156,4200.384766,4215.256348,4210.641113,4232.692383,4249.358887,4234.487305,4210.897461,4165.641113,4154.743652,4181.410156,4161.410156,3598.000000,4.000000,91.000000,,,,0.000000,4.000000,4.000000,4.000000,4.000000,4.000000,4.000000,4.000000,4.000000,4.000000,4.000000,4.000000,4.000000,4.000000,4.000000,100.000000,,,,,,,,,,,,,,,,
1645708162.898374,237.000000,0.000000,4245.128418,4201.025879,4222.820313,4203.461426,4216.282227,4210.384766,4231.922852,4250.641113,4236.794922,4217.820313,4172.692383,4158.205078,4190.256348,4166.922852,3290.000000,4.000000,91.000000,,,,0.000000,4.000000,4.000000,4.000000,4.000000,4.000000,4.000000,4.000000,4.000000,4.000000,4.000000,4.000000,4.000000,4.000000,4.000000,100.000000,,,,,,,,,,,,,,,,
1645708162.902414,238.000000,0.000000,4241.410156,4197.307617,4222.179688,4203.846191,4216.538574,4210.897461,4231.410156,4248.333496,4237.436035,4221.410156,4176.538574,4160.000000,4196.666504,4169.358887,2603.000000,4.000000,91.000000,,,,0.000000,4.000000,4.000000,4.000000,4.000000,4.000000,4.000000,4.000000,4.000000,4.000000,4.000000,4.000000,4.000000,4.000000,4.000000,100.000000,,,,,,,,,,,,,,,,
1645708162.906354,239.000000,0.000000,4236.922852,4188.333496,4220.897461,4201.282227,4215.384766,4211.282227,4229.871582,4243.589844,4235.384766,4219.230957,4176.794922,4161.282227,4199.871582,4168.461426,3425.000000,4.000000,91.000000,,,,0.000000,4.000000,4.000000,4.000000,4.000000,4.000000,4.000000,4.000000,4.000000,4.000000,4.000000,4.000000,4.000000,4.000000,4.000000,100.000000,,,,,,,,,,,,,,,,
1645708162.910295,240.000000,0.000000,4235.256348,4179.871582,4220.641113,4197.307617,4213.717773,4210.897461,4227.692383,4238.717773,4231.666504,4213.717773,4176.794922,4163.717773,4201.538574,4166.794922,3598.000000,4.000000,91.000000,,,,0.000000,4.000000,4.000000,4.000000,4.000000,4.000000,4.000000,4.000000,4.000000,4.000000,4.000000,4.000000,4.000000,4.000000,4.000000,100.000000,,,,,,,,,,,,,,,,
1645708162.914235,241.000000,0.000000,4238.717773,4178.461426,4222.948730,4194.743652,4213.461426,4209.487305,4225.769043,4236.922852,4229.487305,4210.641113,4180.512695,4169.230957,4205.000000,4167.436035,3290.000000,4.000000,91.000000,,,,0.000000,4.000000,4.000000,4.000000,4.000000,4.000000,4.000000,4.000000,4.000000,4.000000,4.000000,4.000000,4.000000,4.000000,4.000000,100.000000,,,,,,,,,,,,,,,,
1645708162.918175,242.000000,0.000000,4246.538574,4186.025879,4227.692383,4195.256348,4215.128418,4207.948730,4225.897461,4239.743652,4231.153809,4213.846191,4188.846191,4177.051270,4210.769043,4171.410156,2603.000000,4.000000,91.000000,,,,0.000000,4.000000,4.000000,4.000000,4.000000,4.000000,4.000000,4.000000,4.000000,4.000000,4.000000,4.000000,4.000000,4.000000,4.000000,100.000000,,,,,,,,,,,,,,,,
1645708162.922115,243.000000,0.000000,4255.256348,4198.077148,4233.589844,4197.948730,4217.179688,4207.436035,4228.205078,4245.769043,4236.922852,4221.922852,4198.846191,4184.358887,4216.922852,4176.922852,3425.000000,4.000000,91.000000,,,,0.000000,4.000000,4.000000,4.000000,4.000000,4.000000,4.000000,4.000000,4.000000,4.000000,4.000000,4.000000,4.000000,4.000000,4.000000,100.000000,,,,,,,,,,,,,,,,
1645708162.926055,244.000000,0.000000,4261.538574,4207.948730,4238.333496,4200.384766,4218.333496,4208.589844,4231.666504,4251.282227,4243.589844,4230.128418,4205.512695,4188.461426,4220.769043,4181.410156,3598.000000,4.000000,91.000000,,,,0.000000,4.000000,4.000000,4.000000,4.000000,4.000000,4.000000,4.000000,4.000000,4.000000,4.000000,4.000000,4.000000,4.000000,4.000000,100.000000,,,,,,,,,,,,,,,,
1645708162.929995,245.000000,0.000000,4263.974121,4211.410156,4240.641113,4200.769043,4219.102539,4211.538574,4234.743652,4253.077148,4247.179688,4234.487305,4206.282227,4189.102539,4221.153809,4183.333496,3290.000000,4.000000,91.000000,,,,0.000000,4.000000,4.000000,4.000000,4.000000,4.000000,4.000000,4.000000,4.000000,4.000000,4.000000,4.000000,4.000000,4.000000,4.000000,100.000000,,,,,,,,,,,,,,,,
1645708162.933935,246.000000,0.000000,4263.461426,4208.974121,4240.000000,4199.743652,4220.897461,4215.128418,4235.897461,4251.153809,4245.641113,4234.230957,4201.794922,4187.436035,4218.717773,4182.563965,2603.000000,4.000000,91.000000,,,,0.000000,4.000000,4.000000,4.000000,4.000000,4.000000,4.000000,4.000000,4.000000,4.000000,4.000000,4.000000,4.000000,4.000000,4.000000,100.000000,,,,,,,,,,,,,,,,
1645708162.937875,247.000000,0.000000,4261.153809,4203.589844,4236.794922,4199.487305,4223.333496,4216.922852,4234.358887,4247.307617,4240.128418,4230.384766,4195.128418,4184.230957,4214.871582,4179.358887,3425.000000,4.000000,91.000000,,,,0.000000,4.000000,4.000000,4.000000,4.000000,4.000000,4.000000,4.000000,4.000000,4.000000,4.000000,4.000000,4.000000,4.000000,4.000000,100.000000,,,,,,,,,,,,,,,,
1645708162.941716,248.000000,0.000000,4257.179688,4198.717773,4231.922852,4200.384766,4223.974121,4215.512695,4230.897461,4243.717773,4234.358887,4224.615234,4189.358887,4178.974121,4210.256348,4172.820313,3598.000000,4.000000,91.000000,,,,0.000000,4.000000,4.000000,4.000000,4.000000,4.000000,4.000000,4.000000,4.000000,4.000000,4.000000,4.000000,4.000000,4.000000,4.000000,100.000000,,,,,,,,,,,,,,,,
1645708162.945656,249.000000,0.000000,4251.410156,4195.769043,4226.153809,4200.256348,4220.897461,4212.051270,4227.820313,4241.666504,4231.666504,4218.205078,4185.769043,4170.897461,4205.256348,4162.563965,3290.000000,4.000000,91.000000,,,,0.000000,4.000000,4.000000,4.000000,4.000000,4.000000,4.000000,4.000000,4.000000,4.000000,4.000000,4.000000,4.000000,4.000000,4.000000,100.000000,,,,,,,,,,,,,,,,
1645708162.949596,250.000000,0.000000,4245.256348,4194.743652,4220.641113,4196.153809,4215.512695,4209.743652,4227.948730,4241.538574,4232.948730,4213.077148,4184.230957,4161.794922,4200.897461,4150.256348,2603.000000,4.000000,91.000000,,,,0.000000,4.000000,4.000000,4.000000,4.000000,4.000000,4.000000,4.000000,4.000000,4.000000,4.000000,4.000000,4.000000,4.000000,4.000000,100.000000,,,,,,,,,,,,,,,,
1645708162.953536,251.000000,0.000000,4240.897461,4195.256348,4216.538574,4188.974121,4212.436035,4211.153809,4231.410156,4244.102539,4237.307617,4211.922852,4184.358887,4154.743652,4198.846191,4140.897461,3425.000000,4.000000,91.000000,,,,0.000000,4.000000,4.000000,4.000000,4.000000,4.000000,4.000000,4.000000,4.000000,4.000000,4.000000,4.000000,4.000000,4.000000,4.000000,100.000000,,,,,,,,,,,,,,,,
1645708162.957476,252.000000,0.000000,4240.128418,4197.051270,4214.871582,4182.820313,4215.000000,4215.384766,4236.410156,4249.615234,4242.820313,4215.897461,4185.897461,4152.436035,4199.743652,4138.717773,3598.000000,4.000000,91.000000,,,,0.000000,4.000000,4.000000,4.000000,4.000000,4.000000,4.000000,4.000000,4.000000,4.000000,4.000000,4.000000,4.000000,4.000000,4.000000,100.000000,,,,,,,,,,,,,,,,
1645708162.961416,253.000000,0.000000,4242.307617,4199.487305,4215.512695,4182.051270,4221.922852,4219.230957,4240.128418,4257.307617,4247.563965,4223.846191,4188.589844,4154.743652,4202.692383,4143.461426,3290.000000,4.000000,91.000000,,,,0.000000,4.000000,4.000000,4.000000,4.000000,4.000000,4.000000,4.000000,4.000000,4.000000,4.000000,4.000000,4.000000,4.000000,4.000000,100.000000,,,,,,,,,,,,,,,,
1645708162.965356,254.000000,0.000000,4244.615234,4201.025879,4217.307617,4186.922852,4228.333496,4220.000000,4241.025879,4264.102539,4249.871582,4231.666504,4191.025879,4158.974121,4204.871582,4149.358887,2603.000000,4.000000,91.000000,,,,0.000000,4.000000,4.000000,4.000000,4.000000,4.000000,4.000000,4.000000,4.000000,4.000000,4.000000,4.000000,4.000000,4.000000,4.000000,100.000000,,,,,,,,,,,,,,,,
1645708162.969296,255.000000,0.000000,4244.487305,4200.384766,4218.205078,4193.974121,4230.384766,4217.948730,4239.230957,4266.153809,4248.846191,4235.000000,4191.922852,4161.794922,4204.358887,4150.256348,114.000000,4.000000,91.000000,,,,0.000000,4.000000,4.000000,4.000000,4.000000,4.000000,4.000000,4.000000,4.000000,4.000000,4.000000,4.000000,4.000000,4.000000,4.000000,100.000000,,,,,,,,,,,,,,,,
1645708162.973236,0.000000,0.000000,4241.538574,4197.692383,4216.794922,4198.205078,4227.436035,4215.641113,4235.769043,4261.025879,4245.000000,4232.307617,4190.512695,4161.538574,4201.538574,4144.871582,3231.000000,4.000000,91.000000,,,,0.000000,4.000000,4.000000,4.000000,4.000000,4.000000,4.000000,4.000000,4.000000,4.000000,4.000000,4.000000,4.000000,4.000000,4.000000,100.000000,,,,,,,,,,,,,,,,
1645708162.977176,1.000000,0.000000,4237.948730,4194.615234,4214.230957,4197.948730,4221.666504,4215.256348,4232.051270,4250.641113,4240.128418,4225.641113,4187.051270,4158.461426,4199.487305,4136.794922,3446.000000,4.000000,91.000000,,,,0.000000,4.000000,4.000000,4.000000,4.000000,4.000000,4.000000,4.000000,4.000000,4.000000,4.000000,4.000000,4.000000,4.000000,4.000000,100.000000,,,,,,,,,,,,,,,,
1645708162.981117,2.000000,0.000000,4235.512695,4192.563965,4212.820313,4194.487305,4215.769043,4216.282227,4229.230957,4240.384766,4236.025879,4219.102539,4183.333496,4154.230957,4200.384766,4131.025879,3461.000000,4.000000,91.000000,,,,0.000000,4.000000,4.000000,4.000000,4.000000,4.000000,4.000000,4.000000,4.000000,4.000000,4.000000,4.000000,4.000000,4.000000,4.000000,100.000000,,,,,,,,,,,,,,,,
1645708162.985057,3.000000,0.000000,4235.384766,4191.794922,4214.230957,4190.897461,4211.922852,4216.538574,4228.589844,4235.641113,4233.461426,4215.256348,4180.256348,4151.025879,4203.333496,4129.743652,3267.000000,4.000000,91.000000,,,,0.000000,4.000000,4.000000,4.000000,4.000000,4.000000,4.000000,4.000000,4.000000,4.000000,4.000000,4.000000,4.000000,4.000000,4.000000,100.000000,,,,,,,,,,,,,,,,
1645708162.988997,4.000000,0.000000,4236.794922,4192.436035,4217.948730,4190.000000,4212.179688,4214.743652,4230.769043,4237.179688,4232.179688,4214.358887,4179.102539,4150.256348,4205.256348,4131.538574,3533.000000,4.000000,91.000000,,,,0.000000,4.000000,4.000000,4.000000,4.000000,4.000000,4.000000,4.000000,4.000000,4.000000,4.000000,4.000000,4.000000,4.000000,4.000000,100.000000,,,,,,,,,,,,,,,,
1645708162.992937,5.000000,0.000000,4239.230957,4194.743652,4222.563965,4192.948730,4217.307617,4212.179688,4234.487305,4242.051270,4232.179688,4215.512695,4180.384766,4151.922852,4205.000000,4134.102539,3424.000000,4.000000,91.000000,,,,0.000000,4.000000,4.000000,4.000000,4.000000,4.000000,4.000000,4.000000,4.000000,4.000000,4.000000,4.000000,4.000000,4.000000,4.000000,100.000000,,,,,,,,,,,,,,,,
1645708162.996977,6.000000,0.000000,4242.051270,4198.717773,4226.153809,4199.102539,4225.384766,4211.922852,4237.692383,4246.410156,4233.717773,4217.820313,4184.102539,4155.512695,4204.230957,4136.794922,2871.000000,4.000000,91.000000,,,,0.000000,4.000000,4.000000,4.000000,4.000000,4.000000,4.000000,4.000000,4.000000,4.000000,4.000000,4.000000,4.000000,4.000000,4.000000,100.000000,,,,,,,,,,,,,,,,
1645708163.000917,7.000000,0.000000,4245.256348,4203.461426,4228.461426,4205.512695,4231.794922,4215.512695,4239.358887,4248.205078,4237.051270,4221.153809,4189.487305,4160.000000,4205.128418,4139.743652,2600.000000,4.000000,91.000000,,,,0.000000,4.000000,4.000000,4.000000,4.000000,4.000000,4.000000,4.000000,4.000000,4.000000,4.000000,4.000000,4.000000,4.000000,4.000000,100.000000,,,,,,,,,,,,,,,,
1645708163.004857,8.000000,0.000000,4248.846191,4207.436035,4230.512695,4209.487305,4232.692383,4221.153809,4239.615234,4248.589844,4241.666504,4225.256348,4194.230957,4164.743652,4208.077148,4143.846191,1221.000000,4.000000,91.000000,,,,0.000000,4.000000,4.000000,4.000000,4.000000,4.000000,4.000000,4.000000,4.000000,4.000000,4.000000,4.000000,4.000000,4.000000,4.000000,100.000000,,,,,,,,,,,,,,,,
1645708163.008797,9.000000,0.000000,4252.692383,4209.230957,4233.333496,4210.512695,4228.461426,4225.897461,4239.871582,4249.230957,4245.384766,4229.102539,4196.282227,4169.230957,4211.410156,4148.974121,3297.000000,4.000000,91.000000,,,,0.000000,4.000000,4.000000,4.000000,4.000000,4.000000,4.000000,4.000000,4.000000,4.000000,4.000000,4.000000,4.000000,4.000000,4.000000,100.000000,,,,,,,,,,,,,,,,
1645708163.012737,10.000000,0.000000,4256.153809,4209.102539,4236.025879,4210.384766,4223.589844,4226.794922,4240.641113,4250.384766,4246.025879,4231.538574,4195.384766,4172.692383,4213.205078,4154.102539,2461.000000,4.000000,91.000000,,,,0.000000,4.000000,4.000000,4.000000,4.000000,4.000000,4.000000,4.000000,4.000000,4.000000,4.000000,4.000000,4.000000,4.000000,4.000000,100.000000,,,,,,,,,,,,,,,,
1645708163.016677,11.000000,0.000000,4258.205078,4207.948730,4236.666504,4210.512695,4222.563965,4223.589844,4240.641113,4250.641113,4242.563965,4231.025879,4192.948730,4174.487305,4213.461426,4157.307617,3430.000000,4.000000,91.000000,,,,0.000000,4.000000,4.000000,4.000000,4.000000,4.000000,4.000000,4.000000,4.000000,4.000000,4.000000,4.000000,4.000000,4.000000,4.000000,100.000000,,,,,,,,,,,,,,,,
1645708163.020618,12.000000,0.000000,4257.307617,4206.666504,4233.333496,4210.000000,4226.025879,4218.333496,4238.717773,4249.102539,4236.922852,4227.307617,4191.282227,4174.615234,4212.948730,4157.179688,3442.000000,4.000000,91.000000,,,,0.000000,4.000000,4.000000,4.000000,4.000000,4.000000,4.000000,4.000000,4.000000,4.000000,4.000000,4.000000,4.000000,4.000000,4.000000,100.000000,,,,,,,,,,,,,,,,
1645708163.024558,13.000000,0.000000,4252.563965,4205.000000,4227.179688,4205.641113,4230.384766,4214.230957,4235.512695,4246.666504,4232.307617,4221.153809,4191.282227,4173.333496,4212.051270,4153.589844,3298.000000,4.000000,91.000000,,,,0.000000,4.000000,4.000000,4.000000,4.000000,4.000000,4.000000,4.000000,4.000000,4.000000,4.000000,4.000000,4.000000,4.000000,4.000000,100.000000,,,,,,,,,,,,,,,,
1645708163.028498,14.000000,0.000000,4245.512695,4201.794922,4221.410156,4195.897461,4231.410156,4212.820313,4233.333496,4245.384766,4231.794922,4215.128418,4192.563965,4171.282227,4211.282227,4148.205078,2461.000000,4.000000,91.000000,,,,0.000000,4.000000,4.000000,4.000000,4.000000,4.000000,4.000000,4.000000,4.000000,4.000000,4.000000,4.000000,4.000000,4.000000,4.000000,100.000000,,,,,,,,,,,,,,,,
1645708163.032438,15.000000,0.000000,4239.358887,4197.307617,4218.974121,4183.717773,4227.948730,4214.358887,4233.974121,4246.153809,4235.512695,4211.538574,4193.846191,4168.974121,4210.000000,4143.846191,3430.000000,4.000000,91.000000,,,,0.000000,4.000000,4.000000,4.000000,4.000000,4.000000,4.000000,4.000000,4.000000,4.000000,4.000000,4.000000,4.000000,4.000000,4.000000,100.000000,,,,,,,,,,,,,,,,
1645708163.036378,16.000000,0.000000,4236.153809,4192.948730,4219.871582,4174.871582,4222.307617,4217.307617,4236.666504,4248.333496,4240.769043,4211.410156,4194.615234,4167.051270,4208.205078,4142.436035,3442.000000,4.000000,91.000000,,,,0.000000,4.000000,4.000000,4.000000,4.000000,4.000000,4.000000,4.000000,4.000000,4.000000,4.000000,4.000000,4.000000,4.000000,4.000000,100.000000,,,,,,,,,,,,,,,,
1645708163.040318,17.000000,0.000000,4236.153809,4190.128418,4222.051270,4174.102539,4218.205078,4219.743652,4239.358887,4250.000000,4243.589844,4213.205078,4193.589844,4166.153809,4206.282227,4143.589844,3298.000000,4.000000,91.000000,,,,0.000000,4.000000,4.000000,4.000000,4.000000,4.000000,4.000000,4.000000,4.000000,4.000000,4.000000,4.000000,4.000000,4.000000,4.000000,100.000000,,,,,,,,,,,,,,,,
1645708163.044258,18.000000,0.000000,4237.563965,4189.487305,4223.205078,4180.641113,4217.307617,4220.256348,4239.743652,4249.743652,4241.794922,4214.615234,4190.641113,4166.666504,4204.615234,4144.487305,2461.000000,4.000000,91.000000,,,,0.000000,4.000000,4.000000,4.000000,4.000000,4.000000,4.000000,4.000000,4.000000,4.000000,4.000000,4.000000,4.000000,4.000000,4.000000,100.000000,,,,,,,,,,,,,,,,
1645708163.048198,19.000000,0.000000,4238.717773,4189.871582,4222.307617,4190.128418,4219.102539,4218.974121,4238.205078,4248.077148,4236.410156,4213.846191,4186.410156,4168.077148,4203.461426,4142.820313,3430.000000,4.000000,91.000000,,,,0.000000,4.000000,4.000000,4.000000,4.000000,4.000000,4.000000,4.000000,4.000000,4.000000,4.000000,4.000000,4.000000,4.000000,4.000000,100.000000,,,,,,,,,,,,,,,,
1645708163.052138,20.000000,0.000000,4239.102539,4190.384766,4219.487305,4196.922852,4221.666504,4217.436035,4236.538574,4246.282227,4231.282227,4211.538574,4182.820313,4168.846191,4202.820313,4138.717773,3442.000000,4.000000,91.000000,,,,0.000000,4.000000,4.000000,4.000000,4.000000,4.000000,4.000000,4.000000,4.000000,4.000000,4.000000,4.000000,4.000000,4.000000,4.000000,100.000000,,,,,,,,,,,,,,,,
1645708163.056078,21.000000,0.000000,4238.205078,4190.256348,4216.410156,4198.461426,4223.846191,4217.436035,4236.282227,4245.769043,4229.743652,4210.256348,4181.666504,4167.563965,4202.948730,4134.487305,3298.000000,4.000000,91.000000,,,,0.000000,4.000000,4.000000,4.000000,4.000000,4.000000,4.000000,4.000000,4.000000,4.000000,4.000000,4.000000,4.000000,4.000000,4.000000,100.000000,,,,,,,,,,,,,,,,
1645708163.060019,22.000000,0.000000,4235.384766,4190.000000,4213.717773,4196.025879,4225.000000,4219.487305,4237.692383,4246.922852,4232.948730,4211.410156,4183.205078,4164.230957,4203.077148,4132.436035,2461.000000,4.000000,91.000000,,,,0.000000,4.000000,4.000000,4.000000,4.000000,4.000000,4.000000,4.000000,4.000000,4.000000,4.000000,4.000000,4.000000,4.000000,4.000000,100.000000,,,,,,,,,,,,,,,,
1645708163.063959,23.000000,0.000000,4231.282227,4189.871582,4212.179688,4193.333496,4225.512695,4222.307617,4240.256348,4249.358887,4238.717773,4214.487305,4185.769043,4159.743652,4202.948730,4132.948730,3430.000000,4.000000,91.000000,,,,0.000000,4.000000,4.000000,4.000000,4.000000,4.000000,4.000000,4.000000,4.000000,4.000000,4.000000,4.000000,4.000000,4.000000,4.000000,100.000000,,,,,,,,,,,,,,,,
1645708163.067899,24.000000,0.000000,4227.948730,4190.256348,4211.282227,4192.948730,4225.769043,4224.358887,4242.948730,4252.307617,4244.358887,4217.563965,4187.436035,4155.769043,4203.205078,4134.487305,3442.000000,4.000000,91.000000,,,,0.000000,4.000000,4.000000,4.000000,4.000000,4.000000,4.000000,4.000000,4.000000,4.000000,4.000000,4.000000,4.000000,4.000000,4.000000,100.000000,,,,,,,,,,,,,,,,
1645708163.071839,25.000000,0.000000,4227.307617,4191.282227,4211.153809,4194.358887,4224.871582,4224.615234,4244.358887,4254.358887,4247.692383,4219.615234,4188.333496,4153.461426,4204.871582,4135.512695,3298.000000,4.000000,91.000000,,,,0.000000,4.000000,4.000000,4.000000,4.000000,4.000000,4.000000,4.000000,4.000000,4.000000,4.000000,4.000000,4.000000,4.000000,4.000000,100.000000,,,,,,,,,,,,,,,,
1645708163.075779,26.000000,0.000000,4229.487305,4192.051270,4211.666504,4194.871582,4222.179688,4222.820313,4243.205078,4254.487305,4248.205078,4220.512695,4189.615234,4153.205078,4208.205078,4135.641113,2461.000000,4.000000,91.000000,,,,0.000000,4.000000,4.000000,4.000000,4.000000,4.000000,4.000000,4.000000,4.000000,4.000000,4.000000,4.000000,4.000000,4.000000,4.000000,100.000000,,,,,,,,,,,,,,,,
1645708163.079719,27.000000,0.000000,4232.436035,4192.692383,4212.948730,4192.948730,4218.589844,4219.487305,4240.256348,4252.820313,4246.922852,4221.025879,4191.922852,4154.743652,4211.922852,4135.128418,3430.000000,4.000000,91.000000,,,,0.000000,4.000000,4.000000,4.000000,4.000000,4.000000,4.000000,4.000000,4.000000,4.000000,4.000000,4.000000,4.000000,4.000000,4.000000,100.000000,,,,,,,,,,,,,,,,
1645708163.083559,28.000000,0.000000,4233.589844,4193.205078,4214.615234,4189.871582,4216.922852,4215.769043,4237.307617,4250.769043,4245.256348,4221.538574,4194.487305,4157.436035,4214.871582,4133.717773,3442.000000,4.000000,91.000000,,,,0.000000,4.000000,4.000000,4.000000,4.000000,4.000000,4.000000,4.000000,4.000000,4.000000,4.000000,4.000000,4.000000,4.000000,4.000000,100.000000,,,,,,,,,,,,,,,,
1645708163.087499,29.000000,0.000000,4232.692383,4193.974121,4215.769043,4189.102539,4219.230957,4212.563965,4235.769043,4250.641113,4244.102539,4222.307617,4196.153809,4159.743652,4216.025879,4131.922852,3298.000000,4.000000,91.000000,,,,0.000000,4.000000,4.000000,4.000000,4.000000,4.000000,4.000000,4.000000,4.000000,4.000000,4.000000,4.000000,4.000000,4.000000,4.000000,100.000000,,,,,,,,,,,,,,,,
1645708163.091440,30.000000,0.000000,4230.769043,4195.384766,4215.769043,4192.692383,4225.000000,4211.410156,4236.153809,4252.692383,4243.974121,4224.230957,4196.794922,4161.025879,4215.641113,4130.384766,2461.000000,4.000000,91.000000,,,,0.000000,4.000000,4.000000,4.000000,4.000000,4.000000,4.000000,4.000000,4.000000,4.000000,4.000000,4.000000,4.000000,4.000000,4.000000,100.000000,,,,,,,,,,,,,,,,
1645708163.095280,31.000000,0.000000,4230.256348,4198.077148,4215.256348,4199.230957,4230.897461,4213.461426,4238.205078,4255.512695,4244.743652,4227.692383,4197.307617,4161.282227,4215.000000,4130.000000,3430.000000,4.000000,91.000000,,,,0.000000,4.000000,4.000000,4.000000,4.000000,4.000000,4.000000,4.000000,4.000000,4.000000,4.000000,4.000000,4.000000,4.000000,4.000000,100.000000,,,,,,,,,,,,,,,,
1645708163.099220,32.000000,0.000000,4231.922852,4202.051270,4215.641113,4204.743652,4234.358887,4218.461426,4241.410156,4256.666504,4246.282227,4231.794922,4198.461426,4161.666504,4214.871582,4131.025879,0.000000,4.000000,91.000000,,,,0.000000,4.000000,4.000000,4.000000,4.000000,4.000000,4.000000,4.000000,4.000000,4.000000,4.000000,4.000000,4.000000,4.000000,4.000000,100.000000,,,,,,,,,,,,,,,,
1645708163.103160,33.000000,0.000000,4234.743652,4206.025879,4217.436035,4207.051270,4234.871582,4223.461426,4244.358887,4255.128418,4247.436035,4233.974121,4199.615234,4162.436035,4214.871582,4132.179688,0.000000,4.000000,91.000000,,,,0.000000,4.000000,4.000000,4.000000,4.000000,4.000000,4.000000,4.000000,4.000000,4.000000,4.000000,4.000000,4.000000,4.000000,4.000000,100.000000,,,,,,,,,,,,,,,,
1645708163.107100,34.000000,0.000000,4236.538574,4206.922852,4219.230957,4206.794922,4232.948730,4225.000000,4245.000000,4251.410156,4246.922852,4232.051270,4199.102539,4162.179688,4214.102539,4131.410156,0.000000,4.000000,91.000000,,,,0.000000,4.000000,4.000000,4.000000,4.000000,4.000000,4.000000,4.000000,4.000000,4.000000,4.000000,4.000000,4.000000,4.000000,4.000000,100.000000,,,,,,,,,,,,,,,,
1645708163.111040,35.000000,0.000000,4235.384766,4203.589844,4218.589844,4205.641113,4229.358887,4221.410156,4241.538574,4247.436035,4243.974121,4225.897461,4196.410156,4159.102539,4211.922852,4128.205078,0.000000,4.000000,91.000000,,,,0.000000,4.000000,4.000000,4.000000,4.000000,4.000000,4.000000,4.000000,4.000000,4.000000,4.000000,4.000000,4.000000,4.000000,4.000000,100.000000,,,,,,,,,,,,,,,,
1645708163.114880,36.000000,0.000000,4231.282227,4197.436035,4215.128418,4205.256348,4225.512695,4215.256348,4235.128418,4245.000000,4239.487305,4218.974121,4193.077148,4154.230957,4209.230957,4123.333496,0.000000,4.000000,91.000000,,,,0.000000,4.000000,4.000000,4.000000,4.000000,4.000000,4.000000,4.000000,4.000000,4.000000,4.000000,4.000000,4.000000,4.000000,4.000000,100.000000,,,,,,,,,,,,,,,,
1645708163.118820,37.000000,0.000000,4226.538574,4192.563965,4211.025879,4205.000000,4223.333496,4211.153809,4229.615234,4244.615234,4235.769043,4215.384766,4191.410156,4150.128418,4207.692383,4119.230957,0.000000,4.000000,91.000000,,,,0.000000,4.000000,4.000000,4.000000,4.000000,4.000000,4.000000,4.000000,4.000000,4.000000,4.000000,4.000000,4.000000,4.000000,4.000000,100.000000,,,,,,,,,,,,,,,,
1645708163.122761,38.000000,0.000000,4224.358887,4191.282227,4209.230957,4203.333496,4223.205078,4211.666504,4228.589844,4246.410156,4235.128418,4217.179688,4192.692383,4149.743652,4208.589844,4118.333496,0.000000,4.000000,91.000000,,,,0.000000,4.000000,4.000000,4.000000,4.000000,4.000000,4.000000,4.000000,4.000000,4.000000,4.000000,4.000000,4.000000,4.000000,4.000000,100.000000,,,,,,,,,,,,,,,,
1645708163.126701,39.000000,0.000000,4226.666504,4194.102539,4211.153809,4199.743652,4224.358887,4215.256348,4232.436035,4249.487305,4238.077148,4222.948730,4197.051270,4153.333496,4211.922852,4121.153809,0.000000,4.000000,91.000000,,,,0.000000,4.000000,4.000000,4.000000,4.000000,4.000000,4.000000,4.000000,4.000000,4.000000,4.000000,4.000000,4.000000,4.000000,4.000000,100.000000,,,,,,,,,,,,,,,,
1645708163.130641,40.000000,0.000000,4232.436035,4199.230957,4215.512695,4196.025879,4225.128418,4218.333496,4237.307617,4253.205078,4243.333496,4229.615234,4203.333496,4159.358887,4216.410156,4126.153809,0.000000,4.000000,91.000000,,,,0.000000,4.000000,4.000000,4.000000,4.000000,4.000000,4.000000,4.000000,4.000000,4.000000,4.000000,4.000000,4.000000,4.000000,4.000000,100.000000,,,,,,,,,,,,,,,,
1645708163.134581,41.000000,0.000000,4238.461426,4204.102539,4219.358887,4194.358887,4225.128418,4217.820313,4238.461426,4256.666504,4248.205078,4234.487305,4208.846191,4164.743652,4220.641113,4130.128418,0.000000,4.000000,91.000000,,,,0.000000,4.000000,4.000000,4.000000,4.000000,4.000000,4.000000,4.000000,4.000000,4.000000,4.000000,4.000000,4.000000,4.000000,4.000000,100.000000,,,,,,,,,,,,,,,,
1645708163.138521,42.000000,0.000000,4241.282227,4206.538574,4220.641113,4195.256348,4224.871582,4213.589844,4235.384766,4258.717773,4250.384766,4236.153809,4210.641113,4167.051270,4223.205078,4130.641113,0.000000,4.000000,91.000000,,,,0.000000,4.000000,4.000000,4.000000,4.000000,4.000000,4.000000,4.000000,4.000000,4.000000,4.000000,4.000000,4.000000,4.000000,4.000000,100.000000,,,,,,,,,,,,,,,,
1645708163.142461,43.000000,0.000000,4239.871582,4204.871582,4219.358887,4197.051270,4224.102539,4208.205078,4230.769043,4258.461426,4248.974121,4234.615234,4207.051270,4165.769043,4223.461426,4127.179688,0.000000,4.000000,91.000000,,,,0.000000,4.000000,4.000000,4.000000,4.000000,4.000000,4.000000,4.000000,4.000000,4.000000,4.000000,4.000000,4.000000,4.000000,4.000000,100.000000,,,,,,,,,,,,,,,,
1645708163.146401,44.000000,0.000000,4235.256348,4200.000000,4216.922852,4197.436035,4222.820313,4204.615234,4228.461426,4255.512695,4245.256348,4231.794922,4200.000000,4163.077148,4221.794922,4122.179688,0.000000,4.000000,91.000000,,,,0.000000,4.000000,4.000000,4.000000,4.000000,4.000000,4.000000,4.000000,4.000000,4.000000,4.000000,4.000000,4.000000,4.000000,4.000000,100.000000,,,,,,,,,,,,,,,,
1645708163.150341,45.000000,0.000000,4230.256348,4194.102539,4215.769043,4195.897461,4221.666504,4204.487305,4229.230957,4251.153809,4241.794922,4229.871582,4194.487305,4161.794922,4219.358887,4119.230957,0.000000,4.000000,91.000000,,,,0.000000,4.000000,4.000000,4.000000,4.000000,4.000000,4.000000,4.000000,4.000000,4.000000,4.000000,4.000000,4.000000,4.000000,4.000000,100.000000,,,,,,,,,,,,,,,,
1645708163.154281,46.000000,0.000000,4227.692383,4190.641113,4216.794922,4194.102539,4222.692383,4206.922852,4231.922852,4247.948730,4241.153809,4231.410156,4195.000000,4163.589844,4218.333496,4119.743652,0.000000,4.000000,91.000000,,,,0.000000,4.000000,4.000000,4.000000,4.000000,4.000000,4.000000,4.000000,4.000000,4.000000,4.000000,4.000000,4.000000,4.000000,4.000000,100.000000,,,,,,,,,,,,,,,,
1645708163.158222,47.000000,0.000000,4229.487305,4191.153809,4219.615234,4193.974121,4226.410156,4210.256348,4234.102539,4248.461426,4243.846191,4235.897461,4201.794922,4167.307617,4220.384766,4122.820313,0.000000,4.000000,91.000000,,,,0.000000,4.000000,4.000000,4.000000,4.000000,4.000000,4.000000,4.000000,4.000000,4.000000,4.000000,4.000000,4.000000,4.000000,4.000000,100.000000,,,,,,,,,,,,,,,,
1645708163.162162,48.000000,0.000000,4234.615234,4194.230957,4223.077148,4196.282227,4230.769043,4212.563965,4234.487305,4252.436035,4247.563965,4240.641113,4210.641113,4170.000000,4224.615234,4126.410156,0.000000,4.000000,91.000000,,,,0.000000,4.000000,4.000000,4.000000,4.000000,4.000000,4.000000,4.000000,4.000000,4.000000,4.000000,4.000000,4.000000,4.000000,4.000000,100.000000,,,,,,,,,,,,,,,,
1645708163.166102,49.000000,0.000000,4240.897461,4197.948730,4226.153809,4200.256348,4233.333496,4213.333496,4233.589844,4256.538574,4249.102539,4241.538574,4215.641113,4170.128418,4228.589844,4129.743652,0.000000,4.000000,91.000000,,,,0.000000,4.000000,4.000000,4.000000,4.000000,4.000000,4.000000,4.000000,4.000000,4.000000,4.000000,4.000000,4.000000,4.000000,4.000000,100.000000,,,,,,,,,,,,,,,,
1645708163.170042,50.000000,0.000000,4245.769043,4201.282227,4228.589844,4203.974121,4233.846191,4213.717773,4233.077148,4257.820313,4247.179688,4237.436035,4214.102539,4168.461426,4230.256348,4132.948730,0.000000,4.000000,91.000000,,,,0.000000,4.000000,4.000000,4.000000,4.000000,4.000000,4.000000,4.000000,4.000000,4.000000,4.000000,4.000000,4.000000,4.000000,4.000000,100.000000,,,,,,,,,,,,,,,,
1645708163.173982,51.000000,0.000000,4247.563965,4204.358887,4230.512695,4205.128418,4233.589844,4215.128418,4233.717773,4255.512695,4243.333496,4230.897461,4208.717773,4167.692383,4229.358887,4135.256348,0.000000,4.000000,91.000000,,,,0.000000,4.000000,4.000000,4.000000,4.000000,4.000000,4.000000,4.000000,4.000000,4.000000,4.000000,4.000000,4.000000,4.000000,4.000000,100.000000,,,,,,,,,,,,,,,,
1645708163.177922,52.000000,0.000000,4245.641113,4205.769043,4231.282227,4201.922852,4233.205078,4217.307617,4235.256348,4252.051270,4240.641113,4225.897461,4203.717773,4169.615234,4226.666504,4134.615234,0.000000,4.000000,91.000000,,,,0.000000,4.000000,4.000000,4.000000,4.000000,4.000000,4.000000,4.000000,4.000000,4.000000,4.000000,4.000000,4.000000,4.000000,4.000000,100.000000,,,,,,,,,,,,,,,,
1645708163.181762,53.000000,0.000000,4240.641113,4202.948730,4230.256348,4195.384766,4231.538574,4218.974121,4236.153809,4250.000000,4240.641113,4224.743652,4202.436035,4172.948730,4223.077148,4130.000000,0.000000,4.000000,91.000000,,,,0.000000,4.000000,4.000000,4.000000,4.000000,4.000000,4.000000,4.000000,4.000000,4.000000,4.000000,4.000000,4.000000,4.000000,4.000000,100.000000,,,,,,,,,,,,,,,,
1645708163.185702,54.000000,0.000000,4234.615234,4195.641113,4227.179688,4189.102539,4227.820313,4218.717773,4236.153809,4250.512695,4243.077148,4226.153809,4203.974121,4174.615234,4219.871582,4123.205078,0.000000,4.000000,91.000000,,,,0.000000,4.000000,4.000000,4.000000,4.000000,4.000000,4.000000,4.000000,4.000000,4.000000,4.000000,4.000000,4.000000,4.000000,4.000000,100.000000,,,,,,,,,,,,,,,,
1645708163.189642,55.000000,0.000000,4230.128418,4187.820313,4222.820313,4186.922852,4224.615234,4217.436035,4236.153809,4252.179688,4245.897461,4227.563965,4205.897461,4172.436035,4218.461426,4118.205078,0.000000,4.000000,91.000000,,,,0.000000,4.000000,4.000000,4.000000,4.000000,4.000000,4.000000,4.000000,4.000000,4.000000,4.000000,4.000000,4.000000,4.000000,4.000000,100.000000,,,,,,,,,,,,,,,,
1645708163.193583,56.000000,0.000000,4229.615234,4184.615234,4218.974121,4190.769043,4226.025879,4217.179688,4237.307617,4252.692383,4247.307617,4227.307617,4206.025879,4167.948730,4218.974121,4118.205078,0.000000,4.000000,91.000000,,,,0.000000,4.000000,4.000000,4.000000,4.000000,4.000000,4.000000,4.000000,4.000000,4.000000,4.000000,4.000000,4.000000,4.000000,4.000000,100.000000,1.000000,100.000000,4.000000,4.000000,4.000000,4.000000,4.000000,4.000000,4.000000,4.000000,4.000000,4.000000,4.000000,4.000000,4.000000,4.000000
