title:Alex-da8kPNx67QKXuzNnkj-K-w, start timestamp:1645708865.614172, stop timestamp:1645708891.715305, headset type:EPOCPLUS, headset serial:3B9AEBFF, headset firmware:626, channels:55, sampling rate:eeg_256, samples:6629      , version:2.1, 
Timestamp,EEG.Counter,EEG.Interpolated,EEG.AF3,EEG.F7,EEG.F3,EEG.FC5,EEG.T7,EEG.P7,EEG.O1,EEG.O2,EEG.P8,EEG.T8,EEG.FC6,EEG.F4,EEG.F8,EEG.AF4,EEG.RawCq,EEG.Battery,EEG.BatteryPercent,MarkerIndex,MarkerType,MarkerValueInt,EEG.MarkerHardware,CQ.AF3,CQ.F7,CQ.F3,CQ.FC5,CQ.T7,CQ.P7,CQ.O1,CQ.O2,CQ.P8,CQ.T8,CQ.FC6,CQ.F4,CQ.F8,CQ.AF4,CQ.Overall,EQ.SampleRateQuality,EQ.OVERALL,EQ.AF3,EQ.F7,EQ.F3,EQ.FC5,EQ.T7,EQ.P7,EQ.O1,EQ.O2,EQ.P8,EQ.T8,EQ.FC6,EQ.F4,EQ.F8,EQ.AF4
1645708865.614172,154.000000,0.000000,4201.153809,4202.307617,4206.538574,4225.384766,4197.948730,4206.538574,4216.794922,4212.563965,4241.025879,4214.102539,4197.563965,4186.282227,4166.282227,4217.948730,2324.000000,4.000000,91.000000,,,,0.000000,4.000000,4.000000,4.000000,4.000000,4.000000,4.000000,4.000000,4.000000,4.000000,4.000000,4.000000,4.000000,4.000000,4.000000,100.000000,,,,,,,,,,,,,,,,
1645708865.618012,155.000000,0.000000,4202.692383,4207.692383,4205.769043,4227.051270,4198.077148,4208.077148,4217.948730,4212.179688,4241.282227,4212.692383,4198.974121,4186.025879,4167.820313,4216.922852,3364.000000,4.000000,91.000000,,,,0.000000,4.000000,4.000000,4.000000,4.000000,4.000000,4.000000,4.000000,4.000000,4.000000,4.000000,4.000000,4.000000,4.000000,4.000000,100.000000,,,,,,,,,,,,,,,,
1645708865.621952,156.000000,0.000000,4205.512695,4207.820313,4205.256348,4226.410156,4200.769043,4209.230957,4218.589844,4210.512695,4241.025879,4204.487305,4198.205078,4186.538574,4170.769043,4217.179688,3219.000000,4.000000,91.000000,,,,0.000000,4.000000,4.000000,4.000000,4.000000,4.000000,4.000000,4.000000,4.000000,4.000000,4.000000,4.000000,4.000000,4.000000,4.000000,100.000000,,,,,,,,,,,,,,,,
1645708865.625892,157.000000,0.000000,4208.717773,4203.589844,4205.641113,4224.871582,4206.538574,4211.410156,4219.487305,4208.205078,4240.256348,4195.769043,4196.666504,4188.589844,4173.333496,4219.358887,3287.000000,4.000000,91.000000,,,,0.000000,4.000000,4.000000,4.000000,4.000000,4.000000,4.000000,4.000000,4.000000,4.000000,4.000000,4.000000,4.000000,4.000000,4.000000,100.000000,,,,,,,,,,,,,,,,
1645708865.629832,158.000000,0.000000,4211.410156,4200.256348,4207.307617,4225.000000,4214.358887,4215.256348,4220.512695,4207.051270,4240.384766,4195.000000,4197.948730,4192.436035,4175.000000,4223.846191,2324.000000,4.000000,91.000000,,,,0.000000,4.000000,4.000000,4.000000,4.000000,4.000000,4.000000,4.000000,4.000000,4.000000,4.000000,4.000000,4.000000,4.000000,4.000000,100.000000,,,,,,,,,,,,,,,,
1645708865.633772,159.000000,0.000000,4213.461426,4202.051270,4210.384766,4227.692383,4220.512695,4218.333496,4220.641113,4208.205078,4242.307617,4204.102539,4203.461426,4197.179688,4176.538574,4230.128418,3364.000000,4.000000,91.000000,,,,0.000000,4.000000,4.000000,4.000000,4.000000,4.000000,4.000000,4.000000,4.000000,4.000000,4.000000,4.000000,4.000000,4.000000,4.000000,100.000000,,,,,,,,,,,,,,,,
1645708865.637712,160.000000,0.000000,4215.641113,4208.461426,4214.487305,4231.410156,4221.410156,4217.820313,4218.974121,4211.794922,4245.128418,4216.794922,4211.025879,4202.051270,4179.615234,4236.410156,3219.000000,4.000000,91.000000,,,,0.000000,4.000000,4.000000,4.000000,4.000000,4.000000,4.000000,4.000000,4.000000,4.000000,4.000000,4.000000,4.000000,4.000000,4.000000,100.000000,,,,,,,,,,,,,,,,
1645708865.641652,161.000000,0.000000,4218.461426,4215.641113,4218.333496,4234.615234,4217.692383,4213.205078,4216.538574,4215.897461,4247.563965,4224.487305,4216.794922,4206.025879,4184.743652,4241.025879,3287.000000,4.000000,91.000000,,,,0.000000,4.000000,4.000000,4.000000,4.000000,4.000000,4.000000,4.000000,4.000000,4.000000,4.000000,4.000000,4.000000,4.000000,4.000000,100.000000,,,,,,,,,,,,,,,,
1645708865.645592,162.000000,0.000000,4221.666504,4220.256348,4220.769043,4236.666504,4214.871582,4208.077148,4214.743652,4217.820313,4248.333496,4223.717773,4219.358887,4209.358887,4190.512695,4243.717773,2324.000000,4.000000,91.000000,,,,0.000000,4.000000,4.000000,4.000000,4.000000,4.000000,4.000000,4.000000,4.000000,4.000000,4.000000,4.000000,4.000000,4.000000,4.000000,100.000000,,,,,,,,,,,,,,,,
1645708865.649533,163.000000,0.000000,4224.230957,4221.410156,4221.538574,4237.948730,4217.179688,4205.897461,4213.974121,4215.256348,4247.307617,4217.820313,4220.128418,4211.538574,4193.846191,4244.871582,3364.000000,4.000000,91.000000,,,,0.000000,4.000000,4.000000,4.000000,4.000000,4.000000,4.000000,4.000000,4.000000,4.000000,4.000000,4.000000,4.000000,4.000000,4.000000,100.000000,,,,,,,,,,,,,,,,
1645708865.653473,164.000000,0.000000,4224.743652,4219.230957,4221.153809,4237.820313,4221.794922,4206.922852,4212.948730,4208.461426,4245.384766,4212.179688,4220.384766,4211.282227,4192.436035,4244.230957,3219.000000,4.000000,91.000000,,,,0.000000,4.000000,4.000000,4.000000,4.000000,4.000000,4.000000,4.000000,4.000000,4.000000,4.000000,4.000000,4.000000,4.000000,4.000000,100.000000,,,,,,,,,,,,,,,,
1645708865.657413,165.000000,0.000000,4222.436035,4214.615234,4220.641113,4234.615234,4221.794922,4207.436035,4210.512695,4200.641113,4242.820313,4208.846191,4219.615234,4207.692383,4186.025879,4241.666504,3287.000000,4.000000,91.000000,,,,0.000000,4.000000,4.000000,4.000000,4.000000,4.000000,4.000000,4.000000,4.000000,4.000000,4.000000,4.000000,4.000000,4.000000,4.000000,100.000000,,,,,,,,,,,,,,,,
1645708865.661353,166.000000,0.000000,4218.333496,4208.461426,4219.743652,4228.461426,4213.589844,4205.256348,4207.307617,4195.897461,4240.256348,4206.666504,4216.282227,4201.666504,4177.692383,4237.820313,2324.000000,4.000000,91.000000,,,,0.000000,4.000000,4.000000,4.000000,4.000000,4.000000,4.000000,4.000000,4.000000,4.000000,4.000000,4.000000,4.000000,4.000000,4.000000,100.000000,,,,,,,,,,,,,,,,
1645708865.665293,167.000000,0.000000,4213.717773,4202.436035,4217.307617,4221.794922,4202.436035,4201.410156,4205.128418,4196.410156,4238.205078,4204.871582,4210.641113,4195.897461,4171.410156,4233.974121,3364.000000,4.000000,91.000000,,,,0.000000,4.000000,4.000000,4.000000,4.000000,4.000000,4.000000,4.000000,4.000000,4.000000,4.000000,4.000000,4.000000,4.000000,4.000000,100.000000,,,,,,,,,,,,,,,,
1645708865.669233,168.000000,0.000000,4210.000000,4198.589844,4212.820313,4217.820313,4197.307617,4199.487305,4205.897461,4200.769043,4237.307617,4203.077148,4203.717773,4192.820313,4170.000000,4230.641113,3219.000000,4.000000,91.000000,,,,0.000000,4.000000,4.000000,4.000000,4.000000,4.000000,4.000000,4.000000,4.000000,4.000000,4.000000,4.000000,4.000000,4.000000,4.000000,100.000000,,,,,,,,,,,,,,,,
1645708865.673173,169.000000,0.000000,4208.077148,4197.436035,4207.307617,4218.205078,4201.922852,4200.641113,4208.974121,4205.641113,4237.563965,4200.769043,4196.922852,4192.179688,4172.436035,4226.538574,3287.000000,4.000000,91.000000,,,,0.000000,4.000000,4.000000,4.000000,4.000000,4.000000,4.000000,4.000000,4.000000,4.000000,4.000000,4.000000,4.000000,4.000000,4.000000,100.000000,,,,,,,,,,,,,,,,
1645708865.677113,170.000000,0.000000,4207.436035,4197.563965,4203.077148,4220.512695,4211.153809,4202.692383,4212.051270,4208.846191,4238.589844,4196.538574,4191.153809,4191.282227,4174.871582,4220.641113,2324.000000,4.000000,91.000000,,,,0.000000,4.000000,4.000000,4.000000,4.000000,4.000000,4.000000,4.000000,4.000000,4.000000,4.000000,4.000000,4.000000,4.000000,4.000000,100.000000,,,,,,,,,,,,,,,,
1645708865.681053,171.000000,0.000000,4206.666504,4197.051270,4201.282227,4221.153809,4216.922852,4202.692383,4213.077148,4210.128418,4239.358887,4190.769043,4187.692383,4187.820313,4174.358887,4214.487305,3364.000000,4.000000,91.000000,,,,0.000000,4.000000,4.000000,4.000000,4.000000,4.000000,4.000000,4.000000,4.000000,4.000000,4.000000,4.000000,4.000000,4.000000,4.000000,100.000000,,,,,,,,,,,,,,,,
1645708865.684994,172.000000,0.000000,4204.615234,4195.512695,4201.666504,4218.461426,4215.512695,4201.025879,4211.794922,4210.128418,4239.743652,4187.307617,4187.820313,4182.692383,4171.410156,4211.666504,3219.000000,4.000000,91.000000,,,,0.000000,4.000000,4.000000,4.000000,4.000000,4.000000,4.000000,4.000000,4.000000,4.000000,4.000000,4.000000,4.000000,4.000000,4.000000,100.000000,,,,,,,,,,,,,,,,
1645708865.688834,173.000000,0.000000,4201.538574,4193.589844,4203.461426,4214.871582,4210.512695,4200.000000,4210.128418,4210.256348,4240.384766,4189.743652,4191.922852,4178.974121,4169.358887,4215.128418,3287.000000,4.000000,91.000000,,,,0.000000,4.000000,4.000000,4.000000,4.000000,4.000000,4.000000,4.000000,4.000000,4.000000,4.000000,4.000000,4.000000,4.000000,4.000000,100.000000,,,,,,,,,,,,,,,,
1645708865.692774,174.000000,0.000000,4199.871582,4192.179688,4206.538574,4213.333496,4207.563965,4201.153809,4209.743652,4211.410156,4241.282227,4197.563965,4197.436035,4179.487305,4171.410156,4223.333496,2324.000000,4.000000,91.000000,,,,0.000000,4.000000,4.000000,4.000000,4.000000,4.000000,4.000000,4.000000,4.000000,4.000000,4.000000,4.000000,4.000000,4.000000,4.000000,100.000000,,,,,,,,,,,,,,,,
1645708865.696714,175.000000,0.000000,4201.538574,4191.922852,4210.769043,4215.512695,4208.333496,4203.333496,4211.794922,4213.846191,4241.922852,4205.897461,4201.025879,4184.358887,4177.179688,4230.769043,3364.000000,4.000000,91.000000,,,,0.000000,4.000000,4.000000,4.000000,4.000000,4.000000,4.000000,4.000000,4.000000,4.000000,4.000000,4.000000,4.000000,4.000000,4.000000,100.000000,,,,,,,,,,,,,,,,
1645708865.700654,176.000000,0.000000,4206.153809,4193.589844,4215.641113,4220.000000,4210.256348,4204.615234,4215.256348,4216.410156,4241.794922,4210.641113,4201.410156,4190.384766,4183.461426,4232.051270,3219.000000,4.000000,91.000000,,,,0.000000,4.000000,4.000000,4.000000,4.000000,4.000000,4.000000,4.000000,4.000000,4.000000,4.000000,4.000000,4.000000,4.000000,4.000000,100.000000,,,,,,,,,,,,,,,,
1645708865.704594,177.000000,0.000000,4210.128418,4196.922852,4219.102539,4224.358887,4209.871582,4204.871582,4218.333496,4217.820313,4241.153809,4211.410156,4200.769043,4194.358887,4187.051270,4226.282227,3287.000000,4.000000,91.000000,,,,0.000000,4.000000,4.000000,4.000000,4.000000,4.000000,4.000000,4.000000,4.000000,4.000000,4.000000,4.000000,4.000000,4.000000,4.000000,100.000000,,,,,,,,,,,,,,,,
1645708865.708534,178.000000,0.000000,4209.487305,4201.025879,4218.717773,4226.153809,4206.153809,4205.000000,4219.487305,4216.666504,4240.897461,4210.769043,4202.051270,4194.230957,4186.666504,4217.948730,2324.000000,4.000000,91.000000,,,,0.000000,4.000000,4.000000,4.000000,4.000000,4.000000,4.000000,4.000000,4.000000,4.000000,4.000000,4.000000,4.000000,4.000000,4.000000,100.000000,1.000000,75.000000,3.000000,3.000000,3.000000,4.000000,4.000000,4.000000,4.000000,4.000000,3.000000,4.000000,4.000000,4.000000,4.000000,4.000000
1645708865.712474,179.000000,0.000000,4203.589844,4202.692383,4213.205078,4223.974121,4200.769043,4205.897461,4218.589844,4212.820313,4240.897461,4210.128418,4204.487305,4189.615234,4183.461426,4212.563965,3364.000000,4.000000,91.000000,,,,0.000000,4.000000,4.000000,4.000000,4.000000,4.000000,4.000000,4.000000,4.000000,4.000000,4.000000,4.000000,4.000000,4.000000,4.000000,100.000000,,,,,,,,,,,,,,,,
1645708865.716415,180.000000,0.000000,4195.000000,4199.358887,4203.717773,4218.205078,4196.794922,4206.794922,4217.179688,4207.692383,4240.512695,4208.717773,4204.102539,4181.922852,4179.615234,4211.410156,3219.000000,4.000000,91.000000,,,,0.000000,4.000000,4.000000,4.000000,4.000000,4.000000,4.000000,4.000000,4.000000,4.000000,4.000000,4.000000,4.000000,4.000000,4.000000,100.000000,,,,,,,,,,,,,,,,
1645708865.720355,181.000000,0.000000,4187.820313,4191.538574,4194.230957,4211.153809,4196.410156,4206.794922,4217.051270,4203.974121,4239.230957,4205.256348,4197.563965,4173.846191,4177.051270,4212.051270,3287.000000,4.000000,91.000000,,,,0.000000,4.000000,4.000000,4.000000,4.000000,4.000000,4.000000,4.000000,4.000000,4.000000,4.000000,4.000000,4.000000,4.000000,4.000000,100.000000,,,,,,,,,,,,,,,,
1645708865.724295,182.000000,0.000000,4185.384766,4183.589844,4188.333496,4206.282227,4200.641113,4206.538574,4218.461426,4203.589844,4237.948730,4201.538574,4187.692383,4168.205078,4176.922852,4211.922852,2324.000000,4.000000,91.000000,,,,0.000000,4.000000,4.000000,4.000000,4.000000,4.000000,4.000000,4.000000,4.000000,4.000000,4.000000,4.000000,4.000000,4.000000,4.000000,100.000000,,,,,,,,,,,,,,,,
1645708865.728235,183.000000,0.000000,4188.333496,4181.410156,4187.820313,4206.282227,4208.077148,4207.436035,4220.256348,4205.769043,4238.333496,4200.641113,4181.282227,4166.922852,4179.230957,4210.641113,3364.000000,4.000000,91.000000,,,,0.000000,4.000000,4.000000,4.000000,4.000000,4.000000,4.000000,4.000000,4.000000,4.000000,4.000000,4.000000,4.000000,4.000000,4.000000,100.000000,,,,,,,,,,,,,,,,
1645708865.732175,184.000000,0.000000,4194.615234,4186.282227,4191.410156,4210.256348,4215.512695,4209.743652,4220.512695,4208.205078,4240.256348,4203.974121,4182.563965,4169.487305,4182.948730,4209.102539,3219.000000,4.000000,91.000000,,,,0.000000,4.000000,4.000000,4.000000,4.000000,4.000000,4.000000,4.000000,4.000000,4.000000,4.000000,4.000000,4.000000,4.000000,4.000000,100.000000,,,,,,,,,,,,,,,,
1645708865.736115,185.000000,0.000000,4200.384766,4193.846191,4196.538574,4214.230957,4218.589844,4211.282227,4218.333496,4209.230957,4242.436035,4208.974121,4189.230957,4173.589844,4186.025879,4208.589844,3287.000000,4.000000,91.000000,,,,0.000000,4.000000,4.000000,4.000000,4.000000,4.000000,4.000000,4.000000,4.000000,4.000000,4.000000,4.000000,4.000000,4.000000,4.000000,100.000000,,,,,,,,,,,,,,,,
1645708865.740055,186.000000,0.000000,4202.948730,4197.692383,4201.025879,4214.743652,4215.769043,4210.256348,4214.358887,4209.102539,4243.077148,4211.410156,4195.256348,4176.282227,4187.051270,4209.358887,2324.000000,4.000000,91.000000,,,,0.000000,4.000000,4.000000,4.000000,4.000000,4.000000,4.000000,4.000000,4.000000,4.000000,4.000000,4.000000,4.000000,4.000000,4.000000,100.000000,,,,,,,,,,,,,,,,
1645708865.743895,187.000000,0.000000,4201.922852,4195.641113,4204.102539,4212.436035,4209.743652,4206.922852,4210.641113,4208.974121,4241.922852,4210.000000,4197.307617,4177.051270,4186.666504,4211.794922,3364.000000,4.000000,91.000000,,,,0.000000,4.000000,4.000000,4.000000,4.000000,4.000000,4.000000,4.000000,4.000000,4.000000,4.000000,4.000000,4.000000,4.000000,4.000000,100.000000,,,,,,,,,,,,,,,,
1645708865.747835,188.000000,0.000000,4199.615234,4190.897461,4205.769043,4210.769043,4205.512695,4203.333496,4208.205078,4208.717773,4240.384766,4206.794922,4197.179688,4176.666504,4186.410156,4215.384766,3219.000000,4.000000,91.000000,,,,0.000000,4.000000,4.000000,4.000000,4.000000,4.000000,4.000000,4.000000,4.000000,4.000000,4.000000,4.000000,4.000000,4.000000,4.000000,100.000000,,,,,,,,,,,,,,,,
1645708865.751776,189.000000,0.000000,4198.461426,4188.461426,4206.794922,4212.179688,4206.025879,4200.897461,4206.666504,4207.436035,4239.743652,4204.871582,4197.692383,4176.025879,4187.051270,4218.333496,3287.000000,4.000000,91.000000,,,,0.000000,4.000000,4.000000,4.000000,4.000000,4.000000,4.000000,4.000000,4.000000,4.000000,4.000000,4.000000,4.000000,4.000000,4.000000,100.000000,,,,,,,,,,,,,,,,
1645708865.755716,190.000000,0.000000,4198.974121,4190.384766,4207.307617,4215.384766,4208.717773,4199.358887,4204.871582,4205.128418,4239.743652,4203.974121,4199.230957,4175.256348,4187.692383,4219.102539,2324.000000,4.000000,91.000000,,,,0.000000,4.000000,4.000000,4.000000,4.000000,4.000000,4.000000,4.000000,4.000000,4.000000,4.000000,4.000000,4.000000,4.000000,4.000000,100.000000,,,,,,,,,,,,,,,,
1645708865.759656,191.000000,0.000000,4200.128418,4194.615234,4207.051270,4216.538574,4208.589844,4197.820313,4203.077148,4202.948730,4238.974121,4202.563965,4199.743652,4173.717773,4186.922852,4217.820313,3364.000000,4.000000,91.000000,,,,0.000000,4.000000,4.000000,4.000000,4.000000,4.000000,4.000000,4.000000,4.000000,4.000000,4.000000,4.000000,4.000000,4.000000,4.000000,100.000000,,,,,,,,,,,,,,,,
1645708865.763596,192.000000,0.000000,4200.384766,4197.820313,4206.025879,4214.102539,4203.205078,4196.922852,4202.820313,4202.436035,4236.922852,4200.000000,4197.563965,4171.922852,4185.384766,4216.794922,3219.000000,4.000000,91.000000,,,,0.000000,4.000000,4.000000,4.000000,4.000000,4.000000,4.000000,4.000000,4.000000,4.000000,4.000000,4.000000,4.000000,4.000000,4.000000,100.000000,,,,,,,,,,,,,,,,
1645708865.767536,193.000000,0.000000,4199.102539,4198.461426,4204.487305,4210.512695,4195.897461,4198.077148,4205.000000,4203.589844,4234.871582,4198.205078,4193.205078,4170.769043,4185.256348,4217.948730,3287.000000,4.000000,91.000000,,,,0.000000,4.000000,4.000000,4.000000,4.000000,4.000000,4.000000,4.000000,4.000000,4.000000,4.000000,4.000000,4.000000,4.000000,4.000000,100.000000,,,,,,,,,,,,,,,,
1645708865.771476,194.000000,0.000000,4197.051270,4196.538574,4202.948730,4209.230957,4191.538574,4201.922852,4208.461426,4205.000000,4234.743652,4198.077148,4188.974121,4170.000000,4187.820313,4219.871582,2324.000000,4.000000,91.000000,,,,0.000000,4.000000,4.000000,4.000000,4.000000,4.000000,4.000000,4.000000,4.000000,4.000000,4.000000,4.000000,4.000000,4.000000,4.000000,100.000000,,,,,,,,,,,,,,,,
1645708865.775416,195.000000,0.000000,4196.282227,4193.077148,4201.538574,4210.641113,4192.051270,4206.153809,4211.282227,4205.512695,4237.179688,4198.461426,4186.282227,4168.333496,4191.666504,4218.974121,3364.000000,4.000000,91.000000,,,,0.000000,4.000000,4.000000,4.000000,4.000000,4.000000,4.000000,4.000000,4.000000,4.000000,4.000000,4.000000,4.000000,4.000000,4.000000,100.000000,,,,,,,,,,,,,,,,
1645708865.779356,196.000000,0.000000,4197.692383,4189.358887,4200.256348,4212.436035,4196.410156,4207.820313,4212.436035,4205.256348,4240.641113,4197.436035,4185.641113,4165.384766,4194.230957,4213.589844,3219.000000,4.000000,91.000000,,,,0.000000,4.000000,4.000000,4.000000,4.000000,4.000000,4.000000,4.000000,4.000000,4.000000,4.000000,4.000000,4.000000,4.000000,4.000000,100.000000,,,,,,,,,,,,,,,,
1645708865.783296,197.000000,0.000000,4200.769043,4187.179688,4199.615234,4213.461426,4202.436035,4206.794922,4212.692383,4206.025879,4243.461426,4196.153809,4187.563965,4162.948730,4193.974121,4206.538574,3287.000000,4.000000,91.000000,,,,0.000000,4.000000,4.000000,4.000000,4.000000,4.000000,4.000000,4.000000,4.000000,4.000000,4.000000,4.000000,4.000000,4.000000,4.000000,100.000000,,,,,,,,,,,,,,,,
1645708865.787237,198.000000,0.000000,4203.846191,4188.333496,4200.256348,4215.000000,4209.102539,4205.641113,4213.717773,4208.974121,4245.000000,4197.948730,4191.794922,4163.589844,4191.922852,4202.820313,2324.000000,4.000000,91.000000,,,,0.000000,4.000000,4.000000,4.000000,4.000000,4.000000,4.000000,4.000000,4.000000,4.000000,4.000000,4.000000,4.000000,4.000000,4.000000,100.000000,,,,,,,,,,,,,,,,
1645708865.791177,199.000000,0.000000,4205.512695,4193.077148,4202.436035,4218.846191,4214.871582,4206.922852,4216.410156,4213.333496,4245.641113,4205.000000,4196.794922,4167.820313,4189.743652,4205.128418,3364.000000,4.000000,91.000000,,,,0.000000,4.000000,4.000000,4.000000,4.000000,4.000000,4.000000,4.000000,4.000000,4.000000,4.000000,4.000000,4.000000,4.000000,4.000000,100.000000,,,,,,,,,,,,,,,,
1645708865.795117,200.000000,0.000000,4206.025879,4198.333496,4206.025879,4224.230957,4218.077148,4210.512695,4220.256348,4216.922852,4245.512695,4213.846191,4199.230957,4173.589844,4188.461426,4211.282227,3219.000000,4.000000,91.000000,,,,0.000000,4.000000,4.000000,4.000000,4.000000,4.000000,4.000000,4.000000,4.000000,4.000000,4.000000,4.000000,4.000000,4.000000,4.000000,100.000000,,,,,,,,,,,,,,,,
1645708865.799057,201.000000,0.000000,4206.025879,4201.153809,4209.487305,4228.461426,4218.333496,4213.717773,4223.717773,4218.846191,4245.128418,4218.974121,4197.692383,4177.948730,4188.205078,4217.563965,3287.000000,4.000000,91.000000,,,,0.000000,4.000000,4.000000,4.000000,4.000000,4.000000,4.000000,4.000000,4.000000,4.000000,4.000000,4.000000,4.000000,4.000000,4.000000,100.000000,,,,,,,,,,,,,,,,
1645708865.802997,202.000000,0.000000,4206.666504,4200.769043,4211.153809,4229.743652,4217.820313,4214.743652,4225.384766,4219.230957,4245.000000,4217.051270,4194.871582,4180.000000,4189.230957,4222.179688,2324.000000,4.000000,91.000000,,,,0.000000,4.000000,4.000000,4.000000,4.000000,4.000000,4.000000,4.000000,4.000000,4.000000,4.000000,4.000000,4.000000,4.000000,4.000000,100.000000,,,,,,,,,,,,,,,,
1645708865.806937,203.000000,0.000000,4208.077148,4198.974121,4210.256348,4228.717773,4218.846191,4214.230957,4224.487305,4219.358887,4245.769043,4211.666504,4195.641113,4180.641113,4192.436035,4226.025879,3364.000000,4.000000,91.000000,,,,0.000000,4.000000,4.000000,4.000000,4.000000,4.000000,4.000000,4.000000,4.000000,4.000000,4.000000,4.000000,4.000000,4.000000,4.000000,100.000000,,,,,,,,,,,,,,,,
1645708865.810777,204.000000,0.000000,4209.230957,4197.436035,4207.051270,4226.410156,4220.128418,4212.948730,4221.153809,4219.871582,4247.179688,4208.717773,4201.666504,4180.897461,4197.692383,4229.230957,3219.000000,4.000000,91.000000,,,,0.000000,4.000000,4.000000,4.000000,4.000000,4.000000,4.000000,4.000000,4.000000,4.000000,4.000000,4.000000,4.000000,4.000000,4.000000,100.000000,,,,,,,,,,,,,,,,
1645708865.814717,205.000000,0.000000,4208.846191,4196.153809,4203.333496,4223.205078,4217.307617,4211.153809,4216.282227,4220.384766,4248.077148,4211.794922,4208.589844,4180.512695,4203.077148,4230.128418,3287.000000,4.000000,91.000000,,,,0.000000,4.000000,4.000000,4.000000,4.000000,4.000000,4.000000,4.000000,4.000000,4.000000,4.000000,4.000000,4.000000,4.000000,4.000000,100.000000,,,,,,,,,,,,,,,,
1645708865.818657,206.000000,0.000000,4205.769043,4194.615234,4200.384766,4219.102539,4208.333496,4208.205078,4212.307617,4220.769043,4247.307617,4218.974121,4210.769043,4178.974121,4205.897461,4226.922852,2324.000000,4.000000,91.000000,,,,0.000000,4.000000,4.000000,4.000000,4.000000,4.000000,4.000000,4.000000,4.000000,4.000000,4.000000,4.000000,4.000000,4.000000,4.000000,100.000000,,,,,,,,,,,,,,,,
1645708865.822598,207.000000,0.000000,4201.025879,4193.461426,4199.102539,4215.128418,4197.307617,4204.743652,4211.538574,4221.410156,4245.897461,4225.897461,4207.563965,4176.410156,4205.000000,4220.897461,3364.000000,4.000000,91.000000,,,,0.000000,4.000000,4.000000,4.000000,4.000000,4.000000,4.000000,4.000000,4.000000,4.000000,4.000000,4.000000,4.000000,4.000000,4.000000,100.000000,,,,,,,,,,,,,,,,
1645708865.826538,208.000000,0.000000,4196.922852,4194.487305,4198.846191,4213.717773,4192.179688,4202.948730,4214.102539,4223.077148,4245.897461,4230.256348,4203.333496,4174.358887,4202.179688,4215.769043,3219.000000,4.000000,91.000000,,,,0.000000,4.000000,4.000000,4.000000,4.000000,4.000000,4.000000,4.000000,4.000000,4.000000,4.000000,4.000000,4.000000,4.000000,4.000000,100.000000,,,,,,,,,,,,,,,,
1645708865.830478,209.000000,0.000000,4195.897461,4198.205078,4199.230957,4216.153809,4197.307617,4204.487305,4218.077148,4226.153809,4248.205078,4232.179688,4203.205078,4174.743652,4200.769043,4214.743652,3287.000000,4.000000,91.000000,,,,0.000000,4.000000,4.000000,4.000000,4.000000,4.000000,4.000000,4.000000,4.000000,4.000000,4.000000,4.000000,4.000000,4.000000,4.000000,100.000000,,,,,,,,,,,,,,,,
1645708865.834418,210.000000,0.000000,4198.333496,4202.692383,4200.000000,4220.641113,4208.974121,4208.333496,4220.256348,4229.358887,4251.794922,4232.563965,4207.307617,4177.179688,4202.179688,4217.307617,2324.000000,4.000000,91.000000,,,,0.000000,4.000000,4.000000,4.000000,4.000000,4.000000,4.000000,4.000000,4.000000,4.000000,4.000000,4.000000,4.000000,4.000000,4.000000,100.000000,,,,,,,,,,,,,,,,
1645708865.838358,211.000000,0.000000,4202.051270,4204.615234,4201.025879,4223.461426,4218.077148,4211.153809,4219.230957,4231.025879,4254.102539,4231.025879,4211.538574,4179.743652,4205.000000,4220.128418,3364.000000,4.000000,91.000000,,,,0.000000,4.000000,4.000000,4.000000,4.000000,4.000000,4.000000,4.000000,4.000000,4.000000,4.000000,4.000000,4.000000,4.000000,4.000000,100.000000,,,,,,,,,,,,,,,,
1645708865.842298,212.000000,0.000000,4203.846191,4203.205078,4202.307617,4222.948730,4218.846191,4210.769043,4216.282227,4230.000000,4253.717773,4227.692383,4212.179688,4180.128418,4206.282227,4219.871582,3219.000000,4.000000,91.000000,,,,0.000000,4.000000,4.000000,4.000000,4.000000,4.000000,4.000000,4.000000,4.000000,4.000000,4.000000,4.000000,4.000000,4.000000,4.000000,100.000000,,,,,,,,,,,,,,,,
1645708865.846238,213.000000,0.000000,4202.948730,4200.128418,4203.846191,4220.769043,4214.230957,4208.589844,4213.333496,4226.282227,4250.897461,4224.230957,4209.615234,4178.077148,4204.871582,4217.307617,3287.000000,4.000000,91.000000,,,,0.000000,4.000000,4.000000,4.000000,4.000000,4.000000,4.000000,4.000000,4.000000,4.000000,4.000000,4.000000,4.000000,4.000000,4.000000,100.000000,,,,,,,,,,,,,,,,
1645708865.850178,214.000000,0.000000,4201.025879,4198.589844,4205.512695,4220.512695,4210.769043,4207.692383,4212.820313,4222.051270,4247.948730,4222.051270,4207.179688,4175.769043,4202.307617,4215.512695,2324.000000,4.000000,91.000000,,,,0.000000,4.000000,4.000000,4.000000,4.000000,4.000000,4.000000,4.000000,4.000000,4.000000,4.000000,4.000000,4.000000,4.000000,4.000000,100.000000,,,,,,,,,,,,,,,,
1645708865.854018,215.000000,0.000000,4200.769043,4199.358887,4206.410156,4222.820313,4211.666504,4209.871582,4215.256348,4220.000000,4245.897461,4221.025879,4206.282227,4175.256348,4200.897461,4216.794922,3364.000000,4.000000,91.000000,,,,0.000000,4.000000,4.000000,4.000000,4.000000,4.000000,4.000000,4.000000,4.000000,4.000000,4.000000,4.000000,4.000000,4.000000,4.000000,100.000000,,,,,,,,,,,,,,,,
1645708865.857959,216.000000,0.000000,4202.820313,4201.025879,4206.153809,4224.871582,4213.077148,4213.589844,4219.102539,4220.769043,4244.871582,4219.743652,4205.128418,4175.897461,4201.282227,4219.615234,3219.000000,4.000000,91.000000,,,,0.000000,4.000000,4.000000,4.000000,4.000000,4.000000,4.000000,4.000000,4.000000,4.000000,4.000000,4.000000,4.000000,4.000000,4.000000,100.000000,,,,,,,,,,,,,,,,
1645708865.861899,217.000000,0.000000,4204.230957,4200.769043,4204.230957,4223.461426,4210.256348,4215.897461,4222.436035,4223.077148,4244.102539,4217.436035,4201.282227,4175.384766,4201.410156,4220.384766,3287.000000,4.000000,91.000000,,,,0.000000,4.000000,4.000000,4.000000,4.000000,4.000000,4.000000,4.000000,4.000000,4.000000,4.000000,4.000000,4.000000,4.000000,4.000000,100.000000,,,,,,,,,,,,,,,,
1645708865.865839,218.000000,0.000000,4202.436035,4197.051270,4200.641113,4218.205078,4202.563965,4215.641113,4223.717773,4223.974121,4243.333496,4214.871582,4195.000000,4171.922852,4199.871582,4216.922852,2324.000000,4.000000,91.000000,,,,0.000000,4.000000,4.000000,4.000000,4.000000,4.000000,4.000000,4.000000,4.000000,4.000000,4.000000,4.000000,4.000000,4.000000,4.000000,100.000000,,,,,,,,,,,,,,,,
1645708865.869779,219.000000,0.000000,4197.436035,4191.794922,4196.153809,4211.922852,4195.384766,4213.333496,4222.820313,4221.922852,4242.563965,4212.820313,4189.871582,4166.794922,4197.307617,4210.897461,3364.000000,4.000000,91.000000,,,,0.000000,4.000000,4.000000,4.000000,4.000000,4.000000,4.000000,4.000000,4.000000,4.000000,4.000000,4.000000,4.000000,4.000000,4.000000,100.000000,,,,,,,,,,,,,,,,
1645708865.873719,220.000000,0.000000,4192.820313,4187.820313,4193.205078,4208.077148,4194.615234,4210.897461,4220.769043,4217.692383,4241.922852,4211.538574,4189.487305,4163.205078,4196.025879,4206.025879,3219.000000,4.000000,91.000000,,,,0.000000,4.000000,4.000000,4.000000,4.000000,4.000000,4.000000,4.000000,4.000000,4.000000,4.000000,4.000000,4.000000,4.000000,4.000000,100.000000,,,,,,,,,,,,,,,,
1645708865.877659,221.000000,0.000000,4192.179688,4187.307617,4193.846191,4208.333496,4202.307617,4210.000000,4218.717773,4214.358887,4241.538574,4210.384766,4193.205078,4163.461426,4197.307617,4204.743652,3287.000000,4.000000,91.000000,,,,0.000000,4.000000,4.000000,4.000000,4.000000,4.000000,4.000000,4.000000,4.000000,4.000000,4.000000,4.000000,4.000000,4.000000,4.000000,100.000000,,,,,,,,,,,,,,,,
1645708865.881599,222.000000,0.000000,4196.666504,4190.512695,4198.589844,4212.307617,4214.743652,4212.436035,4218.461426,4214.487305,4241.794922,4210.128418,4197.820313,4167.179688,4200.256348,4207.307617,2324.000000,4.000000,91.000000,,,,0.000000,4.000000,4.000000,4.000000,4.000000,4.000000,4.000000,4.000000,4.000000,4.000000,4.000000,4.000000,4.000000,4.000000,4.000000,100.000000,,,,,,,,,,,,,,,,
1645708865.885539,223.000000,0.000000,4203.974121,4196.538574,4205.128418,4217.948730,4226.282227,4218.589844,4220.769043,4218.333496,4243.205078,4212.436035,4200.512695,4172.051270,4203.333496,4211.794922,3364.000000,4.000000,91.000000,,,,0.000000,4.000000,4.000000,4.000000,4.000000,4.000000,4.000000,4.000000,4.000000,4.000000,4.000000,4.000000,4.000000,4.000000,4.000000,100.000000,,,,,,,,,,,,,,,,
1645708865.889479,224.000000,0.000000,4210.384766,4203.077148,4210.256348,4222.563965,4232.179688,4225.897461,4224.871582,4223.846191,4246.282227,4217.820313,4201.153809,4175.384766,4204.871582,4215.769043,3219.000000,4.000000,91.000000,,,,0.000000,4.000000,4.000000,4.000000,4.000000,4.000000,4.000000,4.000000,4.000000,4.000000,4.000000,4.000000,4.000000,4.000000,4.000000,100.000000,,,,,,,,,,,,,,,,
1645708865.893420,225.000000,0.000000,4212.820313,4206.538574,4211.538574,4223.846191,4230.512695,4229.743652,4227.948730,4228.205078,4251.025879,4224.487305,4201.410156,4176.025879,4204.871582,4217.051270,3287.000000,4.000000,91.000000,,,,0.000000,4.000000,4.000000,4.000000,4.000000,4.000000,4.000000,4.000000,4.000000,4.000000,4.000000,4.000000,4.000000,4.000000,4.000000,100.000000,,,,,,,,,,,,,,,,
1645708865.897360,226.000000,0.000000,4210.384766,4204.230957,4208.974121,4220.641113,4222.436035,4226.153809,4226.922852,4228.974121,4255.384766,4228.461426,4202.179688,4174.102539,4204.102539,4214.871582,2324.000000,4.000000,91.000000,,,,0.000000,4.000000,4.000000,4.000000,4.000000,4.000000,4.000000,4.000000,4.000000,4.000000,4.000000,4.000000,4.000000,4.000000,4.000000,100.000000,,,,,,,,,,,,,,,,
1645708865.901300,227.000000,0.000000,4205.000000,4196.538574,4204.615234,4214.358887,4212.563965,4216.922852,4221.410156,4225.256348,4257.051270,4227.307617,4202.820313,4170.769043,4203.077148,4209.743652,3364.000000,4.000000,91.000000,,,,0.000000,4.000000,4.000000,4.000000,4.000000,4.000000,4.000000,4.000000,4.000000,4.000000,4.000000,4.000000,4.000000,4.000000,4.000000,100.000000,,,,,,,,,,,,,,,,
1645708865.905240,228.000000,0.000000,4200.000000,4188.205078,4200.769043,4209.230957,4206.282227,4207.948730,4214.487305,4217.692383,4255.256348,4221.794922,4202.563965,4167.563965,4202.692383,4204.487305,3219.000000,4.000000,91.000000,,,,0.000000,4.000000,4.000000,4.000000,4.000000,4.000000,4.000000,4.000000,4.000000,4.000000,4.000000,4.000000,4.000000,4.000000,4.000000,100.000000,,,,,,,,,,,,,,,,
1645708865.909180,229.000000,0.000000,4197.563965,4184.871582,4198.974121,4208.333496,4206.922852,4205.128418,4210.000000,4208.077148,4251.025879,4215.000000,4200.769043,4166.282227,4202.692383,4201.794922,3287.000000,4.000000,91.000000,,,,0.000000,4.000000,4.000000,4.000000,4.000000,4.000000,4.000000,4.000000,4.000000,4.000000,4.000000,4.000000,4.000000,4.000000,4.000000,100.000000,,,,,,,,,,,,,,,,
1645708865.913120,230.000000,0.000000,4197.692383,4187.563965,4199.230957,4211.025879,4211.153809,4207.948730,4209.358887,4199.615234,4246.666504,4209.230957,4197.179688,4167.307617,4202.179688,4202.179688,2324.000000,4.000000,91.000000,,,,0.000000,4.000000,4.000000,4.000000,4.000000,4.000000,4.000000,4.000000,4.000000,4.000000,4.000000,4.000000,4.000000,4.000000,4.000000,100.000000,,,,,,,,,,,,,,,,
1645708865.917060,231.000000,0.000000,4199.487305,4192.948730,4200.512695,4213.717773,4212.563965,4211.282227,4210.512695,4195.384766,4243.589844,4204.358887,4192.179688,4169.487305,4200.128418,4203.717773,3364.000000,4.000000,91.000000,,,,0.000000,4.000000,4.000000,4.000000,4.000000,4.000000,4.000000,4.000000,4.000000,4.000000,4.000000,4.000000,4.000000,4.000000,4.000000,100.000000,,,,,,,,,,,,,,,,
1645708865.921000,232.000000,0.000000,4201.282227,4195.897461,4201.410156,4213.589844,4207.307617,4210.128418,4211.025879,4196.282227,4242.436035,4200.000000,4187.307617,4171.922852,4196.922852,4204.487305,3219.000000,4.000000,91.000000,,,,0.000000,4.000000,4.000000,4.000000,4.000000,4.000000,4.000000,4.000000,4.000000,4.000000,4.000000,4.000000,4.000000,4.000000,4.000000,100.000000,,,,,,,,,,,,,,,,
1645708865.924840,233.000000,0.000000,4202.307617,4195.256348,4201.153809,4211.922852,4198.974121,4204.871582,4210.000000,4200.641113,4243.077148,4197.307617,4185.000000,4174.102539,4194.615234,4204.358887,3287.000000,4.000000,91.000000,,,,0.000000,4.000000,4.000000,4.000000,4.000000,4.000000,4.000000,4.000000,4.000000,4.000000,4.000000,4.000000,4.000000,4.000000,4.000000,100.000000,,,,,,,,,,,,,,,,
1645708865.928781,234.000000,0.000000,4202.179688,4193.333496,4200.256348,4211.538574,4194.487305,4200.256348,4208.846191,4205.897461,4245.256348,4199.230957,4186.794922,4176.153809,4195.256348,4204.871582,2324.000000,4.000000,91.000000,,,,0.000000,4.000000,4.000000,4.000000,4.000000,4.000000,4.000000,4.000000,4.000000,4.000000,4.000000,4.000000,4.000000,4.000000,4.000000,100.000000,,,,,,,,,,,,,,,,
1645708865.932721,235.000000,0.000000,4201.538574,4193.077148,4200.000000,4213.846191,4197.692383,4200.000000,4208.717773,4210.256348,4248.205078,4205.769043,4191.922852,4178.205078,4198.077148,4207.179688,3364.000000,4.000000,91.000000,,,,0.000000,4.000000,4.000000,4.000000,4.000000,4.000000,4.000000,4.000000,4.000000,4.000000,4.000000,4.000000,4.000000,4.000000,4.000000,100.000000,,,,,,,,,,,,,,,,
1645708865.936661,236.000000,0.000000,4202.051270,4194.743652,4201.410156,4216.794922,4206.282227,4203.461426,4210.384766,4213.333496,4251.282227,4214.102539,4196.922852,4179.615234,4200.256348,4210.641113,3219.000000,4.000000,91.000000,,,,0.000000,4.000000,4.000000,4.000000,4.000000,4.000000,4.000000,4.000000,4.000000,4.000000,4.000000,4.000000,4.000000,4.000000,4.000000,100.000000,,,,,,,,,,,,,,,,
1645708865.940501,237.000000,0.000000,4204.615234,4196.538574,4203.974121,4217.692383,4215.000000,4207.436035,4214.102539,4215.512695,4253.461426,4219.743652,4199.358887,4180.256348,4199.871582,4213.717773,3287.000000,4.000000,91.000000,,,,0.000000,4.000000,4.000000,4.000000,4.000000,4.000000,4.000000,4.000000,4.000000,4.000000,4.000000,4.000000,4.000000,4.000000,4.000000,100.000000,,,,,,,,,,,,,,,,
1645708865.944441,238.000000,0.000000,4208.589844,4197.179688,4206.282227,4216.666504,4220.769043,4209.615234,4218.461426,4217.692383,4254.358887,4220.512695,4199.615234,4180.128418,4197.563965,4215.256348,2324.000000,4.000000,91.000000,,,,0.000000,4.000000,4.000000,4.000000,4.000000,4.000000,4.000000,4.000000,4.000000,4.000000,4.000000,4.000000,4.000000,4.000000,4.000000,100.000000,,,,,,,,,,,,,,,,
1645708865.948381,239.000000,0.000000,4210.641113,4196.282227,4206.538574,4215.512695,4222.563965,4210.256348,4221.666504,4219.358887,4253.717773,4217.948730,4199.743652,4179.743652,4195.641113,4214.743652,3364.000000,4.000000,91.000000,,,,0.000000,4.000000,4.000000,4.000000,4.000000,4.000000,4.000000,4.000000,4.000000,4.000000,4.000000,4.000000,4.000000,4.000000,4.000000,100.000000,,,,,,,,,,,,,,,,
1645708865.952321,240.000000,0.000000,4208.205078,4193.846191,4204.358887,4215.000000,4220.769043,4210.384766,4221.282227,4219.615234,4251.666504,4214.230957,4200.512695,4179.102539,4195.000000,4211.794922,3219.000000,4.000000,91.000000,,,,0.000000,4.000000,4.000000,4.000000,4.000000,4.000000,4.000000,4.000000,4.000000,4.000000,4.000000,4.000000,4.000000,4.000000,4.000000,100.000000,,,,,,,,,,,,,,,,
1645708865.956261,241.000000,0.000000,4201.666504,4189.487305,4201.282227,4214.102539,4215.769043,4210.256348,4217.179688,4218.077148,4248.717773,4211.282227,4199.743652,4177.307617,4194.487305,4206.794922,3287.000000,4.000000,91.000000,,,,0.000000,4.000000,4.000000,4.000000,4.000000,4.000000,4.000000,4.000000,4.000000,4.000000,4.000000,4.000000,4.000000,4.000000,4.000000,100.000000,,,,,,,,,,,,,,,,
1645708865.960202,242.000000,0.000000,4193.846191,4184.358887,4199.102539,4211.282227,4209.102539,4209.743652,4211.922852,4215.512695,4245.897461,4209.230957,4195.897461,4174.358887,4193.333496,4201.794922,2324.000000,4.000000,91.000000,,,,0.000000,4.000000,4.000000,4.000000,4.000000,4.000000,4.000000,4.000000,4.000000,4.000000,4.000000,4.000000,4.000000,4.000000,4.000000,100.000000,,,,,,,,,,,,,,,,
1645708865.964142,243.000000,0.000000,4188.846191,4180.897461,4198.589844,4207.692383,4204.102539,4208.974121,4208.974121,4213.846191,4244.871582,4208.333496,4190.512695,4171.025879,4192.051270,4199.487305,3364.000000,4.000000,91.000000,,,,0.000000,4.000000,4.000000,4.000000,4.000000,4.000000,4.000000,4.000000,4.000000,4.000000,4.000000,4.000000,4.000000,4.000000,4.000000,100.000000,,,,,,,,,,,,,,,,
1645708865.968082,244.000000,0.000000,4188.846191,4181.025879,4199.358887,4206.025879,4203.589844,4208.717773,4209.230957,4214.102539,4246.794922,4209.487305,4187.948730,4168.461426,4192.051270,4201.025879,3219.000000,4.000000,91.000000,,,,0.000000,4.000000,4.000000,4.000000,4.000000,4.000000,4.000000,4.000000,4.000000,4.000000,4.000000,4.000000,4.000000,4.000000,4.000000,100.000000,,,,,,,,,,,,,,,,
1645708865.972022,245.000000,0.000000,4193.205078,4183.846191,4200.256348,4207.179688,4206.922852,4208.717773,4210.769043,4215.000000,4250.897461,4211.794922,4190.128418,4166.666504,4193.974121,4204.358887,3287.000000,4.000000,91.000000,,,,0.000000,4.000000,4.000000,4.000000,4.000000,4.000000,4.000000,4.000000,4.000000,4.000000,4.000000,4.000000,4.000000,4.000000,4.000000,100.000000,,,,,,,,,,,,,,,,
1645708865.975962,246.000000,0.000000,4198.717773,4186.410156,4200.384766,4209.358887,4209.743652,4207.307617,4211.282227,4214.102539,4254.230957,4213.077148,4193.846191,4165.512695,4196.025879,4205.897461,2324.000000,4.000000,91.000000,,,,0.000000,4.000000,4.000000,4.000000,4.000000,4.000000,4.000000,4.000000,4.000000,4.000000,4.000000,4.000000,4.000000,4.000000,4.000000,100.000000,,,,,,,,,,,,,,,,
1645708865.979902,247.000000,0.000000,4202.179688,4186.794922,4200.128418,4209.871582,4207.948730,4203.461426,4210.256348,4210.512695,4254.102539,4211.794922,4194.743652,4164.358887,4196.153809,4203.461426,3364.000000,4.000000,91.000000,,,,0.000000,4.000000,4.000000,4.000000,4.000000,4.000000,4.000000,4.000000,4.000000,4.000000,4.000000,4.000000,4.000000,4.000000,4.000000,100.000000,,,,,,,,,,,,,,,,
1645708865.983842,248.000000,0.000000,4202.179688,4185.769043,4200.512695,4208.589844,4202.307617,4198.974121,4208.846191,4205.897461,4250.512695,4209.615234,4191.922852,4163.717773,4193.974121,4199.102539,3219.000000,4.000000,91.000000,,,,0.000000,4.000000,4.000000,4.000000,4.000000,4.000000,4.000000,4.000000,4.000000,4.000000,4.000000,4.000000,4.000000,4.000000,4.000000,100.000000,,,,,,,,,,,,,,,,
1645708865.987782,249.000000,0.000000,4199.615234,4185.512695,4201.794922,4207.179688,4197.436035,4196.922852,4208.333496,4203.461426,4246.410156,4210.000000,4188.717773,4164.487305,4192.051270,4196.153809,3287.000000,4.000000,91.000000,,,,0.000000,4.000000,4.000000,4.000000,4.000000,4.000000,4.000000,4.000000,4.000000,4.000000,4.000000,4.000000,4.000000,4.000000,4.000000,100.000000,,,,,,,,,,,,,,,,
1645708865.991722,250.000000,0.000000,4196.538574,4186.538574,4202.563965,4206.794922,4197.692383,4198.077148,4208.846191,4204.871582,4244.615234,4214.615234,4188.846191,4166.410156,4192.563965,4196.922852,2324.000000,4.000000,91.000000,,,,0.000000,4.000000,4.000000,4.000000,4.000000,4.000000,4.000000,4.000000,4.000000,4.000000,4.000000,4.000000,4.000000,4.000000,4.000000,100.000000,,,,,,,,,,,,,,,,
1645708865.995662,251.000000,0.000000,4195.641113,4187.051270,4201.922852,4206.538574,4202.307617,4200.384766,4209.871582,4209.358887,4245.769043,4219.871582,4192.179688,4168.333496,4196.025879,4200.641113,3364.000000,4.000000,91.000000,,,,0.000000,4.000000,4.000000,4.000000,4.000000,4.000000,4.000000,4.000000,4.000000,4.000000,4.000000,4.000000,4.000000,4.000000,4.000000,100.000000,,,,,,,,,,,,,,,,
1645708865.999603,252.000000,0.000000,4198.077148,4185.641113,4200.641113,4205.384766,4207.692383,4201.153809,4210.641113,4213.717773,4248.333496,4220.897461,4195.641113,4169.743652,4200.256348,4205.000000,3219.000000,4.000000,91.000000,,,,0.000000,4.000000,4.000000,4.000000,4.000000,4.000000,4.000000,4.000000,4.000000,4.000000,4.000000,4.000000,4.000000,4.000000,4.000000,100.000000,,,,,,,,,,,,,,,,
1645708866.003443,253.000000,0.000000,4202.948730,4183.077148,4200.641113,4204.487305,4210.256348,4200.000000,4211.153809,4214.615234,4250.000000,4216.922852,4196.538574,4171.153809,4202.692383,4208.461426,3287.000000,4.000000,91.000000,1,1,1,0.000000,4.000000,4.000000,4.000000,4.000000,4.000000,4.000000,4.000000,4.000000,4.000000,4.000000,4.000000,4.000000,4.000000,4.000000,100.000000,,,,,,,,,,,,,,,,
1645708866.007383,254.000000,0.000000,4207.179688,4182.051270,4202.948730,4206.153809,4210.128418,4198.974121,4211.025879,4211.282227,4249.102539,4211.410156,4195.641113,4173.717773,4202.051270,4210.512695,2324.000000,4.000000,91.000000,,,,0.000000,4.000000,4.000000,4.000000,4.000000,4.000000,4.000000,4.000000,4.000000,4.000000,4.000000,4.000000,4.000000,4.000000,4.000000,100.000000,,,,,,,,,,,,,,,,
1645708866.011323,255.000000,0.000000,4208.461426,4183.589844,4206.025879,4210.128418,4208.846191,4199.615234,4210.128418,4204.871582,4245.512695,4207.563965,4194.102539,4176.666504,4198.589844,4211.153809,114.000000,4.000000,91.000000,,,,0.000000,4.000000,4.000000,4.000000,4.000000,4.000000,4.000000,4.000000,4.000000,4.000000,4.000000,4.000000,4.000000,4.000000,4.000000,100.000000,,,,,,,,,,,,,,,,
1645708866.015263,0.000000,0.000000,4206.410156,4186.282227,4208.205078,4213.077148,4207.948730,4201.025879,4209.358887,4198.333496,4240.897461,4204.871582,4192.692383,4178.333496,4193.974121,4210.128418,3364.000000,4.000000,91.000000,,,,0.000000,4.000000,4.000000,4.000000,4.000000,4.000000,4.000000,4.000000,4.000000,4.000000,4.000000,4.000000,4.000000,4.000000,4.000000,100.000000,,,,,,,,,,,,,,,,
1645708866.019203,1.000000,0.000000,4203.333496,4188.333496,4208.846191,4211.794922,4208.077148,4201.282227,4209.615234,4195.256348,4237.820313,4201.794922,4191.410156,4177.563965,4190.512695,4208.717773,3417.000000,4.000000,91.000000,,,,0.000000,4.000000,4.000000,4.000000,4.000000,4.000000,4.000000,4.000000,4.000000,4.000000,4.000000,4.000000,4.000000,4.000000,4.000000,100.000000,,,,,,,,,,,,,,,,
1645708866.023143,2.000000,0.000000,4202.179688,4189.487305,4209.358887,4207.563965,4210.256348,4201.153809,4211.666504,4197.563965,4238.333496,4199.358887,4191.666504,4175.897461,4189.871582,4208.846191,3140.000000,4.000000,91.000000,,,,0.000000,4.000000,4.000000,4.000000,4.000000,4.000000,4.000000,4.000000,4.000000,4.000000,4.000000,4.000000,4.000000,4.000000,4.000000,100.000000,,,,,,,,,,,,,,,,
1645708866.027083,3.000000,0.000000,4204.615234,4191.666504,4211.282227,4204.871582,4214.743652,4202.948730,4214.487305,4204.230957,4242.051270,4200.641113,4195.128418,4176.666504,4192.179688,4211.410156,3374.000000,4.000000,91.000000,,,,0.000000,4.000000,4.000000,4.000000,4.000000,4.000000,4.000000,4.000000,4.000000,4.000000,4.000000,4.000000,4.000000,4.000000,4.000000,100.000000,,,,,,,,,,,,,,,,
1645708866.031024,4.000000,0.000000,4209.615234,4195.512695,4213.717773,4206.922852,4218.717773,4207.051270,4216.282227,4211.153809,4246.282227,4206.282227,4200.256348,4180.384766,4196.025879,4214.743652,3499.000000,4.000000,91.000000,,,,0.000000,4.000000,4.000000,4.000000,4.000000,4.000000,4.000000,4.000000,4.000000,4.000000,4.000000,4.000000,4.000000,4.000000,4.000000,100.000000,,,,,,,,,,,,,,,,
1645708866.034964,5.000000,0.000000,4214.102539,4198.717773,4214.102539,4211.666504,4217.563965,4210.512695,4215.384766,4213.974121,4248.333496,4212.307617,4202.820313,4183.974121,4198.461426,4215.128418,3534.000000,4.000000,91.000000,,,,0.000000,4.000000,4.000000,4.000000,4.000000,4.000000,4.000000,4.000000,4.000000,4.000000,4.000000,4.000000,4.000000,4.000000,4.000000,100.000000,,,,,,,,,,,,,,,,
1645708866.038904,6.000000,0.000000,4214.615234,4198.717773,4211.025879,4214.487305,4209.615234,4210.128418,4212.436035,4212.051270,4246.538574,4214.230957,4199.102539,4183.461426,4197.563965,4210.256348,3194.000000,4.000000,91.000000,,,,0.000000,4.000000,4.000000,4.000000,4.000000,4.000000,4.000000,4.000000,4.000000,4.000000,4.000000,4.000000,4.000000,4.000000,4.000000,100.000000,,,,,,,,,,,,,,,,
1645708866.042844,7.000000,0.000000,4210.000000,4195.384766,4206.410156,4213.205078,4199.743652,4206.794922,4210.128418,4208.461426,4242.563965,4211.538574,4191.410156,4178.077148,4193.974121,4202.820313,2837.000000,4.000000,91.000000,,,,0.000000,4.000000,4.000000,4.000000,4.000000,4.000000,4.000000,4.000000,4.000000,4.000000,4.000000,4.000000,4.000000,4.000000,4.000000,100.000000,,,,,,,,,,,,,,,,
1645708866.046784,8.000000,0.000000,4202.948730,4192.179688,4203.333496,4209.743652,4196.025879,4204.615234,4210.897461,4206.794922,4240.512695,4208.461426,4185.769043,4171.538574,4191.025879,4198.589844,1437.000000,4.000000,91.000000,,,,0.000000,4.000000,4.000000,4.000000,4.000000,4.000000,4.000000,4.000000,4.000000,4.000000,4.000000,4.000000,4.000000,4.000000,4.000000,100.000000,,,,,,,,,,,,,,,,
1645708866.050724,9.000000,0.000000,4197.563965,4192.436035,4203.717773,4207.948730,4202.820313,4206.538574,4214.615234,4208.077148,4243.333496,4208.846191,4186.282227,4168.205078,4191.538574,4201.153809,3386.000000,4.000000,91.000000,,,,0.000000,4.000000,4.000000,4.000000,4.000000,4.000000,4.000000,4.000000,4.000000,4.000000,4.000000,4.000000,4.000000,4.000000,4.000000,100.000000,,,,,,,,,,,,,,,,
1645708866.054664,10.000000,0.000000,4197.179688,4196.666504,4206.794922,4209.615234,4216.025879,4210.769043,4218.461426,4210.769043,4250.000000,4211.410156,4191.410156,4170.000000,4196.025879,4208.717773,2426.000000,4.000000,91.000000,,,,0.000000,4.000000,4.000000,4.000000,4.000000,4.000000,4.000000,4.000000,4.000000,4.000000,4.000000,4.000000,4.000000,4.000000,4.000000,100.000000,,,,,,,,,,,,,,,,
1645708866.058604,11.000000,0.000000,4201.282227,4201.538574,4210.000000,4212.692383,4226.410156,4212.948730,4219.487305,4212.436035,4256.153809,4211.922852,4196.666504,4174.743652,4201.538574,4216.025879,3343.000000,4.000000,91.000000,,,,0.000000,4.000000,4.000000,4.000000,4.000000,4.000000,4.000000,4.000000,4.000000,4.000000,4.000000,4.000000,4.000000,4.000000,4.000000,100.000000,,,,,,,,,,,,,,,,
1645708866.062544,12.000000,0.000000,4206.538574,4203.461426,4210.897461,4214.871582,4228.077148,4211.025879,4216.794922,4212.563965,4258.077148,4208.333496,4198.846191,4178.846191,4205.256348,4219.487305,3245.000000,4.000000,91.000000,,,,0.000000,4.000000,4.000000,4.000000,4.000000,4.000000,4.000000,4.000000,4.000000,4.000000,4.000000,4.000000,4.000000,4.000000,4.000000,100.000000,,,,,,,,,,,,,,,,
1645708866.066485,13.000000,0.000000,4209.230957,4201.025879,4208.846191,4215.128418,4221.794922,4207.051270,4212.436035,4211.538574,4255.256348,4204.102539,4199.487305,4180.512695,4205.897461,4219.487305,3389.000000,4.000000,91.000000,,,,0.000000,4.000000,4.000000,4.000000,4.000000,4.000000,4.000000,4.000000,4.000000,4.000000,4.000000,4.000000,4.000000,4.000000,4.000000,100.000000,,,,,,,,,,,,,,,,
1645708866.070425,14.000000,0.000000,4208.333496,4196.282227,4205.641113,4214.358887,4213.461426,4204.487305,4208.974121,4209.871582,4249.871582,4204.102539,4201.666504,4180.384766,4204.358887,4219.102539,2426.000000,4.000000,91.000000,,,,0.000000,4.000000,4.000000,4.000000,4.000000,4.000000,4.000000,4.000000,4.000000,4.000000,4.000000,4.000000,4.000000,4.000000,4.000000,100.000000,,,,,,,,,,,,,,,,
1645708866.074365,15.000000,0.000000,4206.538574,4191.922852,4204.358887,4213.974121,4208.205078,4204.487305,4207.563965,4207.948730,4245.128418,4209.743652,4206.282227,4180.769043,4202.051270,4220.512695,3343.000000,4.000000,91.000000,,,,0.000000,4.000000,4.000000,4.000000,4.000000,4.000000,4.000000,4.000000,4.000000,4.000000,4.000000,4.000000,4.000000,4.000000,4.000000,100.000000,,,,,,,,,,,,,,,,
1645708866.078205,16.000000,0.000000,4206.538574,4190.512695,4206.922852,4214.615234,4207.179688,4205.641113,4208.077148,4206.410156,4242.307617,4216.538574,4211.025879,4182.563965,4200.641113,4223.333496,3245.000000,4.000000,91.000000,,,,0.000000,4.000000,4.000000,4.000000,4.000000,4.000000,4.000000,4.000000,4.000000,4.000000,4.000000,4.000000,4.000000,4.000000,4.000000,100.000000,,,,,,,,,,,,,,,,
1645708866.082145,17.000000,0.000000,4209.358887,4192.948730,4211.410156,4216.282227,4208.717773,4206.410156,4209.615234,4205.897461,4241.025879,4220.000000,4213.077148,4185.128418,4201.025879,4225.769043,3389.000000,4.000000,91.000000,,,,0.000000,4.000000,4.000000,4.000000,4.000000,4.000000,4.000000,4.000000,4.000000,4.000000,4.000000,4.000000,4.000000,4.000000,4.000000,100.000000,,,,,,,,,,,,,,,,
1645708866.086085,18.000000,0.000000,4213.333496,4199.230957,4214.358887,4218.589844,4211.025879,4206.666504,4210.897461,4206.410156,4240.512695,4218.846191,4211.794922,4186.922852,4203.461426,4227.436035,2426.000000,4.000000,91.000000,,,,0.000000,4.000000,4.000000,4.000000,4.000000,4.000000,4.000000,4.000000,4.000000,4.000000,4.000000,4.000000,4.000000,4.000000,4.000000,100.000000,,,,,,,,,,,,,,,,
1645708866.090025,19.000000,0.000000,4216.538574,4207.692383,4213.974121,4221.153809,4212.436035,4207.179688,4211.025879,4207.179688,4240.641113,4215.384766,4208.846191,4186.922852,4207.051270,4228.589844,3343.000000,4.000000,91.000000,,,,0.000000,4.000000,4.000000,4.000000,4.000000,4.000000,4.000000,4.000000,4.000000,4.000000,4.000000,4.000000,4.000000,4.000000,4.000000,100.000000,,,,,,,,,,,,,,,,
1645708866.093865,20.000000,0.000000,4218.333496,4214.487305,4212.179688,4222.948730,4212.563965,4207.692383,4209.743652,4207.563965,4241.666504,4212.307617,4206.153809,4185.512695,4209.743652,4230.384766,3245.000000,4.000000,91.000000,,,,0.000000,4.000000,4.000000,4.000000,4.000000,4.000000,4.000000,4.000000,4.000000,4.000000,4.000000,4.000000,4.000000,4.000000,4.000000,100.000000,,,,,,,,,,,,,,,,
1645708866.097806,21.000000,0.000000,4220.000000,4216.922852,4213.077148,4223.846191,4212.051270,4207.692383,4207.948730,4207.307617,4243.077148,4209.743652,4205.128418,4184.615234,4210.256348,4233.077148,3389.000000,4.000000,91.000000,,,,0.000000,4.000000,4.000000,4.000000,4.000000,4.000000,4.000000,4.000000,4.000000,4.000000,4.000000,4.000000,4.000000,4.000000,4.000000,100.000000,,,,,,,,,,,,,,,,
1645708866.101746,22.000000,0.000000,4222.692383,4215.256348,4218.717773,4224.615234,4212.820313,4206.922852,4206.922852,4206.538574,4243.205078,4207.820313,4206.538574,4186.153809,4208.974121,4236.025879,2426.000000,4.000000,91.000000,,,,0.000000,4.000000,4.000000,4.000000,4.000000,4.000000,4.000000,4.000000,4.000000,4.000000,4.000000,4.000000,4.000000,4.000000,4.000000,100.000000,,,,,,,,,,,,,,,,
1645708866.105686,23.000000,0.000000,4226.410156,4212.820313,4227.563965,4226.282227,4216.538574,4206.282227,4207.692383,4205.512695,4240.769043,4207.307617,4209.487305,4190.000000,4208.077148,4239.230957,3343.000000,4.000000,91.000000,,,,0.000000,4.000000,4.000000,4.000000,4.000000,4.000000,4.000000,4.000000,4.000000,4.000000,4.000000,4.000000,4.000000,4.000000,4.000000,100.000000,,,,,,,,,,,,,,,,
1645708866.109626,24.000000,0.000000,4230.128418,4213.205078,4234.743652,4228.333496,4222.436035,4206.922852,4209.358887,4205.000000,4235.769043,4209.358887,4211.922852,4194.102539,4208.846191,4241.666504,3245.000000,4.000000,91.000000,,,,0.000000,4.000000,4.000000,4.000000,4.000000,4.000000,4.000000,4.000000,4.000000,4.000000,4.000000,4.000000,4.000000,4.000000,4.000000,100.000000,,,,,,,,,,,,,,,,
1645708866.113566,25.000000,0.000000,4231.666504,4216.410156,4236.538574,4228.333496,4227.307617,4208.333496,4210.641113,4205.769043,4230.512695,4213.589844,4211.282227,4195.897461,4210.641113,4242.307617,3389.000000,4.000000,91.000000,,,,0.000000,4.000000,4.000000,4.000000,4.000000,4.000000,4.000000,4.000000,4.000000,4.000000,4.000000,4.000000,4.000000,4.000000,4.000000,100.000000,,,,,,,,,,,,,,,,
1645708866.117506,26.000000,0.000000,4229.871582,4219.743652,4233.077148,4224.743652,4227.692383,4209.230957,4211.282227,4208.974121,4227.948730,4217.563965,4206.794922,4193.589844,4211.025879,4240.256348,2426.000000,4.000000,91.000000,,,,0.000000,4.000000,4.000000,4.000000,4.000000,4.000000,4.000000,4.000000,4.000000,4.000000,4.000000,4.000000,4.000000,4.000000,4.000000,100.000000,,,,,,,,,,,,,,,,
1645708866.121446,27.000000,0.000000,4225.128418,4220.641113,4227.820313,4219.102539,4223.589844,4209.615234,4212.307617,4214.230957,4229.358887,4219.871582,4201.410156,4188.333496,4209.487305,4236.538574,3343.000000,4.000000,91.000000,,,,0.000000,4.000000,4.000000,4.000000,4.000000,4.000000,4.000000,4.000000,4.000000,4.000000,4.000000,4.000000,4.000000,4.000000,4.000000,100.000000,,,,,,,,,,,,,,,,
1645708866.125386,28.000000,0.000000,4219.871582,4219.358887,4224.615234,4215.512695,4218.461426,4210.128418,4214.487305,4219.487305,4233.717773,4221.794922,4199.615234,4183.205078,4207.051270,4233.077148,3245.000000,4.000000,91.000000,,,,0.000000,4.000000,4.000000,4.000000,4.000000,4.000000,4.000000,4.000000,4.000000,4.000000,4.000000,4.000000,4.000000,4.000000,4.000000,100.000000,,,,,,,,,,,,,,,,
1645708866.129326,29.000000,0.000000,4217.179688,4218.205078,4224.743652,4216.666504,4215.897461,4211.282227,4216.794922,4222.436035,4237.692383,4225.128418,4203.461426,4181.153809,4205.769043,4231.153809,3389.000000,4.000000,91.000000,,,,0.000000,4.000000,4.000000,4.000000,4.000000,4.000000,4.000000,4.000000,4.000000,4.000000,4.000000,4.000000,4.000000,4.000000,4.000000,100.000000,,,,,,,,,,,,,,,,
1645708866.133266,30.000000,0.000000,4217.820313,4218.589844,4227.051270,4220.512695,4216.282227,4212.820313,4217.692383,4222.820313,4236.666504,4229.615234,4209.743652,4182.692383,4205.897461,4230.256348,2426.000000,4.000000,91.000000,,,,0.000000,4.000000,4.000000,4.000000,4.000000,4.000000,4.000000,4.000000,4.000000,4.000000,4.000000,4.000000,4.000000,4.000000,4.000000,100.000000,,,,,,,,,,,,,,,,
1645708866.137207,31.000000,0.000000,4219.743652,4219.871582,4228.846191,4222.307617,4217.436035,4213.846191,4217.179688,4222.436035,4228.333496,4232.307617,4213.077148,4186.153809,4206.922852,4228.974121,3343.000000,4.000000,91.000000,,,,0.000000,4.000000,4.000000,4.000000,4.000000,4.000000,4.000000,4.000000,4.000000,4.000000,4.000000,4.000000,4.000000,4.000000,4.000000,100.000000,,,,,,,,,,,,,,,,
1645708866.141147,32.000000,0.000000,4220.128418,4220.641113,4227.820313,4219.615234,4218.461426,4215.128418,4217.179688,4224.102539,4214.871582,4230.384766,4210.512695,4188.461426,4207.436035,4226.922852,0.000000,4.000000,91.000000,2,1,1,0.000000,4.000000,4.000000,4.000000,4.000000,4.000000,4.000000,4.000000,4.000000,4.000000,4.000000,4.000000,4.000000,4.000000,4.000000,100.000000,,,,,,,,,,,,,,,,
1645708866.145087,33.000000,0.000000,4217.563965,4219.871582,4223.589844,4213.717773,4220.128418,4218.205078,4219.615234,4227.948730,4202.179688,4224.487305,4204.230957,4188.205078,4207.307617,4225.128418,0.000000,4.000000,91.000000,,,,0.000000,4.000000,4.000000,4.000000,4.000000,4.000000,4.000000,4.000000,4.000000,4.000000,4.000000,4.000000,4.000000,4.000000,4.000000,100.000000,,,,,,,,,,,,,,,,
1645708866.149027,34.000000,0.000000,4213.333496,4217.436035,4218.077148,4208.846191,4223.205078,4223.589844,4223.846191,4232.051270,4195.256348,4218.077148,4199.871582,4186.153809,4206.922852,4225.000000,0.000000,4.000000,91.000000,,,,0.000000,4.000000,4.000000,4.000000,4.000000,4.000000,4.000000,4.000000,4.000000,4.000000,4.000000,4.000000,4.000000,4.000000,4.000000,100.000000,,,,,,,,,,,,,,,,
1645708866.152967,35.000000,0.000000,4210.128418,4213.077148,4213.717773,4207.436035,4226.922852,4229.230957,4227.948730,4233.717773,4195.128418,4214.487305,4200.128418,4183.461426,4207.051270,4226.410156,0.000000,4.000000,91.000000,,,,0.000000,4.000000,4.000000,4.000000,4.000000,4.000000,4.000000,4.000000,4.000000,4.000000,4.000000,4.000000,4.000000,4.000000,4.000000,100.000000,,,,,,,,,,,,,,,,
1645708866.156907,36.000000,0.000000,4209.871582,4207.307617,4212.563965,4209.102539,4228.461426,4231.794922,4229.487305,4232.051270,4198.589844,4215.000000,4203.461426,4181.282227,4207.563965,4227.948730,0.000000,4.000000,91.000000,,,,0.000000,4.000000,4.000000,4.000000,4.000000,4.000000,4.000000,4.000000,4.000000,4.000000,4.000000,4.000000,4.000000,4.000000,4.000000,100.000000,,,,,,,,,,,,,,,,
1645708866.160747,37.000000,0.000000,4212.179688,4201.922852,4214.615234,4211.410156,4226.538574,4229.871582,4228.333496,4228.846191,4201.666504,4218.461426,4206.025879,4180.000000,4208.077148,4228.077148,0.000000,4.000000,91.000000,,,,0.000000,4.000000,4.000000,4.000000,4.000000,4.000000,4.000000,4.000000,4.000000,4.000000,4.000000,4.000000,4.000000,4.000000,4.000000,100.000000,,,,,,,,,,,,,,,,
1645708866.164687,38.000000,0.000000,4215.128418,4198.974121,4218.205078,4212.948730,4223.333496,4225.769043,4225.641113,4226.282227,4202.692383,4222.563965,4207.051270,4180.769043,4208.333496,4227.436035,0.000000,4.000000,91.000000,,,,0.000000,4.000000,4.000000,4.000000,4.000000,4.000000,4.000000,4.000000,4.000000,4.000000,4.000000,4.000000,4.000000,4.000000,4.000000,100.000000,,,,,,,,,,,,,,,,
1645708866.168628,39.000000,0.000000,4216.282227,4199.230957,4221.153809,4213.717773,4222.563965,4222.948730,4222.820313,4225.256348,4202.563965,4225.128418,4208.077148,4183.717773,4208.974121,4227.948730,0.000000,4.000000,91.000000,,,,0.000000,4.000000,4.000000,4.000000,4.000000,4.000000,4.000000,4.000000,4.000000,4.000000,4.000000,4.000000,4.000000,4.000000,4.000000,100.000000,,,,,,,,,,,,,,,,
1645708866.172568,40.000000,0.000000,4215.384766,4201.410156,4222.563965,4213.717773,4225.769043,4222.948730,4220.384766,4224.871582,4202.820313,4223.974121,4210.000000,4187.948730,4211.153809,4230.769043,0.000000,4.000000,91.000000,,,,0.000000,4.000000,4.000000,4.000000,4.000000,4.000000,4.000000,4.000000,4.000000,4.000000,4.000000,4.000000,4.000000,4.000000,4.000000,100.000000,,,,,,,,,,,,,,,,
1645708866.176508,41.000000,0.000000,4213.717773,4203.333496,4222.563965,4213.077148,4230.769043,4224.102539,4218.589844,4223.846191,4203.461426,4219.358887,4211.282227,4191.153809,4214.615234,4234.615234,0.000000,4.000000,91.000000,,,,0.000000,4.000000,4.000000,4.000000,4.000000,4.000000,4.000000,4.000000,4.000000,4.000000,4.000000,4.000000,4.000000,4.000000,4.000000,100.000000,,,,,,,,,,,,,,,,
1645708866.180448,42.000000,0.000000,4213.589844,4204.102539,4222.563965,4212.051270,4233.846191,4223.846191,4217.563965,4222.179688,4203.846191,4214.102539,4211.025879,4192.051270,4218.205078,4237.179688,0.000000,4.000000,91.000000,,,,0.000000,4.000000,4.000000,4.000000,4.000000,4.000000,4.000000,4.000000,4.000000,4.000000,4.000000,4.000000,4.000000,4.000000,4.000000,100.000000,,,,,,,,,,,,,,,,
1645708866.184388,43.000000,0.000000,4216.025879,4205.256348,4223.461426,4212.051270,4234.743652,4222.436035,4218.333496,4220.897461,4203.846191,4213.333496,4210.384766,4191.282227,4220.897461,4237.307617,0.000000,4.000000,91.000000,,,,0.000000,4.000000,4.000000,4.000000,4.000000,4.000000,4.000000,4.000000,4.000000,4.000000,4.000000,4.000000,4.000000,4.000000,4.000000,100.000000,,,,,,,,,,,,,,,,
1645708866.188328,44.000000,0.000000,4220.384766,4208.077148,4225.512695,4214.743652,4235.128418,4221.666504,4220.769043,4221.282227,4203.846191,4219.615234,4211.666504,4190.641113,4222.948730,4236.666504,0.000000,4.000000,91.000000,,,,0.000000,4.000000,4.000000,4.000000,4.000000,4.000000,4.000000,4.000000,4.000000,4.000000,4.000000,4.000000,4.000000,4.000000,4.000000,100.000000,,,,,,,,,,,,,,,,
1645708866.192268,45.000000,0.000000,4225.000000,4212.692383,4227.948730,4219.743652,4235.128418,4222.179688,4223.846191,4223.205078,4204.230957,4230.000000,4215.256348,4191.025879,4224.487305,4237.563965,0.000000,4.000000,91.000000,,,,0.000000,4.000000,4.000000,4.000000,4.000000,4.000000,4.000000,4.000000,4.000000,4.000000,4.000000,4.000000,4.000000,4.000000,4.000000,100.000000,,,,,,,,,,,,,,,,
1645708866.196208,46.000000,0.000000,4227.692383,4216.282227,4230.128418,4224.230957,4232.692383,4222.563965,4225.897461,4225.769043,4204.871582,4237.948730,4218.461426,4192.179688,4225.897461,4240.769043,0.000000,4.000000,91.000000,,,,0.000000,4.000000,4.000000,4.000000,4.000000,4.000000,4.000000,4.000000,4.000000,4.000000,4.000000,4.000000,4.000000,4.000000,4.000000,100.000000,,,,,,,,,,,,,,,,
1645708866.200148,47.000000,0.000000,4227.563965,4216.538574,4231.538574,4225.256348,4226.538574,4221.282227,4226.025879,4227.307617,4205.384766,4238.717773,4218.205078,4193.589844,4226.538574,4244.743652,0.000000,4.000000,91.000000,,,,0.000000,4.000000,4.000000,4.000000,4.000000,4.000000,4.000000,4.000000,4.000000,4.000000,4.000000,4.000000,4.000000,4.000000,4.000000,100.000000,,,,,,,,,,,,,,,,
1645708866.204088,48.000000,0.000000,4225.000000,4213.333496,4232.051270,4221.794922,4219.230957,4219.615234,4225.000000,4226.666504,4206.025879,4233.205078,4214.743652,4195.000000,4225.897461,4246.922852,0.000000,4.000000,91.000000,,,,0.000000,4.000000,4.000000,4.000000,4.000000,4.000000,4.000000,4.000000,4.000000,4.000000,4.000000,4.000000,4.000000,4.000000,4.000000,100.000000,,,,,,,,,,,,,,,,
1645708866.208029,49.000000,0.000000,4221.025879,4209.358887,4231.282227,4216.153809,4215.641113,4219.615234,4223.461426,4223.461426,4207.051270,4226.153809,4210.512695,4195.897461,4223.846191,4245.512695,0.000000,4.000000,91.000000,,,,0.000000,4.000000,4.000000,4.000000,4.000000,4.000000,4.000000,4.000000,4.000000,4.000000,4.000000,4.000000,4.000000,4.000000,4.000000,100.000000,,,,,,,,,,,,,,,,
1645708866.211969,50.000000,0.000000,4216.922852,4206.538574,4228.846191,4210.897461,4218.717773,4222.051270,4222.179688,4219.358887,4207.692383,4221.025879,4206.794922,4194.743652,4220.769043,4240.128418,0.000000,4.000000,91.000000,,,,0.000000,4.000000,4.000000,4.000000,4.000000,4.000000,4.000000,4.000000,4.000000,4.000000,4.000000,4.000000,4.000000,4.000000,4.000000,100.000000,1.000000,91.666664,4.000000,4.000000,4.000000,4.000000,4.000000,4.000000,4.000000,4.000000,3.000000,4.000000,4.000000,4.000000,4.000000,4.000000
1645708866.215909,51.000000,0.000000,4213.333496,4204.871582,4224.615234,4207.436035,4225.384766,4224.615234,4221.666504,4216.538574,4206.666504,4217.179688,4203.589844,4190.000000,4217.051270,4232.179688,0.000000,4.000000,91.000000,,,,0.000000,4.000000,4.000000,4.000000,4.000000,4.000000,4.000000,4.000000,4.000000,4.000000,4.000000,4.000000,4.000000,4.000000,4.000000,100.000000,,,,,,,,,,,,,,,,
1645708866.219849,52.000000,0.000000,4210.256348,4202.436035,4218.974121,4205.769043,4229.743652,4224.230957,4222.051270,4215.769043,4203.717773,4212.820313,4199.615234,4182.307617,4213.077148,4224.230957,0.000000,4.000000,91.000000,,,,0.000000,4.000000,4.000000,4.000000,4.000000,4.000000,4.000000,4.000000,4.000000,4.000000,4.000000,4.000000,4.000000,4.000000,4.000000,100.000000,,,,,,,,,,,,,,,,
1645708866.223789,53.000000,0.000000,4207.179688,4199.358887,4212.692383,4205.384766,4227.820313,4221.153809,4223.717773,4216.410156,4200.897461,4208.461426,4195.769043,4174.871582,4209.743652,4219.102539,0.000000,4.000000,91.000000,,,,0.000000,4.000000,4.000000,4.000000,4.000000,4.000000,4.000000,4.000000,4.000000,4.000000,4.000000,4.000000,4.000000,4.000000,4.000000,100.000000,,,,,,,,,,,,,,,,
1645708866.227729,54.000000,0.000000,4204.230957,4197.179688,4206.666504,4205.641113,4222.051270,4218.205078,4225.769043,4216.794922,4200.256348,4207.948730,4194.358887,4171.282227,4208.205078,4218.077148,0.000000,4.000000,91.000000,,,,0.000000,4.000000,4.000000,4.000000,4.000000,4.000000,4.000000,4.000000,4.000000,4.000000,4.000000,4.000000,4.000000,4.000000,4.000000,100.000000,,,,,,,,,,,,,,,,
1645708866.231669,55.000000,0.000000,4201.794922,4197.692383,4201.922852,4205.897461,4217.692383,4218.333496,4227.179688,4216.410156,4202.436035,4213.333496,4196.025879,4172.436035,4209.102539,4220.256348,0.000000,4.000000,91.000000,,,,0.000000,4.000000,4.000000,4.000000,4.000000,4.000000,4.000000,4.000000,4.000000,4.000000,4.000000,4.000000,4.000000,4.000000,4.000000,100.000000,,,,,,,,,,,,,,,,
1645708866.235509,56.000000,0.000000,4200.769043,4199.871582,4199.358887,4205.256348,4218.333496,4221.666504,4226.922852,4216.025879,4205.512695,4221.410156,4198.589844,4175.769043,4211.153809,4222.307617,0.000000,4.000000,91.000000,,,,0.000000,4.000000,4.000000,4.000000,4.000000,4.000000,4.000000,4.000000,4.000000,4.000000,4.000000,4.000000,4.000000,4.000000,4.000000,100.000000,,,,,,,,,,,,,,,,
1645708866.239450,57.000000,0.000000,4200.897461,4200.641113,4199.615234,4203.717773,4222.179688,4225.512695,4225.128418,4216.153809,4206.922852,4225.897461,4199.358887,4178.205078,4212.563965,4221.410156,0.000000,4.000000,91.000000,,,,0.000000,4.000000,4.000000,4.000000,4.000000,4.000000,4.000000,4.000000,4.000000,4.000000,4.000000,4.000000,4.000000,4.000000,4.000000,100.000000,,,,,,,,,,,,,,,,
1645708866.243390,58.000000,0.000000,4201.410156,4198.974121,4202.307617,4202.436035,4225.256348,4227.436035,4223.717773,4216.922852,4205.769043,4224.230957,4198.461426,4178.461426,4212.563965,4218.717773,0.000000,4.000000,91.000000,,,,0.000000,4.000000,4.000000,4.000000,4.000000,4.000000,4.000000,4.000000,4.000000,4.000000,4.000000,4.000000,4.000000,4.000000,4.000000,100.000000,,,,,,,,,,,,,,,,
1645708866.247330,59.000000,0.000000,4201.282227,4196.153809,4205.897461,4202.436035,4224.871582,4226.794922,4223.589844,4217.948730,4203.717773,4219.615234,4198.974121,4178.077148,4212.307617,4217.692383,0.000000,4.000000,91.000000,,,,0.000000,4.000000,4.000000,4.000000,4.000000,4.000000,4.000000,4.000000,4.000000,4.000000,4.000000,4.000000,4.000000,4.000000,4.000000,100.000000,,,,,,,,,,,,,,,,
1645708866.251270,60.000000,0.000000,4200.384766,4194.743652,4208.974121,4203.589844,4220.769043,4224.230957,4224.871582,4219.743652,4203.461426,4217.179688,4202.692383,4178.461426,4213.077148,4219.615234,0.000000,4.000000,91.000000,,,,0.000000,4.000000,4.000000,4.000000,4.000000,4.000000,4.000000,4.000000,4.000000,4.000000,4.000000,4.000000,4.000000,4.000000,4.000000,100.000000,,,,,,,,,,,,,,,,
1645708866.255210,61.000000,0.000000,4199.358887,4195.384766,4211.025879,4204.230957,4214.871582,4221.153809,4226.153809,4223.077148,4206.025879,4218.077148,4207.179688,4179.358887,4213.974121,4221.410156,0.000000,4.000000,91.000000,,,,0.000000,4.000000,4.000000,4.000000,4.000000,4.000000,4.000000,4.000000,4.000000,4.000000,4.000000,4.000000,4.000000,4.000000,4.000000,100.000000,,,,,,,,,,,,,,,,
1645708866.259150,62.000000,0.000000,4199.102539,4197.179688,4212.436035,4203.461426,4211.025879,4219.487305,4227.051270,4227.436035,4209.743652,4220.000000,4208.717773,4179.615234,4212.948730,4219.871582,0.000000,4.000000,91.000000,,,,0.000000,4.000000,4.000000,4.000000,4.000000,4.000000,4.000000,4.000000,4.000000,4.000000,4.000000,4.000000,4.000000,4.000000,4.000000,100.000000,,,,,,,,,,,,,,,,
1645708866.263090,63.000000,0.000000,4200.000000,4199.615234,4215.000000,4203.589844,4212.948730,4221.410156,4227.820313,4230.641113,4212.436035,4220.641113,4206.025879,4179.102539,4209.615234,4215.384766,0.000000,4.000000,91.000000,,,,0.000000,4.000000,4.000000,4.000000,4.000000,4.000000,4.000000,4.000000,4.000000,4.000000,4.000000,4.000000,4.000000,4.000000,4.000000,100.000000,,,,,,,,,,,,,,,,
1645708866.267030,64.000000,0.000000,4202.436035,4203.589844,4218.974121,4207.179688,4221.666504,4227.179688,4228.333496,4230.128418,4212.948730,4220.641113,4202.179688,4179.487305,4206.282227,4212.436035,0.000000,4.000000,91.000000,,,,0.000000,4.000000,4.000000,4.000000,4.000000,4.000000,4.000000,4.000000,4.000000,4.000000,4.000000,4.000000,4.000000,4.000000,4.000000,100.000000,,,,,,,,,,,,,,,,
1645708866.270970,65.000000,0.000000,4206.794922,4209.102539,4223.717773,4214.358887,4233.205078,4233.846191,4227.948730,4225.512695,4211.538574,4221.282227,4200.897461,4182.179688,4206.410156,4214.743652,0.000000,4.000000,91.000000,,,,0.000000,4.000000,4.000000,4.000000,4.000000,4.000000,4.000000,4.000000,4.000000,4.000000,4.000000,4.000000,4.000000,4.000000,4.000000,100.000000,,,,,,,,,,,,,,,,
1645708866.274910,66.000000,0.000000,4212.948730,4214.358887,4227.563965,4221.025879,4241.025879,4236.666504,4225.641113,4218.717773,4208.974121,4222.436035,4203.589844,4187.307617,4210.769043,4221.922852,0.000000,4.000000,91.000000,,,,0.000000,4.000000,4.000000,4.000000,4.000000,4.000000,4.000000,4.000000,4.000000,4.000000,4.000000,4.000000,4.000000,4.000000,4.000000,100.000000,,,,,,,,,,,,,,,,
1645708866.278851,67.000000,0.000000,4219.358887,4217.051270,4229.358887,4222.692383,4241.025879,4233.461426,4222.563965,4213.589844,4206.153809,4222.179688,4208.205078,4192.307617,4216.794922,4230.000000,0.000000,4.000000,91.000000,,,,0.000000,4.000000,4.000000,4.000000,4.000000,4.000000,4.000000,4.000000,4.000000,4.000000,4.000000,4.000000,4.000000,4.000000,4.000000,100.000000,,,,,,,,,,,,,,,,
1645708866.282791,68.000000,0.000000,4223.077148,4217.307617,4228.461426,4218.846191,4235.128418,4226.922852,4221.025879,4212.179688,4204.102539,4219.487305,4210.512695,4194.358887,4221.025879,4234.743652,0.000000,4.000000,91.000000,,,,0.000000,4.000000,4.000000,4.000000,4.000000,4.000000,4.000000,4.000000,4.000000,4.000000,4.000000,4.000000,4.000000,4.000000,4.000000,100.000000,,,,,,,,,,,,,,,,
1645708866.286731,69.000000,0.000000,4222.179688,4216.282227,4225.256348,4212.692383,4229.102539,4222.436035,4222.307617,4213.846191,4204.230957,4215.641113,4207.948730,4192.051270,4221.153809,4235.000000,0.000000,4.000000,91.000000,,,,0.000000,4.000000,4.000000,4.000000,4.000000,4.000000,4.000000,4.000000,4.000000,4.000000,4.000000,4.000000,4.000000,4.000000,4.000000,100.000000,,,,,,,,,,,,,,,,
1645708866.290671,70.000000,0.000000,4217.563965,4215.128418,4221.153809,4208.205078,4227.563965,4222.820313,4225.384766,4216.282227,4206.153809,4212.692383,4201.025879,4186.025879,4217.692383,4231.538574,0.000000,4.000000,91.000000,,,,0.000000,4.000000,4.000000,4.000000,4.000000,4.000000,4.000000,4.000000,4.000000,4.000000,4.000000,4.000000,4.000000,4.000000,4.000000,100.000000,,,,,,,,,,,,,,,,
1645708866.294611,71.000000,0.000000,4212.179688,4212.820313,4218.077148,4206.410156,4229.743652,4226.666504,4227.948730,4217.307617,4208.333496,4212.051270,4193.077148,4179.358887,4212.563965,4226.410156,0.000000,4.000000,91.000000,,,,0.000000,4.000000,4.000000,4.000000,4.000000,4.000000,4.000000,4.000000,4.000000,4.000000,4.000000,4.000000,4.000000,4.000000,4.000000,100.000000,,,,,,,,,,,,,,,,
1645708866.298551,72.000000,0.000000,4209.102539,4208.974121,4217.179688,4205.769043,4231.410156,4229.615234,4228.077148,4216.538574,4208.846191,4212.948730,4188.077148,4174.615234,4208.077148,4222.436035,0.000000,4.000000,91.000000,,,,0.000000,4.000000,4.000000,4.000000,4.000000,4.000000,4.000000,4.000000,4.000000,4.000000,4.000000,4.000000,4.000000,4.000000,4.000000,100.000000,,,,,,,,,,,,,,,,
1645708866.302491,73.000000,0.000000,4209.358887,4204.487305,4218.205078,4204.871582,4229.358887,4228.717773,4226.282227,4215.256348,4207.820313,4214.615234,4189.230957,4173.589844,4205.769043,4221.153809,0.000000,4.000000,91.000000,,,,0.000000,4.000000,4.000000,4.000000,4.000000,4.000000,4.000000,4.000000,4.000000,4.000000,4.000000,4.000000,4.000000,4.000000,4.000000,100.000000,,,,,,,,,,,,,,,,
1645708866.306331,74.000000,0.000000,4211.153809,4202.051270,4219.102539,4204.102539,4224.102539,4225.512695,4223.589844,4214.358887,4206.538574,4216.153809,4195.641113,4175.384766,4206.282227,4222.436035,0.000000,4.000000,91.000000,,,,0.000000,4.000000,4.000000,4.000000,4.000000,4.000000,4.000000,4.000000,4.000000,4.000000,4.000000,4.000000,4.000000,4.000000,4.000000,100.000000,,,,,,,,,,,,,,,,
1645708866.310272,75.000000,0.000000,4212.692383,4202.948730,4218.333496,4204.358887,4218.333496,4222.563965,4221.153809,4213.974121,4206.538574,4216.922852,4203.077148,4177.820313,4208.846191,4224.487305,0.000000,4.000000,91.000000,,,,0.000000,4.000000,4.000000,4.000000,4.000000,4.000000,4.000000,4.000000,4.000000,4.000000,4.000000,4.000000,4.000000,4.000000,4.000000,100.000000,,,,,,,,,,,,,,,,
1645708866.314212,76.000000,0.000000,4212.820313,4206.025879,4216.538574,4205.256348,4214.230957,4221.282227,4219.871582,4213.589844,4207.820313,4215.897461,4205.641113,4178.717773,4211.282227,4224.743652,0.000000,4.000000,91.000000,,,,0.000000,4.000000,4.000000,4.000000,4.000000,4.000000,4.000000,4.000000,4.000000,4.000000,4.000000,4.000000,4.000000,4.000000,4.000000,100.000000,,,,,,,,,,,,,,,,
1645708866.318152,77.000000,0.000000,4212.051270,4209.615234,4215.128418,4205.641113,4212.307617,4221.410156,4219.871582,4213.717773,4209.487305,4212.692383,4200.641113,4177.179688,4211.410156,4221.922852,0.000000,4.000000,91.000000,,,,0.000000,4.000000,4.000000,4.000000,4.000000,4.000000,4.000000,4.000000,4.000000,4.000000,4.000000,4.000000,4.000000,4.000000,4.000000,100.000000,,,,,,,,,,,,,,,,
1645708866.322092,78.000000,0.000000,4211.922852,4212.820313,4216.153809,4205.512695,4213.974121,4222.179688,4221.410156,4215.128418,4210.384766,4208.974121,4190.897461,4174.358887,4209.230957,4217.307617,0.000000,4.000000,91.000000,,,,0.000000,4.000000,4.000000,4.000000,4.000000,4.000000,4.000000,4.000000,4.000000,4.000000,4.000000,4.000000,4.000000,4.000000,4.000000,100.000000,,,,,,,,,,,,,,,,
1645708866.326032,79.000000,0.000000,4213.461426,4215.897461,4219.615234,4206.282227,4220.256348,4223.974121,4224.230957,4217.948730,4209.871582,4207.563965,4182.948730,4172.051270,4206.153809,4214.102539,0.000000,4.000000,91.000000,,,,0.000000,4.000000,4.000000,4.000000,4.000000,4.000000,4.000000,4.000000,4.000000,4.000000,4.000000,4.000000,4.000000,4.000000,4.000000,100.000000,,,,,,,,,,,,,,,,
1645708866.329972,80.000000,0.000000,4216.410156,4218.846191,4222.948730,4208.974121,4229.230957,4226.922852,4226.538574,4220.256348,4208.589844,4209.230957,4181.666504,4171.153809,4204.230957,4214.102539,0.000000,4.000000,91.000000,,,,0.000000,4.000000,4.000000,4.000000,4.000000,4.000000,4.000000,4.000000,4.000000,4.000000,4.000000,4.000000,4.000000,4.000000,4.000000,100.000000,,,,,,,,,,,,,,,,
1645708866.333912,81.000000,0.000000,4218.717773,4219.743652,4223.717773,4211.538574,4235.128418,4228.846191,4227.051270,4219.487305,4207.051270,4211.794922,4186.410156,4171.282227,4203.974121,4216.538574,0.000000,4.000000,91.000000,,,,0.000000,4.000000,4.000000,4.000000,4.000000,4.000000,4.000000,4.000000,4.000000,4.000000,4.000000,4.000000,4.000000,4.000000,4.000000,100.000000,,,,,,,,,,,,,,,,
1645708866.337852,82.000000,0.000000,4218.974121,4216.922852,4221.538574,4211.282227,4233.205078,4227.307617,4225.512695,4215.641113,4205.384766,4212.307617,4192.307617,4171.794922,4204.358887,4219.871582,0.000000,4.000000,91.000000,,,,0.000000,4.000000,4.000000,4.000000,4.000000,4.000000,4.000000,4.000000,4.000000,4.000000,4.000000,4.000000,4.000000,4.000000,4.000000,100.000000,,,,,,,,,,,,,,,,
1645708866.341792,83.000000,0.000000,4216.666504,4211.282227,4218.846191,4207.307617,4224.358887,4221.794922,4223.205078,4211.153809,4203.974121,4210.512695,4194.743652,4172.563965,4205.000000,4223.205078,0.000000,4.000000,91.000000,,,,0.000000,4.000000,4.000000,4.000000,4.000000,4.000000,4.000000,4.000000,4.000000,4.000000,4.000000,4.000000,4.000000,4.000000,4.000000,100.000000,,,,,,,,,,,,,,,,
1645708866.345732,84.000000,0.000000,4213.717773,4206.666504,4218.333496,4203.077148,4215.641113,4215.769043,4221.538574,4209.358887,4203.461426,4209.487305,4194.102539,4174.487305,4206.025879,4227.051270,0.000000,4.000000,91.000000,,,,0.000000,4.000000,4.000000,4.000000,4.000000,4.000000,4.000000,4.000000,4.000000,4.000000,4.000000,4.000000,4.000000,4.000000,4.000000,100.000000,,,,,,,,,,,,,,,,
1645708866.349673,85.000000,0.000000,4212.179688,4206.282227,4220.641113,4202.051270,4214.230957,4212.820313,4220.769043,4211.025879,4204.615234,4211.410156,4192.820313,4177.948730,4207.563965,4231.410156,0.000000,4.000000,91.000000,,,,0.000000,4.000000,4.000000,4.000000,4.000000,4.000000,4.000000,4.000000,4.000000,4.000000,4.000000,4.000000,4.000000,4.000000,4.000000,100.000000,,,,,,,,,,,,,,,,
1645708866.353613,86.000000,0.000000,4213.461426,4210.000000,4224.102539,4204.358887,4220.000000,4213.461426,4220.641113,4215.000000,4206.794922,4214.871582,4192.307617,4181.666504,4208.461426,4235.128418,0.000000,4.000000,91.000000,,,,0.000000,4.000000,4.000000,4.000000,4.000000,4.000000,4.000000,4.000000,4.000000,4.000000,4.000000,4.000000,4.000000,4.000000,4.000000,100.000000,,,,,,,,,,,,,,,,
1645708866.357553,87.000000,0.000000,4216.538574,4213.846191,4226.538574,4206.538574,4226.282227,4214.743652,4220.641113,4218.846191,4208.333496,4216.025879,4190.769043,4183.077148,4207.179688,4235.897461,0.000000,4.000000,91.000000,,,,0.000000,4.000000,4.000000,4.000000,4.000000,4.000000,4.000000,4.000000,4.000000,4.000000,4.000000,4.000000,4.000000,4.000000,4.000000,100.000000,,,,,,,,,,,,,,,,
1645708866.361493,88.000000,0.000000,4218.974121,4213.974121,4226.794922,4205.769043,4226.282227,4213.846191,4220.384766,4221.410156,4208.846191,4213.333496,4186.794922,4180.897461,4204.102539,4232.692383,0.000000,4.000000,91.000000,,,,0.000000,4.000000,4.000000,4.000000,4.000000,4.000000,4.000000,4.000000,4.000000,4.000000,4.000000,4.000000,4.000000,4.000000,4.000000,100.000000,,,,,,,,,,,,,,,,
1645708866.365433,89.000000,0.000000,4218.589844,4210.384766,4225.256348,4202.692383,4220.000000,4211.282227,4220.256348,4222.692383,4208.717773,4209.615234,4182.436035,4176.922852,4201.794922,4228.205078,0.000000,4.000000,91.000000,,,,0.000000,4.000000,4.000000,4.000000,4.000000,4.000000,4.000000,4.000000,4.000000,4.000000,4.000000,4.000000,4.000000,4.000000,4.000000,100.000000,,,,,,,,,,,,,,,,
1645708866.369373,90.000000,0.000000,4215.897461,4207.051270,4223.333496,4200.641113,4213.589844,4210.256348,4220.769043,4223.846191,4209.230957,4208.846191,4181.538574,4174.230957,4202.563965,4226.666504,0.000000,4.000000,91.000000,,,,0.000000,4.000000,4.000000,4.000000,4.000000,4.000000,4.000000,4.000000,4.000000,4.000000,4.000000,4.000000,4.000000,4.000000,4.000000,100.000000,,,,,,,,,,,,,,,,
1645708866.373313,91.000000,0.000000,4213.589844,4207.307617,4222.051270,4201.666504,4212.307617,4212.563965,4222.307617,4226.025879,4211.410156,4212.051270,4184.871582,4175.000000,4206.025879,4230.384766,0.000000,4.000000,91.000000,,,,0.000000,4.000000,4.000000,4.000000,4.000000,4.000000,4.000000,4.000000,4.000000,4.000000,4.000000,4.000000,4.000000,4.000000,4.000000,100.000000,,,,,,,,,,,,,,,,
1645708866.377153,92.000000,0.000000,4213.846191,4210.641113,4222.307617,4204.487305,4216.410156,4217.051270,4224.487305,4229.358887,4214.615234,4215.769043,4189.102539,4178.589844,4209.871582,4236.922852,0.000000,4.000000,91.000000,,,,0.000000,4.000000,4.000000,4.000000,4.000000,4.000000,4.000000,4.000000,4.000000,4.000000,4.000000,4.000000,4.000000,4.000000,4.000000,100.000000,,,,,,,,,,,,,,,,
1645708866.381094,93.000000,0.000000,4217.563965,4214.615234,4223.717773,4206.922852,4222.179688,4221.025879,4226.282227,4232.563965,4217.820313,4216.922852,4191.025879,4183.205078,4211.794922,4241.794922,0.000000,4.000000,91.000000,,,,0.000000,4.000000,4.000000,4.000000,4.000000,4.000000,4.000000,4.000000,4.000000,4.000000,4.000000,4.000000,4.000000,4.000000,4.000000,100.000000,,,,,,,,,,,,,,,,
1645708866.385034,94.000000,0.000000,4222.692383,4216.794922,4225.641113,4208.205078,4226.538574,4222.692383,4226.666504,4234.230957,4219.871582,4216.922852,4191.538574,4187.051270,4212.051270,4242.948730,0.000000,4.000000,91.000000,,,,0.000000,4.000000,4.000000,4.000000,4.000000,4.000000,4.000000,4.000000,4.000000,4.000000,4.000000,4.000000,4.000000,4.000000,4.000000,100.000000,,,,,,,,,,,,,,,,
1645708866.388974,95.000000,0.000000,4226.538574,4217.051270,4227.307617,4208.846191,4228.333496,4222.692383,4225.512695,4233.974121,4220.641113,4219.230957,4193.717773,4189.102539,4212.563965,4241.538574,0.000000,4.000000,91.000000,,,,0.000000,4.000000,4.000000,4.000000,4.000000,4.000000,4.000000,4.000000,4.000000,4.000000,4.000000,4.000000,4.000000,4.000000,4.000000,100.000000,,,,,,,,,,,,,,,,
1645708866.392914,96.000000,0.000000,4226.922852,4215.641113,4227.948730,4209.102539,4226.666504,4221.538574,4223.589844,4232.692383,4221.282227,4223.974121,4198.846191,4188.974121,4214.743652,4239.743652,0.000000,4.000000,91.000000,,,,0.000000,4.000000,4.000000,4.000000,4.000000,4.000000,4.000000,4.000000,4.000000,4.000000,4.000000,4.000000,4.000000,4.000000,4.000000,100.000000,,,,,,,,,,,,,,,,
1645708866.396854,97.000000,0.000000,4223.846191,4213.205078,4227.179688,4208.589844,4222.051270,4220.128418,4222.563965,4231.666504,4222.179688,4227.179688,4203.846191,4186.410156,4217.307617,4238.333496,0.000000,4.000000,91.000000,,,,0.000000,4.000000,4.000000,4.000000,4.000000,4.000000,4.000000,4.000000,4.000000,4.000000,4.000000,4.000000,4.000000,4.000000,4.000000,100.000000,,,,,,,,,,,,,,,,
1645708866.400794,98.000000,0.000000,4219.487305,4210.512695,4225.256348,4207.179688,4216.666504,4219.743652,4223.717773,4231.922852,4223.205078,4225.641113,4204.871582,4182.563965,4218.333496,4237.563965,0.000000,4.000000,91.000000,,,,0.000000,4.000000,4.000000,4.000000,4.000000,4.000000,4.000000,4.000000,4.000000,4.000000,4.000000,4.000000,4.000000,4.000000,4.000000,100.000000,,,,,,,,,,,,,,,,
1645708866.404734,99.000000,0.000000,4216.025879,4209.102539,4223.077148,4205.897461,4214.743652,4222.179688,4227.179688,4233.717773,4223.846191,4220.897461,4201.666504,4179.743652,4217.563965,4238.077148,0.000000,4.000000,91.000000,,,,0.000000,4.000000,4.000000,4.000000,4.000000,4.000000,4.000000,4.000000,4.000000,4.000000,4.000000,4.000000,4.000000,4.000000,4.000000,100.000000,,,,,,,,,,,,,,,,
1645708866.408674,100.000000,0.000000,4214.615234,4209.743652,4220.769043,4205.512695,4217.820313,4227.307617,4231.025879,4235.897461,4224.230957,4217.563965,4197.563965,4180.128418,4216.153809,4240.256348,0.000000,4.000000,91.000000,,,,0.000000,4.000000,4.000000,4.000000,4.000000,4.000000,4.000000,4.000000,4.000000,4.000000,4.000000,4.000000,4.000000,4.000000,4.000000,100.000000,,,,,,,,,,,,,,,,
1645708866.412614,101.000000,0.000000,4214.230957,4210.641113,4218.205078,4205.256348,4222.051270,4232.307617,4232.307617,4236.666504,4224.487305,4218.077148,4195.256348,4182.948730,4214.871582,4242.307617,0.000000,4.000000,91.000000,,,,0.000000,4.000000,4.000000,4.000000,4.000000,4.000000,4.000000,4.000000,4.000000,4.000000,4.000000,4.000000,4.000000,4.000000,4.000000,100.000000,,,,,,,,,,,,,,,,
1645708866.416554,102.000000,0.000000,4213.333496,4209.615234,4215.384766,4203.205078,4220.897461,4232.820313,4230.256348,4235.000000,4223.846191,4220.000000,4193.974121,4185.128418,4212.820313,4241.025879,0.000000,4.000000,91.000000,,,,0.000000,4.000000,4.000000,4.000000,4.000000,4.000000,4.000000,4.000000,4.000000,4.000000,4.000000,4.000000,4.000000,4.000000,4.000000,100.000000,,,,,,,,,,,,,,,,
1645708866.420495,103.000000,0.000000,4210.897461,4205.897461,4212.563965,4199.102539,4212.820313,4227.820313,4226.666504,4231.282227,4221.794922,4219.487305,4191.153809,4183.461426,4208.461426,4234.487305,0.000000,4.000000,91.000000,,,,0.000000,4.000000,4.000000,4.000000,4.000000,4.000000,4.000000,4.000000,4.000000,4.000000,4.000000,4.000000,4.000000,4.000000,4.000000,100.000000,,,,,,,,,,,,,,,,
1645708866.424435,104.000000,0.000000,4206.666504,4202.179688,4210.128418,4195.256348,4203.205078,4221.794922,4225.128418,4226.794922,4218.589844,4214.743652,4186.025879,4177.820313,4202.307617,4225.512695,0.000000,4.000000,91.000000,,,,0.000000,4.000000,4.000000,4.000000,4.000000,4.000000,4.000000,4.000000,4.000000,4.000000,4.000000,4.000000,4.000000,4.000000,4.000000,100.000000,,,,,,,,,,,,,,,,
1645708866.428375,105.000000,0.000000,4201.538574,4201.410156,4207.948730,4194.230957,4200.128418,4220.000000,4227.179688,4223.077148,4216.025879,4207.692383,4179.871582,4171.538574,4197.307617,4218.589844,0.000000,4.000000,91.000000,,,,0.000000,4.000000,4.000000,4.000000,4.000000,4.000000,4.000000,4.000000,4.000000,4.000000,4.000000,4.000000,4.000000,4.000000,4.000000,100.000000,,,,,,,,,,,,,,,,
1645708866.432315,106.000000,0.000000,4198.461426,4203.846191,4206.025879,4196.794922,4207.179688,4224.358887,4231.410156,4221.025879,4215.128418,4201.794922,4175.256348,4168.717773,4196.025879,4217.051270,0.000000,4.000000,91.000000,,,,0.000000,4.000000,4.000000,4.000000,4.000000,4.000000,4.000000,4.000000,4.000000,4.000000,4.000000,4.000000,4.000000,4.000000,4.000000,100.000000,,,,,,,,,,,,,,,,
1645708866.436255,107.000000,0.000000,4199.487305,4207.051270,4205.769043,4200.384766,4219.615234,4231.282227,4234.871582,4220.641113,4215.897461,4199.487305,4173.333496,4170.512695,4198.205078,4219.615234,0.000000,4.000000,91.000000,,,,0.000000,4.000000,4.000000,4.000000,4.000000,4.000000,4.000000,4.000000,4.000000,4.000000,4.000000,4.000000,4.000000,4.000000,4.000000,100.000000,,,,,,,,,,,,,,,,
1645708866.440195,108.000000,0.000000,4204.487305,4208.205078,4207.436035,4202.307617,4229.102539,4236.025879,4235.000000,4221.410156,4216.922852,4201.153809,4174.230957,4175.256348,4200.897461,4222.820313,0.000000,4.000000,91.000000,,,,0.000000,4.000000,4.000000,4.000000,4.000000,4.000000,4.000000,4.000000,4.000000,4.000000,4.000000,4.000000,4.000000,4.000000,4.000000,100.000000,,,,,,,,,,,,,,,,
1645708866.444135,109.000000,0.000000,4210.128418,4206.794922,4210.128418,4201.794922,4230.897461,4236.538574,4232.307617,4222.563965,4217.436035,4205.512695,4178.077148,4179.743652,4201.794922,4224.487305,0.000000,4.000000,91.000000,,,,0.000000,4.000000,4.000000,4.000000,4.000000,4.000000,4.000000,4.000000,4.000000,4.000000,4.000000,4.000000,4.000000,4.000000,4.000000,100.000000,,,,,,,,,,,,,,,,
1645708866.448075,110.000000,0.000000,4213.333496,4204.102539,4212.051270,4200.256348,4226.410156,4234.230957,4228.846191,4223.589844,4216.922852,4210.769043,4183.205078,4181.794922,4200.384766,4224.615234,0.000000,4.000000,91.000000,,,,0.000000,4.000000,4.000000,4.000000,4.000000,4.000000,4.000000,4.000000,4.000000,4.000000,4.000000,4.000000,4.000000,4.000000,4.000000,100.000000,,,,,,,,,,,,,,,,
1645708866.451916,111.000000,0.000000,4212.436035,4201.666504,4212.307617,4198.717773,4219.871582,4231.025879,4226.282227,4224.743652,4215.769043,4214.230957,4186.410156,4180.897461,4198.077148,4223.717773,0.000000,4.000000,91.000000,,,,0.000000,4.000000,4.000000,4.000000,4.000000,4.000000,4.000000,4.000000,4.000000,4.000000,4.000000,4.000000,4.000000,4.000000,4.000000,100.000000,,,,,,,,,,,,,,,,
1645708866.455856,112.000000,0.000000,4208.717773,4199.743652,4211.282227,4196.666504,4214.615234,4228.077148,4225.128418,4226.153809,4214.615234,4214.102539,4184.743652,4178.589844,4196.794922,4221.666504,0.000000,4.000000,91.000000,,,,0.000000,4.000000,4.000000,4.000000,4.000000,4.000000,4.000000,4.000000,4.000000,4.000000,4.000000,4.000000,4.000000,4.000000,4.000000,100.000000,,,,,,,,,,,,,,,,
1645708866.459796,113.000000,0.000000,4204.487305,4197.820313,4209.743652,4193.589844,4211.282227,4225.000000,4224.871582,4227.436035,4214.358887,4210.641113,4178.974121,4176.410156,4197.563965,4218.461426,0.000000,4.000000,91.000000,,,,0.000000,4.000000,4.000000,4.000000,4.000000,4.000000,4.000000,4.000000,4.000000,4.000000,4.000000,4.000000,4.000000,4.000000,4.000000,100.000000,,,,,,,,,,,,,,,,
1645708866.463736,114.000000,0.000000,4201.410156,4196.282227,4207.563965,4190.512695,4209.615234,4222.436035,4224.871582,4227.436035,4216.025879,4207.692383,4173.846191,4175.256348,4200.000000,4214.871582,0.000000,4.000000,91.000000,,,,0.000000,4.000000,4.000000,4.000000,4.000000,4.000000,4.000000,4.000000,4.000000,4.000000,4.000000,4.000000,4.000000,4.000000,4.000000,100.000000,,,,,,,,,,,,,,,,
1645708866.467676,115.000000,0.000000,4199.743652,4195.256348,4204.487305,4188.717773,4209.230957,4220.641113,4224.743652,4224.871582,4219.230957,4208.717773,4173.717773,4174.358887,4202.307617,4212.051270,0.000000,4.000000,91.000000,,,,0.000000,4.000000,4.000000,4.000000,4.000000,4.000000,4.000000,4.000000,4.000000,4.000000,4.000000,4.000000,4.000000,4.000000,4.000000,100.000000,,,,,,,,,,,,,,,,
1645708866.471616,116.000000,0.000000,4198.589844,4193.974121,4200.384766,4188.333496,4208.717773,4219.358887,4223.717773,4219.743652,4222.307617,4212.563965,4178.333496,4172.563965,4201.410156,4209.230957,0.000000,4.000000,91.000000,,,,0.000000,4.000000,4.000000,4.000000,4.000000,4.000000,4.000000,4.000000,4.000000,4.000000,4.000000,4.000000,4.000000,4.000000,4.000000,100.000000,,,,,,,,,,,,,,,,
1645708866.475556,117.000000,0.000000,4197.179688,4190.641113,4196.538574,4187.692383,4206.922852,4217.436035,4221.922852,4214.358887,4222.948730,4214.487305,4182.563965,4169.743652,4195.384766,4205.769043,0.000000,4.000000,91.000000,,,,0.000000,4.000000,4.000000,4.000000,4.000000,4.000000,4.000000,4.000000,4.000000,4.000000,4.000000,4.000000,4.000000,4.000000,4.000000,100.000000,,,,,,,,,,,,,,,,
1645708866.479496,118.000000,0.000000,4195.256348,4185.512695,4195.256348,4185.769043,4204.743652,4215.256348,4220.384766,4212.307617,4220.897461,4210.769043,4182.179688,4167.692383,4185.384766,4202.307617,0.000000,4.000000,91.000000,,,,0.000000,4.000000,4.000000,4.000000,4.000000,4.000000,4.000000,4.000000,4.000000,4.000000,4.000000,4.000000,4.000000,4.000000,4.000000,100.000000,,,,,,,,,,,,,,,,
1645708866.483436,119.000000,0.000000,4193.974121,4181.410156,4197.948730,4183.974121,4204.102539,4214.487305,4220.641113,4216.153809,4218.077148,4204.230957,4178.077148,4169.230957,4175.897461,4201.282227,0.000000,4.000000,91.000000,,,,0.000000,4.000000,4.000000,4.000000,4.000000,4.000000,4.000000,4.000000,4.000000,4.000000,4.000000,4.000000,4.000000,4.000000,4.000000,100.000000,,,,,,,,,,,,,,,,
1645708866.487377,120.000000,0.000000,4194.871582,4182.051270,4203.717773,4185.256348,4207.051270,4217.051270,4222.563965,4223.974121,4217.692383,4202.051270,4175.256348,4175.769043,4172.179688,4204.743652,0.000000,4.000000,91.000000,,,,0.000000,4.000000,4.000000,4.000000,4.000000,4.000000,4.000000,4.000000,4.000000,4.000000,4.000000,4.000000,4.000000,4.000000,4.000000,100.000000,,,,,,,,,,,,,,,,
1645708866.491317,121.000000,0.000000,4198.717773,4187.692383,4209.615234,4190.512695,4211.794922,4221.794922,4224.615234,4230.641113,4220.512695,4208.461426,4178.461426,4185.000000,4176.025879,4211.922852,0.000000,4.000000,91.000000,,,,0.000000,4.000000,4.000000,4.000000,4.000000,4.000000,4.000000,4.000000,4.000000,4.000000,4.000000,4.000000,4.000000,4.000000,4.000000,100.000000,,,,,,,,,,,,,,,,
1645708866.495257,122.000000,0.000000,4203.589844,4194.615234,4213.205078,4196.922852,4214.358887,4225.256348,4224.871582,4232.436035,4224.230957,4220.769043,4187.179688,4192.692383,4184.102539,4219.230957,0.000000,4.000000,91.000000,,,,0.000000,4.000000,4.000000,4.000000,4.000000,4.000000,4.000000,4.000000,4.000000,4.000000,4.000000,4.000000,4.000000,4.000000,4.000000,100.000000,,,,,,,,,,,,,,,,
1645708866.499197,123.000000,0.000000,4206.666504,4197.307617,4213.077148,4199.871582,4212.307617,4225.000000,4223.461426,4229.230957,4225.897461,4231.794922,4197.051270,4195.641113,4191.025879,4223.974121,0.000000,4.000000,91.000000,,,,0.000000,4.000000,4.000000,4.000000,4.000000,4.000000,4.000000,4.000000,4.000000,4.000000,4.000000,4.000000,4.000000,4.000000,4.000000,100.000000,,,,,,,,,,,,,,,,
1645708866.503137,124.000000,0.000000,4205.512695,4193.974121,4209.487305,4197.820313,4207.948730,4222.563965,4221.922852,4224.358887,4224.871582,4236.666504,4204.487305,4194.230957,4193.461426,4225.512695,0.000000,4.000000,91.000000,,,,0.000000,4.000000,4.000000,4.000000,4.000000,4.000000,4.000000,4.000000,4.000000,4.000000,4.000000,4.000000,4.000000,4.000000,4.000000,100.000000,,,,,,,,,,,,,,,,
1645708866.507077,125.000000,0.000000,4201.153809,4187.820313,4205.000000,4193.589844,4206.794922,4221.410156,4221.922852,4220.897461,4223.333496,4236.410156,4208.589844,4191.794922,4192.436035,4225.384766,0.000000,4.000000,91.000000,,,,0.000000,4.000000,4.000000,4.000000,4.000000,4.000000,4.000000,4.000000,4.000000,4.000000,4.000000,4.000000,4.000000,4.000000,4.000000,100.000000,,,,,,,,,,,,,,,,
1645708866.511017,126.000000,0.000000,4197.051270,4183.589844,4202.563965,4191.282227,4210.769043,4223.205078,4223.717773,4219.871582,4223.077148,4234.871582,4209.743652,4191.794922,4191.025879,4224.743652,0.000000,4.000000,91.000000,,,,0.000000,4.000000,4.000000,4.000000,4.000000,4.000000,4.000000,4.000000,4.000000,4.000000,4.000000,4.000000,4.000000,4.000000,4.000000,100.000000,,,,,,,,,,,,,,,,
1645708866.514957,127.000000,0.000000,4196.282227,4184.102539,4204.487305,4192.307617,4215.641113,4225.897461,4225.000000,4219.871582,4223.846191,4233.461426,4207.436035,4194.615234,4191.538574,4223.205078,0.000000,4.000000,91.000000,,,,0.000000,4.000000,4.000000,4.000000,4.000000,4.000000,4.000000,4.000000,4.000000,4.000000,4.000000,4.000000,4.000000,4.000000,4.000000,100.000000,,,,,,,,,,,,,,,,
1645708866.518897,128.000000,0.000000,4199.615234,4188.461426,4210.128418,4195.641113,4215.384766,4226.153809,4223.717773,4219.102539,4223.077148,4231.153809,4201.794922,4198.461426,4193.974121,4220.897461,3263.000000,4.000000,91.000000,,,,0.000000,4.000000,4.000000,4.000000,4.000000,4.000000,4.000000,4.000000,4.000000,4.000000,4.000000,4.000000,4.000000,4.000000,4.000000,100.000000,,,,,,,,,,,,,,,,
1645708866.522837,129.000000,0.000000,4205.000000,4193.846191,4216.282227,4199.102539,4209.102539,4223.461426,4220.000000,4216.794922,4219.615234,4226.922852,4195.769043,4201.538574,4196.538574,4219.358887,3418.000000,4.000000,91.000000,,,,0.000000,4.000000,4.000000,4.000000,4.000000,4.000000,4.000000,4.000000,4.000000,4.000000,4.000000,4.000000,4.000000,4.000000,4.000000,100.000000,,,,,,,,,,,,,,,,
1645708866.526678,130.000000,0.000000,4210.256348,4198.717773,4219.743652,4201.922852,4202.692383,4220.512695,4215.769043,4213.589844,4214.743652,4222.820313,4193.717773,4203.717773,4197.307617,4221.153809,3149.000000,4.000000,91.000000,,,,0.000000,4.000000,4.000000,4.000000,4.000000,4.000000,4.000000,4.000000,4.000000,4.000000,4.000000,4.000000,4.000000,4.000000,4.000000,100.000000,,,,,,,,,,,,,,,,
1645708866.530618,131.000000,0.000000,4214.102539,4202.179688,4219.743652,4204.230957,4203.205078,4220.128418,4213.077148,4211.282227,4210.897461,4221.282227,4197.307617,4205.769043,4196.025879,4226.538574,3370.000000,4.000000,91.000000,,,,0.000000,4.000000,4.000000,4.000000,4.000000,4.000000,4.000000,4.000000,4.000000,4.000000,4.000000,4.000000,4.000000,4.000000,4.000000,100.000000,,,,,,,,,,,,,,,,
1645708866.534558,132.000000,0.000000,4216.025879,4203.974121,4218.589844,4205.384766,4212.179688,4222.692383,4213.077148,4211.538574,4210.000000,4222.820313,4204.102539,4208.077148,4193.974121,4232.692383,3395.000000,4.000000,91.000000,,,,0.000000,4.000000,4.000000,4.000000,4.000000,4.000000,4.000000,4.000000,4.000000,4.000000,4.000000,4.000000,4.000000,4.000000,4.000000,100.000000,,,,,,,,,,,,,,,,
1645708866.538498,133.000000,0.000000,4216.410156,4204.615234,4218.589844,4205.384766,4224.615234,4225.897461,4215.384766,4214.230957,4211.666504,4225.769043,4209.487305,4210.384766,4193.461426,4236.794922,3435.000000,4.000000,91.000000,,,,0.000000,4.000000,4.000000,4.000000,4.000000,4.000000,4.000000,4.000000,4.000000,4.000000,4.000000,4.000000,4.000000,4.000000,4.000000,100.000000,,,,,,,,,,,,,,,,
1645708866.542438,134.000000,0.000000,4215.897461,4205.000000,4220.769043,4204.358887,4233.461426,4227.820313,4218.846191,4217.307617,4214.102539,4227.820313,4211.153809,4211.922852,4194.743652,4237.692383,3050.000000,4.000000,91.000000,,,,0.000000,4.000000,4.000000,4.000000,4.000000,4.000000,4.000000,4.000000,4.000000,4.000000,4.000000,4.000000,4.000000,4.000000,4.000000,100.000000,,,,,,,,,,,,,,,,
1645708866.546378,135.000000,0.000000,4215.512695,4206.153809,4223.333496,4203.846191,4235.384766,4228.077148,4222.051270,4218.333496,4215.512695,4228.461426,4210.384766,4212.179688,4197.307617,4236.410156,2906.000000,4.000000,91.000000,,,,0.000000,4.000000,4.000000,4.000000,4.000000,4.000000,4.000000,4.000000,4.000000,4.000000,4.000000,4.000000,4.000000,4.000000,4.000000,100.000000,,,,,,,,,,,,,,,,
1645708866.550318,136.000000,0.000000,4215.897461,4208.077148,4224.487305,4204.743652,4232.051270,4227.307617,4223.333496,4216.538574,4215.769043,4228.077148,4209.358887,4210.769043,4199.102539,4234.615234,1579.000000,4.000000,91.000000,,,,0.000000,4.000000,4.000000,4.000000,4.000000,4.000000,4.000000,4.000000,4.000000,4.000000,4.000000,4.000000,4.000000,4.000000,4.000000,100.000000,,,,,,,,,,,,,,,,
1645708866.554258,137.000000,0.000000,4217.051270,4208.717773,4223.589844,4206.282227,4226.794922,4226.282227,4222.307617,4214.230957,4215.512695,4227.051270,4208.333496,4208.077148,4198.717773,4232.692383,3312.000000,4.000000,91.000000,,,,0.000000,4.000000,4.000000,4.000000,4.000000,4.000000,4.000000,4.000000,4.000000,4.000000,4.000000,4.000000,4.000000,4.000000,4.000000,100.000000,,,,,,,,,,,,,,,,
1645708866.558199,138.000000,0.000000,4218.077148,4206.153809,4221.410156,4206.538574,4222.179688,4224.358887,4219.743652,4213.589844,4215.128418,4225.641113,4206.025879,4204.615234,4196.153809,4230.128418,2452.000000,4.000000,91.000000,,,,0.000000,4.000000,4.000000,4.000000,4.000000,4.000000,4.000000,4.000000,4.000000,4.000000,4.000000,4.000000,4.000000,4.000000,4.000000,100.000000,,,,,,,,,,,,,,,,
1645708866.562139,139.000000,0.000000,4217.948730,4201.410156,4218.717773,4205.000000,4218.589844,4221.538574,4216.922852,4215.512695,4214.615234,4225.256348,4202.692383,4201.410156,4192.692383,4227.307617,3346.000000,4.000000,91.000000,,,,0.000000,4.000000,4.000000,4.000000,4.000000,4.000000,4.000000,4.000000,4.000000,4.000000,4.000000,4.000000,4.000000,4.000000,4.000000,100.000000,,,,,,,,,,,,,,,,
1645708866.566079,140.000000,0.000000,4216.666504,4197.820313,4216.538574,4202.948730,4216.025879,4218.846191,4215.000000,4218.205078,4213.846191,4227.051270,4200.384766,4199.102539,4190.769043,4225.128418,3449.000000,4.000000,91.000000,,,,0.000000,4.000000,4.000000,4.000000,4.000000,4.000000,4.000000,4.000000,4.000000,4.000000,4.000000,4.000000,4.000000,4.000000,4.000000,100.000000,,,,,,,,,,,,,,,,
1645708866.570019,141.000000,0.000000,4214.743652,4198.333496,4215.256348,4201.794922,4215.384766,4217.692383,4214.358887,4219.487305,4213.333496,4231.025879,4200.897461,4197.820313,4191.410156,4225.128418,3298.000000,4.000000,91.000000,,,,0.000000,4.000000,4.000000,4.000000,4.000000,4.000000,4.000000,4.000000,4.000000,4.000000,4.000000,4.000000,4.000000,4.000000,4.000000,100.000000,,,,,,,,,,,,,,,,
1645708866.573959,142.000000,0.000000,4214.102539,4202.692383,4215.641113,4201.794922,4217.051270,4218.461426,4215.000000,4218.589844,4213.717773,4234.358887,4203.205078,4197.307617,4193.717773,4227.179688,2452.000000,4.000000,91.000000,,,,0.000000,4.000000,4.000000,4.000000,4.000000,4.000000,4.000000,4.000000,4.000000,4.000000,4.000000,4.000000,4.000000,4.000000,4.000000,100.000000,,,,,,,,,,,,,,,,
1645708866.577899,143.000000,0.000000,4215.512695,4207.948730,4217.307617,4201.794922,4220.384766,4221.025879,4216.922852,4217.307617,4214.230957,4234.230957,4204.230957,4196.666504,4195.512695,4229.615234,3346.000000,4.000000,91.000000,,,,0.000000,4.000000,4.000000,4.000000,4.000000,4.000000,4.000000,4.000000,4.000000,4.000000,4.000000,4.000000,4.000000,4.000000,4.000000,100.000000,,,,,,,,,,,,,,,,
1645708866.581839,144.000000,0.000000,4217.563965,4211.025879,4219.102539,4201.794922,4223.461426,4224.358887,4219.358887,4217.563965,4214.487305,4230.000000,4202.051270,4195.384766,4194.871582,4230.000000,3449.000000,4.000000,91.000000,,,,0.000000,4.000000,4.000000,4.000000,4.000000,4.000000,4.000000,4.000000,4.000000,4.000000,4.000000,4.000000,4.000000,4.000000,4.000000,100.000000,,,,,,,,,,,,,,,,
1645708866.585779,145.000000,0.000000,4217.948730,4211.410156,4219.230957,4202.692383,4223.974121,4227.692383,4221.666504,4220.512695,4214.487305,4224.871582,4198.077148,4193.461426,4192.051270,4228.205078,3298.000000,4.000000,91.000000,,,,0.000000,4.000000,4.000000,4.000000,4.000000,4.000000,4.000000,4.000000,4.000000,4.000000,4.000000,4.000000,4.000000,4.000000,4.000000,100.000000,,,,,,,,,,,,,,,,
1645708866.589719,146.000000,0.000000,4215.897461,4210.512695,4217.563965,4204.871582,4220.897461,4229.358887,4222.563965,4225.000000,4215.128418,4221.922852,4195.769043,4191.538574,4188.974121,4225.897461,2452.000000,4.000000,91.000000,,,,0.000000,4.000000,4.000000,4.000000,4.000000,4.000000,4.000000,4.000000,4.000000,4.000000,4.000000,4.000000,4.000000,4.000000,4.000000,100.000000,,,,,,,,,,,,,,,,
1645708866.593659,147.000000,0.000000,4212.692383,4209.615234,4215.256348,4206.794922,4215.384766,4227.820313,4222.563965,4229.230957,4216.282227,4222.307617,4197.051270,4190.000000,4187.307617,4225.256348,3346.000000,4.000000,91.000000,,,,0.000000,4.000000,4.000000,4.000000,4.000000,4.000000,4.000000,4.000000,4.000000,4.000000,4.000000,4.000000,4.000000,4.000000,4.000000,100.000000,,,,,,,,,,,,,,,,
1645708866.597600,148.000000,0.000000,4210.769043,4208.974121,4214.358887,4206.666504,4210.128418,4223.333496,4222.436035,4231.922852,4217.051270,4224.487305,4200.128418,4189.230957,4186.666504,4227.179688,3449.000000,4.000000,91.000000,,,,0.000000,4.000000,4.000000,4.000000,4.000000,4.000000,4.000000,4.000000,4.000000,4.000000,4.000000,4.000000,4.000000,4.000000,4.000000,100.000000,,,,,,,,,,,,,,,,
1645708866.601440,149.000000,0.000000,4210.769043,4207.820313,4215.512695,4204.358887,4209.230957,4218.333496,4223.205078,4232.563965,4216.538574,4226.025879,4201.410156,4189.102539,4185.512695,4230.000000,3298.000000,4.000000,91.000000,,,,0.000000,4.000000,4.000000,4.000000,4.000000,4.000000,4.000000,4.000000,4.000000,4.000000,4.000000,4.000000,4.000000,4.000000,4.000000,100.000000,,,,,,,,,,,,,,,,
1645708866.605380,150.000000,0.000000,4210.769043,4206.410156,4217.179688,4202.179688,4214.615234,4216.794922,4224.230957,4231.410156,4215.256348,4225.897461,4199.230957,4188.717773,4182.948730,4231.025879,2452.000000,4.000000,91.000000,,,,0.000000,4.000000,4.000000,4.000000,4.000000,4.000000,4.000000,4.000000,4.000000,4.000000,4.000000,4.000000,4.000000,4.000000,4.000000,100.000000,,,,,,,,,,,,,,,,
1645708866.609320,151.000000,0.000000,4208.974121,4205.384766,4217.179688,4201.922852,4223.846191,4219.743652,4224.102539,4228.717773,4213.717773,4224.102539,4194.230957,4187.307617,4180.000000,4228.333496,3346.000000,4.000000,91.000000,,,,0.000000,4.000000,4.000000,4.000000,4.000000,4.000000,4.000000,4.000000,4.000000,4.000000,4.000000,4.000000,4.000000,4.000000,4.000000,100.000000,,,,,,,,,,,,,,,,
1645708866.613260,152.000000,0.000000,4205.512695,4205.128418,4214.871582,4203.333496,4230.256348,4224.102539,4222.436035,4225.512695,4212.820313,4221.410156,4188.717773,4184.615234,4178.205078,4222.436035,3449.000000,4.000000,91.000000,,,,0.000000,4.000000,4.000000,4.000000,4.000000,4.000000,4.000000,4.000000,4.000000,4.000000,4.000000,4.000000,4.000000,4.000000,4.000000,100.000000,,,,,,,,,,,,,,,,
1645708866.617200,153.000000,0.000000,4202.563965,4205.641113,4212.051270,4204.615234,4228.589844,4225.000000,4219.871582,4222.563965,4212.692383,4218.333496,4185.128418,4181.282227,4178.461426,4216.282227,3298.000000,4.000000,91.000000,,,,0.000000,4.000000,4.000000,4.000000,4.000000,4.000000,4.000000,4.000000,4.000000,4.000000,4.000000,4.000000,4.000000,4.000000,4.000000,100.000000,,,,,,,,,,,,,,,,
1645708866.621140,154.000000,0.000000,4202.307617,4207.179688,4210.384766,4204.487305,4219.487305,4221.153809,4217.948730,4221.282227,4213.333496,4216.410156,4185.000000,4179.102539,4180.384766,4213.846191,2452.000000,4.000000,91.000000,,,,0.000000,4.000000,4.000000,4.000000,4.000000,4.000000,4.000000,4.000000,4.000000,4.000000,4.000000,4.000000,4.000000,4.000000,4.000000,100.000000,,,,,,,,,,,,,,,,
1645708866.625080,155.000000,0.000000,4205.512695,4210.384766,4211.025879,4204.487305,4210.256348,4216.538574,4217.948730,4222.692383,4215.384766,4217.307617,4188.974121,4179.871582,4183.461426,4217.051270,3346.000000,4.000000,91.000000,,,,0.000000,4.000000,4.000000,4.000000,4.000000,4.000000,4.000000,4.000000,4.000000,4.000000,4.000000,4.000000,4.000000,4.000000,4.000000,100.000000,,,,,,,,,,,,,,,,
1645708866.629021,156.000000,0.000000,4210.000000,4215.384766,4213.333496,4206.153809,4208.333496,4216.025879,4220.128418,4226.538574,4218.846191,4221.666504,4195.128418,4183.846191,4186.794922,4224.230957,3449.000000,4.000000,91.000000,,,,0.000000,4.000000,4.000000,4.000000,4.000000,4.000000,4.000000,4.000000,4.000000,4.000000,4.000000,4.000000,4.000000,4.000000,4.000000,100.000000,,,,,,,,,,,,,,,,
1645708866.632961,157.000000,0.000000,4213.077148,4220.128418,4215.769043,4209.743652,4214.743652,4220.512695,4222.948730,4230.897461,4222.307617,4226.666504,4200.384766,4188.974121,4188.717773,4230.512695,3298.000000,4.000000,91.000000,,,,0.000000,4.000000,4.000000,4.000000,4.000000,4.000000,4.000000,4.000000,4.000000,4.000000,4.000000,4.000000,4.000000,4.000000,4.000000,100.000000,,,,,,,,,,,,,,,,
1645708866.636901,158.000000,0.000000,4213.589844,4221.794922,4216.794922,4213.333496,4224.358887,4226.153809,4224.871582,4232.692383,4223.974121,4228.461426,4201.922852,4192.692383,4187.692383,4231.922852,2452.000000,4.000000,91.000000,,,,0.000000,4.000000,4.000000,4.000000,4.000000,4.000000,4.000000,4.000000,4.000000,4.000000,4.000000,4.000000,4.000000,4.000000,4.000000,100.000000,,,,,,,,,,,,,,,,
1645708866.640841,159.000000,0.000000,4212.436035,4220.256348,4217.051270,4215.769043,4230.128418,4228.205078,4225.000000,4230.512695,4223.333496,4226.538574,4199.871582,4193.077148,4184.743652,4228.205078,3346.000000,4.000000,91.000000,,,,0.000000,4.000000,4.000000,4.000000,4.000000,4.000000,4.000000,4.000000,4.000000,4.000000,4.000000,4.000000,4.000000,4.000000,4.000000,100.000000,,,,,,,,,,,,,,,,
1645708866.644781,160.000000,0.000000,4211.922852,4218.077148,4217.436035,4217.307617,4229.615234,4225.384766,4223.077148,4225.512695,4221.153809,4224.230957,4197.436035,4191.538574,4182.307617,4222.692383,3449.000000,4.000000,91.000000,,,,0.000000,4.000000,4.000000,4.000000,4.000000,4.000000,4.000000,4.000000,4.000000,4.000000,4.000000,4.000000,4.000000,4.000000,4.000000,100.000000,,,,,,,,,,,,,,,,
1645708866.648721,161.000000,0.000000,4213.333496,4218.333496,4218.589844,4218.974121,4224.230957,4220.384766,4218.974121,4219.871582,4219.102539,4224.871582,4197.307617,4190.384766,4182.563965,4219.358887,3298.000000,4.000000,91.000000,,,,0.000000,4.000000,4.000000,4.000000,4.000000,4.000000,4.000000,4.000000,4.000000,4.000000,4.000000,4.000000,4.000000,4.000000,4.000000,100.000000,,,,,,,,,,,,,,,,
1645708866.652661,162.000000,0.000000,4216.282227,4221.153809,4219.102539,4221.153809,4216.794922,4215.384766,4212.948730,4215.769043,4217.179688,4227.051270,4199.615234,4190.512695,4184.487305,4218.461426,2452.000000,4.000000,91.000000,,,,0.000000,4.000000,4.000000,4.000000,4.000000,4.000000,4.000000,4.000000,4.000000,4.000000,4.000000,4.000000,4.000000,4.000000,4.000000,100.000000,,,,,,,,,,,,,,,,
1645708866.656601,163.000000,0.000000,4217.948730,4224.230957,4217.563965,4222.307617,4209.487305,4211.282227,4206.666504,4213.589844,4214.615234,4226.538574,4201.538574,4191.025879,4184.871582,4217.820313,3346.000000,4.000000,91.000000,,,,0.000000,4.000000,4.000000,4.000000,4.000000,4.000000,4.000000,4.000000,4.000000,4.000000,4.000000,4.000000,4.000000,4.000000,4.000000,100.000000,,,,,,,,,,,,,,,,
1645708866.660541,164.000000,0.000000,4215.769043,4225.256348,4213.846191,4221.794922,4204.230957,4208.205078,4202.820313,4212.307617,4211.282227,4220.641113,4201.410156,4190.256348,4182.051270,4215.769043,3449.000000,4.000000,91.000000,,,,0.000000,4.000000,4.000000,4.000000,4.000000,4.000000,4.000000,4.000000,4.000000,4.000000,4.000000,4.000000,4.000000,4.000000,4.000000,100.000000,,,,,,,,,,,,,,,,
1645708866.664481,165.000000,0.000000,4209.358887,4223.846191,4209.743652,4220.256348,4203.333496,4207.563965,4203.461426,4211.410156,4208.846191,4211.922852,4200.512695,4188.589844,4177.820313,4214.230957,3298.000000,4.000000,91.000000,,,,0.000000,4.000000,4.000000,4.000000,4.000000,4.000000,4.000000,4.000000,4.000000,4.000000,4.000000,4.000000,4.000000,4.000000,4.000000,100.000000,,,,,,,,,,,,,,,,
1645708866.668422,166.000000,0.000000,4202.051270,4221.282227,4206.794922,4218.974121,4207.692383,4211.153809,4207.948730,4211.025879,4209.102539,4205.641113,4200.897461,4188.077148,4175.897461,4216.153809,2452.000000,4.000000,91.000000,,,,0.000000,4.000000,4.000000,4.000000,4.000000,4.000000,4.000000,4.000000,4.000000,4.000000,4.000000,4.000000,4.000000,4.000000,4.000000,100.000000,,,,,,,,,,,,,,,,
1645708866.672362,167.000000,0.000000,4198.333496,4218.717773,4206.282227,4218.974121,4213.846191,4217.051270,4213.205078,4211.794922,4212.436035,4205.256348,4202.820313,4189.615234,4178.589844,4222.051270,3346.000000,4.000000,91.000000,,,,0.000000,4.000000,4.000000,4.000000,4.000000,4.000000,4.000000,4.000000,4.000000,4.000000,4.000000,4.000000,4.000000,4.000000,4.000000,100.000000,,,,,,,,,,,,,,,,
1645708866.676202,168.000000,0.000000,4200.769043,4216.282227,4208.077148,4219.871582,4216.538574,4221.666504,4215.641113,4214.230957,4216.794922,4209.487305,4203.717773,4191.922852,4184.358887,4228.461426,3449.000000,4.000000,91.000000,,,,0.000000,4.000000,4.000000,4.000000,4.000000,4.000000,4.000000,4.000000,4.000000,4.000000,4.000000,4.000000,4.000000,4.000000,4.000000,100.000000,,,,,,,,,,,,,,,,
1645708866.680142,169.000000,0.000000,4207.563965,4214.358887,4211.538574,4220.512695,4213.717773,4221.922852,4214.358887,4217.179688,4219.230957,4213.589844,4202.179688,4193.461426,4188.717773,4230.897461,3298.000000,4.000000,91.000000,,,,0.000000,4.000000,4.000000,4.000000,4.000000,4.000000,4.000000,4.000000,4.000000,4.000000,4.000000,4.000000,4.000000,4.000000,4.000000,100.000000,,,,,,,,,,,,,,,,
1645708866.684082,170.000000,0.000000,4213.717773,4213.846191,4215.000000,4220.897461,4208.846191,4219.358887,4211.153809,4218.974121,4218.974121,4213.974121,4199.743652,4193.333496,4188.717773,4228.461426,2452.000000,4.000000,91.000000,,,,0.000000,4.000000,4.000000,4.000000,4.000000,4.000000,4.000000,4.000000,4.000000,4.000000,4.000000,4.000000,4.000000,4.000000,4.000000,100.000000,,,,,,,,,,,,,,,,
1645708866.688022,171.000000,0.000000,4215.128418,4215.256348,4216.538574,4220.641113,4206.666504,4216.666504,4208.333496,4218.333496,4216.794922,4211.282227,4199.102539,4191.794922,4184.871582,4223.205078,3346.000000,4.000000,91.000000,,,,0.000000,4.000000,4.000000,4.000000,4.000000,4.000000,4.000000,4.000000,4.000000,4.000000,4.000000,4.000000,4.000000,4.000000,4.000000,100.000000,,,,,,,,,,,,,,,,
1645708866.691962,172.000000,0.000000,4211.153809,4216.922852,4214.743652,4219.102539,4207.948730,4215.769043,4207.051270,4215.384766,4215.000000,4207.948730,4200.256348,4189.487305,4179.871582,4218.205078,3449.000000,4.000000,91.000000,,,,0.000000,4.000000,4.000000,4.000000,4.000000,4.000000,4.000000,4.000000,4.000000,4.000000,4.000000,4.000000,4.000000,4.000000,4.000000,100.000000,,,,,,,,,,,,,,,,
1645708866.695902,173.000000,0.000000,4205.384766,4216.666504,4210.384766,4216.025879,4210.000000,4215.512695,4206.666504,4211.794922,4215.000000,4205.769043,4201.153809,4186.538574,4176.538574,4215.128418,3298.000000,4.000000,91.000000,,,,0.000000,4.000000,4.000000,4.000000,4.000000,4.000000,4.000000,4.000000,4.000000,4.000000,4.000000,4.000000,4.000000,4.000000,4.000000,100.000000,,,,,,,,,,,,,,,,
1645708866.699843,174.000000,0.000000,4202.563965,4214.358887,4206.153809,4212.307617,4210.256348,4215.000000,4207.179688,4210.256348,4217.179688,4204.743652,4200.128418,4183.589844,4177.179688,4214.743652,2452.000000,4.000000,91.000000,,,,0.000000,4.000000,4.000000,4.000000,4.000000,4.000000,4.000000,4.000000,4.000000,4.000000,4.000000,4.000000,4.000000,4.000000,4.000000,100.000000,,,,,,,,,,,,,,,,
1645708866.703783,175.000000,0.000000,4204.743652,4212.436035,4205.128418,4210.769043,4210.128418,4215.128418,4209.230957,4212.179688,4220.512695,4204.487305,4198.461426,4182.179688,4182.051270,4217.051270,3346.000000,4.000000,91.000000,,,,0.000000,4.000000,4.000000,4.000000,4.000000,4.000000,4.000000,4.000000,4.000000,4.000000,4.000000,4.000000,4.000000,4.000000,4.000000,100.000000,,,,,,,,,,,,,,,,
1645708866.707723,176.000000,0.000000,4210.000000,4213.461426,4207.948730,4213.333496,4212.436035,4217.307617,4212.563965,4216.794922,4223.461426,4205.000000,4198.589844,4183.461426,4189.615234,4221.410156,3449.000000,4.000000,91.000000,,,,0.000000,4.000000,4.000000,4.000000,4.000000,4.000000,4.000000,4.000000,4.000000,4.000000,4.000000,4.000000,4.000000,4.000000,4.000000,100.000000,,,,,,,,,,,,,,,,
1645708866.711663,177.000000,0.000000,4213.846191,4216.538574,4212.436035,4218.205078,4216.282227,4220.897461,4215.384766,4221.538574,4224.615234,4206.282227,4200.384766,4186.025879,4196.538574,4224.743652,3298.000000,4.000000,91.000000,,,,0.000000,4.000000,4.000000,4.000000,4.000000,4.000000,4.000000,4.000000,4.000000,4.000000,4.000000,4.000000,4.000000,4.000000,4.000000,100.000000,,,,,,,,,,,,,,,,
1645708866.715603,178.000000,0.000000,4213.333496,4217.820313,4215.128418,4220.897461,4216.794922,4222.692383,4215.641113,4223.589844,4223.461426,4207.436035,4201.153809,4186.794922,4199.871582,4224.102539,2452.000000,4.000000,91.000000,,,,0.000000,4.000000,4.000000,4.000000,4.000000,4.000000,4.000000,4.000000,4.000000,4.000000,4.000000,4.000000,4.000000,4.000000,4.000000,100.000000,1.000000,100.000000,4.000000,4.000000,4.000000,4.000000,4.000000,4.000000,4.000000,4.000000,4.000000,4.000000,4.000000,4.000000,4.000000,4.000000
1645708866.719543,179.000000,0.000000,4208.974121,4215.128418,4214.102539,4218.589844,4210.769043,4220.384766,4212.820313,4222.307617,4221.025879,4208.461426,4198.461426,4183.974121,4199.743652,4218.846191,3346.000000,4.000000,91.000000,,,,0.000000,4.000000,4.000000,4.000000,4.000000,4.000000,4.000000,4.000000,4.000000,4.000000,4.000000,4.000000,4.000000,4.000000,4.000000,100.000000,,,,,,,,,,,,,,,,
1645708866.723483,180.000000,0.000000,4204.615234,4210.897461,4210.000000,4213.846191,4201.025879,4215.512695,4208.974121,4219.358887,4219.230957,4210.769043,4194.102539,4179.487305,4198.974121,4212.692383,3449.000000,4.000000,91.000000,,,,0.000000,4.000000,4.000000,4.000000,4.000000,4.000000,4.000000,4.000000,4.000000,4.000000,4.000000,4.000000,4.000000,4.000000,4.000000,100.000000,,,,,,,,,,,,,,,,
1645708866.727423,181.000000,0.000000,4203.461426,4209.487305,4205.384766,4212.051270,4195.384766,4211.794922,4206.538574,4216.922852,4220.000000,4215.641113,4193.077148,4177.051270,4200.897461,4210.641113,3298.000000,4.000000,91.000000,,,,0.000000,4.000000,4.000000,4.000000,4.000000,4.000000,4.000000,4.000000,4.000000,4.000000,4.000000,4.000000,4.000000,4.000000,4.000000,100.000000,,,,,,,,,,,,,,,,
1645708866.731363,182.000000,0.000000,4205.769043,4212.948730,4202.563965,4215.897461,4198.461426,4212.051270,4206.666504,4216.922852,4223.205078,4221.538574,4198.589844,4178.589844,4205.384766,4213.974121,2452.000000,4.000000,91.000000,,,,0.000000,4.000000,4.000000,4.000000,4.000000,4.000000,4.000000,4.000000,4.000000,4.000000,4.000000,4.000000,4.000000,4.000000,4.000000,100.000000,,,,,,,,,,,,,,,,
1645708866.735303,183.000000,0.000000,4208.461426,4217.692383,4202.948730,4221.794922,4207.820313,4215.128418,4208.846191,4219.487305,4226.666504,4224.871582,4207.820313,4182.436035,4209.743652,4219.102539,3346.000000,4.000000,91.000000,,,,0.000000,4.000000,4.000000,4.000000,4.000000,4.000000,4.000000,4.000000,4.000000,4.000000,4.000000,4.000000,4.000000,4.000000,4.000000,100.000000,,,,,,,,,,,,,,,,
1645708866.739244,184.000000,0.000000,4208.205078,4218.205078,4205.512695,4224.358887,4216.153809,4218.205078,4211.410156,4223.077148,4228.461426,4223.205078,4214.230957,4185.000000,4211.025879,4221.025879,3449.000000,4.000000,91.000000,,,,0.000000,4.000000,4.000000,4.000000,4.000000,4.000000,4.000000,4.000000,4.000000,4.000000,4.000000,4.000000,4.000000,4.000000,4.000000,100.000000,,,,,,,,,,,,,,,,
1645708866.743184,185.000000,0.000000,4204.102539,4212.948730,4207.051270,4221.922852,4218.205078,4219.615234,4213.461426,4225.128418,4227.820313,4217.948730,4213.461426,4183.589844,4208.974121,4218.461426,3298.000000,4.000000,91.000000,,,,0.000000,4.000000,4.000000,4.000000,4.000000,4.000000,4.000000,4.000000,4.000000,4.000000,4.000000,4.000000,4.000000,4.000000,4.000000,100.000000,,,,,,,,,,,,,,,,
1645708866.747124,186.000000,0.000000,4198.974121,4205.641113,4205.512695,4218.333496,4215.256348,4220.384766,4214.358887,4223.846191,4225.897461,4213.461426,4206.666504,4178.846191,4206.025879,4214.230957,2452.000000,4.000000,91.000000,,,,0.000000,4.000000,4.000000,4.000000,4.000000,4.000000,4.000000,4.000000,4.000000,4.000000,4.000000,4.000000,4.000000,4.000000,4.000000,100.000000,,,,,,,,,,,,,,,,
1645708866.750964,187.000000,0.000000,4196.410156,4201.538574,4201.794922,4217.948730,4211.666504,4221.666504,4213.846191,4218.974121,4224.230957,4212.436035,4198.974121,4173.333496,4205.000000,4212.179688,3346.000000,4.000000,91.000000,,,,0.000000,4.000000,4.000000,4.000000,4.000000,4.000000,4.000000,4.000000,4.000000,4.000000,4.000000,4.000000,4.000000,4.000000,4.000000,100.000000,,,,,,,,,,,,,,,,
1645708866.754904,188.000000,0.000000,4198.205078,4203.077148,4198.974121,4221.794922,4210.128418,4223.077148,4211.922852,4212.563965,4223.333496,4213.589844,4194.487305,4170.128418,4206.538574,4212.820313,3449.000000,4.000000,91.000000,,,,0.000000,4.000000,4.000000,4.000000,4.000000,4.000000,4.000000,4.000000,4.000000,4.000000,4.000000,4.000000,4.000000,4.000000,4.000000,100.000000,,,,,,,,,,,,,,,,
1645708866.758844,189.000000,0.000000,4202.692383,4207.820313,4199.871582,4227.051270,4210.128418,4223.717773,4209.615234,4208.077148,4223.333496,4214.487305,4194.230957,4171.282227,4209.230957,4215.128418,3298.000000,4.000000,91.000000,,,,0.000000,4.000000,4.000000,4.000000,4.000000,4.000000,4.000000,4.000000,4.000000,4.000000,4.000000,4.000000,4.000000,4.000000,4.000000,100.000000,,,,,,,,,,,,,,,,
1645708866.762784,190.000000,0.000000,4207.307617,4212.563965,4204.358887,4230.641113,4211.794922,4223.974121,4208.589844,4208.846191,4224.230957,4215.384766,4197.563965,4176.538574,4211.282227,4218.589844,2452.000000,4.000000,91.000000,,,,0.000000,4.000000,4.000000,4.000000,4.000000,4.000000,4.000000,4.000000,4.000000,4.000000,4.000000,4.000000,4.000000,4.000000,4.000000,100.000000,,,,,,,,,,,,,,,,
1645708866.766724,191.000000,0.000000,4210.641113,4215.897461,4209.743652,4232.179688,4215.897461,4225.128418,4209.743652,4215.000000,4226.282227,4218.717773,4203.205078,4183.717773,4212.948730,4223.717773,3346.000000,4.000000,91.000000,,,,0.000000,4.000000,4.000000,4.000000,4.000000,4.000000,4.000000,4.000000,4.000000,4.000000,4.000000,4.000000,4.000000,4.000000,4.000000,100.000000,,,,,,,,,,,,,,,,
1645708866.770665,192.000000,0.000000,4212.820313,4217.820313,4213.461426,4232.692383,4221.666504,4227.179688,4211.538574,4222.820313,4229.102539,4224.358887,4209.615234,4189.871582,4215.000000,4230.256348,3449.000000,4.000000,91.000000,,,,0.000000,4.000000,4.000000,4.000000,4.000000,4.000000,4.000000,4.000000,4.000000,4.000000,4.000000,4.000000,4.000000,4.000000,4.000000,100.000000,,,,,,,,,,,,,,,,
1645708866.774605,193.000000,0.000000,4214.871582,4218.974121,4214.871582,4232.948730,4225.000000,4228.077148,4211.922852,4227.436035,4231.410156,4228.589844,4214.871582,4192.563965,4216.922852,4235.641113,3298.000000,4.000000,91.000000,,,,0.000000,4.000000,4.000000,4.000000,4.000000,4.000000,4.000000,4.000000,4.000000,4.000000,4.000000,4.000000,4.000000,4.000000,4.000000,100.000000,,,,,,,,,,,,,,,,
