title:Alex-Ix7Z7w-P45fb1uF7Tz3xdA, start timestamp:1645710368.134449, stop timestamp:1645710394.120276, headset type:EPOCPLUS, headset serial:3B9AEBFF, headset firmware:626, channels:55, sampling rate:eeg_256, samples:6599      , version:2.1, 
Timestamp,EEG.Counter,EEG.Interpolated,EEG.AF3,EEG.F7,EEG.F3,EEG.FC5,EEG.T7,EEG.P7,EEG.O1,EEG.O2,EEG.P8,EEG.T8,EEG.FC6,EEG.F4,EEG.F8,EEG.AF4,EEG.RawCq,EEG.Battery,EEG.BatteryPercent,MarkerIndex,MarkerType,MarkerValueInt,EEG.MarkerHardware,CQ.AF3,CQ.F7,CQ.F3,CQ.FC5,CQ.T7,CQ.P7,CQ.O1,CQ.O2,CQ.P8,CQ.T8,CQ.FC6,CQ.F4,CQ.F8,CQ.AF4,CQ.Overall,EQ.SampleRateQuality,EQ.OVERALL,EQ.AF3,EQ.F7,EQ.F3,EQ.FC5,EQ.T7,EQ.P7,EQ.O1,EQ.O2,EQ.P8,EQ.T8,EQ.FC6,EQ.F4,EQ.F8,EQ.AF4
1645710368.134449,208.000000,0.000000,4243.077148,4225.384766,4241.153809,4253.974121,4233.717773,4239.615234,4247.051270,4247.051270,4252.820313,4244.102539,4240.897461,4201.794922,4257.948730,4235.000000,3388.000000,4.000000,86.000000,,,,0.000000,4.000000,4.000000,4.000000,4.000000,4.000000,4.000000,4.000000,4.000000,4.000000,4.000000,4.000000,4.000000,4.000000,4.000000,100.000000,,,,,,,,,,,,,,,,
1645710368.138489,209.000000,0.000000,4248.205078,4235.256348,4248.974121,4252.820313,4234.871582,4240.000000,4248.846191,4250.512695,4256.666504,4247.692383,4246.282227,4204.230957,4261.025879,4244.358887,2940.000000,4.000000,86.000000,,,,0.000000,4.000000,4.000000,4.000000,4.000000,4.000000,4.000000,4.000000,4.000000,4.000000,4.000000,4.000000,4.000000,4.000000,4.000000,100.000000,,,,,,,,,,,,,,,,
1645710368.142429,210.000000,0.000000,4250.769043,4242.820313,4254.102539,4242.692383,4233.846191,4240.384766,4250.256348,4252.307617,4258.333496,4250.128418,4249.871582,4202.692383,4260.512695,4250.897461,2367.000000,4.000000,86.000000,,,,0.000000,4.000000,4.000000,4.000000,4.000000,4.000000,4.000000,4.000000,4.000000,4.000000,4.000000,4.000000,4.000000,4.000000,4.000000,100.000000,,,,,,,,,,,,,,,,
1645710368.146369,211.000000,0.000000,4250.384766,4243.974121,4254.615234,4228.589844,4230.769043,4240.256348,4250.128418,4250.512695,4256.153809,4249.230957,4250.641113,4198.717773,4257.948730,4251.025879,2725.000000,4.000000,86.000000,,,,0.000000,4.000000,4.000000,4.000000,4.000000,4.000000,4.000000,4.000000,4.000000,4.000000,4.000000,4.000000,4.000000,4.000000,4.000000,100.000000,,,,,,,,,,,,,,,,
1645710368.150309,212.000000,0.000000,4248.846191,4239.487305,4250.384766,4217.820313,4226.025879,4238.589844,4248.205078,4245.512695,4250.897461,4244.487305,4246.794922,4194.871582,4254.487305,4244.230957,3388.000000,4.000000,86.000000,,,,0.000000,4.000000,4.000000,4.000000,4.000000,4.000000,4.000000,4.000000,4.000000,4.000000,4.000000,4.000000,4.000000,4.000000,4.000000,100.000000,,,,,,,,,,,,,,,,
1645710368.154249,213.000000,0.000000,4247.307617,4234.102539,4244.102539,4216.794922,4221.922852,4235.897461,4245.512695,4240.384766,4245.512695,4237.948730,4238.077148,4191.922852,4251.153809,4234.230957,2940.000000,4.000000,86.000000,,,,0.000000,4.000000,4.000000,4.000000,4.000000,4.000000,4.000000,4.000000,4.000000,4.000000,4.000000,4.000000,4.000000,4.000000,4.000000,100.000000,,,,,,,,,,,,,,,,
1645710368.158190,214.000000,0.000000,4245.512695,4232.436035,4239.358887,4226.410156,4221.282227,4233.846191,4243.589844,4238.077148,4243.077148,4233.846191,4228.205078,4189.358887,4248.461426,4226.922852,2367.000000,4.000000,86.000000,,,,0.000000,4.000000,4.000000,4.000000,4.000000,4.000000,4.000000,4.000000,4.000000,4.000000,4.000000,4.000000,4.000000,4.000000,4.000000,100.000000,,,,,,,,,,,,,,,,
1645710368.162130,215.000000,0.000000,4243.461426,4233.589844,4238.717773,4242.179688,4225.897461,4234.487305,4243.589844,4239.871582,4244.487305,4235.128418,4222.179688,4186.538574,4247.563965,4226.410156,2725.000000,4.000000,86.000000,,,,0.000000,4.000000,4.000000,4.000000,4.000000,4.000000,4.000000,4.000000,4.000000,4.000000,4.000000,4.000000,4.000000,4.000000,4.000000,100.000000,,,,,,,,,,,,,,,,
1645710368.166070,216.000000,0.000000,4242.563965,4233.717773,4241.922852,4255.641113,4233.077148,4237.436035,4245.384766,4243.846191,4247.948730,4240.641113,4222.563965,4184.230957,4248.717773,4232.436035,3388.000000,4.000000,86.000000,,,,0.000000,4.000000,4.000000,4.000000,4.000000,4.000000,4.000000,4.000000,4.000000,4.000000,4.000000,4.000000,4.000000,4.000000,4.000000,100.000000,,,,,,,,,,,,,,,,
1645710368.170010,217.000000,0.000000,4244.102539,4230.384766,4246.410156,4259.615234,4237.948730,4240.128418,4246.666504,4247.051270,4250.512695,4245.384766,4227.820313,4183.717773,4250.641113,4240.897461,2940.000000,4.000000,86.000000,,,,0.000000,4.000000,4.000000,4.000000,4.000000,4.000000,4.000000,4.000000,4.000000,4.000000,4.000000,4.000000,4.000000,4.000000,4.000000,100.000000,,,,,,,,,,,,,,,,
1645710368.173950,218.000000,0.000000,4247.820313,4226.922852,4249.358887,4253.461426,4237.179688,4240.128418,4245.769043,4247.436035,4250.128418,4245.769043,4234.102539,4185.641113,4251.922852,4247.051270,2367.000000,4.000000,86.000000,,,,0.000000,4.000000,4.000000,4.000000,4.000000,4.000000,4.000000,4.000000,4.000000,4.000000,4.000000,4.000000,4.000000,4.000000,4.000000,100.000000,,,,,,,,,,,,,,,,
1645710368.177890,219.000000,0.000000,4251.153809,4228.846191,4249.743652,4242.563965,4232.051270,4236.794922,4242.948730,4245.000000,4247.820313,4242.179688,4239.230957,4189.358887,4252.436035,4248.589844,2725.000000,4.000000,86.000000,,,,0.000000,4.000000,4.000000,4.000000,4.000000,4.000000,4.000000,4.000000,4.000000,4.000000,4.000000,4.000000,4.000000,4.000000,4.000000,100.000000,,,,,,,,,,,,,,,,
1645710368.181830,220.000000,0.000000,4252.307617,4237.820313,4248.461426,4234.743652,4227.051270,4232.563965,4240.641113,4242.179688,4245.769043,4238.974121,4243.333496,4194.615234,4253.205078,4246.282227,3388.000000,4.000000,86.000000,,,,0.000000,4.000000,4.000000,4.000000,4.000000,4.000000,4.000000,4.000000,4.000000,4.000000,4.000000,4.000000,4.000000,4.000000,4.000000,100.000000,,,,,,,,,,,,,,,,
1645710368.185770,221.000000,0.000000,4251.922852,4249.743652,4247.692383,4234.102539,4225.256348,4229.743652,4240.641113,4241.410156,4246.025879,4240.000000,4246.922852,4200.512695,4254.871582,4243.205078,2940.000000,4.000000,86.000000,,,,0.000000,4.000000,4.000000,4.000000,4.000000,4.000000,4.000000,4.000000,4.000000,4.000000,4.000000,4.000000,4.000000,4.000000,4.000000,100.000000,,,,,,,,,,,,,,,,
1645710368.189710,222.000000,0.000000,4252.179688,4256.794922,4248.717773,4238.717773,4226.410156,4229.358887,4242.948730,4243.974121,4247.692383,4244.230957,4249.358887,4205.384766,4256.410156,4240.512695,2367.000000,4.000000,86.000000,,,,0.000000,4.000000,4.000000,4.000000,4.000000,4.000000,4.000000,4.000000,4.000000,4.000000,4.000000,4.000000,4.000000,4.000000,4.000000,100.000000,,,,,,,,,,,,,,,,
1645710368.193651,223.000000,0.000000,4253.974121,4253.846191,4251.025879,4243.846191,4228.077148,4230.769043,4245.769043,4248.717773,4248.717773,4247.563965,4249.230957,4207.307617,4256.666504,4238.461426,2725.000000,4.000000,86.000000,,,,0.000000,4.000000,4.000000,4.000000,4.000000,4.000000,4.000000,4.000000,4.000000,4.000000,4.000000,4.000000,4.000000,4.000000,4.000000,100.000000,,,,,,,,,,,,,,,,
1645710368.197591,224.000000,0.000000,4255.256348,4243.589844,4252.820313,4246.282227,4228.333496,4232.948730,4247.179688,4252.436035,4247.820313,4247.051270,4245.897461,4205.256348,4254.871582,4236.153809,3388.000000,4.000000,86.000000,,,,0.000000,4.000000,4.000000,4.000000,4.000000,4.000000,4.000000,4.000000,4.000000,4.000000,4.000000,4.000000,4.000000,4.000000,4.000000,100.000000,,,,,,,,,,,,,,,,
1645710368.201531,225.000000,0.000000,4253.717773,4233.717773,4251.282227,4245.769043,4227.051270,4234.743652,4246.282227,4251.794922,4245.769043,4243.589844,4239.871582,4199.871582,4251.538574,4233.846191,2940.000000,4.000000,86.000000,,,,0.000000,4.000000,4.000000,4.000000,4.000000,4.000000,4.000000,4.000000,4.000000,4.000000,4.000000,4.000000,4.000000,4.000000,4.000000,100.000000,,,,,,,,,,,,,,,,
1645710368.205471,226.000000,0.000000,4249.230957,4229.743652,4245.512695,4242.307617,4224.871582,4235.384766,4243.846191,4246.025879,4244.615234,4240.512695,4233.461426,4192.948730,4248.077148,4232.051270,2367.000000,4.000000,86.000000,,,,0.000000,4.000000,4.000000,4.000000,4.000000,4.000000,4.000000,4.000000,4.000000,4.000000,4.000000,4.000000,4.000000,4.000000,4.000000,100.000000,,,,,,,,,,,,,,,,
1645710368.209411,227.000000,0.000000,4244.615234,4231.538574,4237.051270,4236.538574,4222.820313,4234.487305,4241.025879,4238.333496,4244.487305,4239.230957,4229.487305,4186.922852,4245.641113,4231.666504,2725.000000,4.000000,86.000000,,,,0.000000,4.000000,4.000000,4.000000,4.000000,4.000000,4.000000,4.000000,4.000000,4.000000,4.000000,4.000000,4.000000,4.000000,4.000000,100.000000,,,,,,,,,,,,,,,,
1645710368.213351,228.000000,0.000000,4241.794922,4233.974121,4229.358887,4229.743652,4221.794922,4233.077148,4238.846191,4233.461426,4244.230957,4238.205078,4230.128418,4182.692383,4244.743652,4232.179688,3388.000000,4.000000,86.000000,,,,0.000000,4.000000,4.000000,4.000000,4.000000,4.000000,4.000000,4.000000,4.000000,4.000000,4.000000,4.000000,4.000000,4.000000,4.000000,100.000000,,,,,,,,,,,,,,,,
1645710368.217291,229.000000,0.000000,4240.256348,4232.563965,4225.384766,4223.974121,4221.794922,4232.436035,4238.461426,4233.717773,4242.436035,4235.512695,4235.000000,4180.000000,4245.000000,4232.820313,2940.000000,4.000000,86.000000,,,,0.000000,4.000000,4.000000,4.000000,4.000000,4.000000,4.000000,4.000000,4.000000,4.000000,4.000000,4.000000,4.000000,4.000000,4.000000,100.000000,,,,,,,,,,,,,,,,
1645710368.221231,230.000000,0.000000,4237.948730,4227.307617,4225.641113,4220.897461,4222.563965,4233.589844,4239.743652,4237.820313,4240.000000,4231.538574,4240.384766,4177.436035,4245.512695,4232.692383,2367.000000,4.000000,86.000000,,,,0.000000,4.000000,4.000000,4.000000,4.000000,4.000000,4.000000,4.000000,4.000000,4.000000,4.000000,4.000000,4.000000,4.000000,4.000000,100.000000,,,,,,,,,,,,,,,,
1645710368.225271,231.000000,0.000000,4234.615234,4222.820313,4228.461426,4221.025879,4223.461426,4235.128418,4241.282227,4242.692383,4239.102539,4228.589844,4241.794922,4173.846191,4245.128418,4231.153809,2725.000000,4.000000,86.000000,,,,0.000000,4.000000,4.000000,4.000000,4.000000,4.000000,4.000000,4.000000,4.000000,4.000000,4.000000,4.000000,4.000000,4.000000,4.000000,100.000000,,,,,,,,,,,,,,,,
1645710368.229211,232.000000,0.000000,4232.563965,4223.461426,4231.794922,4223.717773,4223.717773,4234.871582,4240.641113,4245.897461,4241.153809,4228.974121,4237.692383,4170.000000,4243.077148,4229.230957,3388.000000,4.000000,86.000000,,,,0.000000,4.000000,4.000000,4.000000,4.000000,4.000000,4.000000,4.000000,4.000000,4.000000,4.000000,4.000000,4.000000,4.000000,4.000000,100.000000,,,,,,,,,,,,,,,,
1645710368.233151,233.000000,0.000000,4233.589844,4228.974121,4233.461426,4227.820313,4223.461426,4231.794922,4237.179688,4245.641113,4244.102539,4232.948730,4230.128418,4167.436035,4240.512695,4228.205078,2940.000000,4.000000,86.000000,,,,0.000000,4.000000,4.000000,4.000000,4.000000,4.000000,4.000000,4.000000,4.000000,4.000000,4.000000,4.000000,4.000000,4.000000,4.000000,100.000000,,,,,,,,,,,,,,,,
1645710368.237092,234.000000,0.000000,4236.794922,4235.128418,4232.948730,4231.666504,4223.974121,4227.692383,4232.948730,4242.307617,4245.128418,4237.948730,4223.974121,4167.692383,4239.743652,4228.846191,2367.000000,4.000000,86.000000,,,,0.000000,4.000000,4.000000,4.000000,4.000000,4.000000,4.000000,4.000000,4.000000,4.000000,4.000000,4.000000,4.000000,4.000000,4.000000,100.000000,,,,,,,,,,,,,,,,
1645710368.241032,235.000000,0.000000,4239.487305,4238.205078,4230.769043,4234.615234,4225.769043,4225.641113,4231.666504,4237.436035,4243.077148,4240.769043,4222.948730,4171.538574,4241.922852,4230.641113,2725.000000,4.000000,86.000000,,,,0.000000,4.000000,4.000000,4.000000,4.000000,4.000000,4.000000,4.000000,4.000000,4.000000,4.000000,4.000000,4.000000,4.000000,4.000000,100.000000,,,,,,,,,,,,,,,,
1645710368.244972,236.000000,0.000000,4240.384766,4237.820313,4228.717773,4236.025879,4228.205078,4227.307617,4234.487305,4233.077148,4240.000000,4239.615234,4227.307617,4178.077148,4246.282227,4231.538574,3388.000000,4.000000,86.000000,,,,0.000000,4.000000,4.000000,4.000000,4.000000,4.000000,4.000000,4.000000,4.000000,4.000000,4.000000,4.000000,4.000000,4.000000,4.000000,100.000000,,,,,,,,,,,,,,,,
1645710368.248912,237.000000,0.000000,4240.769043,4236.025879,4227.948730,4235.000000,4229.743652,4230.897461,4239.358887,4231.666504,4238.846191,4235.897461,4234.358887,4185.128418,4249.743652,4230.384766,2940.000000,4.000000,86.000000,,,,0.000000,4.000000,4.000000,4.000000,4.000000,4.000000,4.000000,4.000000,4.000000,4.000000,4.000000,4.000000,4.000000,4.000000,4.000000,100.000000,,,,,,,,,,,,,,,,
1645710368.252852,238.000000,0.000000,4242.179688,4233.846191,4228.846191,4232.307617,4229.487305,4233.333496,4242.692383,4234.102539,4240.769043,4232.948730,4240.769043,4190.128418,4250.384766,4228.077148,2367.000000,4.000000,86.000000,,,,0.000000,4.000000,4.000000,4.000000,4.000000,4.000000,4.000000,4.000000,4.000000,4.000000,4.000000,4.000000,4.000000,4.000000,4.000000,100.000000,,,,,,,,,,,,,,,,
1645710368.256792,239.000000,0.000000,4244.230957,4230.128418,4230.512695,4231.410156,4227.820313,4232.820313,4242.436035,4238.974121,4244.230957,4233.846191,4244.615234,4191.538574,4249.743652,4227.563965,2725.000000,4.000000,86.000000,,,,0.000000,4.000000,4.000000,4.000000,4.000000,4.000000,4.000000,4.000000,4.000000,4.000000,4.000000,4.000000,4.000000,4.000000,4.000000,100.000000,,,,,,,,,,,,,,,,
1645710368.260732,240.000000,0.000000,4245.128418,4225.256348,4231.794922,4235.641113,4226.025879,4230.256348,4239.487305,4243.205078,4246.794922,4238.589844,4245.641113,4189.487305,4249.743652,4231.282227,3388.000000,4.000000,86.000000,,,,0.000000,4.000000,4.000000,4.000000,4.000000,4.000000,4.000000,4.000000,4.000000,4.000000,4.000000,4.000000,4.000000,4.000000,4.000000,100.000000,1.000000,41.666668,4.000000,4.000000,3.000000,4.000000,1.000000,1.000000,3.000000,4.000000,4.000000,3.000000,4.000000,4.000000,4.000000,4.000000
1645710368.264672,241.000000,0.000000,4244.358887,4221.538574,4232.307617,4243.974121,4225.256348,4228.205078,4236.153809,4244.230957,4246.410156,4243.846191,4244.871582,4185.897461,4251.410156,4238.846191,2940.000000,4.000000,86.000000,,,,0.000000,4.000000,4.000000,4.000000,4.000000,4.000000,4.000000,4.000000,4.000000,4.000000,4.000000,4.000000,4.000000,4.000000,4.000000,100.000000,,,,,,,,,,,,,,,,
1645710368.268612,242.000000,0.000000,4243.717773,4222.436035,4232.307617,4250.000000,4226.025879,4228.461426,4234.871582,4241.922852,4243.461426,4245.897461,4243.589844,4183.589844,4253.717773,4247.051270,2367.000000,4.000000,86.000000,,,,0.000000,4.000000,4.000000,4.000000,4.000000,4.000000,4.000000,4.000000,4.000000,4.000000,4.000000,4.000000,4.000000,4.000000,4.000000,100.000000,,,,,,,,,,,,,,,,
1645710368.272553,243.000000,0.000000,4245.000000,4229.102539,4232.436035,4247.820313,4227.179688,4230.769043,4236.794922,4238.846191,4240.769043,4243.717773,4243.461426,4184.487305,4255.256348,4251.538574,2725.000000,4.000000,86.000000,,,,0.000000,4.000000,4.000000,4.000000,4.000000,4.000000,4.000000,4.000000,4.000000,4.000000,4.000000,4.000000,4.000000,4.000000,4.000000,100.000000,,,,,,,,,,,,,,,,
1645710368.276493,244.000000,0.000000,4247.307617,4238.461426,4233.333496,4236.666504,4227.307617,4233.333496,4240.641113,4237.692383,4241.153809,4239.871582,4245.641113,4188.717773,4255.384766,4249.871582,3388.000000,4.000000,86.000000,,,,0.000000,4.000000,4.000000,4.000000,4.000000,4.000000,4.000000,4.000000,4.000000,4.000000,4.000000,4.000000,4.000000,4.000000,4.000000,100.000000,,,,,,,,,,,,,,,,
1645710368.280433,245.000000,0.000000,4247.948730,4245.512695,4234.615234,4223.461426,4225.512695,4234.102539,4243.077148,4239.230957,4245.128418,4238.205078,4248.974121,4193.589844,4254.487305,4243.461426,2940.000000,4.000000,86.000000,,,,0.000000,4.000000,4.000000,4.000000,4.000000,4.000000,4.000000,4.000000,4.000000,4.000000,4.000000,4.000000,4.000000,4.000000,4.000000,100.000000,,,,,,,,,,,,,,,,
1645710368.284373,246.000000,0.000000,4245.384766,4245.769043,4234.358887,4216.538574,4222.436035,4231.922852,4241.410156,4241.538574,4250.000000,4239.743652,4251.153809,4196.025879,4253.205078,4236.025879,2367.000000,4.000000,86.000000,,,,0.000000,4.000000,4.000000,4.000000,4.000000,4.000000,4.000000,4.000000,4.000000,4.000000,4.000000,4.000000,4.000000,4.000000,4.000000,100.000000,,,,,,,,,,,,,,,,
1645710368.288313,247.000000,0.000000,4241.538574,4238.846191,4231.922852,4219.871582,4219.230957,4226.794922,4235.897461,4242.179688,4251.538574,4242.051270,4249.358887,4194.743652,4251.538574,4231.153809,2725.000000,4.000000,86.000000,,,,0.000000,4.000000,4.000000,4.000000,4.000000,4.000000,4.000000,4.000000,4.000000,4.000000,4.000000,4.000000,4.000000,4.000000,4.000000,100.000000,,,,,,,,,,,,,,,,
1645710368.292253,248.000000,0.000000,4238.717773,4227.948730,4227.820313,4229.230957,4216.538574,4220.384766,4229.615234,4240.641113,4248.846191,4242.436035,4243.717773,4190.512695,4249.358887,4229.871582,3388.000000,4.000000,86.000000,,,,0.000000,4.000000,4.000000,4.000000,4.000000,4.000000,4.000000,4.000000,4.000000,4.000000,4.000000,4.000000,4.000000,4.000000,4.000000,100.000000,,,,,,,,,,,,,,,,
1645710368.296293,249.000000,0.000000,4237.820313,4218.461426,4223.974121,4235.641113,4215.256348,4216.153809,4226.538574,4237.948730,4245.128418,4240.897461,4236.922852,4186.153809,4246.794922,4230.897461,2940.000000,4.000000,86.000000,,,,0.000000,4.000000,4.000000,4.000000,4.000000,4.000000,4.000000,4.000000,4.000000,4.000000,4.000000,4.000000,4.000000,4.000000,4.000000,100.000000,,,,,,,,,,,,,,,,
1645710368.300233,250.000000,0.000000,4237.307617,4214.743652,4221.922852,4233.077148,4215.897461,4216.794922,4228.333496,4236.538574,4244.487305,4239.871582,4232.563965,4183.333496,4245.128418,4232.307617,2367.000000,4.000000,86.000000,,,,0.000000,4.000000,4.000000,4.000000,4.000000,4.000000,4.000000,4.000000,4.000000,4.000000,4.000000,4.000000,4.000000,4.000000,4.000000,100.000000,,,,,,,,,,,,,,,,
1645710368.304173,251.000000,0.000000,4236.410156,4217.051270,4221.666504,4224.102539,4217.692383,4222.307617,4233.077148,4237.692383,4248.077148,4240.897461,4231.538574,4182.820313,4245.384766,4233.461426,2725.000000,4.000000,86.000000,,,,0.000000,4.000000,4.000000,4.000000,4.000000,4.000000,4.000000,4.000000,4.000000,4.000000,4.000000,4.000000,4.000000,4.000000,4.000000,100.000000,,,,,,,,,,,,,,,,
1645710368.308113,252.000000,0.000000,4235.897461,4221.922852,4222.179688,4217.179688,4219.230957,4229.102539,4236.282227,4240.128418,4252.179688,4242.051270,4231.794922,4183.589844,4246.538574,4234.487305,3388.000000,4.000000,86.000000,,,,0.000000,4.000000,4.000000,4.000000,4.000000,4.000000,4.000000,4.000000,4.000000,4.000000,4.000000,4.000000,4.000000,4.000000,4.000000,100.000000,,,,,,,,,,,,,,,,
1645710368.312053,253.000000,0.000000,4236.666504,4224.871582,4222.051270,4217.692383,4218.846191,4232.692383,4235.000000,4241.153809,4251.922852,4240.641113,4230.512695,4184.487305,4246.410156,4235.384766,2940.000000,4.000000,86.000000,,,,0.000000,4.000000,4.000000,4.000000,4.000000,4.000000,4.000000,4.000000,4.000000,4.000000,4.000000,4.000000,4.000000,4.000000,4.000000,100.000000,,,,,,,,,,,,,,,,
1645710368.315994,254.000000,0.000000,4238.077148,4224.102539,4220.897461,4223.717773,4216.794922,4230.641113,4230.000000,4238.846191,4245.897461,4235.512695,4227.820313,4185.128418,4244.102539,4235.512695,2367.000000,4.000000,86.000000,,,,0.000000,4.000000,4.000000,4.000000,4.000000,4.000000,4.000000,4.000000,4.000000,4.000000,4.000000,4.000000,4.000000,4.000000,4.000000,100.000000,,,,,,,,,,,,,,,,
1645710368.319934,255.000000,0.000000,4238.333496,4221.794922,4219.102539,4228.589844,4214.743652,4224.102539,4224.615234,4233.974121,4237.563965,4229.102539,4226.282227,4185.000000,4240.897461,4233.846191,113.000000,4.000000,86.000000,,,,0.000000,4.000000,4.000000,4.000000,4.000000,4.000000,4.000000,4.000000,4.000000,4.000000,4.000000,4.000000,4.000000,4.000000,4.000000,100.000000,,,,,,,,,,,,,,,,
1645710368.323874,0.000000,0.000000,4236.794922,4220.769043,4217.563965,4228.205078,4213.717773,4216.794922,4221.922852,4229.743652,4232.307617,4224.871582,4227.563965,4184.358887,4239.487305,4230.384766,3262.000000,4.000000,86.000000,,,,0.000000,4.000000,4.000000,4.000000,4.000000,4.000000,4.000000,4.000000,4.000000,4.000000,4.000000,4.000000,4.000000,4.000000,4.000000,100.000000,,,,,,,,,,,,,,,,
1645710368.327814,1.000000,0.000000,4235.384766,4221.410156,4217.307617,4223.717773,4213.589844,4212.179688,4222.563965,4228.717773,4232.820313,4224.358887,4230.512695,4182.436035,4241.025879,4227.307617,3233.000000,4.000000,86.000000,,,,0.000000,4.000000,4.000000,4.000000,4.000000,4.000000,4.000000,4.000000,4.000000,4.000000,4.000000,4.000000,4.000000,4.000000,4.000000,100.000000,,,,,,,,,,,,,,,,
1645710368.331754,2.000000,0.000000,4236.153809,4222.948730,4218.333496,4220.769043,4213.846191,4212.179688,4225.128418,4231.410156,4237.563965,4226.025879,4232.436035,4179.358887,4244.487305,4227.948730,2311.000000,4.000000,86.000000,,,,0.000000,4.000000,4.000000,4.000000,4.000000,4.000000,4.000000,4.000000,4.000000,4.000000,4.000000,4.000000,4.000000,4.000000,4.000000,100.000000,,,,,,,,,,,,,,,,
1645710368.335694,3.000000,0.000000,4239.230957,4224.102539,4220.000000,4224.102539,4213.717773,4215.641113,4227.307617,4235.641113,4242.563965,4227.179688,4230.897461,4175.384766,4246.794922,4232.820313,3332.000000,4.000000,86.000000,,,,0.000000,4.000000,4.000000,4.000000,4.000000,4.000000,4.000000,4.000000,4.000000,4.000000,4.000000,4.000000,4.000000,4.000000,4.000000,100.000000,,,,,,,,,,,,,,,,
1645710368.339634,4.000000,0.000000,4241.666504,4225.000000,4220.641113,4232.820313,4213.205078,4219.487305,4227.436035,4238.205078,4244.358887,4226.794922,4226.922852,4171.666504,4246.025879,4238.846191,3330.000000,4.000000,86.000000,,,,0.000000,4.000000,4.000000,4.000000,4.000000,4.000000,4.000000,4.000000,4.000000,4.000000,4.000000,4.000000,4.000000,4.000000,4.000000,100.000000,,,,,,,,,,,,,,,,
1645710368.343574,5.000000,0.000000,4240.512695,4225.000000,4218.974121,4240.256348,4212.051270,4220.512695,4224.230957,4238.077148,4242.179688,4225.256348,4222.820313,4169.230957,4242.307617,4240.897461,3388.000000,4.000000,86.000000,,,,0.000000,4.000000,4.000000,4.000000,4.000000,4.000000,4.000000,4.000000,4.000000,4.000000,4.000000,4.000000,4.000000,4.000000,4.000000,100.000000,,,,,,,,,,,,,,,,
1645710368.347514,6.000000,0.000000,4236.410156,4222.436035,4215.128418,4240.000000,4210.384766,4217.563965,4218.846191,4236.153809,4238.461426,4223.589844,4220.512695,4168.205078,4237.948730,4235.128418,3027.000000,4.000000,86.000000,,,,0.000000,4.000000,4.000000,4.000000,4.000000,4.000000,4.000000,4.000000,4.000000,4.000000,4.000000,4.000000,4.000000,4.000000,4.000000,100.000000,,,,,,,,,,,,,,,,
1645710368.351455,7.000000,0.000000,4232.563965,4217.436035,4210.897461,4231.410156,4208.717773,4212.179688,4214.230957,4234.358887,4236.666504,4222.563965,4219.615234,4167.948730,4235.512695,4223.717773,1723.000000,4.000000,86.000000,,,,0.000000,4.000000,4.000000,4.000000,4.000000,4.000000,4.000000,4.000000,4.000000,4.000000,4.000000,4.000000,4.000000,4.000000,4.000000,100.000000,,,,,,,,,,,,,,,,
1645710368.355395,8.000000,0.000000,4231.666504,4212.563965,4208.717773,4220.769043,4208.717773,4208.333496,4213.077148,4233.974121,4238.846191,4222.563965,4219.615234,4167.820313,4236.410156,4212.820313,1346.000000,4.000000,86.000000,,,,0.000000,4.000000,4.000000,4.000000,4.000000,4.000000,4.000000,4.000000,4.000000,4.000000,4.000000,4.000000,4.000000,4.000000,4.000000,100.000000,,,,,,,,,,,,,,,,
1645710368.359335,9.000000,0.000000,4234.102539,4211.794922,4209.487305,4214.615234,4212.307617,4209.743652,4216.666504,4235.000000,4243.974121,4223.974121,4220.897461,4168.333496,4240.128418,4208.974121,3074.000000,4.000000,86.000000,,,,0.000000,4.000000,4.000000,4.000000,4.000000,4.000000,4.000000,4.000000,4.000000,4.000000,4.000000,4.000000,4.000000,4.000000,4.000000,100.000000,,,,,,,,,,,,,,,,
1645710368.363275,10.000000,0.000000,4238.589844,4216.922852,4212.692383,4215.128418,4219.102539,4217.179688,4223.589844,4237.179688,4248.974121,4227.051270,4224.615234,4170.128418,4244.615234,4214.358887,2363.000000,4.000000,86.000000,,,,0.000000,4.000000,4.000000,4.000000,4.000000,4.000000,4.000000,4.000000,4.000000,4.000000,4.000000,4.000000,4.000000,4.000000,4.000000,100.000000,,,,,,,,,,,,,,,,
1645710368.367215,11.000000,0.000000,4243.333496,4225.128418,4216.538574,4219.230957,4225.769043,4226.922852,4230.897461,4240.256348,4251.025879,4231.410156,4230.000000,4173.333496,4247.948730,4225.641113,2727.000000,4.000000,86.000000,,,,0.000000,4.000000,4.000000,4.000000,4.000000,4.000000,4.000000,4.000000,4.000000,4.000000,4.000000,4.000000,4.000000,4.000000,4.000000,100.000000,,,,,,,,,,,,,,,,
1645710368.371155,12.000000,0.000000,4247.563965,4231.538574,4219.487305,4222.948730,4227.948730,4233.974121,4236.025879,4243.717773,4250.000000,4235.897461,4234.615234,4176.153809,4248.846191,4237.179688,3094.000000,4.000000,86.000000,,,,0.000000,4.000000,4.000000,4.000000,4.000000,4.000000,4.000000,4.000000,4.000000,4.000000,4.000000,4.000000,4.000000,4.000000,4.000000,100.000000,,,,,,,,,,,,,,,,
1645710368.375195,13.000000,0.000000,4250.384766,4232.948730,4220.897461,4225.256348,4224.743652,4235.512695,4237.948730,4246.922852,4247.948730,4239.615234,4236.025879,4176.538574,4248.333496,4243.589844,2973.000000,4.000000,86.000000,,,,0.000000,4.000000,4.000000,4.000000,4.000000,4.000000,4.000000,4.000000,4.000000,4.000000,4.000000,4.000000,4.000000,4.000000,4.000000,100.000000,,,,,,,,,,,,,,,,
1645710368.379135,14.000000,0.000000,4251.153809,4229.743652,4221.025879,4228.077148,4219.358887,4232.820313,4237.436035,4248.846191,4247.051270,4241.666504,4233.974121,4174.358887,4248.333496,4243.077148,2363.000000,4.000000,86.000000,,,,0.000000,4.000000,4.000000,4.000000,4.000000,4.000000,4.000000,4.000000,4.000000,4.000000,4.000000,4.000000,4.000000,4.000000,4.000000,100.000000,,,,,,,,,,,,,,,,
1645710368.383075,15.000000,0.000000,4250.256348,4224.871582,4220.256348,4232.051270,4215.897461,4228.846191,4236.025879,4248.461426,4247.820313,4241.282227,4229.487305,4171.153809,4249.487305,4236.410156,2727.000000,4.000000,86.000000,,,,0.000000,4.000000,4.000000,4.000000,4.000000,4.000000,4.000000,4.000000,4.000000,4.000000,4.000000,4.000000,4.000000,4.000000,4.000000,100.000000,,,,,,,,,,,,,,,,
1645710368.387015,16.000000,0.000000,4248.717773,4220.769043,4218.461426,4235.384766,4215.128418,4225.641113,4234.102539,4245.512695,4248.974121,4238.333496,4224.743652,4169.102539,4250.128418,4226.410156,3094.000000,4.000000,86.000000,,,,0.000000,4.000000,4.000000,4.000000,4.000000,4.000000,4.000000,4.000000,4.000000,4.000000,4.000000,4.000000,4.000000,4.000000,4.000000,100.000000,,,,,,,,,,,,,,,,
1645710368.390955,17.000000,0.000000,4248.461426,4217.307617,4215.128418,4234.615234,4214.743652,4223.205078,4231.794922,4241.538574,4248.846191,4233.717773,4220.641113,4169.230957,4247.563965,4217.307617,2973.000000,4.000000,86.000000,,,,0.000000,4.000000,4.000000,4.000000,4.000000,4.000000,4.000000,4.000000,4.000000,4.000000,4.000000,4.000000,4.000000,4.000000,4.000000,100.000000,,,,,,,,,,,,,,,,
1645710368.394896,18.000000,0.000000,4249.743652,4214.358887,4210.384766,4229.230957,4212.051270,4221.282227,4229.358887,4238.333496,4246.794922,4228.846191,4217.436035,4170.256348,4241.153809,4212.436035,2363.000000,4.000000,86.000000,,,,0.000000,4.000000,4.000000,4.000000,4.000000,4.000000,4.000000,4.000000,4.000000,4.000000,4.000000,4.000000,4.000000,4.000000,4.000000,100.000000,,,,,,,,,,,,,,,,
1645710368.398836,19.000000,0.000000,4251.794922,4212.051270,4205.897461,4221.410156,4207.051270,4219.615234,4226.794922,4236.538574,4243.846191,4224.230957,4215.000000,4169.487305,4233.077148,4212.563965,2727.000000,4.000000,86.000000,,,,0.000000,4.000000,4.000000,4.000000,4.000000,4.000000,4.000000,4.000000,4.000000,4.000000,4.000000,4.000000,4.000000,4.000000,4.000000,100.000000,,,,,,,,,,,,,,,,
1645710368.402776,20.000000,0.000000,4252.436035,4210.384766,4203.077148,4213.077148,4202.307617,4218.717773,4223.974121,4234.871582,4240.512695,4218.333496,4213.205078,4165.769043,4226.666504,4214.615234,3094.000000,4.000000,86.000000,,,,0.000000,4.000000,4.000000,4.000000,4.000000,4.000000,4.000000,4.000000,4.000000,4.000000,4.000000,4.000000,4.000000,4.000000,4.000000,100.000000,,,,,,,,,,,,,,,,
1645710368.406716,21.000000,0.000000,4251.025879,4208.717773,4202.307617,4204.358887,4199.615234,4218.846191,4220.897461,4232.692383,4237.307617,4209.743652,4210.384766,4159.871582,4223.717773,4214.487305,2973.000000,4.000000,86.000000,,,,0.000000,4.000000,4.000000,4.000000,4.000000,4.000000,4.000000,4.000000,4.000000,4.000000,4.000000,4.000000,4.000000,4.000000,4.000000,100.000000,,,,,,,,,,,,,,,,
1645710368.410656,22.000000,0.000000,4248.205078,4205.641113,4202.179688,4194.615234,4199.358887,4219.102539,4217.948730,4229.871582,4233.974121,4198.846191,4204.743652,4153.846191,4222.948730,4210.384766,2363.000000,4.000000,86.000000,,,,0.000000,4.000000,4.000000,4.000000,4.000000,4.000000,4.000000,4.000000,4.000000,4.000000,4.000000,4.000000,4.000000,4.000000,4.000000,100.000000,,,,,,,,,,,,,,,,
1645710368.414596,23.000000,0.000000,4245.384766,4201.153809,4201.282227,4187.051270,4200.769043,4219.487305,4216.153809,4227.692383,4230.384766,4189.871582,4196.538574,4149.358887,4222.179688,4204.615234,2727.000000,4.000000,86.000000,,,,0.000000,4.000000,4.000000,4.000000,4.000000,4.000000,4.000000,4.000000,4.000000,4.000000,4.000000,4.000000,4.000000,4.000000,4.000000,100.000000,,,,,,,,,,,,,,,,
1645710368.418536,24.000000,0.000000,4243.717773,4197.436035,4199.615234,4187.179688,4203.333496,4220.256348,4216.410156,4226.410156,4227.692383,4187.563965,4188.846191,4147.436035,4219.871582,4200.897461,3094.000000,4.000000,86.000000,,,,0.000000,4.000000,4.000000,4.000000,4.000000,4.000000,4.000000,4.000000,4.000000,4.000000,4.000000,4.000000,4.000000,4.000000,4.000000,100.000000,,,,,,,,,,,,,,,,
1645710368.422476,25.000000,0.000000,4244.102539,4198.077148,4198.077148,4198.461426,4206.794922,4222.051270,4218.333496,4226.410156,4227.436035,4193.333496,4185.769043,4147.948730,4217.307617,4201.410156,2973.000000,4.000000,86.000000,,,,0.000000,4.000000,4.000000,4.000000,4.000000,4.000000,4.000000,4.000000,4.000000,4.000000,4.000000,4.000000,4.000000,4.000000,4.000000,100.000000,,,,,,,,,,,,,,,,
1645710368.426416,26.000000,0.000000,4247.051270,4204.102539,4198.589844,4216.794922,4210.384766,4224.102539,4221.538574,4228.077148,4230.512695,4203.717773,4189.230957,4150.384766,4216.794922,4206.025879,2363.000000,4.000000,86.000000,,,,0.000000,4.000000,4.000000,4.000000,4.000000,4.000000,4.000000,4.000000,4.000000,4.000000,4.000000,4.000000,4.000000,4.000000,4.000000,100.000000,,,,,,,,,,,,,,,,
1645710368.430357,27.000000,0.000000,4252.436035,4213.461426,4202.051270,4231.666504,4212.948730,4224.871582,4225.000000,4231.922852,4235.897461,4213.333496,4197.692383,4154.487305,4220.128418,4212.948730,2727.000000,4.000000,86.000000,,,,0.000000,4.000000,4.000000,4.000000,4.000000,4.000000,4.000000,4.000000,4.000000,4.000000,4.000000,4.000000,4.000000,4.000000,4.000000,100.000000,,,,,,,,,,,,,,,,
1645710368.434297,28.000000,0.000000,4258.077148,4221.025879,4207.820313,4234.230957,4213.077148,4223.846191,4228.205078,4236.794922,4240.769043,4218.589844,4208.205078,4159.230957,4226.794922,4220.641113,3094.000000,4.000000,86.000000,,,,0.000000,4.000000,4.000000,4.000000,4.000000,4.000000,4.000000,4.000000,4.000000,4.000000,4.000000,4.000000,4.000000,4.000000,4.000000,100.000000,,,,,,,,,,,,,,,,
1645710368.438237,29.000000,0.000000,4260.641113,4223.077148,4214.102539,4223.974121,4211.794922,4222.051270,4230.897461,4241.153809,4242.820313,4220.512695,4218.077148,4163.717773,4234.230957,4227.563965,2973.000000,4.000000,86.000000,,,,0.000000,4.000000,4.000000,4.000000,4.000000,4.000000,4.000000,4.000000,4.000000,4.000000,4.000000,4.000000,4.000000,4.000000,4.000000,100.000000,,,,,,,,,,,,,,,,
1645710368.442177,30.000000,0.000000,4258.589844,4218.974121,4218.077148,4209.487305,4210.256348,4221.025879,4232.436035,4243.589844,4241.794922,4222.051270,4225.128418,4167.436035,4240.256348,4231.794922,2363.000000,4.000000,86.000000,,,,0.000000,4.000000,4.000000,4.000000,4.000000,4.000000,4.000000,4.000000,4.000000,4.000000,4.000000,4.000000,4.000000,4.000000,4.000000,100.000000,,,,,,,,,,,,,,,,
1645710368.446117,31.000000,0.000000,4253.974121,4211.153809,4217.692383,4201.410156,4209.102539,4220.769043,4232.179688,4243.461426,4239.102539,4225.128418,4227.948730,4169.871582,4242.948730,4232.051270,2727.000000,4.000000,86.000000,,,,0.000000,4.000000,4.000000,4.000000,4.000000,4.000000,4.000000,4.000000,4.000000,4.000000,4.000000,4.000000,4.000000,4.000000,4.000000,100.000000,,,,,,,,,,,,,,,,
1645710368.450057,32.000000,0.000000,4250.897461,4203.974121,4212.948730,4203.461426,4207.307617,4220.000000,4230.128418,4241.282227,4236.794922,4228.077148,4225.897461,4170.897461,4242.307617,4228.205078,0.000000,4.000000,86.000000,,,,0.000000,4.000000,4.000000,4.000000,4.000000,4.000000,4.000000,4.000000,4.000000,4.000000,4.000000,4.000000,4.000000,4.000000,4.000000,100.000000,,,,,,,,,,,,,,,,
1645710368.453897,33.000000,0.000000,4252.051270,4200.641113,4206.410156,4211.025879,4205.128418,4218.205078,4227.179688,4238.077148,4236.153809,4228.333496,4220.256348,4170.128418,4239.743652,4222.179688,0.000000,4.000000,86.000000,,,,0.000000,4.000000,4.000000,4.000000,4.000000,4.000000,4.000000,4.000000,4.000000,4.000000,4.000000,4.000000,4.000000,4.000000,4.000000,100.000000,,,,,,,,,,,,,,,,
1645710368.457837,34.000000,0.000000,4255.512695,4203.077148,4201.794922,4216.922852,4203.974121,4216.282227,4224.743652,4234.615234,4237.051270,4225.897461,4213.717773,4168.205078,4237.307617,4217.820313,0.000000,4.000000,86.000000,,,,0.000000,4.000000,4.000000,4.000000,4.000000,4.000000,4.000000,4.000000,4.000000,4.000000,4.000000,4.000000,4.000000,4.000000,4.000000,100.000000,,,,,,,,,,,,,,,,
1645710368.461777,35.000000,0.000000,4258.077148,4210.384766,4201.410156,4218.589844,4205.641113,4215.512695,4223.333496,4231.794922,4238.205078,4223.461426,4209.871582,4165.769043,4236.922852,4217.692383,0.000000,4.000000,86.000000,,,,0.000000,4.000000,4.000000,4.000000,4.000000,4.000000,4.000000,4.000000,4.000000,4.000000,4.000000,4.000000,4.000000,4.000000,4.000000,100.000000,,,,,,,,,,,,,,,,
1645710368.465718,36.000000,0.000000,4258.077148,4218.461426,4205.256348,4218.717773,4209.487305,4215.769043,4222.948730,4230.384766,4238.205078,4224.230957,4211.153809,4163.589844,4239.102539,4221.922852,0.000000,4.000000,86.000000,,,,0.000000,4.000000,4.000000,4.000000,4.000000,4.000000,4.000000,4.000000,4.000000,4.000000,4.000000,4.000000,4.000000,4.000000,4.000000,100.000000,,,,,,,,,,,,,,,,
1645710368.469658,37.000000,0.000000,4256.794922,4221.666504,4210.000000,4220.000000,4213.077148,4215.641113,4222.179688,4230.769043,4236.666504,4227.692383,4216.410156,4162.051270,4241.794922,4227.307617,0.000000,4.000000,86.000000,,,,0.000000,4.000000,4.000000,4.000000,4.000000,4.000000,4.000000,4.000000,4.000000,4.000000,4.000000,4.000000,4.000000,4.000000,4.000000,100.000000,,,,,,,,,,,,,,,,
1645710368.473598,38.000000,0.000000,4255.769043,4217.948730,4211.794922,4221.922852,4213.717773,4214.230957,4220.512695,4232.563965,4234.230957,4230.897461,4221.794922,4160.512695,4242.820313,4229.102539,0.000000,4.000000,86.000000,,,,0.000000,4.000000,4.000000,4.000000,4.000000,4.000000,4.000000,4.000000,4.000000,4.000000,4.000000,4.000000,4.000000,4.000000,4.000000,100.000000,,,,,,,,,,,,,,,,
1645710368.477538,39.000000,0.000000,4255.128418,4210.641113,4208.974121,4221.282227,4211.153809,4211.794922,4218.205078,4233.589844,4232.436035,4230.512695,4223.589844,4158.717773,4241.410156,4224.871582,0.000000,4.000000,86.000000,,,,0.000000,4.000000,4.000000,4.000000,4.000000,4.000000,4.000000,4.000000,4.000000,4.000000,4.000000,4.000000,4.000000,4.000000,4.000000,100.000000,,,,,,,,,,,,,,,,
1645710368.481478,40.000000,0.000000,4254.102539,4205.769043,4203.461426,4217.179688,4207.948730,4210.384766,4217.051270,4232.436035,4232.179688,4226.410156,4221.025879,4156.794922,4238.461426,4216.666504,0.000000,4.000000,86.000000,,,,0.000000,4.000000,4.000000,4.000000,4.000000,4.000000,4.000000,4.000000,4.000000,4.000000,4.000000,4.000000,4.000000,4.000000,4.000000,100.000000,,,,,,,,,,,,,,,,
1645710368.485418,41.000000,0.000000,4253.461426,4207.179688,4199.487305,4211.794922,4206.666504,4211.282227,4217.948730,4229.487305,4232.948730,4221.153809,4215.897461,4155.641113,4235.897461,4210.256348,0.000000,4.000000,86.000000,,,,0.000000,4.000000,4.000000,4.000000,4.000000,4.000000,4.000000,4.000000,4.000000,4.000000,4.000000,4.000000,4.000000,4.000000,4.000000,100.000000,,,,,,,,,,,,,,,,
1645710368.489358,42.000000,0.000000,4255.128418,4213.717773,4200.256348,4209.102539,4207.948730,4214.358887,4220.000000,4226.922852,4233.589844,4217.051270,4210.769043,4155.769043,4234.615234,4209.871582,0.000000,4.000000,86.000000,,,,0.000000,4.000000,4.000000,4.000000,4.000000,4.000000,4.000000,4.000000,4.000000,4.000000,4.000000,4.000000,4.000000,4.000000,4.000000,100.000000,,,,,,,,,,,,,,,,
1645710368.493298,43.000000,0.000000,4259.358887,4220.512695,4205.000000,4210.384766,4209.487305,4217.436035,4221.282227,4226.153809,4233.333496,4214.230957,4207.179688,4157.179688,4234.487305,4215.256348,0.000000,4.000000,86.000000,1,1,2,0.000000,4.000000,4.000000,4.000000,4.000000,4.000000,4.000000,4.000000,4.000000,4.000000,4.000000,4.000000,4.000000,4.000000,4.000000,100.000000,,,,,,,,,,,,,,,,
1645710368.497238,44.000000,0.000000,4262.820313,4222.692383,4209.230957,4213.717773,4209.358887,4218.205078,4220.128418,4226.153809,4232.307617,4211.794922,4204.615234,4158.333496,4234.743652,4221.538574,0.000000,4.000000,86.000000,,,,0.000000,4.000000,4.000000,4.000000,4.000000,4.000000,4.000000,4.000000,4.000000,4.000000,4.000000,4.000000,4.000000,4.000000,4.000000,100.000000,,,,,,,,,,,,,,,,
1645710368.501179,45.000000,0.000000,4261.538574,4217.820313,4208.974121,4216.025879,4206.794922,4215.641113,4216.410156,4225.384766,4231.282227,4209.358887,4202.051270,4157.563965,4233.717773,4223.846191,0.000000,4.000000,86.000000,,,,0.000000,4.000000,4.000000,4.000000,4.000000,4.000000,4.000000,4.000000,4.000000,4.000000,4.000000,4.000000,4.000000,4.000000,4.000000,100.000000,,,,,,,,,,,,,,,,
1645710368.505119,46.000000,0.000000,4255.512695,4208.205078,4203.589844,4215.384766,4203.589844,4210.769043,4211.666504,4222.820313,4230.512695,4208.333496,4199.615234,4154.487305,4231.025879,4221.025879,0.000000,4.000000,86.000000,,,,0.000000,4.000000,4.000000,4.000000,4.000000,4.000000,4.000000,4.000000,4.000000,4.000000,4.000000,4.000000,4.000000,4.000000,4.000000,100.000000,,,,,,,,,,,,,,,,
1645710368.509059,47.000000,0.000000,4249.102539,4198.461426,4197.051270,4212.692383,4201.794922,4205.512695,4207.692383,4219.743652,4229.871582,4209.230957,4198.589844,4150.256348,4227.307617,4216.025879,0.000000,4.000000,86.000000,,,,0.000000,4.000000,4.000000,4.000000,4.000000,4.000000,4.000000,4.000000,4.000000,4.000000,4.000000,4.000000,4.000000,4.000000,4.000000,100.000000,,,,,,,,,,,,,,,,
1645710368.512999,48.000000,0.000000,4247.307617,4193.974121,4193.589844,4210.897461,4201.922852,4202.051270,4206.153809,4218.205078,4229.358887,4211.666504,4201.153809,4147.692383,4224.743652,4212.692383,0.000000,4.000000,86.000000,,,,0.000000,4.000000,4.000000,4.000000,4.000000,4.000000,4.000000,4.000000,4.000000,4.000000,4.000000,4.000000,4.000000,4.000000,4.000000,100.000000,,,,,,,,,,,,,,,,
1645710368.516939,49.000000,0.000000,4250.641113,4196.666504,4195.128418,4211.666504,4202.692383,4201.538574,4207.692383,4220.000000,4229.743652,4214.487305,4207.820313,4148.846191,4225.512695,4212.820313,0.000000,4.000000,86.000000,,,,0.000000,4.000000,4.000000,4.000000,4.000000,4.000000,4.000000,4.000000,4.000000,4.000000,4.000000,4.000000,4.000000,4.000000,4.000000,100.000000,,,,,,,,,,,,,,,,
1645710368.520879,50.000000,0.000000,4255.384766,4203.846191,4199.230957,4213.461426,4202.436035,4204.102539,4210.897461,4224.743652,4231.794922,4216.922852,4216.153809,4153.333496,4229.743652,4215.128418,0.000000,4.000000,86.000000,,,,0.000000,4.000000,4.000000,4.000000,4.000000,4.000000,4.000000,4.000000,4.000000,4.000000,4.000000,4.000000,4.000000,4.000000,4.000000,100.000000,,,,,,,,,,,,,,,,
1645710368.524819,51.000000,0.000000,4257.820313,4210.000000,4202.563965,4212.948730,4200.256348,4207.692383,4213.974121,4230.128418,4234.487305,4218.717773,4222.051270,4158.589844,4235.128418,4217.307617,0.000000,4.000000,86.000000,,,,0.000000,4.000000,4.000000,4.000000,4.000000,4.000000,4.000000,4.000000,4.000000,4.000000,4.000000,4.000000,4.000000,4.000000,4.000000,100.000000,,,,,,,,,,,,,,,,
1645710368.528659,52.000000,0.000000,4256.794922,4211.025879,4203.333496,4208.333496,4196.922852,4209.743652,4215.384766,4233.717773,4236.410156,4219.615234,4222.051270,4161.666504,4237.563965,4218.461426,0.000000,4.000000,86.000000,,,,0.000000,4.000000,4.000000,4.000000,4.000000,4.000000,4.000000,4.000000,4.000000,4.000000,4.000000,4.000000,4.000000,4.000000,4.000000,100.000000,,,,,,,,,,,,,,,,
1645710368.532599,53.000000,0.000000,4253.974121,4206.666504,4201.922852,4202.307617,4194.358887,4208.974121,4214.871582,4234.230957,4236.410156,4219.230957,4215.897461,4160.769043,4234.871582,4219.102539,0.000000,4.000000,86.000000,,,,0.000000,4.000000,4.000000,4.000000,4.000000,4.000000,4.000000,4.000000,4.000000,4.000000,4.000000,4.000000,4.000000,4.000000,4.000000,100.000000,,,,,,,,,,,,,,,,
1645710368.536540,54.000000,0.000000,4251.153809,4199.615234,4199.871582,4199.230957,4193.846191,4205.512695,4212.948730,4231.794922,4234.487305,4217.563965,4206.922852,4156.922852,4228.205078,4219.743652,0.000000,4.000000,86.000000,,,,0.000000,4.000000,4.000000,4.000000,4.000000,4.000000,4.000000,4.000000,4.000000,4.000000,4.000000,4.000000,4.000000,4.000000,4.000000,100.000000,,,,,,,,,,,,,,,,
1645710368.540480,55.000000,0.000000,4248.846191,4193.333496,4197.948730,4201.666504,4194.615234,4201.153809,4210.000000,4227.436035,4231.282227,4215.256348,4199.615234,4152.563965,4221.538574,4219.743652,0.000000,4.000000,86.000000,,,,0.000000,4.000000,4.000000,4.000000,4.000000,4.000000,4.000000,4.000000,4.000000,4.000000,4.000000,4.000000,4.000000,4.000000,4.000000,100.000000,,,,,,,,,,,,,,,,
1645710368.544420,56.000000,0.000000,4247.179688,4189.743652,4196.282227,4207.051270,4194.487305,4197.436035,4206.666504,4222.948730,4228.077148,4213.333496,4196.666504,4150.000000,4218.461426,4218.333496,0.000000,4.000000,86.000000,,,,0.000000,4.000000,4.000000,4.000000,4.000000,4.000000,4.000000,4.000000,4.000000,4.000000,4.000000,4.000000,4.000000,4.000000,4.000000,100.000000,,,,,,,,,,,,,,,,
1645710368.548360,57.000000,0.000000,4246.794922,4188.846191,4195.384766,4209.487305,4192.051270,4195.000000,4203.846191,4221.282227,4226.282227,4212.692383,4197.436035,4150.256348,4220.000000,4216.922852,0.000000,4.000000,86.000000,,,,0.000000,4.000000,4.000000,4.000000,4.000000,4.000000,4.000000,4.000000,4.000000,4.000000,4.000000,4.000000,4.000000,4.000000,4.000000,100.000000,,,,,,,,,,,,,,,,
1645710368.552300,58.000000,0.000000,4248.205078,4190.000000,4195.512695,4205.769043,4187.820313,4194.102539,4202.179688,4223.974121,4226.794922,4213.846191,4200.512695,4152.436035,4224.358887,4217.307617,0.000000,4.000000,86.000000,,,,0.000000,4.000000,4.000000,4.000000,4.000000,4.000000,4.000000,4.000000,4.000000,4.000000,4.000000,4.000000,4.000000,4.000000,4.000000,100.000000,,,,,,,,,,,,,,,,
1645710368.556240,59.000000,0.000000,4250.128418,4192.563965,4197.307617,4198.333496,4184.102539,4194.102539,4202.436035,4229.487305,4228.846191,4216.282227,4204.230957,4154.615234,4228.461426,4220.512695,0.000000,4.000000,86.000000,,,,0.000000,4.000000,4.000000,4.000000,4.000000,4.000000,4.000000,4.000000,4.000000,4.000000,4.000000,4.000000,4.000000,4.000000,4.000000,100.000000,,,,,,,,,,,,,,,,
1645710368.560180,60.000000,0.000000,4250.512695,4195.769043,4199.358887,4191.794922,4183.205078,4194.230957,4203.461426,4233.461426,4231.410156,4218.589844,4207.692383,4155.641113,4229.615234,4225.256348,0.000000,4.000000,86.000000,,,,0.000000,4.000000,4.000000,4.000000,4.000000,4.000000,4.000000,4.000000,4.000000,4.000000,4.000000,4.000000,4.000000,4.000000,4.000000,100.000000,,,,,,,,,,,,,,,,
1645710368.564120,61.000000,0.000000,4248.717773,4197.820313,4200.512695,4189.487305,4185.256348,4193.846191,4203.589844,4233.077148,4233.461426,4218.717773,4209.615234,4155.256348,4227.948730,4228.461426,0.000000,4.000000,86.000000,,,,0.000000,4.000000,4.000000,4.000000,4.000000,4.000000,4.000000,4.000000,4.000000,4.000000,4.000000,4.000000,4.000000,4.000000,4.000000,100.000000,,,,,,,,,,,,,,,,
1645710368.568060,62.000000,0.000000,4246.538574,4198.461426,4200.000000,4191.025879,4188.333496,4192.563965,4201.666504,4228.974121,4234.230957,4215.769043,4208.333496,4154.487305,4225.384766,4227.948730,0.000000,4.000000,86.000000,,,,0.000000,4.000000,4.000000,4.000000,4.000000,4.000000,4.000000,4.000000,4.000000,4.000000,4.000000,4.000000,4.000000,4.000000,4.000000,100.000000,,,,,,,,,,,,,,,,
1645710368.572001,63.000000,0.000000,4246.666504,4197.692383,4198.333496,4194.871582,4190.256348,4191.025879,4198.717773,4224.615234,4232.948730,4211.153809,4203.461426,4154.358887,4223.974121,4223.589844,0.000000,4.000000,86.000000,,,,0.000000,4.000000,4.000000,4.000000,4.000000,4.000000,4.000000,4.000000,4.000000,4.000000,4.000000,4.000000,4.000000,4.000000,4.000000,100.000000,,,,,,,,,,,,,,,,
1645710368.575941,64.000000,0.000000,4249.102539,4195.897461,4196.922852,4199.871582,4190.897461,4190.384766,4196.922852,4222.563965,4229.871582,4207.563965,4197.307617,4155.256348,4224.230957,4218.077148,0.000000,4.000000,86.000000,,,,0.000000,4.000000,4.000000,4.000000,4.000000,4.000000,4.000000,4.000000,4.000000,4.000000,4.000000,4.000000,4.000000,4.000000,4.000000,100.000000,,,,,,,,,,,,,,,,
1645710368.579881,65.000000,0.000000,4251.282227,4193.461426,4197.179688,4205.384766,4191.666504,4191.666504,4198.077148,4222.820313,4226.025879,4207.307617,4193.333496,4156.794922,4224.743652,4214.871582,0.000000,4.000000,86.000000,,,,0.000000,4.000000,4.000000,4.000000,4.000000,4.000000,4.000000,4.000000,4.000000,4.000000,4.000000,4.000000,4.000000,4.000000,4.000000,100.000000,,,,,,,,,,,,,,,,
1645710368.583821,66.000000,0.000000,4251.282227,4190.512695,4199.358887,4209.615234,4192.948730,4194.358887,4201.025879,4223.461426,4223.333496,4208.974121,4193.846191,4158.333496,4224.487305,4215.641113,0.000000,4.000000,86.000000,,,,0.000000,4.000000,4.000000,4.000000,4.000000,4.000000,4.000000,4.000000,4.000000,4.000000,4.000000,4.000000,4.000000,4.000000,4.000000,100.000000,,,,,,,,,,,,,,,,
1645710368.587761,67.000000,0.000000,4250.000000,4187.948730,4202.436035,4210.384766,4193.974121,4196.538574,4203.077148,4222.948730,4222.692383,4209.615234,4198.077148,4158.974121,4223.205078,4218.461426,0.000000,4.000000,86.000000,,,,0.000000,4.000000,4.000000,4.000000,4.000000,4.000000,4.000000,4.000000,4.000000,4.000000,4.000000,4.000000,4.000000,4.000000,4.000000,100.000000,,,,,,,,,,,,,,,,
1645710368.591701,68.000000,0.000000,4249.871582,4186.153809,4204.743652,4206.282227,4192.948730,4196.153809,4202.563965,4220.897461,4222.820313,4207.307617,4202.436035,4158.205078,4221.794922,4220.128418,0.000000,4.000000,86.000000,,,,0.000000,4.000000,4.000000,4.000000,4.000000,4.000000,4.000000,4.000000,4.000000,4.000000,4.000000,4.000000,4.000000,4.000000,4.000000,100.000000,,,,,,,,,,,,,,,,
1645710368.595641,69.000000,0.000000,4250.897461,4185.256348,4204.871582,4198.717773,4190.256348,4193.589844,4200.128418,4218.205078,4222.179688,4203.205078,4203.974121,4156.153809,4220.641113,4218.589844,0.000000,4.000000,86.000000,,,,0.000000,4.000000,4.000000,4.000000,4.000000,4.000000,4.000000,4.000000,4.000000,4.000000,4.000000,4.000000,4.000000,4.000000,4.000000,100.000000,,,,,,,,,,,,,,,,
1645710368.599581,70.000000,0.000000,4251.410156,4185.256348,4203.077148,4191.153809,4188.077148,4190.897461,4198.333496,4216.153809,4220.897461,4200.384766,4201.922852,4153.333496,4220.384766,4215.641113,0.000000,4.000000,86.000000,,,,0.000000,4.000000,4.000000,4.000000,4.000000,4.000000,4.000000,4.000000,4.000000,4.000000,4.000000,4.000000,4.000000,4.000000,4.000000,100.000000,,,,,,,,,,,,,,,,
1645710368.603421,71.000000,0.000000,4249.615234,4186.410156,4200.641113,4187.563965,4188.717773,4190.384766,4199.487305,4216.153809,4220.769043,4201.025879,4198.461426,4151.025879,4221.538574,4214.358887,0.000000,4.000000,86.000000,2,1,2,0.000000,4.000000,4.000000,4.000000,4.000000,4.000000,4.000000,4.000000,4.000000,4.000000,4.000000,4.000000,4.000000,4.000000,4.000000,100.000000,,,,,,,,,,,,,,,,
1645710368.607362,72.000000,0.000000,4246.922852,4189.102539,4199.230957,4189.230957,4191.922852,4191.922852,4202.948730,4218.846191,4222.948730,4204.743652,4196.025879,4150.641113,4223.333496,4216.922852,0.000000,4.000000,86.000000,,,,0.000000,4.000000,4.000000,4.000000,4.000000,4.000000,4.000000,4.000000,4.000000,4.000000,4.000000,4.000000,4.000000,4.000000,4.000000,100.000000,,,,,,,,,,,,,,,,
1645710368.611302,73.000000,0.000000,4245.897461,4192.692383,4199.487305,4193.717773,4195.128418,4193.717773,4206.538574,4223.589844,4226.922852,4208.846191,4195.000000,4152.307617,4224.358887,4221.922852,0.000000,4.000000,86.000000,,,,0.000000,4.000000,4.000000,4.000000,4.000000,4.000000,4.000000,4.000000,4.000000,4.000000,4.000000,4.000000,4.000000,4.000000,4.000000,100.000000,,,,,,,,,,,,,,,,
1645710368.615242,74.000000,0.000000,4247.051270,4195.512695,4200.512695,4196.666504,4195.769043,4194.230957,4208.077148,4228.205078,4230.641113,4210.769043,4194.743652,4154.487305,4223.589844,4225.512695,0.000000,4.000000,86.000000,,,,0.000000,4.000000,4.000000,4.000000,4.000000,4.000000,4.000000,4.000000,4.000000,4.000000,4.000000,4.000000,4.000000,4.000000,4.000000,100.000000,,,,,,,,,,,,,,,,
1645710368.619182,75.000000,0.000000,4247.820313,4196.025879,4200.384766,4196.282227,4193.333496,4193.589844,4207.436035,4229.743652,4232.436035,4210.384766,4194.615234,4155.256348,4222.051270,4224.871582,0.000000,4.000000,86.000000,,,,0.000000,4.000000,4.000000,4.000000,4.000000,4.000000,4.000000,4.000000,4.000000,4.000000,4.000000,4.000000,4.000000,4.000000,4.000000,100.000000,,,,,,,,,,,,,,,,
1645710368.623022,76.000000,0.000000,4246.025879,4194.102539,4198.205078,4194.615234,4189.230957,4193.205078,4206.282227,4227.436035,4231.538574,4208.846191,4194.743652,4153.333496,4220.897461,4220.256348,0.000000,4.000000,86.000000,,,,0.000000,4.000000,4.000000,4.000000,4.000000,4.000000,4.000000,4.000000,4.000000,4.000000,4.000000,4.000000,4.000000,4.000000,4.000000,100.000000,,,,,,,,,,,,,,,,
1645710368.626962,77.000000,0.000000,4241.922852,4191.538574,4193.846191,4195.128418,4186.025879,4193.461426,4205.897461,4223.333496,4229.358887,4206.922852,4195.256348,4148.333496,4220.897461,4214.615234,0.000000,4.000000,86.000000,,,,0.000000,4.000000,4.000000,4.000000,4.000000,4.000000,4.000000,4.000000,4.000000,4.000000,4.000000,4.000000,4.000000,4.000000,4.000000,100.000000,,,,,,,,,,,,,,,,
1645710368.630902,78.000000,0.000000,4238.333496,4190.384766,4189.230957,4199.102539,4185.256348,4193.589844,4206.153809,4220.128418,4227.820313,4204.358887,4195.384766,4141.922852,4221.153809,4210.000000,0.000000,4.000000,86.000000,,,,0.000000,4.000000,4.000000,4.000000,4.000000,4.000000,4.000000,4.000000,4.000000,4.000000,4.000000,4.000000,4.000000,4.000000,4.000000,100.000000,,,,,,,,,,,,,,,,
1645710368.634842,79.000000,0.000000,4237.179688,4191.282227,4186.025879,4203.461426,4187.179688,4192.563965,4206.025879,4219.743652,4228.461426,4201.538574,4194.615234,4136.794922,4220.897461,4207.436035,0.000000,4.000000,86.000000,,,,0.000000,4.000000,4.000000,4.000000,4.000000,4.000000,4.000000,4.000000,4.000000,4.000000,4.000000,4.000000,4.000000,4.000000,4.000000,100.000000,,,,,,,,,,,,,,,,
1645710368.638783,80.000000,0.000000,4237.948730,4193.461426,4185.769043,4203.333496,4191.410156,4191.794922,4205.641113,4221.666504,4231.153809,4199.871582,4194.487305,4135.128418,4220.769043,4207.307617,0.000000,4.000000,86.000000,,,,0.000000,4.000000,4.000000,4.000000,4.000000,4.000000,4.000000,4.000000,4.000000,4.000000,4.000000,4.000000,4.000000,4.000000,4.000000,100.000000,,,,,,,,,,,,,,,,
1645710368.642723,81.000000,0.000000,4239.358887,4195.512695,4188.589844,4197.563965,4196.794922,4192.692383,4205.769043,4223.974121,4234.358887,4201.410156,4196.410156,4137.948730,4221.538574,4209.615234,0.000000,4.000000,86.000000,,,,0.000000,4.000000,4.000000,4.000000,4.000000,4.000000,4.000000,4.000000,4.000000,4.000000,4.000000,4.000000,4.000000,4.000000,4.000000,100.000000,,,,,,,,,,,,,,,,
1645710368.646663,82.000000,0.000000,4241.025879,4196.538574,4193.205078,4189.615234,4200.897461,4195.897461,4207.179688,4224.743652,4235.769043,4206.410156,4200.000000,4143.589844,4223.461426,4214.102539,0.000000,4.000000,86.000000,,,,0.000000,4.000000,4.000000,4.000000,4.000000,4.000000,4.000000,4.000000,4.000000,4.000000,4.000000,4.000000,4.000000,4.000000,4.000000,100.000000,,,,,,,,,,,,,,,,
1645710368.650603,83.000000,0.000000,4243.077148,4196.025879,4197.692383,4185.641113,4201.794922,4199.615234,4209.358887,4223.846191,4234.615234,4212.948730,4203.077148,4149.102539,4225.641113,4219.358887,0.000000,4.000000,86.000000,,,,0.000000,4.000000,4.000000,4.000000,4.000000,4.000000,4.000000,4.000000,4.000000,4.000000,4.000000,4.000000,4.000000,4.000000,4.000000,100.000000,,,,,,,,,,,,,,,,
1645710368.654543,84.000000,0.000000,4245.128418,4194.615234,4200.256348,4188.717773,4198.974121,4201.282227,4211.282227,4222.436035,4232.179688,4217.692383,4203.846191,4152.692383,4227.563965,4223.077148,0.000000,4.000000,86.000000,,,,0.000000,4.000000,4.000000,4.000000,4.000000,4.000000,4.000000,4.000000,4.000000,4.000000,4.000000,4.000000,4.000000,4.000000,4.000000,100.000000,,,,,,,,,,,,,,,,
1645710368.658483,85.000000,0.000000,4246.153809,4194.102539,4201.025879,4197.820313,4194.487305,4200.128418,4212.051270,4222.179688,4230.769043,4218.205078,4202.948730,4154.487305,4229.743652,4223.589844,0.000000,4.000000,86.000000,,,,0.000000,4.000000,4.000000,4.000000,4.000000,4.000000,4.000000,4.000000,4.000000,4.000000,4.000000,4.000000,4.000000,4.000000,4.000000,100.000000,,,,,,,,,,,,,,,,
1645710368.662423,86.000000,0.000000,4245.769043,4195.128418,4200.641113,4208.333496,4191.282227,4197.436035,4211.153809,4223.461426,4231.282227,4214.615234,4202.436035,4155.128418,4231.922852,4221.025879,0.000000,4.000000,86.000000,,,,0.000000,4.000000,4.000000,4.000000,4.000000,4.000000,4.000000,4.000000,4.000000,4.000000,4.000000,4.000000,4.000000,4.000000,4.000000,100.000000,,,,,,,,,,,,,,,,
1645710368.666363,87.000000,0.000000,4244.871582,4196.410156,4199.358887,4215.128418,4191.025879,4194.743652,4208.589844,4225.641113,4232.436035,4209.487305,4203.461426,4155.384766,4232.563965,4217.563965,0.000000,4.000000,86.000000,,,,0.000000,4.000000,4.000000,4.000000,4.000000,4.000000,4.000000,4.000000,4.000000,4.000000,4.000000,4.000000,4.000000,4.000000,4.000000,100.000000,,,,,,,,,,,,,,,,
1645710368.670303,88.000000,0.000000,4244.743652,4196.025879,4197.307617,4214.615234,4193.077148,4193.333496,4205.384766,4227.436035,4232.820313,4206.025879,4205.128418,4155.256348,4231.153809,4215.897461,0.000000,4.000000,86.000000,,,,0.000000,4.000000,4.000000,4.000000,4.000000,4.000000,4.000000,4.000000,4.000000,4.000000,4.000000,4.000000,4.000000,4.000000,4.000000,100.000000,,,,,,,,,,,,,,,,
1645710368.674243,89.000000,0.000000,4245.384766,4194.358887,4195.000000,4207.179688,4196.153809,4193.461426,4203.333496,4227.692383,4232.436035,4206.153809,4206.153809,4155.000000,4228.717773,4217.307617,0.000000,4.000000,86.000000,,,,0.000000,4.000000,4.000000,4.000000,4.000000,4.000000,4.000000,4.000000,4.000000,4.000000,4.000000,4.000000,4.000000,4.000000,4.000000,100.000000,,,,,,,,,,,,,,,,
1645710368.678084,90.000000,0.000000,4245.512695,4194.743652,4195.128418,4196.794922,4199.230957,4194.743652,4203.205078,4226.794922,4232.051270,4210.128418,4206.538574,4154.743652,4227.820313,4221.153809,0.000000,4.000000,86.000000,,,,0.000000,4.000000,4.000000,4.000000,4.000000,4.000000,4.000000,4.000000,4.000000,4.000000,4.000000,4.000000,4.000000,4.000000,4.000000,100.000000,,,,,,,,,,,,,,,,
1645710368.682024,91.000000,0.000000,4244.871582,4199.615234,4199.358887,4189.102539,4201.922852,4196.922852,4204.358887,4225.769043,4232.179688,4215.769043,4207.051270,4155.256348,4229.871582,4225.641113,0.000000,4.000000,86.000000,,,,0.000000,4.000000,4.000000,4.000000,4.000000,4.000000,4.000000,4.000000,4.000000,4.000000,4.000000,4.000000,4.000000,4.000000,4.000000,100.000000,,,,,,,,,,,,,,,,
1645710368.685964,92.000000,0.000000,4245.256348,4207.307617,4207.051270,4187.563965,4203.077148,4198.717773,4205.384766,4225.769043,4232.051270,4219.358887,4208.461426,4156.538574,4233.846191,4229.487305,0.000000,4.000000,86.000000,,,,0.000000,4.000000,4.000000,4.000000,4.000000,4.000000,4.000000,4.000000,4.000000,4.000000,4.000000,4.000000,4.000000,4.000000,4.000000,100.000000,,,,,,,,,,,,,,,,
1645710368.689904,93.000000,0.000000,4248.077148,4212.179688,4214.487305,4190.897461,4201.538574,4198.589844,4205.384766,4226.794922,4231.282227,4218.333496,4209.871582,4157.563965,4236.666504,4232.051270,0.000000,4.000000,86.000000,,,,0.000000,4.000000,4.000000,4.000000,4.000000,4.000000,4.000000,4.000000,4.000000,4.000000,4.000000,4.000000,4.000000,4.000000,4.000000,100.000000,,,,,,,,,,,,,,,,
1645710368.693844,94.000000,0.000000,4251.922852,4210.000000,4218.077148,4195.769043,4196.922852,4196.025879,4204.102539,4227.948730,4230.256348,4213.205078,4210.256348,4157.948730,4236.282227,4232.820313,0.000000,4.000000,86.000000,,,,0.000000,4.000000,4.000000,4.000000,4.000000,4.000000,4.000000,4.000000,4.000000,4.000000,4.000000,4.000000,4.000000,4.000000,4.000000,100.000000,,,,,,,,,,,,,,,,
1645710368.697784,95.000000,0.000000,4254.230957,4201.794922,4216.282227,4199.743652,4191.794922,4192.307617,4202.692383,4228.589844,4229.743652,4207.307617,4208.461426,4157.307617,4232.948730,4231.282227,0.000000,4.000000,86.000000,,,,0.000000,4.000000,4.000000,4.000000,4.000000,4.000000,4.000000,4.000000,4.000000,4.000000,4.000000,4.000000,4.000000,4.000000,4.000000,100.000000,,,,,,,,,,,,,,,,
1645710368.701724,96.000000,0.000000,4252.563965,4193.461426,4210.641113,4203.077148,4189.230957,4189.871582,4202.179688,4228.205078,4230.000000,4204.615234,4205.128418,4156.153809,4228.333496,4227.179688,0.000000,4.000000,86.000000,,,,0.000000,4.000000,4.000000,4.000000,4.000000,4.000000,4.000000,4.000000,4.000000,4.000000,4.000000,4.000000,4.000000,4.000000,4.000000,100.000000,,,,,,,,,,,,,,,,
1645710368.705664,97.000000,0.000000,4248.589844,4190.000000,4204.102539,4206.538574,4190.384766,4190.512695,4202.692383,4227.948730,4230.641113,4206.025879,4201.410156,4154.871582,4224.102539,4221.666504,0.000000,4.000000,86.000000,,,,0.000000,4.000000,4.000000,4.000000,4.000000,4.000000,4.000000,4.000000,4.000000,4.000000,4.000000,4.000000,4.000000,4.000000,4.000000,100.000000,,,,,,,,,,,,,,,,
1645710368.709605,98.000000,0.000000,4245.641113,4192.307617,4199.743652,4208.589844,4193.205078,4193.205078,4203.589844,4227.692383,4231.025879,4209.230957,4198.846191,4153.717773,4221.282227,4217.051270,0.000000,4.000000,86.000000,,,,0.000000,4.000000,4.000000,4.000000,4.000000,4.000000,4.000000,4.000000,4.000000,4.000000,4.000000,4.000000,4.000000,4.000000,4.000000,100.000000,,,,,,,,,,,,,,,,
1645710368.713545,99.000000,0.000000,4245.897461,4197.179688,4198.846191,4206.922852,4195.128418,4196.025879,4204.358887,4227.307617,4230.769043,4211.282227,4198.846191,4152.948730,4221.025879,4215.384766,0.000000,4.000000,86.000000,,,,0.000000,4.000000,4.000000,4.000000,4.000000,4.000000,4.000000,4.000000,4.000000,4.000000,4.000000,4.000000,4.000000,4.000000,4.000000,100.000000,,,,,,,,,,,,,,,,
1645710368.717485,100.000000,0.000000,4247.692383,4201.153809,4201.025879,4200.897461,4195.897461,4198.077148,4205.000000,4226.153809,4230.128418,4211.025879,4201.025879,4152.692383,4223.717773,4216.538574,0.000000,4.000000,86.000000,,,,0.000000,4.000000,4.000000,4.000000,4.000000,4.000000,4.000000,4.000000,4.000000,4.000000,4.000000,4.000000,4.000000,4.000000,4.000000,100.000000,,,,,,,,,,,,,,,,
1645710368.721425,101.000000,0.000000,4248.205078,4202.692383,4204.487305,4192.563965,4197.436035,4199.743652,4205.512695,4225.256348,4229.871582,4210.384766,4203.717773,4151.794922,4228.205078,4218.077148,0.000000,4.000000,86.000000,,,,0.000000,4.000000,4.000000,4.000000,4.000000,4.000000,4.000000,4.000000,4.000000,4.000000,4.000000,4.000000,4.000000,4.000000,4.000000,100.000000,,,,,,,,,,,,,,,,
1645710368.725365,102.000000,0.000000,4246.153809,4201.410156,4207.563965,4185.256348,4201.410156,4201.794922,4206.282227,4226.025879,4230.384766,4211.538574,4204.871582,4149.871582,4232.436035,4217.820313,0.000000,4.000000,86.000000,,,,0.000000,4.000000,4.000000,4.000000,4.000000,4.000000,4.000000,4.000000,4.000000,4.000000,4.000000,4.000000,4.000000,4.000000,4.000000,100.000000,,,,,,,,,,,,,,,,
1645710368.729305,103.000000,0.000000,4243.461426,4198.333496,4208.717773,4182.179688,4206.282227,4203.717773,4207.307617,4228.846191,4231.282227,4214.615234,4204.230957,4147.179688,4234.358887,4215.384766,0.000000,4.000000,86.000000,,,,0.000000,4.000000,4.000000,4.000000,4.000000,4.000000,4.000000,4.000000,4.000000,4.000000,4.000000,4.000000,4.000000,4.000000,4.000000,100.000000,,,,,,,,,,,,,,,,
1645710368.733245,104.000000,0.000000,4242.692383,4194.487305,4208.333496,4184.615234,4208.717773,4204.615234,4209.102539,4232.179688,4232.051270,4217.436035,4203.589844,4145.128418,4233.461426,4213.077148,0.000000,4.000000,86.000000,,,,0.000000,4.000000,4.000000,4.000000,4.000000,4.000000,4.000000,4.000000,4.000000,4.000000,4.000000,4.000000,4.000000,4.000000,4.000000,100.000000,,,,,,,,,,,,,,,,
1645710368.737185,105.000000,0.000000,4243.461426,4192.051270,4207.307617,4191.153809,4206.922852,4203.974121,4212.051270,4233.589844,4231.922852,4217.820313,4204.230957,4144.230957,4230.256348,4212.948730,0.000000,4.000000,86.000000,,,,0.000000,4.000000,4.000000,4.000000,4.000000,4.000000,4.000000,4.000000,4.000000,4.000000,4.000000,4.000000,4.000000,4.000000,4.000000,100.000000,,,,,,,,,,,,,,,,
1645710368.741125,106.000000,0.000000,4243.846191,4191.282227,4205.769043,4197.436035,4202.051270,4202.820313,4215.128418,4232.692383,4231.153809,4215.641113,4205.128418,4144.102539,4226.025879,4215.256348,0.000000,4.000000,86.000000,,,,0.000000,4.000000,4.000000,4.000000,4.000000,4.000000,4.000000,4.000000,4.000000,4.000000,4.000000,4.000000,4.000000,4.000000,4.000000,100.000000,,,,,,,,,,,,,,,,
1645710368.745065,107.000000,0.000000,4242.051270,4191.666504,4203.461426,4198.333496,4197.692383,4202.051270,4217.051270,4231.153809,4230.384766,4212.820313,4203.077148,4143.461426,4222.307617,4217.948730,0.000000,4.000000,86.000000,,,,0.000000,4.000000,4.000000,4.000000,4.000000,4.000000,4.000000,4.000000,4.000000,4.000000,4.000000,4.000000,4.000000,4.000000,4.000000,100.000000,,,,,,,,,,,,,,,,
1645710368.749006,108.000000,0.000000,4238.461426,4191.538574,4200.000000,4192.820313,4196.025879,4201.794922,4216.153809,4230.512695,4230.512695,4210.897461,4197.179688,4142.307617,4220.384766,4218.589844,0.000000,4.000000,86.000000,,,,0.000000,4.000000,4.000000,4.000000,4.000000,4.000000,4.000000,4.000000,4.000000,4.000000,4.000000,4.000000,4.000000,4.000000,4.000000,100.000000,,,,,,,,,,,,,,,,
1645710368.752846,109.000000,0.000000,4234.358887,4190.256348,4196.666504,4186.410156,4196.666504,4201.153809,4211.922852,4231.538574,4231.410156,4210.512695,4190.128418,4141.410156,4220.000000,4216.794922,0.000000,4.000000,86.000000,,,,0.000000,4.000000,4.000000,4.000000,4.000000,4.000000,4.000000,4.000000,4.000000,4.000000,4.000000,4.000000,4.000000,4.000000,4.000000,100.000000,,,,,,,,,,,,,,,,
1645710368.756786,110.000000,0.000000,4231.538574,4188.717773,4195.769043,4186.538574,4197.948730,4200.000000,4206.153809,4233.205078,4233.077148,4212.179688,4187.948730,4141.794922,4221.153809,4215.000000,0.000000,4.000000,86.000000,,,,0.000000,4.000000,4.000000,4.000000,4.000000,4.000000,4.000000,4.000000,4.000000,4.000000,4.000000,4.000000,4.000000,4.000000,4.000000,100.000000,,,,,,,,,,,,,,,,
1645710368.760726,111.000000,0.000000,4231.153809,4188.974121,4198.205078,4194.487305,4198.846191,4198.974121,4202.179688,4233.974121,4235.000000,4216.025879,4194.102539,4144.230957,4224.487305,4216.538574,0.000000,4.000000,86.000000,,,,0.000000,4.000000,4.000000,4.000000,4.000000,4.000000,4.000000,4.000000,4.000000,4.000000,4.000000,4.000000,4.000000,4.000000,4.000000,100.000000,,,,,,,,,,,,,,,,
1645710368.764666,112.000000,0.000000,4234.102539,4191.794922,4203.333496,4204.230957,4198.974121,4198.589844,4202.692383,4233.333496,4236.538574,4221.410156,4206.410156,4148.589844,4230.256348,4222.692383,0.000000,4.000000,86.000000,,,,0.000000,4.000000,4.000000,4.000000,4.000000,4.000000,4.000000,4.000000,4.000000,4.000000,4.000000,4.000000,4.000000,4.000000,4.000000,100.000000,1.000000,58.333332,4.000000,4.000000,3.000000,4.000000,3.000000,3.000000,1.000000,3.000000,4.000000,3.000000,4.000000,4.000000,4.000000,4.000000
1645710368.768606,113.000000,0.000000,4240.512695,4196.666504,4209.615234,4207.051270,4198.589844,4199.230957,4207.051270,4231.666504,4237.051270,4225.641113,4217.820313,4153.846191,4237.179688,4230.641113,0.000000,4.000000,86.000000,,,,0.000000,4.000000,4.000000,4.000000,4.000000,4.000000,4.000000,4.000000,4.000000,4.000000,4.000000,4.000000,4.000000,4.000000,4.000000,100.000000,,,,,,,,,,,,,,,,
1645710368.772546,114.000000,0.000000,4248.205078,4201.794922,4214.871582,4200.256348,4197.948730,4201.025879,4211.666504,4229.230957,4236.025879,4225.769043,4221.410156,4158.333496,4241.794922,4235.897461,0.000000,4.000000,86.000000,,,,0.000000,4.000000,4.000000,4.000000,4.000000,4.000000,4.000000,4.000000,4.000000,4.000000,4.000000,4.000000,4.000000,4.000000,4.000000,100.000000,,,,,,,,,,,,,,,,
1645710368.776486,115.000000,0.000000,4253.205078,4205.512695,4217.436035,4189.230957,4197.948730,4203.333496,4213.333496,4226.538574,4233.846191,4221.794922,4216.410156,4160.128418,4241.794922,4234.871582,0.000000,4.000000,86.000000,,,,0.000000,4.000000,4.000000,4.000000,4.000000,4.000000,4.000000,4.000000,4.000000,4.000000,4.000000,4.000000,4.000000,4.000000,4.000000,100.000000,,,,,,,,,,,,,,,,
1645710368.780427,116.000000,0.000000,4252.436035,4207.307617,4216.794922,4182.820313,4199.102539,4205.641113,4210.512695,4223.717773,4231.410156,4217.051270,4207.820313,4158.589844,4237.307617,4228.205078,0.000000,4.000000,86.000000,,,,0.000000,4.000000,4.000000,4.000000,4.000000,4.000000,4.000000,4.000000,4.000000,4.000000,4.000000,4.000000,4.000000,4.000000,4.000000,100.000000,,,,,,,,,,,,,,,,
1645710368.784367,117.000000,0.000000,4247.307617,4207.948730,4213.717773,4185.769043,4201.282227,4207.179688,4205.641113,4221.794922,4229.871582,4214.871582,4202.820313,4155.384766,4230.897461,4220.128418,0.000000,4.000000,86.000000,,,,0.000000,4.000000,4.000000,4.000000,4.000000,4.000000,4.000000,4.000000,4.000000,4.000000,4.000000,4.000000,4.000000,4.000000,4.000000,100.000000,,,,,,,,,,,,,,,,
1645710368.788307,118.000000,0.000000,4243.333496,4208.974121,4211.025879,4194.743652,4203.461426,4207.051270,4202.563965,4221.025879,4229.615234,4216.153809,4204.358887,4153.205078,4226.282227,4215.897461,0.000000,4.000000,86.000000,,,,0.000000,4.000000,4.000000,4.000000,4.000000,4.000000,4.000000,4.000000,4.000000,4.000000,4.000000,4.000000,4.000000,4.000000,4.000000,100.000000,,,,,,,,,,,,,,,,
1645710368.792247,119.000000,0.000000,4245.000000,4211.025879,4211.410156,4201.922852,4204.743652,4206.282227,4204.102539,4221.922852,4230.256348,4218.461426,4210.256348,4154.230957,4226.153809,4218.333496,0.000000,4.000000,86.000000,,,,0.000000,4.000000,4.000000,4.000000,4.000000,4.000000,4.000000,4.000000,4.000000,4.000000,4.000000,4.000000,4.000000,4.000000,4.000000,100.000000,,,,,,,,,,,,,,,,
1645710368.796187,120.000000,0.000000,4251.538574,4213.205078,4215.128418,4201.794922,4205.000000,4206.538574,4209.871582,4224.230957,4231.025879,4219.871582,4215.384766,4158.717773,4229.743652,4225.512695,0.000000,4.000000,86.000000,,,,0.000000,4.000000,4.000000,4.000000,4.000000,4.000000,4.000000,4.000000,4.000000,4.000000,4.000000,4.000000,4.000000,4.000000,4.000000,100.000000,,,,,,,,,,,,,,,,
1645710368.800127,121.000000,0.000000,4257.307617,4213.205078,4219.487305,4195.512695,4205.256348,4209.102539,4216.410156,4227.051270,4231.794922,4220.256348,4216.794922,4164.487305,4234.358887,4232.179688,0.000000,4.000000,86.000000,,,,0.000000,4.000000,4.000000,4.000000,4.000000,4.000000,4.000000,4.000000,4.000000,4.000000,4.000000,4.000000,4.000000,4.000000,4.000000,100.000000,,,,,,,,,,,,,,,,
1645710368.804067,122.000000,0.000000,4257.692383,4209.871582,4221.025879,4189.487305,4206.538574,4212.820313,4220.256348,4229.487305,4232.563965,4221.025879,4215.256348,4168.974121,4236.666504,4234.743652,0.000000,4.000000,86.000000,,,,0.000000,4.000000,4.000000,4.000000,4.000000,4.000000,4.000000,4.000000,4.000000,4.000000,4.000000,4.000000,4.000000,4.000000,4.000000,100.000000,,,,,,,,,,,,,,,,
1645710368.808007,123.000000,0.000000,4252.948730,4204.615234,4218.974121,4189.230957,4208.717773,4215.384766,4220.000000,4230.897461,4233.461426,4222.820313,4213.333496,4170.256348,4235.512695,4233.717773,0.000000,4.000000,86.000000,,,,0.000000,4.000000,4.000000,4.000000,4.000000,4.000000,4.000000,4.000000,4.000000,4.000000,4.000000,4.000000,4.000000,4.000000,4.000000,100.000000,,,,,,,,,,,,,,,,
1645710368.811947,124.000000,0.000000,4248.077148,4201.153809,4215.769043,4196.282227,4211.538574,4216.794922,4217.948730,4231.666504,4233.846191,4224.615234,4213.077148,4168.461426,4232.563965,4232.179688,0.000000,4.000000,86.000000,,,,0.000000,4.000000,4.000000,4.000000,4.000000,4.000000,4.000000,4.000000,4.000000,4.000000,4.000000,4.000000,4.000000,4.000000,4.000000,100.000000,,,,,,,,,,,,,,,,
1645710368.815887,125.000000,0.000000,4247.307617,4203.077148,4214.487305,4206.282227,4214.615234,4218.205078,4217.436035,4232.436035,4233.461426,4225.256348,4214.743652,4165.512695,4230.512695,4232.820313,0.000000,4.000000,86.000000,,,,0.000000,4.000000,4.000000,4.000000,4.000000,4.000000,4.000000,4.000000,4.000000,4.000000,4.000000,4.000000,4.000000,4.000000,4.000000,100.000000,,,,,,,,,,,,,,,,
1645710368.819828,126.000000,0.000000,4250.641113,4210.641113,4216.153809,4213.974121,4217.692383,4220.897461,4219.871582,4233.205078,4232.436035,4223.846191,4216.410156,4163.333496,4230.384766,4234.230957,0.000000,4.000000,86.000000,,,,0.000000,4.000000,4.000000,4.000000,4.000000,4.000000,4.000000,4.000000,4.000000,4.000000,4.000000,4.000000,4.000000,4.000000,4.000000,100.000000,,,,,,,,,,,,,,,,
1645710368.823768,127.000000,0.000000,4254.487305,4220.000000,4218.461426,4215.897461,4219.230957,4223.846191,4223.333496,4232.307617,4231.794922,4220.000000,4215.384766,4161.666504,4230.641113,4233.589844,0.000000,4.000000,86.000000,,,,0.000000,4.000000,4.000000,4.000000,4.000000,4.000000,4.000000,4.000000,4.000000,4.000000,4.000000,4.000000,4.000000,4.000000,4.000000,100.000000,,,,,,,,,,,,,,,,
1645710368.827608,128.000000,0.000000,4255.256348,4225.256348,4218.205078,4212.563965,4217.307617,4224.102539,4224.230957,4229.230957,4231.410156,4214.230957,4209.871582,4158.589844,4228.205078,4228.589844,3270.000000,4.000000,86.000000,,,,0.000000,4.000000,4.000000,4.000000,4.000000,4.000000,4.000000,4.000000,4.000000,4.000000,4.000000,4.000000,4.000000,4.000000,4.000000,100.000000,,,,,,,,,,,,,,,,
1645710368.831548,129.000000,0.000000,4251.666504,4222.563965,4214.102539,4206.282227,4211.410156,4220.512695,4220.384766,4225.641113,4230.769043,4208.205078,4201.025879,4152.820313,4222.436035,4220.384766,3375.000000,4.000000,86.000000,,,,0.000000,4.000000,4.000000,4.000000,4.000000,4.000000,4.000000,4.000000,4.000000,4.000000,4.000000,4.000000,4.000000,4.000000,4.000000,100.000000,,,,,,,,,,,,,,,,
1645710368.835488,130.000000,0.000000,4244.871582,4212.692383,4206.922852,4199.871582,4203.846191,4214.230957,4213.461426,4223.974121,4228.974121,4204.615234,4193.077148,4145.512695,4215.384766,4212.692383,2316.000000,4.000000,86.000000,,,,0.000000,4.000000,4.000000,4.000000,4.000000,4.000000,4.000000,4.000000,4.000000,4.000000,4.000000,4.000000,4.000000,4.000000,4.000000,100.000000,,,,,,,,,,,,,,,,
1645710368.839428,131.000000,0.000000,4237.307617,4200.641113,4199.615234,4195.128418,4198.077148,4208.333496,4207.051270,4225.128418,4226.153809,4205.128418,4190.384766,4140.128418,4211.410156,4209.743652,3435.000000,4.000000,86.000000,,,,0.000000,4.000000,4.000000,4.000000,4.000000,4.000000,4.000000,4.000000,4.000000,4.000000,4.000000,4.000000,4.000000,4.000000,4.000000,100.000000,,,,,,,,,,,,,,,,
1645710368.843368,132.000000,0.000000,4231.153809,4191.794922,4195.256348,4193.205078,4196.025879,4205.000000,4204.102539,4227.436035,4223.589844,4207.820313,4194.615234,4139.871582,4212.692383,4212.179688,3486.000000,4.000000,86.000000,,,,0.000000,4.000000,4.000000,4.000000,4.000000,4.000000,4.000000,4.000000,4.000000,4.000000,4.000000,4.000000,4.000000,4.000000,4.000000,100.000000,,,,,,,,,,,,,,,,
1645710368.847308,133.000000,0.000000,4228.846191,4189.487305,4195.641113,4193.205078,4196.666504,4204.102539,4204.743652,4228.589844,4222.692383,4208.717773,4202.051270,4145.000000,4217.436035,4216.794922,3394.000000,4.000000,86.000000,,,,0.000000,4.000000,4.000000,4.000000,4.000000,4.000000,4.000000,4.000000,4.000000,4.000000,4.000000,4.000000,4.000000,4.000000,4.000000,100.000000,,,,,,,,,,,,,,,,
1645710368.851249,134.000000,0.000000,4231.410156,4193.461426,4200.897461,4192.948730,4198.589844,4204.487305,4207.563965,4227.692383,4224.102539,4206.025879,4206.922852,4152.563965,4221.025879,4219.102539,3196.000000,4.000000,86.000000,,,,0.000000,4.000000,4.000000,4.000000,4.000000,4.000000,4.000000,4.000000,4.000000,4.000000,4.000000,4.000000,4.000000,4.000000,4.000000,100.000000,,,,,,,,,,,,,,,,
1645710368.855189,135.000000,0.000000,4237.179688,4201.025879,4208.589844,4190.256348,4200.256348,4205.000000,4210.897461,4225.384766,4227.051270,4202.051270,4205.641113,4158.333496,4220.384766,4217.563965,1834.000000,4.000000,86.000000,,,,0.000000,4.000000,4.000000,4.000000,4.000000,4.000000,4.000000,4.000000,4.000000,4.000000,4.000000,4.000000,4.000000,4.000000,4.000000,100.000000,,,,,,,,,,,,,,,,
1645710368.859129,136.000000,0.000000,4242.307617,4207.820313,4214.487305,4186.025879,4201.153809,4205.641113,4213.333496,4223.846191,4230.000000,4200.384766,4199.871582,4159.871582,4215.897461,4214.487305,1350.000000,4.000000,86.000000,,,,0.000000,4.000000,4.000000,4.000000,4.000000,4.000000,4.000000,4.000000,4.000000,4.000000,4.000000,4.000000,4.000000,4.000000,4.000000,100.000000,,,,,,,,,,,,,,,,
1645710368.863069,137.000000,0.000000,4243.589844,4210.384766,4215.897461,4183.846191,4201.025879,4206.410156,4214.230957,4224.230957,4231.666504,4202.307617,4194.615234,4157.051270,4211.153809,4213.333496,3061.000000,4.000000,86.000000,,,,0.000000,4.000000,4.000000,4.000000,4.000000,4.000000,4.000000,4.000000,4.000000,4.000000,4.000000,4.000000,4.000000,4.000000,4.000000,100.000000,,,,,,,,,,,,,,,,
1645710368.867009,138.000000,0.000000,4240.769043,4207.179688,4212.563965,4186.153809,4199.615234,4206.538574,4213.846191,4226.538574,4231.666504,4206.025879,4192.692383,4152.436035,4208.974121,4216.025879,2332.000000,4.000000,86.000000,,,,0.000000,4.000000,4.000000,4.000000,4.000000,4.000000,4.000000,4.000000,4.000000,4.000000,4.000000,4.000000,4.000000,4.000000,4.000000,100.000000,,,,,,,,,,,,,,,,
1645710368.870949,139.000000,0.000000,4237.307617,4200.512695,4207.307617,4193.077148,4196.922852,4205.512695,4212.820313,4229.743652,4230.512695,4208.461426,4194.230957,4148.974121,4210.128418,4221.410156,2722.000000,4.000000,86.000000,,,,0.000000,4.000000,4.000000,4.000000,4.000000,4.000000,4.000000,4.000000,4.000000,4.000000,4.000000,4.000000,4.000000,4.000000,4.000000,100.000000,,,,,,,,,,,,,,,,
1645710368.874889,140.000000,0.000000,4236.666504,4195.384766,4203.846191,4202.051270,4195.256348,4204.230957,4212.563965,4232.436035,4229.743652,4209.358887,4197.820313,4148.461426,4213.205078,4227.179688,3325.000000,4.000000,86.000000,,,,0.000000,4.000000,4.000000,4.000000,4.000000,4.000000,4.000000,4.000000,4.000000,4.000000,4.000000,4.000000,4.000000,4.000000,4.000000,100.000000,,,,,,,,,,,,,,,,
1645710368.878829,141.000000,0.000000,4240.769043,4196.538574,4204.615234,4210.000000,4197.692383,4204.102539,4214.358887,4234.615234,4230.769043,4210.769043,4202.948730,4150.641113,4216.794922,4231.025879,2979.000000,4.000000,86.000000,,,,0.000000,4.000000,4.000000,4.000000,4.000000,4.000000,4.000000,4.000000,4.000000,4.000000,4.000000,4.000000,4.000000,4.000000,4.000000,100.000000,,,,,,,,,,,,,,,,
1645710368.882769,142.000000,0.000000,4249.102539,4203.846191,4209.358887,4214.871582,4204.871582,4206.282227,4217.692383,4236.666504,4233.461426,4214.871582,4209.230957,4153.589844,4220.512695,4232.051270,2332.000000,4.000000,86.000000,,,,0.000000,4.000000,4.000000,4.000000,4.000000,4.000000,4.000000,4.000000,4.000000,4.000000,4.000000,4.000000,4.000000,4.000000,4.000000,100.000000,,,,,,,,,,,,,,,,
1645710368.886710,143.000000,0.000000,4259.230957,4212.563965,4215.641113,4216.025879,4213.333496,4209.487305,4219.743652,4238.846191,4236.153809,4220.512695,4214.871582,4155.512695,4224.358887,4230.000000,2722.000000,4.000000,86.000000,,,,0.000000,4.000000,4.000000,4.000000,4.000000,4.000000,4.000000,4.000000,4.000000,4.000000,4.000000,4.000000,4.000000,4.000000,4.000000,100.000000,,,,,,,,,,,,,,,,
1645710368.890650,144.000000,0.000000,4267.820313,4216.538574,4220.128418,4214.487305,4217.051270,4211.410156,4218.077148,4240.384766,4237.051270,4224.230957,4217.307617,4155.769043,4227.436035,4225.769043,3325.000000,4.000000,86.000000,,,,0.000000,4.000000,4.000000,4.000000,4.000000,4.000000,4.000000,4.000000,4.000000,4.000000,4.000000,4.000000,4.000000,4.000000,4.000000,100.000000,,,,,,,,,,,,,,,,
1645710368.894590,145.000000,0.000000,4271.794922,4213.205078,4220.512695,4211.666504,4212.692383,4210.128418,4213.205078,4239.743652,4235.256348,4222.820313,4215.512695,4154.487305,4228.461426,4220.897461,2979.000000,4.000000,86.000000,,,,0.000000,4.000000,4.000000,4.000000,4.000000,4.000000,4.000000,4.000000,4.000000,4.000000,4.000000,4.000000,4.000000,4.000000,4.000000,100.000000,,,,,,,,,,,,,,,,
1645710368.898530,146.000000,0.000000,4269.871582,4205.769043,4216.922852,4207.820313,4203.205078,4206.538574,4208.333496,4236.538574,4232.563965,4216.922852,4211.538574,4152.692383,4226.538574,4217.307617,2332.000000,4.000000,86.000000,,,,0.000000,4.000000,4.000000,4.000000,4.000000,4.000000,4.000000,4.000000,4.000000,4.000000,4.000000,4.000000,4.000000,4.000000,4.000000,100.000000,,,,,,,,,,,,,,,,
1645710368.902370,147.000000,0.000000,4264.487305,4200.512695,4212.563965,4202.820313,4194.615234,4202.436035,4206.282227,4232.179688,4230.769043,4210.384766,4208.461426,4151.282227,4223.077148,4215.769043,2722.000000,4.000000,86.000000,,,,0.000000,4.000000,4.000000,4.000000,4.000000,4.000000,4.000000,4.000000,4.000000,4.000000,4.000000,4.000000,4.000000,4.000000,4.000000,100.000000,,,,,,,,,,,,,,,,
1645710368.906310,148.000000,0.000000,4260.384766,4201.025879,4210.897461,4197.307617,4191.538574,4199.230957,4207.179688,4229.871582,4230.641113,4207.692383,4207.179688,4151.153809,4220.000000,4215.769043,3325.000000,4.000000,86.000000,,,,0.000000,4.000000,4.000000,4.000000,4.000000,4.000000,4.000000,4.000000,4.000000,4.000000,4.000000,4.000000,4.000000,4.000000,4.000000,100.000000,,,,,,,,,,,,,,,,
1645710368.910250,149.000000,0.000000,4261.025879,4206.666504,4212.948730,4193.205078,4193.205078,4197.436035,4208.846191,4231.025879,4231.666504,4210.128418,4206.025879,4152.307617,4218.461426,4216.666504,2979.000000,4.000000,86.000000,,,,0.000000,4.000000,4.000000,4.000000,4.000000,4.000000,4.000000,4.000000,4.000000,4.000000,4.000000,4.000000,4.000000,4.000000,4.000000,100.000000,,,,,,,,,,,,,,,,
1645710368.914190,150.000000,0.000000,4265.384766,4213.461426,4216.794922,4193.589844,4196.025879,4196.922852,4208.846191,4234.230957,4232.179688,4215.000000,4204.102539,4154.102539,4218.333496,4218.461426,2332.000000,4.000000,86.000000,,,,0.000000,4.000000,4.000000,4.000000,4.000000,4.000000,4.000000,4.000000,4.000000,4.000000,4.000000,4.000000,4.000000,4.000000,4.000000,100.000000,,,,,,,,,,,,,,,,
1645710368.918130,151.000000,0.000000,4268.717773,4217.051270,4219.102539,4199.743652,4197.179688,4197.692383,4207.051270,4236.153809,4232.051270,4218.589844,4202.820313,4155.000000,4219.102539,4221.153809,2722.000000,4.000000,86.000000,,,,0.000000,4.000000,4.000000,4.000000,4.000000,4.000000,4.000000,4.000000,4.000000,4.000000,4.000000,4.000000,4.000000,4.000000,4.000000,100.000000,,,,,,,,,,,,,,,,
1645710368.922071,152.000000,0.000000,4267.692383,4215.384766,4218.205078,4209.230957,4197.436035,4200.384766,4204.871582,4234.743652,4231.666504,4218.589844,4204.487305,4154.743652,4221.410156,4223.846191,3325.000000,4.000000,86.000000,,,,0.000000,4.000000,4.000000,4.000000,4.000000,4.000000,4.000000,4.000000,4.000000,4.000000,4.000000,4.000000,4.000000,4.000000,4.000000,100.000000,,,,,,,,,,,,,,,,
1645710368.926011,153.000000,0.000000,4263.461426,4209.230957,4214.358887,4216.282227,4198.333496,4204.102539,4204.358887,4231.282227,4232.436035,4215.256348,4210.256348,4154.102539,4224.358887,4225.384766,2979.000000,4.000000,86.000000,,,,0.000000,4.000000,4.000000,4.000000,4.000000,4.000000,4.000000,4.000000,4.000000,4.000000,4.000000,4.000000,4.000000,4.000000,4.000000,100.000000,,,,,,,,,,,,,,,,
1645710368.929951,154.000000,0.000000,4260.512695,4201.153809,4210.512695,4215.897461,4200.641113,4206.794922,4206.410156,4229.230957,4233.974121,4211.025879,4217.692383,4154.102539,4226.153809,4225.128418,2332.000000,4.000000,86.000000,,,,0.000000,4.000000,4.000000,4.000000,4.000000,4.000000,4.000000,4.000000,4.000000,4.000000,4.000000,4.000000,4.000000,4.000000,4.000000,100.000000,,,,,,,,,,,,,,,,
1645710368.933891,155.000000,0.000000,4260.641113,4194.487305,4208.717773,4209.358887,4202.692383,4206.922852,4210.512695,4230.641113,4234.102539,4208.077148,4221.922852,4155.256348,4225.512695,4223.589844,2722.000000,4.000000,86.000000,,,,0.000000,4.000000,4.000000,4.000000,4.000000,4.000000,4.000000,4.000000,4.000000,4.000000,4.000000,4.000000,4.000000,4.000000,4.000000,100.000000,,,,,,,,,,,,,,,,
1645710368.937831,156.000000,0.000000,4262.051270,4192.051270,4210.000000,4203.333496,4203.205078,4205.000000,4214.230957,4234.358887,4231.666504,4207.692383,4219.358887,4156.666504,4223.589844,4221.666504,3325.000000,4.000000,86.000000,,,,0.000000,4.000000,4.000000,4.000000,4.000000,4.000000,4.000000,4.000000,4.000000,4.000000,4.000000,4.000000,4.000000,4.000000,4.000000,100.000000,,,,,,,,,,,,,,,,
1645710368.941771,157.000000,0.000000,4261.153809,4195.128418,4212.820313,4203.846191,4202.051270,4203.205078,4215.384766,4236.794922,4227.307617,4208.974121,4210.769043,4156.922852,4222.179688,4220.128418,2979.000000,4.000000,86.000000,,,,0.000000,4.000000,4.000000,4.000000,4.000000,4.000000,4.000000,4.000000,4.000000,4.000000,4.000000,4.000000,4.000000,4.000000,4.000000,100.000000,,,,,,,,,,,,,,,,
1645710368.945711,158.000000,0.000000,4257.307617,4201.666504,4214.871582,4209.871582,4200.512695,4203.205078,4213.333496,4235.384766,4223.846191,4210.128418,4201.410156,4155.769043,4222.307617,4218.846191,2332.000000,4.000000,86.000000,,,,0.000000,4.000000,4.000000,4.000000,4.000000,4.000000,4.000000,4.000000,4.000000,4.000000,4.000000,4.000000,4.000000,4.000000,4.000000,100.000000,,,,,,,,,,,,,,,,
1645710368.949651,159.000000,0.000000,4253.077148,4208.333496,4214.743652,4214.487305,4199.871582,4204.871582,4209.230957,4231.410156,4223.333496,4210.000000,4196.538574,4154.230957,4223.333496,4218.077148,2722.000000,4.000000,86.000000,,,,0.000000,4.000000,4.000000,4.000000,4.000000,4.000000,4.000000,4.000000,4.000000,4.000000,4.000000,4.000000,4.000000,4.000000,4.000000,100.000000,,,,,,,,,,,,,,,,
1645710368.953591,160.000000,0.000000,4251.025879,4212.051270,4212.948730,4211.538574,4201.538574,4206.538574,4205.769043,4227.307617,4225.512695,4208.077148,4197.436035,4153.077148,4224.102539,4217.563965,3325.000000,4.000000,86.000000,,,,0.000000,4.000000,4.000000,4.000000,4.000000,4.000000,4.000000,4.000000,4.000000,4.000000,4.000000,4.000000,4.000000,4.000000,4.000000,100.000000,,,,,,,,,,,,,,,,
1645710368.957532,161.000000,0.000000,4251.153809,4211.538574,4211.153809,4201.282227,4205.384766,4207.436035,4204.615234,4225.128418,4228.077148,4205.641113,4200.256348,4152.436035,4224.102539,4216.922852,2979.000000,4.000000,86.000000,,,,0.000000,4.000000,4.000000,4.000000,4.000000,4.000000,4.000000,4.000000,4.000000,4.000000,4.000000,4.000000,4.000000,4.000000,4.000000,100.000000,,,,,,,,,,,,,,,,
1645710368.961472,162.000000,0.000000,4251.538574,4207.692383,4209.743652,4190.512695,4209.487305,4207.307617,4205.384766,4224.230957,4228.077148,4203.461426,4199.871582,4151.153809,4222.948730,4216.025879,2332.000000,4.000000,86.000000,,,,0.000000,4.000000,4.000000,4.000000,4.000000,4.000000,4.000000,4.000000,4.000000,4.000000,4.000000,4.000000,4.000000,4.000000,4.000000,100.000000,,,,,,,,,,,,,,,,
1645710368.965412,163.000000,0.000000,4251.025879,4202.436035,4208.461426,4186.282227,4211.282227,4206.794922,4207.179688,4223.461426,4224.487305,4201.153809,4194.871582,4149.102539,4220.897461,4215.256348,2722.000000,4.000000,86.000000,,,,0.000000,4.000000,4.000000,4.000000,4.000000,4.000000,4.000000,4.000000,4.000000,4.000000,4.000000,4.000000,4.000000,4.000000,4.000000,100.000000,,,,,,,,,,,,,,,,
1645710368.969352,164.000000,0.000000,4250.128418,4197.692383,4206.410156,4191.410156,4209.230957,4206.666504,4209.358887,4221.922852,4218.974121,4197.948730,4188.461426,4146.922852,4218.205078,4215.000000,3325.000000,4.000000,86.000000,,,,0.000000,4.000000,4.000000,4.000000,4.000000,4.000000,4.000000,4.000000,4.000000,4.000000,4.000000,4.000000,4.000000,4.000000,4.000000,100.000000,,,,,,,,,,,,,,,,
1645710368.973292,165.000000,0.000000,4250.000000,4195.128418,4204.230957,4203.461426,4205.512695,4207.179688,4212.051270,4220.000000,4213.974121,4193.974121,4186.153809,4145.512695,4215.641113,4215.384766,2979.000000,4.000000,86.000000,,,,0.000000,4.000000,4.000000,4.000000,4.000000,4.000000,4.000000,4.000000,4.000000,4.000000,4.000000,4.000000,4.000000,4.000000,4.000000,100.000000,,,,,,,,,,,,,,,,
1645710368.977132,166.000000,0.000000,4250.128418,4195.769043,4202.948730,4216.410156,4203.461426,4208.846191,4215.000000,4218.974121,4212.307617,4191.922852,4191.025879,4146.025879,4213.717773,4215.897461,2332.000000,4.000000,86.000000,,,,0.000000,4.000000,4.000000,4.000000,4.000000,4.000000,4.000000,4.000000,4.000000,4.000000,4.000000,4.000000,4.000000,4.000000,4.000000,100.000000,,,,,,,,,,,,,,,,
1645710368.981072,167.000000,0.000000,4249.487305,4199.102539,4203.974121,4225.256348,4205.256348,4211.025879,4216.794922,4220.384766,4214.871582,4194.487305,4200.641113,4148.205078,4213.717773,4216.794922,2722.000000,4.000000,86.000000,,,,0.000000,4.000000,4.000000,4.000000,4.000000,4.000000,4.000000,4.000000,4.000000,4.000000,4.000000,4.000000,4.000000,4.000000,4.000000,100.000000,,,,,,,,,,,,,,,,
1645710368.985012,168.000000,0.000000,4248.205078,4203.717773,4207.307617,4227.820313,4209.102539,4212.563965,4216.922852,4224.487305,4220.256348,4202.307617,4209.230957,4151.410156,4216.410156,4218.846191,3325.000000,4.000000,86.000000,,,,0.000000,4.000000,4.000000,4.000000,4.000000,4.000000,4.000000,4.000000,4.000000,4.000000,4.000000,4.000000,4.000000,4.000000,4.000000,100.000000,,,,,,,,,,,,,,,,
1645710368.988952,169.000000,0.000000,4248.077148,4207.692383,4211.922852,4224.743652,4211.794922,4212.820313,4216.282227,4230.128418,4225.897461,4212.692383,4213.333496,4154.102539,4221.922852,4222.563965,2979.000000,4.000000,86.000000,,,,0.000000,4.000000,4.000000,4.000000,4.000000,4.000000,4.000000,4.000000,4.000000,4.000000,4.000000,4.000000,4.000000,4.000000,4.000000,100.000000,,,,,,,,,,,,,,,,
1645710368.992893,170.000000,0.000000,4250.128418,4209.487305,4216.538574,4219.102539,4211.666504,4212.051270,4216.153809,4234.871582,4229.743652,4221.794922,4213.333496,4155.641113,4229.230957,4226.922852,2332.000000,4.000000,86.000000,,,,0.000000,4.000000,4.000000,4.000000,4.000000,4.000000,4.000000,4.000000,4.000000,4.000000,4.000000,4.000000,4.000000,4.000000,4.000000,100.000000,,,,,,,,,,,,,,,,
1645710368.996833,171.000000,0.000000,4252.692383,4208.846191,4219.487305,4213.974121,4210.128418,4211.794922,4217.051270,4236.922852,4231.538574,4227.051270,4212.436035,4156.153809,4236.025879,4229.743652,2722.000000,4.000000,86.000000,,,,0.000000,4.000000,4.000000,4.000000,4.000000,4.000000,4.000000,4.000000,4.000000,4.000000,4.000000,4.000000,4.000000,4.000000,4.000000,100.000000,,,,,,,,,,,,,,,,
1645710369.000773,172.000000,0.000000,4253.333496,4206.410156,4220.000000,4210.769043,4209.615234,4213.077148,4218.717773,4235.512695,4232.051270,4228.205078,4212.692383,4156.025879,4239.743652,4229.230957,3325.000000,4.000000,86.000000,,,,0.000000,4.000000,4.000000,4.000000,4.000000,4.000000,4.000000,4.000000,4.000000,4.000000,4.000000,4.000000,4.000000,4.000000,4.000000,100.000000,,,,,,,,,,,,,,,,
1645710369.004713,173.000000,0.000000,4251.282227,4203.589844,4218.077148,4209.230957,4211.153809,4215.256348,4220.256348,4232.307617,4232.179688,4226.410156,4212.563965,4155.128418,4238.461426,4225.128418,2979.000000,4.000000,86.000000,,,,0.000000,4.000000,4.000000,4.000000,4.000000,4.000000,4.000000,4.000000,4.000000,4.000000,4.000000,4.000000,4.000000,4.000000,4.000000,100.000000,,,,,,,,,,,,,,,,
1645710369.008653,174.000000,0.000000,4248.461426,4201.153809,4214.102539,4207.820313,4213.205078,4216.666504,4220.641113,4230.128418,4231.794922,4221.922852,4209.615234,4153.974121,4231.666504,4218.717773,2332.000000,4.000000,86.000000,,,,0.000000,4.000000,4.000000,4.000000,4.000000,4.000000,4.000000,4.000000,4.000000,4.000000,4.000000,4.000000,4.000000,4.000000,4.000000,100.000000,,,,,,,,,,,,,,,,
1645710369.012593,175.000000,0.000000,4246.410156,4199.358887,4208.974121,4206.410156,4213.205078,4215.897461,4218.974121,4230.897461,4230.512695,4215.256348,4203.205078,4152.692383,4222.179688,4212.563965,2722.000000,4.000000,86.000000,,,,0.000000,4.000000,4.000000,4.000000,4.000000,4.000000,4.000000,4.000000,4.000000,4.000000,4.000000,4.000000,4.000000,4.000000,4.000000,100.000000,,,,,,,,,,,,,,,,
1645710369.016533,176.000000,0.000000,4245.000000,4198.717773,4204.102539,4206.538574,4209.743652,4213.205078,4215.641113,4233.333496,4229.358887,4207.948730,4195.769043,4151.538574,4213.974121,4209.230957,3325.000000,4.000000,86.000000,,,,0.000000,4.000000,4.000000,4.000000,4.000000,4.000000,4.000000,4.000000,4.000000,4.000000,4.000000,4.000000,4.000000,4.000000,4.000000,100.000000,,,,,,,,,,,,,,,,
1645710369.020473,177.000000,0.000000,4243.077148,4199.743652,4201.282227,4209.230957,4203.846191,4209.871582,4211.794922,4234.487305,4229.230957,4202.948730,4191.538574,4150.897461,4209.871582,4209.615234,2979.000000,4.000000,86.000000,,,,0.000000,4.000000,4.000000,4.000000,4.000000,4.000000,4.000000,4.000000,4.000000,4.000000,4.000000,4.000000,4.000000,4.000000,4.000000,100.000000,,,,,,,,,,,,,,,,
1645710369.024413,178.000000,0.000000,4240.769043,4201.282227,4201.922852,4213.461426,4198.077148,4207.051270,4209.102539,4232.948730,4230.641113,4201.538574,4193.077148,4151.025879,4210.384766,4212.948730,2332.000000,4.000000,86.000000,,,,0.000000,4.000000,4.000000,4.000000,4.000000,4.000000,4.000000,4.000000,4.000000,4.000000,4.000000,4.000000,4.000000,4.000000,4.000000,100.000000,,,,,,,,,,,,,,,,
1645710369.028354,179.000000,0.000000,4240.000000,4201.153809,4206.153809,4215.641113,4195.000000,4205.641113,4208.461426,4229.615234,4232.563965,4203.589844,4198.974121,4152.563965,4213.461426,4216.922852,2722.000000,4.000000,86.000000,,,,0.000000,4.000000,4.000000,4.000000,4.000000,4.000000,4.000000,4.000000,4.000000,4.000000,4.000000,4.000000,4.000000,4.000000,4.000000,100.000000,,,,,,,,,,,,,,,,
1645710369.032294,180.000000,0.000000,4241.794922,4197.820313,4212.051270,4213.077148,4196.025879,4205.256348,4209.358887,4227.179688,4233.205078,4207.051270,4205.512695,4154.743652,4216.025879,4219.358887,3325.000000,4.000000,86.000000,,,,0.000000,4.000000,4.000000,4.000000,4.000000,4.000000,4.000000,4.000000,4.000000,4.000000,4.000000,4.000000,4.000000,4.000000,4.000000,100.000000,,,,,,,,,,,,,,,,
1645710369.036234,181.000000,0.000000,4244.871582,4192.692383,4217.051270,4206.282227,4199.743652,4205.384766,4210.000000,4226.666504,4231.538574,4210.128418,4209.743652,4156.410156,4215.769043,4218.846191,2979.000000,4.000000,86.000000,,,,0.000000,4.000000,4.000000,4.000000,4.000000,4.000000,4.000000,4.000000,4.000000,4.000000,4.000000,4.000000,4.000000,4.000000,4.000000,100.000000,,,,,,,,,,,,,,,,
1645710369.040174,182.000000,0.000000,4246.153809,4189.230957,4218.974121,4198.717773,4203.077148,4205.897461,4208.846191,4227.051270,4228.205078,4211.282227,4211.025879,4156.410156,4212.307617,4215.641113,2332.000000,4.000000,86.000000,,,,0.000000,4.000000,4.000000,4.000000,4.000000,4.000000,4.000000,4.000000,4.000000,4.000000,4.000000,4.000000,4.000000,4.000000,4.000000,100.000000,,,,,,,,,,,,,,,,
1645710369.044114,183.000000,0.000000,4244.615234,4190.769043,4217.692383,4194.358887,4203.077148,4206.153809,4206.410156,4226.794922,4225.384766,4210.128418,4209.487305,4154.871582,4207.692383,4211.794922,2722.000000,4.000000,86.000000,,,,0.000000,4.000000,4.000000,4.000000,4.000000,4.000000,4.000000,4.000000,4.000000,4.000000,4.000000,4.000000,4.000000,4.000000,4.000000,100.000000,,,,,,,,,,,,,,,,
1645710369.048054,184.000000,0.000000,4242.563965,4197.436035,4215.000000,4194.615234,4198.717773,4206.025879,4205.000000,4226.025879,4224.871582,4206.922852,4204.743652,4152.692383,4204.230957,4210.641113,3325.000000,4.000000,86.000000,,,,0.000000,4.000000,4.000000,4.000000,4.000000,4.000000,4.000000,4.000000,4.000000,4.000000,4.000000,4.000000,4.000000,4.000000,4.000000,100.000000,,,,,,,,,,,,,,,,
1645710369.051894,185.000000,0.000000,4243.461426,4206.025879,4213.717773,4199.230957,4192.820313,4205.128418,4206.794922,4225.769043,4226.538574,4203.077148,4197.820313,4151.666504,4203.589844,4214.871582,2979.000000,4.000000,86.000000,,,,0.000000,4.000000,4.000000,4.000000,4.000000,4.000000,4.000000,4.000000,4.000000,4.000000,4.000000,4.000000,4.000000,4.000000,4.000000,100.000000,,,,,,,,,,,,,,,,
1645710369.055834,186.000000,0.000000,4247.692383,4212.179688,4215.641113,4206.794922,4189.615234,4204.230957,4211.538574,4226.922852,4228.205078,4200.897461,4191.666504,4153.846191,4206.153809,4223.333496,2332.000000,4.000000,86.000000,,,,0.000000,4.000000,4.000000,4.000000,4.000000,4.000000,4.000000,4.000000,4.000000,4.000000,4.000000,4.000000,4.000000,4.000000,4.000000,100.000000,,,,,,,,,,,,,,,,
1645710369.059774,187.000000,0.000000,4252.820313,4212.948730,4220.256348,4216.025879,4192.051270,4204.230957,4216.922852,4228.974121,4228.333496,4201.538574,4190.512695,4159.487305,4211.538574,4231.153809,2722.000000,4.000000,86.000000,,,,0.000000,4.000000,4.000000,4.000000,4.000000,4.000000,4.000000,4.000000,4.000000,4.000000,4.000000,4.000000,4.000000,4.000000,4.000000,100.000000,,,,,,,,,,,,,,,,
1645710369.063715,188.000000,0.000000,4255.641113,4208.333496,4225.128418,4225.128418,4199.102539,4205.384766,4219.615234,4230.000000,4226.922852,4204.487305,4195.769043,4166.794922,4217.692383,4233.589844,3325.000000,4.000000,86.000000,,,,0.000000,4.000000,4.000000,4.000000,4.000000,4.000000,4.000000,4.000000,4.000000,4.000000,4.000000,4.000000,4.000000,4.000000,4.000000,100.000000,,,,,,,,,,,,,,,,
1645710369.067755,189.000000,0.000000,4255.128418,4201.794922,4227.179688,4230.641113,4206.410156,4207.179688,4218.717773,4229.358887,4225.512695,4207.179688,4204.230957,4172.436035,4222.051270,4229.230957,2979.000000,4.000000,86.000000,,,,0.000000,4.000000,4.000000,4.000000,4.000000,4.000000,4.000000,4.000000,4.000000,4.000000,4.000000,4.000000,4.000000,4.000000,4.000000,100.000000,,,,,,,,,,,,,,,,
1645710369.071695,190.000000,0.000000,4252.948730,4197.051270,4225.128418,4228.846191,4209.487305,4208.205078,4215.512695,4227.563965,4225.384766,4207.820313,4210.128418,4173.589844,4223.077148,4221.538574,2332.000000,4.000000,86.000000,,,,0.000000,4.000000,4.000000,4.000000,4.000000,4.000000,4.000000,4.000000,4.000000,4.000000,4.000000,4.000000,4.000000,4.000000,4.000000,100.000000,,,,,,,,,,,,,,,,
1645710369.075635,191.000000,0.000000,4250.641113,4196.282227,4220.641113,4219.230957,4207.307617,4208.333496,4213.205078,4226.410156,4226.282227,4206.538574,4210.512695,4169.743652,4221.025879,4215.256348,2722.000000,4.000000,86.000000,,,,0.000000,4.000000,4.000000,4.000000,4.000000,4.000000,4.000000,4.000000,4.000000,4.000000,4.000000,4.000000,4.000000,4.000000,4.000000,100.000000,,,,,,,,,,,,,,,,
1645710369.079575,192.000000,0.000000,4248.333496,4199.358887,4216.538574,4206.794922,4202.820313,4208.589844,4213.974121,4226.794922,4226.794922,4205.512695,4207.563965,4163.205078,4217.948730,4213.846191,3325.000000,4.000000,86.000000,,,,0.000000,4.000000,4.000000,4.000000,4.000000,4.000000,4.000000,4.000000,4.000000,4.000000,4.000000,4.000000,4.000000,4.000000,4.000000,100.000000,,,,,,,,,,,,,,,,
1645710369.083515,193.000000,0.000000,4246.153809,4204.102539,4214.487305,4199.230957,4200.128418,4209.743652,4216.922852,4228.077148,4226.025879,4205.897461,4205.897461,4157.436035,4215.512695,4216.153809,2979.000000,4.000000,86.000000,,,,0.000000,4.000000,4.000000,4.000000,4.000000,4.000000,4.000000,4.000000,4.000000,4.000000,4.000000,4.000000,4.000000,4.000000,4.000000,100.000000,,,,,,,,,,,,,,,,
1645710369.087455,194.000000,0.000000,4244.358887,4207.820313,4214.102539,4200.769043,4201.153809,4211.153809,4218.846191,4229.358887,4223.974121,4206.666504,4207.563965,4154.743652,4214.230957,4218.846191,2332.000000,4.000000,86.000000,,,,0.000000,4.000000,4.000000,4.000000,4.000000,4.000000,4.000000,4.000000,4.000000,4.000000,4.000000,4.000000,4.000000,4.000000,4.000000,100.000000,,,,,,,,,,,,,,,,
1645710369.091395,195.000000,0.000000,4243.717773,4209.487305,4213.205078,4209.487305,4204.871582,4211.410156,4217.948730,4229.615234,4222.051270,4206.282227,4209.487305,4155.000000,4214.102539,4219.487305,2722.000000,4.000000,86.000000,,,,0.000000,4.000000,4.000000,4.000000,4.000000,4.000000,4.000000,4.000000,4.000000,4.000000,4.000000,4.000000,4.000000,4.000000,4.000000,100.000000,,,,,,,,,,,,,,,,
1645710369.095335,196.000000,0.000000,4243.717773,4210.641113,4211.282227,4218.717773,4209.102539,4210.384766,4215.256348,4228.974121,4222.563965,4204.743652,4208.205078,4156.282227,4214.871582,4217.948730,3325.000000,4.000000,86.000000,,,,0.000000,4.000000,4.000000,4.000000,4.000000,4.000000,4.000000,4.000000,4.000000,4.000000,4.000000,4.000000,4.000000,4.000000,4.000000,100.000000,,,,,,,,,,,,,,,,
1645710369.099275,197.000000,0.000000,4242.948730,4212.948730,4208.717773,4222.051270,4211.666504,4209.230957,4213.461426,4228.461426,4226.282227,4204.615234,4203.461426,4156.538574,4216.410156,4216.410156,2979.000000,4.000000,86.000000,,,,0.000000,4.000000,4.000000,4.000000,4.000000,4.000000,4.000000,4.000000,4.000000,4.000000,4.000000,4.000000,4.000000,4.000000,4.000000,100.000000,,,,,,,,,,,,,,,,
1645710369.103216,198.000000,0.000000,4241.025879,4215.641113,4206.922852,4217.563965,4211.922852,4209.230957,4213.717773,4228.974121,4231.794922,4207.820313,4198.205078,4154.871582,4218.077148,4216.153809,2332.000000,4.000000,86.000000,,,,0.000000,4.000000,4.000000,4.000000,4.000000,4.000000,4.000000,4.000000,4.000000,4.000000,4.000000,4.000000,4.000000,4.000000,4.000000,100.000000,,,,,,,,,,,,,,,,
1645710369.107156,199.000000,0.000000,4239.230957,4214.871582,4206.153809,4208.077148,4210.256348,4210.384766,4214.871582,4230.256348,4235.384766,4213.589844,4195.512695,4151.794922,4218.717773,4216.794922,2722.000000,4.000000,86.000000,,,,0.000000,4.000000,4.000000,4.000000,4.000000,4.000000,4.000000,4.000000,4.000000,4.000000,4.000000,4.000000,4.000000,4.000000,4.000000,100.000000,,,,,,,,,,,,,,,,
1645710369.111096,200.000000,0.000000,4238.846191,4207.692383,4205.769043,4199.358887,4206.922852,4210.769043,4215.000000,4230.384766,4234.487305,4218.333496,4195.769043,4148.333496,4217.692383,4216.666504,3325.000000,4.000000,86.000000,,,,0.000000,4.000000,4.000000,4.000000,4.000000,4.000000,4.000000,4.000000,4.000000,4.000000,4.000000,4.000000,4.000000,4.000000,4.000000,100.000000,,,,,,,,,,,,,,,,
1645710369.115036,201.000000,0.000000,4239.615234,4195.512695,4205.000000,4196.282227,4203.205078,4209.358887,4212.436035,4227.051270,4229.102539,4218.205078,4196.666504,4144.615234,4215.384766,4214.102539,2979.000000,4.000000,86.000000,,,,0.000000,4.000000,4.000000,4.000000,4.000000,4.000000,4.000000,4.000000,4.000000,4.000000,4.000000,4.000000,4.000000,4.000000,4.000000,100.000000,,,,,,,,,,,,,,,,
1645710369.118976,202.000000,0.000000,4240.128418,4185.000000,4203.205078,4199.487305,4200.897461,4206.794922,4207.563965,4220.512695,4222.179688,4212.563965,4196.282227,4141.153809,4213.333496,4210.256348,2332.000000,4.000000,86.000000,,,,0.000000,4.000000,4.000000,4.000000,4.000000,4.000000,4.000000,4.000000,4.000000,4.000000,4.000000,4.000000,4.000000,4.000000,4.000000,100.000000,,,,,,,,,,,,,,,,
1645710369.122916,203.000000,0.000000,4239.230957,4182.563965,4201.153809,4205.384766,4201.282227,4204.487305,4202.179688,4214.230957,4216.922852,4203.461426,4194.230957,4138.974121,4212.948730,4208.205078,2722.000000,4.000000,86.000000,,,,0.000000,4.000000,4.000000,4.000000,4.000000,4.000000,4.000000,4.000000,4.000000,4.000000,4.000000,4.000000,4.000000,4.000000,4.000000,100.000000,,,,,,,,,,,,,,,,
1645710369.126856,204.000000,0.000000,4237.948730,4190.384766,4199.871582,4209.871582,4203.205078,4203.589844,4198.717773,4211.410156,4214.358887,4194.871582,4192.307617,4138.846191,4214.743652,4209.615234,3325.000000,4.000000,86.000000,,,,0.000000,4.000000,4.000000,4.000000,4.000000,4.000000,4.000000,4.000000,4.000000,4.000000,4.000000,4.000000,4.000000,4.000000,4.000000,100.000000,,,,,,,,,,,,,,,,
1645710369.130896,205.000000,0.000000,4238.205078,4203.974121,4200.512695,4210.769043,4204.358887,4203.589844,4198.077148,4212.948730,4213.589844,4189.615234,4191.922852,4140.897461,4217.307617,4213.333496,2979.000000,4.000000,86.000000,,,,0.000000,4.000000,4.000000,4.000000,4.000000,4.000000,4.000000,4.000000,4.000000,4.000000,4.000000,4.000000,4.000000,4.000000,4.000000,100.000000,,,,,,,,,,,,,,,,
1645710369.134836,206.000000,0.000000,4240.256348,4215.128418,4202.563965,4208.846191,4203.461426,4204.102539,4199.615234,4216.282227,4213.589844,4188.717773,4193.333496,4144.487305,4218.846191,4215.897461,2332.000000,4.000000,86.000000,,,,0.000000,4.000000,4.000000,4.000000,4.000000,4.000000,4.000000,4.000000,4.000000,4.000000,4.000000,4.000000,4.000000,4.000000,4.000000,100.000000,,,,,,,,,,,,,,,,
1645710369.138776,207.000000,0.000000,4241.794922,4218.717773,4204.743652,4206.410156,4201.410156,4205.000000,4201.538574,4217.948730,4213.974121,4191.153809,4195.000000,4148.589844,4218.589844,4215.384766,2722.000000,4.000000,86.000000,,,,0.000000,4.000000,4.000000,4.000000,4.000000,4.000000,4.000000,4.000000,4.000000,4.000000,4.000000,4.000000,4.000000,4.000000,4.000000,100.000000,,,,,,,,,,,,,,,,
1645710369.142716,208.000000,0.000000,4240.512695,4214.615234,4206.025879,4204.871582,4200.512695,4206.538574,4202.563965,4216.410156,4214.743652,4194.871582,4195.256348,4151.666504,4217.692383,4212.563965,3325.000000,4.000000,86.000000,,,,0.000000,4.000000,4.000000,4.000000,4.000000,4.000000,4.000000,4.000000,4.000000,4.000000,4.000000,4.000000,4.000000,4.000000,4.000000,100.000000,,,,,,,,,,,,,,,,
1645710369.146657,209.000000,0.000000,4236.922852,4207.692383,4206.538574,4204.743652,4201.794922,4208.333496,4202.820313,4213.333496,4215.769043,4198.846191,4194.230957,4152.948730,4218.205078,4210.897461,2979.000000,4.000000,86.000000,,,,0.000000,4.000000,4.000000,4.000000,4.000000,4.000000,4.000000,4.000000,4.000000,4.000000,4.000000,4.000000,4.000000,4.000000,4.000000,100.000000,,,,,,,,,,,,,,,,
1645710369.150597,210.000000,0.000000,4234.230957,4202.563965,4207.820313,4206.410156,4204.358887,4210.128418,4203.589844,4212.051270,4216.153809,4202.436035,4194.487305,4152.692383,4220.641113,4212.948730,2332.000000,4.000000,86.000000,,,,0.000000,4.000000,4.000000,4.000000,4.000000,4.000000,4.000000,4.000000,4.000000,4.000000,4.000000,4.000000,4.000000,4.000000,4.000000,100.000000,,,,,,,,,,,,,,,,
1645710369.154537,211.000000,0.000000,4234.871582,4201.025879,4211.153809,4209.358887,4206.025879,4211.410156,4205.512695,4214.743652,4215.641113,4205.769043,4198.461426,4152.051270,4224.102539,4219.230957,2722.000000,4.000000,86.000000,,,,0.000000,4.000000,4.000000,4.000000,4.000000,4.000000,4.000000,4.000000,4.000000,4.000000,4.000000,4.000000,4.000000,4.000000,4.000000,100.000000,,,,,,,,,,,,,,,,
1645710369.158477,212.000000,0.000000,4237.692383,4202.436035,4215.384766,4212.820313,4206.282227,4212.436035,4208.974121,4220.512695,4215.000000,4209.615234,4206.282227,4152.179688,4226.666504,4227.179688,3325.000000,4.000000,86.000000,,,,0.000000,4.000000,4.000000,4.000000,4.000000,4.000000,4.000000,4.000000,4.000000,4.000000,4.000000,4.000000,4.000000,4.000000,4.000000,100.000000,,,,,,,,,,,,,,,,
1645710369.162417,213.000000,0.000000,4239.871582,4205.256348,4218.333496,4214.615234,4205.641113,4212.948730,4213.333496,4226.666504,4216.153809,4214.230957,4214.615234,4153.589844,4228.077148,4232.563965,2979.000000,4.000000,86.000000,,,,0.000000,4.000000,4.000000,4.000000,4.000000,4.000000,4.000000,4.000000,4.000000,4.000000,4.000000,4.000000,4.000000,4.000000,4.000000,100.000000,,,,,,,,,,,,,,,,
1645710369.166357,214.000000,0.000000,4239.871582,4208.205078,4218.077148,4212.820313,4205.641113,4213.077148,4217.051270,4230.641113,4219.487305,4218.589844,4219.230957,4156.025879,4228.846191,4232.820313,2332.000000,4.000000,86.000000,,,,0.000000,4.000000,4.000000,4.000000,4.000000,4.000000,4.000000,4.000000,4.000000,4.000000,4.000000,4.000000,4.000000,4.000000,4.000000,100.000000,,,,,,,,,,,,,,,,
1645710369.170297,215.000000,0.000000,4237.948730,4210.128418,4214.358887,4206.794922,4206.025879,4212.692383,4218.077148,4232.051270,4224.487305,4220.512695,4218.589844,4157.692383,4229.102539,4227.820313,2722.000000,4.000000,86.000000,,,,0.000000,4.000000,4.000000,4.000000,4.000000,4.000000,4.000000,4.000000,4.000000,4.000000,4.000000,4.000000,4.000000,4.000000,4.000000,100.000000,,,,,,,,,,,,,,,,
1645710369.174237,216.000000,0.000000,4235.256348,4211.282227,4208.846191,4199.230957,4205.897461,4211.922852,4216.410156,4231.794922,4228.589844,4218.846191,4214.743652,4157.436035,4228.589844,4220.769043,3325.000000,4.000000,86.000000,,,,0.000000,4.000000,4.000000,4.000000,4.000000,4.000000,4.000000,4.000000,4.000000,4.000000,4.000000,4.000000,4.000000,4.000000,4.000000,100.000000,,,,,,,,,,,,,,,,
1645710369.178177,217.000000,0.000000,4232.307617,4211.538574,4203.333496,4193.717773,4204.487305,4211.282227,4214.102539,4230.641113,4229.871582,4213.846191,4210.897461,4154.743652,4226.794922,4215.000000,2979.000000,4.000000,86.000000,,,,0.000000,4.000000,4.000000,4.000000,4.000000,4.000000,4.000000,4.000000,4.000000,4.000000,4.000000,4.000000,4.000000,4.000000,4.000000,100.000000,,,,,,,,,,,,,,,,
1645710369.182118,218.000000,0.000000,4230.000000,4210.897461,4199.615234,4193.461426,4203.205078,4211.282227,4212.820313,4228.589844,4227.563965,4208.589844,4208.717773,4151.153809,4224.487305,4212.692383,2332.000000,4.000000,86.000000,,,,0.000000,4.000000,4.000000,4.000000,4.000000,4.000000,4.000000,4.000000,4.000000,4.000000,4.000000,4.000000,4.000000,4.000000,4.000000,100.000000,,,,,,,,,,,,,,,,
1645710369.186058,219.000000,0.000000,4229.487305,4209.230957,4198.333496,4198.589844,4203.205078,4211.153809,4212.948730,4225.641113,4223.461426,4205.897461,4207.948730,4148.846191,4222.563965,4213.974121,2722.000000,4.000000,86.000000,,,,0.000000,4.000000,4.000000,4.000000,4.000000,4.000000,4.000000,4.000000,4.000000,4.000000,4.000000,4.000000,4.000000,4.000000,4.000000,100.000000,,,,,,,,,,,,,,,,
1645710369.189998,220.000000,0.000000,4231.153809,4207.051270,4199.487305,4206.153809,4204.358887,4210.128418,4212.948730,4222.563965,4220.512695,4206.922852,4207.692383,4149.102539,4221.153809,4216.538574,3325.000000,4.000000,86.000000,,,,0.000000,4.000000,4.000000,4.000000,4.000000,4.000000,4.000000,4.000000,4.000000,4.000000,4.000000,4.000000,4.000000,4.000000,4.000000,100.000000,,,,,,,,,,,,,,,,
1645710369.193938,221.000000,0.000000,4233.846191,4205.384766,4201.538574,4212.307617,4205.641113,4207.563965,4211.025879,4220.512695,4221.025879,4209.487305,4207.948730,4151.153809,4219.871582,4217.948730,2979.000000,4.000000,86.000000,,,,0.000000,4.000000,4.000000,4.000000,4.000000,4.000000,4.000000,4.000000,4.000000,4.000000,4.000000,4.000000,4.000000,4.000000,4.000000,100.000000,,,,,,,,,,,,,,,,
1645710369.197878,222.000000,0.000000,4235.128418,4205.384766,4202.820313,4213.974121,4206.282227,4204.230957,4208.077148,4219.871582,4224.743652,4210.769043,4208.974121,4153.461426,4218.717773,4217.051270,2332.000000,4.000000,86.000000,,,,0.000000,4.000000,4.000000,4.000000,4.000000,4.000000,4.000000,4.000000,4.000000,4.000000,4.000000,4.000000,4.000000,4.000000,4.000000,100.000000,,,,,,,,,,,,,,,,
1645710369.201818,223.000000,0.000000,4233.717773,4207.307617,4202.307617,4211.282227,4206.153809,4201.922852,4206.538574,4219.871582,4229.487305,4208.846191,4211.153809,4155.128418,4218.717773,4214.871582,2722.000000,4.000000,86.000000,,,,0.000000,4.000000,4.000000,4.000000,4.000000,4.000000,4.000000,4.000000,4.000000,4.000000,4.000000,4.000000,4.000000,4.000000,4.000000,100.000000,,,,,,,,,,,,,,,,
1645710369.205758,224.000000,0.000000,4231.538574,4210.384766,4200.641113,4206.666504,4205.256348,4201.794922,4208.205078,4219.871582,4232.948730,4204.487305,4213.846191,4155.641113,4220.000000,4213.717773,3325.000000,4.000000,86.000000,,,,0.000000,4.000000,4.000000,4.000000,4.000000,4.000000,4.000000,4.000000,4.000000,4.000000,4.000000,4.000000,4.000000,4.000000,4.000000,100.000000,,,,,,,,,,,,,,,,
1645710369.209698,225.000000,0.000000,4231.922852,4212.692383,4199.615234,4204.358887,4204.102539,4203.589844,4211.794922,4220.256348,4233.717773,4200.512695,4215.769043,4156.025879,4221.922852,4214.615234,2979.000000,4.000000,86.000000,,,,0.000000,4.000000,4.000000,4.000000,4.000000,4.000000,4.000000,4.000000,4.000000,4.000000,4.000000,4.000000,4.000000,4.000000,4.000000,100.000000,,,,,,,,,,,,,,,,
1645710369.213638,226.000000,0.000000,4235.769043,4213.077148,4200.512695,4207.436035,4203.846191,4205.641113,4214.487305,4221.538574,4231.922852,4199.487305,4215.256348,4156.794922,4222.948730,4216.922852,2332.000000,4.000000,86.000000,,,,0.000000,4.000000,4.000000,4.000000,4.000000,4.000000,4.000000,4.000000,4.000000,4.000000,4.000000,4.000000,4.000000,4.000000,4.000000,100.000000,,,,,,,,,,,,,,,,
1645710369.217578,227.000000,0.000000,4240.128418,4211.282227,4202.820313,4214.743652,4205.000000,4206.922852,4214.358887,4222.948730,4228.461426,4201.794922,4212.179688,4157.692383,4222.692383,4218.333496,2722.000000,4.000000,86.000000,,,,0.000000,4.000000,4.000000,4.000000,4.000000,4.000000,4.000000,4.000000,4.000000,4.000000,4.000000,4.000000,4.000000,4.000000,4.000000,100.000000,,,,,,,,,,,,,,,,
1645710369.221519,228.000000,0.000000,4240.769043,4208.077148,4203.974121,4220.897461,4207.051270,4206.922852,4211.538574,4222.820313,4224.102539,4206.025879,4207.948730,4157.436035,4221.538574,4217.436035,3325.000000,4.000000,86.000000,,,,0.000000,4.000000,4.000000,4.000000,4.000000,4.000000,4.000000,4.000000,4.000000,4.000000,4.000000,4.000000,4.000000,4.000000,4.000000,100.000000,,,,,,,,,,,,,,,,
1645710369.225459,229.000000,0.000000,4237.051270,4205.000000,4202.820313,4220.128418,4207.820313,4206.025879,4207.948730,4220.897461,4218.974121,4209.230957,4204.743652,4155.641113,4220.000000,4214.615234,2979.000000,4.000000,86.000000,,,,0.000000,4.000000,4.000000,4.000000,4.000000,4.000000,4.000000,4.000000,4.000000,4.000000,4.000000,4.000000,4.000000,4.000000,4.000000,100.000000,,,,,,,,,,,,,,,,
1645710369.229399,230.000000,0.000000,4232.179688,4203.077148,4200.000000,4211.282227,4205.384766,4204.615234,4205.769043,4218.846191,4214.487305,4209.230957,4204.102539,4153.205078,4218.461426,4212.820313,2332.000000,4.000000,86.000000,,,,0.000000,4.000000,4.000000,4.000000,4.000000,4.000000,4.000000,4.000000,4.000000,4.000000,4.000000,4.000000,4.000000,4.000000,4.000000,100.000000,,,,,,,,,,,,,,,,
1645710369.233339,231.000000,0.000000,4229.358887,4203.077148,4198.205078,4198.589844,4200.897461,4202.948730,4205.641113,4218.846191,4211.922852,4205.897461,4205.897461,4152.436035,4216.922852,4214.230957,2722.000000,4.000000,86.000000,,,,0.000000,4.000000,4.000000,4.000000,4.000000,4.000000,4.000000,4.000000,4.000000,4.000000,4.000000,4.000000,4.000000,4.000000,4.000000,100.000000,,,,,,,,,,,,,,,,
1645710369.237279,232.000000,0.000000,4229.102539,4204.487305,4199.230957,4190.000000,4197.051270,4201.922852,4206.794922,4221.282227,4212.436035,4201.410156,4208.974121,4153.846191,4215.769043,4218.077148,3325.000000,4.000000,86.000000,,,,0.000000,4.000000,4.000000,4.000000,4.000000,4.000000,4.000000,4.000000,4.000000,4.000000,4.000000,4.000000,4.000000,4.000000,4.000000,100.000000,,,,,,,,,,,,,,,,
1645710369.241219,233.000000,0.000000,4228.974121,4205.897461,4202.179688,4191.153809,4196.282227,4201.666504,4207.307617,4224.358887,4215.256348,4198.461426,4211.153809,4156.025879,4215.128418,4220.769043,2979.000000,4.000000,86.000000,,,,0.000000,4.000000,4.000000,4.000000,4.000000,4.000000,4.000000,4.000000,4.000000,4.000000,4.000000,4.000000,4.000000,4.000000,4.000000,100.000000,,,,,,,,,,,,,,,,
1645710369.245159,234.000000,0.000000,4227.179688,4205.769043,4204.102539,4200.128418,4198.077148,4202.051270,4205.384766,4226.282227,4217.948730,4197.563965,4210.256348,4156.282227,4214.102539,4218.974121,2332.000000,4.000000,86.000000,,,,0.000000,4.000000,4.000000,4.000000,4.000000,4.000000,4.000000,4.000000,4.000000,4.000000,4.000000,4.000000,4.000000,4.000000,4.000000,100.000000,,,,,,,,,,,,,,,,
1645710369.249099,235.000000,0.000000,4224.230957,4204.230957,4202.692383,4208.717773,4199.743652,4202.563965,4201.922852,4226.153809,4218.333496,4197.948730,4205.641113,4153.205078,4212.051270,4212.692383,2722.000000,4.000000,86.000000,,,,0.000000,4.000000,4.000000,4.000000,4.000000,4.000000,4.000000,4.000000,4.000000,4.000000,4.000000,4.000000,4.000000,4.000000,4.000000,100.000000,,,,,,,,,,,,,,,,
1645710369.253039,236.000000,0.000000,4221.922852,4202.179688,4197.436035,4208.974121,4198.974121,4202.948730,4199.230957,4224.615234,4216.153809,4198.589844,4198.846191,4147.692383,4209.871582,4205.128418,3325.000000,4.000000,86.000000,,,,0.000000,4.000000,4.000000,4.000000,4.000000,4.000000,4.000000,4.000000,4.000000,4.000000,4.000000,4.000000,4.000000,4.000000,4.000000,100.000000,,,,,,,,,,,,,,,,
1645710369.256980,237.000000,0.000000,4221.025879,4201.282227,4190.769043,4200.512695,4196.282227,4203.717773,4199.871582,4223.077148,4213.974121,4200.897461,4194.358887,4142.179688,4209.743652,4201.025879,2979.000000,4.000000,86.000000,,,,0.000000,4.000000,4.000000,4.000000,4.000000,4.000000,4.000000,4.000000,4.000000,4.000000,4.000000,4.000000,4.000000,4.000000,4.000000,100.000000,,,,,,,,,,,,,,,,
1645710369.260920,238.000000,0.000000,4220.641113,4202.051270,4185.769043,4191.025879,4194.230957,4205.384766,4202.948730,4223.205078,4214.230957,4206.025879,4196.282227,4139.615234,4213.333496,4202.692383,2332.000000,4.000000,86.000000,,,,0.000000,4.000000,4.000000,4.000000,4.000000,4.000000,4.000000,4.000000,4.000000,4.000000,4.000000,4.000000,4.000000,4.000000,4.000000,100.000000,,,,,,,,,,,,,,,,
1645710369.264860,239.000000,0.000000,4219.871582,4203.333496,4184.615234,4188.461426,4193.846191,4206.410156,4205.384766,4226.153809,4217.179688,4212.307617,4204.871582,4140.641113,4219.230957,4208.717773,2722.000000,4.000000,86.000000,,,,0.000000,4.000000,4.000000,4.000000,4.000000,4.000000,4.000000,4.000000,4.000000,4.000000,4.000000,4.000000,4.000000,4.000000,4.000000,100.000000,,,,,,,,,,,,,,,,
1645710369.268800,240.000000,0.000000,4219.102539,4203.333496,4186.922852,4194.743652,4194.487305,4204.615234,4205.128418,4231.025879,4220.256348,4215.641113,4214.487305,4143.717773,4224.102539,4214.871582,3325.000000,4.000000,86.000000,,,,0.000000,4.000000,4.000000,4.000000,4.000000,4.000000,4.000000,4.000000,4.000000,4.000000,4.000000,4.000000,4.000000,4.000000,4.000000,100.000000,1.000000,100.000000,4.000000,4.000000,4.000000,4.000000,4.000000,4.000000,4.000000,4.000000,4.000000,4.000000,4.000000,4.000000,4.000000,4.000000
1645710369.272740,241.000000,0.000000,4219.358887,4200.897461,4190.384766,4204.615234,4194.358887,4199.615234,4202.948730,4234.743652,4220.897461,4213.589844,4218.974121,4146.410156,4225.256348,4218.333496,2979.000000,4.000000,86.000000,,,,0.000000,4.000000,4.000000,4.000000,4.000000,4.000000,4.000000,4.000000,4.000000,4.000000,4.000000,4.000000,4.000000,4.000000,4.000000,100.000000,,,,,,,,,,,,,,,,
1645710369.276780,242.000000,0.000000,4220.384766,4197.820313,4192.179688,4210.769043,4193.333496,4194.102539,4201.025879,4234.487305,4218.461426,4207.563965,4215.512695,4147.051270,4223.077148,4218.974121,2332.000000,4.000000,86.000000,,,,0.000000,4.000000,4.000000,4.000000,4.000000,4.000000,4.000000,4.000000,4.000000,4.000000,4.000000,4.000000,4.000000,4.000000,4.000000,100.000000,,,,,,,,,,,,,,,,
1645710369.280720,243.000000,0.000000,4221.282227,4196.794922,4191.282227,4210.000000,4192.307617,4192.307617,4201.153809,4230.000000,4215.384766,4202.307617,4207.179688,4145.384766,4219.871582,4218.846191,2722.000000,4.000000,86.000000,,,,0.000000,4.000000,4.000000,4.000000,4.000000,4.000000,4.000000,4.000000,4.000000,4.000000,4.000000,4.000000,4.000000,4.000000,4.000000,100.000000,,,,,,,,,,,,,,,,
1645710369.284660,244.000000,0.000000,4221.538574,4199.487305,4188.846191,4203.461426,4192.563965,4196.025879,4202.179688,4223.717773,4214.358887,4201.025879,4199.743652,4142.436035,4217.820313,4218.846191,3325.000000,4.000000,86.000000,,,,0.000000,4.000000,4.000000,4.000000,4.000000,4.000000,4.000000,4.000000,4.000000,4.000000,4.000000,4.000000,4.000000,4.000000,4.000000,100.000000,,,,,,,,,,,,,,,,
1645710369.288600,245.000000,0.000000,4221.025879,4203.974121,4186.282227,4195.384766,4194.102539,4203.205078,4202.820313,4218.717773,4215.897461,4202.692383,4196.794922,4139.487305,4217.563965,4218.205078,2979.000000,4.000000,86.000000,,,,0.000000,4.000000,4.000000,4.000000,4.000000,4.000000,4.000000,4.000000,4.000000,4.000000,4.000000,4.000000,4.000000,4.000000,4.000000,100.000000,,,,,,,,,,,,,,,,
1645710369.292540,246.000000,0.000000,4220.256348,4206.282227,4184.358887,4188.846191,4195.384766,4208.974121,4202.436035,4216.282227,4217.948730,4203.205078,4197.563965,4137.563965,4217.692383,4215.000000,2332.000000,4.000000,86.000000,,,,0.000000,4.000000,4.000000,4.000000,4.000000,4.000000,4.000000,4.000000,4.000000,4.000000,4.000000,4.000000,4.000000,4.000000,4.000000,100.000000,,,,,,,,,,,,,,,,
1645710369.296480,247.000000,0.000000,4218.205078,4203.846191,4183.461426,4185.769043,4195.256348,4209.871582,4202.307617,4216.153809,4217.692383,4199.743652,4199.230957,4136.666504,4216.410156,4208.846191,2722.000000,4.000000,86.000000,,,,0.000000,4.000000,4.000000,4.000000,4.000000,4.000000,4.000000,4.000000,4.000000,4.000000,4.000000,4.000000,4.000000,4.000000,4.000000,100.000000,,,,,,,,,,,,,,,,
