title:Alex-b-e3bztqNa3Ce_biLVPMMw, start timestamp:1645711614.841764, stop timestamp:1645711640.975884, headset type:EPOCPLUS, headset serial:3B9AEBFF, headset firmware:626, channels:55, sampling rate:eeg_256, samples:6634      , version:2.1, 
Timestamp,EEG.Counter,EEG.Interpolated,EEG.AF3,EEG.F7,EEG.F3,EEG.FC5,EEG.T7,EEG.P7,EEG.O1,EEG.O2,EEG.P8,EEG.T8,EEG.FC6,EEG.F4,EEG.F8,EEG.AF4,EEG.RawCq,EEG.Battery,EEG.BatteryPercent,MarkerIndex,MarkerType,MarkerValueInt,EEG.MarkerHardware,CQ.AF3,CQ.F7,CQ.F3,CQ.FC5,CQ.T7,CQ.P7,CQ.O1,CQ.O2,CQ.P8,CQ.T8,CQ.FC6,CQ.F4,CQ.F8,CQ.AF4,CQ.Overall,EQ.SampleRateQuality,EQ.OVERALL,EQ.AF3,EQ.F7,EQ.F3,EQ.FC5,EQ.T7,EQ.P7,EQ.O1,EQ.O2,EQ.P8,EQ.T8,EQ.FC6,EQ.F4,EQ.F8,EQ.AF4
1645711614.841764,66.000000,0.000000,4219.230957,4219.487305,4223.974121,4232.307617,4220.000000,4229.743652,4233.077148,4223.846191,4233.205078,4225.256348,4220.897461,4173.205078,4228.205078,4229.487305,0.000000,4.000000,82.000000,,,,0.000000,4.000000,4.000000,4.000000,4.000000,4.000000,4.000000,4.000000,4.000000,4.000000,4.000000,4.000000,4.000000,4.000000,4.000000,100.000000,,,,,,,,,,,,,,,,
1645711614.845805,67.000000,0.000000,4216.666504,4225.384766,4229.230957,4233.974121,4225.512695,4233.461426,4234.871582,4223.846191,4234.358887,4230.256348,4224.358887,4176.794922,4232.051270,4230.641113,0.000000,4.000000,82.000000,,,,0.000000,4.000000,4.000000,4.000000,4.000000,4.000000,4.000000,4.000000,4.000000,4.000000,4.000000,4.000000,4.000000,4.000000,4.000000,100.000000,,,,,,,,,,,,,,,,
1645711614.849745,68.000000,0.000000,4222.179688,4225.512695,4231.666504,4229.230957,4222.563965,4229.487305,4231.794922,4219.230957,4231.794922,4227.436035,4220.769043,4176.282227,4230.769043,4225.769043,0.000000,4.000000,82.000000,,,,0.000000,4.000000,4.000000,4.000000,4.000000,4.000000,4.000000,4.000000,4.000000,4.000000,4.000000,4.000000,4.000000,4.000000,4.000000,100.000000,,,,,,,,,,,,,,,,
1645711614.853685,69.000000,0.000000,4229.230957,4221.025879,4232.307617,4222.179688,4215.000000,4222.179688,4227.179688,4213.846191,4228.717773,4220.897461,4215.128418,4174.358887,4225.769043,4219.358887,0.000000,4.000000,82.000000,,,,0.000000,4.000000,4.000000,4.000000,4.000000,4.000000,4.000000,4.000000,4.000000,4.000000,4.000000,4.000000,4.000000,4.000000,4.000000,100.000000,,,,,,,,,,,,,,,,
1645711614.857625,70.000000,0.000000,4227.692383,4218.205078,4232.820313,4219.743652,4212.436035,4219.230957,4225.512695,4212.436035,4228.974121,4218.974121,4215.641113,4174.487305,4222.436035,4213.846191,0.000000,4.000000,82.000000,,,,0.000000,4.000000,4.000000,4.000000,4.000000,4.000000,4.000000,4.000000,4.000000,4.000000,4.000000,4.000000,4.000000,4.000000,4.000000,100.000000,,,,,,,,,,,,,,,,
1645711614.861565,71.000000,0.000000,4218.205078,4219.871582,4233.461426,4223.333496,4217.307617,4222.563965,4227.307617,4215.256348,4232.307617,4222.179688,4222.436035,4176.666504,4223.974121,4208.974121,0.000000,4.000000,82.000000,,,,0.000000,4.000000,4.000000,4.000000,4.000000,4.000000,4.000000,4.000000,4.000000,4.000000,4.000000,4.000000,4.000000,4.000000,4.000000,100.000000,,,,,,,,,,,,,,,,
1645711614.865505,72.000000,0.000000,4211.410156,4222.563965,4232.051270,4226.794922,4221.922852,4226.538574,4229.358887,4218.077148,4234.230957,4223.205078,4227.436035,4177.820313,4227.436035,4205.769043,0.000000,4.000000,82.000000,,,,0.000000,4.000000,4.000000,4.000000,4.000000,4.000000,4.000000,4.000000,4.000000,4.000000,4.000000,4.000000,4.000000,4.000000,4.000000,100.000000,,,,,,,,,,,,,,,,
1645711614.869445,73.000000,0.000000,4214.230957,4222.307617,4228.461426,4225.000000,4219.358887,4226.282227,4229.615234,4217.051270,4231.282227,4216.538574,4224.102539,4176.410156,4228.717773,4206.922852,0.000000,4.000000,82.000000,,,,0.000000,4.000000,4.000000,4.000000,4.000000,4.000000,4.000000,4.000000,4.000000,4.000000,4.000000,4.000000,4.000000,4.000000,4.000000,100.000000,,,,,,,,,,,,,,,,
1645711614.873385,74.000000,0.000000,4221.410156,4220.128418,4225.512695,4221.153809,4212.948730,4223.846191,4229.358887,4213.846191,4225.641113,4207.692383,4216.410156,4173.974121,4227.307617,4213.589844,0.000000,4.000000,82.000000,,,,0.000000,4.000000,4.000000,4.000000,4.000000,4.000000,4.000000,4.000000,4.000000,4.000000,4.000000,4.000000,4.000000,4.000000,4.000000,100.000000,,,,,,,,,,,,,,,,
1645711614.877325,75.000000,0.000000,4222.948730,4219.871582,4226.410156,4222.051270,4211.282227,4224.230957,4230.384766,4212.563965,4222.436035,4206.538574,4213.846191,4173.589844,4226.025879,4221.666504,0.000000,4.000000,82.000000,,,,0.000000,4.000000,4.000000,4.000000,4.000000,4.000000,4.000000,4.000000,4.000000,4.000000,4.000000,4.000000,4.000000,4.000000,4.000000,100.000000,,,,,,,,,,,,,,,,
1645711614.881265,76.000000,0.000000,4218.205078,4222.948730,4230.641113,4228.589844,4217.307617,4227.692383,4231.666504,4214.358887,4223.974121,4214.871582,4219.102539,4175.256348,4226.666504,4225.512695,0.000000,4.000000,82.000000,,,,0.000000,4.000000,4.000000,4.000000,4.000000,4.000000,4.000000,4.000000,4.000000,4.000000,4.000000,4.000000,4.000000,4.000000,4.000000,100.000000,,,,,,,,,,,,,,,,
1645711614.885206,77.000000,0.000000,4215.769043,4225.897461,4234.615234,4234.230957,4224.358887,4229.358887,4230.512695,4216.025879,4227.179688,4223.333496,4225.000000,4176.666504,4227.563965,4223.205078,0.000000,4.000000,82.000000,,,,0.000000,4.000000,4.000000,4.000000,4.000000,4.000000,4.000000,4.000000,4.000000,4.000000,4.000000,4.000000,4.000000,4.000000,4.000000,100.000000,,,,,,,,,,,,,,,,
1645711614.889146,78.000000,0.000000,4221.666504,4225.897461,4235.256348,4232.179688,4224.871582,4226.025879,4227.436035,4214.615234,4227.692383,4222.179688,4223.589844,4176.153809,4226.666504,4219.102539,0.000000,4.000000,82.000000,,,,0.000000,4.000000,4.000000,4.000000,4.000000,4.000000,4.000000,4.000000,4.000000,4.000000,4.000000,4.000000,4.000000,4.000000,4.000000,100.000000,,,,,,,,,,,,,,,,
1645711614.893086,79.000000,0.000000,4230.000000,4224.358887,4232.820313,4223.589844,4220.128418,4221.410156,4225.641113,4211.666504,4225.897461,4212.692383,4215.769043,4175.000000,4224.487305,4218.205078,0.000000,4.000000,82.000000,,,,0.000000,4.000000,4.000000,4.000000,4.000000,4.000000,4.000000,4.000000,4.000000,4.000000,4.000000,4.000000,4.000000,4.000000,4.000000,100.000000,,,,,,,,,,,,,,,,
1645711614.897026,80.000000,0.000000,4230.000000,4224.487305,4229.743652,4215.897461,4217.051270,4221.282227,4227.051270,4210.897461,4225.256348,4204.871582,4209.615234,4175.384766,4223.846191,4220.641113,0.000000,4.000000,82.000000,,,,0.000000,4.000000,4.000000,4.000000,4.000000,4.000000,4.000000,4.000000,4.000000,4.000000,4.000000,4.000000,4.000000,4.000000,4.000000,100.000000,,,,,,,,,,,,,,,,
1645711614.900966,81.000000,0.000000,4220.128418,4226.410156,4226.794922,4213.589844,4217.948730,4225.256348,4228.974121,4212.948730,4227.692383,4205.512695,4209.487305,4176.153809,4225.128418,4221.410156,0.000000,4.000000,82.000000,,,,0.000000,4.000000,4.000000,4.000000,4.000000,4.000000,4.000000,4.000000,4.000000,4.000000,4.000000,4.000000,4.000000,4.000000,4.000000,100.000000,,,,,,,,,,,,,,,,
1645711614.904906,82.000000,0.000000,4210.512695,4225.897461,4222.436035,4213.974121,4217.436035,4226.282227,4227.051270,4213.974121,4230.128418,4210.512695,4211.282227,4173.717773,4225.512695,4216.794922,0.000000,4.000000,82.000000,,,,0.000000,4.000000,4.000000,4.000000,4.000000,4.000000,4.000000,4.000000,4.000000,4.000000,4.000000,4.000000,4.000000,4.000000,4.000000,100.000000,,,,,,,,,,,,,,,,
1645711614.908846,83.000000,0.000000,4209.743652,4220.000000,4216.538574,4213.333496,4210.512695,4220.256348,4220.384766,4210.384766,4228.589844,4211.794922,4209.358887,4166.922852,4222.563965,4208.717773,0.000000,4.000000,82.000000,,,,0.000000,4.000000,4.000000,4.000000,4.000000,4.000000,4.000000,4.000000,4.000000,4.000000,4.000000,4.000000,4.000000,4.000000,4.000000,100.000000,,,,,,,,,,,,,,,,
1645711614.912786,84.000000,0.000000,4214.871582,4212.051270,4211.922852,4212.436035,4201.922852,4211.282227,4213.589844,4203.846191,4222.948730,4207.948730,4205.256348,4159.487305,4218.205078,4202.307617,0.000000,4.000000,82.000000,,,,0.000000,4.000000,4.000000,4.000000,4.000000,4.000000,4.000000,4.000000,4.000000,4.000000,4.000000,4.000000,4.000000,4.000000,4.000000,100.000000,,,,,,,,,,,,,,,,
1645711614.916726,85.000000,0.000000,4216.410156,4208.974121,4212.051270,4215.512695,4201.410156,4208.333496,4211.794922,4200.128418,4217.820313,4205.000000,4205.641113,4156.794922,4216.922852,4200.769043,0.000000,4.000000,82.000000,,,,0.000000,4.000000,4.000000,4.000000,4.000000,4.000000,4.000000,4.000000,4.000000,4.000000,4.000000,4.000000,4.000000,4.000000,4.000000,100.000000,,,,,,,,,,,,,,,,
1645711614.920567,86.000000,0.000000,4211.666504,4213.205078,4216.282227,4222.563965,4211.282227,4213.846191,4214.487305,4202.692383,4217.436035,4207.307617,4212.051270,4159.743652,4220.128418,4202.692383,0.000000,4.000000,82.000000,,,,0.000000,4.000000,4.000000,4.000000,4.000000,4.000000,4.000000,4.000000,4.000000,4.000000,4.000000,4.000000,4.000000,4.000000,4.000000,100.000000,,,,,,,,,,,,,,,,
1645711614.924507,87.000000,0.000000,4208.077148,4219.358887,4219.743652,4227.820313,4222.307617,4220.897461,4217.436035,4208.717773,4221.666504,4211.666504,4217.948730,4164.102539,4224.358887,4206.025879,0.000000,4.000000,82.000000,,,,0.000000,4.000000,4.000000,4.000000,4.000000,4.000000,4.000000,4.000000,4.000000,4.000000,4.000000,4.000000,4.000000,4.000000,4.000000,100.000000,,,,,,,,,,,,,,,,
1645711614.928447,88.000000,0.000000,4212.051270,4220.641113,4218.589844,4226.410156,4224.615234,4222.307617,4217.948730,4212.948730,4226.794922,4212.179688,4217.179688,4165.512695,4225.384766,4210.000000,0.000000,4.000000,82.000000,,,,0.000000,4.000000,4.000000,4.000000,4.000000,4.000000,4.000000,4.000000,4.000000,4.000000,4.000000,4.000000,4.000000,4.000000,4.000000,100.000000,,,,,,,,,,,,,,,,
1645711614.932387,89.000000,0.000000,4219.487305,4216.794922,4213.461426,4221.025879,4218.461426,4218.461426,4217.948730,4213.589844,4230.512695,4209.871582,4211.666504,4164.487305,4223.717773,4214.487305,0.000000,4.000000,82.000000,,,,0.000000,4.000000,4.000000,4.000000,4.000000,4.000000,4.000000,4.000000,4.000000,4.000000,4.000000,4.000000,4.000000,4.000000,4.000000,100.000000,,,,,,,,,,,,,,,,
1645711614.936327,90.000000,0.000000,4220.641113,4214.102539,4208.974121,4218.717773,4213.974121,4216.410156,4221.025879,4213.461426,4232.948730,4210.769043,4210.256348,4164.615234,4223.205078,4217.436035,0.000000,4.000000,82.000000,,,,0.000000,4.000000,4.000000,4.000000,4.000000,4.000000,4.000000,4.000000,4.000000,4.000000,4.000000,4.000000,4.000000,4.000000,4.000000,100.000000,,,,,,,,,,,,,,,,
1645711614.940267,91.000000,0.000000,4213.846191,4216.538574,4208.589844,4221.666504,4217.563965,4219.743652,4226.410156,4215.000000,4234.230957,4217.051270,4216.153809,4167.563965,4225.769043,4215.897461,0.000000,4.000000,82.000000,,,,0.000000,4.000000,4.000000,4.000000,4.000000,4.000000,4.000000,4.000000,4.000000,4.000000,4.000000,4.000000,4.000000,4.000000,4.000000,100.000000,,,,,,,,,,,,,,,,
1645711614.944207,92.000000,0.000000,4208.077148,4221.666504,4210.897461,4225.000000,4224.743652,4224.871582,4230.000000,4216.922852,4233.333496,4222.436035,4222.948730,4171.025879,4228.717773,4210.000000,0.000000,4.000000,82.000000,,,,0.000000,4.000000,4.000000,4.000000,4.000000,4.000000,4.000000,4.000000,4.000000,4.000000,4.000000,4.000000,4.000000,4.000000,4.000000,100.000000,,,,,,,,,,,,,,,,
1645711614.948147,93.000000,0.000000,4211.538574,4223.974121,4212.948730,4223.333496,4227.179688,4225.897461,4228.717773,4216.538574,4229.230957,4219.615234,4222.563965,4171.538574,4228.589844,4205.000000,0.000000,4.000000,82.000000,,,,0.000000,4.000000,4.000000,4.000000,4.000000,4.000000,4.000000,4.000000,4.000000,4.000000,4.000000,4.000000,4.000000,4.000000,4.000000,100.000000,,,,,,,,,,,,,,,,
1645711614.952087,94.000000,0.000000,4220.256348,4222.436035,4213.589844,4218.589844,4223.717773,4222.820313,4224.743652,4213.589844,4224.358887,4210.512695,4215.384766,4168.589844,4225.897461,4206.153809,0.000000,4.000000,82.000000,,,,0.000000,4.000000,4.000000,4.000000,4.000000,4.000000,4.000000,4.000000,4.000000,4.000000,4.000000,4.000000,4.000000,4.000000,4.000000,100.000000,,,,,,,,,,,,,,,,
1645711614.956028,95.000000,0.000000,4222.948730,4221.538574,4214.615234,4218.205078,4221.410156,4221.025879,4222.820313,4211.538574,4222.820313,4204.743652,4210.641113,4165.128418,4224.487305,4213.333496,0.000000,4.000000,82.000000,,,,0.000000,4.000000,4.000000,4.000000,4.000000,4.000000,4.000000,4.000000,4.000000,4.000000,4.000000,4.000000,4.000000,4.000000,4.000000,100.000000,,,,,,,,,,,,,,,,
1645711614.959968,96.000000,0.000000,4215.897461,4223.974121,4217.051270,4224.615234,4224.871582,4223.205078,4224.743652,4212.692383,4226.282227,4208.461426,4214.358887,4163.846191,4226.794922,4220.384766,0.000000,4.000000,82.000000,,,,0.000000,4.000000,4.000000,4.000000,4.000000,4.000000,4.000000,4.000000,4.000000,4.000000,4.000000,4.000000,4.000000,4.000000,4.000000,100.000000,,,,,,,,,,,,,,,,
1645711614.963908,97.000000,0.000000,4207.820313,4226.922852,4219.615234,4231.794922,4229.487305,4226.538574,4227.948730,4215.128418,4231.282227,4217.179688,4222.820313,4164.487305,4230.256348,4222.051270,0.000000,4.000000,82.000000,,,,0.000000,4.000000,4.000000,4.000000,4.000000,4.000000,4.000000,4.000000,4.000000,4.000000,4.000000,4.000000,4.000000,4.000000,4.000000,100.000000,,,,,,,,,,,,,,,,
1645711614.967848,98.000000,0.000000,4208.846191,4225.256348,4220.256348,4231.794922,4227.563965,4225.897461,4229.102539,4216.025879,4232.948730,4221.538574,4227.563965,4165.000000,4230.256348,4218.846191,0.000000,4.000000,82.000000,,,,0.000000,4.000000,4.000000,4.000000,4.000000,4.000000,4.000000,4.000000,4.000000,4.000000,4.000000,4.000000,4.000000,4.000000,4.000000,100.000000,,,,,,,,,,,,,,,,
1645711614.971788,99.000000,0.000000,4217.820313,4219.102539,4219.615234,4224.615234,4219.487305,4222.307617,4228.077148,4214.487305,4230.000000,4218.589844,4226.025879,4165.000000,4226.666504,4215.128418,0.000000,4.000000,82.000000,,,,0.000000,4.000000,4.000000,4.000000,4.000000,4.000000,4.000000,4.000000,4.000000,4.000000,4.000000,4.000000,4.000000,4.000000,4.000000,100.000000,,,,,,,,,,,,,,,,
1645711614.975728,100.000000,0.000000,4223.461426,4214.871582,4219.615234,4217.948730,4213.846191,4220.897461,4226.922852,4213.333496,4225.512695,4214.743652,4223.077148,4165.384766,4223.717773,4213.717773,0.000000,4.000000,82.000000,,,,0.000000,4.000000,4.000000,4.000000,4.000000,4.000000,4.000000,4.000000,4.000000,4.000000,4.000000,4.000000,4.000000,4.000000,4.000000,100.000000,,,,,,,,,,,,,,,,
1645711614.979668,101.000000,0.000000,4219.358887,4216.666504,4221.410156,4217.179688,4216.922852,4224.230957,4226.410156,4214.230957,4223.333496,4215.897461,4223.205078,4166.025879,4224.743652,4213.589844,0.000000,4.000000,82.000000,,,,0.000000,4.000000,4.000000,4.000000,4.000000,4.000000,4.000000,4.000000,4.000000,4.000000,4.000000,4.000000,4.000000,4.000000,4.000000,100.000000,,,,,,,,,,,,,,,,
1645711614.983608,102.000000,0.000000,4211.666504,4221.538574,4222.820313,4220.128418,4224.487305,4227.820313,4225.769043,4215.512695,4223.589844,4219.230957,4224.230957,4165.000000,4227.948730,4212.948730,0.000000,4.000000,82.000000,,,,0.000000,4.000000,4.000000,4.000000,4.000000,4.000000,4.000000,4.000000,4.000000,4.000000,4.000000,4.000000,4.000000,4.000000,4.000000,100.000000,,,,,,,,,,,,,,,,
1645711614.987548,103.000000,0.000000,4210.256348,4223.205078,4222.179688,4220.128418,4227.307617,4225.897461,4224.230957,4214.615234,4223.717773,4217.436035,4221.922852,4161.666504,4228.846191,4211.922852,0.000000,4.000000,82.000000,,,,0.000000,4.000000,4.000000,4.000000,4.000000,4.000000,4.000000,4.000000,4.000000,4.000000,4.000000,4.000000,4.000000,4.000000,4.000000,100.000000,,,,,,,,,,,,,,,,
1645711614.991588,104.000000,0.000000,4216.282227,4220.256348,4220.128418,4215.769043,4223.205078,4219.487305,4223.461426,4211.538574,4222.307617,4209.230957,4217.307617,4158.589844,4225.641113,4211.666504,0.000000,4.000000,82.000000,,,,0.000000,4.000000,4.000000,4.000000,4.000000,4.000000,4.000000,4.000000,4.000000,4.000000,4.000000,4.000000,4.000000,4.000000,4.000000,100.000000,,,,,,,,,,,,,,,,
1645711614.995529,105.000000,0.000000,4221.153809,4218.077148,4218.974121,4213.077148,4218.461426,4215.769043,4225.256348,4208.974121,4220.384766,4202.051270,4216.025879,4160.128418,4221.282227,4211.794922,0.000000,4.000000,82.000000,,,,0.000000,4.000000,4.000000,4.000000,4.000000,4.000000,4.000000,4.000000,4.000000,4.000000,4.000000,4.000000,4.000000,4.000000,4.000000,100.000000,,,,,,,,,,,,,,,,
1645711614.999469,106.000000,0.000000,4218.846191,4220.641113,4219.743652,4216.794922,4218.589844,4219.102539,4228.205078,4208.461426,4219.230957,4202.307617,4220.000000,4166.153809,4219.102539,4210.641113,0.000000,4.000000,82.000000,,,,0.000000,4.000000,4.000000,4.000000,4.000000,4.000000,4.000000,4.000000,4.000000,4.000000,4.000000,4.000000,4.000000,4.000000,4.000000,100.000000,,,,,,,,,,,,,,,,
1645711615.003409,107.000000,0.000000,4213.846191,4224.743652,4220.384766,4223.461426,4220.384766,4225.256348,4228.205078,4207.436035,4218.077148,4206.922852,4222.948730,4171.538574,4219.102539,4208.333496,0.000000,4.000000,82.000000,,,,0.000000,4.000000,4.000000,4.000000,4.000000,4.000000,4.000000,4.000000,4.000000,4.000000,4.000000,4.000000,4.000000,4.000000,4.000000,100.000000,,,,,,,,,,,,,,,,
1645711615.007349,108.000000,0.000000,4214.358887,4224.358887,4218.974121,4225.128418,4217.563965,4226.538574,4222.948730,4203.846191,4215.769043,4207.820313,4217.948730,4170.897461,4218.846191,4207.948730,0.000000,4.000000,82.000000,,,,0.000000,4.000000,4.000000,4.000000,4.000000,4.000000,4.000000,4.000000,4.000000,4.000000,4.000000,4.000000,4.000000,4.000000,4.000000,100.000000,,,,,,,,,,,,,,,,
1645711615.011289,109.000000,0.000000,4220.641113,4217.948730,4216.410156,4219.102539,4210.256348,4221.538574,4216.153809,4199.230957,4213.333496,4203.077148,4206.666504,4165.000000,4217.820313,4211.538574,0.000000,4.000000,82.000000,,,,0.000000,4.000000,4.000000,4.000000,4.000000,4.000000,4.000000,4.000000,4.000000,4.000000,4.000000,4.000000,4.000000,4.000000,4.000000,100.000000,,,,,,,,,,,,,,,,
1645711615.015229,110.000000,0.000000,4224.230957,4211.153809,4215.256348,4211.410156,4206.282227,4216.282227,4213.205078,4198.205078,4213.461426,4200.000000,4199.102539,4159.871582,4217.563965,4215.641113,0.000000,4.000000,82.000000,,,,0.000000,4.000000,4.000000,4.000000,4.000000,4.000000,4.000000,4.000000,4.000000,4.000000,4.000000,4.000000,4.000000,4.000000,4.000000,100.000000,,,,,,,,,,,,,,,,
1645711615.019169,111.000000,0.000000,4219.230957,4209.487305,4216.153809,4209.102539,4211.153809,4216.153809,4215.256348,4202.948730,4217.307617,4204.487305,4202.436035,4159.871582,4219.230957,4215.128418,0.000000,4.000000,82.000000,,,,0.000000,4.000000,4.000000,4.000000,4.000000,4.000000,4.000000,4.000000,4.000000,4.000000,4.000000,4.000000,4.000000,4.000000,4.000000,100.000000,,,,,,,,,,,,,,,,
1645711615.023109,112.000000,0.000000,4210.384766,4211.794922,4216.538574,4212.436035,4220.000000,4219.230957,4218.077148,4209.487305,4221.666504,4212.436035,4212.307617,4163.077148,4220.641113,4208.717773,0.000000,4.000000,82.000000,,,,0.000000,4.000000,4.000000,4.000000,4.000000,4.000000,4.000000,4.000000,4.000000,4.000000,4.000000,4.000000,4.000000,4.000000,4.000000,100.000000,,,,,,,,,,,,,,,,
1645711615.027049,113.000000,0.000000,4207.692383,4213.205078,4213.846191,4215.641113,4222.820313,4219.743652,4217.436035,4212.051270,4222.563965,4214.358887,4218.333496,4164.487305,4218.846191,4202.563965,0.000000,4.000000,82.000000,,,,0.000000,4.000000,4.000000,4.000000,4.000000,4.000000,4.000000,4.000000,4.000000,4.000000,4.000000,4.000000,4.000000,4.000000,4.000000,100.000000,,,,,,,,,,,,,,,,
1645711615.030989,114.000000,0.000000,4212.948730,4211.922852,4209.358887,4215.384766,4217.307617,4216.666504,4214.358887,4208.846191,4219.358887,4207.563965,4215.641113,4161.410156,4214.615234,4203.589844,0.000000,4.000000,82.000000,,,,0.000000,4.000000,4.000000,4.000000,4.000000,4.000000,4.000000,4.000000,4.000000,4.000000,4.000000,4.000000,4.000000,4.000000,4.000000,100.000000,,,,,,,,,,,,,,,,
1645711615.034930,115.000000,0.000000,4218.205078,4211.410156,4206.922852,4214.102539,4211.922852,4215.000000,4213.461426,4204.487305,4216.922852,4200.384766,4209.743652,4156.794922,4212.692383,4212.179688,0.000000,4.000000,82.000000,,,,0.000000,4.000000,4.000000,4.000000,4.000000,4.000000,4.000000,4.000000,4.000000,4.000000,4.000000,4.000000,4.000000,4.000000,4.000000,100.000000,,,,,,,,,,,,,,,,
1645711615.038870,116.000000,0.000000,4216.153809,4214.743652,4208.589844,4215.384766,4214.487305,4218.717773,4216.922852,4204.615234,4219.102539,4201.666504,4208.974121,4154.487305,4216.282227,4221.025879,0.000000,4.000000,82.000000,,,,0.000000,4.000000,4.000000,4.000000,4.000000,4.000000,4.000000,4.000000,4.000000,4.000000,4.000000,4.000000,4.000000,4.000000,4.000000,100.000000,,,,,,,,,,,,,,,,
1645711615.042810,117.000000,0.000000,4210.000000,4218.717773,4211.794922,4217.948730,4222.692383,4224.743652,4221.282227,4209.230957,4224.487305,4210.128418,4213.077148,4155.256348,4223.077148,4222.307617,0.000000,4.000000,82.000000,,,,0.000000,4.000000,4.000000,4.000000,4.000000,4.000000,4.000000,4.000000,4.000000,4.000000,4.000000,4.000000,4.000000,4.000000,4.000000,100.000000,,,,,,,,,,,,,,,,
1645711615.046750,118.000000,0.000000,4208.333496,4217.563965,4212.692383,4217.436035,4226.025879,4226.025879,4222.051270,4213.589844,4227.563965,4215.000000,4215.128418,4155.641113,4226.282227,4215.641113,0.000000,4.000000,82.000000,1,1,1,0.000000,4.000000,4.000000,4.000000,4.000000,4.000000,4.000000,4.000000,4.000000,4.000000,4.000000,4.000000,4.000000,4.000000,4.000000,100.000000,,,,,,,,,,,,,,,,
1645711615.050690,119.000000,0.000000,4213.333496,4210.769043,4210.256348,4213.589844,4220.128418,4221.410156,4218.974121,4213.589844,4224.871582,4210.000000,4210.384766,4153.333496,4222.436035,4206.794922,0.000000,4.000000,82.000000,,,,0.000000,4.000000,4.000000,4.000000,4.000000,4.000000,4.000000,4.000000,4.000000,4.000000,4.000000,4.000000,4.000000,4.000000,4.000000,100.000000,,,,,,,,,,,,,,,,
1645711615.054630,120.000000,0.000000,4217.179688,4204.871582,4207.179688,4211.153809,4211.922852,4217.948730,4216.410156,4210.384766,4219.615234,4200.769043,4202.820313,4148.974121,4214.871582,4201.794922,0.000000,4.000000,82.000000,,,,0.000000,4.000000,4.000000,4.000000,4.000000,4.000000,4.000000,4.000000,4.000000,4.000000,4.000000,4.000000,4.000000,4.000000,4.000000,100.000000,,,,,,,,,,,,,,,,
1645711615.058570,121.000000,0.000000,4212.948730,4206.538574,4206.538574,4213.589844,4211.153809,4221.410156,4218.077148,4208.077148,4217.820313,4197.563965,4198.974121,4145.000000,4209.358887,4201.538574,0.000000,4.000000,82.000000,,,,0.000000,4.000000,4.000000,4.000000,4.000000,4.000000,4.000000,4.000000,4.000000,4.000000,4.000000,4.000000,4.000000,4.000000,4.000000,100.000000,,,,,,,,,,,,,,,,
1645711615.062510,122.000000,0.000000,4205.000000,4214.102539,4208.205078,4217.948730,4217.563965,4228.974121,4222.692383,4208.846191,4221.025879,4203.205078,4200.641113,4142.948730,4209.358887,4203.333496,0.000000,4.000000,82.000000,,,,0.000000,4.000000,4.000000,4.000000,4.000000,4.000000,4.000000,4.000000,4.000000,4.000000,4.000000,4.000000,4.000000,4.000000,4.000000,100.000000,,,,,,,,,,,,,,,,
1645711615.066351,123.000000,0.000000,4203.461426,4219.871582,4209.487305,4217.820313,4222.436035,4232.692383,4226.025879,4211.282227,4225.384766,4210.256348,4203.461426,4143.205078,4213.461426,4205.384766,0.000000,4.000000,82.000000,,,,0.000000,4.000000,4.000000,4.000000,4.000000,4.000000,4.000000,4.000000,4.000000,4.000000,4.000000,4.000000,4.000000,4.000000,4.000000,100.000000,,,,,,,,,,,,,,,,
1645711615.070291,124.000000,0.000000,4211.282227,4219.358887,4209.743652,4212.436035,4219.743652,4229.230957,4226.666504,4213.205078,4225.641113,4211.794922,4205.128418,4147.051270,4218.974121,4207.948730,0.000000,4.000000,82.000000,,,,0.000000,4.000000,4.000000,4.000000,4.000000,4.000000,4.000000,4.000000,4.000000,4.000000,4.000000,4.000000,4.000000,4.000000,4.000000,100.000000,,,,,,,,,,,,,,,,
1645711615.074231,125.000000,0.000000,4219.871582,4215.897461,4211.025879,4208.333496,4214.102539,4224.487305,4226.282227,4214.615234,4221.282227,4209.487305,4208.589844,4155.256348,4224.743652,4211.025879,0.000000,4.000000,82.000000,,,,0.000000,4.000000,4.000000,4.000000,4.000000,4.000000,4.000000,4.000000,4.000000,4.000000,4.000000,4.000000,4.000000,4.000000,4.000000,100.000000,,,,,,,,,,,,,,,,
1645711615.078171,126.000000,0.000000,4220.256348,4215.256348,4215.256348,4211.666504,4213.461426,4225.128418,4227.179688,4216.282227,4215.641113,4209.615234,4216.794922,4166.153809,4230.512695,4212.307617,0.000000,4.000000,82.000000,,,,0.000000,4.000000,4.000000,4.000000,4.000000,4.000000,4.000000,4.000000,4.000000,4.000000,4.000000,4.000000,4.000000,4.000000,4.000000,100.000000,,,,,,,,,,,,,,,,
1645711615.082111,127.000000,0.000000,4214.487305,4217.948730,4220.897461,4219.615234,4218.717773,4230.256348,4227.563965,4216.666504,4211.922852,4213.717773,4226.410156,4174.230957,4234.358887,4210.512695,0.000000,4.000000,82.000000,,,,0.000000,4.000000,4.000000,4.000000,4.000000,4.000000,4.000000,4.000000,4.000000,4.000000,4.000000,4.000000,4.000000,4.000000,4.000000,100.000000,,,,,,,,,,,,,,,,
1645711615.086051,128.000000,0.000000,4212.948730,4219.743652,4223.846191,4223.205078,4222.179688,4232.051270,4224.871582,4214.102539,4209.871582,4216.153809,4229.358887,4174.743652,4233.846191,4207.307617,3303.000000,4.000000,82.000000,,,,0.000000,4.000000,4.000000,4.000000,4.000000,4.000000,4.000000,4.000000,4.000000,4.000000,4.000000,4.000000,4.000000,4.000000,4.000000,100.000000,,,,,,,,,,,,,,,,
1645711615.089991,129.000000,0.000000,4219.743652,4218.333496,4222.436035,4218.974121,4218.461426,4226.410156,4219.615234,4209.487305,4208.717773,4213.077148,4222.692383,4168.846191,4229.487305,4206.922852,3370.000000,4.000000,82.000000,,,,0.000000,4.000000,4.000000,4.000000,4.000000,4.000000,4.000000,4.000000,4.000000,4.000000,4.000000,4.000000,4.000000,4.000000,4.000000,100.000000,,,,,,,,,,,,,,,,
1645711615.093931,130.000000,0.000000,4227.436035,4216.666504,4219.358887,4213.205078,4211.538574,4218.461426,4215.641113,4206.922852,4208.717773,4207.692383,4213.077148,4163.077148,4225.641113,4210.897461,2247.000000,4.000000,82.000000,,,,0.000000,4.000000,4.000000,4.000000,4.000000,4.000000,4.000000,4.000000,4.000000,4.000000,4.000000,4.000000,4.000000,4.000000,4.000000,100.000000,,,,,,,,,,,,,,,,
1645711615.097871,131.000000,0.000000,4227.051270,4218.846191,4218.205078,4214.102539,4209.487305,4215.897461,4215.512695,4208.974121,4211.282227,4206.282227,4210.000000,4163.461426,4226.025879,4215.897461,3462.000000,4.000000,82.000000,,,,0.000000,4.000000,4.000000,4.000000,4.000000,4.000000,4.000000,4.000000,4.000000,4.000000,4.000000,4.000000,4.000000,4.000000,4.000000,100.000000,,,,,,,,,,,,,,,,
1645711615.101811,132.000000,0.000000,4220.512695,4222.820313,4219.487305,4221.025879,4213.846191,4218.974121,4216.922852,4212.692383,4214.743652,4209.358887,4214.102539,4168.846191,4229.487305,4217.307617,3514.000000,4.000000,82.000000,,,,0.000000,4.000000,4.000000,4.000000,4.000000,4.000000,4.000000,4.000000,4.000000,4.000000,4.000000,4.000000,4.000000,4.000000,4.000000,100.000000,,,,,,,,,,,,,,,,
1645711615.105752,133.000000,0.000000,4217.692383,4222.436035,4221.153809,4226.025879,4217.563965,4220.897461,4215.897461,4212.307617,4216.282227,4210.512695,4217.563965,4173.589844,4230.897461,4214.358887,3322.000000,4.000000,82.000000,,,,0.000000,4.000000,4.000000,4.000000,4.000000,4.000000,4.000000,4.000000,4.000000,4.000000,4.000000,4.000000,4.000000,4.000000,4.000000,100.000000,,,,,,,,,,,,,,,,
1645711615.109692,134.000000,0.000000,4222.692383,4215.000000,4221.282227,4223.846191,4215.384766,4217.179688,4211.922852,4206.410156,4214.358887,4206.025879,4214.871582,4173.461426,4227.179688,4211.153809,3364.000000,4.000000,82.000000,,,,0.000000,4.000000,4.000000,4.000000,4.000000,4.000000,4.000000,4.000000,4.000000,4.000000,4.000000,4.000000,4.000000,4.000000,4.000000,100.000000,,,,,,,,,,,,,,,,
1645711615.113632,135.000000,0.000000,4227.820313,4206.410156,4221.025879,4218.461426,4210.769043,4212.179688,4208.717773,4200.256348,4212.179688,4200.128418,4210.384766,4169.871582,4221.922852,4211.922852,2531.000000,4.000000,82.000000,,,,0.000000,4.000000,4.000000,4.000000,4.000000,4.000000,4.000000,4.000000,4.000000,4.000000,4.000000,4.000000,4.000000,4.000000,4.000000,100.000000,,,,,,,,,,,,,,,,
1645711615.117572,136.000000,0.000000,4223.846191,4205.256348,4222.179688,4217.563965,4211.282227,4212.563965,4209.615234,4200.769043,4213.717773,4200.384766,4211.666504,4167.563965,4221.025879,4216.410156,1781.000000,4.000000,82.000000,,,,0.000000,4.000000,4.000000,4.000000,4.000000,4.000000,4.000000,4.000000,4.000000,4.000000,4.000000,4.000000,4.000000,4.000000,4.000000,100.000000,,,,,,,,,,,,,,,,
1645711615.121512,137.000000,0.000000,4213.461426,4213.717773,4224.871582,4222.692383,4217.051270,4219.102539,4213.205078,4207.692383,4219.102539,4207.436035,4218.974121,4168.205078,4226.025879,4220.384766,3129.000000,4.000000,82.000000,,,,0.000000,4.000000,4.000000,4.000000,4.000000,4.000000,4.000000,4.000000,4.000000,4.000000,4.000000,4.000000,4.000000,4.000000,4.000000,100.000000,,,,,,,,,,,,,,,,
1645711615.125452,138.000000,0.000000,4208.589844,4224.615234,4227.051270,4227.436035,4221.282227,4224.871582,4215.512695,4214.358887,4224.102539,4213.461426,4223.589844,4169.743652,4232.051270,4221.153809,2407.000000,4.000000,82.000000,,,,0.000000,4.000000,4.000000,4.000000,4.000000,4.000000,4.000000,4.000000,4.000000,4.000000,4.000000,4.000000,4.000000,4.000000,4.000000,100.000000,,,,,,,,,,,,,,,,
1645711615.129392,139.000000,0.000000,4215.769043,4229.871582,4227.436035,4226.153809,4219.102539,4224.743652,4215.128418,4215.256348,4225.512695,4211.922852,4219.487305,4169.615234,4233.205078,4219.871582,2671.000000,4.000000,82.000000,,,,0.000000,4.000000,4.000000,4.000000,4.000000,4.000000,4.000000,4.000000,4.000000,4.000000,4.000000,4.000000,4.000000,4.000000,4.000000,100.000000,,,,,,,,,,,,,,,,
1645711615.133332,140.000000,0.000000,4227.051270,4228.461426,4227.051270,4221.410156,4215.256348,4221.410156,4214.743652,4212.179688,4224.743652,4206.282227,4211.282227,4168.461426,4229.358887,4218.974121,3201.000000,4.000000,82.000000,,,,0.000000,4.000000,4.000000,4.000000,4.000000,4.000000,4.000000,4.000000,4.000000,4.000000,4.000000,4.000000,4.000000,4.000000,4.000000,100.000000,,,,,,,,,,,,,,,,
1645711615.137272,141.000000,0.000000,4230.000000,4225.384766,4226.922852,4219.743652,4217.692383,4220.897461,4216.666504,4211.153809,4225.512695,4205.384766,4208.717773,4169.102539,4224.743652,4218.846191,3208.000000,4.000000,82.000000,,,,0.000000,4.000000,4.000000,4.000000,4.000000,4.000000,4.000000,4.000000,4.000000,4.000000,4.000000,4.000000,4.000000,4.000000,4.000000,100.000000,,,,,,,,,,,,,,,,
1645711615.141113,142.000000,0.000000,4223.333496,4223.846191,4226.153809,4223.205078,4226.538574,4224.358887,4219.358887,4214.615234,4228.974121,4211.794922,4215.000000,4171.666504,4222.692383,4217.563965,2407.000000,4.000000,82.000000,,,,0.000000,4.000000,4.000000,4.000000,4.000000,4.000000,4.000000,4.000000,4.000000,4.000000,4.000000,4.000000,4.000000,4.000000,4.000000,100.000000,,,,,,,,,,,,,,,,
1645711615.145053,143.000000,0.000000,4217.436035,4222.307617,4222.436035,4226.922852,4232.563965,4226.922852,4219.230957,4218.974121,4232.307617,4218.461426,4222.179688,4173.461426,4222.563965,4214.230957,2671.000000,4.000000,82.000000,,,,0.000000,4.000000,4.000000,4.000000,4.000000,4.000000,4.000000,4.000000,4.000000,4.000000,4.000000,4.000000,4.000000,4.000000,4.000000,100.000000,,,,,,,,,,,,,,,,
1645711615.148993,144.000000,0.000000,4220.384766,4219.487305,4216.153809,4226.282227,4229.487305,4224.487305,4215.384766,4219.615234,4232.692383,4217.436035,4221.666504,4171.794922,4221.794922,4211.025879,3201.000000,4.000000,82.000000,,,,0.000000,4.000000,4.000000,4.000000,4.000000,4.000000,4.000000,4.000000,4.000000,4.000000,4.000000,4.000000,4.000000,4.000000,4.000000,100.000000,,,,,,,,,,,,,,,,
1645711615.152933,145.000000,0.000000,4227.307617,4217.820313,4210.256348,4224.230957,4222.051270,4220.000000,4211.538574,4217.179688,4230.897461,4211.153809,4214.358887,4168.077148,4220.641113,4209.743652,3208.000000,4.000000,82.000000,,,,0.000000,4.000000,4.000000,4.000000,4.000000,4.000000,4.000000,4.000000,4.000000,4.000000,4.000000,4.000000,4.000000,4.000000,4.000000,100.000000,,,,,,,,,,,,,,,,
1645711615.156973,146.000000,0.000000,4227.563965,4220.897461,4208.333496,4227.051270,4221.025879,4219.487305,4211.538574,4216.025879,4230.384766,4208.589844,4209.230957,4165.641113,4221.666504,4210.128418,2407.000000,4.000000,82.000000,,,,0.000000,4.000000,4.000000,4.000000,4.000000,4.000000,4.000000,4.000000,4.000000,4.000000,4.000000,4.000000,4.000000,4.000000,4.000000,100.000000,,,,,,,,,,,,,,,,
1645711615.160913,147.000000,0.000000,4219.487305,4227.563965,4210.384766,4235.641113,4229.358887,4224.102539,4215.512695,4218.846191,4232.436035,4214.615234,4212.436035,4166.282227,4226.025879,4210.384766,2671.000000,4.000000,82.000000,,,,0.000000,4.000000,4.000000,4.000000,4.000000,4.000000,4.000000,4.000000,4.000000,4.000000,4.000000,4.000000,4.000000,4.000000,4.000000,100.000000,,,,,,,,,,,,,,,,
1645711615.164853,148.000000,0.000000,4213.077148,4231.666504,4213.205078,4242.948730,4238.974121,4228.589844,4219.230957,4223.589844,4235.000000,4224.102539,4220.641113,4168.974121,4230.641113,4211.282227,3201.000000,4.000000,82.000000,,,,0.000000,4.000000,4.000000,4.000000,4.000000,4.000000,4.000000,4.000000,4.000000,4.000000,4.000000,4.000000,4.000000,4.000000,4.000000,100.000000,,,,,,,,,,,,,,,,
1645711615.168793,149.000000,0.000000,4216.794922,4229.102539,4213.717773,4241.922852,4240.256348,4228.333496,4220.384766,4226.538574,4235.512695,4229.871582,4226.922852,4171.922852,4232.563965,4215.128418,3208.000000,4.000000,82.000000,2,1,1,0.000000,4.000000,4.000000,4.000000,4.000000,4.000000,4.000000,4.000000,4.000000,4.000000,4.000000,4.000000,4.000000,4.000000,4.000000,100.000000,,,,,,,,,,,,,,,,
1645711615.172733,150.000000,0.000000,4226.794922,4223.333496,4212.436035,4233.717773,4233.717773,4225.128418,4220.000000,4227.051270,4234.358887,4231.025879,4228.589844,4175.384766,4232.436035,4222.436035,2407.000000,4.000000,82.000000,,,,0.000000,4.000000,4.000000,4.000000,4.000000,4.000000,4.000000,4.000000,4.000000,4.000000,4.000000,4.000000,4.000000,4.000000,4.000000,100.000000,,,,,,,,,,,,,,,,
1645711615.176673,151.000000,0.000000,4232.051270,4222.692383,4211.282227,4225.769043,4228.717773,4224.358887,4220.384766,4226.538574,4233.846191,4232.692383,4229.230957,4179.102539,4233.333496,4228.589844,2671.000000,4.000000,82.000000,,,,0.000000,4.000000,4.000000,4.000000,4.000000,4.000000,4.000000,4.000000,4.000000,4.000000,4.000000,4.000000,4.000000,4.000000,4.000000,100.000000,,,,,,,,,,,,,,,,
1645711615.180614,152.000000,0.000000,4227.948730,4229.358887,4210.641113,4223.461426,4230.897461,4227.436035,4221.282227,4225.769043,4234.615234,4236.282227,4230.128418,4181.153809,4236.666504,4228.205078,3201.000000,4.000000,82.000000,,,,0.000000,4.000000,4.000000,4.000000,4.000000,4.000000,4.000000,4.000000,4.000000,4.000000,4.000000,4.000000,4.000000,4.000000,4.000000,100.000000,,,,,,,,,,,,,,,,
1645711615.184554,153.000000,0.000000,4221.410156,4237.179688,4209.102539,4225.128418,4235.769043,4229.487305,4220.512695,4223.589844,4234.230957,4236.538574,4228.589844,4178.717773,4239.615234,4221.153809,3208.000000,4.000000,82.000000,,,,0.000000,4.000000,4.000000,4.000000,4.000000,4.000000,4.000000,4.000000,4.000000,4.000000,4.000000,4.000000,4.000000,4.000000,4.000000,100.000000,,,,,,,,,,,,,,,,
1645711615.188494,154.000000,0.000000,4221.153809,4238.077148,4206.922852,4226.282227,4236.410156,4227.051270,4217.820313,4219.358887,4231.410156,4229.743652,4222.692383,4172.179688,4239.615234,4214.230957,2407.000000,4.000000,82.000000,,,,0.000000,4.000000,4.000000,4.000000,4.000000,4.000000,4.000000,4.000000,4.000000,4.000000,4.000000,4.000000,4.000000,4.000000,4.000000,100.000000,,,,,,,,,,,,,,,,
1645711615.192434,155.000000,0.000000,4226.666504,4232.820313,4206.410156,4226.666504,4232.820313,4223.205078,4216.794922,4215.897461,4227.948730,4221.538574,4217.051270,4166.666504,4238.461426,4214.871582,2671.000000,4.000000,82.000000,,,,0.000000,4.000000,4.000000,4.000000,4.000000,4.000000,4.000000,4.000000,4.000000,4.000000,4.000000,4.000000,4.000000,4.000000,4.000000,100.000000,,,,,,,,,,,,,,,,
1645711615.196374,156.000000,0.000000,4230.897461,4229.358887,4210.128418,4230.256348,4231.666504,4224.487305,4220.128418,4217.051270,4227.948730,4222.692383,4219.358887,4168.589844,4240.512695,4223.333496,3201.000000,4.000000,82.000000,,,,0.000000,4.000000,4.000000,4.000000,4.000000,4.000000,4.000000,4.000000,4.000000,4.000000,4.000000,4.000000,4.000000,4.000000,4.000000,100.000000,,,,,,,,,,,,,,,,
1645711615.200314,157.000000,0.000000,4230.769043,4233.077148,4216.794922,4237.820313,4236.025879,4231.538574,4226.153809,4223.205078,4232.307617,4235.512695,4230.769043,4178.589844,4247.307617,4233.077148,3208.000000,4.000000,82.000000,,,,0.000000,4.000000,4.000000,4.000000,4.000000,4.000000,4.000000,4.000000,4.000000,4.000000,4.000000,4.000000,4.000000,4.000000,4.000000,100.000000,,,,,,,,,,,,,,,,
1645711615.204254,158.000000,0.000000,4231.538574,4240.256348,4222.179688,4245.000000,4240.384766,4237.179688,4229.871582,4229.615234,4237.436035,4248.974121,4243.461426,4190.897461,4254.102539,4237.692383,2407.000000,4.000000,82.000000,,,,0.000000,4.000000,4.000000,4.000000,4.000000,4.000000,4.000000,4.000000,4.000000,4.000000,4.000000,4.000000,4.000000,4.000000,4.000000,100.000000,,,,,,,,,,,,,,,,
1645711615.208194,159.000000,0.000000,4237.051270,4242.948730,4222.948730,4246.153809,4238.077148,4235.128418,4228.461426,4231.410156,4239.230957,4250.128418,4248.717773,4198.461426,4255.641113,4235.897461,2671.000000,4.000000,82.000000,,,,0.000000,4.000000,4.000000,4.000000,4.000000,4.000000,4.000000,4.000000,4.000000,4.000000,4.000000,4.000000,4.000000,4.000000,4.000000,100.000000,,,,,,,,,,,,,,,,
1645711615.212134,160.000000,0.000000,4243.077148,4238.846191,4220.384766,4242.436035,4230.512695,4227.820313,4224.487305,4228.717773,4237.307617,4238.846191,4245.769043,4198.974121,4251.794922,4230.000000,3201.000000,4.000000,82.000000,,,,0.000000,4.000000,4.000000,4.000000,4.000000,4.000000,4.000000,4.000000,4.000000,4.000000,4.000000,4.000000,4.000000,4.000000,4.000000,100.000000,,,,,,,,,,,,,,,,
1645711615.216075,161.000000,0.000000,4241.025879,4233.077148,4218.846191,4239.358887,4226.282227,4223.717773,4222.179688,4225.384766,4235.000000,4226.922852,4241.538574,4195.256348,4247.692383,4222.820313,3208.000000,4.000000,82.000000,,,,0.000000,4.000000,4.000000,4.000000,4.000000,4.000000,4.000000,4.000000,4.000000,4.000000,4.000000,4.000000,4.000000,4.000000,4.000000,100.000000,,,,,,,,,,,,,,,,
1645711615.219915,162.000000,0.000000,4230.641113,4230.769043,4219.487305,4239.358887,4229.743652,4226.538574,4222.307617,4224.487305,4234.487305,4224.230957,4240.000000,4190.000000,4247.051270,4215.897461,2407.000000,4.000000,82.000000,,,,0.000000,4.000000,4.000000,4.000000,4.000000,4.000000,4.000000,4.000000,4.000000,4.000000,4.000000,4.000000,4.000000,4.000000,4.000000,100.000000,,,,,,,,,,,,,,,,
1645711615.223855,163.000000,0.000000,4221.666504,4230.256348,4219.230957,4238.717773,4234.487305,4231.282227,4221.666504,4224.102539,4234.102539,4228.077148,4237.692383,4183.461426,4248.077148,4211.794922,2671.000000,4.000000,82.000000,,,,0.000000,4.000000,4.000000,4.000000,4.000000,4.000000,4.000000,4.000000,4.000000,4.000000,4.000000,4.000000,4.000000,4.000000,4.000000,100.000000,,,,,,,,,,,,,,,,
1645711615.227795,164.000000,0.000000,4222.820313,4227.436035,4214.615234,4232.692383,4231.538574,4230.128418,4218.333496,4220.897461,4230.769043,4228.717773,4229.358887,4175.384766,4246.153809,4213.333496,3201.000000,4.000000,82.000000,,,,0.000000,4.000000,4.000000,4.000000,4.000000,4.000000,4.000000,4.000000,4.000000,4.000000,4.000000,4.000000,4.000000,4.000000,4.000000,100.000000,,,,,,,,,,,,,,,,
1645711615.231735,165.000000,0.000000,4231.025879,4222.820313,4206.922852,4224.102539,4220.512695,4223.717773,4214.615234,4215.000000,4225.000000,4222.051270,4217.307617,4168.077148,4240.512695,4220.256348,3208.000000,4.000000,82.000000,,,,0.000000,4.000000,4.000000,4.000000,4.000000,4.000000,4.000000,4.000000,4.000000,4.000000,4.000000,4.000000,4.000000,4.000000,4.000000,100.000000,,,,,,,,,,,,,,,,
1645711615.235675,166.000000,0.000000,4235.128418,4222.051270,4201.410156,4220.128418,4211.282227,4219.230957,4214.487305,4210.512695,4220.897461,4214.615234,4210.256348,4165.512695,4235.641113,4228.205078,2407.000000,4.000000,82.000000,,,,0.000000,4.000000,4.000000,4.000000,4.000000,4.000000,4.000000,4.000000,4.000000,4.000000,4.000000,4.000000,4.000000,4.000000,4.000000,100.000000,,,,,,,,,,,,,,,,
1645711615.239515,167.000000,0.000000,4230.128418,4228.461426,4201.666504,4224.487305,4211.410156,4221.538574,4218.205078,4210.769043,4221.538574,4213.717773,4213.589844,4169.102539,4235.512695,4231.025879,2671.000000,4.000000,82.000000,,,,0.000000,4.000000,4.000000,4.000000,4.000000,4.000000,4.000000,4.000000,4.000000,4.000000,4.000000,4.000000,4.000000,4.000000,4.000000,100.000000,,,,,,,,,,,,,,,,
1645711615.243455,168.000000,0.000000,4223.333496,4236.922852,4206.025879,4231.666504,4217.436035,4227.051270,4221.538574,4214.230957,4225.769043,4219.102539,4222.051270,4175.256348,4239.743652,4227.436035,3201.000000,4.000000,82.000000,,,,0.000000,4.000000,4.000000,4.000000,4.000000,4.000000,4.000000,4.000000,4.000000,4.000000,4.000000,4.000000,4.000000,4.000000,4.000000,100.000000,,,,,,,,,,,,,,,,
1645711615.247396,169.000000,0.000000,4223.717773,4239.487305,4210.769043,4233.717773,4220.897461,4228.974121,4221.025879,4217.436035,4229.230957,4223.974121,4226.538574,4179.102539,4243.846191,4221.666504,3208.000000,4.000000,82.000000,,,,0.000000,4.000000,4.000000,4.000000,4.000000,4.000000,4.000000,4.000000,4.000000,4.000000,4.000000,4.000000,4.000000,4.000000,4.000000,100.000000,,,,,,,,,,,,,,,,
1645711615.251336,170.000000,0.000000,4229.871582,4233.974121,4213.846191,4229.487305,4219.358887,4226.666504,4218.461426,4218.717773,4230.000000,4224.358887,4224.871582,4179.230957,4244.615234,4219.743652,2407.000000,4.000000,82.000000,,,,0.000000,4.000000,4.000000,4.000000,4.000000,4.000000,4.000000,4.000000,4.000000,4.000000,4.000000,4.000000,4.000000,4.000000,4.000000,100.000000,,,,,,,,,,,,,,,,
1645711615.255176,171.000000,0.000000,4231.922852,4226.025879,4215.641113,4224.615234,4219.102539,4225.641113,4217.820313,4219.743652,4230.256348,4223.333496,4222.820313,4178.333496,4242.692383,4222.051270,2671.000000,4.000000,82.000000,,,,0.000000,4.000000,4.000000,4.000000,4.000000,4.000000,4.000000,4.000000,4.000000,4.000000,4.000000,4.000000,4.000000,4.000000,4.000000,100.000000,,,,,,,,,,,,,,,,
1645711615.259116,172.000000,0.000000,4225.128418,4222.051270,4217.051270,4223.589844,4224.487305,4229.102539,4220.000000,4221.922852,4231.666504,4224.743652,4225.641113,4178.846191,4240.128418,4223.589844,3201.000000,4.000000,82.000000,,,,0.000000,4.000000,4.000000,4.000000,4.000000,4.000000,4.000000,4.000000,4.000000,4.000000,4.000000,4.000000,4.000000,4.000000,4.000000,100.000000,,,,,,,,,,,,,,,,
1645711615.263056,173.000000,0.000000,4216.666504,4221.410156,4216.794922,4224.615234,4230.897461,4233.333496,4222.051270,4223.461426,4232.563965,4226.410156,4229.871582,4180.128418,4237.179688,4220.000000,3208.000000,4.000000,82.000000,,,,0.000000,4.000000,4.000000,4.000000,4.000000,4.000000,4.000000,4.000000,4.000000,4.000000,4.000000,4.000000,4.000000,4.000000,4.000000,100.000000,,,,,,,,,,,,,,,,
1645711615.266996,174.000000,0.000000,4216.666504,4220.384766,4213.846191,4223.717773,4229.871582,4232.563965,4221.282227,4222.051270,4230.512695,4223.717773,4228.333496,4179.615234,4233.589844,4213.333496,2407.000000,4.000000,82.000000,,,,0.000000,4.000000,4.000000,4.000000,4.000000,4.000000,4.000000,4.000000,4.000000,4.000000,4.000000,4.000000,4.000000,4.000000,4.000000,100.000000,,,,,,,,,,,,,,,,
1645711615.270936,175.000000,0.000000,4225.000000,4218.589844,4210.000000,4221.538574,4221.538574,4227.436035,4219.615234,4218.461426,4225.769043,4218.077148,4221.153809,4177.563965,4231.410156,4209.615234,2671.000000,4.000000,82.000000,,,,0.000000,4.000000,4.000000,4.000000,4.000000,4.000000,4.000000,4.000000,4.000000,4.000000,4.000000,4.000000,4.000000,4.000000,4.000000,100.000000,,,,,,,,,,,,,,,,
1645711615.274876,176.000000,0.000000,4231.666504,4220.769043,4208.974121,4223.333496,4215.641113,4225.128418,4220.384766,4216.794922,4222.563965,4217.051270,4216.666504,4176.538574,4233.205078,4212.692383,3201.000000,4.000000,82.000000,,,,0.000000,4.000000,4.000000,4.000000,4.000000,4.000000,4.000000,4.000000,4.000000,4.000000,4.000000,4.000000,4.000000,4.000000,4.000000,100.000000,,,,,,,,,,,,,,,,
1645711615.278817,177.000000,0.000000,4229.487305,4229.871582,4211.922852,4231.282227,4219.358887,4229.743652,4223.974121,4219.230957,4224.102539,4224.743652,4220.641113,4177.563965,4239.230957,4220.128418,3208.000000,4.000000,82.000000,,,,0.000000,4.000000,4.000000,4.000000,4.000000,4.000000,4.000000,4.000000,4.000000,4.000000,4.000000,4.000000,4.000000,4.000000,4.000000,100.000000,,,,,,,,,,,,,,,,
1645711615.282757,178.000000,0.000000,4223.589844,4241.153809,4215.384766,4239.358887,4227.820313,4236.153809,4226.282227,4222.948730,4228.333496,4235.000000,4228.461426,4177.692383,4244.615234,4225.897461,2407.000000,4.000000,82.000000,,,,0.000000,4.000000,4.000000,4.000000,4.000000,4.000000,4.000000,4.000000,4.000000,4.000000,4.000000,4.000000,4.000000,4.000000,4.000000,100.000000,1.000000,41.666668,1.000000,3.000000,3.000000,4.000000,1.000000,3.000000,3.000000,4.000000,3.000000,3.000000,3.000000,4.000000,3.000000,3.000000
1645711615.286697,179.000000,0.000000,4223.205078,4246.025879,4215.256348,4239.871582,4229.615234,4236.025879,4224.102539,4223.077148,4230.384766,4236.922852,4229.871582,4173.589844,4243.974121,4227.179688,2671.000000,4.000000,82.000000,,,,0.000000,4.000000,4.000000,4.000000,4.000000,4.000000,4.000000,4.000000,4.000000,4.000000,4.000000,4.000000,4.000000,4.000000,4.000000,100.000000,,,,,,,,,,,,,,,,
1645711615.290637,180.000000,0.000000,4229.871582,4241.922852,4211.410156,4232.307617,4221.025879,4228.333496,4219.487305,4218.717773,4227.820313,4227.820313,4222.563965,4166.153809,4237.820313,4226.025879,3201.000000,4.000000,82.000000,,,,0.000000,4.000000,4.000000,4.000000,4.000000,4.000000,4.000000,4.000000,4.000000,4.000000,4.000000,4.000000,4.000000,4.000000,4.000000,100.000000,,,,,,,,,,,,,,,,
1645711615.294577,181.000000,0.000000,4234.743652,4233.974121,4207.692383,4224.358887,4210.256348,4220.641113,4217.563965,4214.615234,4223.974121,4216.794922,4214.487305,4160.897461,4231.922852,4225.256348,3208.000000,4.000000,82.000000,,,,0.000000,4.000000,4.000000,4.000000,4.000000,4.000000,4.000000,4.000000,4.000000,4.000000,4.000000,4.000000,4.000000,4.000000,4.000000,100.000000,,,,,,,,,,,,,,,,
1645711615.298517,182.000000,0.000000,4230.641113,4228.461426,4207.179688,4222.436035,4207.307617,4220.384766,4220.256348,4214.871582,4222.948730,4214.358887,4214.615234,4162.179688,4230.897461,4224.615234,2407.000000,4.000000,82.000000,3,1,1,0.000000,4.000000,4.000000,4.000000,4.000000,4.000000,4.000000,4.000000,4.000000,4.000000,4.000000,4.000000,4.000000,4.000000,4.000000,100.000000,,,,,,,,,,,,,,,,
1645711615.302557,183.000000,0.000000,4221.794922,4225.384766,4207.948730,4223.974121,4211.153809,4225.897461,4223.589844,4218.461426,4225.128418,4220.128418,4221.025879,4168.077148,4232.820313,4222.307617,2671.000000,4.000000,82.000000,,,,0.000000,4.000000,4.000000,4.000000,4.000000,4.000000,4.000000,4.000000,4.000000,4.000000,4.000000,4.000000,4.000000,4.000000,4.000000,100.000000,,,,,,,,,,,,,,,,
1645711615.306497,184.000000,0.000000,4218.333496,4221.153809,4206.410156,4221.538574,4213.333496,4229.615234,4222.820313,4220.512695,4227.051270,4225.000000,4224.871582,4172.436035,4232.307617,4219.487305,3201.000000,4.000000,82.000000,,,,0.000000,4.000000,4.000000,4.000000,4.000000,4.000000,4.000000,4.000000,4.000000,4.000000,4.000000,4.000000,4.000000,4.000000,4.000000,100.000000,,,,,,,,,,,,,,,,
1645711615.310437,185.000000,0.000000,4223.717773,4216.025879,4202.179688,4214.102539,4209.871582,4227.820313,4217.948730,4219.230957,4226.025879,4223.077148,4221.666504,4172.051270,4228.077148,4219.102539,3208.000000,4.000000,82.000000,,,,0.000000,4.000000,4.000000,4.000000,4.000000,4.000000,4.000000,4.000000,4.000000,4.000000,4.000000,4.000000,4.000000,4.000000,4.000000,100.000000,,,,,,,,,,,,,,,,
1645711615.314377,186.000000,0.000000,4230.641113,4215.641113,4198.846191,4208.974121,4206.922852,4224.487305,4214.102539,4216.922852,4223.974121,4218.717773,4217.179688,4168.974121,4224.358887,4222.563965,2407.000000,4.000000,82.000000,,,,0.000000,4.000000,4.000000,4.000000,4.000000,4.000000,4.000000,4.000000,4.000000,4.000000,4.000000,4.000000,4.000000,4.000000,4.000000,100.000000,,,,,,,,,,,,,,,,
1645711615.318317,187.000000,0.000000,4231.025879,4223.589844,4200.384766,4213.077148,4211.538574,4224.743652,4214.871582,4217.179688,4224.358887,4219.230957,4219.102539,4167.563965,4226.153809,4226.282227,2671.000000,4.000000,82.000000,,,,0.000000,4.000000,4.000000,4.000000,4.000000,4.000000,4.000000,4.000000,4.000000,4.000000,4.000000,4.000000,4.000000,4.000000,4.000000,100.000000,,,,,,,,,,,,,,,,
1645711615.322258,188.000000,0.000000,4226.794922,4234.615234,4205.384766,4223.205078,4220.641113,4228.333496,4218.974121,4219.230957,4227.692383,4224.871582,4227.179688,4169.487305,4233.077148,4226.153809,3201.000000,4.000000,82.000000,,,,0.000000,4.000000,4.000000,4.000000,4.000000,4.000000,4.000000,4.000000,4.000000,4.000000,4.000000,4.000000,4.000000,4.000000,4.000000,100.000000,,,,,,,,,,,,,,,,
1645711615.326198,189.000000,0.000000,4225.769043,4239.487305,4208.846191,4229.102539,4223.974121,4230.256348,4222.436035,4219.871582,4231.153809,4228.077148,4233.717773,4172.948730,4239.102539,4222.436035,3208.000000,4.000000,82.000000,,,,0.000000,4.000000,4.000000,4.000000,4.000000,4.000000,4.000000,4.000000,4.000000,4.000000,4.000000,4.000000,4.000000,4.000000,4.000000,100.000000,,,,,,,,,,,,,,,,
1645711615.330138,190.000000,0.000000,4229.871582,4235.256348,4207.692383,4225.128418,4217.179688,4228.589844,4223.717773,4217.820313,4231.794922,4225.256348,4233.461426,4176.153809,4240.384766,4220.512695,2407.000000,4.000000,82.000000,,,,0.000000,4.000000,4.000000,4.000000,4.000000,4.000000,4.000000,4.000000,4.000000,4.000000,4.000000,4.000000,4.000000,4.000000,4.000000,100.000000,,,,,,,,,,,,,,,,
1645711615.334078,191.000000,0.000000,4232.179688,4228.333496,4203.974121,4217.179688,4208.846191,4227.436035,4224.615234,4216.538574,4230.512695,4222.179688,4229.871582,4179.743652,4238.846191,4224.743652,2671.000000,4.000000,82.000000,,,,0.000000,4.000000,4.000000,4.000000,4.000000,4.000000,4.000000,4.000000,4.000000,4.000000,4.000000,4.000000,4.000000,4.000000,4.000000,100.000000,,,,,,,,,,,,,,,,
1645711615.338018,192.000000,0.000000,4227.307617,4227.179688,4201.794922,4215.384766,4210.000000,4230.641113,4226.666504,4219.615234,4229.871582,4227.436035,4229.743652,4183.846191,4239.615234,4233.333496,3201.000000,4.000000,82.000000,,,,0.000000,4.000000,4.000000,4.000000,4.000000,4.000000,4.000000,4.000000,4.000000,4.000000,4.000000,4.000000,4.000000,4.000000,4.000000,100.000000,,,,,,,,,,,,,,,,
1645711615.341958,193.000000,0.000000,4219.615234,4232.051270,4202.563965,4221.666504,4221.410156,4236.025879,4228.205078,4225.641113,4230.897461,4239.743652,4233.717773,4186.538574,4243.333496,4240.384766,3208.000000,4.000000,82.000000,,,,0.000000,4.000000,4.000000,4.000000,4.000000,4.000000,4.000000,4.000000,4.000000,4.000000,4.000000,4.000000,4.000000,4.000000,4.000000,100.000000,,,,,,,,,,,,,,,,
1645711615.345898,194.000000,0.000000,4218.717773,4236.025879,4203.846191,4227.820313,4231.666504,4237.179688,4226.025879,4228.974121,4231.538574,4248.717773,4236.282227,4185.128418,4245.897461,4241.025879,2407.000000,4.000000,82.000000,,,,0.000000,4.000000,4.000000,4.000000,4.000000,4.000000,4.000000,4.000000,4.000000,4.000000,4.000000,4.000000,4.000000,4.000000,4.000000,100.000000,,,,,,,,,,,,,,,,
1645711615.349838,195.000000,0.000000,4226.666504,4234.487305,4203.205078,4225.641113,4231.538574,4231.410156,4220.384766,4226.025879,4229.743652,4246.538574,4233.461426,4180.128418,4243.589844,4236.282227,2671.000000,4.000000,82.000000,,,,0.000000,4.000000,4.000000,4.000000,4.000000,4.000000,4.000000,4.000000,4.000000,4.000000,4.000000,4.000000,4.000000,4.000000,4.000000,100.000000,,,,,,,,,,,,,,,,
1645711615.353778,196.000000,0.000000,4233.333496,4230.128418,4201.025879,4216.025879,4223.205078,4223.846191,4215.000000,4218.974121,4226.410156,4236.666504,4228.717773,4175.128418,4237.692383,4230.000000,3201.000000,4.000000,82.000000,,,,0.000000,4.000000,4.000000,4.000000,4.000000,4.000000,4.000000,4.000000,4.000000,4.000000,4.000000,4.000000,4.000000,4.000000,4.000000,100.000000,,,,,,,,,,,,,,,,
1645711615.357719,197.000000,0.000000,4229.487305,4228.333496,4199.102539,4207.307617,4216.410156,4220.641113,4212.820313,4213.077148,4224.102539,4228.461426,4227.563965,4173.205078,4232.563965,4225.641113,3208.000000,4.000000,82.000000,,,,0.000000,4.000000,4.000000,4.000000,4.000000,4.000000,4.000000,4.000000,4.000000,4.000000,4.000000,4.000000,4.000000,4.000000,4.000000,100.000000,,,,,,,,,,,,,,,,
1645711615.361659,198.000000,0.000000,4218.333496,4230.000000,4198.077148,4205.384766,4215.384766,4221.538574,4212.820313,4211.666504,4223.974121,4226.025879,4230.256348,4173.333496,4230.769043,4224.230957,2407.000000,4.000000,82.000000,,,,0.000000,4.000000,4.000000,4.000000,4.000000,4.000000,4.000000,4.000000,4.000000,4.000000,4.000000,4.000000,4.000000,4.000000,4.000000,100.000000,,,,,,,,,,,,,,,,
1645711615.365599,199.000000,0.000000,4212.563965,4230.128418,4197.820313,4208.717773,4216.538574,4221.153809,4212.692383,4213.333496,4224.487305,4225.769043,4231.922852,4173.333496,4231.153809,4226.153809,2671.000000,4.000000,82.000000,,,,0.000000,4.000000,4.000000,4.000000,4.000000,4.000000,4.000000,4.000000,4.000000,4.000000,4.000000,4.000000,4.000000,4.000000,4.000000,100.000000,,,,,,,,,,,,,,,,
1645711615.369539,200.000000,0.000000,4218.846191,4225.897461,4198.717773,4213.205078,4215.128418,4217.307617,4212.307617,4216.153809,4224.743652,4223.589844,4229.871582,4173.205078,4232.307617,4230.512695,3201.000000,4.000000,82.000000,,,,0.000000,4.000000,4.000000,4.000000,4.000000,4.000000,4.000000,4.000000,4.000000,4.000000,4.000000,4.000000,4.000000,4.000000,4.000000,100.000000,,,,,,,,,,,,,,,,
1645711615.373479,201.000000,0.000000,4229.743652,4220.769043,4201.153809,4217.820313,4213.077148,4214.230957,4213.974121,4220.000000,4225.897461,4222.436035,4227.820313,4175.256348,4234.615234,4234.487305,3208.000000,4.000000,82.000000,,,,0.000000,4.000000,4.000000,4.000000,4.000000,4.000000,4.000000,4.000000,4.000000,4.000000,4.000000,4.000000,4.000000,4.000000,4.000000,100.000000,,,,,,,,,,,,,,,,
1645711615.377319,202.000000,0.000000,4233.205078,4220.769043,4204.487305,4223.589844,4214.871582,4216.666504,4218.333496,4225.512695,4229.487305,4227.436035,4230.769043,4179.871582,4239.230957,4235.128418,2407.000000,4.000000,82.000000,,,,0.000000,4.000000,4.000000,4.000000,4.000000,4.000000,4.000000,4.000000,4.000000,4.000000,4.000000,4.000000,4.000000,4.000000,4.000000,100.000000,,,,,,,,,,,,,,,,
1645711615.381259,203.000000,0.000000,4227.820313,4226.666504,4206.538574,4228.077148,4220.000000,4222.820313,4221.794922,4230.641113,4234.487305,4237.436035,4237.179688,4183.974121,4244.358887,4232.051270,2671.000000,4.000000,82.000000,,,,0.000000,4.000000,4.000000,4.000000,4.000000,4.000000,4.000000,4.000000,4.000000,4.000000,4.000000,4.000000,4.000000,4.000000,4.000000,100.000000,,,,,,,,,,,,,,,,
1645711615.385199,204.000000,0.000000,4222.948730,4233.461426,4206.025879,4227.051270,4222.307617,4225.512695,4220.897461,4231.538574,4236.666504,4243.589844,4239.615234,4183.974121,4246.538574,4229.487305,3201.000000,4.000000,82.000000,,,,0.000000,4.000000,4.000000,4.000000,4.000000,4.000000,4.000000,4.000000,4.000000,4.000000,4.000000,4.000000,4.000000,4.000000,4.000000,100.000000,,,,,,,,,,,,,,,,
1645711615.389139,205.000000,0.000000,4225.769043,4236.410156,4204.743652,4219.871582,4219.358887,4222.179688,4216.666504,4226.410156,4233.589844,4240.000000,4233.974121,4180.256348,4244.102539,4231.666504,3208.000000,4.000000,82.000000,,,,0.000000,4.000000,4.000000,4.000000,4.000000,4.000000,4.000000,4.000000,4.000000,4.000000,4.000000,4.000000,4.000000,4.000000,4.000000,100.000000,,,,,,,,,,,,,,,,
1645711615.393080,206.000000,0.000000,4231.922852,4236.153809,4206.282227,4212.820313,4216.282227,4217.692383,4214.487305,4218.461426,4227.948730,4230.512695,4225.769043,4177.692383,4240.256348,4238.205078,2407.000000,4.000000,82.000000,,,,0.000000,4.000000,4.000000,4.000000,4.000000,4.000000,4.000000,4.000000,4.000000,4.000000,4.000000,4.000000,4.000000,4.000000,4.000000,100.000000,,,,,,,,,,,,,,,,
1645711615.397020,207.000000,0.000000,4232.179688,4235.897461,4211.794922,4212.692383,4219.487305,4219.230957,4217.436035,4212.948730,4224.358887,4224.615234,4223.717773,4179.743652,4238.846191,4243.333496,2671.000000,4.000000,82.000000,,,,0.000000,4.000000,4.000000,4.000000,4.000000,4.000000,4.000000,4.000000,4.000000,4.000000,4.000000,4.000000,4.000000,4.000000,4.000000,100.000000,,,,,,,,,,,,,,,,
1645711615.400960,208.000000,0.000000,4225.897461,4235.641113,4217.692383,4219.102539,4226.794922,4225.769043,4222.563965,4212.179688,4224.871582,4226.153809,4229.487305,4184.230957,4240.000000,4241.538574,3201.000000,4.000000,82.000000,,,,0.000000,4.000000,4.000000,4.000000,4.000000,4.000000,4.000000,4.000000,4.000000,4.000000,4.000000,4.000000,4.000000,4.000000,4.000000,100.000000,,,,,,,,,,,,,,,,
1645711615.404900,209.000000,0.000000,4221.538574,4232.820313,4218.461426,4224.230957,4228.589844,4229.230957,4224.230957,4213.974121,4226.538574,4229.615234,4235.256348,4185.897461,4239.743652,4233.333496,3208.000000,4.000000,82.000000,,,,0.000000,4.000000,4.000000,4.000000,4.000000,4.000000,4.000000,4.000000,4.000000,4.000000,4.000000,4.000000,4.000000,4.000000,4.000000,100.000000,,,,,,,,,,,,,,,,
1645711615.408840,210.000000,0.000000,4225.512695,4226.666504,4213.589844,4222.179688,4220.000000,4224.615234,4220.512695,4215.512695,4225.897461,4228.461426,4233.846191,4181.538574,4235.256348,4224.487305,2407.000000,4.000000,82.000000,,,,0.000000,4.000000,4.000000,4.000000,4.000000,4.000000,4.000000,4.000000,4.000000,4.000000,4.000000,4.000000,4.000000,4.000000,4.000000,100.000000,,,,,,,,,,,,,,,,
1645711615.412780,211.000000,0.000000,4232.820313,4221.025879,4207.563965,4216.282227,4208.205078,4216.538574,4215.256348,4216.153809,4223.461426,4224.230957,4227.307617,4174.358887,4228.846191,4220.641113,2671.000000,4.000000,82.000000,,,,0.000000,4.000000,4.000000,4.000000,4.000000,4.000000,4.000000,4.000000,4.000000,4.000000,4.000000,4.000000,4.000000,4.000000,4.000000,100.000000,,,,,,,,,,,,,,,,
1645711615.416720,212.000000,0.000000,4234.230957,4220.512695,4206.153809,4214.487305,4204.615234,4213.974121,4213.205078,4217.692383,4222.179688,4223.333496,4223.846191,4170.000000,4225.769043,4221.410156,3201.000000,4.000000,82.000000,,,,0.000000,4.000000,4.000000,4.000000,4.000000,4.000000,4.000000,4.000000,4.000000,4.000000,4.000000,4.000000,4.000000,4.000000,4.000000,100.000000,,,,,,,,,,,,,,,,
1645711615.420660,213.000000,0.000000,4228.205078,4224.358887,4210.000000,4219.615234,4211.794922,4219.230957,4214.743652,4219.615234,4223.717773,4227.692383,4227.307617,4170.384766,4228.205078,4222.436035,3208.000000,4.000000,82.000000,,,,0.000000,4.000000,4.000000,4.000000,4.000000,4.000000,4.000000,4.000000,4.000000,4.000000,4.000000,4.000000,4.000000,4.000000,4.000000,100.000000,,,,,,,,,,,,,,,,
1645711615.424600,214.000000,0.000000,4223.333496,4226.794922,4215.256348,4226.153809,4220.384766,4226.025879,4216.410156,4219.871582,4225.512695,4231.410156,4232.307617,4172.820313,4232.692383,4221.153809,2407.000000,4.000000,82.000000,,,,0.000000,4.000000,4.000000,4.000000,4.000000,4.000000,4.000000,4.000000,4.000000,4.000000,4.000000,4.000000,4.000000,4.000000,4.000000,100.000000,,,,,,,,,,,,,,,,
1645711615.428541,215.000000,0.000000,4226.794922,4224.743652,4217.948730,4227.563965,4221.025879,4226.282227,4216.153809,4217.051270,4225.128418,4229.102539,4232.563965,4173.974121,4234.871582,4219.615234,2671.000000,4.000000,82.000000,,,,0.000000,4.000000,4.000000,4.000000,4.000000,4.000000,4.000000,4.000000,4.000000,4.000000,4.000000,4.000000,4.000000,4.000000,4.000000,100.000000,,,,,,,,,,,,,,,,
1645711615.432481,216.000000,0.000000,4234.487305,4221.794922,4218.333496,4223.846191,4215.384766,4221.025879,4215.000000,4213.846191,4223.205078,4223.846191,4229.230957,4174.230957,4234.230957,4220.641113,3201.000000,4.000000,82.000000,,,,0.000000,4.000000,4.000000,4.000000,4.000000,4.000000,4.000000,4.000000,4.000000,4.000000,4.000000,4.000000,4.000000,4.000000,4.000000,100.000000,,,,,,,,,,,,,,,,
1645711615.436421,217.000000,0.000000,4236.282227,4224.102539,4218.846191,4221.153809,4212.948730,4217.179688,4214.871582,4214.358887,4222.692383,4224.102539,4228.717773,4176.794922,4233.846191,4223.461426,3208.000000,4.000000,82.000000,,,,0.000000,4.000000,4.000000,4.000000,4.000000,4.000000,4.000000,4.000000,4.000000,4.000000,4.000000,4.000000,4.000000,4.000000,4.000000,100.000000,,,,,,,,,,,,,,,,
1645711615.440361,218.000000,0.000000,4230.256348,4231.794922,4220.769043,4222.692383,4218.461426,4218.589844,4215.256348,4218.461426,4224.615234,4232.436035,4233.205078,4182.307617,4236.282227,4224.743652,2407.000000,4.000000,82.000000,,,,0.000000,4.000000,4.000000,4.000000,4.000000,4.000000,4.000000,4.000000,4.000000,4.000000,4.000000,4.000000,4.000000,4.000000,4.000000,100.000000,,,,,,,,,,,,,,,,
1645711615.444301,219.000000,0.000000,4224.230957,4237.692383,4222.051270,4225.256348,4225.769043,4221.410156,4213.461426,4221.538574,4226.025879,4241.410156,4236.794922,4187.179688,4239.743652,4222.948730,2671.000000,4.000000,82.000000,,,,0.000000,4.000000,4.000000,4.000000,4.000000,4.000000,4.000000,4.000000,4.000000,4.000000,4.000000,4.000000,4.000000,4.000000,4.000000,100.000000,,,,,,,,,,,,,,,,
1645711615.448241,220.000000,0.000000,4225.897461,4235.512695,4220.384766,4224.358887,4226.410156,4220.128418,4209.358887,4219.358887,4224.102539,4241.282227,4233.846191,4187.436035,4241.282227,4220.256348,3201.000000,4.000000,82.000000,,,,0.000000,4.000000,4.000000,4.000000,4.000000,4.000000,4.000000,4.000000,4.000000,4.000000,4.000000,4.000000,4.000000,4.000000,4.000000,100.000000,,,,,,,,,,,,,,,,
1645711615.452081,221.000000,0.000000,4232.051270,4228.077148,4216.410156,4220.769043,4220.384766,4215.769043,4206.410156,4213.205078,4220.256348,4232.436035,4226.666504,4183.077148,4240.512695,4220.000000,3208.000000,4.000000,82.000000,,,,0.000000,4.000000,4.000000,4.000000,4.000000,4.000000,4.000000,4.000000,4.000000,4.000000,4.000000,4.000000,4.000000,4.000000,4.000000,100.000000,,,,,,,,,,,,,,,,
1645711615.456021,222.000000,0.000000,4233.846191,4224.230957,4213.333496,4220.000000,4216.153809,4214.358887,4208.205078,4209.102539,4218.589844,4224.487305,4224.358887,4178.717773,4239.871582,4222.436035,2407.000000,4.000000,82.000000,,,,0.000000,4.000000,4.000000,4.000000,4.000000,4.000000,4.000000,4.000000,4.000000,4.000000,4.000000,4.000000,4.000000,4.000000,4.000000,100.000000,,,,,,,,,,,,,,,,
1645711615.459961,223.000000,0.000000,4228.846191,4228.974121,4212.948730,4224.487305,4218.589844,4218.846191,4214.487305,4211.153809,4221.794922,4225.897461,4230.641113,4177.820313,4241.794922,4224.743652,2671.000000,4.000000,82.000000,,,,0.000000,4.000000,4.000000,4.000000,4.000000,4.000000,4.000000,4.000000,4.000000,4.000000,4.000000,4.000000,4.000000,4.000000,4.000000,100.000000,,,,,,,,,,,,,,,,
1645711615.463902,224.000000,0.000000,4225.128418,4237.820313,4213.846191,4229.743652,4223.461426,4224.871582,4221.153809,4217.692383,4227.307617,4234.743652,4239.487305,4179.102539,4244.871582,4225.769043,3201.000000,4.000000,82.000000,,,,0.000000,4.000000,4.000000,4.000000,4.000000,4.000000,4.000000,4.000000,4.000000,4.000000,4.000000,4.000000,4.000000,4.000000,4.000000,100.000000,,,,,,,,,,,,,,,,
1645711615.467842,225.000000,0.000000,4229.615234,4242.051270,4213.717773,4230.384766,4223.589844,4226.666504,4224.743652,4223.846191,4231.410156,4242.563965,4241.922852,4179.230957,4246.538574,4227.307617,3208.000000,4.000000,82.000000,,,,0.000000,4.000000,4.000000,4.000000,4.000000,4.000000,4.000000,4.000000,4.000000,4.000000,4.000000,4.000000,4.000000,4.000000,4.000000,100.000000,,,,,,,,,,,,,,,,
1645711615.471882,226.000000,0.000000,4237.948730,4239.102539,4212.179688,4226.666504,4219.487305,4224.358887,4225.512695,4226.922852,4232.820313,4244.615234,4236.794922,4177.436035,4246.666504,4231.794922,2407.000000,4.000000,82.000000,,,,0.000000,4.000000,4.000000,4.000000,4.000000,4.000000,4.000000,4.000000,4.000000,4.000000,4.000000,4.000000,4.000000,4.000000,4.000000,100.000000,,,,,,,,,,,,,,,,
1645711615.475822,227.000000,0.000000,4239.230957,4233.974121,4211.282227,4223.846191,4217.948730,4222.948730,4225.769043,4227.948730,4233.333496,4242.948730,4231.666504,4176.025879,4247.051270,4237.307617,2671.000000,4.000000,82.000000,,,,0.000000,4.000000,4.000000,4.000000,4.000000,4.000000,4.000000,4.000000,4.000000,4.000000,4.000000,4.000000,4.000000,4.000000,4.000000,100.000000,,,,,,,,,,,,,,,,
1645711615.479762,228.000000,0.000000,4230.256348,4231.794922,4211.794922,4224.871582,4222.692383,4225.256348,4226.025879,4228.461426,4234.358887,4240.256348,4232.692383,4176.666504,4248.333496,4238.846191,3201.000000,4.000000,82.000000,,,,0.000000,4.000000,4.000000,4.000000,4.000000,4.000000,4.000000,4.000000,4.000000,4.000000,4.000000,4.000000,4.000000,4.000000,4.000000,100.000000,,,,,,,,,,,,,,,,
1645711615.483702,229.000000,0.000000,4219.615234,4231.410156,4211.794922,4226.025879,4228.461426,4227.563965,4224.487305,4227.307617,4233.974121,4234.743652,4236.794922,4177.948730,4248.461426,4233.717773,3208.000000,4.000000,82.000000,,,,0.000000,4.000000,4.000000,4.000000,4.000000,4.000000,4.000000,4.000000,4.000000,4.000000,4.000000,4.000000,4.000000,4.000000,4.000000,100.000000,,,,,,,,,,,,,,,,
1645711615.487642,230.000000,0.000000,4216.666504,4228.461426,4208.717773,4223.077148,4227.307617,4225.641113,4220.641113,4222.820313,4230.000000,4224.358887,4236.538574,4176.922852,4245.000000,4225.897461,2407.000000,4.000000,82.000000,,,,0.000000,4.000000,4.000000,4.000000,4.000000,4.000000,4.000000,4.000000,4.000000,4.000000,4.000000,4.000000,4.000000,4.000000,4.000000,100.000000,,,,,,,,,,,,,,,,
1645711615.491682,231.000000,0.000000,4220.384766,4222.820313,4203.589844,4218.205078,4220.384766,4221.282227,4217.051270,4216.794922,4223.461426,4214.230957,4229.871582,4173.077148,4238.974121,4221.794922,2671.000000,4.000000,82.000000,,,,0.000000,4.000000,4.000000,4.000000,4.000000,4.000000,4.000000,4.000000,4.000000,4.000000,4.000000,4.000000,4.000000,4.000000,4.000000,100.000000,,,,,,,,,,,,,,,,
1645711615.495622,232.000000,0.000000,4221.153809,4220.128418,4199.487305,4217.820313,4216.794922,4220.641113,4217.051270,4213.589844,4218.974121,4212.948730,4221.922852,4168.589844,4234.743652,4223.461426,3201.000000,4.000000,82.000000,,,,0.000000,4.000000,4.000000,4.000000,4.000000,4.000000,4.000000,4.000000,4.000000,4.000000,4.000000,4.000000,4.000000,4.000000,4.000000,100.000000,,,,,,,,,,,,,,,,
1645711615.499462,233.000000,0.000000,4215.128418,4224.102539,4198.461426,4223.846191,4222.307617,4225.384766,4220.512695,4215.769043,4219.615234,4223.077148,4218.974121,4165.897461,4234.487305,4226.666504,3208.000000,4.000000,82.000000,,,,0.000000,4.000000,4.000000,4.000000,4.000000,4.000000,4.000000,4.000000,4.000000,4.000000,4.000000,4.000000,4.000000,4.000000,4.000000,100.000000,,,,,,,,,,,,,,,,
1645711615.503403,234.000000,0.000000,4209.358887,4231.282227,4199.358887,4229.743652,4230.769043,4229.743652,4223.461426,4220.769043,4223.846191,4234.871582,4220.641113,4165.000000,4236.410156,4227.179688,2407.000000,4.000000,82.000000,,,,0.000000,4.000000,4.000000,4.000000,4.000000,4.000000,4.000000,4.000000,4.000000,4.000000,4.000000,4.000000,4.000000,4.000000,4.000000,100.000000,,,,,,,,,,,,,,,,
1645711615.507343,235.000000,0.000000,4212.948730,4234.871582,4200.128418,4228.589844,4232.051270,4227.436035,4222.948730,4224.358887,4227.179688,4236.666504,4223.077148,4165.641113,4237.051270,4224.743652,2671.000000,4.000000,82.000000,,,,0.000000,4.000000,4.000000,4.000000,4.000000,4.000000,4.000000,4.000000,4.000000,4.000000,4.000000,4.000000,4.000000,4.000000,4.000000,100.000000,,,,,,,,,,,,,,,,
1645711615.511283,236.000000,0.000000,4223.846191,4233.205078,4201.025879,4221.666504,4224.871582,4220.512695,4220.641113,4224.871582,4227.179688,4227.692383,4225.512695,4168.205078,4236.538574,4222.563965,3201.000000,4.000000,82.000000,,,,0.000000,4.000000,4.000000,4.000000,4.000000,4.000000,4.000000,4.000000,4.000000,4.000000,4.000000,4.000000,4.000000,4.000000,4.000000,100.000000,,,,,,,,,,,,,,,,
1645711615.515123,237.000000,0.000000,4230.769043,4231.410156,4203.205078,4217.307617,4218.333496,4216.666504,4220.641113,4224.871582,4225.897461,4219.230957,4230.641113,4172.563965,4237.948730,4223.077148,3208.000000,4.000000,82.000000,,,,0.000000,4.000000,4.000000,4.000000,4.000000,4.000000,4.000000,4.000000,4.000000,4.000000,4.000000,4.000000,4.000000,4.000000,4.000000,100.000000,,,,,,,,,,,,,,,,
1645711615.519063,238.000000,0.000000,4227.307617,4232.948730,4205.641113,4219.871582,4219.487305,4219.615234,4223.589844,4226.153809,4226.025879,4220.128418,4237.307617,4175.384766,4242.051270,4224.358887,2407.000000,4.000000,82.000000,,,,0.000000,4.000000,4.000000,4.000000,4.000000,4.000000,4.000000,4.000000,4.000000,4.000000,4.000000,4.000000,4.000000,4.000000,4.000000,100.000000,,,,,,,,,,,,,,,,
1645711615.523003,239.000000,0.000000,4219.102539,4233.974121,4204.743652,4223.333496,4223.717773,4223.589844,4225.384766,4226.666504,4227.051270,4226.666504,4239.230957,4172.692383,4244.487305,4223.717773,2671.000000,4.000000,82.000000,,,,0.000000,4.000000,4.000000,4.000000,4.000000,4.000000,4.000000,4.000000,4.000000,4.000000,4.000000,4.000000,4.000000,4.000000,4.000000,100.000000,,,,,,,,,,,,,,,,
1645711615.526943,240.000000,0.000000,4215.769043,4227.692383,4198.333496,4218.974121,4221.410156,4220.769043,4221.922852,4223.077148,4226.282227,4227.307617,4230.512695,4164.102539,4240.000000,4221.025879,3201.000000,4.000000,82.000000,,,,0.000000,4.000000,4.000000,4.000000,4.000000,4.000000,4.000000,4.000000,4.000000,4.000000,4.000000,4.000000,4.000000,4.000000,4.000000,100.000000,,,,,,,,,,,,,,,,
1645711615.530883,241.000000,0.000000,4217.948730,4213.974121,4189.487305,4206.666504,4210.256348,4211.538574,4214.615234,4216.153809,4222.948730,4217.692383,4215.512695,4155.256348,4229.487305,4218.205078,3208.000000,4.000000,82.000000,,,,0.000000,4.000000,4.000000,4.000000,4.000000,4.000000,4.000000,4.000000,4.000000,4.000000,4.000000,4.000000,4.000000,4.000000,4.000000,100.000000,,,,,,,,,,,,,,,,
1645711615.534823,242.000000,0.000000,4217.307617,4202.179688,4184.358887,4196.538574,4199.615234,4204.615234,4209.487305,4211.666504,4220.000000,4206.666504,4206.282227,4152.820313,4220.897461,4216.282227,2407.000000,4.000000,82.000000,,,,0.000000,4.000000,4.000000,4.000000,4.000000,4.000000,4.000000,4.000000,4.000000,4.000000,4.000000,4.000000,4.000000,4.000000,4.000000,100.000000,,,,,,,,,,,,,,,,
1645711615.538764,243.000000,0.000000,4210.000000,4201.153809,4186.794922,4197.563965,4198.461426,4206.153809,4210.256348,4213.974121,4220.256348,4205.128418,4210.000000,4158.846191,4220.769043,4214.615234,2671.000000,4.000000,82.000000,,,,0.000000,4.000000,4.000000,4.000000,4.000000,4.000000,4.000000,4.000000,4.000000,4.000000,4.000000,4.000000,4.000000,4.000000,4.000000,100.000000,,,,,,,,,,,,,,,,
1645711615.542704,244.000000,0.000000,4202.820313,4210.512695,4194.230957,4207.692383,4204.487305,4212.692383,4214.871582,4221.025879,4223.846191,4212.948730,4221.025879,4168.205078,4228.333496,4213.077148,3201.000000,4.000000,82.000000,,,,0.000000,4.000000,4.000000,4.000000,4.000000,4.000000,4.000000,4.000000,4.000000,4.000000,4.000000,4.000000,4.000000,4.000000,4.000000,100.000000,,,,,,,,,,,,,,,,
1645711615.546644,245.000000,0.000000,4205.512695,4221.538574,4200.769043,4217.436035,4207.820313,4215.641113,4218.589844,4225.897461,4227.179688,4220.384766,4227.051270,4173.974121,4236.282227,4213.589844,3208.000000,4.000000,82.000000,,,,0.000000,4.000000,4.000000,4.000000,4.000000,4.000000,4.000000,4.000000,4.000000,4.000000,4.000000,4.000000,4.000000,4.000000,4.000000,100.000000,,,,,,,,,,,,,,,,
1645711615.550584,246.000000,0.000000,4217.436035,4226.666504,4203.461426,4220.384766,4204.230957,4212.563965,4219.230957,4224.871582,4228.461426,4220.641113,4223.461426,4174.230957,4238.974121,4218.077148,2407.000000,4.000000,82.000000,,,,0.000000,4.000000,4.000000,4.000000,4.000000,4.000000,4.000000,4.000000,4.000000,4.000000,4.000000,4.000000,4.000000,4.000000,4.000000,100.000000,,,,,,,,,,,,,,,,
1645711615.554524,247.000000,0.000000,4227.436035,4227.051270,4204.358887,4219.102539,4199.615234,4209.358887,4219.102539,4220.897461,4229.230957,4218.077148,4217.179688,4172.563965,4237.563965,4225.128418,2671.000000,4.000000,82.000000,,,,0.000000,4.000000,4.000000,4.000000,4.000000,4.000000,4.000000,4.000000,4.000000,4.000000,4.000000,4.000000,4.000000,4.000000,4.000000,100.000000,,,,,,,,,,,,,,,,
1645711615.558464,248.000000,0.000000,4227.436035,4227.179688,4206.282227,4219.487305,4202.179688,4212.179688,4220.512695,4219.743652,4231.794922,4220.641113,4217.436035,4172.948730,4237.179688,4230.128418,3201.000000,4.000000,82.000000,,,,0.000000,4.000000,4.000000,4.000000,4.000000,4.000000,4.000000,4.000000,4.000000,4.000000,4.000000,4.000000,4.000000,4.000000,4.000000,100.000000,,,,,,,,,,,,,,,,
1645711615.562404,249.000000,0.000000,4222.179688,4228.205078,4209.358887,4221.794922,4211.410156,4218.974121,4222.948730,4223.461426,4235.512695,4228.846191,4224.102539,4175.256348,4239.871582,4229.487305,3208.000000,4.000000,82.000000,,,,0.000000,4.000000,4.000000,4.000000,4.000000,4.000000,4.000000,4.000000,4.000000,4.000000,4.000000,4.000000,4.000000,4.000000,4.000000,100.000000,,,,,,,,,,,,,,,,
1645711615.566344,250.000000,0.000000,4222.307617,4227.436035,4211.282227,4222.179688,4219.358887,4222.692383,4223.974121,4227.948730,4236.922852,4234.230957,4229.358887,4175.641113,4242.948730,4224.743652,2407.000000,4.000000,82.000000,,,,0.000000,4.000000,4.000000,4.000000,4.000000,4.000000,4.000000,4.000000,4.000000,4.000000,4.000000,4.000000,4.000000,4.000000,4.000000,100.000000,,,,,,,,,,,,,,,,
1645711615.570185,251.000000,0.000000,4229.487305,4223.974121,4210.769043,4218.846191,4221.282227,4220.641113,4223.205078,4228.846191,4234.358887,4230.769043,4227.692383,4171.666504,4242.692383,4220.512695,2671.000000,4.000000,82.000000,,,,0.000000,4.000000,4.000000,4.000000,4.000000,4.000000,4.000000,4.000000,4.000000,4.000000,4.000000,4.000000,4.000000,4.000000,4.000000,100.000000,,,,,,,,,,,,,,,,
1645711615.574125,252.000000,0.000000,4234.102539,4221.153809,4208.717773,4216.153809,4220.769043,4217.051270,4222.692383,4225.512695,4229.871582,4221.410156,4222.051270,4165.256348,4239.102539,4218.974121,3201.000000,4.000000,82.000000,,,,0.000000,4.000000,4.000000,4.000000,4.000000,4.000000,4.000000,4.000000,4.000000,4.000000,4.000000,4.000000,4.000000,4.000000,4.000000,100.000000,,,,,,,,,,,,,,,,
1645711615.578065,253.000000,0.000000,4227.563965,4221.794922,4206.538574,4217.948730,4223.461426,4217.692383,4223.461426,4220.641113,4226.922852,4214.358887,4218.205078,4160.128418,4234.487305,4218.077148,3208.000000,4.000000,82.000000,,,,0.000000,4.000000,4.000000,4.000000,4.000000,4.000000,4.000000,4.000000,4.000000,4.000000,4.000000,4.000000,4.000000,4.000000,4.000000,100.000000,,,,,,,,,,,,,,,,
1645711615.582005,254.000000,0.000000,4214.487305,4223.974121,4203.974121,4222.307617,4228.205078,4221.922852,4224.102539,4216.538574,4226.410156,4212.948730,4217.051270,4157.307617,4230.769043,4215.641113,2407.000000,4.000000,82.000000,,,,0.000000,4.000000,4.000000,4.000000,4.000000,4.000000,4.000000,4.000000,4.000000,4.000000,4.000000,4.000000,4.000000,4.000000,4.000000,100.000000,,,,,,,,,,,,,,,,
1645711615.585945,255.000000,0.000000,4207.692383,4223.461426,4200.384766,4223.461426,4228.717773,4224.871582,4223.589844,4213.717773,4226.153809,4213.846191,4214.743652,4155.897461,4227.820313,4212.820313,112.000000,4.000000,82.000000,,,,0.000000,4.000000,4.000000,4.000000,4.000000,4.000000,4.000000,4.000000,4.000000,4.000000,4.000000,4.000000,4.000000,4.000000,4.000000,100.000000,,,,,,,,,,,,,,,,
1645711615.589885,0.000000,0.000000,4212.436035,4219.871582,4196.922852,4220.641113,4223.717773,4225.000000,4223.461426,4212.820313,4225.128418,4213.717773,4210.512695,4155.384766,4226.794922,4212.692383,3155.000000,4.000000,82.000000,,,,0.000000,4.000000,4.000000,4.000000,4.000000,4.000000,4.000000,4.000000,4.000000,4.000000,4.000000,4.000000,4.000000,4.000000,4.000000,100.000000,,,,,,,,,,,,,,,,
1645711615.593825,1.000000,0.000000,4220.769043,4217.436035,4195.769043,4219.102539,4219.487305,4225.512695,4226.410156,4214.743652,4224.615234,4214.871582,4209.487305,4156.922852,4229.871582,4215.641113,3439.000000,4.000000,82.000000,,,,0.000000,4.000000,4.000000,4.000000,4.000000,4.000000,4.000000,4.000000,4.000000,4.000000,4.000000,4.000000,4.000000,4.000000,4.000000,100.000000,,,,,,,,,,,,,,,,
1645711615.597865,2.000000,0.000000,4222.307617,4219.871582,4197.307617,4223.077148,4222.051270,4229.230957,4231.153809,4219.358887,4226.410156,4219.487305,4214.871582,4161.025879,4236.794922,4218.077148,2264.000000,4.000000,82.000000,,,,0.000000,4.000000,4.000000,4.000000,4.000000,4.000000,4.000000,4.000000,4.000000,4.000000,4.000000,4.000000,4.000000,4.000000,4.000000,100.000000,,,,,,,,,,,,,,,,
1645711615.601805,3.000000,0.000000,4216.922852,4224.358887,4198.589844,4228.974121,4227.948730,4232.692383,4233.077148,4222.820313,4228.974121,4224.743652,4222.179688,4165.000000,4243.205078,4216.410156,3334.000000,4.000000,82.000000,,,,0.000000,4.000000,4.000000,4.000000,4.000000,4.000000,4.000000,4.000000,4.000000,4.000000,4.000000,4.000000,4.000000,4.000000,4.000000,100.000000,,,,,,,,,,,,,,,,
1645711615.605745,4.000000,0.000000,4212.820313,4224.615234,4196.666504,4228.717773,4227.692383,4230.128418,4228.333496,4220.897461,4228.589844,4224.102539,4222.307617,4164.615234,4243.077148,4212.051270,3384.000000,4.000000,82.000000,,,,0.000000,4.000000,4.000000,4.000000,4.000000,4.000000,4.000000,4.000000,4.000000,4.000000,4.000000,4.000000,4.000000,4.000000,4.000000,100.000000,,,,,,,,,,,,,,,,
1645711615.609685,5.000000,0.000000,4214.230957,4219.230957,4191.794922,4219.871582,4218.205078,4221.282227,4219.615234,4214.358887,4224.358887,4216.794922,4213.205078,4159.230957,4235.769043,4210.512695,3324.000000,4.000000,82.000000,,,,0.000000,4.000000,4.000000,4.000000,4.000000,4.000000,4.000000,4.000000,4.000000,4.000000,4.000000,4.000000,4.000000,4.000000,4.000000,100.000000,,,,,,,,,,,,,,,,
1645711615.613626,6.000000,0.000000,4216.025879,4213.461426,4187.948730,4209.230957,4207.436035,4213.461426,4213.717773,4208.717773,4220.256348,4210.769043,4203.077148,4152.820313,4227.436035,4214.487305,3242.000000,4.000000,82.000000,,,,0.000000,4.000000,4.000000,4.000000,4.000000,4.000000,4.000000,4.000000,4.000000,4.000000,4.000000,4.000000,4.000000,4.000000,4.000000,100.000000,,,,,,,,,,,,,,,,
1645711615.617566,7.000000,0.000000,4212.179688,4213.589844,4187.948730,4206.025879,4205.512695,4213.333496,4214.871582,4209.102539,4221.153809,4214.358887,4202.307617,4150.641113,4225.641113,4220.128418,2491.000000,4.000000,82.000000,,,,0.000000,4.000000,4.000000,4.000000,4.000000,4.000000,4.000000,4.000000,4.000000,4.000000,4.000000,4.000000,4.000000,4.000000,4.000000,100.000000,,,,,,,,,,,,,,,,
1645711615.621506,8.000000,0.000000,4206.025879,4218.717773,4190.897461,4211.538574,4212.820313,4219.487305,4220.769043,4214.871582,4226.922852,4225.641113,4211.410156,4153.461426,4231.666504,4221.794922,1664.000000,4.000000,82.000000,,,,0.000000,4.000000,4.000000,4.000000,4.000000,4.000000,4.000000,4.000000,4.000000,4.000000,4.000000,4.000000,4.000000,4.000000,4.000000,100.000000,,,,,,,,,,,,,,,,
1645711615.625446,9.000000,0.000000,4206.922852,4222.563965,4193.077148,4218.077148,4219.871582,4224.230957,4226.025879,4220.384766,4232.563965,4234.358887,4221.282227,4158.077148,4239.615234,4218.461426,3192.000000,4.000000,82.000000,,,,0.000000,4.000000,4.000000,4.000000,4.000000,4.000000,4.000000,4.000000,4.000000,4.000000,4.000000,4.000000,4.000000,4.000000,4.000000,100.000000,,,,,,,,,,,,,,,,
1645711615.629386,10.000000,0.000000,4216.922852,4221.153809,4193.205078,4218.846191,4219.871582,4222.948730,4228.077148,4221.794922,4233.589844,4233.333496,4223.717773,4161.666504,4243.461426,4214.743652,2300.000000,4.000000,82.000000,,,,0.000000,4.000000,4.000000,4.000000,4.000000,4.000000,4.000000,4.000000,4.000000,4.000000,4.000000,4.000000,4.000000,4.000000,4.000000,100.000000,,,,,,,,,,,,,,,,
1645711615.633326,11.000000,0.000000,4225.897461,4217.307617,4193.333496,4215.000000,4215.641113,4219.102539,4228.333496,4220.512695,4230.897461,4226.538574,4220.512695,4165.000000,4241.922852,4215.256348,2542.000000,4.000000,82.000000,,,,0.000000,4.000000,4.000000,4.000000,4.000000,4.000000,4.000000,4.000000,4.000000,4.000000,4.000000,4.000000,4.000000,4.000000,4.000000,100.000000,,,,,,,,,,,,,,,,
1645711615.637266,12.000000,0.000000,4223.333496,4215.641113,4195.897461,4212.692383,4215.256348,4218.333496,4228.717773,4220.128418,4228.461426,4223.333496,4218.717773,4169.358887,4238.461426,4218.589844,3224.000000,4.000000,82.000000,,,,0.000000,4.000000,4.000000,4.000000,4.000000,4.000000,4.000000,4.000000,4.000000,4.000000,4.000000,4.000000,4.000000,4.000000,4.000000,100.000000,,,,,,,,,,,,,,,,
1645711615.641206,13.000000,0.000000,4211.025879,4216.025879,4199.743652,4213.974121,4218.974121,4220.641113,4227.563965,4220.384766,4227.948730,4226.410156,4220.769043,4173.077148,4235.641113,4219.871582,3315.000000,4.000000,82.000000,,,,0.000000,4.000000,4.000000,4.000000,4.000000,4.000000,4.000000,4.000000,4.000000,4.000000,4.000000,4.000000,4.000000,4.000000,4.000000,100.000000,,,,,,,,,,,,,,,,
1645711615.645146,14.000000,0.000000,4201.666504,4213.974121,4200.897461,4214.871582,4219.358887,4220.384766,4222.820313,4218.205078,4227.563965,4228.974121,4221.794922,4172.307617,4232.563965,4216.794922,2300.000000,4.000000,82.000000,,,,0.000000,4.000000,4.000000,4.000000,4.000000,4.000000,4.000000,4.000000,4.000000,4.000000,4.000000,4.000000,4.000000,4.000000,4.000000,100.000000,,,,,,,,,,,,,,,,
1645711615.649087,15.000000,0.000000,4203.846191,4207.436035,4197.820313,4211.666504,4211.410156,4214.743652,4216.025879,4212.820313,4225.384766,4224.358887,4217.307617,4166.282227,4228.333496,4212.563965,2542.000000,4.000000,82.000000,,,,0.000000,4.000000,4.000000,4.000000,4.000000,4.000000,4.000000,4.000000,4.000000,4.000000,4.000000,4.000000,4.000000,4.000000,4.000000,100.000000,,,,,,,,,,,,,,,,
1645711615.653027,16.000000,0.000000,4212.948730,4201.282227,4193.589844,4206.794922,4201.025879,4208.589844,4212.179688,4208.333496,4222.820313,4215.384766,4210.512695,4159.743652,4225.000000,4211.666504,3224.000000,4.000000,82.000000,,,,0.000000,4.000000,4.000000,4.000000,4.000000,4.000000,4.000000,4.000000,4.000000,4.000000,4.000000,4.000000,4.000000,4.000000,4.000000,100.000000,,,,,,,,,,,,,,,,
1645711615.656967,17.000000,0.000000,4218.717773,4202.307617,4192.948730,4205.641113,4198.589844,4208.333496,4214.102539,4209.615234,4222.820313,4211.025879,4208.077148,4158.846191,4225.769043,4214.743652,3315.000000,4.000000,82.000000,,,,0.000000,4.000000,4.000000,4.000000,4.000000,4.000000,4.000000,4.000000,4.000000,4.000000,4.000000,4.000000,4.000000,4.000000,4.000000,100.000000,,,,,,,,,,,,,,,,
1645711615.660907,18.000000,0.000000,4218.717773,4211.538574,4197.179688,4208.717773,4205.769043,4213.461426,4218.205078,4215.512695,4225.641113,4214.230957,4211.538574,4164.230957,4230.384766,4218.077148,2300.000000,4.000000,82.000000,,,,0.000000,4.000000,4.000000,4.000000,4.000000,4.000000,4.000000,4.000000,4.000000,4.000000,4.000000,4.000000,4.000000,4.000000,4.000000,100.000000,,,,,,,,,,,,,,,,
1645711615.664847,19.000000,0.000000,4219.615234,4221.794922,4202.948730,4211.153809,4213.205078,4217.179688,4218.974121,4219.871582,4227.820313,4219.102539,4214.487305,4171.282227,4234.615234,4219.230957,2542.000000,4.000000,82.000000,,,,0.000000,4.000000,4.000000,4.000000,4.000000,4.000000,4.000000,4.000000,4.000000,4.000000,4.000000,4.000000,4.000000,4.000000,4.000000,100.000000,,,,,,,,,,,,,,,,
1645711615.668887,20.000000,0.000000,4226.282227,4226.922852,4206.666504,4209.871582,4212.436035,4214.487305,4214.871582,4217.692383,4226.666504,4218.717773,4211.538574,4174.871582,4234.743652,4218.846191,3224.000000,4.000000,82.000000,,,,0.000000,4.000000,4.000000,4.000000,4.000000,4.000000,4.000000,4.000000,4.000000,4.000000,4.000000,4.000000,4.000000,4.000000,4.000000,100.000000,,,,,,,,,,,,,,,,
1645711615.672827,21.000000,0.000000,4233.333496,4227.436035,4207.948730,4208.077148,4206.153809,4209.358887,4210.512695,4211.922852,4223.461426,4214.615234,4206.153809,4174.358887,4232.179688,4220.000000,3315.000000,4.000000,82.000000,,,,0.000000,4.000000,4.000000,4.000000,4.000000,4.000000,4.000000,4.000000,4.000000,4.000000,4.000000,4.000000,4.000000,4.000000,4.000000,100.000000,,,,,,,,,,,,,,,,
1645711615.676767,22.000000,0.000000,4232.436035,4229.230957,4209.102539,4211.282227,4204.487305,4209.102539,4210.769043,4209.487305,4222.179688,4213.846191,4206.666504,4172.948730,4230.641113,4223.461426,2300.000000,4.000000,82.000000,,,,0.000000,4.000000,4.000000,4.000000,4.000000,4.000000,4.000000,4.000000,4.000000,4.000000,4.000000,4.000000,4.000000,4.000000,4.000000,100.000000,,,,,,,,,,,,,,,,
1645711615.680707,23.000000,0.000000,4223.974121,4233.717773,4211.410156,4218.846191,4210.769043,4215.000000,4215.769043,4213.717773,4224.743652,4218.589844,4215.000000,4172.692383,4231.666504,4227.692383,2542.000000,4.000000,82.000000,,,,0.000000,4.000000,4.000000,4.000000,4.000000,4.000000,4.000000,4.000000,4.000000,4.000000,4.000000,4.000000,4.000000,4.000000,4.000000,100.000000,,,,,,,,,,,,,,,,
1645711615.684647,24.000000,0.000000,4217.051270,4235.384766,4213.205078,4224.102539,4217.563965,4220.897461,4220.641113,4220.897461,4228.333496,4223.461426,4223.846191,4172.820313,4232.179688,4230.256348,3224.000000,4.000000,82.000000,,,,0.000000,4.000000,4.000000,4.000000,4.000000,4.000000,4.000000,4.000000,4.000000,4.000000,4.000000,4.000000,4.000000,4.000000,4.000000,100.000000,,,,,,,,,,,,,,,,
1645711615.688587,25.000000,0.000000,4218.589844,4228.846191,4212.563965,4221.794922,4216.025879,4220.769043,4221.922852,4225.000000,4229.615234,4222.179688,4225.000000,4172.051270,4229.487305,4229.615234,3315.000000,4.000000,82.000000,,,,0.000000,4.000000,4.000000,4.000000,4.000000,4.000000,4.000000,4.000000,4.000000,4.000000,4.000000,4.000000,4.000000,4.000000,4.000000,100.000000,,,,,,,,,,,,,,,,
1645711615.692528,26.000000,0.000000,4224.230957,4216.153809,4209.230957,4214.487305,4207.563965,4216.025879,4220.641113,4224.230957,4228.077148,4216.666504,4218.974121,4170.641113,4224.358887,4225.256348,2300.000000,4.000000,82.000000,,,,0.000000,4.000000,4.000000,4.000000,4.000000,4.000000,4.000000,4.000000,4.000000,4.000000,4.000000,4.000000,4.000000,4.000000,4.000000,100.000000,,,,,,,,,,,,,,,,
1645711615.696468,27.000000,0.000000,4224.230957,4205.897461,4205.384766,4208.846191,4201.025879,4213.461426,4220.000000,4221.794922,4226.282227,4213.974121,4213.077148,4170.000000,4220.897461,4216.794922,2542.000000,4.000000,82.000000,,,,0.000000,4.000000,4.000000,4.000000,4.000000,4.000000,4.000000,4.000000,4.000000,4.000000,4.000000,4.000000,4.000000,4.000000,4.000000,100.000000,,,,,,,,,,,,,,,,
1645711615.700408,28.000000,0.000000,4216.538574,4203.589844,4202.179688,4207.692383,4201.410156,4215.512695,4220.769043,4221.153809,4225.897461,4216.666504,4211.922852,4169.871582,4220.897461,4206.282227,3224.000000,4.000000,82.000000,,,,0.000000,4.000000,4.000000,4.000000,4.000000,4.000000,4.000000,4.000000,4.000000,4.000000,4.000000,4.000000,4.000000,4.000000,4.000000,100.000000,,,,,,,,,,,,,,,,
1645711615.704348,29.000000,0.000000,4209.615234,4206.282227,4199.615234,4207.051270,4204.358887,4217.948730,4220.897461,4222.307617,4225.512695,4218.846191,4212.179688,4167.820313,4221.922852,4199.102539,3315.000000,4.000000,82.000000,,,,0.000000,4.000000,4.000000,4.000000,4.000000,4.000000,4.000000,4.000000,4.000000,4.000000,4.000000,4.000000,4.000000,4.000000,4.000000,100.000000,,,,,,,,,,,,,,,,
1645711615.708288,30.000000,0.000000,4210.641113,4206.666504,4197.436035,4202.307617,4203.077148,4215.897461,4219.487305,4223.205078,4223.461426,4214.615234,4208.589844,4163.461426,4220.769043,4200.897461,2300.000000,4.000000,82.000000,,,,0.000000,4.000000,4.000000,4.000000,4.000000,4.000000,4.000000,4.000000,4.000000,4.000000,4.000000,4.000000,4.000000,4.000000,4.000000,100.000000,,,,,,,,,,,,,,,,
1645711615.712228,31.000000,0.000000,4215.641113,4202.051270,4196.538574,4195.769043,4197.948730,4211.410156,4218.333496,4222.820313,4220.897461,4206.794922,4202.948730,4159.230957,4217.820313,4211.282227,2542.000000,4.000000,82.000000,,,,0.000000,4.000000,4.000000,4.000000,4.000000,4.000000,4.000000,4.000000,4.000000,4.000000,4.000000,4.000000,4.000000,4.000000,4.000000,100.000000,,,,,,,,,,,,,,,,
1645711615.716168,32.000000,0.000000,4215.128418,4196.153809,4197.307617,4193.205078,4196.282227,4210.897461,4220.256348,4222.820313,4220.512695,4205.000000,4201.922852,4158.333496,4216.794922,4222.436035,0.000000,4.000000,82.000000,,,,0.000000,4.000000,4.000000,4.000000,4.000000,4.000000,4.000000,4.000000,4.000000,4.000000,4.000000,4.000000,4.000000,4.000000,4.000000,100.000000,,,,,,,,,,,,,,,,
1645711615.720108,33.000000,0.000000,4207.051270,4193.974121,4198.589844,4196.922852,4201.538574,4216.410156,4224.743652,4223.974121,4223.589844,4213.589844,4207.948730,4160.128418,4218.974121,4225.897461,0.000000,4.000000,82.000000,,,,0.000000,4.000000,4.000000,4.000000,4.000000,4.000000,4.000000,4.000000,4.000000,4.000000,4.000000,4.000000,4.000000,4.000000,4.000000,100.000000,,,,,,,,,,,,,,,,
1645711615.724048,34.000000,0.000000,4201.025879,4195.512695,4198.461426,4202.692383,4208.846191,4223.205078,4228.205078,4225.256348,4227.436035,4225.000000,4215.384766,4161.153809,4221.410156,4219.743652,0.000000,4.000000,82.000000,,,,0.000000,4.000000,4.000000,4.000000,4.000000,4.000000,4.000000,4.000000,4.000000,4.000000,4.000000,4.000000,4.000000,4.000000,4.000000,100.000000,,,,,,,,,,,,,,,,
1645711615.727989,35.000000,0.000000,4205.641113,4198.717773,4197.051270,4206.153809,4211.410156,4225.256348,4228.333496,4225.128418,4228.589844,4228.846191,4217.692383,4159.102539,4221.282227,4210.512695,0.000000,4.000000,82.000000,,,,0.000000,4.000000,4.000000,4.000000,4.000000,4.000000,4.000000,4.000000,4.000000,4.000000,4.000000,4.000000,4.000000,4.000000,4.000000,100.000000,,,,,,,,,,,,,,,,
1645711615.731929,36.000000,0.000000,4217.820313,4203.461426,4197.179688,4208.717773,4210.256348,4223.974121,4226.666504,4224.487305,4227.307617,4224.358887,4215.641113,4156.922852,4220.384766,4206.666504,0.000000,4.000000,82.000000,,,,0.000000,4.000000,4.000000,4.000000,4.000000,4.000000,4.000000,4.000000,4.000000,4.000000,4.000000,4.000000,4.000000,4.000000,4.000000,100.000000,,,,,,,,,,,,,,,,
1645711615.735869,37.000000,0.000000,4225.769043,4212.051270,4201.282227,4214.615234,4211.922852,4224.615234,4225.769043,4225.641113,4226.282227,4220.384766,4216.538574,4158.846191,4222.820313,4210.128418,0.000000,4.000000,82.000000,,,,0.000000,4.000000,4.000000,4.000000,4.000000,4.000000,4.000000,4.000000,4.000000,4.000000,4.000000,4.000000,4.000000,4.000000,4.000000,100.000000,,,,,,,,,,,,,,,,
1645711615.739809,38.000000,0.000000,4223.846191,4222.820313,4207.436035,4223.205078,4218.974121,4228.589844,4225.128418,4228.461426,4227.436035,4223.974121,4222.948730,4165.128418,4229.487305,4215.512695,0.000000,4.000000,82.000000,,,,0.000000,4.000000,4.000000,4.000000,4.000000,4.000000,4.000000,4.000000,4.000000,4.000000,4.000000,4.000000,4.000000,4.000000,4.000000,100.000000,,,,,,,,,,,,,,,,
1645711615.743849,39.000000,0.000000,4218.077148,4229.487305,4210.769043,4227.948730,4224.743652,4230.641113,4222.179688,4229.487305,4228.846191,4230.769043,4228.461426,4169.871582,4235.384766,4216.794922,0.000000,4.000000,82.000000,,,,0.000000,4.000000,4.000000,4.000000,4.000000,4.000000,4.000000,4.000000,4.000000,4.000000,4.000000,4.000000,4.000000,4.000000,4.000000,100.000000,,,,,,,,,,,,,,,,
1645711615.747789,40.000000,0.000000,4217.563965,4227.692383,4208.205078,4224.230957,4221.794922,4225.256348,4216.282227,4225.512695,4227.051270,4231.794922,4225.769043,4167.820313,4235.256348,4214.358887,0.000000,4.000000,82.000000,,,,0.000000,4.000000,4.000000,4.000000,4.000000,4.000000,4.000000,4.000000,4.000000,4.000000,4.000000,4.000000,4.000000,4.000000,4.000000,100.000000,,,,,,,,,,,,,,,,
1645711615.751729,41.000000,0.000000,4221.922852,4221.282227,4202.051270,4215.897461,4212.307617,4215.897461,4211.153809,4218.333496,4222.820313,4225.512695,4216.922852,4160.000000,4229.743652,4212.820313,0.000000,4.000000,82.000000,,,,0.000000,4.000000,4.000000,4.000000,4.000000,4.000000,4.000000,4.000000,4.000000,4.000000,4.000000,4.000000,4.000000,4.000000,4.000000,100.000000,,,,,,,,,,,,,,,,
1645711615.755669,42.000000,0.000000,4223.205078,4219.230957,4198.077148,4212.179688,4206.538574,4211.153809,4211.153809,4212.820313,4220.000000,4219.743652,4211.794922,4152.692383,4225.000000,4214.743652,0.000000,4.000000,82.000000,,,,0.000000,4.000000,4.000000,4.000000,4.000000,4.000000,4.000000,4.000000,4.000000,4.000000,4.000000,4.000000,4.000000,4.000000,4.000000,100.000000,,,,,,,,,,,,,,,,
1645711615.759609,43.000000,0.000000,4218.461426,4224.615234,4198.846191,4216.666504,4210.384766,4215.769043,4215.384766,4211.922852,4221.025879,4221.282227,4215.897461,4150.769043,4225.641113,4217.179688,0.000000,4.000000,82.000000,,,,0.000000,4.000000,4.000000,4.000000,4.000000,4.000000,4.000000,4.000000,4.000000,4.000000,4.000000,4.000000,4.000000,4.000000,4.000000,100.000000,,,,,,,,,,,,,,,,
1645711615.763549,44.000000,0.000000,4214.358887,4230.897461,4201.922852,4223.461426,4218.589844,4224.487305,4218.846191,4213.461426,4224.358887,4226.666504,4223.846191,4152.948730,4230.256348,4216.025879,0.000000,4.000000,82.000000,,,,0.000000,4.000000,4.000000,4.000000,4.000000,4.000000,4.000000,4.000000,4.000000,4.000000,4.000000,4.000000,4.000000,4.000000,4.000000,100.000000,,,,,,,,,,,,,,,,
1645711615.767489,45.000000,0.000000,4217.948730,4229.615234,4202.436035,4224.743652,4221.282227,4228.205078,4217.563965,4213.589844,4225.897461,4227.563965,4225.897461,4155.256348,4233.205078,4211.794922,0.000000,4.000000,82.000000,,,,0.000000,4.000000,4.000000,4.000000,4.000000,4.000000,4.000000,4.000000,4.000000,4.000000,4.000000,4.000000,4.000000,4.000000,4.000000,100.000000,,,,,,,,,,,,,,,,
1645711615.771430,46.000000,0.000000,4225.769043,4220.256348,4199.487305,4219.871582,4216.922852,4224.615234,4213.589844,4211.922852,4224.871582,4221.922852,4220.384766,4154.743652,4232.563965,4209.358887,0.000000,4.000000,82.000000,,,,0.000000,4.000000,4.000000,4.000000,4.000000,4.000000,4.000000,4.000000,4.000000,4.000000,4.000000,4.000000,4.000000,4.000000,4.000000,100.000000,,,,,,,,,,,,,,,,
1645711615.775370,47.000000,0.000000,4227.051270,4211.282227,4196.922852,4217.179688,4212.820313,4219.615234,4212.051270,4212.051270,4224.358887,4217.692383,4215.000000,4153.077148,4231.025879,4211.410156,0.000000,4.000000,82.000000,,,,0.000000,4.000000,4.000000,4.000000,4.000000,4.000000,4.000000,4.000000,4.000000,4.000000,4.000000,4.000000,4.000000,4.000000,4.000000,100.000000,,,,,,,,,,,,,,,,
1645711615.779310,48.000000,0.000000,4218.205078,4210.897461,4198.333496,4222.948730,4215.512695,4219.743652,4214.871582,4216.025879,4227.179688,4222.436035,4217.179688,4152.307617,4232.051270,4216.153809,0.000000,4.000000,82.000000,,,,0.000000,4.000000,4.000000,4.000000,4.000000,4.000000,4.000000,4.000000,4.000000,4.000000,4.000000,4.000000,4.000000,4.000000,4.000000,100.000000,,,,,,,,,,,,,,,,
1645711615.783250,49.000000,0.000000,4208.589844,4217.307617,4203.333496,4233.333496,4221.922852,4223.846191,4219.230957,4221.410156,4231.922852,4233.333496,4224.615234,4152.563965,4235.384766,4219.102539,0.000000,4.000000,82.000000,,,,0.000000,4.000000,4.000000,4.000000,4.000000,4.000000,4.000000,4.000000,4.000000,4.000000,4.000000,4.000000,4.000000,4.000000,4.000000,100.000000,,,,,,,,,,,,,,,,
1645711615.787190,50.000000,0.000000,4210.000000,4222.820313,4208.205078,4238.461426,4223.974121,4226.282227,4221.794922,4223.589844,4234.230957,4240.256348,4228.846191,4153.205078,4237.948730,4218.846191,0.000000,4.000000,82.000000,,,,0.000000,4.000000,4.000000,4.000000,4.000000,4.000000,4.000000,4.000000,4.000000,4.000000,4.000000,4.000000,4.000000,4.000000,4.000000,100.000000,1.000000,58.333332,1.000000,3.000000,3.000000,4.000000,3.000000,3.000000,4.000000,3.000000,3.000000,3.000000,3.000000,4.000000,3.000000,4.000000
1645711615.791130,51.000000,0.000000,4221.538574,4222.948730,4210.641113,4233.846191,4219.615234,4225.000000,4222.563965,4221.153809,4232.436035,4237.692383,4226.153809,4154.487305,4238.077148,4217.051270,0.000000,4.000000,82.000000,,,,0.000000,4.000000,4.000000,4.000000,4.000000,4.000000,4.000000,4.000000,4.000000,4.000000,4.000000,4.000000,4.000000,4.000000,4.000000,100.000000,,,,,,,,,,,,,,,,
1645711615.795070,52.000000,0.000000,4230.512695,4220.512695,4211.153809,4224.615234,4215.000000,4223.333496,4223.974121,4217.436035,4228.846191,4230.641113,4221.282227,4157.692383,4237.179688,4215.897461,0.000000,4.000000,82.000000,,,,0.000000,4.000000,4.000000,4.000000,4.000000,4.000000,4.000000,4.000000,4.000000,4.000000,4.000000,4.000000,4.000000,4.000000,4.000000,100.000000,,,,,,,,,,,,,,,,
1645711615.799010,53.000000,0.000000,4228.077148,4220.000000,4211.153809,4218.846191,4215.769043,4224.230957,4226.666504,4216.153809,4227.436035,4226.794922,4220.512695,4162.563965,4236.794922,4215.512695,0.000000,4.000000,82.000000,,,,0.000000,4.000000,4.000000,4.000000,4.000000,4.000000,4.000000,4.000000,4.000000,4.000000,4.000000,4.000000,4.000000,4.000000,4.000000,100.000000,,,,,,,,,,,,,,,,
1645711615.802950,54.000000,0.000000,4219.615234,4221.410156,4211.282227,4219.102539,4219.743652,4225.769043,4227.948730,4217.563965,4228.589844,4227.179688,4223.589844,4166.922852,4236.410156,4215.512695,0.000000,4.000000,82.000000,,,,0.000000,4.000000,4.000000,4.000000,4.000000,4.000000,4.000000,4.000000,4.000000,4.000000,4.000000,4.000000,4.000000,4.000000,4.000000,100.000000,,,,,,,,,,,,,,,,
1645711615.806891,55.000000,0.000000,4216.666504,4221.794922,4212.051270,4221.922852,4220.256348,4224.743652,4226.794922,4218.589844,4229.743652,4227.820313,4225.897461,4169.102539,4234.871582,4217.179688,0.000000,4.000000,82.000000,,,,0.000000,4.000000,4.000000,4.000000,4.000000,4.000000,4.000000,4.000000,4.000000,4.000000,4.000000,4.000000,4.000000,4.000000,4.000000,100.000000,,,,,,,,,,,,,,,,
1645711615.810831,56.000000,0.000000,4222.820313,4221.025879,4214.615234,4224.615234,4216.666504,4223.333496,4226.153809,4218.974121,4230.000000,4227.307617,4225.769043,4170.256348,4232.820313,4222.179688,0.000000,4.000000,82.000000,,,,0.000000,4.000000,4.000000,4.000000,4.000000,4.000000,4.000000,4.000000,4.000000,4.000000,4.000000,4.000000,4.000000,4.000000,4.000000,100.000000,,,,,,,,,,,,,,,,
1645711615.814871,57.000000,0.000000,4229.871582,4223.333496,4220.512695,4228.461426,4216.282227,4226.922852,4229.871582,4220.769043,4230.512695,4230.128418,4226.922852,4173.333496,4232.820313,4228.846191,0.000000,4.000000,82.000000,,,,0.000000,4.000000,4.000000,4.000000,4.000000,4.000000,4.000000,4.000000,4.000000,4.000000,4.000000,4.000000,4.000000,4.000000,4.000000,100.000000,,,,,,,,,,,,,,,,
1645711615.818811,58.000000,0.000000,4230.512695,4230.641113,4228.717773,4234.743652,4223.717773,4236.666504,4237.051270,4225.512695,4232.692383,4238.589844,4232.307617,4178.205078,4235.897461,4232.692383,0.000000,4.000000,82.000000,,,,0.000000,4.000000,4.000000,4.000000,4.000000,4.000000,4.000000,4.000000,4.000000,4.000000,4.000000,4.000000,4.000000,4.000000,4.000000,100.000000,,,,,,,,,,,,,,,,
1645711615.822751,59.000000,0.000000,4227.179688,4238.589844,4235.128418,4240.128418,4233.461426,4245.384766,4242.051270,4229.743652,4234.615234,4246.922852,4237.820313,4181.794922,4239.358887,4230.512695,0.000000,4.000000,82.000000,,,,0.000000,4.000000,4.000000,4.000000,4.000000,4.000000,4.000000,4.000000,4.000000,4.000000,4.000000,4.000000,4.000000,4.000000,4.000000,100.000000,,,,,,,,,,,,,,,,
1645711615.826691,60.000000,0.000000,4228.333496,4239.871582,4236.282227,4239.358887,4234.743652,4244.487305,4240.512695,4229.102539,4233.333496,4247.179688,4236.538574,4180.769043,4238.974121,4225.000000,0.000000,4.000000,82.000000,,,,0.000000,4.000000,4.000000,4.000000,4.000000,4.000000,4.000000,4.000000,4.000000,4.000000,4.000000,4.000000,4.000000,4.000000,4.000000,100.000000,,,,,,,,,,,,,,,,
1645711615.830631,61.000000,0.000000,4235.384766,4233.846191,4233.205078,4233.461426,4225.512695,4234.743652,4234.358887,4223.717773,4229.358887,4239.102539,4228.589844,4176.794922,4234.230957,4221.666504,0.000000,4.000000,82.000000,,,,0.000000,4.000000,4.000000,4.000000,4.000000,4.000000,4.000000,4.000000,4.000000,4.000000,4.000000,4.000000,4.000000,4.000000,4.000000,100.000000,,,,,,,,,,,,,,,,
1645711615.834571,62.000000,0.000000,4240.769043,4228.205078,4230.256348,4229.743652,4216.025879,4226.025879,4229.743652,4219.743652,4226.666504,4232.436035,4222.436035,4174.871582,4229.871582,4222.948730,0.000000,4.000000,82.000000,,,,0.000000,4.000000,4.000000,4.000000,4.000000,4.000000,4.000000,4.000000,4.000000,4.000000,4.000000,4.000000,4.000000,4.000000,4.000000,100.000000,,,,,,,,,,,,,,,,
1645711615.838511,63.000000,0.000000,4237.692383,4229.743652,4230.000000,4234.102539,4216.410156,4226.666504,4230.641113,4222.179688,4228.717773,4234.743652,4224.743652,4177.820313,4230.128418,4226.025879,0.000000,4.000000,82.000000,,,,0.000000,4.000000,4.000000,4.000000,4.000000,4.000000,4.000000,4.000000,4.000000,4.000000,4.000000,4.000000,4.000000,4.000000,4.000000,100.000000,,,,,,,,,,,,,,,,
1645711615.842451,64.000000,0.000000,4230.256348,4236.282227,4230.512695,4243.077148,4225.000000,4233.846191,4234.487305,4229.102539,4234.487305,4242.307617,4232.051270,4182.948730,4234.102539,4227.948730,0.000000,4.000000,82.000000,,,,0.000000,4.000000,4.000000,4.000000,4.000000,4.000000,4.000000,4.000000,4.000000,4.000000,4.000000,4.000000,4.000000,4.000000,4.000000,100.000000,,,,,,,,,,,,,,,,
1645711615.846391,65.000000,0.000000,4227.948730,4239.102539,4227.948730,4247.307617,4230.769043,4237.692383,4236.153809,4233.846191,4238.717773,4244.487305,4234.358887,4184.743652,4237.051270,4228.717773,0.000000,4.000000,82.000000,,,,0.000000,4.000000,4.000000,4.000000,4.000000,4.000000,4.000000,4.000000,4.000000,4.000000,4.000000,4.000000,4.000000,4.000000,4.000000,100.000000,,,,,,,,,,,,,,,,
1645711615.850332,66.000000,0.000000,4233.461426,4234.871582,4222.179688,4242.307617,4227.436035,4233.589844,4234.358887,4232.051270,4238.333496,4237.307617,4228.077148,4181.538574,4236.538574,4231.025879,0.000000,4.000000,82.000000,,,,0.000000,4.000000,4.000000,4.000000,4.000000,4.000000,4.000000,4.000000,4.000000,4.000000,4.000000,4.000000,4.000000,4.000000,4.000000,100.000000,,,,,,,,,,,,,,,,
1645711615.854272,67.000000,0.000000,4239.358887,4230.128418,4217.692383,4234.871582,4221.282227,4227.179688,4232.307617,4226.666504,4235.256348,4228.589844,4220.641113,4176.922852,4235.384766,4234.358887,0.000000,4.000000,82.000000,,,,0.000000,4.000000,4.000000,4.000000,4.000000,4.000000,4.000000,4.000000,4.000000,4.000000,4.000000,4.000000,4.000000,4.000000,4.000000,100.000000,,,,,,,,,,,,,,,,
1645711615.858212,68.000000,0.000000,4237.948730,4233.077148,4217.820313,4234.230957,4221.922852,4226.538574,4233.461426,4222.948730,4233.461426,4229.102539,4221.153809,4175.641113,4236.922852,4235.000000,0.000000,4.000000,82.000000,,,,0.000000,4.000000,4.000000,4.000000,4.000000,4.000000,4.000000,4.000000,4.000000,4.000000,4.000000,4.000000,4.000000,4.000000,4.000000,100.000000,,,,,,,,,,,,,,,,
1645711615.862152,69.000000,0.000000,4231.922852,4242.563965,4221.282227,4241.025879,4229.871582,4231.538574,4236.666504,4223.717773,4234.615234,4239.743652,4229.743652,4178.077148,4240.128418,4230.128418,0.000000,4.000000,82.000000,,,,0.000000,4.000000,4.000000,4.000000,4.000000,4.000000,4.000000,4.000000,4.000000,4.000000,4.000000,4.000000,4.000000,4.000000,4.000000,100.000000,,,,,,,,,,,,,,,,
1645711615.866092,70.000000,0.000000,4229.487305,4249.230957,4222.820313,4246.794922,4235.641113,4235.000000,4238.589844,4226.025879,4236.666504,4249.743652,4237.307617,4180.769043,4240.512695,4222.563965,0.000000,4.000000,82.000000,,,,0.000000,4.000000,4.000000,4.000000,4.000000,4.000000,4.000000,4.000000,4.000000,4.000000,4.000000,4.000000,4.000000,4.000000,4.000000,100.000000,,,,,,,,,,,,,,,,
1645711615.870032,71.000000,0.000000,4232.563965,4246.153809,4219.743652,4244.743652,4233.205078,4232.563965,4237.051270,4227.051270,4237.307617,4250.000000,4236.794922,4180.384766,4235.641113,4218.205078,0.000000,4.000000,82.000000,,,,0.000000,4.000000,4.000000,4.000000,4.000000,4.000000,4.000000,4.000000,4.000000,4.000000,4.000000,4.000000,4.000000,4.000000,4.000000,100.000000,,,,,,,,,,,,,,,,
1645711615.873972,72.000000,0.000000,4233.461426,4236.922852,4213.974121,4237.948730,4226.538574,4227.948730,4233.717773,4226.153809,4237.307617,4242.179688,4230.769043,4177.436035,4229.102539,4219.871582,0.000000,4.000000,82.000000,,,,0.000000,4.000000,4.000000,4.000000,4.000000,4.000000,4.000000,4.000000,4.000000,4.000000,4.000000,4.000000,4.000000,4.000000,4.000000,100.000000,,,,,,,,,,,,,,,,
1645711615.877912,73.000000,0.000000,4225.769043,4230.128418,4209.743652,4233.461426,4224.615234,4227.179688,4230.897461,4225.256348,4238.205078,4235.128418,4226.538574,4173.589844,4226.153809,4224.230957,0.000000,4.000000,82.000000,,,,0.000000,4.000000,4.000000,4.000000,4.000000,4.000000,4.000000,4.000000,4.000000,4.000000,4.000000,4.000000,4.000000,4.000000,4.000000,100.000000,,,,,,,,,,,,,,,,
1645711615.881852,74.000000,0.000000,4214.358887,4229.615234,4208.589844,4233.717773,4228.717773,4230.641113,4228.333496,4224.871582,4239.358887,4232.948730,4226.153809,4168.974121,4228.333496,4225.641113,0.000000,4.000000,82.000000,,,,0.000000,4.000000,4.000000,4.000000,4.000000,4.000000,4.000000,4.000000,4.000000,4.000000,4.000000,4.000000,4.000000,4.000000,4.000000,100.000000,,,,,,,,,,,,,,,,
1645711615.885793,75.000000,0.000000,4210.897461,4231.282227,4208.333496,4233.974121,4231.794922,4232.563965,4224.615234,4223.589844,4238.333496,4231.922852,4224.615234,4162.307617,4231.153809,4222.307617,0.000000,4.000000,82.000000,,,,0.000000,4.000000,4.000000,4.000000,4.000000,4.000000,4.000000,4.000000,4.000000,4.000000,4.000000,4.000000,4.000000,4.000000,4.000000,100.000000,,,,,,,,,,,,,,,,
1645711615.889633,76.000000,0.000000,4218.974121,4230.641113,4207.179688,4230.128418,4228.589844,4229.358887,4220.512695,4221.282227,4234.358887,4228.461426,4218.717773,4154.230957,4230.256348,4217.179688,0.000000,4.000000,82.000000,,,,0.000000,4.000000,4.000000,4.000000,4.000000,4.000000,4.000000,4.000000,4.000000,4.000000,4.000000,4.000000,4.000000,4.000000,4.000000,100.000000,,,,,,,,,,,,,,,,
1645711615.893573,77.000000,0.000000,4229.102539,4228.974121,4205.897461,4225.128418,4222.948730,4224.871582,4219.102539,4220.384766,4230.384766,4224.743652,4212.307617,4148.461426,4226.025879,4213.846191,0.000000,4.000000,82.000000,,,,0.000000,4.000000,4.000000,4.000000,4.000000,4.000000,4.000000,4.000000,4.000000,4.000000,4.000000,4.000000,4.000000,4.000000,4.000000,100.000000,,,,,,,,,,,,,,,,
1645711615.897513,78.000000,0.000000,4230.000000,4229.871582,4206.282227,4224.871582,4222.820313,4224.743652,4221.410156,4223.205078,4230.128418,4225.641113,4211.410156,4148.205078,4222.692383,4211.794922,0.000000,4.000000,82.000000,,,,0.000000,4.000000,4.000000,4.000000,4.000000,4.000000,4.000000,4.000000,4.000000,4.000000,4.000000,4.000000,4.000000,4.000000,4.000000,100.000000,,,,,,,,,,,,,,,,
1645711615.901453,79.000000,0.000000,4222.051270,4232.436035,4207.563965,4229.358887,4229.102539,4228.717773,4225.000000,4227.820313,4233.461426,4230.000000,4215.897461,4152.179688,4221.666504,4208.461426,0.000000,4.000000,82.000000,,,,0.000000,4.000000,4.000000,4.000000,4.000000,4.000000,4.000000,4.000000,4.000000,4.000000,4.000000,4.000000,4.000000,4.000000,4.000000,100.000000,,,,,,,,,,,,,,,,
1645711615.905393,80.000000,0.000000,4215.641113,4231.282227,4207.692383,4232.051270,4234.871582,4230.897461,4226.025879,4229.743652,4236.025879,4230.769043,4218.717773,4155.769043,4220.641113,4203.717773,0.000000,4.000000,82.000000,,,,0.000000,4.000000,4.000000,4.000000,4.000000,4.000000,4.000000,4.000000,4.000000,4.000000,4.000000,4.000000,4.000000,4.000000,4.000000,100.000000,,,,,,,,,,,,,,,,
1645711615.909333,81.000000,0.000000,4217.179688,4223.846191,4205.769043,4228.974121,4234.871582,4228.461426,4224.487305,4227.563965,4234.871582,4224.743652,4215.512695,4156.666504,4216.794922,4201.538574,0.000000,4.000000,82.000000,,,,0.000000,4.000000,4.000000,4.000000,4.000000,4.000000,4.000000,4.000000,4.000000,4.000000,4.000000,4.000000,4.000000,4.000000,4.000000,100.000000,,,,,,,,,,,,,,,,
1645711615.913273,82.000000,0.000000,4221.922852,4215.641113,4204.615234,4224.358887,4233.205078,4226.025879,4224.102539,4225.000000,4232.307617,4218.077148,4210.512695,4157.436035,4211.794922,4205.256348,0.000000,4.000000,82.000000,,,,0.000000,4.000000,4.000000,4.000000,4.000000,4.000000,4.000000,4.000000,4.000000,4.000000,4.000000,4.000000,4.000000,4.000000,4.000000,100.000000,,,,,,,,,,,,,,,,
1645711615.917213,83.000000,0.000000,4221.282227,4215.128418,4207.307617,4225.128418,4237.051270,4229.487305,4228.077148,4226.922852,4233.077148,4220.128418,4211.410156,4161.410156,4210.641113,4212.948730,0.000000,4.000000,82.000000,,,,0.000000,4.000000,4.000000,4.000000,4.000000,4.000000,4.000000,4.000000,4.000000,4.000000,4.000000,4.000000,4.000000,4.000000,4.000000,100.000000,,,,,,,,,,,,,,,,
1645711615.921154,84.000000,0.000000,4216.025879,4224.102539,4213.205078,4232.051270,4246.410156,4237.820313,4234.230957,4233.077148,4238.205078,4231.794922,4218.846191,4168.077148,4215.128418,4219.102539,0.000000,4.000000,82.000000,,,,0.000000,4.000000,4.000000,4.000000,4.000000,4.000000,4.000000,4.000000,4.000000,4.000000,4.000000,4.000000,4.000000,4.000000,4.000000,100.000000,,,,,,,,,,,,,,,,
1645711615.925094,85.000000,0.000000,4215.128418,4236.025879,4218.333496,4238.205078,4252.820313,4243.333496,4237.820313,4238.461426,4243.333496,4243.461426,4226.538574,4172.948730,4222.307617,4220.641113,0.000000,4.000000,82.000000,,,,0.000000,4.000000,4.000000,4.000000,4.000000,4.000000,4.000000,4.000000,4.000000,4.000000,4.000000,4.000000,4.000000,4.000000,4.000000,100.000000,,,,,,,,,,,,,,,,
1645711615.929034,86.000000,0.000000,4222.692383,4243.205078,4219.615234,4238.205078,4250.256348,4241.922852,4237.436035,4238.461426,4244.102539,4246.282227,4228.589844,4172.948730,4227.563965,4218.461426,0.000000,4.000000,82.000000,,,,0.000000,4.000000,4.000000,4.000000,4.000000,4.000000,4.000000,4.000000,4.000000,4.000000,4.000000,4.000000,4.000000,4.000000,4.000000,100.000000,,,,,,,,,,,,,,,,
1645711615.932974,87.000000,0.000000,4231.410156,4243.717773,4218.077148,4235.000000,4243.333496,4237.436035,4236.410156,4234.615234,4240.769043,4241.410156,4226.922852,4169.615234,4229.358887,4216.282227,0.000000,4.000000,82.000000,,,,0.000000,4.000000,4.000000,4.000000,4.000000,4.000000,4.000000,4.000000,4.000000,4.000000,4.000000,4.000000,4.000000,4.000000,4.000000,100.000000,,,,,,,,,,,,,,,,
1645711615.936914,88.000000,0.000000,4230.769043,4241.282227,4216.153809,4235.256348,4241.666504,4237.051270,4237.948730,4231.410156,4237.179688,4237.051270,4227.179688,4167.051270,4229.102539,4215.512695,0.000000,4.000000,82.000000,,,,0.000000,4.000000,4.000000,4.000000,4.000000,4.000000,4.000000,4.000000,4.000000,4.000000,4.000000,4.000000,4.000000,4.000000,4.000000,100.000000,,,,,,,,,,,,,,,,
1645711615.940854,89.000000,0.000000,4221.025879,4238.974121,4214.487305,4240.641113,4247.051270,4241.025879,4240.128418,4231.025879,4236.153809,4237.563965,4229.743652,4166.666504,4227.948730,4215.512695,0.000000,4.000000,82.000000,,,,0.000000,4.000000,4.000000,4.000000,4.000000,4.000000,4.000000,4.000000,4.000000,4.000000,4.000000,4.000000,4.000000,4.000000,4.000000,100.000000,,,,,,,,,,,,,,,,
1645711615.944794,90.000000,0.000000,4213.589844,4236.410156,4211.538574,4245.384766,4252.051270,4242.820313,4238.974121,4231.153809,4236.538574,4238.717773,4229.230957,4166.666504,4225.512695,4215.128418,0.000000,4.000000,82.000000,,,,0.000000,4.000000,4.000000,4.000000,4.000000,4.000000,4.000000,4.000000,4.000000,4.000000,4.000000,4.000000,4.000000,4.000000,4.000000,100.000000,,,,,,,,,,,,,,,,
1645711615.948734,91.000000,0.000000,4216.538574,4232.948730,4207.179688,4244.871582,4249.230957,4237.436035,4233.077148,4229.358887,4235.897461,4235.897461,4221.922852,4164.743652,4221.794922,4214.871582,0.000000,4.000000,82.000000,,,,0.000000,4.000000,4.000000,4.000000,4.000000,4.000000,4.000000,4.000000,4.000000,4.000000,4.000000,4.000000,4.000000,4.000000,4.000000,100.000000,,,,,,,,,,,,,,,,
1645711615.952575,92.000000,0.000000,4225.641113,4230.897461,4203.589844,4241.538574,4241.282227,4228.846191,4227.051270,4226.922852,4234.230957,4231.666504,4213.333496,4161.794922,4219.358887,4215.512695,0.000000,4.000000,82.000000,,,,0.000000,4.000000,4.000000,4.000000,4.000000,4.000000,4.000000,4.000000,4.000000,4.000000,4.000000,4.000000,4.000000,4.000000,4.000000,100.000000,,,,,,,,,,,,,,,,
1645711615.956515,93.000000,0.000000,4229.743652,4233.205078,4203.333496,4241.153809,4236.922852,4224.871582,4225.769043,4227.307617,4233.974121,4232.948730,4212.563965,4160.256348,4221.666504,4216.794922,0.000000,4.000000,82.000000,,,,0.000000,4.000000,4.000000,4.000000,4.000000,4.000000,4.000000,4.000000,4.000000,4.000000,4.000000,4.000000,4.000000,4.000000,4.000000,100.000000,,,,,,,,,,,,,,,,
1645711615.960455,94.000000,0.000000,4226.153809,4238.846191,4206.025879,4244.871582,4239.743652,4228.461426,4229.358887,4231.282227,4236.025879,4240.897461,4221.922852,4161.410156,4227.820313,4217.692383,0.000000,4.000000,82.000000,,,,0.000000,4.000000,4.000000,4.000000,4.000000,4.000000,4.000000,4.000000,4.000000,4.000000,4.000000,4.000000,4.000000,4.000000,4.000000,100.000000,,,,,,,,,,,,,,,,
1645711615.964395,95.000000,0.000000,4222.307617,4242.179688,4207.948730,4247.436035,4242.820313,4233.461426,4232.820313,4235.000000,4238.333496,4247.051270,4233.205078,4163.461426,4232.948730,4217.563965,0.000000,4.000000,82.000000,,,,0.000000,4.000000,4.000000,4.000000,4.000000,4.000000,4.000000,4.000000,4.000000,4.000000,4.000000,4.000000,4.000000,4.000000,4.000000,100.000000,,,,,,,,,,,,,,,,
1645711615.968335,96.000000,0.000000,4225.384766,4240.128418,4207.436035,4244.871582,4238.589844,4233.717773,4232.436035,4234.871582,4238.077148,4243.846191,4237.436035,4165.000000,4232.692383,4217.948730,0.000000,4.000000,82.000000,,,,0.000000,4.000000,4.000000,4.000000,4.000000,4.000000,4.000000,4.000000,4.000000,4.000000,4.000000,4.000000,4.000000,4.000000,4.000000,100.000000,,,,,,,,,,,,,,,,
1645711615.972275,97.000000,0.000000,4231.922852,4236.153809,4206.922852,4240.256348,4229.358887,4230.000000,4229.358887,4232.307617,4236.025879,4234.615234,4235.000000,4167.051270,4229.358887,4220.769043,0.000000,4.000000,82.000000,,,,0.000000,4.000000,4.000000,4.000000,4.000000,4.000000,4.000000,4.000000,4.000000,4.000000,4.000000,4.000000,4.000000,4.000000,4.000000,100.000000,,,,,,,,,,,,,,,,
1645711615.976215,98.000000,0.000000,4233.205078,4236.922852,4210.384766,4240.128418,4224.487305,4228.717773,4227.563965,4232.307617,4235.512695,4231.025879,4234.487305,4172.051270,4228.846191,4225.641113,0.000000,4.000000,82.000000,,,,0.000000,4.000000,4.000000,4.000000,4.000000,4.000000,4.000000,4.000000,4.000000,4.000000,4.000000,4.000000,4.000000,4.000000,4.000000,100.000000,,,,,,,,,,,,,,,,
1645711615.980155,99.000000,0.000000,4228.589844,4243.717773,4217.948730,4245.897461,4229.230957,4232.563965,4228.974121,4237.179688,4238.077148,4239.615234,4241.025879,4180.000000,4234.615234,4230.000000,0.000000,4.000000,82.000000,,,,0.000000,4.000000,4.000000,4.000000,4.000000,4.000000,4.000000,4.000000,4.000000,4.000000,4.000000,4.000000,4.000000,4.000000,4.000000,100.000000,,,,,,,,,,,,,,,,
1645711615.984095,100.000000,0.000000,4226.666504,4250.256348,4225.384766,4251.282227,4236.922852,4237.436035,4232.051270,4243.974121,4241.794922,4254.615234,4250.641113,4188.077148,4243.077148,4232.948730,0.000000,4.000000,82.000000,,,,0.000000,4.000000,4.000000,4.000000,4.000000,4.000000,4.000000,4.000000,4.000000,4.000000,4.000000,4.000000,4.000000,4.000000,4.000000,100.000000,,,,,,,,,,,,,,,,
1645711615.988035,101.000000,0.000000,4234.102539,4250.128418,4228.589844,4250.000000,4238.461426,4238.589844,4234.615234,4247.436035,4243.333496,4264.743652,4255.512695,4193.461426,4248.333496,4236.410156,0.000000,4.000000,82.000000,,,,0.000000,4.000000,4.000000,4.000000,4.000000,4.000000,4.000000,4.000000,4.000000,4.000000,4.000000,4.000000,4.000000,4.000000,4.000000,100.000000,,,,,,,,,,,,,,,,
1645711615.991976,102.000000,0.000000,4245.256348,4244.230957,4227.820313,4243.846191,4233.077148,4236.794922,4236.666504,4246.666504,4242.563965,4266.153809,4254.487305,4195.897461,4247.948730,4241.666504,0.000000,4.000000,82.000000,,,,0.000000,4.000000,4.000000,4.000000,4.000000,4.000000,4.000000,4.000000,4.000000,4.000000,4.000000,4.000000,4.000000,4.000000,4.000000,100.000000,,,,,,,,,,,,,,,,
1645711615.995916,103.000000,0.000000,4248.846191,4239.487305,4226.922852,4240.897461,4229.230957,4237.179688,4238.846191,4245.256348,4241.922852,4264.358887,4253.077148,4197.820313,4245.512695,4246.153809,0.000000,4.000000,82.000000,,,,0.000000,4.000000,4.000000,4.000000,4.000000,4.000000,4.000000,4.000000,4.000000,4.000000,4.000000,4.000000,4.000000,4.000000,4.000000,100.000000,,,,,,,,,,,,,,,,
1645711615.999856,104.000000,0.000000,4241.794922,4240.000000,4228.077148,4244.871582,4232.051270,4241.025879,4239.743652,4246.025879,4242.563965,4264.358887,4255.128418,4199.743652,4244.230957,4245.512695,0.000000,4.000000,82.000000,,,,0.000000,4.000000,4.000000,4.000000,4.000000,4.000000,4.000000,4.000000,4.000000,4.000000,4.000000,4.000000,4.000000,4.000000,4.000000,100.000000,,,,,,,,,,,,,,,,
1645711616.003796,105.000000,0.000000,4233.333496,4242.692383,4230.128418,4251.666504,4236.153809,4243.205078,4237.179688,4246.922852,4242.820313,4263.461426,4256.922852,4199.487305,4243.717773,4238.974121,0.000000,4.000000,82.000000,,,,0.000000,4.000000,4.000000,4.000000,4.000000,4.000000,4.000000,4.000000,4.000000,4.000000,4.000000,4.000000,4.000000,4.000000,4.000000,100.000000,,,,,,,,,,,,,,,,
1645711616.007736,106.000000,0.000000,4233.077148,4241.922852,4230.641113,4253.846191,4233.717773,4239.358887,4232.051270,4243.974121,4240.256348,4255.512695,4252.948730,4195.641113,4241.538574,4231.794922,0.000000,4.000000,82.000000,,,,0.000000,4.000000,4.000000,4.000000,4.000000,4.000000,4.000000,4.000000,4.000000,4.000000,4.000000,4.000000,4.000000,4.000000,4.000000,100.000000,,,,,,,,,,,,,,,,
