title:Alex-iF3CKnFDH9BhFS_tC_dmFQ, start timestamp:1645708125.728807, stop timestamp:1645708151.354785, headset type:EPOCPLUS, headset serial:3B9AEBFF, headset firmware:626, channels:55, sampling rate:eeg_256, samples:6508      , version:2.1, 
Timestamp,EEG.Counter,EEG.Interpolated,EEG.AF3,EEG.F7,EEG.F3,EEG.FC5,EEG.T7,EEG.P7,EEG.O1,EEG.O2,EEG.P8,EEG.T8,EEG.FC6,EEG.F4,EEG.F8,EEG.AF4,EEG.RawCq,EEG.Battery,EEG.BatteryPercent,MarkerIndex,MarkerType,MarkerValueInt,EEG.MarkerHardware,CQ.AF3,CQ.F7,CQ.F3,CQ.FC5,CQ.T7,CQ.P7,CQ.O1,CQ.O2,CQ.P8,CQ.T8,CQ.FC6,CQ.F4,CQ.F8,CQ.AF4,CQ.Overall,EQ.SampleRateQuality,EQ.OVERALL,EQ.AF3,EQ.F7,EQ.F3,EQ.FC5,EQ.T7,EQ.P7,EQ.O1,EQ.O2,EQ.P8,EQ.T8,EQ.FC6,EQ.F4,EQ.F8,EQ.AF4
1645708125.728807,17.000000,0.000000,4145.512695,4137.179688,4149.102539,4164.487305,4125.256348,4162.820313,4169.102539,4169.230957,4196.922852,4197.820313,4175.384766,4187.307617,4210.769043,4280.128418,3156.000000,4.000000,91.000000,,,,0.000000,4.000000,4.000000,4.000000,4.000000,4.000000,4.000000,4.000000,4.000000,4.000000,4.000000,4.000000,4.000000,4.000000,4.000000,100.000000,,,,,,,,,,,,,,,,
1645708125.732647,18.000000,0.000000,4144.871582,4140.128418,4150.128418,4164.487305,4131.282227,4162.948730,4168.589844,4168.077148,4197.563965,4193.461426,4167.948730,4186.153809,4206.153809,4280.000000,2658.000000,4.000000,91.000000,,,,0.000000,4.000000,4.000000,4.000000,4.000000,4.000000,4.000000,4.000000,4.000000,4.000000,4.000000,4.000000,4.000000,4.000000,4.000000,100.000000,,,,,,,,,,,,,,,,
1645708125.736587,19.000000,0.000000,4143.717773,4143.205078,4151.153809,4164.615234,4147.436035,4163.974121,4167.820313,4167.307617,4199.358887,4193.717773,4163.846191,4186.794922,4202.436035,4281.794922,3429.000000,4.000000,91.000000,,,,0.000000,4.000000,4.000000,4.000000,4.000000,4.000000,4.000000,4.000000,4.000000,4.000000,4.000000,4.000000,4.000000,4.000000,4.000000,100.000000,,,,,,,,,,,,,,,,
1645708125.740527,20.000000,0.000000,4143.333496,4145.128418,4153.077148,4164.615234,4165.769043,4165.128418,4167.692383,4167.307617,4200.769043,4197.948730,4164.871582,4187.820313,4201.666504,4282.307617,3413.000000,4.000000,91.000000,,,,0.000000,4.000000,4.000000,4.000000,4.000000,4.000000,4.000000,4.000000,4.000000,4.000000,4.000000,4.000000,4.000000,4.000000,4.000000,100.000000,,,,,,,,,,,,,,,,
1645708125.744467,21.000000,0.000000,4144.743652,4144.871582,4155.641113,4164.871582,4177.051270,4166.025879,4169.102539,4168.333496,4201.025879,4202.948730,4169.487305,4187.820313,4203.974121,4280.897461,3156.000000,4.000000,91.000000,,,,0.000000,4.000000,4.000000,4.000000,4.000000,4.000000,4.000000,4.000000,4.000000,4.000000,4.000000,4.000000,4.000000,4.000000,4.000000,100.000000,,,,,,,,,,,,,,,,
1645708125.748407,22.000000,0.000000,4147.948730,4143.333496,4157.820313,4165.384766,4177.179688,4166.538574,4171.666504,4170.000000,4200.256348,4206.410156,4174.871582,4186.922852,4207.948730,4280.256348,2658.000000,4.000000,91.000000,,,,0.000000,4.000000,4.000000,4.000000,4.000000,4.000000,4.000000,4.000000,4.000000,4.000000,4.000000,4.000000,4.000000,4.000000,4.000000,100.000000,,,,,,,,,,,,,,,,
1645708125.752347,23.000000,0.000000,4151.410156,4142.563965,4158.333496,4166.282227,4168.717773,4166.666504,4173.077148,4170.897461,4199.487305,4207.692383,4178.461426,4186.410156,4212.179688,4282.179688,3429.000000,4.000000,91.000000,,,,0.000000,4.000000,4.000000,4.000000,4.000000,4.000000,4.000000,4.000000,4.000000,4.000000,4.000000,4.000000,4.000000,4.000000,4.000000,100.000000,,,,,,,,,,,,,,,,
1645708125.756287,24.000000,0.000000,4152.692383,4143.846191,4157.563965,4167.051270,4158.205078,4166.538574,4171.025879,4170.256348,4199.230957,4207.820313,4178.333496,4187.563965,4215.641113,4285.384766,3413.000000,4.000000,91.000000,,,,0.000000,4.000000,4.000000,4.000000,4.000000,4.000000,4.000000,4.000000,4.000000,4.000000,4.000000,4.000000,4.000000,4.000000,4.000000,100.000000,,,,,,,,,,,,,,,,
1645708125.760227,25.000000,0.000000,4151.538574,4146.153809,4156.794922,4167.563965,4151.410156,4165.897461,4165.897461,4168.589844,4199.358887,4207.436035,4174.102539,4190.769043,4217.692383,4285.512695,3156.000000,4.000000,91.000000,,,,0.000000,4.000000,4.000000,4.000000,4.000000,4.000000,4.000000,4.000000,4.000000,4.000000,4.000000,4.000000,4.000000,4.000000,4.000000,100.000000,,,,,,,,,,,,,,,,
1645708125.764168,26.000000,0.000000,4150.128418,4147.820313,4156.794922,4167.692383,4150.384766,4164.743652,4161.282227,4167.692383,4199.230957,4207.051270,4168.205078,4195.000000,4217.179688,4280.512695,2658.000000,4.000000,91.000000,,,,0.000000,4.000000,4.000000,4.000000,4.000000,4.000000,4.000000,4.000000,4.000000,4.000000,4.000000,4.000000,4.000000,4.000000,4.000000,100.000000,,,,,,,,,,,,,,,,
1645708125.768108,27.000000,0.000000,4150.769043,4147.692383,4157.179688,4168.333496,4153.205078,4163.717773,4160.769043,4168.846191,4199.230957,4207.179688,4164.615234,4198.461426,4213.974121,4273.461426,3429.000000,4.000000,91.000000,,,,0.000000,4.000000,4.000000,4.000000,4.000000,4.000000,4.000000,4.000000,4.000000,4.000000,4.000000,4.000000,4.000000,4.000000,4.000000,100.000000,,,,,,,,,,,,,,,,
1645708125.772048,28.000000,0.000000,4153.974121,4146.410156,4157.563965,4170.384766,4155.128418,4163.333496,4164.743652,4171.538574,4200.128418,4207.436035,4166.025879,4200.641113,4210.000000,4270.128418,3413.000000,4.000000,91.000000,,,,0.000000,4.000000,4.000000,4.000000,4.000000,4.000000,4.000000,4.000000,4.000000,4.000000,4.000000,4.000000,4.000000,4.000000,4.000000,100.000000,,,,,,,,,,,,,,,,
1645708125.775988,29.000000,0.000000,4157.179688,4145.000000,4157.563965,4173.846191,4152.948730,4163.589844,4168.846191,4173.205078,4202.179688,4207.179688,4171.410156,4201.666504,4207.820313,4273.205078,3156.000000,4.000000,91.000000,,,,0.000000,4.000000,4.000000,4.000000,4.000000,4.000000,4.000000,4.000000,4.000000,4.000000,4.000000,4.000000,4.000000,4.000000,4.000000,100.000000,,,,,,,,,,,,,,,,
1645708125.779928,30.000000,0.000000,4157.692383,4143.974121,4157.436035,4176.666504,4146.794922,4163.461426,4169.102539,4171.794922,4203.846191,4206.025879,4177.051270,4201.282227,4208.974121,4280.641113,2658.000000,4.000000,91.000000,,,,0.000000,4.000000,4.000000,4.000000,4.000000,4.000000,4.000000,4.000000,4.000000,4.000000,4.000000,4.000000,4.000000,4.000000,4.000000,100.000000,,,,,,,,,,,,,,,,
1645708125.783868,31.000000,0.000000,4154.743652,4143.589844,4157.307617,4177.179688,4141.410156,4162.820313,4165.000000,4167.563965,4202.948730,4204.871582,4179.102539,4199.102539,4213.205078,4287.179688,3429.000000,4.000000,91.000000,,,,0.000000,4.000000,4.000000,4.000000,4.000000,4.000000,4.000000,4.000000,4.000000,4.000000,4.000000,4.000000,4.000000,4.000000,4.000000,100.000000,,,,,,,,,,,,,,,,
1645708125.787808,32.000000,0.000000,4151.025879,4144.230957,4156.794922,4175.897461,4141.410156,4161.922852,4159.615234,4163.205078,4199.358887,4205.384766,4177.179688,4196.153809,4218.205078,4289.487305,0.000000,4.000000,91.000000,,,,0.000000,4.000000,4.000000,4.000000,4.000000,4.000000,4.000000,4.000000,4.000000,4.000000,4.000000,4.000000,4.000000,4.000000,4.000000,100.000000,,,,,,,,,,,,,,,,
1645708125.791748,33.000000,0.000000,4150.128418,4145.897461,4156.025879,4175.512695,4148.461426,4162.051270,4156.922852,4161.153809,4195.000000,4208.077148,4173.717773,4194.487305,4221.153809,4287.692383,0.000000,4.000000,91.000000,,,,0.000000,4.000000,4.000000,4.000000,4.000000,4.000000,4.000000,4.000000,4.000000,4.000000,4.000000,4.000000,4.000000,4.000000,4.000000,100.000000,,,,,,,,,,,,,,,,
1645708125.795688,34.000000,0.000000,4153.333496,4148.205078,4155.512695,4178.205078,4159.102539,4163.205078,4157.948730,4161.922852,4192.563965,4210.384766,4171.410156,4195.128418,4219.743652,4284.743652,0.000000,4.000000,91.000000,,,,0.000000,4.000000,4.000000,4.000000,4.000000,4.000000,4.000000,4.000000,4.000000,4.000000,4.000000,4.000000,4.000000,4.000000,4.000000,100.000000,,,,,,,,,,,,,,,,
1645708125.799629,35.000000,0.000000,4158.333496,4149.743652,4155.641113,4183.205078,4167.948730,4165.000000,4160.897461,4163.461426,4193.077148,4209.230957,4171.153809,4197.820313,4213.974121,4282.692383,0.000000,4.000000,91.000000,,,,0.000000,4.000000,4.000000,4.000000,4.000000,4.000000,4.000000,4.000000,4.000000,4.000000,4.000000,4.000000,4.000000,4.000000,4.000000,100.000000,,,,,,,,,,,,,,,,
1645708125.803469,36.000000,0.000000,4161.025879,4149.230957,4155.897461,4187.179688,4170.641113,4166.153809,4163.333496,4163.461426,4195.512695,4203.333496,4171.538574,4199.871582,4206.153809,4281.282227,0.000000,4.000000,91.000000,,,,0.000000,4.000000,4.000000,4.000000,4.000000,4.000000,4.000000,4.000000,4.000000,4.000000,4.000000,4.000000,4.000000,4.000000,4.000000,100.000000,,,,,,,,,,,,,,,,
1645708125.807409,37.000000,0.000000,4159.230957,4146.794922,4155.769043,4186.794922,4167.307617,4166.282227,4163.205078,4160.512695,4197.051270,4195.384766,4171.282227,4199.102539,4199.615234,4279.102539,0.000000,4.000000,91.000000,,,,0.000000,4.000000,4.000000,4.000000,4.000000,4.000000,4.000000,4.000000,4.000000,4.000000,4.000000,4.000000,4.000000,4.000000,4.000000,100.000000,,,,,,,,,,,,,,,,
1645708125.811349,38.000000,0.000000,4154.615234,4144.358887,4154.615234,4182.692383,4160.897461,4165.897461,4160.769043,4155.641113,4195.641113,4189.871582,4169.743652,4194.615234,4197.563965,4275.641113,0.000000,4.000000,91.000000,,,,0.000000,4.000000,4.000000,4.000000,4.000000,4.000000,4.000000,4.000000,4.000000,4.000000,4.000000,4.000000,4.000000,4.000000,4.000000,100.000000,,,,,,,,,,,,,,,,
1645708125.815289,39.000000,0.000000,4151.282227,4144.358887,4153.077148,4178.077148,4155.641113,4165.000000,4157.820313,4151.025879,4191.410156,4189.871582,4167.692383,4188.717773,4200.256348,4272.179688,0.000000,4.000000,91.000000,,,,0.000000,4.000000,4.000000,4.000000,4.000000,4.000000,4.000000,4.000000,4.000000,4.000000,4.000000,4.000000,4.000000,4.000000,4.000000,100.000000,,,,,,,,,,,,,,,,
1645708125.819229,40.000000,0.000000,4152.051270,4147.563965,4152.179688,4177.051270,4152.948730,4163.077148,4156.153809,4149.230957,4187.051270,4194.743652,4166.666504,4184.358887,4205.256348,4271.025879,0.000000,4.000000,91.000000,,,,0.000000,4.000000,4.000000,4.000000,4.000000,4.000000,4.000000,4.000000,4.000000,4.000000,4.000000,4.000000,4.000000,4.000000,4.000000,100.000000,,,,,,,,,,,,,,,,
1645708125.823169,41.000000,0.000000,4156.666504,4152.051270,4152.948730,4181.666504,4151.410156,4159.487305,4156.282227,4150.641113,4184.743652,4201.025879,4167.820313,4183.974121,4209.358887,4273.077148,0.000000,4.000000,91.000000,,,,0.000000,4.000000,4.000000,4.000000,4.000000,4.000000,4.000000,4.000000,4.000000,4.000000,4.000000,4.000000,4.000000,4.000000,4.000000,100.000000,,,,,,,,,,,,,,,,
1645708125.827109,42.000000,0.000000,4161.538574,4155.641113,4154.871582,4190.000000,4148.717773,4155.512695,4156.794922,4153.461426,4185.128418,4204.871582,4170.769043,4186.666504,4210.897461,4277.179688,0.000000,4.000000,91.000000,,,,0.000000,4.000000,4.000000,4.000000,4.000000,4.000000,4.000000,4.000000,4.000000,4.000000,4.000000,4.000000,4.000000,4.000000,4.000000,100.000000,,,,,,,,,,,,,,,,
1645708125.831049,43.000000,0.000000,4163.333496,4156.282227,4156.538574,4197.692383,4144.743652,4153.846191,4156.153809,4154.615234,4186.666504,4204.230957,4173.333496,4190.256348,4210.256348,4280.897461,0.000000,4.000000,91.000000,,,,0.000000,4.000000,4.000000,4.000000,4.000000,4.000000,4.000000,4.000000,4.000000,4.000000,4.000000,4.000000,4.000000,4.000000,4.000000,100.000000,,,,,,,,,,,,,,,,
1645708125.834990,44.000000,0.000000,4161.282227,4153.846191,4156.794922,4199.743652,4141.794922,4156.282227,4154.358887,4152.948730,4187.692383,4199.487305,4173.717773,4192.179688,4208.974121,4282.820313,0.000000,4.000000,91.000000,,,,0.000000,4.000000,4.000000,4.000000,4.000000,4.000000,4.000000,4.000000,4.000000,4.000000,4.000000,4.000000,4.000000,4.000000,4.000000,100.000000,,,,,,,,,,,,,,,,
1645708125.838930,45.000000,0.000000,4157.820313,4149.358887,4155.641113,4194.871582,4142.692383,4161.410156,4152.948730,4149.487305,4187.692383,4193.461426,4171.025879,4191.025879,4207.051270,4282.692383,0.000000,4.000000,91.000000,,,,0.000000,4.000000,4.000000,4.000000,4.000000,4.000000,4.000000,4.000000,4.000000,4.000000,4.000000,4.000000,4.000000,4.000000,4.000000,100.000000,,,,,,,,,,,,,,,,
1645708125.842870,46.000000,0.000000,4156.282227,4144.743652,4154.358887,4186.666504,4147.692383,4165.512695,4153.205078,4146.922852,4186.410156,4189.871582,4166.410156,4187.948730,4204.102539,4281.282227,0.000000,4.000000,91.000000,,,,0.000000,4.000000,4.000000,4.000000,4.000000,4.000000,4.000000,4.000000,4.000000,4.000000,4.000000,4.000000,4.000000,4.000000,4.000000,100.000000,,,,,,,,,,,,,,,,
1645708125.846810,47.000000,0.000000,4157.692383,4142.179688,4153.974121,4180.769043,4154.871582,4165.769043,4154.358887,4147.051270,4184.743652,4190.897461,4162.436035,4185.256348,4201.025879,4280.000000,0.000000,4.000000,91.000000,,,,0.000000,4.000000,4.000000,4.000000,4.000000,4.000000,4.000000,4.000000,4.000000,4.000000,4.000000,4.000000,4.000000,4.000000,4.000000,100.000000,,,,,,,,,,,,,,,,
1645708125.850750,48.000000,0.000000,4161.153809,4142.820313,4154.743652,4181.025879,4161.282227,4163.205078,4155.000000,4149.487305,4183.846191,4196.282227,4162.307617,4185.512695,4199.871582,4279.358887,0.000000,4.000000,91.000000,,,,0.000000,4.000000,4.000000,4.000000,4.000000,4.000000,4.000000,4.000000,4.000000,4.000000,4.000000,4.000000,4.000000,4.000000,4.000000,100.000000,,,,,,,,,,,,,,,,
1645708125.854690,49.000000,0.000000,4164.871582,4145.769043,4155.897461,4186.153809,4165.256348,4160.769043,4154.358887,4152.307617,4185.256348,4203.333496,4167.436035,4188.717773,4202.948730,4279.615234,0.000000,4.000000,91.000000,,,,0.000000,4.000000,4.000000,4.000000,4.000000,4.000000,4.000000,4.000000,4.000000,4.000000,4.000000,4.000000,4.000000,4.000000,4.000000,100.000000,,,,,,,,,,,,,,,,
1645708125.858630,50.000000,0.000000,4166.922852,4148.717773,4156.538574,4191.153809,4165.641113,4160.256348,4153.461426,4153.717773,4188.461426,4208.333496,4175.512695,4193.077148,4208.974121,4280.384766,0.000000,4.000000,91.000000,,,,0.000000,4.000000,4.000000,4.000000,4.000000,4.000000,4.000000,4.000000,4.000000,4.000000,4.000000,4.000000,4.000000,4.000000,4.000000,100.000000,,,,,,,,,,,,,,,,
1645708125.862570,51.000000,0.000000,4166.282227,4149.615234,4156.538574,4191.794922,4162.436035,4160.641113,4153.461426,4153.717773,4191.922852,4208.846191,4181.410156,4195.128418,4213.974121,4280.128418,0.000000,4.000000,91.000000,,,,0.000000,4.000000,4.000000,4.000000,4.000000,4.000000,4.000000,4.000000,4.000000,4.000000,4.000000,4.000000,4.000000,4.000000,4.000000,100.000000,,,,,,,,,,,,,,,,
1645708125.866510,52.000000,0.000000,4163.077148,4148.333496,4156.410156,4187.307617,4156.538574,4159.871582,4153.974121,4153.846191,4193.717773,4204.358887,4181.025879,4193.461426,4214.615234,4278.333496,0.000000,4.000000,91.000000,,,,0.000000,4.000000,4.000000,4.000000,4.000000,4.000000,4.000000,4.000000,4.000000,4.000000,4.000000,4.000000,4.000000,4.000000,4.000000,100.000000,,,,,,,,,,,,,,,,
1645708125.870451,53.000000,0.000000,4159.487305,4146.282227,4155.384766,4180.641113,4150.384766,4157.051270,4153.589844,4155.000000,4192.948730,4197.820313,4175.384766,4188.846191,4211.025879,4275.384766,0.000000,4.000000,91.000000,,,,0.000000,4.000000,4.000000,4.000000,4.000000,4.000000,4.000000,4.000000,4.000000,4.000000,4.000000,4.000000,4.000000,4.000000,4.000000,100.000000,,,,,,,,,,,,,,,,
1645708125.874291,54.000000,0.000000,4157.051270,4144.871582,4152.307617,4175.897461,4146.538574,4153.461426,4152.179688,4156.794922,4190.897461,4193.333496,4169.743652,4183.974121,4206.025879,4272.948730,0.000000,4.000000,91.000000,,,,0.000000,4.000000,4.000000,4.000000,4.000000,4.000000,4.000000,4.000000,4.000000,4.000000,4.000000,4.000000,4.000000,4.000000,4.000000,100.000000,,,,,,,,,,,,,,,,
1645708125.878231,55.000000,0.000000,4156.153809,4144.358887,4147.179688,4175.256348,4146.922852,4151.538574,4151.025879,4158.333496,4189.615234,4193.589844,4168.077148,4181.282227,4202.563965,4271.794922,0.000000,4.000000,91.000000,,,,0.000000,4.000000,4.000000,4.000000,4.000000,4.000000,4.000000,4.000000,4.000000,4.000000,4.000000,4.000000,4.000000,4.000000,4.000000,100.000000,,,,,,,,,,,,,,,,
1645708125.882171,56.000000,0.000000,4156.025879,4144.102539,4142.307617,4177.820313,4151.025879,4153.077148,4152.051270,4159.487305,4190.641113,4197.948730,4170.384766,4181.025879,4201.794922,4271.282227,0.000000,4.000000,91.000000,,,,0.000000,4.000000,4.000000,4.000000,4.000000,4.000000,4.000000,4.000000,4.000000,4.000000,4.000000,4.000000,4.000000,4.000000,4.000000,100.000000,,,,,,,,,,,,,,,,
1645708125.886111,57.000000,0.000000,4156.410156,4144.615234,4140.641113,4181.153809,4156.538574,4158.077148,4155.128418,4161.410156,4193.717773,4203.461426,4173.077148,4182.051270,4203.333496,4270.641113,0.000000,4.000000,91.000000,,,,0.000000,4.000000,4.000000,4.000000,4.000000,4.000000,4.000000,4.000000,4.000000,4.000000,4.000000,4.000000,4.000000,4.000000,4.000000,100.000000,,,,,,,,,,,,,,,,
1645708125.890051,58.000000,0.000000,4157.051270,4146.410156,4143.205078,4182.563965,4160.256348,4163.974121,4158.077148,4164.358887,4197.179688,4206.922852,4173.717773,4182.692383,4206.153809,4269.358887,0.000000,4.000000,91.000000,,,,0.000000,4.000000,4.000000,4.000000,4.000000,4.000000,4.000000,4.000000,4.000000,4.000000,4.000000,4.000000,4.000000,4.000000,4.000000,100.000000,,,,,,,,,,,,,,,,
1645708125.893991,59.000000,0.000000,4157.307617,4149.102539,4147.563965,4180.384766,4159.487305,4166.794922,4159.102539,4167.179688,4199.487305,4206.410156,4172.179688,4182.307617,4208.717773,4267.051270,0.000000,4.000000,91.000000,,,,0.000000,4.000000,4.000000,4.000000,4.000000,4.000000,4.000000,4.000000,4.000000,4.000000,4.000000,4.000000,4.000000,4.000000,4.000000,100.000000,,,,,,,,,,,,,,,,
1645708125.897931,60.000000,0.000000,4156.025879,4149.743652,4150.000000,4175.897461,4154.358887,4164.358887,4157.820313,4168.205078,4199.230957,4202.436035,4170.128418,4181.282227,4209.615234,4263.717773,0.000000,4.000000,91.000000,,,,0.000000,4.000000,4.000000,4.000000,4.000000,4.000000,4.000000,4.000000,4.000000,4.000000,4.000000,4.000000,4.000000,4.000000,4.000000,100.000000,,,,,,,,,,,,,,,,
1645708125.901871,61.000000,0.000000,4152.307617,4146.794922,4148.589844,4172.179688,4147.563965,4158.205078,4155.512695,4166.794922,4196.410156,4197.179688,4169.230957,4180.128418,4207.948730,4259.615234,0.000000,4.000000,91.000000,,,,0.000000,4.000000,4.000000,4.000000,4.000000,4.000000,4.000000,4.000000,4.000000,4.000000,4.000000,4.000000,4.000000,4.000000,4.000000,100.000000,,,,,,,,,,,,,,,,
1645708125.905812,62.000000,0.000000,4147.820313,4141.538574,4144.615234,4172.436035,4143.205078,4151.922852,4153.717773,4163.846191,4192.692383,4193.589844,4169.615234,4179.615234,4204.102539,4255.897461,0.000000,4.000000,91.000000,,,,0.000000,4.000000,4.000000,4.000000,4.000000,4.000000,4.000000,4.000000,4.000000,4.000000,4.000000,4.000000,4.000000,4.000000,4.000000,100.000000,,,,,,,,,,,,,,,,
1645708125.909752,63.000000,0.000000,4146.025879,4138.461426,4141.666504,4177.179688,4144.743652,4149.487305,4153.205078,4161.538574,4190.256348,4194.230957,4170.512695,4180.384766,4200.512695,4254.743652,0.000000,4.000000,91.000000,,,,0.000000,4.000000,4.000000,4.000000,4.000000,4.000000,4.000000,4.000000,4.000000,4.000000,4.000000,4.000000,4.000000,4.000000,4.000000,100.000000,,,,,,,,,,,,,,,,
1645708125.913692,64.000000,0.000000,4149.358887,4141.282227,4143.077148,4184.358887,4151.666504,4151.666504,4153.717773,4161.025879,4190.512695,4199.358887,4171.282227,4182.563965,4199.487305,4257.692383,0.000000,4.000000,91.000000,,,,0.000000,4.000000,4.000000,4.000000,4.000000,4.000000,4.000000,4.000000,4.000000,4.000000,4.000000,4.000000,4.000000,4.000000,4.000000,100.000000,,,,,,,,,,,,,,,,
1645708125.917632,65.000000,0.000000,4156.794922,4149.487305,4149.102539,4190.641113,4160.512695,4156.282227,4154.102539,4162.179688,4192.436035,4206.666504,4171.794922,4185.897461,4201.922852,4263.846191,0.000000,4.000000,91.000000,,,,0.000000,4.000000,4.000000,4.000000,4.000000,4.000000,4.000000,4.000000,4.000000,4.000000,4.000000,4.000000,4.000000,4.000000,4.000000,100.000000,,,,,,,,,,,,,,,,
1645708125.921572,66.000000,0.000000,4164.358887,4158.461426,4156.282227,4192.948730,4166.282227,4160.000000,4154.102539,4163.205078,4193.717773,4211.666504,4171.666504,4189.358887,4206.153809,4270.128418,0.000000,4.000000,91.000000,,,,0.000000,4.000000,4.000000,4.000000,4.000000,4.000000,4.000000,4.000000,4.000000,4.000000,4.000000,4.000000,4.000000,4.000000,4.000000,100.000000,,,,,,,,,,,,,,,,
1645708125.925512,67.000000,0.000000,4168.077148,4163.205078,4160.641113,4190.384766,4166.282227,4161.153809,4154.230957,4162.436035,4192.948730,4210.641113,4170.769043,4191.025879,4209.487305,4273.461426,0.000000,4.000000,91.000000,,,,0.000000,4.000000,4.000000,4.000000,4.000000,4.000000,4.000000,4.000000,4.000000,4.000000,4.000000,4.000000,4.000000,4.000000,4.000000,100.000000,,,,,,,,,,,,,,,,
1645708125.929452,68.000000,0.000000,4166.538574,4161.282227,4160.000000,4185.000000,4161.282227,4159.743652,4154.615234,4159.487305,4190.769043,4203.205078,4169.358887,4188.846191,4209.743652,4272.563965,0.000000,4.000000,91.000000,,,,0.000000,4.000000,4.000000,4.000000,4.000000,4.000000,4.000000,4.000000,4.000000,4.000000,4.000000,4.000000,4.000000,4.000000,4.000000,100.000000,,,,,,,,,,,,,,,,
1645708125.933392,69.000000,0.000000,4161.666504,4155.128418,4155.641113,4179.871582,4154.102539,4156.922852,4154.487305,4154.487305,4188.077148,4193.589844,4167.436035,4182.179688,4206.666504,4267.948730,0.000000,4.000000,91.000000,,,,0.000000,4.000000,4.000000,4.000000,4.000000,4.000000,4.000000,4.000000,4.000000,4.000000,4.000000,4.000000,4.000000,4.000000,4.000000,100.000000,,,,,,,,,,,,,,,,
1645708125.937332,70.000000,0.000000,4156.922852,4149.743652,4151.153809,4177.051270,4147.179688,4153.589844,4153.205078,4148.717773,4185.512695,4185.769043,4164.102539,4173.717773,4201.538574,4260.897461,0.000000,4.000000,91.000000,,,,0.000000,4.000000,4.000000,4.000000,4.000000,4.000000,4.000000,4.000000,4.000000,4.000000,4.000000,4.000000,4.000000,4.000000,4.000000,100.000000,,,,,,,,,,,,,,,,
1645708125.941273,71.000000,0.000000,4154.487305,4148.333496,4149.743652,4176.282227,4142.179688,4151.025879,4151.282227,4144.487305,4183.077148,4181.922852,4159.487305,4167.692383,4196.282227,4253.717773,0.000000,4.000000,91.000000,,,,0.000000,4.000000,4.000000,4.000000,4.000000,4.000000,4.000000,4.000000,4.000000,4.000000,4.000000,4.000000,4.000000,4.000000,4.000000,100.000000,,,,,,,,,,,,,,,,
1645708125.945113,72.000000,0.000000,4154.615234,4149.871582,4151.410156,4176.282227,4140.769043,4151.282227,4151.025879,4144.102539,4181.410156,4181.794922,4155.769043,4167.563965,4192.436035,4248.846191,0.000000,4.000000,91.000000,,,,0.000000,4.000000,4.000000,4.000000,4.000000,4.000000,4.000000,4.000000,4.000000,4.000000,4.000000,4.000000,4.000000,4.000000,4.000000,100.000000,,,,,,,,,,,,,,,,
1645708125.949053,73.000000,0.000000,4156.538574,4151.153809,4154.230957,4176.410156,4144.358887,4155.897461,4154.615234,4147.820313,4181.666504,4184.871582,4156.153809,4173.077148,4191.153809,4247.563965,0.000000,4.000000,91.000000,,,,0.000000,4.000000,4.000000,4.000000,4.000000,4.000000,4.000000,4.000000,4.000000,4.000000,4.000000,4.000000,4.000000,4.000000,4.000000,100.000000,,,,,,,,,,,,,,,,
1645708125.952993,74.000000,0.000000,4158.717773,4149.743652,4155.897461,4176.282227,4153.077148,4163.717773,4161.025879,4154.102539,4184.358887,4190.000000,4161.666504,4180.128418,4192.179688,4249.230957,0.000000,4.000000,91.000000,,,,0.000000,4.000000,4.000000,4.000000,4.000000,4.000000,4.000000,4.000000,4.000000,4.000000,4.000000,4.000000,4.000000,4.000000,4.000000,100.000000,,,,,,,,,,,,,,,,
1645708125.956933,75.000000,0.000000,4158.846191,4146.794922,4156.025879,4175.256348,4162.820313,4170.897461,4166.666504,4160.384766,4187.948730,4195.384766,4169.102539,4183.333496,4194.102539,4251.025879,0.000000,4.000000,91.000000,,,,0.000000,4.000000,4.000000,4.000000,4.000000,4.000000,4.000000,4.000000,4.000000,4.000000,4.000000,4.000000,4.000000,4.000000,4.000000,100.000000,,,,,,,,,,,,,,,,
1645708125.960873,76.000000,0.000000,4156.410156,4145.256348,4155.384766,4172.820313,4167.692383,4173.333496,4167.692383,4163.717773,4189.487305,4197.948730,4172.307617,4180.000000,4195.000000,4250.512695,0.000000,4.000000,91.000000,,,,0.000000,4.000000,4.000000,4.000000,4.000000,4.000000,4.000000,4.000000,4.000000,4.000000,4.000000,4.000000,4.000000,4.000000,4.000000,100.000000,,,,,,,,,,,,,,,,
1645708125.964813,77.000000,0.000000,4153.461426,4147.563965,4154.487305,4170.128418,4164.230957,4169.230957,4163.333496,4162.563965,4187.307617,4196.538574,4168.077148,4172.307617,4194.102539,4247.307617,0.000000,4.000000,91.000000,,,,0.000000,4.000000,4.000000,4.000000,4.000000,4.000000,4.000000,4.000000,4.000000,4.000000,4.000000,4.000000,4.000000,4.000000,4.000000,100.000000,,,,,,,,,,,,,,,,
1645708125.968753,78.000000,0.000000,4152.692383,4153.846191,4153.333496,4168.974121,4155.000000,4161.538574,4156.538574,4157.307617,4183.077148,4192.179688,4158.461426,4165.641113,4191.666504,4243.333496,0.000000,4.000000,91.000000,,,,0.000000,4.000000,4.000000,4.000000,4.000000,4.000000,4.000000,4.000000,4.000000,4.000000,4.000000,4.000000,4.000000,4.000000,4.000000,100.000000,,,,,,,,,,,,,,,,
1645708125.972693,79.000000,0.000000,4155.897461,4161.410156,4152.436035,4170.512695,4146.410156,4155.256348,4151.922852,4151.025879,4178.974121,4187.051270,4149.743652,4163.717773,4188.461426,4240.769043,0.000000,4.000000,91.000000,,,,0.000000,4.000000,4.000000,4.000000,4.000000,4.000000,4.000000,4.000000,4.000000,4.000000,4.000000,4.000000,4.000000,4.000000,4.000000,100.000000,,,,,,,,,,,,,,,,
1645708125.976634,80.000000,0.000000,4161.794922,4167.307617,4152.692383,4173.717773,4144.743652,4154.487305,4151.922852,4147.820313,4176.922852,4183.077148,4146.794922,4166.538574,4185.512695,4240.769043,0.000000,4.000000,91.000000,,,,0.000000,4.000000,4.000000,4.000000,4.000000,4.000000,4.000000,4.000000,4.000000,4.000000,4.000000,4.000000,4.000000,4.000000,4.000000,100.000000,,,,,,,,,,,,,,,,
1645708125.980574,81.000000,0.000000,4167.179688,4170.512695,4154.743652,4176.922852,4150.769043,4158.589844,4155.384766,4149.358887,4177.307617,4180.128418,4149.615234,4170.641113,4183.205078,4242.563965,0.000000,4.000000,91.000000,,,,0.000000,4.000000,4.000000,4.000000,4.000000,4.000000,4.000000,4.000000,4.000000,4.000000,4.000000,4.000000,4.000000,4.000000,4.000000,100.000000,,,,,,,,,,,,,,,,
1645708125.984514,82.000000,0.000000,4170.000000,4172.051270,4158.717773,4179.487305,4160.000000,4163.717773,4158.974121,4153.205078,4179.615234,4177.051270,4153.974121,4172.820313,4181.410156,4244.871582,0.000000,4.000000,91.000000,,,,0.000000,4.000000,4.000000,4.000000,4.000000,4.000000,4.000000,4.000000,4.000000,4.000000,4.000000,4.000000,4.000000,4.000000,4.000000,100.000000,,,,,,,,,,,,,,,,
1645708125.988454,83.000000,0.000000,4170.769043,4173.717773,4163.589844,4181.794922,4166.666504,4166.153809,4159.487305,4155.769043,4182.820313,4174.358887,4156.153809,4172.563965,4180.128418,4246.922852,0.000000,4.000000,91.000000,,,,0.000000,4.000000,4.000000,4.000000,4.000000,4.000000,4.000000,4.000000,4.000000,4.000000,4.000000,4.000000,4.000000,4.000000,4.000000,100.000000,,,,,,,,,,,,,,,,
1645708125.992394,84.000000,0.000000,4171.794922,4176.538574,4167.820313,4184.871582,4168.589844,4165.384766,4156.922852,4155.384766,4185.128418,4174.230957,4155.000000,4171.794922,4180.000000,4249.487305,0.000000,4.000000,91.000000,,,,0.000000,4.000000,4.000000,4.000000,4.000000,4.000000,4.000000,4.000000,4.000000,4.000000,4.000000,4.000000,4.000000,4.000000,4.000000,100.000000,,,,,,,,,,,,,,,,
1645708125.996334,85.000000,0.000000,4174.487305,4179.871582,4170.128418,4188.205078,4167.179688,4163.077148,4153.077148,4153.717773,4185.641113,4178.077148,4152.307617,4172.307617,4181.282227,4252.436035,0.000000,4.000000,91.000000,1,1,3,0.000000,4.000000,4.000000,4.000000,4.000000,4.000000,4.000000,4.000000,4.000000,4.000000,4.000000,4.000000,4.000000,4.000000,4.000000,100.000000,,,,,,,,,,,,,,,,
1645708126.000274,86.000000,0.000000,4177.436035,4182.051270,4170.000000,4190.256348,4164.871582,4161.282227,4151.025879,4153.333496,4184.743652,4184.871582,4151.025879,4174.102539,4183.077148,4254.743652,0.000000,4.000000,91.000000,,,,0.000000,4.000000,4.000000,4.000000,4.000000,4.000000,4.000000,4.000000,4.000000,4.000000,4.000000,4.000000,4.000000,4.000000,4.000000,100.000000,,,,,,,,,,,,,,,,
1645708126.004214,87.000000,0.000000,4178.333496,4182.179688,4167.692383,4189.615234,4163.333496,4161.153809,4152.051270,4155.256348,4183.974121,4191.025879,4152.307617,4175.128418,4183.589844,4255.128418,0.000000,4.000000,91.000000,,,,0.000000,4.000000,4.000000,4.000000,4.000000,4.000000,4.000000,4.000000,4.000000,4.000000,4.000000,4.000000,4.000000,4.000000,4.000000,100.000000,,,,,,,,,,,,,,,,
1645708126.008154,88.000000,0.000000,4175.256348,4180.769043,4164.487305,4186.794922,4163.461426,4162.692383,4155.000000,4157.948730,4184.871582,4193.461426,4155.512695,4174.102539,4182.692383,4253.205078,0.000000,4.000000,91.000000,,,,0.000000,4.000000,4.000000,4.000000,4.000000,4.000000,4.000000,4.000000,4.000000,4.000000,4.000000,4.000000,4.000000,4.000000,4.000000,100.000000,,,,,,,,,,,,,,,,
1645708126.012095,89.000000,0.000000,4169.358887,4178.974121,4161.538574,4183.974121,4165.512695,4165.256348,4157.436035,4158.974121,4186.666504,4191.666504,4158.974121,4170.769043,4181.666504,4250.256348,0.000000,4.000000,91.000000,,,,0.000000,4.000000,4.000000,4.000000,4.000000,4.000000,4.000000,4.000000,4.000000,4.000000,4.000000,4.000000,4.000000,4.000000,4.000000,100.000000,,,,,,,,,,,,,,,,
1645708126.016035,90.000000,0.000000,4163.077148,4177.436035,4158.846191,4183.205078,4169.230957,4167.436035,4157.820313,4157.436035,4187.563965,4186.666504,4160.128418,4166.282227,4181.410156,4247.563965,0.000000,4.000000,91.000000,,,,0.000000,4.000000,4.000000,4.000000,4.000000,4.000000,4.000000,4.000000,4.000000,4.000000,4.000000,4.000000,4.000000,4.000000,4.000000,100.000000,,,,,,,,,,,,,,,,
1645708126.019875,91.000000,0.000000,4158.205078,4175.256348,4156.153809,4184.487305,4172.307617,4168.333496,4157.051270,4154.615234,4186.538574,4181.025879,4157.948730,4161.410156,4180.769043,4245.384766,0.000000,4.000000,91.000000,,,,0.000000,4.000000,4.000000,4.000000,4.000000,4.000000,4.000000,4.000000,4.000000,4.000000,4.000000,4.000000,4.000000,4.000000,4.000000,100.000000,,,,,,,,,,,,,,,,
1645708126.023815,92.000000,0.000000,4154.743652,4171.794922,4152.563965,4186.922852,4172.436035,4167.948730,4156.794922,4152.051270,4183.846191,4176.538574,4153.205078,4156.794922,4178.205078,4241.922852,0.000000,4.000000,91.000000,,,,0.000000,4.000000,4.000000,4.000000,4.000000,4.000000,4.000000,4.000000,4.000000,4.000000,4.000000,4.000000,4.000000,4.000000,4.000000,100.000000,,,,,,,,,,,,,,,,
1645708126.027755,93.000000,0.000000,4151.666504,4168.589844,4148.333496,4189.615234,4169.102539,4166.922852,4157.692383,4150.641113,4181.153809,4175.000000,4148.589844,4152.820313,4173.461426,4235.769043,0.000000,4.000000,91.000000,,,,0.000000,4.000000,4.000000,4.000000,4.000000,4.000000,4.000000,4.000000,4.000000,4.000000,4.000000,4.000000,4.000000,4.000000,4.000000,100.000000,,,,,,,,,,,,,,,,
1645708126.031695,94.000000,0.000000,4148.717773,4167.563965,4144.358887,4192.051270,4163.846191,4165.641113,4158.077148,4150.256348,4180.384766,4175.897461,4146.153809,4151.025879,4167.820313,4228.077148,0.000000,4.000000,91.000000,,,,0.000000,4.000000,4.000000,4.000000,4.000000,4.000000,4.000000,4.000000,4.000000,4.000000,4.000000,4.000000,4.000000,4.000000,4.000000,100.000000,,,,,,,,,,,,,,,,
1645708126.035635,95.000000,0.000000,4146.153809,4168.846191,4141.538574,4193.205078,4158.974121,4164.358887,4156.538574,4150.128418,4181.922852,4177.307617,4146.025879,4151.666504,4163.077148,4221.282227,0.000000,4.000000,91.000000,,,,0.000000,4.000000,4.000000,4.000000,4.000000,4.000000,4.000000,4.000000,4.000000,4.000000,4.000000,4.000000,4.000000,4.000000,4.000000,100.000000,,,,,,,,,,,,,,,,
1645708126.039575,96.000000,0.000000,4144.487305,4170.128418,4140.000000,4192.179688,4156.410156,4163.205078,4153.717773,4150.000000,4184.102539,4177.051270,4146.153809,4153.333496,4160.128418,4217.051270,0.000000,4.000000,91.000000,,,,0.000000,4.000000,4.000000,4.000000,4.000000,4.000000,4.000000,4.000000,4.000000,4.000000,4.000000,4.000000,4.000000,4.000000,4.000000,100.000000,,,,,,,,,,,,,,,,
1645708126.043515,97.000000,0.000000,4144.230957,4169.743652,4139.230957,4188.717773,4157.179688,4162.692383,4151.794922,4150.000000,4184.871582,4175.000000,4145.384766,4153.846191,4159.358887,4215.769043,0.000000,4.000000,91.000000,,,,0.000000,4.000000,4.000000,4.000000,4.000000,4.000000,4.000000,4.000000,4.000000,4.000000,4.000000,4.000000,4.000000,4.000000,4.000000,100.000000,,,,,,,,,,,,,,,,
1645708126.047356,98.000000,0.000000,4145.128418,4168.846191,4138.333496,4184.230957,4161.025879,4163.205078,4152.307617,4150.384766,4183.077148,4172.563965,4144.487305,4151.410156,4160.384766,4217.179688,0.000000,4.000000,91.000000,,,,0.000000,4.000000,4.000000,4.000000,4.000000,4.000000,4.000000,4.000000,4.000000,4.000000,4.000000,4.000000,4.000000,4.000000,4.000000,100.000000,,,,,,,,,,,,,,,,
1645708126.051296,99.000000,0.000000,4145.897461,4169.743652,4136.666504,4180.641113,4166.410156,4164.871582,4154.871582,4151.025879,4179.358887,4171.410156,4144.871582,4147.307617,4162.692383,4221.025879,0.000000,4.000000,91.000000,,,,0.000000,4.000000,4.000000,4.000000,4.000000,4.000000,4.000000,4.000000,4.000000,4.000000,4.000000,4.000000,4.000000,4.000000,4.000000,100.000000,,,,,,,,,,,,,,,,
1645708126.055336,100.000000,0.000000,4145.769043,4172.307617,4134.743652,4179.230957,4170.769043,4166.666504,4157.563965,4150.769043,4176.153809,4171.538574,4146.410156,4143.974121,4165.000000,4225.769043,0.000000,4.000000,91.000000,,,,0.000000,4.000000,4.000000,4.000000,4.000000,4.000000,4.000000,4.000000,4.000000,4.000000,4.000000,4.000000,4.000000,4.000000,4.000000,100.000000,,,,,,,,,,,,,,,,
1645708126.059276,101.000000,0.000000,4144.615234,4175.000000,4133.461426,4180.128418,4171.666504,4166.922852,4158.461426,4149.487305,4175.769043,4172.051270,4147.563965,4143.717773,4166.410156,4229.358887,0.000000,4.000000,91.000000,,,,0.000000,4.000000,4.000000,4.000000,4.000000,4.000000,4.000000,4.000000,4.000000,4.000000,4.000000,4.000000,4.000000,4.000000,4.000000,100.000000,,,,,,,,,,,,,,,,
1645708126.063216,102.000000,0.000000,4143.846191,4175.897461,4133.974121,4182.051270,4169.102539,4165.512695,4157.179688,4148.205078,4178.333496,4172.820313,4148.077148,4145.897461,4166.922852,4229.871582,0.000000,4.000000,91.000000,,,,0.000000,4.000000,4.000000,4.000000,4.000000,4.000000,4.000000,4.000000,4.000000,4.000000,4.000000,4.000000,4.000000,4.000000,4.000000,100.000000,,,,,,,,,,,,,,,,
1645708126.067156,103.000000,0.000000,4145.000000,4176.025879,4136.282227,4183.717773,4165.512695,4163.974121,4154.871582,4148.846191,4181.922852,4174.615234,4148.974121,4149.102539,4167.307617,4227.948730,0.000000,4.000000,91.000000,,,,0.000000,4.000000,4.000000,4.000000,4.000000,4.000000,4.000000,4.000000,4.000000,4.000000,4.000000,4.000000,4.000000,4.000000,4.000000,100.000000,,,,,,,,,,,,,,,,
1645708126.071096,104.000000,0.000000,4148.717773,4177.179688,4139.230957,4184.358887,4163.846191,4164.487305,4152.692383,4152.051270,4183.974121,4178.461426,4151.922852,4151.922852,4168.205078,4225.512695,0.000000,4.000000,91.000000,,,,0.000000,4.000000,4.000000,4.000000,4.000000,4.000000,4.000000,4.000000,4.000000,4.000000,4.000000,4.000000,4.000000,4.000000,4.000000,100.000000,,,,,,,,,,,,,,,,
1645708126.075036,105.000000,0.000000,4153.974121,4179.871582,4141.666504,4184.743652,4166.025879,4167.820313,4151.153809,4156.538574,4184.230957,4183.333496,4156.666504,4154.615234,4170.384766,4224.487305,0.000000,4.000000,91.000000,,,,0.000000,4.000000,4.000000,4.000000,4.000000,4.000000,4.000000,4.000000,4.000000,4.000000,4.000000,4.000000,4.000000,4.000000,4.000000,100.000000,,,,,,,,,,,,,,,,
1645708126.078976,106.000000,0.000000,4159.230957,4182.948730,4143.205078,4185.512695,4171.153809,4172.820313,4150.897461,4161.153809,4184.871582,4187.051270,4161.410156,4157.948730,4173.846191,4225.512695,0.000000,4.000000,91.000000,,,,0.000000,4.000000,4.000000,4.000000,4.000000,4.000000,4.000000,4.000000,4.000000,4.000000,4.000000,4.000000,4.000000,4.000000,4.000000,100.000000,,,,,,,,,,,,,,,,
1645708126.082917,107.000000,0.000000,4162.948730,4184.871582,4144.871582,4186.538574,4176.282227,4176.666504,4152.692383,4165.512695,4187.563965,4188.461426,4164.102539,4161.794922,4177.307617,4228.461426,0.000000,4.000000,91.000000,,,,0.000000,4.000000,4.000000,4.000000,4.000000,4.000000,4.000000,4.000000,4.000000,4.000000,4.000000,4.000000,4.000000,4.000000,4.000000,100.000000,,,,,,,,,,,,,,,,
1645708126.086857,108.000000,0.000000,4164.615234,4184.615234,4147.948730,4187.692383,4178.461426,4178.077148,4156.410156,4170.128418,4191.922852,4189.230957,4164.615234,4165.256348,4180.000000,4232.948730,0.000000,4.000000,91.000000,,,,0.000000,4.000000,4.000000,4.000000,4.000000,4.000000,4.000000,4.000000,4.000000,4.000000,4.000000,4.000000,4.000000,4.000000,4.000000,100.000000,,,,,,,,,,,,,,,,
1645708126.090897,109.000000,0.000000,4164.871582,4183.205078,4152.051270,4189.102539,4176.153809,4177.307617,4161.410156,4175.000000,4196.025879,4191.794922,4164.230957,4167.563965,4180.512695,4237.563965,0.000000,4.000000,91.000000,,,,0.000000,4.000000,4.000000,4.000000,4.000000,4.000000,4.000000,4.000000,4.000000,4.000000,4.000000,4.000000,4.000000,4.000000,4.000000,100.000000,,,,,,,,,,,,,,,,
1645708126.094837,110.000000,0.000000,4164.871582,4181.922852,4155.897461,4190.512695,4170.128418,4176.282227,4165.641113,4178.461426,4198.077148,4196.794922,4164.487305,4168.333496,4178.205078,4240.384766,0.000000,4.000000,91.000000,2,1,3,0.000000,4.000000,4.000000,4.000000,4.000000,4.000000,4.000000,4.000000,4.000000,4.000000,4.000000,4.000000,4.000000,4.000000,4.000000,100.000000,,,,,,,,,,,,,,,,
1645708126.098777,111.000000,0.000000,4164.871582,4181.410156,4157.820313,4190.769043,4162.948730,4176.538574,4167.563965,4178.589844,4197.179688,4201.794922,4165.256348,4167.820313,4173.589844,4239.743652,0.000000,4.000000,91.000000,,,,0.000000,4.000000,4.000000,4.000000,4.000000,4.000000,4.000000,4.000000,4.000000,4.000000,4.000000,4.000000,4.000000,4.000000,4.000000,100.000000,,,,,,,,,,,,,,,,
1645708126.102717,112.000000,0.000000,4165.000000,4182.179688,4157.820313,4188.717773,4158.717773,4177.948730,4167.563965,4175.256348,4194.102539,4203.461426,4165.897461,4166.538574,4169.487305,4235.897461,0.000000,4.000000,91.000000,,,,0.000000,4.000000,4.000000,4.000000,4.000000,4.000000,4.000000,4.000000,4.000000,4.000000,4.000000,4.000000,4.000000,4.000000,4.000000,100.000000,,,,,,,,,,,,,,,,
1645708126.106657,113.000000,0.000000,4165.897461,4183.974121,4156.666504,4185.000000,4160.897461,4179.743652,4166.922852,4169.487305,4190.512695,4200.769043,4165.641113,4165.384766,4168.846191,4231.025879,0.000000,4.000000,91.000000,,,,0.000000,4.000000,4.000000,4.000000,4.000000,4.000000,4.000000,4.000000,4.000000,4.000000,4.000000,4.000000,4.000000,4.000000,4.000000,100.000000,,,,,,,,,,,,,,,,
1645708126.110597,114.000000,0.000000,4167.179688,4185.641113,4155.512695,4182.563965,4170.000000,4181.666504,4167.436035,4163.846191,4187.948730,4195.897461,4165.128418,4164.487305,4171.794922,4228.461426,0.000000,4.000000,91.000000,,,,0.000000,4.000000,4.000000,4.000000,4.000000,4.000000,4.000000,4.000000,4.000000,4.000000,4.000000,4.000000,4.000000,4.000000,4.000000,100.000000,,,,,,,,,,,,,,,,
1645708126.114537,115.000000,0.000000,4167.948730,4185.769043,4154.487305,4183.333496,4181.025879,4182.692383,4168.333496,4159.743652,4187.179688,4192.179688,4164.615234,4162.820313,4175.128418,4228.589844,0.000000,4.000000,91.000000,,,,0.000000,4.000000,4.000000,4.000000,4.000000,4.000000,4.000000,4.000000,4.000000,4.000000,4.000000,4.000000,4.000000,4.000000,4.000000,100.000000,,,,,,,,,,,,,,,,
1645708126.118477,116.000000,0.000000,4167.051270,4183.333496,4154.102539,4186.794922,4186.922852,4182.179688,4167.948730,4157.820313,4187.179688,4191.025879,4163.717773,4159.358887,4174.743652,4229.358887,0.000000,4.000000,91.000000,,,,0.000000,4.000000,4.000000,4.000000,4.000000,4.000000,4.000000,4.000000,4.000000,4.000000,4.000000,4.000000,4.000000,4.000000,4.000000,100.000000,,,,,,,,,,,,,,,,
1645708126.122417,117.000000,0.000000,4163.846191,4178.846191,4154.102539,4190.512695,4183.589844,4180.128418,4165.000000,4157.307617,4186.666504,4191.538574,4162.436035,4154.358887,4170.384766,4227.948730,0.000000,4.000000,91.000000,,,,0.000000,4.000000,4.000000,4.000000,4.000000,4.000000,4.000000,4.000000,4.000000,4.000000,4.000000,4.000000,4.000000,4.000000,4.000000,100.000000,,,,,,,,,,,,,,,,
1645708126.126358,118.000000,0.000000,4159.871582,4174.615234,4154.358887,4191.922852,4173.846191,4177.948730,4160.769043,4157.179688,4185.384766,4192.051270,4160.897461,4150.000000,4165.384766,4224.743652,0.000000,4.000000,91.000000,,,,0.000000,4.000000,4.000000,4.000000,4.000000,4.000000,4.000000,4.000000,4.000000,4.000000,4.000000,4.000000,4.000000,4.000000,4.000000,100.000000,,,,,,,,,,,,,,,,
1645708126.130298,119.000000,0.000000,4156.922852,4172.820313,4153.846191,4189.871582,4164.487305,4177.051270,4157.692383,4156.282227,4184.102539,4191.410156,4160.384766,4148.589844,4163.974121,4221.666504,0.000000,4.000000,91.000000,,,,0.000000,4.000000,4.000000,4.000000,4.000000,4.000000,4.000000,4.000000,4.000000,4.000000,4.000000,4.000000,4.000000,4.000000,4.000000,100.000000,,,,,,,,,,,,,,,,
1645708126.134238,120.000000,0.000000,4156.282227,4173.846191,4152.051270,4185.641113,4161.410156,4177.820313,4157.692383,4154.487305,4183.846191,4189.615234,4161.538574,4150.512695,4166.666504,4220.512695,0.000000,4.000000,91.000000,,,,0.000000,4.000000,4.000000,4.000000,4.000000,4.000000,4.000000,4.000000,4.000000,4.000000,4.000000,4.000000,4.000000,4.000000,4.000000,100.000000,,,,,,,,,,,,,,,,
1645708126.138178,121.000000,0.000000,4157.179688,4175.512695,4150.128418,4181.538574,4164.871582,4179.358887,4160.384766,4152.948730,4185.256348,4187.692383,4163.717773,4154.358887,4170.897461,4221.153809,0.000000,4.000000,91.000000,,,,0.000000,4.000000,4.000000,4.000000,4.000000,4.000000,4.000000,4.000000,4.000000,4.000000,4.000000,4.000000,4.000000,4.000000,4.000000,100.000000,,,,,,,,,,,,,,,,
1645708126.142118,122.000000,0.000000,4158.205078,4175.128418,4148.846191,4179.358887,4170.512695,4180.384766,4163.717773,4153.461426,4186.922852,4186.410156,4165.256348,4156.922852,4172.948730,4222.692383,0.000000,4.000000,91.000000,,,,0.000000,4.000000,4.000000,4.000000,4.000000,4.000000,4.000000,4.000000,4.000000,4.000000,4.000000,4.000000,4.000000,4.000000,4.000000,100.000000,,,,,,,,,,,,,,,,
1645708126.146058,123.000000,0.000000,4158.589844,4172.436035,4148.461426,4179.615234,4174.230957,4180.384766,4165.641113,4156.410156,4187.051270,4185.256348,4164.230957,4157.051270,4171.282227,4224.615234,0.000000,4.000000,91.000000,,,,0.000000,4.000000,4.000000,4.000000,4.000000,4.000000,4.000000,4.000000,4.000000,4.000000,4.000000,4.000000,4.000000,4.000000,4.000000,100.000000,,,,,,,,,,,,,,,,
1645708126.149998,124.000000,0.000000,4159.487305,4170.000000,4148.461426,4181.794922,4175.128418,4180.384766,4165.128418,4160.256348,4185.256348,4184.230957,4160.769043,4155.769043,4168.589844,4227.307617,0.000000,4.000000,91.000000,,,,0.000000,4.000000,4.000000,4.000000,4.000000,4.000000,4.000000,4.000000,4.000000,4.000000,4.000000,4.000000,4.000000,4.000000,4.000000,100.000000,,,,,,,,,,,,,,,,
1645708126.153938,125.000000,0.000000,4162.820313,4171.410156,4148.461426,4184.487305,4175.256348,4181.025879,4162.563965,4162.692383,4183.333496,4183.846191,4157.692383,4155.384766,4168.589844,4231.922852,0.000000,4.000000,91.000000,,,,0.000000,4.000000,4.000000,4.000000,4.000000,4.000000,4.000000,4.000000,4.000000,4.000000,4.000000,4.000000,4.000000,4.000000,4.000000,100.000000,,,,,,,,,,,,,,,,
1645708126.157878,126.000000,0.000000,4169.743652,4177.948730,4149.487305,4186.922852,4176.410156,4182.051270,4159.358887,4162.948730,4183.589844,4186.153809,4158.205078,4157.563965,4173.589844,4238.717773,0.000000,4.000000,91.000000,,,,0.000000,4.000000,4.000000,4.000000,4.000000,4.000000,4.000000,4.000000,4.000000,4.000000,4.000000,4.000000,4.000000,4.000000,4.000000,100.000000,,,,,,,,,,,,,,,,
1645708126.161819,127.000000,0.000000,4178.717773,4187.179688,4152.692383,4189.487305,4178.589844,4182.563965,4157.307617,4162.820313,4186.153809,4192.051270,4163.461426,4162.307617,4181.794922,4246.794922,0.000000,4.000000,91.000000,,,,0.000000,4.000000,4.000000,4.000000,4.000000,4.000000,4.000000,4.000000,4.000000,4.000000,4.000000,4.000000,4.000000,4.000000,4.000000,100.000000,,,,,,,,,,,,,,,,
1645708126.165659,128.000000,0.000000,4187.051270,4195.000000,4158.333496,4193.333496,4180.000000,4182.307617,4157.179688,4163.846191,4190.000000,4200.256348,4171.794922,4168.077148,4189.743652,4254.230957,3246.000000,4.000000,91.000000,,,,0.000000,4.000000,4.000000,4.000000,4.000000,4.000000,4.000000,4.000000,4.000000,4.000000,4.000000,4.000000,4.000000,4.000000,4.000000,100.000000,,,,,,,,,,,,,,,,
1645708126.169599,129.000000,0.000000,4192.820313,4198.717773,4164.743652,4198.461426,4180.128418,4182.051270,4158.717773,4166.282227,4193.077148,4207.692383,4179.358887,4172.820313,4194.358887,4259.102539,3394.000000,4.000000,91.000000,,,,0.000000,4.000000,4.000000,4.000000,4.000000,4.000000,4.000000,4.000000,4.000000,4.000000,4.000000,4.000000,4.000000,4.000000,4.000000,100.000000,,,,,,,,,,,,,,,,
1645708126.173539,130.000000,0.000000,4196.153809,4198.846191,4170.000000,4203.846191,4179.743652,4182.436035,4160.128418,4168.077148,4193.846191,4211.153809,4183.333496,4175.256348,4195.000000,4260.384766,3604.000000,4.000000,91.000000,,,,0.000000,4.000000,4.000000,4.000000,4.000000,4.000000,4.000000,4.000000,4.000000,4.000000,4.000000,4.000000,4.000000,4.000000,4.000000,100.000000,,,,,,,,,,,,,,,,
1645708126.177479,131.000000,0.000000,4197.051270,4197.051270,4172.563965,4207.051270,4180.000000,4183.461426,4160.384766,4167.820313,4192.051270,4209.487305,4182.692383,4175.128418,4192.820313,4258.461426,3487.000000,4.000000,91.000000,,,,0.000000,4.000000,4.000000,4.000000,4.000000,4.000000,4.000000,4.000000,4.000000,4.000000,4.000000,4.000000,4.000000,4.000000,4.000000,100.000000,,,,,,,,,,,,,,,,
1645708126.181419,132.000000,0.000000,4195.769043,4193.974121,4172.563965,4206.153809,4181.153809,4184.487305,4159.615234,4166.025879,4189.230957,4203.333496,4178.333496,4173.077148,4188.846191,4253.717773,3652.000000,4.000000,91.000000,,,,0.000000,4.000000,4.000000,4.000000,4.000000,4.000000,4.000000,4.000000,4.000000,4.000000,4.000000,4.000000,4.000000,4.000000,4.000000,100.000000,,,,,,,,,,,,,,,,
1645708126.185359,133.000000,0.000000,4192.051270,4189.230957,4171.025879,4201.666504,4182.179688,4184.743652,4158.589844,4163.846191,4187.179688,4195.769043,4172.692383,4170.384766,4184.358887,4247.820313,3411.000000,4.000000,91.000000,,,,0.000000,4.000000,4.000000,4.000000,4.000000,4.000000,4.000000,4.000000,4.000000,4.000000,4.000000,4.000000,4.000000,4.000000,4.000000,100.000000,,,,,,,,,,,,,,,,
1645708126.189299,134.000000,0.000000,4187.307617,4183.461426,4168.846191,4195.512695,4181.410156,4184.487305,4157.820313,4162.436035,4187.179688,4190.641113,4167.948730,4168.205078,4180.128418,4242.563965,3229.000000,4.000000,91.000000,,,,0.000000,4.000000,4.000000,4.000000,4.000000,4.000000,4.000000,4.000000,4.000000,4.000000,4.000000,4.000000,4.000000,4.000000,4.000000,100.000000,,,,,,,,,,,,,,,,
1645708126.193239,135.000000,0.000000,4183.205078,4178.589844,4166.922852,4189.871582,4177.563965,4183.846191,4157.051270,4162.051270,4188.333496,4190.000000,4165.256348,4167.051270,4176.666504,4238.846191,2767.000000,4.000000,91.000000,,,,0.000000,4.000000,4.000000,4.000000,4.000000,4.000000,4.000000,4.000000,4.000000,4.000000,4.000000,4.000000,4.000000,4.000000,4.000000,100.000000,,,,,,,,,,,,,,,,
1645708126.197180,136.000000,0.000000,4180.512695,4176.410156,4165.897461,4186.282227,4170.897461,4183.717773,4156.922852,4162.436035,4189.230957,4192.436035,4163.846191,4166.922852,4174.102539,4236.025879,1448.000000,4.000000,91.000000,,,,0.000000,4.000000,4.000000,4.000000,4.000000,4.000000,4.000000,4.000000,4.000000,4.000000,4.000000,4.000000,4.000000,4.000000,4.000000,100.000000,,,,,,,,,,,,,,,,
1645708126.201120,137.000000,0.000000,4178.589844,4176.666504,4166.153809,4185.128418,4163.717773,4184.102539,4158.333496,4162.820313,4188.589844,4194.358887,4162.307617,4167.051270,4171.794922,4233.077148,3274.000000,4.000000,91.000000,,,,0.000000,4.000000,4.000000,4.000000,4.000000,4.000000,4.000000,4.000000,4.000000,4.000000,4.000000,4.000000,4.000000,4.000000,4.000000,100.000000,,,,,,,,,,,,,,,,
1645708126.205060,138.000000,0.000000,4176.794922,4177.820313,4167.307617,4185.384766,4159.871582,4185.000000,4161.282227,4162.948730,4186.282227,4192.820313,4159.102539,4166.025879,4169.102539,4229.358887,2662.000000,4.000000,91.000000,,,,0.000000,4.000000,4.000000,4.000000,4.000000,4.000000,4.000000,4.000000,4.000000,4.000000,4.000000,4.000000,4.000000,4.000000,4.000000,100.000000,,,,,,,,,,,,,,,,
1645708126.209000,139.000000,0.000000,4174.615234,4178.077148,4168.205078,4186.153809,4161.666504,4186.282227,4164.358887,4162.307617,4183.333496,4188.333496,4154.743652,4163.205078,4165.512695,4225.128418,3431.000000,4.000000,91.000000,,,,0.000000,4.000000,4.000000,4.000000,4.000000,4.000000,4.000000,4.000000,4.000000,4.000000,4.000000,4.000000,4.000000,4.000000,4.000000,100.000000,,,,,,,,,,,,,,,,
1645708126.212940,140.000000,0.000000,4172.436035,4176.410156,4167.820313,4186.794922,4168.077148,4188.077148,4165.897461,4161.794922,4181.922852,4183.333496,4150.641113,4159.358887,4162.436035,4222.051270,3481.000000,4.000000,91.000000,,,,0.000000,4.000000,4.000000,4.000000,4.000000,4.000000,4.000000,4.000000,4.000000,4.000000,4.000000,4.000000,4.000000,4.000000,4.000000,100.000000,,,,,,,,,,,,,,,,
1645708126.216880,141.000000,0.000000,4170.000000,4172.820313,4165.769043,4187.179688,4175.128418,4190.128418,4165.897461,4162.436035,4183.205078,4180.641113,4148.333496,4156.410156,4161.153809,4221.410156,3272.000000,4.000000,91.000000,,,,0.000000,4.000000,4.000000,4.000000,4.000000,4.000000,4.000000,4.000000,4.000000,4.000000,4.000000,4.000000,4.000000,4.000000,4.000000,100.000000,,,,,,,,,,,,,,,,
1645708126.220820,142.000000,0.000000,4167.179688,4168.205078,4163.077148,4187.436035,4178.333496,4192.051270,4166.153809,4165.641113,4186.153809,4180.769043,4148.846191,4156.025879,4162.051270,4223.077148,2662.000000,4.000000,91.000000,,,,0.000000,4.000000,4.000000,4.000000,4.000000,4.000000,4.000000,4.000000,4.000000,4.000000,4.000000,4.000000,4.000000,4.000000,4.000000,100.000000,1.000000,75.000000,4.000000,4.000000,3.000000,4.000000,4.000000,3.000000,3.000000,4.000000,4.000000,4.000000,4.000000,4.000000,4.000000,4.000000
1645708126.224760,143.000000,0.000000,4165.128418,4165.000000,4161.282227,4187.692383,4176.666504,4193.333496,4168.205078,4170.769043,4188.846191,4183.589844,4152.563965,4158.333496,4163.974121,4225.897461,3431.000000,4.000000,91.000000,,,,0.000000,4.000000,4.000000,4.000000,4.000000,4.000000,4.000000,4.000000,4.000000,4.000000,4.000000,4.000000,4.000000,4.000000,4.000000,100.000000,,,,,,,,,,,,,,,,
1645708126.228700,144.000000,0.000000,4165.769043,4166.153809,4161.538574,4188.461426,4173.205078,4193.846191,4171.153809,4176.410156,4190.769043,4189.230957,4158.846191,4162.692383,4165.384766,4228.461426,3481.000000,4.000000,91.000000,,,,0.000000,4.000000,4.000000,4.000000,4.000000,4.000000,4.000000,4.000000,4.000000,4.000000,4.000000,4.000000,4.000000,4.000000,4.000000,100.000000,,,,,,,,,,,,,,,,
1645708126.232641,145.000000,0.000000,4169.871582,4172.179688,4163.846191,4190.769043,4172.179688,4194.358887,4173.333496,4180.512695,4192.948730,4197.563965,4165.897461,4167.051270,4165.641113,4229.743652,3272.000000,4.000000,91.000000,,,,0.000000,4.000000,4.000000,4.000000,4.000000,4.000000,4.000000,4.000000,4.000000,4.000000,4.000000,4.000000,4.000000,4.000000,4.000000,100.000000,,,,,,,,,,,,,,,,
1645708126.236581,146.000000,0.000000,4176.282227,4180.641113,4166.410156,4194.487305,4174.871582,4195.000000,4173.461426,4182.051270,4195.641113,4206.666504,4170.512695,4169.487305,4164.615234,4230.000000,2662.000000,4.000000,91.000000,,,,0.000000,4.000000,4.000000,4.000000,4.000000,4.000000,4.000000,4.000000,4.000000,4.000000,4.000000,4.000000,4.000000,4.000000,4.000000,100.000000,,,,,,,,,,,,,,,,
1645708126.240621,147.000000,0.000000,4181.410156,4186.410156,4167.692383,4198.205078,4177.692383,4194.871582,4171.794922,4180.897461,4197.820313,4212.436035,4170.128418,4168.846191,4163.077148,4229.487305,3431.000000,4.000000,91.000000,,,,0.000000,4.000000,4.000000,4.000000,4.000000,4.000000,4.000000,4.000000,4.000000,4.000000,4.000000,4.000000,4.000000,4.000000,4.000000,100.000000,,,,,,,,,,,,,,,,
1645708126.244561,148.000000,0.000000,4182.179688,4186.410156,4166.794922,4200.000000,4177.051270,4193.333496,4169.487305,4177.692383,4197.820313,4212.051270,4165.256348,4165.641113,4162.051270,4228.333496,3481.000000,4.000000,91.000000,,,,0.000000,4.000000,4.000000,4.000000,4.000000,4.000000,4.000000,4.000000,4.000000,4.000000,4.000000,4.000000,4.000000,4.000000,4.000000,100.000000,,,,,,,,,,,,,,,,
1645708126.248501,149.000000,0.000000,4178.589844,4181.538574,4164.358887,4198.589844,4173.333496,4190.769043,4167.692383,4173.846191,4196.025879,4207.436035,4160.128418,4161.282227,4162.820313,4226.922852,3272.000000,4.000000,91.000000,,,,0.000000,4.000000,4.000000,4.000000,4.000000,4.000000,4.000000,4.000000,4.000000,4.000000,4.000000,4.000000,4.000000,4.000000,4.000000,100.000000,,,,,,,,,,,,,,,,
1645708126.252441,150.000000,0.000000,4173.589844,4176.153809,4161.666504,4194.615234,4170.000000,4188.717773,4166.922852,4171.153809,4194.615234,4203.974121,4159.230957,4157.820313,4165.897461,4224.871582,2662.000000,4.000000,91.000000,,,,0.000000,4.000000,4.000000,4.000000,4.000000,4.000000,4.000000,4.000000,4.000000,4.000000,4.000000,4.000000,4.000000,4.000000,4.000000,100.000000,,,,,,,,,,,,,,,,
1645708126.256381,151.000000,0.000000,4170.641113,4173.846191,4159.743652,4190.128418,4169.487305,4188.333496,4166.794922,4171.025879,4194.871582,4205.128418,4162.436035,4155.769043,4170.000000,4222.307617,3431.000000,4.000000,91.000000,,,,0.000000,4.000000,4.000000,4.000000,4.000000,4.000000,4.000000,4.000000,4.000000,4.000000,4.000000,4.000000,4.000000,4.000000,4.000000,100.000000,,,,,,,,,,,,,,,,
1645708126.260321,152.000000,0.000000,4170.897461,4175.897461,4159.615234,4187.692383,4171.153809,4189.358887,4166.922852,4172.820313,4196.794922,4209.230957,4165.384766,4155.000000,4172.563965,4218.717773,3481.000000,4.000000,91.000000,,,,0.000000,4.000000,4.000000,4.000000,4.000000,4.000000,4.000000,4.000000,4.000000,4.000000,4.000000,4.000000,4.000000,4.000000,4.000000,100.000000,,,,,,,,,,,,,,,,
1645708126.264261,153.000000,0.000000,4173.589844,4180.769043,4161.410156,4189.102539,4172.563965,4190.641113,4167.179688,4174.102539,4198.846191,4211.410156,4163.461426,4155.128418,4171.666504,4214.615234,3272.000000,4.000000,91.000000,,,,0.000000,4.000000,4.000000,4.000000,4.000000,4.000000,4.000000,4.000000,4.000000,4.000000,4.000000,4.000000,4.000000,4.000000,4.000000,100.000000,,,,,,,,,,,,,,,,
1645708126.268201,154.000000,0.000000,4177.179688,4186.025879,4164.487305,4194.102539,4172.692383,4191.794922,4167.948730,4173.077148,4198.974121,4208.333496,4157.179688,4155.641113,4168.461426,4210.897461,2662.000000,4.000000,91.000000,,,,0.000000,4.000000,4.000000,4.000000,4.000000,4.000000,4.000000,4.000000,4.000000,4.000000,4.000000,4.000000,4.000000,4.000000,4.000000,100.000000,,,,,,,,,,,,,,,,
1645708126.272142,155.000000,0.000000,4180.384766,4189.358887,4166.922852,4201.153809,4172.948730,4193.205078,4169.358887,4170.384766,4196.666504,4201.666504,4152.051270,4156.153809,4165.769043,4208.974121,3431.000000,4.000000,91.000000,,,,0.000000,4.000000,4.000000,4.000000,4.000000,4.000000,4.000000,4.000000,4.000000,4.000000,4.000000,4.000000,4.000000,4.000000,4.000000,100.000000,,,,,,,,,,,,,,,,
1645708126.276082,156.000000,0.000000,4181.922852,4189.743652,4167.948730,4206.666504,4175.256348,4195.256348,4171.794922,4168.205078,4192.563965,4195.384766,4152.436035,4156.025879,4166.025879,4208.974121,3481.000000,4.000000,91.000000,,,,0.000000,4.000000,4.000000,4.000000,4.000000,4.000000,4.000000,4.000000,4.000000,4.000000,4.000000,4.000000,4.000000,4.000000,4.000000,100.000000,,,,,,,,,,,,,,,,
1645708126.280022,157.000000,0.000000,4181.025879,4186.922852,4167.307617,4207.692383,4178.974121,4197.563965,4174.487305,4167.820313,4188.077148,4192.692383,4158.077148,4155.256348,4168.461426,4209.487305,3272.000000,4.000000,91.000000,,,,0.000000,4.000000,4.000000,4.000000,4.000000,4.000000,4.000000,4.000000,4.000000,4.000000,4.000000,4.000000,4.000000,4.000000,4.000000,100.000000,,,,,,,,,,,,,,,,
1645708126.283962,158.000000,0.000000,4178.461426,4182.563965,4165.512695,4203.589844,4181.538574,4199.230957,4176.538574,4168.589844,4184.743652,4193.974121,4164.358887,4153.717773,4170.512695,4208.589844,2662.000000,4.000000,91.000000,,,,0.000000,4.000000,4.000000,4.000000,4.000000,4.000000,4.000000,4.000000,4.000000,4.000000,4.000000,4.000000,4.000000,4.000000,4.000000,100.000000,,,,,,,,,,,,,,,,
1645708126.287902,159.000000,0.000000,4176.153809,4179.358887,4163.589844,4197.820313,4181.282227,4200.128418,4177.692383,4168.846191,4183.717773,4197.051270,4166.794922,4152.436035,4170.256348,4206.282227,3431.000000,4.000000,91.000000,,,,0.000000,4.000000,4.000000,4.000000,4.000000,4.000000,4.000000,4.000000,4.000000,4.000000,4.000000,4.000000,4.000000,4.000000,4.000000,100.000000,,,,,,,,,,,,,,,,
1645708126.291842,160.000000,0.000000,4175.384766,4178.974121,4162.948730,4195.256348,4179.615234,4200.769043,4177.820313,4168.333496,4184.871582,4199.615234,4165.128418,4152.436035,4168.461426,4203.846191,3481.000000,4.000000,91.000000,,,,0.000000,4.000000,4.000000,4.000000,4.000000,4.000000,4.000000,4.000000,4.000000,4.000000,4.000000,4.000000,4.000000,4.000000,4.000000,100.000000,,,,,,,,,,,,,,,,
1645708126.295782,161.000000,0.000000,4176.538574,4181.282227,4164.230957,4197.948730,4178.846191,4201.025879,4177.436035,4168.205078,4187.307617,4200.256348,4162.436035,4154.102539,4167.307617,4203.717773,3272.000000,4.000000,91.000000,,,,0.000000,4.000000,4.000000,4.000000,4.000000,4.000000,4.000000,4.000000,4.000000,4.000000,4.000000,4.000000,4.000000,4.000000,4.000000,100.000000,,,,,,,,,,,,,,,,
1645708126.299722,162.000000,0.000000,4178.589844,4184.358887,4166.922852,4203.589844,4179.102539,4200.128418,4177.692383,4169.487305,4189.358887,4198.717773,4161.922852,4156.410156,4168.205078,4206.538574,2662.000000,4.000000,91.000000,,,,0.000000,4.000000,4.000000,4.000000,4.000000,4.000000,4.000000,4.000000,4.000000,4.000000,4.000000,4.000000,4.000000,4.000000,4.000000,100.000000,,,,,,,,,,,,,,,,
1645708126.303662,163.000000,0.000000,4181.025879,4186.666504,4169.871582,4207.436035,4178.589844,4198.333496,4178.974121,4171.538574,4189.743652,4195.641113,4164.871582,4157.948730,4170.641113,4210.897461,3431.000000,4.000000,91.000000,,,,0.000000,4.000000,4.000000,4.000000,4.000000,4.000000,4.000000,4.000000,4.000000,4.000000,4.000000,4.000000,4.000000,4.000000,4.000000,100.000000,,,,,,,,,,,,,,,,
1645708126.307602,164.000000,0.000000,4183.589844,4187.563965,4171.538574,4207.563965,4176.025879,4196.922852,4180.897461,4172.820313,4188.205078,4193.077148,4170.641113,4159.358887,4173.589844,4215.256348,3481.000000,4.000000,91.000000,,,,0.000000,4.000000,4.000000,4.000000,4.000000,4.000000,4.000000,4.000000,4.000000,4.000000,4.000000,4.000000,4.000000,4.000000,4.000000,100.000000,,,,,,,,,,,,,,,,
1645708126.311443,165.000000,0.000000,4186.153809,4187.692383,4171.282227,4205.128418,4172.820313,4196.922852,4182.179688,4171.922852,4186.282227,4192.692383,4176.666504,4161.922852,4176.153809,4218.461426,3272.000000,4.000000,91.000000,,,,0.000000,4.000000,4.000000,4.000000,4.000000,4.000000,4.000000,4.000000,4.000000,4.000000,4.000000,4.000000,4.000000,4.000000,4.000000,100.000000,,,,,,,,,,,,,,,,
1645708126.315383,166.000000,0.000000,4188.205078,4187.692383,4170.128418,4203.205078,4171.538574,4197.948730,4181.794922,4169.487305,4185.256348,4194.871582,4180.256348,4165.641113,4178.205078,4220.641113,2662.000000,4.000000,91.000000,,,,0.000000,4.000000,4.000000,4.000000,4.000000,4.000000,4.000000,4.000000,4.000000,4.000000,4.000000,4.000000,4.000000,4.000000,4.000000,100.000000,,,,,,,,,,,,,,,,
1645708126.319323,167.000000,0.000000,4188.717773,4187.563965,4170.000000,4203.589844,4172.179688,4198.205078,4180.000000,4167.307617,4186.282227,4197.948730,4180.128418,4169.102539,4180.256348,4221.282227,3431.000000,4.000000,91.000000,,,,0.000000,4.000000,4.000000,4.000000,4.000000,4.000000,4.000000,4.000000,4.000000,4.000000,4.000000,4.000000,4.000000,4.000000,4.000000,100.000000,,,,,,,,,,,,,,,,
1645708126.323263,168.000000,0.000000,4187.051270,4187.307617,4171.282227,4205.128418,4173.461426,4196.153809,4177.307617,4166.794922,4188.333496,4200.384766,4177.436035,4169.871582,4182.051270,4220.512695,3481.000000,4.000000,91.000000,,,,0.000000,4.000000,4.000000,4.000000,4.000000,4.000000,4.000000,4.000000,4.000000,4.000000,4.000000,4.000000,4.000000,4.000000,4.000000,100.000000,,,,,,,,,,,,,,,,
1645708126.327203,169.000000,0.000000,4184.743652,4187.436035,4172.948730,4206.025879,4173.717773,4192.436035,4174.615234,4167.820313,4189.743652,4201.922852,4174.871582,4167.051270,4183.461426,4219.487305,3272.000000,4.000000,91.000000,,,,0.000000,4.000000,4.000000,4.000000,4.000000,4.000000,4.000000,4.000000,4.000000,4.000000,4.000000,4.000000,4.000000,4.000000,4.000000,100.000000,,,,,,,,,,,,,,,,
1645708126.331143,170.000000,0.000000,4183.846191,4188.589844,4173.717773,4205.384766,4172.820313,4189.487305,4172.051270,4169.230957,4189.743652,4203.333496,4174.230957,4162.436035,4184.102539,4219.871582,2662.000000,4.000000,91.000000,,,,0.000000,4.000000,4.000000,4.000000,4.000000,4.000000,4.000000,4.000000,4.000000,4.000000,4.000000,4.000000,4.000000,4.000000,4.000000,100.000000,,,,,,,,,,,,,,,,
1645708126.335083,171.000000,0.000000,4186.153809,4191.282227,4173.717773,4204.615234,4172.948730,4188.974121,4169.743652,4169.615234,4189.102539,4204.871582,4176.153809,4158.717773,4184.102539,4222.948730,3431.000000,4.000000,91.000000,,,,0.000000,4.000000,4.000000,4.000000,4.000000,4.000000,4.000000,4.000000,4.000000,4.000000,4.000000,4.000000,4.000000,4.000000,4.000000,100.000000,,,,,,,,,,,,,,,,
1645708126.339023,172.000000,0.000000,4190.512695,4194.743652,4173.333496,4206.153809,4175.897461,4190.641113,4168.077148,4169.358887,4189.102539,4205.897461,4178.589844,4157.820313,4183.717773,4227.179688,3481.000000,4.000000,91.000000,,,,0.000000,4.000000,4.000000,4.000000,4.000000,4.000000,4.000000,4.000000,4.000000,4.000000,4.000000,4.000000,4.000000,4.000000,4.000000,100.000000,,,,,,,,,,,,,,,,
1645708126.342964,173.000000,0.000000,4194.615234,4197.307617,4173.333496,4210.128418,4181.153809,4192.948730,4168.461426,4169.358887,4190.256348,4205.384766,4179.615234,4159.230957,4183.333496,4229.487305,3272.000000,4.000000,91.000000,,,,0.000000,4.000000,4.000000,4.000000,4.000000,4.000000,4.000000,4.000000,4.000000,4.000000,4.000000,4.000000,4.000000,4.000000,4.000000,100.000000,,,,,,,,,,,,,,,,
1645708126.346904,174.000000,0.000000,4196.025879,4197.692383,4173.077148,4213.589844,4186.282227,4193.974121,4170.256348,4170.512695,4191.666504,4203.974121,4178.077148,4160.256348,4182.692383,4227.563965,2662.000000,4.000000,91.000000,,,,0.000000,4.000000,4.000000,4.000000,4.000000,4.000000,4.000000,4.000000,4.000000,4.000000,4.000000,4.000000,4.000000,4.000000,4.000000,100.000000,,,,,,,,,,,,,,,,
1645708126.350844,175.000000,0.000000,4194.230957,4196.025879,4172.179688,4213.846191,4188.077148,4193.589844,4171.538574,4172.051270,4192.436035,4203.846191,4174.871582,4158.205078,4181.794922,4222.051270,3431.000000,4.000000,91.000000,,,,0.000000,4.000000,4.000000,4.000000,4.000000,4.000000,4.000000,4.000000,4.000000,4.000000,4.000000,4.000000,4.000000,4.000000,4.000000,100.000000,,,,,,,,,,,,,,,,
1645708126.354784,176.000000,0.000000,4190.256348,4193.717773,4170.769043,4210.384766,4186.153809,4192.307617,4170.641113,4172.948730,4192.563965,4206.153809,4171.794922,4153.205078,4179.871582,4215.641113,3481.000000,4.000000,91.000000,,,,0.000000,4.000000,4.000000,4.000000,4.000000,4.000000,4.000000,4.000000,4.000000,4.000000,4.000000,4.000000,4.000000,4.000000,4.000000,100.000000,,,,,,,,,,,,,,,,
1645708126.358624,177.000000,0.000000,4186.025879,4192.436035,4169.230957,4205.384766,4182.820313,4191.922852,4168.333496,4172.692383,4192.820313,4210.384766,4170.000000,4146.922852,4176.538574,4210.897461,3272.000000,4.000000,91.000000,,,,0.000000,4.000000,4.000000,4.000000,4.000000,4.000000,4.000000,4.000000,4.000000,4.000000,4.000000,4.000000,4.000000,4.000000,4.000000,100.000000,,,,,,,,,,,,,,,,
1645708126.362564,178.000000,0.000000,4183.205078,4192.820313,4168.205078,4202.179688,4181.538574,4193.333496,4167.179688,4172.307617,4193.333496,4213.589844,4169.230957,4141.794922,4171.666504,4207.948730,2662.000000,4.000000,91.000000,,,,0.000000,4.000000,4.000000,4.000000,4.000000,4.000000,4.000000,4.000000,4.000000,4.000000,4.000000,4.000000,4.000000,4.000000,4.000000,100.000000,,,,,,,,,,,,,,,,
1645708126.366504,179.000000,0.000000,4183.077148,4194.615234,4168.205078,4202.563965,4183.589844,4196.666504,4169.358887,4172.692383,4194.102539,4213.461426,4168.974121,4138.974121,4166.538574,4206.410156,3431.000000,4.000000,91.000000,,,,0.000000,4.000000,4.000000,4.000000,4.000000,4.000000,4.000000,4.000000,4.000000,4.000000,4.000000,4.000000,4.000000,4.000000,4.000000,100.000000,,,,,,,,,,,,,,,,
1645708126.370444,180.000000,0.000000,4184.871582,4196.666504,4169.102539,4206.282227,4188.589844,4201.282227,4174.487305,4174.230957,4194.871582,4209.615234,4168.333496,4138.461426,4162.436035,4205.641113,3481.000000,4.000000,91.000000,,,,0.000000,4.000000,4.000000,4.000000,4.000000,4.000000,4.000000,4.000000,4.000000,4.000000,4.000000,4.000000,4.000000,4.000000,4.000000,100.000000,,,,,,,,,,,,,,,,
1645708126.374384,181.000000,0.000000,4187.307617,4198.077148,4170.641113,4210.641113,4193.717773,4206.282227,4180.256348,4176.410156,4194.871582,4204.487305,4166.666504,4139.615234,4159.743652,4205.769043,3272.000000,4.000000,91.000000,,,,0.000000,4.000000,4.000000,4.000000,4.000000,4.000000,4.000000,4.000000,4.000000,4.000000,4.000000,4.000000,4.000000,4.000000,4.000000,100.000000,,,,,,,,,,,,,,,,
1645708126.378325,182.000000,0.000000,4188.974121,4198.077148,4172.179688,4212.948730,4196.666504,4210.384766,4184.871582,4178.974121,4194.230957,4201.666504,4164.102539,4140.897461,4158.333496,4206.282227,2662.000000,4.000000,91.000000,,,,0.000000,4.000000,4.000000,4.000000,4.000000,4.000000,4.000000,4.000000,4.000000,4.000000,4.000000,4.000000,4.000000,4.000000,4.000000,100.000000,,,,,,,,,,,,,,,,
1645708126.382265,183.000000,0.000000,4189.615234,4196.538574,4172.820313,4212.307617,4196.666504,4212.563965,4187.436035,4181.666504,4193.717773,4202.692383,4161.538574,4141.410156,4157.820313,4206.153809,3431.000000,4.000000,91.000000,,,,0.000000,4.000000,4.000000,4.000000,4.000000,4.000000,4.000000,4.000000,4.000000,4.000000,4.000000,4.000000,4.000000,4.000000,4.000000,100.000000,,,,,,,,,,,,,,,,
1645708126.386205,184.000000,0.000000,4189.615234,4194.358887,4172.307617,4209.615234,4194.871582,4212.948730,4188.461426,4184.487305,4194.487305,4206.794922,4160.384766,4141.538574,4158.589844,4204.743652,3481.000000,4.000000,91.000000,,,,0.000000,4.000000,4.000000,4.000000,4.000000,4.000000,4.000000,4.000000,4.000000,4.000000,4.000000,4.000000,4.000000,4.000000,4.000000,100.000000,,,,,,,,,,,,,,,,
1645708126.390145,185.000000,0.000000,4189.615234,4192.948730,4171.153809,4207.563965,4193.205078,4212.820313,4188.846191,4186.922852,4197.051270,4210.897461,4160.641113,4142.051270,4159.871582,4202.436035,3272.000000,4.000000,91.000000,,,,0.000000,4.000000,4.000000,4.000000,4.000000,4.000000,4.000000,4.000000,4.000000,4.000000,4.000000,4.000000,4.000000,4.000000,4.000000,100.000000,,,,,,,,,,,,,,,,
1645708126.394085,186.000000,0.000000,4189.615234,4192.179688,4170.384766,4206.666504,4192.179688,4213.589844,4189.615234,4187.563965,4200.128418,4212.179688,4160.769043,4142.436035,4160.512695,4199.487305,2662.000000,4.000000,91.000000,,,,0.000000,4.000000,4.000000,4.000000,4.000000,4.000000,4.000000,4.000000,4.000000,4.000000,4.000000,4.000000,4.000000,4.000000,4.000000,100.000000,,,,,,,,,,,,,,,,
1645708126.398025,187.000000,0.000000,4188.717773,4191.025879,4170.128418,4205.641113,4190.897461,4214.743652,4190.512695,4186.025879,4201.410156,4209.487305,4159.102539,4141.922852,4158.846191,4195.128418,3431.000000,4.000000,91.000000,,,,0.000000,4.000000,4.000000,4.000000,4.000000,4.000000,4.000000,4.000000,4.000000,4.000000,4.000000,4.000000,4.000000,4.000000,4.000000,100.000000,,,,,,,,,,,,,,,,
1645708126.401965,188.000000,0.000000,4186.025879,4188.461426,4169.230957,4202.307617,4188.974121,4214.871582,4190.769043,4184.230957,4200.128418,4204.487305,4155.897461,4140.000000,4154.743652,4189.871582,3481.000000,4.000000,91.000000,,,,0.000000,4.000000,4.000000,4.000000,4.000000,4.000000,4.000000,4.000000,4.000000,4.000000,4.000000,4.000000,4.000000,4.000000,4.000000,100.000000,,,,,,,,,,,,,,,,
1645708126.405905,189.000000,0.000000,4182.307617,4185.512695,4167.307617,4196.922852,4187.307617,4213.205078,4189.743652,4184.871582,4198.333496,4200.512695,4153.974121,4137.948730,4150.000000,4185.897461,3272.000000,4.000000,91.000000,,,,0.000000,4.000000,4.000000,4.000000,4.000000,4.000000,4.000000,4.000000,4.000000,4.000000,4.000000,4.000000,4.000000,4.000000,4.000000,100.000000,,,,,,,,,,,,,,,,
1645708126.409845,190.000000,0.000000,4180.128418,4184.615234,4165.128418,4192.179688,4188.077148,4210.384766,4187.307617,4188.846191,4198.974121,4201.282227,4157.051270,4137.948730,4148.333496,4186.538574,2662.000000,4.000000,91.000000,,,,0.000000,4.000000,4.000000,4.000000,4.000000,4.000000,4.000000,4.000000,4.000000,4.000000,4.000000,4.000000,4.000000,4.000000,4.000000,100.000000,,,,,,,,,,,,,,,,
1645708126.413786,191.000000,0.000000,4181.410156,4186.922852,4164.487305,4191.282227,4192.051270,4208.461426,4184.230957,4193.846191,4201.922852,4207.436035,4165.641113,4141.794922,4152.179688,4192.436035,3431.000000,4.000000,91.000000,,,,0.000000,4.000000,4.000000,4.000000,4.000000,4.000000,4.000000,4.000000,4.000000,4.000000,4.000000,4.000000,4.000000,4.000000,4.000000,100.000000,,,,,,,,,,,,,,,,
1645708126.417726,192.000000,0.000000,4185.897461,4191.153809,4167.307617,4194.358887,4197.436035,4208.589844,4181.922852,4197.179688,4204.615234,4216.538574,4175.769043,4149.230957,4159.871582,4201.538574,3481.000000,4.000000,91.000000,,,,0.000000,4.000000,4.000000,4.000000,4.000000,4.000000,4.000000,4.000000,4.000000,4.000000,4.000000,4.000000,4.000000,4.000000,4.000000,100.000000,,,,,,,,,,,,,,,,
1645708126.421666,193.000000,0.000000,4191.025879,4194.487305,4173.846191,4198.717773,4200.512695,4210.256348,4181.922852,4197.948730,4204.743652,4223.717773,4181.922852,4158.077148,4167.307617,4210.384766,3272.000000,4.000000,91.000000,,,,0.000000,4.000000,4.000000,4.000000,4.000000,4.000000,4.000000,4.000000,4.000000,4.000000,4.000000,4.000000,4.000000,4.000000,4.000000,100.000000,,,,,,,,,,,,,,,,
1645708126.425606,194.000000,0.000000,4194.230957,4195.000000,4182.307617,4200.641113,4198.589844,4211.794922,4184.487305,4197.436035,4202.563965,4226.153809,4182.179688,4165.000000,4170.384766,4217.179688,2662.000000,4.000000,91.000000,,,,0.000000,4.000000,4.000000,4.000000,4.000000,4.000000,4.000000,4.000000,4.000000,4.000000,4.000000,4.000000,4.000000,4.000000,4.000000,100.000000,,,,,,,,,,,,,,,,
1645708126.429446,195.000000,0.000000,4194.743652,4193.461426,4188.717773,4199.230957,4192.179688,4211.794922,4187.563965,4196.666504,4201.153809,4224.487305,4179.743652,4167.563965,4168.333496,4221.794922,3431.000000,4.000000,91.000000,,,,0.000000,4.000000,4.000000,4.000000,4.000000,4.000000,4.000000,4.000000,4.000000,4.000000,4.000000,4.000000,4.000000,4.000000,4.000000,100.000000,,,,,,,,,,,,,,,,
1645708126.433386,196.000000,0.000000,4193.846191,4192.307617,4190.000000,4196.025879,4184.230957,4210.256348,4187.820313,4195.769043,4202.563965,4221.410156,4178.717773,4166.153809,4164.102539,4224.358887,3481.000000,4.000000,91.000000,,,,0.000000,4.000000,4.000000,4.000000,4.000000,4.000000,4.000000,4.000000,4.000000,4.000000,4.000000,4.000000,4.000000,4.000000,4.000000,100.000000,,,,,,,,,,,,,,,,
1645708126.437326,197.000000,0.000000,4193.333496,4192.820313,4185.256348,4193.974121,4179.230957,4207.563965,4183.846191,4194.230957,4205.641113,4218.846191,4180.512695,4162.563965,4160.897461,4223.717773,3272.000000,4.000000,91.000000,,,,0.000000,4.000000,4.000000,4.000000,4.000000,4.000000,4.000000,4.000000,4.000000,4.000000,4.000000,4.000000,4.000000,4.000000,4.000000,100.000000,,,,,,,,,,,,,,,,
1645708126.441266,198.000000,0.000000,4193.333496,4194.487305,4177.692383,4194.487305,4179.871582,4204.230957,4177.820313,4191.538574,4207.051270,4216.666504,4182.436035,4158.461426,4159.871582,4219.230957,2662.000000,4.000000,91.000000,,,,0.000000,4.000000,4.000000,4.000000,4.000000,4.000000,4.000000,4.000000,4.000000,4.000000,4.000000,4.000000,4.000000,4.000000,4.000000,100.000000,,,,,,,,,,,,,,,,
1645708126.445206,199.000000,0.000000,4192.948730,4195.769043,4172.179688,4196.794922,4185.641113,4200.897461,4173.205078,4187.436035,4204.487305,4214.102539,4181.794922,4154.743652,4159.743652,4212.179688,3431.000000,4.000000,91.000000,,,,0.000000,4.000000,4.000000,4.000000,4.000000,4.000000,4.000000,4.000000,4.000000,4.000000,4.000000,4.000000,4.000000,4.000000,4.000000,100.000000,,,,,,,,,,,,,,,,
1645708126.449147,200.000000,0.000000,4191.666504,4196.410156,4171.410156,4198.974121,4192.179688,4198.589844,4172.563965,4183.077148,4198.717773,4211.538574,4178.077148,4151.410156,4158.589844,4205.128418,3481.000000,4.000000,91.000000,,,,0.000000,4.000000,4.000000,4.000000,4.000000,4.000000,4.000000,4.000000,4.000000,4.000000,4.000000,4.000000,4.000000,4.000000,4.000000,100.000000,,,,,,,,,,,,,,,,
1645708126.453087,201.000000,0.000000,4190.000000,4196.282227,4175.256348,4199.102539,4194.358887,4198.333496,4175.256348,4179.615234,4192.948730,4210.897461,4173.333496,4148.717773,4156.025879,4200.384766,3272.000000,4.000000,91.000000,,,,0.000000,4.000000,4.000000,4.000000,4.000000,4.000000,4.000000,4.000000,4.000000,4.000000,4.000000,4.000000,4.000000,4.000000,4.000000,100.000000,,,,,,,,,,,,,,,,
1645708126.457027,202.000000,0.000000,4189.230957,4196.025879,4180.641113,4197.051270,4189.230957,4199.615234,4178.717773,4177.692383,4191.025879,4212.436035,4169.102539,4146.410156,4153.077148,4197.948730,2662.000000,4.000000,91.000000,,,,0.000000,4.000000,4.000000,4.000000,4.000000,4.000000,4.000000,4.000000,4.000000,4.000000,4.000000,4.000000,4.000000,4.000000,4.000000,100.000000,,,,,,,,,,,,,,,,
1645708126.460967,203.000000,0.000000,4189.871582,4195.512695,4184.487305,4193.974121,4179.230957,4201.282227,4180.512695,4176.666504,4193.589844,4214.102539,4164.871582,4144.743652,4150.769043,4196.666504,3431.000000,4.000000,91.000000,,,,0.000000,4.000000,4.000000,4.000000,4.000000,4.000000,4.000000,4.000000,4.000000,4.000000,4.000000,4.000000,4.000000,4.000000,4.000000,100.000000,,,,,,,,,,,,,,,,
1645708126.464907,204.000000,0.000000,4191.410156,4194.743652,4186.025879,4192.563965,4171.153809,4202.948730,4180.769043,4175.000000,4197.307617,4212.692383,4159.743652,4143.717773,4148.846191,4195.128418,3481.000000,4.000000,91.000000,,,,0.000000,4.000000,4.000000,4.000000,4.000000,4.000000,4.000000,4.000000,4.000000,4.000000,4.000000,4.000000,4.000000,4.000000,4.000000,100.000000,,,,,,,,,,,,,,,,
1645708126.468847,205.000000,0.000000,4192.948730,4194.102539,4186.538574,4194.487305,4171.666504,4205.000000,4180.897461,4172.051270,4197.948730,4207.563965,4154.358887,4143.717773,4146.666504,4192.692383,3272.000000,4.000000,91.000000,,,,0.000000,4.000000,4.000000,4.000000,4.000000,4.000000,4.000000,4.000000,4.000000,4.000000,4.000000,4.000000,4.000000,4.000000,4.000000,100.000000,,,,,,,,,,,,,,,,
1645708126.472787,206.000000,0.000000,4194.358887,4193.205078,4188.461426,4198.589844,4181.153809,4207.692383,4181.794922,4168.717773,4194.102539,4200.512695,4150.512695,4144.358887,4144.743652,4189.743652,2662.000000,4.000000,91.000000,,,,0.000000,4.000000,4.000000,4.000000,4.000000,4.000000,4.000000,4.000000,4.000000,4.000000,4.000000,4.000000,4.000000,4.000000,4.000000,100.000000,,,,,,,,,,,,,,,,
1645708126.476727,207.000000,0.000000,4195.256348,4191.794922,4192.179688,4201.666504,4193.077148,4210.128418,4183.077148,4166.922852,4188.333496,4194.230957,4149.487305,4144.871582,4143.461426,4186.794922,3431.000000,4.000000,91.000000,,,,0.000000,4.000000,4.000000,4.000000,4.000000,4.000000,4.000000,4.000000,4.000000,4.000000,4.000000,4.000000,4.000000,4.000000,4.000000,100.000000,,,,,,,,,,,,,,,,
1645708126.480667,208.000000,0.000000,4195.256348,4188.974121,4196.282227,4200.512695,4198.974121,4210.256348,4184.102539,4167.948730,4185.128418,4190.641113,4150.128418,4143.717773,4143.077148,4183.461426,3481.000000,4.000000,91.000000,,,,0.000000,4.000000,4.000000,4.000000,4.000000,4.000000,4.000000,4.000000,4.000000,4.000000,4.000000,4.000000,4.000000,4.000000,4.000000,100.000000,,,,,,,,,,,,,,,,
1645708126.484608,209.000000,0.000000,4193.846191,4185.128418,4198.589844,4195.384766,4195.641113,4207.948730,4184.102539,4170.769043,4186.410156,4190.769043,4150.512695,4140.256348,4143.077148,4179.358887,3272.000000,4.000000,91.000000,,,,0.000000,4.000000,4.000000,4.000000,4.000000,4.000000,4.000000,4.000000,4.000000,4.000000,4.000000,4.000000,4.000000,4.000000,4.000000,100.000000,,,,,,,,,,,,,,,,
1645708126.488548,210.000000,0.000000,4191.025879,4181.410156,4197.948730,4189.358887,4186.282227,4205.000000,4182.820313,4172.948730,4191.282227,4194.358887,4149.487305,4135.128418,4142.051270,4174.487305,2662.000000,4.000000,91.000000,,,,0.000000,4.000000,4.000000,4.000000,4.000000,4.000000,4.000000,4.000000,4.000000,4.000000,4.000000,4.000000,4.000000,4.000000,4.000000,100.000000,,,,,,,,,,,,,,,,
1645708126.492488,211.000000,0.000000,4187.179688,4179.102539,4194.487305,4185.897461,4177.820313,4203.974121,4180.512695,4172.692383,4196.282227,4199.230957,4147.436035,4130.128418,4139.615234,4169.487305,3431.000000,4.000000,91.000000,,,,0.000000,4.000000,4.000000,4.000000,4.000000,4.000000,4.000000,4.000000,4.000000,4.000000,4.000000,4.000000,4.000000,4.000000,4.000000,100.000000,,,,,,,,,,,,,,,,
1645708126.496428,212.000000,0.000000,4183.077148,4178.461426,4189.871582,4185.512695,4174.230957,4205.641113,4178.589844,4170.512695,4198.205078,4201.538574,4145.641113,4126.794922,4135.641113,4165.384766,3481.000000,4.000000,91.000000,,,,0.000000,4.000000,4.000000,4.000000,4.000000,4.000000,4.000000,4.000000,4.000000,4.000000,4.000000,4.000000,4.000000,4.000000,4.000000,100.000000,,,,,,,,,,,,,,,,
1645708126.500268,213.000000,0.000000,4178.974121,4178.077148,4186.153809,4186.666504,4175.000000,4207.820313,4177.692383,4168.846191,4196.666504,4198.974121,4144.358887,4126.025879,4131.282227,4162.436035,3272.000000,4.000000,91.000000,,,,0.000000,4.000000,4.000000,4.000000,4.000000,4.000000,4.000000,4.000000,4.000000,4.000000,4.000000,4.000000,4.000000,4.000000,4.000000,100.000000,,,,,,,,,,,,,,,,
1645708126.504208,214.000000,0.000000,4176.025879,4177.051270,4184.871582,4186.538574,4176.666504,4208.461426,4177.948730,4169.102539,4193.846191,4193.461426,4143.077148,4127.563965,4128.589844,4160.256348,2662.000000,4.000000,91.000000,,,,0.000000,4.000000,4.000000,4.000000,4.000000,4.000000,4.000000,4.000000,4.000000,4.000000,4.000000,4.000000,4.000000,4.000000,4.000000,100.000000,,,,,,,,,,,,,,,,
1645708126.508148,215.000000,0.000000,4175.128418,4175.769043,4185.641113,4184.102539,4176.922852,4206.922852,4178.717773,4171.922852,4192.948730,4190.128418,4142.051270,4130.641113,4129.358887,4158.974121,3431.000000,4.000000,91.000000,,,,0.000000,4.000000,4.000000,4.000000,4.000000,4.000000,4.000000,4.000000,4.000000,4.000000,4.000000,4.000000,4.000000,4.000000,4.000000,100.000000,,,,,,,,,,,,,,,,
1645708126.512088,216.000000,0.000000,4177.051270,4175.256348,4187.692383,4180.256348,4175.641113,4205.128418,4179.743652,4176.282227,4195.256348,4193.077148,4141.922852,4134.615234,4133.846191,4159.871582,3481.000000,4.000000,91.000000,,,,0.000000,4.000000,4.000000,4.000000,4.000000,4.000000,4.000000,4.000000,4.000000,4.000000,4.000000,4.000000,4.000000,4.000000,4.000000,100.000000,,,,,,,,,,,,,,,,
1645708126.516028,217.000000,0.000000,4180.897461,4176.794922,4190.384766,4177.692383,4173.974121,4205.256348,4181.282227,4181.025879,4199.358887,4201.538574,4144.615234,4138.461426,4139.615234,4164.487305,3272.000000,4.000000,91.000000,,,,0.000000,4.000000,4.000000,4.000000,4.000000,4.000000,4.000000,4.000000,4.000000,4.000000,4.000000,4.000000,4.000000,4.000000,4.000000,100.000000,,,,,,,,,,,,,,,,
1645708126.519969,218.000000,0.000000,4185.000000,4180.641113,4193.717773,4178.461426,4173.589844,4207.948730,4183.846191,4185.000000,4202.179688,4211.282227,4151.410156,4141.922852,4144.358887,4172.820313,2662.000000,4.000000,91.000000,,,,0.000000,4.000000,4.000000,4.000000,4.000000,4.000000,4.000000,4.000000,4.000000,4.000000,4.000000,4.000000,4.000000,4.000000,4.000000,100.000000,,,,,,,,,,,,,,,,
1645708126.523909,219.000000,0.000000,4188.461426,4186.025879,4197.436035,4183.461426,4175.897461,4212.436035,4186.666504,4187.436035,4202.436035,4217.820313,4161.538574,4145.384766,4147.563965,4183.589844,3431.000000,4.000000,91.000000,,,,0.000000,4.000000,4.000000,4.000000,4.000000,4.000000,4.000000,4.000000,4.000000,4.000000,4.000000,4.000000,4.000000,4.000000,4.000000,100.000000,,,,,,,,,,,,,,,,
1645708126.527849,220.000000,0.000000,4191.666504,4191.794922,4201.153809,4191.794922,4181.666504,4217.563965,4188.333496,4188.461426,4201.153809,4220.641113,4171.922852,4150.000000,4150.256348,4194.102539,3481.000000,4.000000,91.000000,,,,0.000000,4.000000,4.000000,4.000000,4.000000,4.000000,4.000000,4.000000,4.000000,4.000000,4.000000,4.000000,4.000000,4.000000,4.000000,100.000000,,,,,,,,,,,,,,,,
1645708126.531789,221.000000,0.000000,4195.256348,4196.282227,4203.333496,4201.025879,4189.487305,4221.153809,4187.948730,4188.333496,4200.897461,4222.179688,4178.717773,4155.641113,4153.461426,4201.794922,3272.000000,4.000000,91.000000,,,,0.000000,4.000000,4.000000,4.000000,4.000000,4.000000,4.000000,4.000000,4.000000,4.000000,4.000000,4.000000,4.000000,4.000000,4.000000,100.000000,,,,,,,,,,,,,,,,
1645708126.535729,222.000000,0.000000,4198.333496,4198.461426,4202.692383,4207.179688,4196.282227,4221.153809,4185.641113,4186.666504,4202.820313,4224.615234,4178.974121,4160.256348,4156.666504,4205.128418,2662.000000,4.000000,91.000000,,,,0.000000,4.000000,4.000000,4.000000,4.000000,4.000000,4.000000,4.000000,4.000000,4.000000,4.000000,4.000000,4.000000,4.000000,4.000000,100.000000,,,,,,,,,,,,,,,,
1645708126.539669,223.000000,0.000000,4199.487305,4197.948730,4199.358887,4207.179688,4198.589844,4217.179688,4182.436035,4183.205078,4205.128418,4226.666504,4173.461426,4161.025879,4157.820313,4203.846191,3431.000000,4.000000,91.000000,,,,0.000000,4.000000,4.000000,4.000000,4.000000,4.000000,4.000000,4.000000,4.000000,4.000000,4.000000,4.000000,4.000000,4.000000,4.000000,100.000000,,,,,,,,,,,,,,,,
1645708126.543509,224.000000,0.000000,4198.205078,4196.025879,4194.871582,4202.051270,4196.410156,4211.666504,4180.256348,4178.333496,4204.487305,4225.897461,4166.410156,4157.307617,4156.538574,4199.743652,3481.000000,4.000000,91.000000,,,,0.000000,4.000000,4.000000,4.000000,4.000000,4.000000,4.000000,4.000000,4.000000,4.000000,4.000000,4.000000,4.000000,4.000000,4.000000,100.000000,,,,,,,,,,,,,,,,
1645708126.547449,225.000000,0.000000,4195.641113,4195.000000,4190.897461,4196.410156,4193.589844,4208.589844,4180.384766,4173.717773,4200.000000,4221.666504,4162.820313,4151.153809,4153.846191,4195.384766,3272.000000,4.000000,91.000000,,,,0.000000,4.000000,4.000000,4.000000,4.000000,4.000000,4.000000,4.000000,4.000000,4.000000,4.000000,4.000000,4.000000,4.000000,4.000000,100.000000,,,,,,,,,,,,,,,,
1645708126.551390,226.000000,0.000000,4193.333496,4196.025879,4188.974121,4195.128418,4193.589844,4210.000000,4182.436035,4170.897461,4194.230957,4215.384766,4163.974121,4145.641113,4151.538574,4192.563965,2662.000000,4.000000,91.000000,,,,0.000000,4.000000,4.000000,4.000000,4.000000,4.000000,4.000000,4.000000,4.000000,4.000000,4.000000,4.000000,4.000000,4.000000,4.000000,100.000000,,,,,,,,,,,,,,,,
1645708126.555330,227.000000,0.000000,4191.282227,4197.948730,4188.461426,4199.102539,4195.641113,4214.102539,4184.615234,4170.512695,4190.641113,4209.487305,4166.794922,4142.820313,4150.000000,4191.410156,3431.000000,4.000000,91.000000,,,,0.000000,4.000000,4.000000,4.000000,4.000000,4.000000,4.000000,4.000000,4.000000,4.000000,4.000000,4.000000,4.000000,4.000000,4.000000,100.000000,,,,,,,,,,,,,,,,
1645708126.559270,228.000000,0.000000,4188.205078,4198.077148,4187.948730,4203.717773,4195.512695,4217.051270,4185.384766,4171.794922,4190.641113,4204.743652,4166.153809,4141.666504,4148.205078,4190.000000,3481.000000,4.000000,91.000000,,,,0.000000,4.000000,4.000000,4.000000,4.000000,4.000000,4.000000,4.000000,4.000000,4.000000,4.000000,4.000000,4.000000,4.000000,4.000000,100.000000,,,,,,,,,,,,,,,,
1645708126.563210,229.000000,0.000000,4183.717773,4195.000000,4186.025879,4203.717773,4189.871582,4216.025879,4184.487305,4172.820313,4192.436035,4201.153809,4160.128418,4140.000000,4145.128418,4187.051270,3272.000000,4.000000,91.000000,,,,0.000000,4.000000,4.000000,4.000000,4.000000,4.000000,4.000000,4.000000,4.000000,4.000000,4.000000,4.000000,4.000000,4.000000,4.000000,100.000000,,,,,,,,,,,,,,,,
1645708126.567150,230.000000,0.000000,4179.230957,4190.000000,4182.051270,4197.307617,4180.897461,4212.051270,4182.820313,4172.179688,4193.846191,4198.205078,4150.897461,4136.153809,4141.153809,4183.461426,2662.000000,4.000000,91.000000,,,,0.000000,4.000000,4.000000,4.000000,4.000000,4.000000,4.000000,4.000000,4.000000,4.000000,4.000000,4.000000,4.000000,4.000000,4.000000,100.000000,,,,,,,,,,,,,,,,
1645708126.571090,231.000000,0.000000,4176.922852,4185.897461,4176.410156,4188.589844,4174.871582,4208.333496,4181.666504,4169.871582,4193.717773,4195.897461,4143.589844,4131.410156,4137.563965,4180.897461,3431.000000,4.000000,91.000000,,,,0.000000,4.000000,4.000000,4.000000,4.000000,4.000000,4.000000,4.000000,4.000000,4.000000,4.000000,4.000000,4.000000,4.000000,4.000000,100.000000,,,,,,,,,,,,,,,,
1645708126.575030,232.000000,0.000000,4177.307617,4183.974121,4171.025879,4182.948730,4175.897461,4207.179688,4181.025879,4167.692383,4192.692383,4194.615234,4141.666504,4128.589844,4135.384766,4180.000000,3481.000000,4.000000,91.000000,,,,0.000000,4.000000,4.000000,4.000000,4.000000,4.000000,4.000000,4.000000,4.000000,4.000000,4.000000,4.000000,4.000000,4.000000,4.000000,100.000000,,,,,,,,,,,,,,,,
1645708126.578970,233.000000,0.000000,4178.974121,4183.717773,4168.205078,4182.948730,4182.051270,4208.077148,4180.128418,4167.436035,4191.794922,4194.102539,4144.358887,4129.871582,4134.487305,4179.871582,3272.000000,4.000000,91.000000,,,,0.000000,4.000000,4.000000,4.000000,4.000000,4.000000,4.000000,4.000000,4.000000,4.000000,4.000000,4.000000,4.000000,4.000000,4.000000,100.000000,,,,,,,,,,,,,,,,
1645708126.582910,234.000000,0.000000,4179.743652,4183.461426,4169.102539,4186.666504,4186.538574,4209.230957,4178.333496,4169.358887,4191.922852,4193.589844,4148.333496,4135.000000,4135.128418,4179.615234,2662.000000,4.000000,91.000000,,,,0.000000,4.000000,4.000000,4.000000,4.000000,4.000000,4.000000,4.000000,4.000000,4.000000,4.000000,4.000000,4.000000,4.000000,4.000000,100.000000,,,,,,,,,,,,,,,,
1645708126.586751,235.000000,0.000000,4178.333496,4182.179688,4171.666504,4190.128418,4185.128418,4209.230957,4176.410156,4171.922852,4192.436035,4193.077148,4150.256348,4141.410156,4136.922852,4178.717773,3431.000000,4.000000,91.000000,,,,0.000000,4.000000,4.000000,4.000000,4.000000,4.000000,4.000000,4.000000,4.000000,4.000000,4.000000,4.000000,4.000000,4.000000,4.000000,100.000000,,,,,,,,,,,,,,,,
1645708126.590691,236.000000,0.000000,4175.641113,4180.897461,4172.692383,4190.897461,4179.230957,4207.948730,4175.256348,4172.820313,4192.436035,4193.205078,4149.230957,4145.512695,4139.102539,4176.666504,3481.000000,4.000000,91.000000,,,,0.000000,4.000000,4.000000,4.000000,4.000000,4.000000,4.000000,4.000000,4.000000,4.000000,4.000000,4.000000,4.000000,4.000000,4.000000,100.000000,,,,,,,,,,,,,,,,
1645708126.594631,237.000000,0.000000,4173.333496,4180.512695,4170.769043,4189.615234,4174.358887,4206.025879,4175.128418,4171.025879,4191.666504,4194.487305,4146.282227,4145.256348,4140.000000,4172.436035,3272.000000,4.000000,91.000000,,,,0.000000,4.000000,4.000000,4.000000,4.000000,4.000000,4.000000,4.000000,4.000000,4.000000,4.000000,4.000000,4.000000,4.000000,4.000000,100.000000,,,,,,,,,,,,,,,,
1645708126.598571,238.000000,0.000000,4172.436035,4181.666504,4168.205078,4188.461426,4174.871582,4204.102539,4175.512695,4168.077148,4191.153809,4196.794922,4143.589844,4141.794922,4138.974121,4166.538574,2662.000000,4.000000,91.000000,,,,0.000000,4.000000,4.000000,4.000000,4.000000,4.000000,4.000000,4.000000,4.000000,4.000000,4.000000,4.000000,4.000000,4.000000,4.000000,100.000000,,,,,,,,,,,,,,,,
1645708126.602511,239.000000,0.000000,4173.717773,4184.102539,4168.717773,4189.102539,4180.641113,4202.179688,4175.897461,4167.051270,4192.307617,4199.358887,4143.589844,4138.333496,4136.666504,4161.666504,3431.000000,4.000000,91.000000,,,,0.000000,4.000000,4.000000,4.000000,4.000000,4.000000,4.000000,4.000000,4.000000,4.000000,4.000000,4.000000,4.000000,4.000000,4.000000,100.000000,,,,,,,,,,,,,,,,
1645708126.606451,240.000000,0.000000,4177.179688,4187.692383,4174.102539,4192.051270,4187.307617,4200.641113,4175.512695,4170.000000,4195.384766,4201.794922,4146.922852,4137.948730,4135.769043,4161.282227,3481.000000,4.000000,91.000000,,,,0.000000,4.000000,4.000000,4.000000,4.000000,4.000000,4.000000,4.000000,4.000000,4.000000,4.000000,4.000000,4.000000,4.000000,4.000000,100.000000,,,,,,,,,,,,,,,,
1645708126.610391,241.000000,0.000000,4181.282227,4191.410156,4181.666504,4195.769043,4190.384766,4199.743652,4174.358887,4176.025879,4199.358887,4203.717773,4152.051270,4141.025879,4137.563965,4165.769043,3272.000000,4.000000,91.000000,,,,0.000000,4.000000,4.000000,4.000000,4.000000,4.000000,4.000000,4.000000,4.000000,4.000000,4.000000,4.000000,4.000000,4.000000,4.000000,100.000000,,,,,,,,,,,,,,,,
1645708126.614331,242.000000,0.000000,4183.589844,4193.717773,4186.666504,4197.692383,4187.948730,4199.487305,4173.461426,4181.794922,4202.051270,4204.230957,4155.256348,4144.487305,4140.769043,4171.410156,2662.000000,4.000000,91.000000,,,,0.000000,4.000000,4.000000,4.000000,4.000000,4.000000,4.000000,4.000000,4.000000,4.000000,4.000000,4.000000,4.000000,4.000000,4.000000,100.000000,,,,,,,,,,,,,,,,
1645708126.618271,243.000000,0.000000,4182.307617,4192.820313,4185.897461,4195.641113,4182.563965,4200.256348,4173.974121,4184.358887,4202.051270,4202.948730,4153.846191,4144.615234,4141.794922,4173.461426,3431.000000,4.000000,91.000000,,,,0.000000,4.000000,4.000000,4.000000,4.000000,4.000000,4.000000,4.000000,4.000000,4.000000,4.000000,4.000000,4.000000,4.000000,4.000000,100.000000,,,,,,,,,,,,,,,,
1645708126.622212,244.000000,0.000000,4178.461426,4189.102539,4181.153809,4190.512695,4178.461426,4202.051270,4176.794922,4182.948730,4200.128418,4200.897461,4148.461426,4140.256348,4138.974121,4170.256348,3481.000000,4.000000,91.000000,,,,0.000000,4.000000,4.000000,4.000000,4.000000,4.000000,4.000000,4.000000,4.000000,4.000000,4.000000,4.000000,4.000000,4.000000,4.000000,100.000000,,,,,,,,,,,,,,,,
1645708126.626152,245.000000,0.000000,4175.641113,4186.153809,4176.666504,4185.384766,4179.102539,4205.256348,4181.410156,4179.487305,4199.230957,4200.897461,4143.717773,4134.358887,4134.615234,4164.871582,3272.000000,4.000000,91.000000,,,,0.000000,4.000000,4.000000,4.000000,4.000000,4.000000,4.000000,4.000000,4.000000,4.000000,4.000000,4.000000,4.000000,4.000000,4.000000,100.000000,,,,,,,,,,,,,,,,
1645708126.630092,246.000000,0.000000,4177.436035,4187.948730,4175.769043,4184.102539,4184.358887,4209.615234,4185.512695,4176.666504,4201.153809,4204.358887,4144.230957,4131.538574,4133.589844,4162.820313,2662.000000,4.000000,91.000000,,,,0.000000,4.000000,4.000000,4.000000,4.000000,4.000000,4.000000,4.000000,4.000000,4.000000,4.000000,4.000000,4.000000,4.000000,4.000000,100.000000,,,,,,,,,,,,,,,,
1645708126.634032,247.000000,0.000000,4184.102539,4194.743652,4178.589844,4187.051270,4190.769043,4213.846191,4186.922852,4174.743652,4204.615234,4208.846191,4151.025879,4134.230957,4138.589844,4166.410156,3431.000000,4.000000,91.000000,,,,0.000000,4.000000,4.000000,4.000000,4.000000,4.000000,4.000000,4.000000,4.000000,4.000000,4.000000,4.000000,4.000000,4.000000,4.000000,100.000000,,,,,,,,,,,,,,,,
1645708126.637972,248.000000,0.000000,4191.794922,4202.307617,4183.205078,4191.538574,4194.487305,4215.641113,4185.256348,4172.820313,4205.641113,4210.256348,4159.487305,4140.128418,4146.922852,4173.333496,3481.000000,4.000000,91.000000,,,,0.000000,4.000000,4.000000,4.000000,4.000000,4.000000,4.000000,4.000000,4.000000,4.000000,4.000000,4.000000,4.000000,4.000000,4.000000,100.000000,,,,,,,,,,,,,,,,
1645708126.641912,249.000000,0.000000,4196.410156,4206.153809,4187.051270,4194.358887,4193.717773,4214.487305,4182.436035,4169.743652,4201.922852,4205.641113,4163.974121,4145.512695,4153.461426,4179.102539,3272.000000,4.000000,91.000000,,,,0.000000,4.000000,4.000000,4.000000,4.000000,4.000000,4.000000,4.000000,4.000000,4.000000,4.000000,4.000000,4.000000,4.000000,4.000000,100.000000,,,,,,,,,,,,,,,,
1645708126.645852,250.000000,0.000000,4196.410156,4204.871582,4189.871582,4194.615234,4190.256348,4212.179688,4180.769043,4165.641113,4194.871582,4196.794922,4162.563965,4148.461426,4155.384766,4181.922852,2662.000000,4.000000,91.000000,,,,0.000000,4.000000,4.000000,4.000000,4.000000,4.000000,4.000000,4.000000,4.000000,4.000000,4.000000,4.000000,4.000000,4.000000,4.000000,100.000000,,,,,,,,,,,,,,,,
1645708126.649792,251.000000,0.000000,4194.487305,4200.641113,4191.922852,4193.461426,4187.179688,4211.282227,4181.538574,4161.666504,4188.333496,4188.846191,4159.230957,4150.384766,4154.615234,4183.974121,3431.000000,4.000000,91.000000,,,,0.000000,4.000000,4.000000,4.000000,4.000000,4.000000,4.000000,4.000000,4.000000,4.000000,4.000000,4.000000,4.000000,4.000000,4.000000,100.000000,,,,,,,,,,,,,,,,
1645708126.653732,252.000000,0.000000,4193.974121,4197.179688,4194.102539,4192.563965,4186.666504,4212.307617,4183.205078,4159.102539,4185.256348,4185.897461,4159.358887,4153.461426,4156.025879,4188.333496,3481.000000,4.000000,91.000000,,,,0.000000,4.000000,4.000000,4.000000,4.000000,4.000000,4.000000,4.000000,4.000000,4.000000,4.000000,4.000000,4.000000,4.000000,4.000000,100.000000,,,,,,,,,,,,,,,,
1645708126.657573,253.000000,0.000000,4195.512695,4195.769043,4196.282227,4192.307617,4187.948730,4213.846191,4184.487305,4158.077148,4185.128418,4188.333496,4164.743652,4158.205078,4161.922852,4195.000000,3272.000000,4.000000,91.000000,,,,0.000000,4.000000,4.000000,4.000000,4.000000,4.000000,4.000000,4.000000,4.000000,4.000000,4.000000,4.000000,4.000000,4.000000,4.000000,100.000000,,,,,,,,,,,,,,,,
1645708126.661513,254.000000,0.000000,4197.692383,4194.871582,4197.307617,4191.666504,4188.205078,4213.461426,4184.230957,4157.179688,4186.153809,4192.692383,4171.922852,4163.077148,4169.102539,4200.512695,2662.000000,4.000000,91.000000,,,,0.000000,4.000000,4.000000,4.000000,4.000000,4.000000,4.000000,4.000000,4.000000,4.000000,4.000000,4.000000,4.000000,4.000000,4.000000,100.000000,,,,,,,,,,,,,,,,
1645708126.665453,255.000000,0.000000,4198.077148,4193.205078,4196.666504,4190.000000,4185.897461,4210.128418,4182.820313,4156.025879,4186.282227,4195.384766,4175.512695,4165.769043,4172.051270,4201.410156,114.000000,4.000000,91.000000,,,,0.000000,4.000000,4.000000,4.000000,4.000000,4.000000,4.000000,4.000000,4.000000,4.000000,4.000000,4.000000,4.000000,4.000000,4.000000,100.000000,,,,,,,,,,,,,,,,
1645708126.669393,0.000000,0.000000,4196.282227,4190.641113,4194.871582,4188.205078,4182.436035,4205.641113,4180.384766,4155.512695,4185.641113,4194.871582,4174.102539,4165.384766,4168.077148,4197.179688,3246.000000,4.000000,91.000000,,,,0.000000,4.000000,4.000000,4.000000,4.000000,4.000000,4.000000,4.000000,4.000000,4.000000,4.000000,4.000000,4.000000,4.000000,4.000000,100.000000,,,,,,,,,,,,,,,,
1645708126.673333,1.000000,0.000000,4193.461426,4188.717773,4193.589844,4188.205078,4180.512695,4202.692383,4178.333496,4157.563965,4185.128418,4192.948730,4170.641113,4163.461426,4161.025879,4191.282227,3412.000000,4.000000,91.000000,,,,0.000000,4.000000,4.000000,4.000000,4.000000,4.000000,4.000000,4.000000,4.000000,4.000000,4.000000,4.000000,4.000000,4.000000,4.000000,100.000000,,,,,,,,,,,,,,,,
1645708126.677173,2.000000,0.000000,4191.922852,4188.846191,4194.743652,4190.128418,4181.666504,4202.948730,4178.333496,4163.846191,4186.538574,4192.179688,4169.743652,4163.077148,4157.307617,4188.461426,3378.000000,4.000000,91.000000,,,,0.000000,4.000000,4.000000,4.000000,4.000000,4.000000,4.000000,4.000000,4.000000,4.000000,4.000000,4.000000,4.000000,4.000000,4.000000,100.000000,,,,,,,,,,,,,,,,
1645708126.681113,3.000000,0.000000,4192.820313,4190.769043,4198.846191,4192.948730,4185.000000,4205.384766,4180.897461,4173.461426,4190.384766,4194.230957,4173.846191,4166.666504,4160.897461,4191.025879,3487.000000,4.000000,91.000000,,,,0.000000,4.000000,4.000000,4.000000,4.000000,4.000000,4.000000,4.000000,4.000000,4.000000,4.000000,4.000000,4.000000,4.000000,4.000000,100.000000,,,,,,,,,,,,,,,,
1645708126.685053,4.000000,0.000000,4196.153809,4193.717773,4203.974121,4195.000000,4188.846191,4207.820313,4184.743652,4183.077148,4195.512695,4198.589844,4181.794922,4174.230957,4170.000000,4197.051270,3674.000000,4.000000,91.000000,,,,0.000000,4.000000,4.000000,4.000000,4.000000,4.000000,4.000000,4.000000,4.000000,4.000000,4.000000,4.000000,4.000000,4.000000,4.000000,100.000000,,,,,,,,,,,,,,,,
1645708126.688894,5.000000,0.000000,4200.512695,4196.282227,4207.563965,4195.512695,4191.922852,4208.846191,4187.179688,4189.102539,4200.256348,4203.974121,4190.000000,4182.948730,4178.717773,4202.948730,3425.000000,4.000000,91.000000,,,,0.000000,4.000000,4.000000,4.000000,4.000000,4.000000,4.000000,4.000000,4.000000,4.000000,4.000000,4.000000,4.000000,4.000000,4.000000,100.000000,,,,,,,,,,,,,,,,
1645708126.692834,6.000000,0.000000,4203.717773,4197.436035,4208.333496,4195.128418,4193.717773,4208.461426,4186.410156,4190.256348,4203.205078,4208.846191,4195.641113,4188.974121,4182.948730,4206.666504,3193.000000,4.000000,91.000000,,,,0.000000,4.000000,4.000000,4.000000,4.000000,4.000000,4.000000,4.000000,4.000000,4.000000,4.000000,4.000000,4.000000,4.000000,4.000000,100.000000,,,,,,,,,,,,,,,,
1645708126.696774,7.000000,0.000000,4205.128418,4197.563965,4207.436035,4196.025879,4194.615234,4207.563965,4183.333496,4188.077148,4203.846191,4212.179688,4197.307617,4190.897461,4182.051270,4208.077148,2655.000000,4.000000,91.000000,,,,0.000000,4.000000,4.000000,4.000000,4.000000,4.000000,4.000000,4.000000,4.000000,4.000000,4.000000,4.000000,4.000000,4.000000,4.000000,100.000000,,,,,,,,,,,,,,,,
1645708126.700714,8.000000,0.000000,4205.384766,4198.077148,4206.666504,4199.615234,4194.743652,4207.307617,4180.000000,4185.897461,4202.820313,4213.846191,4195.769043,4189.743652,4178.846191,4208.077148,1547.000000,4.000000,91.000000,,,,0.000000,4.000000,4.000000,4.000000,4.000000,4.000000,4.000000,4.000000,4.000000,4.000000,4.000000,4.000000,4.000000,4.000000,4.000000,100.000000,,,,,,,,,,,,,,,,
1645708126.704654,9.000000,0.000000,4205.769043,4200.256348,4206.922852,4205.512695,4195.000000,4208.077148,4178.589844,4186.025879,4201.153809,4214.358887,4193.077148,4188.077148,4176.153809,4207.307617,3295.000000,4.000000,91.000000,,,,0.000000,4.000000,4.000000,4.000000,4.000000,4.000000,4.000000,4.000000,4.000000,4.000000,4.000000,4.000000,4.000000,4.000000,4.000000,100.000000,,,,,,,,,,,,,,,,
1645708126.708594,10.000000,0.000000,4206.410156,4203.461426,4207.692383,4211.794922,4195.769043,4209.102539,4179.230957,4188.461426,4199.743652,4215.256348,4191.666504,4187.436035,4175.256348,4206.666504,2826.000000,4.000000,91.000000,,,,0.000000,4.000000,4.000000,4.000000,4.000000,4.000000,4.000000,4.000000,4.000000,4.000000,4.000000,4.000000,4.000000,4.000000,4.000000,100.000000,,,,,,,,,,,,,,,,
1645708126.712534,11.000000,0.000000,4206.922852,4206.025879,4208.205078,4215.384766,4196.794922,4209.871582,4180.512695,4191.666504,4200.128418,4217.948730,4192.820313,4188.205078,4175.897461,4206.666504,3434.000000,4.000000,91.000000,,,,0.000000,4.000000,4.000000,4.000000,4.000000,4.000000,4.000000,4.000000,4.000000,4.000000,4.000000,4.000000,4.000000,4.000000,4.000000,100.000000,,,,,,,,,,,,,,,,
1645708126.716474,12.000000,0.000000,4206.538574,4206.538574,4208.077148,4213.974121,4196.538574,4209.871582,4181.153809,4195.128418,4203.077148,4223.205078,4195.897461,4189.487305,4177.307617,4207.307617,3304.000000,4.000000,91.000000,,,,0.000000,4.000000,4.000000,4.000000,4.000000,4.000000,4.000000,4.000000,4.000000,4.000000,4.000000,4.000000,4.000000,4.000000,4.000000,100.000000,,,,,,,,,,,,,,,,
1645708126.720414,13.000000,0.000000,4204.615234,4204.743652,4207.692383,4207.820313,4194.230957,4209.743652,4181.538574,4198.717773,4208.077148,4229.102539,4198.846191,4189.871582,4178.589844,4207.307617,3287.000000,4.000000,91.000000,,,,0.000000,4.000000,4.000000,4.000000,4.000000,4.000000,4.000000,4.000000,4.000000,4.000000,4.000000,4.000000,4.000000,4.000000,4.000000,100.000000,,,,,,,,,,,,,,,,
1645708126.724355,14.000000,0.000000,4201.153809,4201.410156,4206.922852,4200.384766,4191.410156,4210.769043,4182.692383,4201.922852,4212.692383,4232.179688,4200.128418,4188.846191,4179.230957,4205.384766,2826.000000,4.000000,91.000000,,,,0.000000,4.000000,4.000000,4.000000,4.000000,4.000000,4.000000,4.000000,4.000000,4.000000,4.000000,4.000000,4.000000,4.000000,4.000000,100.000000,1.000000,83.333336,4.000000,4.000000,3.000000,4.000000,4.000000,4.000000,3.000000,4.000000,4.000000,4.000000,4.000000,4.000000,4.000000,4.000000
1645708126.728295,15.000000,0.000000,4197.436035,4198.205078,4205.641113,4196.025879,4190.512695,4213.846191,4185.512695,4203.461426,4214.487305,4230.128418,4200.000000,4186.538574,4178.846191,4201.153809,3434.000000,4.000000,91.000000,,,,0.000000,4.000000,4.000000,4.000000,4.000000,4.000000,4.000000,4.000000,4.000000,4.000000,4.000000,4.000000,4.000000,4.000000,4.000000,100.000000,,,,,,,,,,,,,,,,
1645708126.732235,16.000000,0.000000,4194.615234,4196.025879,4203.333496,4195.897461,4192.948730,4218.077148,4188.846191,4202.436035,4212.563965,4223.205078,4198.974121,4183.461426,4177.820313,4195.897461,3304.000000,4.000000,91.000000,,,,0.000000,4.000000,4.000000,4.000000,4.000000,4.000000,4.000000,4.000000,4.000000,4.000000,4.000000,4.000000,4.000000,4.000000,4.000000,100.000000,,,,,,,,,,,,,,,,
1645708126.736175,17.000000,0.000000,4193.205078,4195.000000,4200.897461,4198.205078,4196.410156,4221.794922,4190.769043,4198.333496,4207.948730,4213.717773,4197.692383,4180.384766,4175.512695,4191.282227,3287.000000,4.000000,91.000000,,,,0.000000,4.000000,4.000000,4.000000,4.000000,4.000000,4.000000,4.000000,4.000000,4.000000,4.000000,4.000000,4.000000,4.000000,4.000000,100.000000,,,,,,,,,,,,,,,,
1645708126.740115,18.000000,0.000000,4192.051270,4194.487305,4198.974121,4199.487305,4197.692383,4222.948730,4190.897461,4192.436035,4203.205078,4205.128418,4196.025879,4177.179688,4171.538574,4188.589844,2826.000000,4.000000,91.000000,,,,0.000000,4.000000,4.000000,4.000000,4.000000,4.000000,4.000000,4.000000,4.000000,4.000000,4.000000,4.000000,4.000000,4.000000,4.000000,100.000000,,,,,,,,,,,,,,,,
1645708126.744055,19.000000,0.000000,4190.384766,4194.102539,4197.820313,4197.692383,4195.769043,4221.282227,4189.871582,4187.051270,4200.512695,4200.512695,4193.717773,4173.333496,4166.410156,4187.820313,3434.000000,4.000000,91.000000,,,,0.000000,4.000000,4.000000,4.000000,4.000000,4.000000,4.000000,4.000000,4.000000,4.000000,4.000000,4.000000,4.000000,4.000000,4.000000,100.000000,,,,,,,,,,,,,,,,
1645708126.747995,20.000000,0.000000,4188.205078,4194.102539,4196.538574,4193.589844,4192.692383,4218.846191,4189.487305,4184.743652,4200.769043,4201.025879,4191.282227,4169.358887,4162.307617,4187.820313,3304.000000,4.000000,91.000000,,,,0.000000,4.000000,4.000000,4.000000,4.000000,4.000000,4.000000,4.000000,4.000000,4.000000,4.000000,4.000000,4.000000,4.000000,4.000000,100.000000,,,,,,,,,,,,,,,,
1645708126.751935,21.000000,0.000000,4186.025879,4194.871582,4194.358887,4189.743652,4191.922852,4218.589844,4191.410156,4186.410156,4202.692383,4205.512695,4189.230957,4165.769043,4161.282227,4187.179688,3287.000000,4.000000,91.000000,,,,0.000000,4.000000,4.000000,4.000000,4.000000,4.000000,4.000000,4.000000,4.000000,4.000000,4.000000,4.000000,4.000000,4.000000,4.000000,100.000000,,,,,,,,,,,,,,,,
1645708126.755776,22.000000,0.000000,4183.461426,4195.256348,4191.025879,4187.436035,4194.743652,4221.410156,4195.384766,4190.384766,4204.358887,4210.512695,4187.436035,4162.820313,4162.179688,4184.487305,2826.000000,4.000000,91.000000,,,,0.000000,4.000000,4.000000,4.000000,4.000000,4.000000,4.000000,4.000000,4.000000,4.000000,4.000000,4.000000,4.000000,4.000000,4.000000,100.000000,,,,,,,,,,,,,,,,
1645708126.759716,23.000000,0.000000,4179.871582,4193.589844,4188.077148,4186.025879,4198.974121,4225.897461,4199.358887,4193.974121,4204.358887,4212.179688,4184.871582,4160.000000,4162.307617,4179.230957,3434.000000,4.000000,91.000000,,,,0.000000,4.000000,4.000000,4.000000,4.000000,4.000000,4.000000,4.000000,4.000000,4.000000,4.000000,4.000000,4.000000,4.000000,4.000000,100.000000,,,,,,,,,,,,,,,,
1645708126.763656,24.000000,0.000000,4175.512695,4189.102539,4186.282227,4183.974121,4201.410156,4228.461426,4200.512695,4194.743652,4202.820313,4209.615234,4181.538574,4156.922852,4159.358887,4172.563965,3304.000000,4.000000,91.000000,,,,0.000000,4.000000,4.000000,4.000000,4.000000,4.000000,4.000000,4.000000,4.000000,4.000000,4.000000,4.000000,4.000000,4.000000,4.000000,100.000000,,,,,,,,,,,,,,,,
1645708126.767596,25.000000,0.000000,4171.153809,4182.948730,4184.871582,4180.641113,4199.743652,4226.538574,4197.563965,4192.436035,4200.897461,4205.384766,4177.820313,4153.717773,4153.846191,4166.666504,3287.000000,4.000000,91.000000,,,,0.000000,4.000000,4.000000,4.000000,4.000000,4.000000,4.000000,4.000000,4.000000,4.000000,4.000000,4.000000,4.000000,4.000000,4.000000,100.000000,,,,,,,,,,,,,,,,
1645708126.771536,26.000000,0.000000,4167.820313,4177.051270,4182.436035,4176.153809,4193.846191,4220.384766,4191.410156,4187.820313,4199.871582,4202.948730,4174.743652,4150.897461,4148.461426,4163.717773,2826.000000,4.000000,91.000000,,,,0.000000,4.000000,4.000000,4.000000,4.000000,4.000000,4.000000,4.000000,4.000000,4.000000,4.000000,4.000000,4.000000,4.000000,4.000000,100.000000,,,,,,,,,,,,,,,,
1645708126.775476,27.000000,0.000000,4166.025879,4173.077148,4178.333496,4171.282227,4185.897461,4212.563965,4185.000000,4183.461426,4199.871582,4203.077148,4172.563965,4148.974121,4145.641113,4164.358887,3434.000000,4.000000,91.000000,,,,0.000000,4.000000,4.000000,4.000000,4.000000,4.000000,4.000000,4.000000,4.000000,4.000000,4.000000,4.000000,4.000000,4.000000,4.000000,100.000000,,,,,,,,,,,,,,,,
1645708126.779416,28.000000,0.000000,4165.256348,4172.436035,4174.358887,4166.794922,4179.487305,4206.666504,4181.282227,4181.282227,4200.256348,4204.487305,4171.025879,4148.717773,4146.025879,4167.179688,3304.000000,4.000000,91.000000,,,,0.000000,4.000000,4.000000,4.000000,4.000000,4.000000,4.000000,4.000000,4.000000,4.000000,4.000000,4.000000,4.000000,4.000000,4.000000,100.000000,,,,,,,,,,,,,,,,
1645708126.783356,29.000000,0.000000,4165.000000,4174.871582,4172.692383,4164.102539,4177.948730,4204.743652,4181.410156,4181.666504,4200.384766,4204.871582,4170.512695,4149.743652,4148.717773,4169.871582,3287.000000,4.000000,91.000000,,,,0.000000,4.000000,4.000000,4.000000,4.000000,4.000000,4.000000,4.000000,4.000000,4.000000,4.000000,4.000000,4.000000,4.000000,4.000000,100.000000,,,,,,,,,,,,,,,,
1645708126.787296,30.000000,0.000000,4165.128418,4179.358887,4174.358887,4165.512695,4182.563965,4206.922852,4184.615234,4183.205078,4200.769043,4203.589844,4171.666504,4152.051270,4151.794922,4171.025879,2826.000000,4.000000,91.000000,,,,0.000000,4.000000,4.000000,4.000000,4.000000,4.000000,4.000000,4.000000,4.000000,4.000000,4.000000,4.000000,4.000000,4.000000,4.000000,100.000000,,,,,,,,,,,,,,,,
1645708126.791236,31.000000,0.000000,4166.538574,4184.102539,4177.820313,4171.025879,4191.153809,4211.025879,4188.077148,4183.974121,4201.410156,4202.051270,4174.102539,4155.000000,4153.461426,4170.128418,3434.000000,4.000000,91.000000,,,,0.000000,4.000000,4.000000,4.000000,4.000000,4.000000,4.000000,4.000000,4.000000,4.000000,4.000000,4.000000,4.000000,4.000000,4.000000,100.000000,,,,,,,,,,,,,,,,
1645708126.795077,32.000000,0.000000,4169.615234,4187.051270,4180.769043,4178.077148,4198.974121,4214.102539,4188.589844,4183.333496,4201.794922,4201.794922,4176.538574,4157.436035,4153.077148,4167.948730,0.000000,4.000000,91.000000,,,,0.000000,4.000000,4.000000,4.000000,4.000000,4.000000,4.000000,4.000000,4.000000,4.000000,4.000000,4.000000,4.000000,4.000000,4.000000,100.000000,,,,,,,,,,,,,,,,
1645708126.799017,33.000000,0.000000,4173.077148,4187.051270,4181.410156,4182.179688,4202.179688,4213.717773,4185.384766,4181.794922,4201.153809,4202.692383,4177.307617,4157.692383,4150.897461,4165.897461,0.000000,4.000000,91.000000,,,,0.000000,4.000000,4.000000,4.000000,4.000000,4.000000,4.000000,4.000000,4.000000,4.000000,4.000000,4.000000,4.000000,4.000000,4.000000,100.000000,,,,,,,,,,,,,,,,
1645708126.802957,34.000000,0.000000,4174.743652,4184.230957,4180.000000,4181.282227,4200.128418,4209.615234,4180.256348,4180.641113,4199.615234,4203.974121,4176.153809,4155.000000,4149.358887,4165.769043,0.000000,4.000000,91.000000,,,,0.000000,4.000000,4.000000,4.000000,4.000000,4.000000,4.000000,4.000000,4.000000,4.000000,4.000000,4.000000,4.000000,4.000000,4.000000,100.000000,,,,,,,,,,,,,,,,
1645708126.806897,35.000000,0.000000,4174.487305,4181.410156,4178.333496,4177.179688,4195.641113,4204.487305,4175.769043,4180.641113,4198.461426,4205.384766,4174.102539,4150.384766,4150.384766,4168.205078,0.000000,4.000000,91.000000,,,,0.000000,4.000000,4.000000,4.000000,4.000000,4.000000,4.000000,4.000000,4.000000,4.000000,4.000000,4.000000,4.000000,4.000000,4.000000,100.000000,,,,,,,,,,,,,,,,
1645708126.810837,36.000000,0.000000,4173.461426,4181.410156,4178.077148,4174.102539,4192.179688,4201.538574,4173.333496,4181.666504,4198.974121,4206.922852,4172.563965,4146.282227,4153.589844,4171.666504,0.000000,4.000000,91.000000,,,,0.000000,4.000000,4.000000,4.000000,4.000000,4.000000,4.000000,4.000000,4.000000,4.000000,4.000000,4.000000,4.000000,4.000000,4.000000,100.000000,,,,,,,,,,,,,,,,
1645708126.814777,37.000000,0.000000,4173.333496,4185.256348,4180.128418,4175.512695,4191.410156,4201.666504,4172.948730,4182.948730,4200.769043,4208.333496,4171.538574,4144.871582,4155.769043,4173.846191,0.000000,4.000000,91.000000,,,,0.000000,4.000000,4.000000,4.000000,4.000000,4.000000,4.000000,4.000000,4.000000,4.000000,4.000000,4.000000,4.000000,4.000000,4.000000,100.000000,,,,,,,,,,,,,,,,
1645708126.818717,38.000000,0.000000,4174.487305,4190.384766,4183.461426,4181.025879,4191.794922,4203.333496,4174.487305,4183.974121,4202.307617,4208.333496,4170.000000,4146.025879,4154.743652,4172.692383,0.000000,4.000000,91.000000,,,,0.000000,4.000000,4.000000,4.000000,4.000000,4.000000,4.000000,4.000000,4.000000,4.000000,4.000000,4.000000,4.000000,4.000000,4.000000,100.000000,,,,,,,,,,,,,,,,
1645708126.822657,39.000000,0.000000,4176.153809,4193.461426,4185.897461,4187.179688,4191.666504,4204.230957,4177.179688,4184.871582,4202.436035,4206.538574,4167.563965,4148.333496,4150.641113,4168.589844,0.000000,4.000000,91.000000,,,,0.000000,4.000000,4.000000,4.000000,4.000000,4.000000,4.000000,4.000000,4.000000,4.000000,4.000000,4.000000,4.000000,4.000000,4.000000,100.000000,,,,,,,,,,,,,,,,
1645708126.826598,40.000000,0.000000,4177.692383,4193.333496,4186.153809,4191.025879,4191.282227,4204.487305,4180.256348,4185.256348,4201.410156,4204.230957,4165.000000,4150.256348,4146.153809,4164.230957,0.000000,4.000000,91.000000,,,,0.000000,4.000000,4.000000,4.000000,4.000000,4.000000,4.000000,4.000000,4.000000,4.000000,4.000000,4.000000,4.000000,4.000000,4.000000,100.000000,,,,,,,,,,,,,,,,
1645708126.830538,41.000000,0.000000,4178.974121,4191.410156,4184.743652,4191.025879,4193.205078,4205.128418,4182.436035,4184.487305,4199.871582,4202.820313,4163.717773,4150.641113,4143.461426,4162.179688,0.000000,4.000000,91.000000,,,,0.000000,4.000000,4.000000,4.000000,4.000000,4.000000,4.000000,4.000000,4.000000,4.000000,4.000000,4.000000,4.000000,4.000000,4.000000,100.000000,,,,,,,,,,,,,,,,
1645708126.834478,42.000000,0.000000,4179.743652,4190.256348,4183.333496,4188.461426,4198.333496,4207.051270,4183.333496,4182.563965,4199.487305,4202.436035,4163.461426,4149.358887,4142.307617,4162.307617,0.000000,4.000000,91.000000,,,,0.000000,4.000000,4.000000,4.000000,4.000000,4.000000,4.000000,4.000000,4.000000,4.000000,4.000000,4.000000,4.000000,4.000000,4.000000,100.000000,,,,,,,,,,,,,,,,
1645708126.838418,43.000000,0.000000,4179.871582,4190.769043,4183.205078,4185.769043,4202.948730,4209.102539,4183.077148,4180.641113,4200.000000,4201.410156,4162.692383,4147.179688,4140.641113,4161.666504,0.000000,4.000000,91.000000,,,,0.000000,4.000000,4.000000,4.000000,4.000000,4.000000,4.000000,4.000000,4.000000,4.000000,4.000000,4.000000,4.000000,4.000000,4.000000,100.000000,,,,,,,,,,,,,,,,
1645708126.842358,44.000000,0.000000,4179.358887,4191.922852,4184.358887,4185.000000,4201.794922,4209.358887,4182.820313,4179.871582,4200.128418,4198.333496,4159.615234,4144.871582,4137.436035,4158.205078,0.000000,4.000000,91.000000,,,,0.000000,4.000000,4.000000,4.000000,4.000000,4.000000,4.000000,4.000000,4.000000,4.000000,4.000000,4.000000,4.000000,4.000000,4.000000,100.000000,,,,,,,,,,,,,,,,
1645708126.846298,45.000000,0.000000,4178.333496,4191.922852,4185.769043,4187.051270,4193.461426,4207.948730,4183.589844,4180.512695,4199.102539,4193.461426,4154.871582,4143.461426,4133.333496,4152.179688,0.000000,4.000000,91.000000,,,,0.000000,4.000000,4.000000,4.000000,4.000000,4.000000,4.000000,4.000000,4.000000,4.000000,4.000000,4.000000,4.000000,4.000000,4.000000,100.000000,,,,,,,,,,,,,,,,
1645708126.850238,46.000000,0.000000,4177.692383,4191.153809,4187.051270,4190.897461,4182.948730,4206.922852,4185.641113,4181.666504,4197.563965,4189.615234,4151.538574,4143.846191,4131.025879,4147.051270,0.000000,4.000000,91.000000,,,,0.000000,4.000000,4.000000,4.000000,4.000000,4.000000,4.000000,4.000000,4.000000,4.000000,4.000000,4.000000,4.000000,4.000000,4.000000,100.000000,,,,,,,,,,,,,,,,
1645708126.854178,47.000000,0.000000,4179.102539,4191.410156,4188.846191,4194.230957,4178.589844,4208.205078,4188.461426,4182.820313,4198.077148,4189.487305,4152.692383,4146.666504,4133.077148,4146.025879,0.000000,4.000000,91.000000,,,,0.000000,4.000000,4.000000,4.000000,4.000000,4.000000,4.000000,4.000000,4.000000,4.000000,4.000000,4.000000,4.000000,4.000000,4.000000,100.000000,,,,,,,,,,,,,,,,
1645708126.858118,48.000000,0.000000,4182.948730,4194.743652,4192.051270,4195.512695,4185.769043,4211.922852,4191.410156,4184.102539,4201.666504,4193.717773,4158.333496,4151.666504,4139.102539,4149.487305,0.000000,4.000000,91.000000,,,,0.000000,4.000000,4.000000,4.000000,4.000000,4.000000,4.000000,4.000000,4.000000,4.000000,4.000000,4.000000,4.000000,4.000000,4.000000,100.000000,,,,,,,,,,,,,,,,
1645708126.862058,49.000000,0.000000,4187.948730,4200.897461,4196.153809,4195.128418,4201.922852,4216.153809,4194.487305,4186.025879,4206.666504,4200.641113,4165.769043,4157.820313,4146.153809,4155.897461,0.000000,4.000000,91.000000,,,,0.000000,4.000000,4.000000,4.000000,4.000000,4.000000,4.000000,4.000000,4.000000,4.000000,4.000000,4.000000,4.000000,4.000000,4.000000,100.000000,,,,,,,,,,,,,,,,
1645708126.865999,50.000000,0.000000,4192.563965,4207.051270,4200.128418,4195.384766,4218.846191,4219.487305,4197.051270,4188.974121,4210.128418,4207.307617,4171.538574,4163.717773,4150.769043,4163.589844,0.000000,4.000000,91.000000,,,,0.000000,4.000000,4.000000,4.000000,4.000000,4.000000,4.000000,4.000000,4.000000,4.000000,4.000000,4.000000,4.000000,4.000000,4.000000,100.000000,,,,,,,,,,,,,,,,
1645708126.869839,51.000000,0.000000,4196.025879,4210.512695,4203.077148,4198.461426,4227.563965,4221.922852,4198.589844,4192.692383,4210.384766,4211.666504,4173.589844,4168.461426,4151.282227,4171.410156,0.000000,4.000000,91.000000,,,,0.000000,4.000000,4.000000,4.000000,4.000000,4.000000,4.000000,4.000000,4.000000,4.000000,4.000000,4.000000,4.000000,4.000000,4.000000,100.000000,,,,,,,,,,,,,,,,
1645708126.873779,52.000000,0.000000,4197.563965,4210.256348,4205.000000,4204.487305,4225.000000,4223.846191,4198.846191,4197.051270,4209.102539,4212.948730,4171.666504,4171.410156,4149.102539,4178.717773,0.000000,4.000000,91.000000,,,,0.000000,4.000000,4.000000,4.000000,4.000000,4.000000,4.000000,4.000000,4.000000,4.000000,4.000000,4.000000,4.000000,4.000000,4.000000,100.000000,,,,,,,,,,,,,,,,
1645708126.877719,53.000000,0.000000,4197.563965,4207.563965,4206.282227,4211.410156,4215.641113,4225.641113,4199.358887,4201.153809,4208.717773,4211.410156,4167.948730,4172.436035,4146.922852,4183.461426,0.000000,4.000000,91.000000,,,,0.000000,4.000000,4.000000,4.000000,4.000000,4.000000,4.000000,4.000000,4.000000,4.000000,4.000000,4.000000,4.000000,4.000000,4.000000,100.000000,,,,,,,,,,,,,,,,
1645708126.881659,54.000000,0.000000,4196.666504,4204.615234,4207.051270,4216.153809,4207.692383,4226.666504,4201.025879,4203.974121,4209.871582,4207.948730,4165.384766,4171.153809,4146.666504,4183.717773,0.000000,4.000000,91.000000,,,,0.000000,4.000000,4.000000,4.000000,4.000000,4.000000,4.000000,4.000000,4.000000,4.000000,4.000000,4.000000,4.000000,4.000000,4.000000,100.000000,,,,,,,,,,,,,,,,
1645708126.885599,55.000000,0.000000,4196.025879,4203.589844,4207.051270,4216.794922,4206.666504,4226.666504,4203.589844,4205.641113,4211.410156,4204.743652,4166.282227,4167.948730,4148.205078,4179.102539,0.000000,4.000000,91.000000,,,,0.000000,4.000000,4.000000,4.000000,4.000000,4.000000,4.000000,4.000000,4.000000,4.000000,4.000000,4.000000,4.000000,4.000000,4.000000,100.000000,,,,,,,,,,,,,,,,
1645708126.889539,56.000000,0.000000,4195.384766,4204.230957,4205.256348,4213.205078,4211.282227,4225.256348,4204.358887,4206.025879,4211.922852,4203.077148,4170.641113,4163.589844,4150.769043,4171.794922,0.000000,4.000000,91.000000,,,,0.000000,4.000000,4.000000,4.000000,4.000000,4.000000,4.000000,4.000000,4.000000,4.000000,4.000000,4.000000,4.000000,4.000000,4.000000,100.000000,,,,,,,,,,,,,,,,
1645708126.893479,57.000000,0.000000,4193.077148,4204.487305,4201.282227,4207.307617,4215.769043,4222.820313,4201.794922,4204.871582,4211.282227,4203.333496,4175.256348,4159.358887,4152.692383,4164.743652,0.000000,4.000000,91.000000,,,,0.000000,4.000000,4.000000,4.000000,4.000000,4.000000,4.000000,4.000000,4.000000,4.000000,4.000000,4.000000,4.000000,4.000000,4.000000,100.000000,,,,,,,,,,,,,,,,
