title:Alex-WhieaXozPZOqnfGDjTmeHg, start timestamp:1645711581.769909, stop timestamp:1645711607.756659, headset type:EPOCPLUS, headset serial:3B9AEBFF, headset firmware:626, channels:55, sampling rate:eeg_256, samples:6595      , version:2.1, 
Timestamp,EEG.Counter,EEG.Interpolated,EEG.AF3,EEG.F7,EEG.F3,EEG.FC5,EEG.T7,EEG.P7,EEG.O1,EEG.O2,EEG.P8,EEG.T8,EEG.FC6,EEG.F4,EEG.F8,EEG.AF4,EEG.RawCq,EEG.Battery,EEG.BatteryPercent,MarkerIndex,MarkerType,MarkerValueInt,EEG.MarkerHardware,CQ.AF3,CQ.F7,CQ.F3,CQ.FC5,CQ.T7,CQ.P7,CQ.O1,CQ.O2,CQ.P8,CQ.T8,CQ.FC6,CQ.F4,CQ.F8,CQ.AF4,CQ.Overall,EQ.SampleRateQuality,EQ.OVERALL,EQ.AF3,EQ.F7,EQ.F3,EQ.FC5,EQ.T7,EQ.P7,EQ.O1,EQ.O2,EQ.P8,EQ.T8,EQ.FC6,EQ.F4,EQ.F8,EQ.AF4
1645711581.769909,137.000000,0.000000,4243.205078,4245.128418,4244.358887,4240.769043,4229.871582,4248.717773,4243.077148,3986.794922,4230.128418,4228.846191,4229.358887,4192.820313,4249.230957,4238.589844,3121.000000,4.000000,86.000000,,,,0.000000,4.000000,4.000000,4.000000,4.000000,4.000000,4.000000,4.000000,4.000000,4.000000,4.000000,4.000000,4.000000,4.000000,4.000000,100.000000,,,,,,,,,,,,,,,,
1645711581.773949,138.000000,0.000000,4246.538574,4241.153809,4246.922852,4242.692383,4226.794922,4245.512695,4238.846191,3987.692383,4231.282227,4223.461426,4226.794922,4189.487305,4247.179688,4244.615234,2292.000000,4.000000,86.000000,,,,0.000000,4.000000,4.000000,4.000000,4.000000,4.000000,4.000000,4.000000,4.000000,4.000000,4.000000,4.000000,4.000000,4.000000,4.000000,100.000000,1.000000,33.333332,1.000000,3.000000,4.000000,4.000000,3.000000,4.000000,4.000000,0.000000,4.000000,3.000000,4.000000,4.000000,4.000000,4.000000
1645711581.777890,139.000000,0.000000,4242.820313,4244.487305,4252.692383,4250.384766,4230.769043,4247.948730,4239.615234,3992.307617,4235.000000,4229.102539,4234.102539,4189.358887,4248.461426,4249.615234,2551.000000,4.000000,86.000000,,,,0.000000,4.000000,4.000000,4.000000,4.000000,4.000000,4.000000,4.000000,4.000000,4.000000,4.000000,4.000000,4.000000,4.000000,4.000000,100.000000,,,,,,,,,,,,,,,,
1645711581.781830,140.000000,0.000000,4238.974121,4251.153809,4257.820313,4256.794922,4236.025879,4251.153809,4242.051270,3996.923096,4237.307617,4238.846191,4242.948730,4191.410156,4250.256348,4250.256348,3235.000000,4.000000,86.000000,,,,0.000000,4.000000,4.000000,4.000000,4.000000,4.000000,4.000000,4.000000,4.000000,4.000000,4.000000,4.000000,4.000000,4.000000,4.000000,100.000000,,,,,,,,,,,,,,,,
1645711581.785770,141.000000,0.000000,4241.922852,4254.487305,4258.846191,4256.153809,4234.743652,4249.230957,4242.820313,3997.564209,4234.743652,4241.794922,4243.461426,4193.077148,4249.230957,4247.820313,3054.000000,4.000000,86.000000,,,,0.000000,4.000000,4.000000,4.000000,4.000000,4.000000,4.000000,4.000000,4.000000,4.000000,4.000000,4.000000,4.000000,4.000000,4.000000,100.000000,,,,,,,,,,,,,,,,
1645711581.789710,142.000000,0.000000,4248.333496,4252.436035,4256.538574,4250.769043,4227.948730,4243.846191,4241.922852,3994.743652,4228.846191,4236.282227,4235.256348,4193.974121,4245.769043,4245.384766,2292.000000,4.000000,86.000000,,,,0.000000,4.000000,4.000000,4.000000,4.000000,4.000000,4.000000,4.000000,4.000000,4.000000,4.000000,4.000000,4.000000,4.000000,4.000000,100.000000,,,,,,,,,,,,,,,,
1645711581.793650,143.000000,0.000000,4249.102539,4249.102539,4254.102539,4248.077148,4223.333496,4241.538574,4241.666504,3993.076904,4224.871582,4230.256348,4227.436035,4195.128418,4243.846191,4243.333496,2551.000000,4.000000,86.000000,,,,0.000000,4.000000,4.000000,4.000000,4.000000,4.000000,4.000000,4.000000,4.000000,4.000000,4.000000,4.000000,4.000000,4.000000,4.000000,100.000000,,,,,,,,,,,,,,,,
1645711581.797590,144.000000,0.000000,4242.307617,4247.692383,4253.461426,4250.384766,4225.128418,4245.128418,4241.922852,3995.384521,4225.769043,4230.512695,4227.307617,4195.897461,4245.128418,4240.000000,3235.000000,4.000000,86.000000,,,,0.000000,4.000000,4.000000,4.000000,4.000000,4.000000,4.000000,4.000000,4.000000,4.000000,4.000000,4.000000,4.000000,4.000000,4.000000,100.000000,,,,,,,,,,,,,,,,
1645711581.801530,145.000000,0.000000,4236.794922,4246.666504,4253.589844,4251.794922,4228.205078,4249.487305,4241.025879,4000.000000,4229.743652,4235.256348,4232.692383,4194.871582,4247.436035,4235.897461,3054.000000,4.000000,86.000000,,,,0.000000,4.000000,4.000000,4.000000,4.000000,4.000000,4.000000,4.000000,4.000000,4.000000,4.000000,4.000000,4.000000,4.000000,4.000000,100.000000,,,,,,,,,,,,,,,,
1645711581.805470,146.000000,0.000000,4240.641113,4242.948730,4253.077148,4245.641113,4225.897461,4248.205078,4238.717773,4003.333252,4232.820313,4237.820313,4236.538574,4192.179688,4247.948730,4234.871582,2292.000000,4.000000,86.000000,,,,0.000000,4.000000,4.000000,4.000000,4.000000,4.000000,4.000000,4.000000,4.000000,4.000000,4.000000,4.000000,4.000000,4.000000,4.000000,100.000000,,,,,,,,,,,,,,,,
1645711581.809410,147.000000,0.000000,4249.230957,4237.563965,4252.820313,4234.358887,4219.230957,4242.307617,4237.820313,4004.871826,4233.846191,4236.922852,4236.666504,4190.512695,4247.563965,4240.128418,2551.000000,4.000000,86.000000,,,,0.000000,4.000000,4.000000,4.000000,4.000000,4.000000,4.000000,4.000000,4.000000,4.000000,4.000000,4.000000,4.000000,4.000000,4.000000,100.000000,,,,,,,,,,,,,,,,
1645711581.813350,148.000000,0.000000,4250.897461,4234.358887,4254.615234,4226.794922,4216.922852,4239.102539,4241.025879,4007.179443,4234.358887,4237.692383,4236.922852,4192.563965,4249.230957,4249.487305,3235.000000,4.000000,86.000000,,,,0.000000,4.000000,4.000000,4.000000,4.000000,4.000000,4.000000,4.000000,4.000000,4.000000,4.000000,4.000000,4.000000,4.000000,4.000000,100.000000,,,,,,,,,,,,,,,,
1645711581.817291,149.000000,0.000000,4242.051270,4235.000000,4257.692383,4228.461426,4222.948730,4242.307617,4246.410156,4011.281982,4235.384766,4243.333496,4240.128418,4197.948730,4253.846191,4256.153809,3054.000000,4.000000,86.000000,,,,0.000000,4.000000,4.000000,4.000000,4.000000,4.000000,4.000000,4.000000,4.000000,4.000000,4.000000,4.000000,4.000000,4.000000,4.000000,100.000000,,,,,,,,,,,,,,,,
1645711581.821231,150.000000,0.000000,4232.307617,4236.922852,4258.974121,4235.256348,4231.153809,4247.179688,4248.974121,4014.743652,4235.256348,4248.589844,4243.077148,4202.820313,4257.563965,4256.153809,2292.000000,4.000000,86.000000,,,,0.000000,4.000000,4.000000,4.000000,4.000000,4.000000,4.000000,4.000000,4.000000,4.000000,4.000000,4.000000,4.000000,4.000000,4.000000,100.000000,,,,,,,,,,,,,,,,
1645711581.825171,151.000000,0.000000,4232.820313,4237.179688,4256.410156,4239.102539,4232.179688,4246.922852,4245.897461,4014.230713,4232.051270,4245.769043,4240.384766,4203.846191,4256.794922,4251.410156,2551.000000,4.000000,86.000000,,,,0.000000,4.000000,4.000000,4.000000,4.000000,4.000000,4.000000,4.000000,4.000000,4.000000,4.000000,4.000000,4.000000,4.000000,4.000000,100.000000,,,,,,,,,,,,,,,,
1645711581.829111,152.000000,0.000000,4242.307617,4237.179688,4251.666504,4237.563965,4225.512695,4241.410156,4239.871582,4011.025635,4227.692383,4235.769043,4232.948730,4201.410156,4252.436035,4247.563965,3235.000000,4.000000,86.000000,,,,0.000000,4.000000,4.000000,4.000000,4.000000,4.000000,4.000000,4.000000,4.000000,4.000000,4.000000,4.000000,4.000000,4.000000,4.000000,100.000000,,,,,,,,,,,,,,,,
1645711581.833051,153.000000,0.000000,4248.717773,4240.769043,4248.974121,4234.871582,4219.743652,4237.307617,4236.410156,4009.743652,4226.282227,4228.333496,4228.333496,4198.846191,4249.102539,4247.307617,3054.000000,4.000000,86.000000,,,,0.000000,4.000000,4.000000,4.000000,4.000000,4.000000,4.000000,4.000000,4.000000,4.000000,4.000000,4.000000,4.000000,4.000000,4.000000,100.000000,,,,,,,,,,,,,,,,
1645711581.836991,154.000000,0.000000,4245.256348,4248.205078,4250.000000,4235.128418,4221.538574,4239.358887,4238.077148,4013.718018,4230.256348,4231.282227,4231.025879,4197.563965,4250.000000,4248.461426,2292.000000,4.000000,86.000000,,,,0.000000,4.000000,4.000000,4.000000,4.000000,4.000000,4.000000,4.000000,4.000000,4.000000,4.000000,4.000000,4.000000,4.000000,4.000000,100.000000,,,,,,,,,,,,,,,,
1645711581.840931,155.000000,0.000000,4237.820313,4253.589844,4252.051270,4236.922852,4227.179688,4244.358887,4241.922852,4019.743652,4236.025879,4240.000000,4236.666504,4196.153809,4253.077148,4247.563965,2551.000000,4.000000,86.000000,,,,0.000000,4.000000,4.000000,4.000000,4.000000,4.000000,4.000000,4.000000,4.000000,4.000000,4.000000,4.000000,4.000000,4.000000,4.000000,100.000000,,,,,,,,,,,,,,,,
1645711581.844871,156.000000,0.000000,4236.153809,4251.025879,4251.025879,4236.538574,4227.820313,4245.769043,4243.461426,4022.179443,4237.692383,4242.820313,4236.794922,4192.307617,4253.333496,4244.230957,3235.000000,4.000000,86.000000,,,,0.000000,4.000000,4.000000,4.000000,4.000000,4.000000,4.000000,4.000000,4.000000,4.000000,4.000000,4.000000,4.000000,4.000000,4.000000,100.000000,,,,,,,,,,,,,,,,
1645711581.848911,157.000000,0.000000,4240.256348,4241.666504,4246.666504,4233.589844,4221.666504,4241.922852,4241.282227,4019.102539,4232.948730,4234.358887,4229.615234,4186.282227,4249.102539,4240.769043,3054.000000,4.000000,86.000000,,,,0.000000,4.000000,4.000000,4.000000,4.000000,4.000000,4.000000,4.000000,4.000000,4.000000,4.000000,4.000000,4.000000,4.000000,4.000000,100.000000,,,,,,,,,,,,,,,,
1645711581.852851,158.000000,0.000000,4241.410156,4232.948730,4241.922852,4231.666504,4215.256348,4237.307617,4237.820313,4013.974365,4225.128418,4221.666504,4222.179688,4181.025879,4243.589844,4238.589844,2292.000000,4.000000,86.000000,,,,0.000000,4.000000,4.000000,4.000000,4.000000,4.000000,4.000000,4.000000,4.000000,4.000000,4.000000,4.000000,4.000000,4.000000,4.000000,100.000000,,,,,,,,,,,,,,,,
1645711581.856792,159.000000,0.000000,4234.487305,4230.384766,4238.717773,4232.948730,4214.615234,4236.025879,4234.487305,4012.692383,4219.615234,4215.256348,4221.666504,4178.846191,4241.922852,4237.051270,2551.000000,4.000000,86.000000,,,,0.000000,4.000000,4.000000,4.000000,4.000000,4.000000,4.000000,4.000000,4.000000,4.000000,4.000000,4.000000,4.000000,4.000000,4.000000,100.000000,,,,,,,,,,,,,,,,
1645711581.860732,160.000000,0.000000,4226.153809,4232.051270,4236.666504,4234.230957,4217.179688,4235.769043,4231.410156,4017.179443,4218.333496,4218.205078,4227.179688,4178.846191,4244.230957,4236.025879,3235.000000,4.000000,86.000000,,,,0.000000,4.000000,4.000000,4.000000,4.000000,4.000000,4.000000,4.000000,4.000000,4.000000,4.000000,4.000000,4.000000,4.000000,4.000000,100.000000,,,,,,,,,,,,,,,,
1645711581.864672,161.000000,0.000000,4226.025879,4232.051270,4233.974121,4231.282227,4215.897461,4232.436035,4228.077148,4025.128174,4219.743652,4225.000000,4231.922852,4179.230957,4247.307617,4237.563965,3054.000000,4.000000,86.000000,,,,0.000000,4.000000,4.000000,4.000000,4.000000,4.000000,4.000000,4.000000,4.000000,4.000000,4.000000,4.000000,4.000000,4.000000,4.000000,100.000000,,,,,,,,,,,,,,,,
1645711581.868612,162.000000,0.000000,4234.102539,4229.743652,4231.410156,4225.897461,4210.641113,4226.538574,4226.538574,4033.461426,4222.051270,4230.512695,4232.692383,4180.128418,4248.333496,4242.820313,2292.000000,4.000000,86.000000,,,,0.000000,4.000000,4.000000,4.000000,4.000000,4.000000,4.000000,4.000000,4.000000,4.000000,4.000000,4.000000,4.000000,4.000000,4.000000,100.000000,,,,,,,,,,,,,,,,
1645711581.872552,163.000000,0.000000,4239.615234,4230.000000,4231.538574,4224.743652,4208.461426,4224.230957,4229.358887,4040.384521,4225.128418,4234.743652,4233.461426,4183.333496,4248.461426,4248.974121,2551.000000,4.000000,86.000000,,,,0.000000,4.000000,4.000000,4.000000,4.000000,4.000000,4.000000,4.000000,4.000000,4.000000,4.000000,4.000000,4.000000,4.000000,4.000000,100.000000,,,,,,,,,,,,,,,,
1645711581.876492,164.000000,0.000000,4235.897461,4235.897461,4235.641113,4231.922852,4213.846191,4228.846191,4235.128418,4044.615479,4229.102539,4239.487305,4237.563965,4188.461426,4249.743652,4250.897461,3235.000000,4.000000,86.000000,,,,0.000000,4.000000,4.000000,4.000000,4.000000,4.000000,4.000000,4.000000,4.000000,4.000000,4.000000,4.000000,4.000000,4.000000,4.000000,100.000000,,,,,,,,,,,,,,,,
1645711581.880432,165.000000,0.000000,4228.461426,4243.333496,4240.897461,4242.436035,4221.538574,4236.153809,4239.230957,4044.871826,4231.794922,4242.051270,4241.538574,4191.922852,4251.282227,4247.179688,3054.000000,4.000000,86.000000,,,,0.000000,4.000000,4.000000,4.000000,4.000000,4.000000,4.000000,4.000000,4.000000,4.000000,4.000000,4.000000,4.000000,4.000000,4.000000,100.000000,,,,,,,,,,,,,,,,
1645711581.884372,166.000000,0.000000,4227.563965,4244.743652,4243.205078,4247.051270,4221.538574,4238.461426,4238.077148,4040.769287,4230.769043,4238.077148,4238.461426,4190.256348,4250.384766,4241.794922,2292.000000,4.000000,86.000000,,,,0.000000,4.000000,4.000000,4.000000,4.000000,4.000000,4.000000,4.000000,4.000000,4.000000,4.000000,4.000000,4.000000,4.000000,4.000000,100.000000,,,,,,,,,,,,,,,,
1645711581.888312,167.000000,0.000000,4234.230957,4238.205078,4241.666504,4242.563965,4212.692383,4234.615234,4233.974121,4036.153809,4226.538574,4229.230957,4228.077148,4184.102539,4246.153809,4240.769043,2551.000000,4.000000,86.000000,,,,0.000000,4.000000,4.000000,4.000000,4.000000,4.000000,4.000000,4.000000,4.000000,4.000000,4.000000,4.000000,4.000000,4.000000,4.000000,100.000000,,,,,,,,,,,,,,,,
1645711581.892252,168.000000,0.000000,4239.487305,4230.256348,4238.974121,4234.743652,4203.974121,4231.025879,4232.179688,4036.153809,4222.820313,4223.974121,4218.717773,4179.102539,4241.025879,4245.128418,3235.000000,4.000000,86.000000,,,,0.000000,4.000000,4.000000,4.000000,4.000000,4.000000,4.000000,4.000000,4.000000,4.000000,4.000000,4.000000,4.000000,4.000000,4.000000,100.000000,,,,,,,,,,,,,,,,
1645711581.896193,169.000000,0.000000,4236.025879,4227.692383,4237.820313,4230.769043,4203.974121,4232.563965,4234.743652,4042.692383,4223.077148,4227.563965,4217.820313,4179.615234,4237.820313,4249.230957,3054.000000,4.000000,86.000000,,,,0.000000,4.000000,4.000000,4.000000,4.000000,4.000000,4.000000,4.000000,4.000000,4.000000,4.000000,4.000000,4.000000,4.000000,4.000000,100.000000,,,,,,,,,,,,,,,,
1645711581.900133,170.000000,0.000000,4228.333496,4229.743652,4238.205078,4231.538574,4209.871582,4236.282227,4238.077148,4050.769287,4226.282227,4235.128418,4223.205078,4184.487305,4235.769043,4248.077148,2292.000000,4.000000,86.000000,,,,0.000000,4.000000,4.000000,4.000000,4.000000,4.000000,4.000000,4.000000,4.000000,4.000000,4.000000,4.000000,4.000000,4.000000,4.000000,100.000000,,,,,,,,,,,,,,,,
1645711581.904073,171.000000,0.000000,4226.153809,4230.256348,4237.948730,4232.051270,4211.410156,4235.256348,4237.179688,4053.589844,4227.820313,4235.769043,4225.897461,4188.589844,4232.307617,4242.692383,2551.000000,4.000000,86.000000,,,,0.000000,4.000000,4.000000,4.000000,4.000000,4.000000,4.000000,4.000000,4.000000,4.000000,4.000000,4.000000,4.000000,4.000000,4.000000,100.000000,,,,,,,,,,,,,,,,
1645711581.908013,172.000000,0.000000,4231.538574,4226.025879,4236.153809,4229.102539,4204.358887,4227.948730,4231.666504,4049.487061,4224.743652,4225.897461,4221.282227,4188.846191,4227.820313,4238.974121,3235.000000,4.000000,86.000000,,,,0.000000,4.000000,4.000000,4.000000,4.000000,4.000000,4.000000,4.000000,4.000000,4.000000,4.000000,4.000000,4.000000,4.000000,4.000000,100.000000,,,,,,,,,,,,,,,,
1645711581.911953,173.000000,0.000000,4236.410156,4220.897461,4234.615234,4225.384766,4195.256348,4220.769043,4225.512695,4043.205078,4219.615234,4213.205078,4214.615234,4186.666504,4226.282227,4240.769043,3054.000000,4.000000,86.000000,,,,0.000000,4.000000,4.000000,4.000000,4.000000,4.000000,4.000000,4.000000,4.000000,4.000000,4.000000,4.000000,4.000000,4.000000,4.000000,100.000000,,,,,,,,,,,,,,,,
1645711581.915893,174.000000,0.000000,4233.205078,4220.512695,4235.256348,4224.615234,4192.692383,4219.743652,4222.692383,4040.512939,4216.538574,4207.820313,4213.205078,4185.512695,4230.384766,4245.641113,2292.000000,4.000000,86.000000,,,,0.000000,4.000000,4.000000,4.000000,4.000000,4.000000,4.000000,4.000000,4.000000,4.000000,4.000000,4.000000,4.000000,4.000000,4.000000,100.000000,,,,,,,,,,,,,,,,
1645711581.919833,175.000000,0.000000,4225.512695,4224.487305,4237.179688,4225.512695,4196.282227,4223.205078,4222.563965,4041.410156,4216.538574,4209.743652,4216.794922,4185.512695,4237.436035,4248.077148,2551.000000,4.000000,86.000000,,,,0.000000,4.000000,4.000000,4.000000,4.000000,4.000000,4.000000,4.000000,4.000000,4.000000,4.000000,4.000000,4.000000,4.000000,4.000000,100.000000,,,,,,,,,,,,,,,,
1645711581.923873,176.000000,0.000000,4222.563965,4226.794922,4237.692383,4222.692383,4197.563965,4223.974121,4221.666504,4041.794922,4216.794922,4210.897461,4218.717773,4184.358887,4241.025879,4245.897461,3235.000000,4.000000,86.000000,,,,0.000000,4.000000,4.000000,4.000000,4.000000,4.000000,4.000000,4.000000,4.000000,4.000000,4.000000,4.000000,4.000000,4.000000,4.000000,100.000000,,,,,,,,,,,,,,,,
1645711581.927813,177.000000,0.000000,4227.307617,4223.205078,4235.384766,4215.384766,4192.436035,4219.230957,4219.230957,4039.102539,4214.615234,4205.641113,4215.256348,4181.025879,4238.205078,4241.666504,3054.000000,4.000000,86.000000,,,,0.000000,4.000000,4.000000,4.000000,4.000000,4.000000,4.000000,4.000000,4.000000,4.000000,4.000000,4.000000,4.000000,4.000000,4.000000,100.000000,,,,,,,,,,,,,,,,
1645711581.931753,178.000000,0.000000,4232.179688,4216.666504,4232.051270,4210.000000,4186.666504,4214.230957,4217.948730,4035.641113,4210.897461,4199.102539,4211.153809,4177.948730,4232.820313,4238.205078,2292.000000,4.000000,86.000000,,,,0.000000,4.000000,4.000000,4.000000,4.000000,4.000000,4.000000,4.000000,4.000000,4.000000,4.000000,4.000000,4.000000,4.000000,4.000000,100.000000,,,,,,,,,,,,,,,,
1645711581.935694,179.000000,0.000000,4230.000000,4213.846191,4230.256348,4213.461426,4188.333496,4215.000000,4220.000000,4036.025635,4209.487305,4199.358887,4212.692383,4177.948730,4230.897461,4236.282227,2551.000000,4.000000,86.000000,,,,0.000000,4.000000,4.000000,4.000000,4.000000,4.000000,4.000000,4.000000,4.000000,4.000000,4.000000,4.000000,4.000000,4.000000,4.000000,100.000000,,,,,,,,,,,,,,,,
1645711581.939634,180.000000,0.000000,4223.717773,4216.282227,4230.641113,4223.974121,4196.794922,4220.512695,4223.846191,4041.538574,4211.538574,4207.563965,4219.102539,4180.128418,4233.461426,4234.615234,3235.000000,4.000000,86.000000,,,,0.000000,4.000000,4.000000,4.000000,4.000000,4.000000,4.000000,4.000000,4.000000,4.000000,4.000000,4.000000,4.000000,4.000000,4.000000,100.000000,,,,,,,,,,,,,,,,
1645711581.943574,181.000000,0.000000,4222.692383,4219.358887,4231.025879,4232.307617,4202.563965,4223.589844,4226.282227,4048.205078,4214.871582,4215.384766,4222.436035,4180.641113,4236.410156,4233.717773,3054.000000,4.000000,86.000000,,,,0.000000,4.000000,4.000000,4.000000,4.000000,4.000000,4.000000,4.000000,4.000000,4.000000,4.000000,4.000000,4.000000,4.000000,4.000000,100.000000,,,,,,,,,,,,,,,,
1645711581.947514,182.000000,0.000000,4228.846191,4218.461426,4229.615234,4231.538574,4199.743652,4220.641113,4226.282227,4051.794922,4216.282227,4216.410156,4217.820313,4177.179688,4236.153809,4235.000000,2292.000000,4.000000,86.000000,,,,0.000000,4.000000,4.000000,4.000000,4.000000,4.000000,4.000000,4.000000,4.000000,4.000000,4.000000,4.000000,4.000000,4.000000,4.000000,100.000000,,,,,,,,,,,,,,,,
1645711581.951454,183.000000,0.000000,4233.589844,4215.000000,4226.922852,4224.615234,4192.692383,4216.538574,4225.769043,4052.307617,4215.769043,4213.205078,4210.000000,4171.922852,4233.974121,4238.205078,2551.000000,4.000000,86.000000,,,,0.000000,4.000000,4.000000,4.000000,4.000000,4.000000,4.000000,4.000000,4.000000,4.000000,4.000000,4.000000,4.000000,4.000000,4.000000,100.000000,,,,,,,,,,,,,,,,
1645711581.955394,184.000000,0.000000,4228.974121,4213.205078,4224.487305,4220.000000,4190.384766,4218.205078,4226.538574,4053.076904,4216.153809,4213.589844,4207.948730,4168.589844,4234.102539,4240.769043,3235.000000,4.000000,86.000000,,,,0.000000,4.000000,4.000000,4.000000,4.000000,4.000000,4.000000,4.000000,4.000000,4.000000,4.000000,4.000000,4.000000,4.000000,4.000000,100.000000,,,,,,,,,,,,,,,,
1645711581.959334,185.000000,0.000000,4219.230957,4214.358887,4222.948730,4221.025879,4194.743652,4225.256348,4227.179688,4055.769287,4218.333496,4219.102539,4213.461426,4168.333496,4237.436035,4240.256348,3054.000000,4.000000,86.000000,,,,0.000000,4.000000,4.000000,4.000000,4.000000,4.000000,4.000000,4.000000,4.000000,4.000000,4.000000,4.000000,4.000000,4.000000,4.000000,100.000000,,,,,,,,,,,,,,,,
1645711581.963274,186.000000,0.000000,4215.897461,4215.641113,4221.538574,4223.205078,4198.717773,4230.641113,4226.153809,4058.718018,4220.512695,4224.230957,4220.128418,4168.974121,4240.769043,4237.179688,2292.000000,4.000000,86.000000,,,,0.000000,4.000000,4.000000,4.000000,4.000000,4.000000,4.000000,4.000000,4.000000,4.000000,4.000000,4.000000,4.000000,4.000000,4.000000,100.000000,,,,,,,,,,,,,,,,
1645711581.967214,187.000000,0.000000,4223.461426,4215.384766,4220.256348,4221.282227,4196.538574,4229.358887,4223.846191,4059.358887,4220.641113,4223.846191,4221.410156,4168.461426,4240.384766,4235.256348,2551.000000,4.000000,86.000000,,,,0.000000,4.000000,4.000000,4.000000,4.000000,4.000000,4.000000,4.000000,4.000000,4.000000,4.000000,4.000000,4.000000,4.000000,4.000000,100.000000,,,,,,,,,,,,,,,,
1645711581.971155,188.000000,0.000000,4233.461426,4216.410156,4220.769043,4216.025879,4191.666504,4224.743652,4223.077148,4057.948730,4219.102539,4220.769043,4218.589844,4167.179688,4237.307617,4236.666504,3235.000000,4.000000,86.000000,,,,0.000000,4.000000,4.000000,4.000000,4.000000,4.000000,4.000000,4.000000,4.000000,4.000000,4.000000,4.000000,4.000000,4.000000,4.000000,100.000000,,,,,,,,,,,,,,,,
1645711581.975095,189.000000,0.000000,4234.615234,4222.179688,4224.230957,4212.948730,4191.282227,4222.820313,4224.871582,4056.666748,4218.589844,4221.025879,4216.922852,4166.153809,4235.128418,4239.871582,3054.000000,4.000000,86.000000,,,,0.000000,4.000000,4.000000,4.000000,4.000000,4.000000,4.000000,4.000000,4.000000,4.000000,4.000000,4.000000,4.000000,4.000000,4.000000,100.000000,,,,,,,,,,,,,,,,
1645711581.979135,190.000000,0.000000,4226.282227,4230.128418,4228.333496,4213.717773,4196.410156,4224.615234,4226.282227,4056.538574,4219.487305,4224.102539,4218.077148,4164.743652,4235.512695,4241.410156,2292.000000,4.000000,86.000000,,,,0.000000,4.000000,4.000000,4.000000,4.000000,4.000000,4.000000,4.000000,4.000000,4.000000,4.000000,4.000000,4.000000,4.000000,4.000000,100.000000,,,,,,,,,,,,,,,,
1645711581.983075,191.000000,0.000000,4218.846191,4232.692383,4228.846191,4215.128418,4199.743652,4224.743652,4223.589844,4055.769287,4219.230957,4222.820313,4217.692383,4161.666504,4236.153809,4239.871582,2551.000000,4.000000,86.000000,,,,0.000000,4.000000,4.000000,4.000000,4.000000,4.000000,4.000000,4.000000,4.000000,4.000000,4.000000,4.000000,4.000000,4.000000,4.000000,100.000000,,,,,,,,,,,,,,,,
1645711581.987015,192.000000,0.000000,4219.358887,4225.512695,4224.230957,4213.846191,4195.512695,4220.128418,4217.051270,4053.333252,4216.025879,4213.205078,4212.692383,4157.436035,4234.230957,4235.897461,3235.000000,4.000000,86.000000,,,,0.000000,4.000000,4.000000,4.000000,4.000000,4.000000,4.000000,4.000000,4.000000,4.000000,4.000000,4.000000,4.000000,4.000000,4.000000,100.000000,,,,,,,,,,,,,,,,
1645711581.990955,193.000000,0.000000,4223.589844,4213.461426,4217.563965,4211.153809,4187.692383,4214.487305,4211.922852,4051.281982,4211.794922,4202.307617,4206.666504,4155.384766,4229.871582,4231.666504,3054.000000,4.000000,86.000000,,,,0.000000,4.000000,4.000000,4.000000,4.000000,4.000000,4.000000,4.000000,4.000000,4.000000,4.000000,4.000000,4.000000,4.000000,4.000000,100.000000,,,,,,,,,,,,,,,,
1645711581.994895,194.000000,0.000000,4222.948730,4205.512695,4213.461426,4210.897461,4184.743652,4213.077148,4212.436035,4052.435791,4210.000000,4201.025879,4205.384766,4157.307617,4226.538574,4227.948730,2292.000000,4.000000,86.000000,,,,0.000000,4.000000,4.000000,4.000000,4.000000,4.000000,4.000000,4.000000,4.000000,4.000000,4.000000,4.000000,4.000000,4.000000,4.000000,100.000000,,,,,,,,,,,,,,,,
1645711581.998835,195.000000,0.000000,4216.538574,4205.897461,4213.974121,4213.077148,4188.333496,4215.897461,4216.538574,4056.794922,4212.051270,4211.922852,4208.974121,4161.282227,4225.897461,4225.512695,2551.000000,4.000000,86.000000,,,,0.000000,4.000000,4.000000,4.000000,4.000000,4.000000,4.000000,4.000000,4.000000,4.000000,4.000000,4.000000,4.000000,4.000000,4.000000,100.000000,,,,,,,,,,,,,,,,
1645711582.002775,196.000000,0.000000,4212.563965,4210.256348,4216.666504,4213.589844,4191.794922,4216.922852,4218.205078,4060.769287,4215.128418,4224.487305,4211.282227,4163.717773,4226.666504,4225.897461,3235.000000,4.000000,86.000000,,,,0.000000,4.000000,4.000000,4.000000,4.000000,4.000000,4.000000,4.000000,4.000000,4.000000,4.000000,4.000000,4.000000,4.000000,4.000000,100.000000,,,,,,,,,,,,,,,,
1645711582.006715,197.000000,0.000000,4217.179688,4213.077148,4219.358887,4210.256348,4188.717773,4212.948730,4214.615234,4061.538574,4216.025879,4227.563965,4208.077148,4163.717773,4226.666504,4230.769043,3054.000000,4.000000,86.000000,,,,0.000000,4.000000,4.000000,4.000000,4.000000,4.000000,4.000000,4.000000,4.000000,4.000000,4.000000,4.000000,4.000000,4.000000,4.000000,100.000000,,,,,,,,,,,,,,,,
1645711582.010655,198.000000,0.000000,4225.128418,4213.974121,4222.179688,4207.307617,4182.179688,4208.205078,4208.846191,4060.128174,4214.871582,4220.256348,4202.948730,4163.846191,4226.538574,4238.717773,2292.000000,4.000000,86.000000,,,,0.000000,4.000000,4.000000,4.000000,4.000000,4.000000,4.000000,4.000000,4.000000,4.000000,4.000000,4.000000,4.000000,4.000000,4.000000,100.000000,,,,,,,,,,,,,,,,
1645711582.014596,199.000000,0.000000,4226.922852,4216.025879,4225.897461,4210.641113,4181.153809,4209.615234,4206.410156,4059.487061,4213.589844,4211.282227,4202.692383,4166.538574,4228.205078,4244.743652,2551.000000,4.000000,86.000000,,,,0.000000,4.000000,4.000000,4.000000,4.000000,4.000000,4.000000,4.000000,4.000000,4.000000,4.000000,4.000000,4.000000,4.000000,4.000000,100.000000,,,,,,,,,,,,,,,,
1645711582.018536,200.000000,0.000000,4221.282227,4218.974121,4228.717773,4218.717773,4188.205078,4216.922852,4208.205078,4060.512939,4212.820313,4207.051270,4207.179688,4170.128418,4231.410156,4244.230957,3235.000000,4.000000,86.000000,,,,0.000000,4.000000,4.000000,4.000000,4.000000,4.000000,4.000000,4.000000,4.000000,4.000000,4.000000,4.000000,4.000000,4.000000,4.000000,100.000000,,,,,,,,,,,,,,,,
1645711582.022476,201.000000,0.000000,4216.794922,4218.077148,4227.307617,4223.974121,4195.384766,4222.307617,4210.769043,4060.000000,4210.769043,4204.743652,4209.358887,4170.128418,4232.436035,4237.692383,3054.000000,4.000000,86.000000,1,1,2,0.000000,4.000000,4.000000,4.000000,4.000000,4.000000,4.000000,4.000000,4.000000,4.000000,4.000000,4.000000,4.000000,4.000000,4.000000,100.000000,,,,,,,,,,,,,,,,
1645711582.026416,202.000000,0.000000,4219.615234,4211.282227,4221.153809,4220.769043,4194.358887,4219.230957,4210.641113,4056.410156,4206.538574,4199.487305,4203.974121,4164.358887,4228.974121,4231.410156,2292.000000,4.000000,86.000000,,,,0.000000,4.000000,4.000000,4.000000,4.000000,4.000000,4.000000,4.000000,4.000000,4.000000,4.000000,4.000000,4.000000,4.000000,4.000000,100.000000,,,,,,,,,,,,,,,,
1645711582.030356,203.000000,0.000000,4225.384766,4203.974121,4214.743652,4212.563965,4186.410156,4210.641113,4209.102539,4052.435791,4202.563965,4192.563965,4195.000000,4156.666504,4223.333496,4230.769043,2551.000000,4.000000,86.000000,,,,0.000000,4.000000,4.000000,4.000000,4.000000,4.000000,4.000000,4.000000,4.000000,4.000000,4.000000,4.000000,4.000000,4.000000,4.000000,100.000000,,,,,,,,,,,,,,,,
1645711582.034296,204.000000,0.000000,4224.871582,4203.974121,4213.205078,4207.820313,4180.384766,4204.615234,4209.230957,4053.076904,4202.820313,4190.641113,4191.666504,4153.077148,4220.641113,4235.641113,3235.000000,4.000000,86.000000,,,,0.000000,4.000000,4.000000,4.000000,4.000000,4.000000,4.000000,4.000000,4.000000,4.000000,4.000000,4.000000,4.000000,4.000000,4.000000,100.000000,,,,,,,,,,,,,,,,
1645711582.038236,205.000000,0.000000,4217.307617,4211.794922,4216.922852,4209.487305,4181.794922,4205.256348,4211.282227,4058.461426,4207.179688,4196.282227,4197.179688,4155.641113,4222.436035,4240.384766,3054.000000,4.000000,86.000000,,,,0.000000,4.000000,4.000000,4.000000,4.000000,4.000000,4.000000,4.000000,4.000000,4.000000,4.000000,4.000000,4.000000,4.000000,4.000000,100.000000,,,,,,,,,,,,,,,,
1645711582.042176,206.000000,0.000000,4211.538574,4218.974121,4221.282227,4212.179688,4186.282227,4208.717773,4212.436035,4063.974365,4211.538574,4203.589844,4204.871582,4160.128418,4224.871582,4240.512695,2292.000000,4.000000,86.000000,,,,0.000000,4.000000,4.000000,4.000000,4.000000,4.000000,4.000000,4.000000,4.000000,4.000000,4.000000,4.000000,4.000000,4.000000,4.000000,100.000000,,,,,,,,,,,,,,,,
1645711582.046116,207.000000,0.000000,4214.615234,4217.692383,4221.666504,4209.743652,4187.051270,4210.256348,4211.282227,4065.384521,4211.922852,4205.512695,4206.410156,4161.922852,4223.846191,4236.282227,2551.000000,4.000000,86.000000,,,,0.000000,4.000000,4.000000,4.000000,4.000000,4.000000,4.000000,4.000000,4.000000,4.000000,4.000000,4.000000,4.000000,4.000000,4.000000,100.000000,,,,,,,,,,,,,,,,
1645711582.050156,208.000000,0.000000,4222.051270,4210.256348,4218.846191,4204.871582,4184.743652,4210.384766,4210.512695,4064.743652,4209.743652,4203.077148,4202.051270,4160.769043,4220.128418,4232.307617,3235.000000,4.000000,86.000000,,,,0.000000,4.000000,4.000000,4.000000,4.000000,4.000000,4.000000,4.000000,4.000000,4.000000,4.000000,4.000000,4.000000,4.000000,4.000000,100.000000,,,,,,,,,,,,,,,,
1645711582.054097,209.000000,0.000000,4223.846191,4206.410156,4217.307617,4204.743652,4186.153809,4213.205078,4213.589844,4068.076904,4210.256348,4204.487305,4199.615234,4160.512695,4218.974121,4231.666504,3054.000000,4.000000,86.000000,,,,0.000000,4.000000,4.000000,4.000000,4.000000,4.000000,4.000000,4.000000,4.000000,4.000000,4.000000,4.000000,4.000000,4.000000,4.000000,100.000000,,,,,,,,,,,,,,,,
1645711582.058037,210.000000,0.000000,4218.077148,4212.179688,4220.256348,4212.051270,4193.333496,4219.615234,4219.615234,4077.435791,4215.512695,4213.974121,4203.589844,4164.358887,4222.948730,4234.230957,2292.000000,4.000000,86.000000,,,,0.000000,4.000000,4.000000,4.000000,4.000000,4.000000,4.000000,4.000000,4.000000,4.000000,4.000000,4.000000,4.000000,4.000000,4.000000,100.000000,,,,,,,,,,,,,,,,
1645711582.061977,211.000000,0.000000,4213.717773,4223.205078,4226.153809,4220.641113,4199.615234,4224.102539,4224.358887,4088.076904,4222.307617,4226.153809,4209.871582,4170.384766,4228.846191,4237.820313,2551.000000,4.000000,86.000000,,,,0.000000,4.000000,4.000000,4.000000,4.000000,4.000000,4.000000,4.000000,4.000000,4.000000,4.000000,4.000000,4.000000,4.000000,4.000000,100.000000,,,,,,,,,,,,,,,,
1645711582.065917,212.000000,0.000000,4219.358887,4229.871582,4231.282227,4222.692383,4197.051270,4222.051270,4224.743652,4093.589844,4224.871582,4231.410156,4211.794922,4175.000000,4231.538574,4240.897461,3235.000000,4.000000,86.000000,,,,0.000000,4.000000,4.000000,4.000000,4.000000,4.000000,4.000000,4.000000,4.000000,4.000000,4.000000,4.000000,4.000000,4.000000,4.000000,100.000000,,,,,,,,,,,,,,,,
1645711582.069857,213.000000,0.000000,4230.769043,4228.077148,4233.717773,4218.205078,4187.948730,4216.282227,4222.436035,4092.179443,4222.051270,4227.692383,4209.487305,4176.666504,4230.128418,4242.820313,3054.000000,4.000000,86.000000,,,,0.000000,4.000000,4.000000,4.000000,4.000000,4.000000,4.000000,4.000000,4.000000,4.000000,4.000000,4.000000,4.000000,4.000000,4.000000,100.000000,,,,,,,,,,,,,,,,
1645711582.073797,214.000000,0.000000,4235.512695,4221.666504,4234.102539,4214.358887,4182.563965,4213.589844,4221.025879,4088.589844,4217.563965,4221.538574,4209.102539,4177.051270,4228.333496,4242.692383,2292.000000,4.000000,86.000000,,,,0.000000,4.000000,4.000000,4.000000,4.000000,4.000000,4.000000,4.000000,4.000000,4.000000,4.000000,4.000000,4.000000,4.000000,4.000000,100.000000,,,,,,,,,,,,,,,,
1645711582.077837,215.000000,0.000000,4228.333496,4215.512695,4233.461426,4216.282227,4186.922852,4216.538574,4220.897461,4087.307617,4215.256348,4219.871582,4214.102539,4178.205078,4229.230957,4240.000000,2551.000000,4.000000,86.000000,,,,0.000000,4.000000,4.000000,4.000000,4.000000,4.000000,4.000000,4.000000,4.000000,4.000000,4.000000,4.000000,4.000000,4.000000,4.000000,100.000000,,,,,,,,,,,,,,,,
1645711582.081877,216.000000,0.000000,4218.589844,4211.282227,4232.436035,4221.153809,4195.769043,4219.615234,4219.743652,4087.820557,4215.128418,4221.410156,4220.128418,4179.358887,4231.666504,4237.179688,3235.000000,4.000000,86.000000,,,,0.000000,4.000000,4.000000,4.000000,4.000000,4.000000,4.000000,4.000000,4.000000,4.000000,4.000000,4.000000,4.000000,4.000000,4.000000,100.000000,,,,,,,,,,,,,,,,
1645711582.085817,217.000000,0.000000,4218.077148,4207.820313,4231.153809,4222.948730,4199.102539,4217.436035,4216.153809,4086.923096,4214.615234,4220.769043,4220.512695,4178.846191,4232.179688,4237.563965,3054.000000,4.000000,86.000000,,,,0.000000,4.000000,4.000000,4.000000,4.000000,4.000000,4.000000,4.000000,4.000000,4.000000,4.000000,4.000000,4.000000,4.000000,4.000000,100.000000,,,,,,,,,,,,,,,,
1645711582.089757,218.000000,0.000000,4226.794922,4206.410156,4231.153809,4220.512695,4194.871582,4211.538574,4213.077148,4083.461426,4212.692383,4216.282227,4214.743652,4176.538574,4229.743652,4242.692383,2292.000000,4.000000,86.000000,,,,0.000000,4.000000,4.000000,4.000000,4.000000,4.000000,4.000000,4.000000,4.000000,4.000000,4.000000,4.000000,4.000000,4.000000,4.000000,100.000000,,,,,,,,,,,,,,,,
1645711582.093697,219.000000,0.000000,4233.717773,4210.128418,4233.333496,4218.717773,4189.743652,4208.974121,4213.717773,4079.743652,4211.025879,4212.307617,4209.487305,4174.102539,4227.051270,4248.589844,2551.000000,4.000000,86.000000,,,,0.000000,4.000000,4.000000,4.000000,4.000000,4.000000,4.000000,4.000000,4.000000,4.000000,4.000000,4.000000,4.000000,4.000000,4.000000,100.000000,,,,,,,,,,,,,,,,
1645711582.097637,220.000000,0.000000,4231.410156,4218.333496,4236.282227,4220.897461,4189.871582,4213.333496,4217.179688,4078.333252,4211.282227,4211.922852,4209.102539,4173.461426,4226.282227,4249.743652,3235.000000,4.000000,86.000000,,,,0.000000,4.000000,4.000000,4.000000,4.000000,4.000000,4.000000,4.000000,4.000000,4.000000,4.000000,4.000000,4.000000,4.000000,4.000000,100.000000,,,,,,,,,,,,,,,,
1645711582.101578,221.000000,0.000000,4224.615234,4225.641113,4237.307617,4225.000000,4192.948730,4220.128418,4219.487305,4078.846191,4212.436035,4212.179688,4210.769043,4173.974121,4226.666504,4244.615234,3054.000000,4.000000,86.000000,,,,0.000000,4.000000,4.000000,4.000000,4.000000,4.000000,4.000000,4.000000,4.000000,4.000000,4.000000,4.000000,4.000000,4.000000,4.000000,100.000000,,,,,,,,,,,,,,,,
1645711582.105518,222.000000,0.000000,4222.820313,4226.538574,4235.641113,4226.025879,4193.077148,4222.179688,4218.205078,4079.487061,4212.179688,4207.948730,4208.846191,4174.615234,4226.794922,4238.205078,2292.000000,4.000000,86.000000,,,,0.000000,4.000000,4.000000,4.000000,4.000000,4.000000,4.000000,4.000000,4.000000,4.000000,4.000000,4.000000,4.000000,4.000000,4.000000,100.000000,,,,,,,,,,,,,,,,
1645711582.109458,223.000000,0.000000,4227.563965,4222.436035,4233.974121,4223.846191,4189.743652,4219.358887,4215.769043,4080.384521,4210.512695,4200.384766,4203.846191,4176.282227,4227.179688,4237.051270,2551.000000,4.000000,86.000000,,,,0.000000,4.000000,4.000000,4.000000,4.000000,4.000000,4.000000,4.000000,4.000000,4.000000,4.000000,4.000000,4.000000,4.000000,4.000000,100.000000,,,,,,,,,,,,,,,,
1645711582.113398,224.000000,0.000000,4231.794922,4220.000000,4235.384766,4222.436035,4188.589844,4217.436035,4216.025879,4083.974365,4209.743652,4197.436035,4203.077148,4180.000000,4229.871582,4242.051270,3235.000000,4.000000,86.000000,,,,0.000000,4.000000,4.000000,4.000000,4.000000,4.000000,4.000000,4.000000,4.000000,4.000000,4.000000,4.000000,4.000000,4.000000,4.000000,100.000000,,,,,,,,,,,,,,,,
1645711582.117338,225.000000,0.000000,4230.384766,4222.563965,4239.871582,4223.717773,4192.563965,4220.128418,4218.846191,4090.256348,4212.179688,4203.717773,4210.128418,4184.358887,4234.615234,4248.333496,3054.000000,4.000000,86.000000,,,,0.000000,4.000000,4.000000,4.000000,4.000000,4.000000,4.000000,4.000000,4.000000,4.000000,4.000000,4.000000,4.000000,4.000000,4.000000,100.000000,,,,,,,,,,,,,,,,
1645711582.121278,226.000000,0.000000,4226.922852,4225.641113,4243.205078,4224.102539,4195.897461,4223.333496,4220.641113,4096.538574,4216.282227,4214.358887,4218.974121,4185.256348,4238.077148,4250.641113,2292.000000,4.000000,86.000000,,,,0.000000,4.000000,4.000000,4.000000,4.000000,4.000000,4.000000,4.000000,4.000000,4.000000,4.000000,4.000000,4.000000,4.000000,4.000000,100.000000,,,,,,,,,,,,,,,,
1645711582.125218,227.000000,0.000000,4228.077148,4222.948730,4241.153809,4218.846191,4191.282227,4221.025879,4218.333496,4098.846191,4218.589844,4219.358887,4220.256348,4180.000000,4237.051270,4249.102539,2551.000000,4.000000,86.000000,,,,0.000000,4.000000,4.000000,4.000000,4.000000,4.000000,4.000000,4.000000,4.000000,4.000000,4.000000,4.000000,4.000000,4.000000,4.000000,100.000000,,,,,,,,,,,,,,,,
1645711582.129158,228.000000,0.000000,4233.717773,4214.743652,4234.871582,4209.871582,4180.769043,4213.461426,4213.717773,4097.563965,4217.948730,4216.282227,4213.589844,4171.922852,4232.436035,4248.717773,3235.000000,4.000000,86.000000,,,,0.000000,4.000000,4.000000,4.000000,4.000000,4.000000,4.000000,4.000000,4.000000,4.000000,4.000000,4.000000,4.000000,4.000000,4.000000,100.000000,,,,,,,,,,,,,,,,
1645711582.133098,229.000000,0.000000,4236.282227,4209.358887,4229.358887,4205.897461,4175.000000,4207.820313,4211.282227,4096.410156,4216.282227,4213.077148,4208.846191,4167.692383,4229.358887,4252.051270,3054.000000,4.000000,86.000000,,,,0.000000,4.000000,4.000000,4.000000,4.000000,4.000000,4.000000,4.000000,4.000000,4.000000,4.000000,4.000000,4.000000,4.000000,4.000000,100.000000,,,,,,,,,,,,,,,,
1645711582.137138,230.000000,0.000000,4231.666504,4212.948730,4228.333496,4211.794922,4181.025879,4209.487305,4212.436035,4098.846191,4216.282227,4218.077148,4213.974121,4171.025879,4231.666504,4255.384766,2292.000000,4.000000,86.000000,,,,0.000000,4.000000,4.000000,4.000000,4.000000,4.000000,4.000000,4.000000,4.000000,4.000000,4.000000,4.000000,4.000000,4.000000,4.000000,100.000000,,,,,,,,,,,,,,,,
1645711582.141079,231.000000,0.000000,4225.512695,4222.692383,4230.641113,4222.820313,4192.948730,4215.641113,4214.230957,4103.717773,4217.692383,4227.948730,4225.512695,4178.077148,4237.179688,4253.461426,2551.000000,4.000000,86.000000,,,,0.000000,4.000000,4.000000,4.000000,4.000000,4.000000,4.000000,4.000000,4.000000,4.000000,4.000000,4.000000,4.000000,4.000000,4.000000,100.000000,,,,,,,,,,,,,,,,
1645711582.145019,232.000000,0.000000,4225.897461,4229.871582,4232.179688,4229.358887,4198.589844,4219.358887,4214.102539,4107.436035,4217.948730,4232.051270,4232.307617,4181.794922,4241.282227,4246.666504,3235.000000,4.000000,86.000000,,,,0.000000,4.000000,4.000000,4.000000,4.000000,4.000000,4.000000,4.000000,4.000000,4.000000,4.000000,4.000000,4.000000,4.000000,4.000000,100.000000,,,,,,,,,,,,,,,,
1645711582.148959,233.000000,0.000000,4232.179688,4230.256348,4231.410156,4228.077148,4194.102539,4217.948730,4212.948730,4108.333496,4216.153809,4226.025879,4229.743652,4179.615234,4241.666504,4240.897461,3054.000000,4.000000,86.000000,,,,0.000000,4.000000,4.000000,4.000000,4.000000,4.000000,4.000000,4.000000,4.000000,4.000000,4.000000,4.000000,4.000000,4.000000,4.000000,100.000000,,,,,,,,,,,,,,,,
1645711582.152899,234.000000,0.000000,4235.256348,4227.820313,4230.512695,4224.871582,4187.436035,4216.410156,4213.717773,4108.461426,4214.487305,4218.205078,4224.102539,4175.128418,4241.538574,4241.410156,2292.000000,4.000000,86.000000,,,,0.000000,4.000000,4.000000,4.000000,4.000000,4.000000,4.000000,4.000000,4.000000,4.000000,4.000000,4.000000,4.000000,4.000000,4.000000,100.000000,,,,,,,,,,,,,,,,
1645711582.156839,235.000000,0.000000,4229.871582,4228.589844,4231.410156,4226.025879,4188.077148,4218.974121,4216.794922,4110.256348,4214.871582,4218.974121,4223.974121,4172.820313,4244.230957,4246.666504,2551.000000,4.000000,86.000000,,,,0.000000,4.000000,4.000000,4.000000,4.000000,4.000000,4.000000,4.000000,4.000000,4.000000,4.000000,4.000000,4.000000,4.000000,4.000000,100.000000,,,,,,,,,,,,,,,,
1645711582.160779,236.000000,0.000000,4222.563965,4232.436035,4233.077148,4229.615234,4194.871582,4223.205078,4218.974121,4112.307617,4216.282227,4227.692383,4228.974121,4173.589844,4248.589844,4250.769043,3235.000000,4.000000,86.000000,,,,0.000000,4.000000,4.000000,4.000000,4.000000,4.000000,4.000000,4.000000,4.000000,4.000000,4.000000,4.000000,4.000000,4.000000,4.000000,100.000000,,,,,,,,,,,,,,,,
1645711582.164719,237.000000,0.000000,4222.948730,4232.692383,4232.179688,4228.077148,4198.461426,4222.436035,4216.794922,4111.666504,4215.769043,4233.717773,4231.025879,4175.000000,4250.512695,4249.615234,3054.000000,4.000000,86.000000,,,,0.000000,4.000000,4.000000,4.000000,4.000000,4.000000,4.000000,4.000000,4.000000,4.000000,4.000000,4.000000,4.000000,4.000000,4.000000,100.000000,,,,,,,,,,,,,,,,
1645711582.168659,238.000000,0.000000,4230.769043,4226.025879,4227.820313,4218.461426,4193.974121,4215.512695,4211.282227,4107.563965,4212.307617,4230.000000,4225.512695,4174.743652,4247.948730,4245.000000,2292.000000,4.000000,86.000000,,,,0.000000,4.000000,4.000000,4.000000,4.000000,4.000000,4.000000,4.000000,4.000000,4.000000,4.000000,4.000000,4.000000,4.000000,4.000000,100.000000,,,,,,,,,,,,,,,,
1645711582.172599,239.000000,0.000000,4235.128418,4216.538574,4222.820313,4207.692383,4186.922852,4208.461426,4206.922852,4103.205078,4208.205078,4220.641113,4217.307617,4173.461426,4243.077148,4241.153809,2551.000000,4.000000,86.000000,,,,0.000000,4.000000,4.000000,4.000000,4.000000,4.000000,4.000000,4.000000,4.000000,4.000000,4.000000,4.000000,4.000000,4.000000,4.000000,100.000000,,,,,,,,,,,,,,,,
1645711582.176539,240.000000,0.000000,4227.948730,4211.410156,4220.512695,4204.230957,4185.256348,4207.179688,4206.153809,4102.051270,4207.051270,4215.000000,4214.871582,4171.794922,4240.256348,4239.871582,3235.000000,4.000000,86.000000,,,,0.000000,4.000000,4.000000,4.000000,4.000000,4.000000,4.000000,4.000000,4.000000,4.000000,4.000000,4.000000,4.000000,4.000000,4.000000,100.000000,,,,,,,,,,,,,,,,
1645711582.180480,241.000000,0.000000,4215.128418,4212.948730,4221.025879,4208.077148,4188.846191,4210.256348,4207.563965,4103.589844,4208.589844,4215.256348,4219.615234,4169.615234,4240.000000,4240.000000,3054.000000,4.000000,86.000000,,,,0.000000,4.000000,4.000000,4.000000,4.000000,4.000000,4.000000,4.000000,4.000000,4.000000,4.000000,4.000000,4.000000,4.000000,4.000000,100.000000,,,,,,,,,,,,,,,,
1645711582.184420,242.000000,0.000000,4209.487305,4217.051270,4221.922852,4211.922852,4190.384766,4210.897461,4207.436035,4104.487305,4209.743652,4215.384766,4224.615234,4166.666504,4239.615234,4240.384766,2292.000000,4.000000,86.000000,,,,0.000000,4.000000,4.000000,4.000000,4.000000,4.000000,4.000000,4.000000,4.000000,4.000000,4.000000,4.000000,4.000000,4.000000,4.000000,100.000000,,,,,,,,,,,,,,,,
1645711582.188360,243.000000,0.000000,4215.128418,4218.589844,4221.410156,4210.641113,4185.128418,4206.282227,4204.743652,4103.333496,4208.846191,4211.025879,4223.846191,4164.102539,4236.282227,4241.538574,2551.000000,4.000000,86.000000,,,,0.000000,4.000000,4.000000,4.000000,4.000000,4.000000,4.000000,4.000000,4.000000,4.000000,4.000000,4.000000,4.000000,4.000000,4.000000,100.000000,,,,,,,,,,,,,,,,
1645711582.192300,244.000000,0.000000,4222.692383,4216.922852,4220.128418,4207.051270,4177.563965,4200.641113,4201.922852,4101.922852,4207.307617,4206.153809,4218.974121,4164.615234,4231.922852,4242.948730,3235.000000,4.000000,86.000000,2,1,2,0.000000,4.000000,4.000000,4.000000,4.000000,4.000000,4.000000,4.000000,4.000000,4.000000,4.000000,4.000000,4.000000,4.000000,4.000000,100.000000,,,,,,,,,,,,,,,,
1645711582.196240,245.000000,0.000000,4221.666504,4213.846191,4219.871582,4206.666504,4175.000000,4200.128418,4200.641113,4103.205078,4207.948730,4206.922852,4216.153809,4168.717773,4230.128418,4242.820313,3054.000000,4.000000,86.000000,,,,0.000000,4.000000,4.000000,4.000000,4.000000,4.000000,4.000000,4.000000,4.000000,4.000000,4.000000,4.000000,4.000000,4.000000,4.000000,100.000000,,,,,,,,,,,,,,,,
1645711582.200180,246.000000,0.000000,4213.974121,4210.384766,4220.512695,4210.128418,4178.333496,4203.974121,4200.256348,4106.025879,4210.384766,4212.436035,4217.051270,4173.333496,4232.051270,4240.384766,2292.000000,4.000000,86.000000,,,,0.000000,4.000000,4.000000,4.000000,4.000000,4.000000,4.000000,4.000000,4.000000,4.000000,4.000000,4.000000,4.000000,4.000000,4.000000,100.000000,,,,,,,,,,,,,,,,
1645711582.204120,247.000000,0.000000,4210.769043,4206.025879,4221.282227,4212.948730,4181.282227,4206.282227,4199.358887,4107.307617,4211.153809,4215.128418,4217.948730,4174.615234,4234.871582,4237.692383,2551.000000,4.000000,86.000000,,,,0.000000,4.000000,4.000000,4.000000,4.000000,4.000000,4.000000,4.000000,4.000000,4.000000,4.000000,4.000000,4.000000,4.000000,4.000000,100.000000,,,,,,,,,,,,,,,,
1645711582.208060,248.000000,0.000000,4217.436035,4202.692383,4222.307617,4212.692383,4179.871582,4204.230957,4199.358887,4105.769043,4209.102539,4211.153809,4215.897461,4172.307617,4236.282227,4238.333496,3235.000000,4.000000,86.000000,,,,0.000000,4.000000,4.000000,4.000000,4.000000,4.000000,4.000000,4.000000,4.000000,4.000000,4.000000,4.000000,4.000000,4.000000,4.000000,100.000000,,,,,,,,,,,,,,,,
1645711582.212100,249.000000,0.000000,4226.025879,4203.717773,4224.743652,4212.051270,4178.205078,4201.922852,4203.205078,4104.871582,4206.922852,4206.025879,4213.333496,4170.512695,4236.538574,4242.820313,3054.000000,4.000000,86.000000,,,,0.000000,4.000000,4.000000,4.000000,4.000000,4.000000,4.000000,4.000000,4.000000,4.000000,4.000000,4.000000,4.000000,4.000000,4.000000,100.000000,,,,,,,,,,,,,,,,
1645711582.216040,250.000000,0.000000,4226.282227,4210.128418,4228.461426,4214.487305,4181.666504,4204.743652,4210.769043,4108.461426,4208.461426,4207.307617,4213.974121,4172.307617,4237.820313,4247.436035,2292.000000,4.000000,86.000000,,,,0.000000,4.000000,4.000000,4.000000,4.000000,4.000000,4.000000,4.000000,4.000000,4.000000,4.000000,4.000000,4.000000,4.000000,4.000000,100.000000,,,,,,,,,,,,,,,,
1645711582.219981,251.000000,0.000000,4218.717773,4217.307617,4230.769043,4217.692383,4188.333496,4211.666504,4217.436035,4116.025879,4213.974121,4214.615234,4216.666504,4175.897461,4239.358887,4248.205078,2551.000000,4.000000,86.000000,,,,0.000000,4.000000,4.000000,4.000000,4.000000,4.000000,4.000000,4.000000,4.000000,4.000000,4.000000,4.000000,4.000000,4.000000,4.000000,100.000000,,,,,,,,,,,,,,,,
1645711582.223921,252.000000,0.000000,4213.846191,4218.717773,4229.102539,4216.282227,4189.743652,4215.897461,4218.205078,4122.307617,4218.974121,4219.743652,4216.282227,4176.410156,4238.717773,4246.282227,3235.000000,4.000000,86.000000,,,,0.000000,4.000000,4.000000,4.000000,4.000000,4.000000,4.000000,4.000000,4.000000,4.000000,4.000000,4.000000,4.000000,4.000000,4.000000,100.000000,,,,,,,,,,,,,,,,
1645711582.227861,253.000000,0.000000,4217.948730,4214.230957,4224.615234,4209.871582,4182.051270,4213.846191,4213.333496,4123.077148,4219.743652,4217.820313,4210.641113,4172.051270,4235.128418,4246.282227,3054.000000,4.000000,86.000000,,,,0.000000,4.000000,4.000000,4.000000,4.000000,4.000000,4.000000,4.000000,4.000000,4.000000,4.000000,4.000000,4.000000,4.000000,4.000000,100.000000,,,,,,,,,,,,,,,,
1645711582.231801,254.000000,0.000000,4225.769043,4211.410156,4221.922852,4205.641113,4172.307617,4209.358887,4208.205078,4120.384766,4217.307617,4213.333496,4204.615234,4166.025879,4232.051270,4249.871582,2292.000000,4.000000,86.000000,,,,0.000000,4.000000,4.000000,4.000000,4.000000,4.000000,4.000000,4.000000,4.000000,4.000000,4.000000,4.000000,4.000000,4.000000,4.000000,100.000000,,,,,,,,,,,,,,,,
1645711582.235741,255.000000,0.000000,4228.077148,4217.051270,4224.487305,4210.256348,4171.025879,4208.717773,4207.051270,4119.743652,4215.641113,4213.717773,4204.230957,4163.077148,4233.205078,4253.077148,113.000000,4.000000,86.000000,,,,0.000000,4.000000,4.000000,4.000000,4.000000,4.000000,4.000000,4.000000,4.000000,4.000000,4.000000,4.000000,4.000000,4.000000,4.000000,100.000000,,,,,,,,,,,,,,,,
1645711582.239681,0.000000,0.000000,4224.871582,4229.358887,4230.897461,4221.794922,4179.743652,4211.666504,4209.230957,4123.717773,4216.666504,4219.487305,4209.230957,4164.615234,4237.436035,4251.153809,3410.000000,4.000000,86.000000,,,,0.000000,4.000000,4.000000,4.000000,4.000000,4.000000,4.000000,4.000000,4.000000,4.000000,4.000000,4.000000,4.000000,4.000000,4.000000,100.000000,,,,,,,,,,,,,,,,
1645711582.243621,1.000000,0.000000,4223.974121,4238.333496,4236.282227,4231.025879,4189.102539,4212.307617,4210.384766,4129.743652,4218.461426,4223.205078,4213.461426,4167.692383,4239.615234,4244.230957,3308.000000,4.000000,86.000000,,,,0.000000,4.000000,4.000000,4.000000,4.000000,4.000000,4.000000,4.000000,4.000000,4.000000,4.000000,4.000000,4.000000,4.000000,4.000000,100.000000,,,,,,,,,,,,,,,,
1645711582.247561,2.000000,0.000000,4229.487305,4236.922852,4237.179688,4231.025879,4190.641113,4207.692383,4208.846191,4133.333496,4218.333496,4219.230957,4212.307617,4168.846191,4236.025879,4237.307617,2258.000000,4.000000,86.000000,,,,0.000000,4.000000,4.000000,4.000000,4.000000,4.000000,4.000000,4.000000,4.000000,4.000000,4.000000,4.000000,4.000000,4.000000,4.000000,100.000000,,,,,,,,,,,,,,,,
1645711582.251501,3.000000,0.000000,4234.615234,4227.563965,4234.487305,4224.743652,4186.025879,4202.563965,4207.051270,4132.820313,4216.153809,4210.512695,4209.102539,4167.948730,4229.358887,4234.743652,3214.000000,4.000000,86.000000,,,,0.000000,4.000000,4.000000,4.000000,4.000000,4.000000,4.000000,4.000000,4.000000,4.000000,4.000000,4.000000,4.000000,4.000000,4.000000,100.000000,,,,,,,,,,,,,,,,
1645711582.255441,4.000000,0.000000,4231.025879,4219.358887,4230.897461,4219.871582,4182.820313,4203.461426,4207.948730,4130.641113,4214.230957,4205.384766,4209.487305,4166.794922,4225.641113,4235.897461,3510.000000,4.000000,86.000000,,,,0.000000,4.000000,4.000000,4.000000,4.000000,4.000000,4.000000,4.000000,4.000000,4.000000,4.000000,4.000000,4.000000,4.000000,4.000000,100.000000,,,,,,,,,,,,,,,,
1645711582.259382,5.000000,0.000000,4220.897461,4217.051270,4228.333496,4220.384766,4184.102539,4210.512695,4210.384766,4129.230957,4213.846191,4206.922852,4213.333496,4166.025879,4227.179688,4236.922852,3258.000000,4.000000,86.000000,,,,0.000000,4.000000,4.000000,4.000000,4.000000,4.000000,4.000000,4.000000,4.000000,4.000000,4.000000,4.000000,4.000000,4.000000,4.000000,100.000000,,,,,,,,,,,,,,,,
1645711582.263322,6.000000,0.000000,4215.384766,4217.820313,4226.025879,4222.436035,4184.358887,4216.282227,4210.769043,4128.461426,4213.333496,4209.615234,4213.846191,4164.102539,4230.384766,4235.769043,3330.000000,4.000000,86.000000,,,,0.000000,4.000000,4.000000,4.000000,4.000000,4.000000,4.000000,4.000000,4.000000,4.000000,4.000000,4.000000,4.000000,4.000000,4.000000,100.000000,,,,,,,,,,,,,,,,
1645711582.267262,7.000000,0.000000,4220.512695,4217.051270,4223.589844,4221.538574,4179.102539,4215.000000,4207.948730,4127.820313,4211.025879,4207.692383,4207.436035,4160.128418,4230.512695,4233.974121,2640.000000,4.000000,86.000000,,,,0.000000,4.000000,4.000000,4.000000,4.000000,4.000000,4.000000,4.000000,4.000000,4.000000,4.000000,4.000000,4.000000,4.000000,4.000000,100.000000,,,,,,,,,,,,,,,,
1645711582.271202,8.000000,0.000000,4229.487305,4214.871582,4222.307617,4217.820313,4172.692383,4209.615234,4205.128418,4128.205078,4208.461426,4202.692383,4199.358887,4156.153809,4227.051270,4233.589844,1761.000000,4.000000,86.000000,,,,0.000000,4.000000,4.000000,4.000000,4.000000,4.000000,4.000000,4.000000,4.000000,4.000000,4.000000,4.000000,4.000000,4.000000,4.000000,100.000000,,,,,,,,,,,,,,,,
1645711582.275142,9.000000,0.000000,4231.025879,4215.512695,4223.589844,4215.256348,4173.461426,4207.307617,4205.512695,4130.769043,4208.077148,4200.769043,4197.948730,4155.256348,4223.589844,4234.615234,3128.000000,4.000000,86.000000,,,,0.000000,4.000000,4.000000,4.000000,4.000000,4.000000,4.000000,4.000000,4.000000,4.000000,4.000000,4.000000,4.000000,4.000000,4.000000,100.000000,,,,,,,,,,,,,,,,
1645711582.279082,10.000000,0.000000,4223.846191,4220.384766,4226.410156,4215.512695,4182.307617,4210.512695,4207.563965,4133.974121,4210.000000,4203.846191,4204.743652,4157.692383,4222.307617,4234.871582,2291.000000,4.000000,86.000000,,,,0.000000,4.000000,4.000000,4.000000,4.000000,4.000000,4.000000,4.000000,4.000000,4.000000,4.000000,4.000000,4.000000,4.000000,4.000000,100.000000,1.000000,33.333332,1.000000,4.000000,4.000000,4.000000,3.000000,4.000000,4.000000,0.000000,3.000000,3.000000,4.000000,4.000000,3.000000,4.000000
1645711582.283022,11.000000,0.000000,4218.077148,4225.000000,4228.205078,4216.410156,4190.512695,4213.717773,4207.436035,4134.230957,4211.666504,4206.410156,4210.897461,4159.871582,4221.410156,4233.717773,2666.000000,4.000000,86.000000,,,,0.000000,4.000000,4.000000,4.000000,4.000000,4.000000,4.000000,4.000000,4.000000,4.000000,4.000000,4.000000,4.000000,4.000000,4.000000,100.000000,,,,,,,,,,,,,,,,
1645711582.287062,12.000000,0.000000,4221.410156,4224.743652,4227.179688,4215.128418,4189.743652,4211.794922,4204.230957,4130.512695,4210.384766,4202.436035,4208.333496,4158.461426,4218.461426,4232.436035,3239.000000,4.000000,86.000000,,,,0.000000,4.000000,4.000000,4.000000,4.000000,4.000000,4.000000,4.000000,4.000000,4.000000,4.000000,4.000000,4.000000,4.000000,4.000000,100.000000,,,,,,,,,,,,,,,,
1645711582.291002,13.000000,0.000000,4229.615234,4221.282227,4225.000000,4213.461426,4182.563965,4207.179688,4201.410156,4126.794922,4207.307617,4195.000000,4199.487305,4155.000000,4214.743652,4232.563965,2997.000000,4.000000,86.000000,,,,0.000000,4.000000,4.000000,4.000000,4.000000,4.000000,4.000000,4.000000,4.000000,4.000000,4.000000,4.000000,4.000000,4.000000,4.000000,100.000000,,,,,,,,,,,,,,,,
1645711582.294942,14.000000,0.000000,4231.922852,4220.000000,4224.230957,4214.358887,4178.589844,4206.025879,4202.307617,4128.077148,4206.153809,4191.922852,4193.077148,4152.820313,4213.461426,4232.563965,2291.000000,4.000000,86.000000,,,,0.000000,4.000000,4.000000,4.000000,4.000000,4.000000,4.000000,4.000000,4.000000,4.000000,4.000000,4.000000,4.000000,4.000000,4.000000,100.000000,,,,,,,,,,,,,,,,
1645711582.298883,15.000000,0.000000,4225.384766,4222.307617,4225.641113,4216.538574,4182.051270,4209.743652,4206.282227,4133.846191,4207.820313,4196.794922,4193.846191,4153.333496,4215.897461,4230.512695,2666.000000,4.000000,86.000000,,,,0.000000,4.000000,4.000000,4.000000,4.000000,4.000000,4.000000,4.000000,4.000000,4.000000,4.000000,4.000000,4.000000,4.000000,4.000000,100.000000,,,,,,,,,,,,,,,,
1645711582.302823,16.000000,0.000000,4218.077148,4222.436035,4226.153809,4215.512695,4187.179688,4213.333496,4208.717773,4138.589844,4209.102539,4202.692383,4196.410156,4153.717773,4218.717773,4226.282227,3239.000000,4.000000,86.000000,,,,0.000000,4.000000,4.000000,4.000000,4.000000,4.000000,4.000000,4.000000,4.000000,4.000000,4.000000,4.000000,4.000000,4.000000,4.000000,100.000000,,,,,,,,,,,,,,,,
1645711582.306763,17.000000,0.000000,4217.436035,4215.128418,4223.589844,4208.717773,4186.538574,4211.666504,4207.179688,4137.820313,4207.051270,4201.153809,4194.487305,4151.153809,4217.820313,4223.461426,2997.000000,4.000000,86.000000,,,,0.000000,4.000000,4.000000,4.000000,4.000000,4.000000,4.000000,4.000000,4.000000,4.000000,4.000000,4.000000,4.000000,4.000000,4.000000,100.000000,,,,,,,,,,,,,,,,
1645711582.310703,18.000000,0.000000,4220.897461,4203.205078,4218.974121,4201.282227,4181.282227,4206.922852,4203.717773,4133.205078,4202.948730,4192.948730,4189.230957,4146.794922,4214.102539,4224.358887,2291.000000,4.000000,86.000000,,,,0.000000,4.000000,4.000000,4.000000,4.000000,4.000000,4.000000,4.000000,4.000000,4.000000,4.000000,4.000000,4.000000,4.000000,4.000000,100.000000,,,,,,,,,,,,,,,,
1645711582.314643,19.000000,0.000000,4219.871582,4195.512695,4215.769043,4200.384766,4179.615234,4205.769043,4201.794922,4130.897461,4200.897461,4187.051270,4188.077148,4143.974121,4211.794922,4226.794922,2666.000000,4.000000,86.000000,,,,0.000000,4.000000,4.000000,4.000000,4.000000,4.000000,4.000000,4.000000,4.000000,4.000000,4.000000,4.000000,4.000000,4.000000,4.000000,100.000000,,,,,,,,,,,,,,,,
1645711582.318583,20.000000,0.000000,4212.692383,4197.436035,4215.641113,4206.922852,4185.256348,4210.256348,4202.692383,4133.974121,4202.948730,4189.743652,4194.230957,4144.487305,4213.589844,4225.897461,3239.000000,4.000000,86.000000,,,,0.000000,4.000000,4.000000,4.000000,4.000000,4.000000,4.000000,4.000000,4.000000,4.000000,4.000000,4.000000,4.000000,4.000000,4.000000,100.000000,,,,,,,,,,,,,,,,
1645711582.322523,21.000000,0.000000,4207.948730,4205.000000,4217.179688,4213.333496,4191.666504,4214.615234,4204.102539,4139.358887,4206.410156,4196.794922,4201.794922,4146.794922,4217.051270,4221.153809,2997.000000,4.000000,86.000000,,,,0.000000,4.000000,4.000000,4.000000,4.000000,4.000000,4.000000,4.000000,4.000000,4.000000,4.000000,4.000000,4.000000,4.000000,4.000000,100.000000,,,,,,,,,,,,,,,,
1645711582.326463,22.000000,0.000000,4213.077148,4211.025879,4218.205078,4212.563965,4190.897461,4213.333496,4204.358887,4142.179688,4207.692383,4199.743652,4202.820313,4149.102539,4218.717773,4217.307617,2291.000000,4.000000,86.000000,,,,0.000000,4.000000,4.000000,4.000000,4.000000,4.000000,4.000000,4.000000,4.000000,4.000000,4.000000,4.000000,4.000000,4.000000,4.000000,100.000000,,,,,,,,,,,,,,,,
1645711582.330403,23.000000,0.000000,4223.461426,4213.461426,4219.102539,4206.666504,4183.974121,4207.820313,4204.102539,4141.410156,4206.410156,4197.179688,4198.205078,4151.666504,4218.205078,4219.615234,2666.000000,4.000000,86.000000,,,,0.000000,4.000000,4.000000,4.000000,4.000000,4.000000,4.000000,4.000000,4.000000,4.000000,4.000000,4.000000,4.000000,4.000000,4.000000,100.000000,,,,,,,,,,,,,,,,
1645711582.334343,24.000000,0.000000,4227.307617,4216.025879,4222.051270,4204.615234,4179.871582,4204.871582,4205.128418,4140.384766,4205.512695,4195.128418,4196.025879,4156.025879,4218.846191,4227.563965,3239.000000,4.000000,86.000000,,,,0.000000,4.000000,4.000000,4.000000,4.000000,4.000000,4.000000,4.000000,4.000000,4.000000,4.000000,4.000000,4.000000,4.000000,4.000000,100.000000,,,,,,,,,,,,,,,,
1645711582.338284,25.000000,0.000000,4220.897461,4220.769043,4226.538574,4210.128418,4183.589844,4207.051270,4206.282227,4141.153809,4206.666504,4198.717773,4201.410156,4160.897461,4222.436035,4235.000000,2997.000000,4.000000,86.000000,,,,0.000000,4.000000,4.000000,4.000000,4.000000,4.000000,4.000000,4.000000,4.000000,4.000000,4.000000,4.000000,4.000000,4.000000,4.000000,100.000000,,,,,,,,,,,,,,,,
1645711582.342224,26.000000,0.000000,4212.563965,4223.589844,4228.846191,4217.051270,4189.871582,4210.256348,4205.128418,4142.436035,4207.948730,4204.102539,4208.717773,4162.692383,4226.025879,4236.153809,2291.000000,4.000000,86.000000,,,,0.000000,4.000000,4.000000,4.000000,4.000000,4.000000,4.000000,4.000000,4.000000,4.000000,4.000000,4.000000,4.000000,4.000000,4.000000,100.000000,,,,,,,,,,,,,,,,
1645711582.346164,27.000000,0.000000,4212.307617,4219.487305,4226.410156,4216.922852,4190.512695,4209.487305,4201.410156,4141.922852,4206.794922,4204.615234,4209.358887,4159.487305,4226.153809,4231.794922,2666.000000,4.000000,86.000000,,,,0.000000,4.000000,4.000000,4.000000,4.000000,4.000000,4.000000,4.000000,4.000000,4.000000,4.000000,4.000000,4.000000,4.000000,4.000000,100.000000,,,,,,,,,,,,,,,,
1645711582.350104,28.000000,0.000000,4219.487305,4210.512695,4221.282227,4209.871582,4184.871582,4206.410156,4198.846191,4140.769043,4204.102539,4200.512695,4202.820313,4154.871582,4223.589844,4227.820313,3239.000000,4.000000,86.000000,,,,0.000000,4.000000,4.000000,4.000000,4.000000,4.000000,4.000000,4.000000,4.000000,4.000000,4.000000,4.000000,4.000000,4.000000,4.000000,100.000000,,,,,,,,,,,,,,,,
1645711582.354044,29.000000,0.000000,4224.358887,4205.384766,4218.846191,4204.102539,4180.512695,4207.179688,4201.538574,4142.820313,4203.974121,4199.230957,4197.948730,4153.974121,4222.692383,4228.846191,2997.000000,4.000000,86.000000,,,,0.000000,4.000000,4.000000,4.000000,4.000000,4.000000,4.000000,4.000000,4.000000,4.000000,4.000000,4.000000,4.000000,4.000000,4.000000,100.000000,,,,,,,,,,,,,,,,
1645711582.358084,30.000000,0.000000,4222.563965,4209.487305,4221.538574,4206.282227,4182.436035,4213.717773,4209.230957,4149.743652,4208.717773,4205.641113,4202.179688,4158.077148,4225.897461,4234.615234,2291.000000,4.000000,86.000000,,,,0.000000,4.000000,4.000000,4.000000,4.000000,4.000000,4.000000,4.000000,4.000000,4.000000,4.000000,4.000000,4.000000,4.000000,4.000000,100.000000,,,,,,,,,,,,,,,,
1645711582.362024,31.000000,0.000000,4220.384766,4218.974121,4226.282227,4213.205078,4186.666504,4220.384766,4216.922852,4157.820313,4215.000000,4214.743652,4212.563965,4162.948730,4230.384766,4241.153809,2666.000000,4.000000,86.000000,,,,0.000000,4.000000,4.000000,4.000000,4.000000,4.000000,4.000000,4.000000,4.000000,4.000000,4.000000,4.000000,4.000000,4.000000,4.000000,100.000000,,,,,,,,,,,,,,,,
1645711582.365964,32.000000,0.000000,4225.256348,4225.000000,4228.205078,4216.410156,4186.153809,4220.384766,4219.487305,4161.410156,4217.692383,4216.794922,4220.512695,4163.333496,4231.666504,4245.256348,0.000000,4.000000,86.000000,,,,0.000000,4.000000,4.000000,4.000000,4.000000,4.000000,4.000000,4.000000,4.000000,4.000000,4.000000,4.000000,4.000000,4.000000,4.000000,100.000000,,,,,,,,,,,,,,,,
1645711582.369904,33.000000,0.000000,4234.358887,4223.717773,4226.025879,4213.077148,4180.641113,4214.358887,4217.051270,4159.487305,4214.871582,4210.128418,4221.666504,4159.615234,4229.358887,4245.897461,0.000000,4.000000,86.000000,,,,0.000000,4.000000,4.000000,4.000000,4.000000,4.000000,4.000000,4.000000,4.000000,4.000000,4.000000,4.000000,4.000000,4.000000,4.000000,100.000000,,,,,,,,,,,,,,,,
1645711582.373844,34.000000,0.000000,4236.538574,4219.102539,4222.820313,4209.358887,4178.077148,4210.384766,4213.333496,4155.769043,4210.512695,4203.333496,4219.615234,4156.794922,4227.307617,4243.205078,0.000000,4.000000,86.000000,,,,0.000000,4.000000,4.000000,4.000000,4.000000,4.000000,4.000000,4.000000,4.000000,4.000000,4.000000,4.000000,4.000000,4.000000,4.000000,100.000000,,,,,,,,,,,,,,,,
1645711582.377785,35.000000,0.000000,4227.307617,4216.794922,4222.051270,4211.410156,4183.333496,4213.461426,4211.794922,4155.256348,4209.102539,4204.615234,4218.974121,4158.077148,4228.846191,4238.846191,0.000000,4.000000,86.000000,,,,0.000000,4.000000,4.000000,4.000000,4.000000,4.000000,4.000000,4.000000,4.000000,4.000000,4.000000,4.000000,4.000000,4.000000,4.000000,100.000000,,,,,,,,,,,,,,,,
1645711582.381725,36.000000,0.000000,4215.641113,4217.692383,4223.333496,4217.051270,4192.179688,4220.384766,4212.307617,4158.461426,4211.410156,4212.179688,4219.743652,4161.922852,4232.692383,4235.897461,0.000000,4.000000,86.000000,,,,0.000000,4.000000,4.000000,4.000000,4.000000,4.000000,4.000000,4.000000,4.000000,4.000000,4.000000,4.000000,4.000000,4.000000,4.000000,100.000000,,,,,,,,,,,,,,,,
1645711582.385665,37.000000,0.000000,4213.846191,4218.717773,4223.717773,4218.974121,4195.769043,4224.743652,4213.589844,4163.077148,4214.743652,4217.436035,4218.589844,4164.102539,4234.871582,4238.205078,0.000000,4.000000,86.000000,,,,0.000000,4.000000,4.000000,4.000000,4.000000,4.000000,4.000000,4.000000,4.000000,4.000000,4.000000,4.000000,4.000000,4.000000,4.000000,100.000000,,,,,,,,,,,,,,,,
1645711582.389605,38.000000,0.000000,4222.563965,4218.589844,4222.179688,4214.102539,4192.051270,4224.358887,4215.641113,4167.051270,4216.922852,4216.666504,4216.538574,4163.077148,4234.102539,4246.282227,0.000000,4.000000,86.000000,,,,0.000000,4.000000,4.000000,4.000000,4.000000,4.000000,4.000000,4.000000,4.000000,4.000000,4.000000,4.000000,4.000000,4.000000,4.000000,100.000000,,,,,,,,,,,,,,,,
1645711582.393545,39.000000,0.000000,4230.641113,4219.230957,4220.512695,4207.820313,4187.820313,4223.333496,4219.358887,4170.897461,4217.948730,4214.615234,4218.461426,4160.641113,4232.563965,4255.256348,0.000000,4.000000,86.000000,,,,0.000000,4.000000,4.000000,4.000000,4.000000,4.000000,4.000000,4.000000,4.000000,4.000000,4.000000,4.000000,4.000000,4.000000,4.000000,100.000000,,,,,,,,,,,,,,,,
1645711582.397485,40.000000,0.000000,4229.102539,4221.025879,4220.256348,4206.794922,4189.487305,4224.358887,4223.589844,4175.256348,4218.717773,4216.922852,4225.897461,4159.230957,4232.820313,4257.692383,0.000000,4.000000,86.000000,,,,0.000000,4.000000,4.000000,4.000000,4.000000,4.000000,4.000000,4.000000,4.000000,4.000000,4.000000,4.000000,4.000000,4.000000,4.000000,100.000000,,,,,,,,,,,,,,,,
1645711582.401425,41.000000,0.000000,4221.666504,4220.769043,4220.897461,4210.769043,4194.358887,4225.128418,4224.871582,4178.205078,4218.846191,4222.051270,4232.692383,4158.974121,4233.974121,4250.641113,0.000000,4.000000,86.000000,,,,0.000000,4.000000,4.000000,4.000000,4.000000,4.000000,4.000000,4.000000,4.000000,4.000000,4.000000,4.000000,4.000000,4.000000,4.000000,100.000000,,,,,,,,,,,,,,,,
1645711582.405365,42.000000,0.000000,4218.333496,4215.641113,4221.025879,4214.102539,4194.743652,4221.282227,4221.794922,4177.307617,4217.307617,4223.717773,4231.282227,4158.974121,4233.333496,4238.974121,0.000000,4.000000,86.000000,,,,0.000000,4.000000,4.000000,4.000000,4.000000,4.000000,4.000000,4.000000,4.000000,4.000000,4.000000,4.000000,4.000000,4.000000,4.000000,100.000000,,,,,,,,,,,,,,,,
1645711582.409305,43.000000,0.000000,4221.922852,4208.589844,4220.769043,4213.846191,4189.102539,4214.615234,4217.179688,4173.846191,4214.871582,4220.384766,4222.436035,4159.358887,4230.769043,4231.153809,0.000000,4.000000,86.000000,,,,0.000000,4.000000,4.000000,4.000000,4.000000,4.000000,4.000000,4.000000,4.000000,4.000000,4.000000,4.000000,4.000000,4.000000,4.000000,100.000000,,,,,,,,,,,,,,,,
1645711582.413245,44.000000,0.000000,4225.384766,4207.179688,4221.666504,4213.205078,4183.974121,4211.794922,4215.641113,4172.051270,4214.358887,4217.563965,4215.128418,4161.153809,4229.102539,4231.794922,0.000000,4.000000,86.000000,,,,0.000000,4.000000,4.000000,4.000000,4.000000,4.000000,4.000000,4.000000,4.000000,4.000000,4.000000,4.000000,4.000000,4.000000,4.000000,100.000000,,,,,,,,,,,,,,,,
1645711582.417186,45.000000,0.000000,4222.436035,4214.615234,4223.461426,4215.641113,4186.025879,4216.410156,4218.333496,4175.256348,4217.563965,4220.512695,4216.666504,4163.717773,4230.897461,4238.077148,0.000000,4.000000,86.000000,,,,0.000000,4.000000,4.000000,4.000000,4.000000,4.000000,4.000000,4.000000,4.000000,4.000000,4.000000,4.000000,4.000000,4.000000,4.000000,100.000000,,,,,,,,,,,,,,,,
1645711582.421126,46.000000,0.000000,4217.051270,4225.128418,4223.717773,4219.358887,4192.179688,4223.461426,4221.410156,4181.282227,4222.051270,4226.282227,4223.589844,4164.871582,4234.358887,4243.974121,0.000000,4.000000,86.000000,,,,0.000000,4.000000,4.000000,4.000000,4.000000,4.000000,4.000000,4.000000,4.000000,4.000000,4.000000,4.000000,4.000000,4.000000,4.000000,100.000000,,,,,,,,,,,,,,,,
1645711582.425066,47.000000,0.000000,4217.820313,4229.358887,4221.282227,4219.487305,4193.589844,4225.128418,4220.897461,4185.000000,4223.461426,4227.820313,4227.307617,4162.820313,4235.384766,4246.922852,0.000000,4.000000,86.000000,,,,0.000000,4.000000,4.000000,4.000000,4.000000,4.000000,4.000000,4.000000,4.000000,4.000000,4.000000,4.000000,4.000000,4.000000,4.000000,100.000000,,,,,,,,,,,,,,,,
1645711582.429006,48.000000,0.000000,4225.897461,4224.358887,4217.692383,4215.384766,4188.077148,4219.230957,4217.307617,4184.358887,4220.897461,4222.820313,4224.615234,4159.615234,4232.948730,4247.820313,0.000000,4.000000,86.000000,,,,0.000000,4.000000,4.000000,4.000000,4.000000,4.000000,4.000000,4.000000,4.000000,4.000000,4.000000,4.000000,4.000000,4.000000,4.000000,100.000000,,,,,,,,,,,,,,,,
1645711582.433046,49.000000,0.000000,4233.333496,4216.922852,4217.436035,4212.692383,4182.948730,4212.307617,4214.615234,4182.436035,4217.563965,4217.820313,4221.666504,4160.000000,4230.000000,4248.589844,0.000000,4.000000,86.000000,,,,0.000000,4.000000,4.000000,4.000000,4.000000,4.000000,4.000000,4.000000,4.000000,4.000000,4.000000,4.000000,4.000000,4.000000,4.000000,100.000000,,,,,,,,,,,,,,,,
1645711582.436986,50.000000,0.000000,4232.820313,4215.384766,4222.051270,4215.769043,4185.641113,4210.769043,4215.512695,4182.820313,4217.692383,4219.487305,4224.743652,4165.769043,4230.512695,4248.589844,0.000000,4.000000,86.000000,,,,0.000000,4.000000,4.000000,4.000000,4.000000,4.000000,4.000000,4.000000,4.000000,4.000000,4.000000,4.000000,4.000000,4.000000,4.000000,100.000000,,,,,,,,,,,,,,,,
1645711582.440926,51.000000,0.000000,4227.307617,4219.871582,4228.205078,4221.666504,4193.589844,4213.589844,4217.436035,4185.512695,4220.769043,4225.384766,4231.538574,4173.461426,4234.102539,4247.051270,0.000000,4.000000,86.000000,,,,0.000000,4.000000,4.000000,4.000000,4.000000,4.000000,4.000000,4.000000,4.000000,4.000000,4.000000,4.000000,4.000000,4.000000,4.000000,100.000000,,,,,,,,,,,,,,,,
1645711582.444866,52.000000,0.000000,4225.128418,4223.717773,4230.897461,4222.563965,4196.282227,4214.102539,4216.794922,4186.922852,4222.692383,4226.282227,4233.077148,4176.538574,4236.538574,4245.256348,0.000000,4.000000,86.000000,,,,0.000000,4.000000,4.000000,4.000000,4.000000,4.000000,4.000000,4.000000,4.000000,4.000000,4.000000,4.000000,4.000000,4.000000,4.000000,100.000000,,,,,,,,,,,,,,,,
1645711582.448806,53.000000,0.000000,4228.205078,4222.307617,4228.461426,4216.282227,4188.974121,4210.000000,4213.333496,4184.871582,4220.384766,4218.333496,4225.384766,4172.179688,4234.487305,4245.384766,0.000000,4.000000,86.000000,,,,0.000000,4.000000,4.000000,4.000000,4.000000,4.000000,4.000000,4.000000,4.000000,4.000000,4.000000,4.000000,4.000000,4.000000,4.000000,100.000000,,,,,,,,,,,,,,,,
1645711582.452746,54.000000,0.000000,4229.743652,4218.333496,4224.102539,4208.846191,4178.846191,4206.410156,4211.025879,4182.051270,4215.641113,4208.461426,4214.871582,4164.230957,4229.871582,4246.666504,0.000000,4.000000,86.000000,,,,0.000000,4.000000,4.000000,4.000000,4.000000,4.000000,4.000000,4.000000,4.000000,4.000000,4.000000,4.000000,4.000000,4.000000,4.000000,100.000000,,,,,,,,,,,,,,,,
1645711582.456687,55.000000,0.000000,4224.230957,4216.666504,4221.922852,4206.794922,4176.282227,4208.589844,4212.563965,4181.922852,4212.692383,4206.153809,4210.641113,4158.333496,4226.794922,4244.871582,0.000000,4.000000,86.000000,,,,0.000000,4.000000,4.000000,4.000000,4.000000,4.000000,4.000000,4.000000,4.000000,4.000000,4.000000,4.000000,4.000000,4.000000,4.000000,100.000000,,,,,,,,,,,,,,,,
1645711582.460627,56.000000,0.000000,4216.025879,4217.563965,4222.307617,4209.102539,4182.179688,4214.615234,4216.153809,4184.487305,4212.820313,4211.666504,4213.846191,4156.282227,4226.794922,4236.794922,0.000000,4.000000,86.000000,,,,0.000000,4.000000,4.000000,4.000000,4.000000,4.000000,4.000000,4.000000,4.000000,4.000000,4.000000,4.000000,4.000000,4.000000,4.000000,100.000000,,,,,,,,,,,,,,,,
1645711582.464567,57.000000,0.000000,4214.615234,4216.794922,4222.436035,4209.102539,4187.692383,4217.436035,4217.563965,4186.282227,4213.717773,4216.410156,4217.051270,4155.897461,4227.307617,4225.512695,0.000000,4.000000,86.000000,,,,0.000000,4.000000,4.000000,4.000000,4.000000,4.000000,4.000000,4.000000,4.000000,4.000000,4.000000,4.000000,4.000000,4.000000,4.000000,100.000000,,,,,,,,,,,,,,,,
1645711582.468507,58.000000,0.000000,4221.922852,4212.307617,4221.282227,4204.487305,4185.769043,4213.974121,4216.153809,4185.000000,4213.077148,4213.717773,4214.102539,4153.846191,4225.769043,4218.846191,0.000000,4.000000,86.000000,,,,0.000000,4.000000,4.000000,4.000000,4.000000,4.000000,4.000000,4.000000,4.000000,4.000000,4.000000,4.000000,4.000000,4.000000,4.000000,100.000000,,,,,,,,,,,,,,,,
1645711582.472447,59.000000,0.000000,4228.461426,4207.692383,4220.000000,4200.128418,4179.871582,4208.717773,4214.743652,4182.948730,4211.666504,4207.563965,4207.179688,4150.128418,4222.948730,4221.538574,0.000000,4.000000,86.000000,,,,0.000000,4.000000,4.000000,4.000000,4.000000,4.000000,4.000000,4.000000,4.000000,4.000000,4.000000,4.000000,4.000000,4.000000,4.000000,100.000000,,,,,,,,,,,,,,,,
1645711582.476387,60.000000,0.000000,4225.128418,4207.692383,4220.384766,4202.307617,4177.692383,4207.692383,4215.641113,4183.333496,4211.794922,4205.769043,4203.077148,4146.666504,4221.153809,4230.128418,0.000000,4.000000,86.000000,,,,0.000000,4.000000,4.000000,4.000000,4.000000,4.000000,4.000000,4.000000,4.000000,4.000000,4.000000,4.000000,4.000000,4.000000,4.000000,100.000000,,,,,,,,,,,,,,,,
1645711582.480327,61.000000,0.000000,4214.871582,4211.153809,4221.025879,4209.487305,4180.897461,4210.641113,4217.307617,4186.153809,4213.717773,4210.000000,4203.717773,4144.871582,4220.897461,4237.307617,0.000000,4.000000,86.000000,,,,0.000000,4.000000,4.000000,4.000000,4.000000,4.000000,4.000000,4.000000,4.000000,4.000000,4.000000,4.000000,4.000000,4.000000,4.000000,100.000000,,,,,,,,,,,,,,,,
1645711582.484267,62.000000,0.000000,4209.230957,4212.436035,4219.358887,4214.230957,4183.205078,4211.282227,4216.282227,4187.307617,4214.487305,4213.461426,4204.230957,4143.461426,4219.487305,4238.461426,0.000000,4.000000,86.000000,,,,0.000000,4.000000,4.000000,4.000000,4.000000,4.000000,4.000000,4.000000,4.000000,4.000000,4.000000,4.000000,4.000000,4.000000,4.000000,100.000000,,,,,,,,,,,,,,,,
1645711582.488207,63.000000,0.000000,4213.461426,4208.077148,4214.487305,4212.307617,4179.743652,4206.666504,4212.563965,4184.230957,4212.179688,4210.128418,4200.769043,4141.025879,4215.641113,4235.641113,0.000000,4.000000,86.000000,,,,0.000000,4.000000,4.000000,4.000000,4.000000,4.000000,4.000000,4.000000,4.000000,4.000000,4.000000,4.000000,4.000000,4.000000,4.000000,100.000000,,,,,,,,,,,,,,,,
1645711582.492147,64.000000,0.000000,4220.769043,4201.794922,4209.358887,4207.436035,4174.743652,4201.666504,4209.487305,4178.846191,4208.333496,4202.948730,4196.153809,4138.333496,4212.179688,4232.692383,0.000000,4.000000,86.000000,,,,0.000000,4.000000,4.000000,4.000000,4.000000,4.000000,4.000000,4.000000,4.000000,4.000000,4.000000,4.000000,4.000000,4.000000,4.000000,100.000000,,,,,,,,,,,,,,,,
1645711582.496088,65.000000,0.000000,4221.282227,4199.358887,4207.820313,4206.025879,4175.384766,4202.692383,4210.128418,4175.256348,4206.282227,4199.487305,4196.538574,4137.179688,4212.820313,4231.025879,0.000000,4.000000,86.000000,,,,0.000000,4.000000,4.000000,4.000000,4.000000,4.000000,4.000000,4.000000,4.000000,4.000000,4.000000,4.000000,4.000000,4.000000,4.000000,100.000000,,,,,,,,,,,,,,,,
1645711582.500028,66.000000,0.000000,4215.256348,4202.051270,4209.743652,4208.974121,4182.436035,4209.230957,4212.563965,4175.128418,4206.922852,4202.307617,4202.692383,4138.077148,4217.948730,4229.487305,0.000000,4.000000,86.000000,,,,0.000000,4.000000,4.000000,4.000000,4.000000,4.000000,4.000000,4.000000,4.000000,4.000000,4.000000,4.000000,4.000000,4.000000,4.000000,100.000000,,,,,,,,,,,,,,,,
1645711582.504068,67.000000,0.000000,4211.794922,4205.384766,4211.794922,4211.025879,4188.333496,4214.358887,4212.948730,4176.410156,4208.077148,4206.410156,4208.205078,4139.230957,4222.692383,4228.077148,0.000000,4.000000,86.000000,,,,0.000000,4.000000,4.000000,4.000000,4.000000,4.000000,4.000000,4.000000,4.000000,4.000000,4.000000,4.000000,4.000000,4.000000,4.000000,100.000000,,,,,,,,,,,,,,,,
1645711582.508008,68.000000,0.000000,4215.897461,4205.256348,4211.282227,4208.205078,4187.692383,4212.948730,4210.897461,4177.179688,4207.948730,4207.051270,4207.820313,4139.743652,4223.333496,4228.205078,0.000000,4.000000,86.000000,,,,0.000000,4.000000,4.000000,4.000000,4.000000,4.000000,4.000000,4.000000,4.000000,4.000000,4.000000,4.000000,4.000000,4.000000,4.000000,100.000000,,,,,,,,,,,,,,,,
1645711582.511948,69.000000,0.000000,4221.153809,4203.461426,4208.846191,4203.077148,4184.487305,4208.846191,4209.487305,4178.333496,4207.563965,4206.538574,4203.205078,4140.897461,4220.512695,4230.128418,0.000000,4.000000,86.000000,,,,0.000000,4.000000,4.000000,4.000000,4.000000,4.000000,4.000000,4.000000,4.000000,4.000000,4.000000,4.000000,4.000000,4.000000,4.000000,100.000000,,,,,,,,,,,,,,,,
1645711582.515888,70.000000,0.000000,4219.102539,4204.487305,4207.307617,4200.897461,4186.025879,4208.589844,4211.538574,4181.153809,4208.717773,4210.128418,4200.769043,4143.589844,4218.461426,4231.282227,0.000000,4.000000,86.000000,,,,0.000000,4.000000,4.000000,4.000000,4.000000,4.000000,4.000000,4.000000,4.000000,4.000000,4.000000,4.000000,4.000000,4.000000,4.000000,100.000000,,,,,,,,,,,,,,,,
1645711582.519828,71.000000,0.000000,4210.769043,4208.205078,4207.307617,4202.436035,4192.692383,4213.077148,4214.358887,4184.358887,4210.769043,4216.410156,4202.051270,4146.025879,4219.230957,4229.102539,0.000000,4.000000,86.000000,,,,0.000000,4.000000,4.000000,4.000000,4.000000,4.000000,4.000000,4.000000,4.000000,4.000000,4.000000,4.000000,4.000000,4.000000,4.000000,100.000000,,,,,,,,,,,,,,,,
1645711582.523768,72.000000,0.000000,4206.025879,4209.615234,4207.051270,4202.948730,4196.025879,4216.025879,4213.461426,4184.615234,4210.769043,4217.179688,4202.820313,4145.000000,4221.410156,4224.102539,0.000000,4.000000,86.000000,,,,0.000000,4.000000,4.000000,4.000000,4.000000,4.000000,4.000000,4.000000,4.000000,4.000000,4.000000,4.000000,4.000000,4.000000,4.000000,100.000000,,,,,,,,,,,,,,,,
1645711582.527708,73.000000,0.000000,4210.769043,4204.871582,4205.128418,4199.487305,4190.384766,4212.307617,4207.692383,4180.256348,4206.922852,4207.820313,4199.743652,4140.512695,4222.563965,4220.512695,0.000000,4.000000,86.000000,,,,0.000000,4.000000,4.000000,4.000000,4.000000,4.000000,4.000000,4.000000,4.000000,4.000000,4.000000,4.000000,4.000000,4.000000,4.000000,100.000000,,,,,,,,,,,,,,,,
1645711582.531648,74.000000,0.000000,4218.589844,4197.436035,4203.461426,4195.128418,4180.897461,4205.128418,4201.922852,4175.000000,4202.179688,4194.871582,4196.666504,4137.051270,4223.717773,4221.538574,0.000000,4.000000,86.000000,,,,0.000000,4.000000,4.000000,4.000000,4.000000,4.000000,4.000000,4.000000,4.000000,4.000000,4.000000,4.000000,4.000000,4.000000,4.000000,100.000000,,,,,,,,,,,,,,,,
1645711582.535589,75.000000,0.000000,4219.358887,4194.743652,4203.974121,4195.641113,4178.333496,4202.307617,4200.897461,4173.846191,4200.897461,4190.384766,4199.615234,4138.974121,4227.307617,4226.153809,0.000000,4.000000,86.000000,,,,0.000000,4.000000,4.000000,4.000000,4.000000,4.000000,4.000000,4.000000,4.000000,4.000000,4.000000,4.000000,4.000000,4.000000,4.000000,100.000000,,,,,,,,,,,,,,,,
1645711582.539529,76.000000,0.000000,4211.922852,4199.358887,4206.153809,4201.410156,4185.769043,4206.282227,4204.358887,4178.205078,4204.487305,4198.205078,4208.205078,4144.871582,4232.820313,4231.025879,0.000000,4.000000,86.000000,,,,0.000000,4.000000,4.000000,4.000000,4.000000,4.000000,4.000000,4.000000,4.000000,4.000000,4.000000,4.000000,4.000000,4.000000,4.000000,100.000000,,,,,,,,,,,,,,,,
1645711582.543469,77.000000,0.000000,4205.769043,4205.769043,4206.538574,4206.538574,4194.871582,4211.794922,4208.333496,4183.846191,4208.974121,4208.974121,4214.358887,4149.102539,4235.641113,4233.589844,0.000000,4.000000,86.000000,,,,0.000000,4.000000,4.000000,4.000000,4.000000,4.000000,4.000000,4.000000,4.000000,4.000000,4.000000,4.000000,4.000000,4.000000,4.000000,100.000000,,,,,,,,,,,,,,,,
1645711582.547409,78.000000,0.000000,4207.820313,4207.307617,4203.717773,4205.512695,4195.897461,4212.307617,4210.128418,4186.025879,4209.871582,4211.666504,4211.666504,4147.820313,4232.820313,4233.974121,0.000000,4.000000,86.000000,,,,0.000000,4.000000,4.000000,4.000000,4.000000,4.000000,4.000000,4.000000,4.000000,4.000000,4.000000,4.000000,4.000000,4.000000,4.000000,100.000000,,,,,,,,,,,,,,,,
1645711582.551349,79.000000,0.000000,4213.333496,4203.717773,4199.487305,4200.769043,4188.974121,4208.333496,4210.897461,4184.230957,4206.410156,4205.256348,4203.461426,4143.846191,4226.794922,4233.205078,0.000000,4.000000,86.000000,,,,0.000000,4.000000,4.000000,4.000000,4.000000,4.000000,4.000000,4.000000,4.000000,4.000000,4.000000,4.000000,4.000000,4.000000,4.000000,100.000000,,,,,,,,,,,,,,,,
1645711582.555289,80.000000,0.000000,4213.333496,4200.000000,4197.563965,4198.974121,4182.563965,4205.897461,4212.692383,4182.563965,4202.436035,4198.846191,4199.102539,4143.077148,4222.948730,4230.897461,0.000000,4.000000,86.000000,,,,0.000000,4.000000,4.000000,4.000000,4.000000,4.000000,4.000000,4.000000,4.000000,4.000000,4.000000,4.000000,4.000000,4.000000,4.000000,100.000000,,,,,,,,,,,,,,,,
1645711582.559229,81.000000,0.000000,4207.307617,4199.871582,4199.615234,4202.563965,4181.922852,4207.563965,4215.128418,4184.487305,4202.179688,4200.000000,4202.563965,4148.077148,4223.846191,4227.820313,0.000000,4.000000,86.000000,,,,0.000000,4.000000,4.000000,4.000000,4.000000,4.000000,4.000000,4.000000,4.000000,4.000000,4.000000,4.000000,4.000000,4.000000,4.000000,100.000000,,,,,,,,,,,,,,,,
1645711582.563169,82.000000,0.000000,4204.487305,4201.794922,4204.743652,4207.051270,4183.846191,4209.871582,4215.641113,4189.358887,4205.769043,4206.153809,4208.846191,4155.641113,4227.051270,4226.922852,0.000000,4.000000,86.000000,,,,0.000000,4.000000,4.000000,4.000000,4.000000,4.000000,4.000000,4.000000,4.000000,4.000000,4.000000,4.000000,4.000000,4.000000,4.000000,100.000000,,,,,,,,,,,,,,,,
1645711582.567109,83.000000,0.000000,4211.794922,4202.563965,4210.769043,4207.692383,4182.692383,4208.589844,4214.102539,4193.717773,4210.512695,4209.615234,4211.666504,4161.538574,4228.589844,4232.179688,0.000000,4.000000,86.000000,,,,0.000000,4.000000,4.000000,4.000000,4.000000,4.000000,4.000000,4.000000,4.000000,4.000000,4.000000,4.000000,4.000000,4.000000,4.000000,100.000000,,,,,,,,,,,,,,,,
1645711582.571050,84.000000,0.000000,4223.846191,4203.333496,4217.307617,4205.512695,4179.743652,4205.128418,4212.692383,4196.282227,4213.974121,4208.974121,4211.538574,4164.743652,4228.077148,4243.589844,0.000000,4.000000,86.000000,,,,0.000000,4.000000,4.000000,4.000000,4.000000,4.000000,4.000000,4.000000,4.000000,4.000000,4.000000,4.000000,4.000000,4.000000,4.000000,100.000000,,,,,,,,,,,,,,,,
1645711582.575090,85.000000,0.000000,4228.589844,4207.051270,4223.974121,4205.769043,4180.769043,4204.871582,4213.333496,4198.077148,4215.641113,4209.615234,4214.102539,4167.179688,4228.589844,4254.743652,0.000000,4.000000,86.000000,,,,0.000000,4.000000,4.000000,4.000000,4.000000,4.000000,4.000000,4.000000,4.000000,4.000000,4.000000,4.000000,4.000000,4.000000,4.000000,100.000000,,,,,,,,,,,,,,,,
1645711582.579030,86.000000,0.000000,4222.820313,4213.717773,4228.333496,4209.230957,4186.282227,4208.589844,4214.230957,4199.487305,4215.000000,4215.256348,4220.512695,4169.230957,4231.410156,4257.307617,0.000000,4.000000,86.000000,,,,0.000000,4.000000,4.000000,4.000000,4.000000,4.000000,4.000000,4.000000,4.000000,4.000000,4.000000,4.000000,4.000000,4.000000,4.000000,100.000000,,,,,,,,,,,,,,,,
1645711582.582970,87.000000,0.000000,4215.384766,4217.692383,4227.563965,4210.897461,4189.358887,4211.025879,4212.436035,4198.974121,4211.666504,4220.897461,4223.846191,4168.205078,4233.717773,4248.461426,0.000000,4.000000,86.000000,,,,0.000000,4.000000,4.000000,4.000000,4.000000,4.000000,4.000000,4.000000,4.000000,4.000000,4.000000,4.000000,4.000000,4.000000,4.000000,100.000000,,,,,,,,,,,,,,,,
1645711582.586910,88.000000,0.000000,4215.512695,4214.487305,4221.025879,4205.897461,4183.846191,4208.333496,4207.563965,4195.384766,4205.769043,4218.846191,4217.948730,4163.077148,4232.051270,4234.871582,0.000000,4.000000,86.000000,,,,0.000000,4.000000,4.000000,4.000000,4.000000,4.000000,4.000000,4.000000,4.000000,4.000000,4.000000,4.000000,4.000000,4.000000,4.000000,100.000000,,,,,,,,,,,,,,,,
1645711582.590850,89.000000,0.000000,4221.282227,4207.179688,4213.589844,4197.563965,4173.589844,4203.333496,4203.717773,4190.769043,4200.641113,4209.102539,4206.538574,4156.794922,4227.436035,4226.410156,0.000000,4.000000,86.000000,,,,0.000000,4.000000,4.000000,4.000000,4.000000,4.000000,4.000000,4.000000,4.000000,4.000000,4.000000,4.000000,4.000000,4.000000,4.000000,100.000000,,,,,,,,,,,,,,,,
1645711582.594790,90.000000,0.000000,4223.205078,4203.333496,4210.897461,4195.128418,4169.358887,4202.563965,4204.102539,4189.102539,4200.256348,4200.256348,4200.384766,4155.000000,4224.358887,4227.051270,0.000000,4.000000,86.000000,,,,0.000000,4.000000,4.000000,4.000000,4.000000,4.000000,4.000000,4.000000,4.000000,4.000000,4.000000,4.000000,4.000000,4.000000,4.000000,100.000000,,,,,,,,,,,,,,,,
1645711582.598730,91.000000,0.000000,4217.436035,4205.897461,4214.230957,4202.436035,4175.384766,4207.179688,4207.051270,4191.666504,4205.000000,4199.230957,4205.128418,4159.487305,4225.384766,4232.563965,0.000000,4.000000,86.000000,,,,0.000000,4.000000,4.000000,4.000000,4.000000,4.000000,4.000000,4.000000,4.000000,4.000000,4.000000,4.000000,4.000000,4.000000,4.000000,100.000000,,,,,,,,,,,,,,,,
1645711582.602670,92.000000,0.000000,4211.153809,4208.846191,4219.358887,4213.205078,4184.358887,4210.769043,4207.948730,4195.512695,4210.641113,4203.846191,4214.871582,4166.282227,4227.948730,4235.512695,0.000000,4.000000,86.000000,,,,0.000000,4.000000,4.000000,4.000000,4.000000,4.000000,4.000000,4.000000,4.000000,4.000000,4.000000,4.000000,4.000000,4.000000,4.000000,100.000000,,,,,,,,,,,,,,,,
1645711582.606610,93.000000,0.000000,4213.077148,4205.769043,4221.282227,4218.205078,4185.897461,4207.820313,4205.000000,4197.563965,4211.922852,4207.692383,4219.615234,4170.256348,4228.077148,4233.589844,0.000000,4.000000,86.000000,,,,0.000000,4.000000,4.000000,4.000000,4.000000,4.000000,4.000000,4.000000,4.000000,4.000000,4.000000,4.000000,4.000000,4.000000,4.000000,100.000000,,,,,,,,,,,,,,,,
1645711582.610550,94.000000,0.000000,4221.410156,4199.102539,4220.000000,4215.512695,4179.871582,4200.897461,4201.666504,4198.333496,4208.461426,4208.974121,4216.922852,4170.384766,4225.769043,4230.256348,0.000000,4.000000,86.000000,,,,0.000000,4.000000,4.000000,4.000000,4.000000,4.000000,4.000000,4.000000,4.000000,4.000000,4.000000,4.000000,4.000000,4.000000,4.000000,100.000000,,,,,,,,,,,,,,,,
1645711582.614491,95.000000,0.000000,4226.153809,4197.692383,4218.974121,4211.794922,4175.128418,4197.948730,4202.692383,4201.025879,4204.871582,4212.307617,4213.717773,4169.487305,4225.128418,4229.743652,0.000000,4.000000,86.000000,,,,0.000000,4.000000,4.000000,4.000000,4.000000,4.000000,4.000000,4.000000,4.000000,4.000000,4.000000,4.000000,4.000000,4.000000,4.000000,100.000000,,,,,,,,,,,,,,,,
1645711582.618431,96.000000,0.000000,4222.436035,4204.871582,4220.384766,4212.179688,4177.948730,4202.436035,4207.948730,4206.153809,4205.128418,4219.487305,4215.384766,4169.487305,4228.717773,4232.051270,0.000000,4.000000,86.000000,,,,0.000000,4.000000,4.000000,4.000000,4.000000,4.000000,4.000000,4.000000,4.000000,4.000000,4.000000,4.000000,4.000000,4.000000,4.000000,100.000000,,,,,,,,,,,,,,,,
1645711582.622371,97.000000,0.000000,4216.282227,4213.846191,4222.563965,4214.102539,4183.846191,4208.333496,4212.179688,4209.615234,4207.820313,4225.000000,4218.717773,4169.230957,4232.820313,4234.743652,0.000000,4.000000,86.000000,,,,0.000000,4.000000,4.000000,4.000000,4.000000,4.000000,4.000000,4.000000,4.000000,4.000000,4.000000,4.000000,4.000000,4.000000,4.000000,100.000000,,,,,,,,,,,,,,,,
1645711582.626311,98.000000,0.000000,4217.051270,4214.743652,4222.179688,4211.410156,4183.846191,4208.461426,4211.025879,4206.794922,4208.717773,4221.410156,4217.179688,4166.025879,4231.922852,4236.153809,0.000000,4.000000,86.000000,,,,0.000000,4.000000,4.000000,4.000000,4.000000,4.000000,4.000000,4.000000,4.000000,4.000000,4.000000,4.000000,4.000000,4.000000,4.000000,100.000000,,,,,,,,,,,,,,,,
1645711582.630251,99.000000,0.000000,4223.846191,4206.153809,4218.846191,4204.358887,4176.794922,4202.820313,4206.025879,4199.615234,4205.641113,4210.000000,4210.128418,4159.487305,4225.769043,4237.436035,0.000000,4.000000,86.000000,,,,0.000000,4.000000,4.000000,4.000000,4.000000,4.000000,4.000000,4.000000,4.000000,4.000000,4.000000,4.000000,4.000000,4.000000,4.000000,100.000000,,,,,,,,,,,,,,,,
1645711582.634191,100.000000,0.000000,4227.051270,4196.410156,4214.871582,4199.487305,4171.025879,4198.461426,4202.436035,4194.358887,4201.538574,4200.384766,4204.743652,4153.077148,4219.743652,4238.846191,0.000000,4.000000,86.000000,,,,0.000000,4.000000,4.000000,4.000000,4.000000,4.000000,4.000000,4.000000,4.000000,4.000000,4.000000,4.000000,4.000000,4.000000,4.000000,100.000000,,,,,,,,,,,,,,,,
1645711582.638131,101.000000,0.000000,4221.025879,4194.230957,4212.692383,4202.307617,4173.077148,4200.512695,4203.461426,4195.256348,4199.871582,4199.230957,4206.666504,4149.871582,4219.358887,4238.717773,0.000000,4.000000,86.000000,,,,0.000000,4.000000,4.000000,4.000000,4.000000,4.000000,4.000000,4.000000,4.000000,4.000000,4.000000,4.000000,4.000000,4.000000,4.000000,100.000000,,,,,,,,,,,,,,,,
1645711582.642071,102.000000,0.000000,4211.794922,4199.615234,4211.410156,4210.256348,4180.256348,4206.410156,4207.436035,4199.615234,4200.512695,4202.948730,4212.563965,4149.615234,4223.974121,4235.512695,0.000000,4.000000,86.000000,,,,0.000000,4.000000,4.000000,4.000000,4.000000,4.000000,4.000000,4.000000,4.000000,4.000000,4.000000,4.000000,4.000000,4.000000,4.000000,100.000000,,,,,,,,,,,,,,,,
1645711582.646011,103.000000,0.000000,4210.000000,4206.153809,4209.615234,4216.282227,4184.871582,4210.000000,4210.769043,4201.922852,4200.769043,4203.205078,4214.871582,4150.384766,4228.461426,4230.769043,0.000000,4.000000,86.000000,,,,0.000000,4.000000,4.000000,4.000000,4.000000,4.000000,4.000000,4.000000,4.000000,4.000000,4.000000,4.000000,4.000000,4.000000,4.000000,100.000000,,,,,,,,,,,,,,,,
1645711582.650051,104.000000,0.000000,4216.666504,4209.230957,4207.692383,4217.307617,4184.230957,4210.128418,4212.692383,4200.512695,4199.871582,4199.102539,4211.282227,4151.025879,4229.230957,4228.333496,0.000000,4.000000,86.000000,,,,0.000000,4.000000,4.000000,4.000000,4.000000,4.000000,4.000000,4.000000,4.000000,4.000000,4.000000,4.000000,4.000000,4.000000,4.000000,100.000000,,,,,,,,,,,,,,,,
1645711582.653992,105.000000,0.000000,4223.205078,4210.897461,4207.948730,4217.179688,4184.230957,4211.025879,4214.871582,4199.230957,4200.256348,4197.692383,4207.948730,4152.820313,4227.820313,4230.256348,0.000000,4.000000,86.000000,,,,0.000000,4.000000,4.000000,4.000000,4.000000,4.000000,4.000000,4.000000,4.000000,4.000000,4.000000,4.000000,4.000000,4.000000,4.000000,100.000000,,,,,,,,,,,,,,,,
1645711582.657932,106.000000,0.000000,4222.692383,4214.743652,4212.051270,4220.128418,4190.128418,4215.512695,4218.077148,4201.922852,4204.102539,4204.230957,4210.256348,4155.769043,4227.563965,4234.358887,0.000000,4.000000,86.000000,,,,0.000000,4.000000,4.000000,4.000000,4.000000,4.000000,4.000000,4.000000,4.000000,4.000000,4.000000,4.000000,4.000000,4.000000,4.000000,100.000000,,,,,,,,,,,,,,,,
1645711582.661872,107.000000,0.000000,4219.230957,4220.256348,4218.333496,4225.128418,4198.974121,4220.512695,4220.384766,4207.179688,4209.102539,4213.589844,4216.538574,4158.846191,4228.717773,4236.922852,0.000000,4.000000,86.000000,,,,0.000000,4.000000,4.000000,4.000000,4.000000,4.000000,4.000000,4.000000,4.000000,4.000000,4.000000,4.000000,4.000000,4.000000,4.000000,100.000000,,,,,,,,,,,,,,,,
1645711582.665812,108.000000,0.000000,4220.769043,4223.461426,4223.717773,4227.051270,4202.820313,4221.025879,4219.743652,4210.512695,4211.282227,4216.410156,4219.743652,4160.512695,4229.102539,4237.051270,0.000000,4.000000,86.000000,,,,0.000000,4.000000,4.000000,4.000000,4.000000,4.000000,4.000000,4.000000,4.000000,4.000000,4.000000,4.000000,4.000000,4.000000,4.000000,100.000000,,,,,,,,,,,,,,,,
1645711582.669752,109.000000,0.000000,4227.563965,4222.051270,4226.410156,4224.358887,4199.743652,4217.563965,4217.692383,4209.871582,4209.615234,4210.256348,4217.436035,4161.538574,4228.205078,4236.282227,0.000000,4.000000,86.000000,,,,0.000000,4.000000,4.000000,4.000000,4.000000,4.000000,4.000000,4.000000,4.000000,4.000000,4.000000,4.000000,4.000000,4.000000,4.000000,100.000000,,,,,,,,,,,,,,,,
1645711582.673692,110.000000,0.000000,4231.410156,4218.974121,4226.538574,4221.410156,4196.025879,4215.384766,4216.922852,4208.077148,4207.307617,4203.205078,4214.230957,4163.589844,4228.461426,4236.025879,0.000000,4.000000,86.000000,,,,0.000000,4.000000,4.000000,4.000000,4.000000,4.000000,4.000000,4.000000,4.000000,4.000000,4.000000,4.000000,4.000000,4.000000,4.000000,100.000000,,,,,,,,,,,,,,,,
1645711582.677632,111.000000,0.000000,4226.666504,4218.077148,4225.128418,4221.922852,4197.436035,4217.692383,4218.461426,4208.589844,4208.205078,4203.717773,4215.384766,4166.153809,4231.794922,4234.871582,0.000000,4.000000,86.000000,,,,0.000000,4.000000,4.000000,4.000000,4.000000,4.000000,4.000000,4.000000,4.000000,4.000000,4.000000,4.000000,4.000000,4.000000,4.000000,100.000000,,,,,,,,,,,,,,,,
1645711582.681572,112.000000,0.000000,4218.717773,4218.589844,4222.179688,4223.846191,4201.410156,4221.025879,4219.230957,4211.282227,4211.666504,4210.769043,4219.102539,4166.153809,4235.256348,4231.922852,0.000000,4.000000,86.000000,,,,0.000000,4.000000,4.000000,4.000000,4.000000,4.000000,4.000000,4.000000,4.000000,4.000000,4.000000,4.000000,4.000000,4.000000,4.000000,100.000000,,,,,,,,,,,,,,,,
1645711582.685512,113.000000,0.000000,4216.922852,4216.922852,4217.820313,4221.410156,4200.128418,4219.615234,4216.666504,4212.820313,4213.846191,4216.025879,4219.230957,4161.282227,4234.615234,4228.974121,0.000000,4.000000,86.000000,,,,0.000000,4.000000,4.000000,4.000000,4.000000,4.000000,4.000000,4.000000,4.000000,4.000000,4.000000,4.000000,4.000000,4.000000,4.000000,100.000000,,,,,,,,,,,,,,,,
1645711582.689452,114.000000,0.000000,4221.922852,4211.794922,4213.717773,4213.461426,4192.051270,4213.589844,4212.307617,4211.922852,4212.051270,4214.615234,4214.230957,4153.974121,4229.358887,4229.615234,0.000000,4.000000,86.000000,,,,0.000000,4.000000,4.000000,4.000000,4.000000,4.000000,4.000000,4.000000,4.000000,4.000000,4.000000,4.000000,4.000000,4.000000,4.000000,100.000000,,,,,,,,,,,,,,,,
1645711582.693393,115.000000,0.000000,4224.102539,4206.282227,4211.794922,4206.153809,4185.256348,4209.743652,4210.256348,4210.128418,4208.589844,4210.256348,4210.384766,4149.230957,4223.974121,4233.589844,0.000000,4.000000,86.000000,,,,0.000000,4.000000,4.000000,4.000000,4.000000,4.000000,4.000000,4.000000,4.000000,4.000000,4.000000,4.000000,4.000000,4.000000,4.000000,100.000000,,,,,,,,,,,,,,,,
1645711582.697333,116.000000,0.000000,4217.179688,4203.846191,4212.307617,4205.384766,4187.307617,4212.692383,4212.051270,4210.256348,4207.307617,4209.615234,4213.717773,4149.743652,4223.333496,4236.410156,0.000000,4.000000,86.000000,,,,0.000000,4.000000,4.000000,4.000000,4.000000,4.000000,4.000000,4.000000,4.000000,4.000000,4.000000,4.000000,4.000000,4.000000,4.000000,100.000000,,,,,,,,,,,,,,,,
1645711582.701273,117.000000,0.000000,4207.436035,4203.846191,4212.692383,4210.128418,4195.769043,4218.974121,4214.871582,4212.051270,4209.102539,4213.205078,4221.538574,4152.563965,4227.051270,4234.487305,0.000000,4.000000,86.000000,,,,0.000000,4.000000,4.000000,4.000000,4.000000,4.000000,4.000000,4.000000,4.000000,4.000000,4.000000,4.000000,4.000000,4.000000,4.000000,100.000000,,,,,,,,,,,,,,,,
1645711582.705213,118.000000,0.000000,4206.153809,4203.461426,4211.025879,4214.615234,4201.282227,4220.897461,4214.743652,4213.333496,4211.538574,4215.384766,4225.256348,4152.948730,4230.256348,4229.230957,0.000000,4.000000,86.000000,,,,0.000000,4.000000,4.000000,4.000000,4.000000,4.000000,4.000000,4.000000,4.000000,4.000000,4.000000,4.000000,4.000000,4.000000,4.000000,100.000000,,,,,,,,,,,,,,,,
1645711582.709153,119.000000,0.000000,4215.128418,4202.820313,4208.461426,4215.256348,4199.358887,4216.538574,4212.307617,4213.974121,4212.563965,4213.333496,4221.025879,4149.358887,4230.000000,4226.282227,0.000000,4.000000,86.000000,,,,0.000000,4.000000,4.000000,4.000000,4.000000,4.000000,4.000000,4.000000,4.000000,4.000000,4.000000,4.000000,4.000000,4.000000,4.000000,100.000000,,,,,,,,,,,,,,,,
1645711582.713093,120.000000,0.000000,4223.846191,4206.025879,4208.589844,4214.743652,4195.897461,4212.179688,4211.282227,4216.282227,4212.692383,4211.410156,4214.615234,4145.897461,4227.948730,4228.205078,0.000000,4.000000,86.000000,,,,0.000000,4.000000,4.000000,4.000000,4.000000,4.000000,4.000000,4.000000,4.000000,4.000000,4.000000,4.000000,4.000000,4.000000,4.000000,100.000000,,,,,,,,,,,,,,,,
1645711582.717033,121.000000,0.000000,4222.179688,4215.256348,4212.692383,4216.794922,4199.358887,4214.230957,4213.974121,4221.794922,4213.846191,4215.384766,4214.230957,4146.153809,4227.307617,4232.179688,0.000000,4.000000,86.000000,,,,0.000000,4.000000,4.000000,4.000000,4.000000,4.000000,4.000000,4.000000,4.000000,4.000000,4.000000,4.000000,4.000000,4.000000,4.000000,100.000000,,,,,,,,,,,,,,,,
1645711582.720973,122.000000,0.000000,4213.205078,4225.897461,4217.563965,4220.000000,4208.205078,4220.641113,4218.077148,4228.077148,4215.897461,4224.230957,4220.128418,4149.743652,4228.589844,4233.846191,0.000000,4.000000,86.000000,,,,0.000000,4.000000,4.000000,4.000000,4.000000,4.000000,4.000000,4.000000,4.000000,4.000000,4.000000,4.000000,4.000000,4.000000,4.000000,100.000000,,,,,,,,,,,,,,,,
1645711582.725013,123.000000,0.000000,4208.461426,4229.487305,4218.461426,4219.743652,4212.820313,4223.717773,4219.102539,4230.128418,4216.666504,4229.871582,4225.256348,4152.563965,4229.487305,4232.051270,0.000000,4.000000,86.000000,,,,0.000000,4.000000,4.000000,4.000000,4.000000,4.000000,4.000000,4.000000,4.000000,4.000000,4.000000,4.000000,4.000000,4.000000,4.000000,100.000000,,,,,,,,,,,,,,,,
1645711582.728953,124.000000,0.000000,4212.692383,4222.948730,4214.230957,4215.000000,4207.692383,4219.487305,4216.410156,4226.153809,4214.615234,4226.794922,4224.615234,4152.563965,4228.717773,4228.974121,0.000000,4.000000,86.000000,,,,0.000000,4.000000,4.000000,4.000000,4.000000,4.000000,4.000000,4.000000,4.000000,4.000000,4.000000,4.000000,4.000000,4.000000,4.000000,100.000000,,,,,,,,,,,,,,,,
1645711582.732894,125.000000,0.000000,4218.717773,4213.205078,4208.717773,4210.769043,4198.589844,4213.205078,4213.461426,4220.256348,4212.051270,4218.717773,4221.153809,4151.666504,4228.077148,4227.051270,0.000000,4.000000,86.000000,,,,0.000000,4.000000,4.000000,4.000000,4.000000,4.000000,4.000000,4.000000,4.000000,4.000000,4.000000,4.000000,4.000000,4.000000,4.000000,100.000000,,,,,,,,,,,,,,,,
1645711582.736834,126.000000,0.000000,4217.948730,4209.487305,4206.794922,4212.436035,4195.384766,4211.922852,4213.077148,4218.205078,4211.794922,4214.230957,4220.512695,4152.179688,4229.487305,4226.025879,0.000000,4.000000,86.000000,,,,0.000000,4.000000,4.000000,4.000000,4.000000,4.000000,4.000000,4.000000,4.000000,4.000000,4.000000,4.000000,4.000000,4.000000,4.000000,100.000000,,,,,,,,,,,,,,,,
1645711582.740774,127.000000,0.000000,4212.179688,4213.461426,4209.487305,4217.948730,4200.128418,4215.769043,4214.615234,4221.025879,4213.589844,4216.025879,4222.307617,4153.846191,4232.307617,4225.000000,0.000000,4.000000,86.000000,,,,0.000000,4.000000,4.000000,4.000000,4.000000,4.000000,4.000000,4.000000,4.000000,4.000000,4.000000,4.000000,4.000000,4.000000,4.000000,100.000000,,,,,,,,,,,,,,,,
1645711582.744714,128.000000,0.000000,4210.769043,4218.461426,4214.102539,4221.410156,4205.512695,4218.589844,4215.384766,4225.000000,4214.743652,4219.102539,4221.538574,4153.846191,4233.333496,4225.000000,3323.000000,4.000000,86.000000,,,,0.000000,4.000000,4.000000,4.000000,4.000000,4.000000,4.000000,4.000000,4.000000,4.000000,4.000000,4.000000,4.000000,4.000000,4.000000,100.000000,,,,,,,,,,,,,,,,
1645711582.748654,129.000000,0.000000,4218.077148,4218.461426,4218.461426,4220.769043,4205.512695,4216.410156,4215.000000,4226.538574,4213.717773,4218.846191,4216.538574,4152.051270,4231.538574,4227.948730,3434.000000,4.000000,86.000000,,,,0.000000,4.000000,4.000000,4.000000,4.000000,4.000000,4.000000,4.000000,4.000000,4.000000,4.000000,4.000000,4.000000,4.000000,4.000000,100.000000,,,,,,,,,,,,,,,,
1645711582.752594,130.000000,0.000000,4226.922852,4216.025879,4223.077148,4220.641113,4203.589844,4213.205078,4215.897461,4226.922852,4212.179688,4218.205078,4213.717773,4152.307617,4229.871582,4233.333496,2264.000000,4.000000,86.000000,,,,0.000000,4.000000,4.000000,4.000000,4.000000,4.000000,4.000000,4.000000,4.000000,4.000000,4.000000,4.000000,4.000000,4.000000,4.000000,100.000000,,,,,,,,,,,,,,,,
1645711582.756534,131.000000,0.000000,4228.846191,4216.922852,4229.102539,4225.128418,4206.794922,4214.871582,4219.743652,4229.230957,4212.948730,4222.307617,4220.000000,4157.820313,4231.538574,4237.179688,3208.000000,4.000000,86.000000,,,,0.000000,4.000000,4.000000,4.000000,4.000000,4.000000,4.000000,4.000000,4.000000,4.000000,4.000000,4.000000,4.000000,4.000000,4.000000,100.000000,,,,,,,,,,,,,,,,
1645711582.760474,132.000000,0.000000,4224.487305,4222.179688,4234.102539,4231.282227,4214.615234,4221.410156,4223.846191,4233.717773,4215.897461,4229.871582,4232.820313,4166.794922,4235.897461,4236.153809,3512.000000,4.000000,86.000000,,,,0.000000,4.000000,4.000000,4.000000,4.000000,4.000000,4.000000,4.000000,4.000000,4.000000,4.000000,4.000000,4.000000,4.000000,4.000000,100.000000,,,,,,,,,,,,,,,,
1645711582.764414,133.000000,0.000000,4222.563965,4225.769043,4234.230957,4231.025879,4218.333496,4225.897461,4224.230957,4236.538574,4217.436035,4232.307617,4241.025879,4172.820313,4238.589844,4231.794922,3248.000000,4.000000,86.000000,,,,0.000000,4.000000,4.000000,4.000000,4.000000,4.000000,4.000000,4.000000,4.000000,4.000000,4.000000,4.000000,4.000000,4.000000,4.000000,100.000000,,,,,,,,,,,,,,,,
1645711582.768354,134.000000,0.000000,4227.179688,4222.692383,4228.205078,4222.307617,4211.794922,4223.717773,4220.641113,4234.743652,4214.743652,4224.487305,4236.922852,4171.025879,4236.153809,4229.487305,3112.000000,4.000000,86.000000,,,,0.000000,4.000000,4.000000,4.000000,4.000000,4.000000,4.000000,4.000000,4.000000,4.000000,4.000000,4.000000,4.000000,4.000000,4.000000,100.000000,,,,,,,,,,,,,,,,
1645711582.772295,135.000000,0.000000,4230.897461,4214.871582,4219.871582,4211.922852,4199.743652,4217.820313,4216.666504,4230.384766,4209.871582,4212.307617,4225.128418,4163.205078,4230.641113,4231.410156,2746.000000,4.000000,86.000000,,,,0.000000,4.000000,4.000000,4.000000,4.000000,4.000000,4.000000,4.000000,4.000000,4.000000,4.000000,4.000000,4.000000,4.000000,4.000000,100.000000,,,,,,,,,,,,,,,,
1645711582.776235,136.000000,0.000000,4225.256348,4208.974121,4215.000000,4208.461426,4193.077148,4214.743652,4215.641113,4227.692383,4207.820313,4206.538574,4216.282227,4154.871582,4226.410156,4233.846191,1828.000000,4.000000,86.000000,,,,0.000000,4.000000,4.000000,4.000000,4.000000,4.000000,4.000000,4.000000,4.000000,4.000000,4.000000,4.000000,4.000000,4.000000,4.000000,100.000000,,,,,,,,,,,,,,,,
1645711582.780175,137.000000,0.000000,4213.077148,4208.077148,4215.512695,4212.307617,4195.641113,4215.897461,4216.922852,4228.589844,4210.384766,4210.641113,4216.282227,4150.641113,4225.512695,4232.436035,3127.000000,4.000000,86.000000,,,,0.000000,4.000000,4.000000,4.000000,4.000000,4.000000,4.000000,4.000000,4.000000,4.000000,4.000000,4.000000,4.000000,4.000000,4.000000,100.000000,,,,,,,,,,,,,,,,
1645711582.784115,138.000000,0.000000,4206.282227,4209.358887,4218.077148,4215.641113,4201.538574,4217.179688,4217.307617,4231.025879,4215.000000,4217.563965,4221.025879,4151.025879,4226.410156,4227.436035,2290.000000,4.000000,86.000000,,,,0.000000,4.000000,4.000000,4.000000,4.000000,4.000000,4.000000,4.000000,4.000000,4.000000,4.000000,4.000000,4.000000,4.000000,4.000000,100.000000,1.000000,16.666666,1.000000,4.000000,3.000000,4.000000,1.000000,1.000000,4.000000,0.000000,4.000000,3.000000,3.000000,4.000000,3.000000,4.000000
1645711582.788055,139.000000,0.000000,4211.794922,4209.871582,4219.102539,4212.563965,4203.205078,4215.256348,4215.641113,4232.179688,4217.563965,4218.974121,4224.358887,4154.230957,4226.666504,4224.230957,2676.000000,4.000000,86.000000,,,,0.000000,4.000000,4.000000,4.000000,4.000000,4.000000,4.000000,4.000000,4.000000,4.000000,4.000000,4.000000,4.000000,4.000000,4.000000,100.000000,,,,,,,,,,,,,,,,
1645711582.791995,140.000000,0.000000,4222.436035,4210.641113,4217.948730,4206.794922,4201.538574,4212.436035,4214.487305,4232.436035,4217.692383,4215.512695,4225.128418,4159.102539,4226.025879,4226.025879,3412.000000,4.000000,86.000000,,,,0.000000,4.000000,4.000000,4.000000,4.000000,4.000000,4.000000,4.000000,4.000000,4.000000,4.000000,4.000000,4.000000,4.000000,4.000000,100.000000,,,,,,,,,,,,,,,,
1645711582.795935,141.000000,0.000000,4225.641113,4213.461426,4216.410156,4206.282227,4201.794922,4213.589844,4215.769043,4234.487305,4217.692383,4213.974121,4226.025879,4164.102539,4225.641113,4229.615234,3100.000000,4.000000,86.000000,,,,0.000000,4.000000,4.000000,4.000000,4.000000,4.000000,4.000000,4.000000,4.000000,4.000000,4.000000,4.000000,4.000000,4.000000,4.000000,100.000000,,,,,,,,,,,,,,,,
1645711582.799975,142.000000,0.000000,4218.589844,4216.282227,4215.256348,4212.820313,4205.128418,4218.333496,4217.948730,4238.974121,4218.974121,4217.051270,4227.436035,4166.922852,4225.256348,4228.846191,2290.000000,4.000000,86.000000,,,,0.000000,4.000000,4.000000,4.000000,4.000000,4.000000,4.000000,4.000000,4.000000,4.000000,4.000000,4.000000,4.000000,4.000000,4.000000,100.000000,,,,,,,,,,,,,,,,
1645711582.803915,143.000000,0.000000,4210.512695,4213.974121,4213.205078,4219.358887,4206.025879,4220.897461,4218.461426,4243.461426,4220.512695,4220.000000,4225.897461,4164.871582,4223.077148,4222.307617,2676.000000,4.000000,86.000000,,,,0.000000,4.000000,4.000000,4.000000,4.000000,4.000000,4.000000,4.000000,4.000000,4.000000,4.000000,4.000000,4.000000,4.000000,4.000000,100.000000,,,,,,,,,,,,,,,,
1645711582.807855,144.000000,0.000000,4210.000000,4205.769043,4209.743652,4218.461426,4201.025879,4218.205078,4217.307617,4246.025879,4220.897461,4218.205078,4219.615234,4158.461426,4219.102539,4215.128418,3412.000000,4.000000,86.000000,,,,0.000000,4.000000,4.000000,4.000000,4.000000,4.000000,4.000000,4.000000,4.000000,4.000000,4.000000,4.000000,4.000000,4.000000,4.000000,100.000000,,,,,,,,,,,,,,,,
1645711582.811796,145.000000,0.000000,4214.743652,4197.692383,4206.282227,4210.641113,4195.256348,4213.974121,4217.307617,4247.051270,4221.282227,4215.000000,4213.717773,4151.538574,4216.410156,4213.205078,3100.000000,4.000000,86.000000,,,,0.000000,4.000000,4.000000,4.000000,4.000000,4.000000,4.000000,4.000000,4.000000,4.000000,4.000000,4.000000,4.000000,4.000000,4.000000,100.000000,,,,,,,,,,,,,,,,
1645711582.815736,146.000000,0.000000,4215.897461,4197.692383,4204.487305,4202.820313,4196.922852,4214.102539,4220.384766,4248.333496,4223.077148,4218.077148,4214.871582,4148.077148,4218.333496,4216.794922,2290.000000,4.000000,86.000000,,,,0.000000,4.000000,4.000000,4.000000,4.000000,4.000000,4.000000,4.000000,4.000000,4.000000,4.000000,4.000000,4.000000,4.000000,4.000000,100.000000,,,,,,,,,,,,,,,,
1645711582.819676,147.000000,0.000000,4210.769043,4205.256348,4203.589844,4200.000000,4206.538574,4218.974121,4223.846191,4248.589844,4225.897461,4227.436035,4222.179688,4147.820313,4223.717773,4220.769043,2676.000000,4.000000,86.000000,,,,0.000000,4.000000,4.000000,4.000000,4.000000,4.000000,4.000000,4.000000,4.000000,4.000000,4.000000,4.000000,4.000000,4.000000,4.000000,100.000000,,,,,,,,,,,,,,,,
1645711582.823616,148.000000,0.000000,4205.897461,4211.282227,4200.897461,4200.128418,4214.871582,4222.307617,4223.333496,4244.871582,4226.410156,4233.461426,4227.051270,4147.436035,4226.794922,4220.641113,3412.000000,4.000000,86.000000,,,,0.000000,4.000000,4.000000,4.000000,4.000000,4.000000,4.000000,4.000000,4.000000,4.000000,4.000000,4.000000,4.000000,4.000000,4.000000,100.000000,,,,,,,,,,,,,,,,
1645711582.827556,149.000000,0.000000,4207.051270,4208.077148,4196.153809,4199.871582,4213.461426,4219.230957,4219.102539,4236.794922,4223.077148,4227.820313,4222.436035,4145.000000,4223.589844,4217.563965,3100.000000,4.000000,86.000000,,,,0.000000,4.000000,4.000000,4.000000,4.000000,4.000000,4.000000,4.000000,4.000000,4.000000,4.000000,4.000000,4.000000,4.000000,4.000000,100.000000,,,,,,,,,,,,,,,,
1645711582.831496,150.000000,0.000000,4210.256348,4198.333496,4192.436035,4199.230957,4204.615234,4213.205078,4215.512695,4229.102539,4218.333496,4214.358887,4212.307617,4142.307617,4216.794922,4216.153809,2290.000000,4.000000,86.000000,,,,0.000000,4.000000,4.000000,4.000000,4.000000,4.000000,4.000000,4.000000,4.000000,4.000000,4.000000,4.000000,4.000000,4.000000,4.000000,100.000000,,,,,,,,,,,,,,,,
1645711582.835436,151.000000,0.000000,4207.692383,4191.922852,4193.846191,4201.410156,4198.461426,4211.282227,4217.179688,4227.436035,4216.922852,4205.000000,4207.051270,4142.051270,4213.717773,4218.589844,2676.000000,4.000000,86.000000,,,,0.000000,4.000000,4.000000,4.000000,4.000000,4.000000,4.000000,4.000000,4.000000,4.000000,4.000000,4.000000,4.000000,4.000000,4.000000,100.000000,,,,,,,,,,,,,,,,
1645711582.839376,152.000000,0.000000,4199.102539,4194.615234,4200.000000,4206.153809,4200.512695,4215.512695,4222.436035,4232.436035,4219.743652,4206.282227,4211.282227,4144.230957,4217.692383,4221.538574,3412.000000,4.000000,86.000000,,,,0.000000,4.000000,4.000000,4.000000,4.000000,4.000000,4.000000,4.000000,4.000000,4.000000,4.000000,4.000000,4.000000,4.000000,4.000000,100.000000,,,,,,,,,,,,,,,,
1645711582.843316,153.000000,0.000000,4193.974121,4201.794922,4206.410156,4208.461426,4206.153809,4219.743652,4225.897461,4238.461426,4222.820313,4213.077148,4218.974121,4145.897461,4225.000000,4221.666504,3100.000000,4.000000,86.000000,,,,0.000000,4.000000,4.000000,4.000000,4.000000,4.000000,4.000000,4.000000,4.000000,4.000000,4.000000,4.000000,4.000000,4.000000,4.000000,100.000000,,,,,,,,,,,,,,,,
1645711582.847256,154.000000,0.000000,4199.487305,4204.615234,4208.589844,4204.871582,4207.179688,4218.205078,4223.974121,4240.000000,4221.922852,4216.153809,4220.769043,4144.615234,4228.717773,4218.461426,2290.000000,4.000000,86.000000,,,,0.000000,4.000000,4.000000,4.000000,4.000000,4.000000,4.000000,4.000000,4.000000,4.000000,4.000000,4.000000,4.000000,4.000000,4.000000,100.000000,,,,,,,,,,,,,,,,
1645711582.851197,155.000000,0.000000,4210.384766,4200.128418,4206.410156,4198.589844,4203.205078,4212.820313,4218.974121,4236.410156,4217.436035,4213.077148,4215.000000,4142.307617,4226.025879,4215.000000,2676.000000,4.000000,86.000000,,,,0.000000,4.000000,4.000000,4.000000,4.000000,4.000000,4.000000,4.000000,4.000000,4.000000,4.000000,4.000000,4.000000,4.000000,4.000000,100.000000,,,,,,,,,,,,,,,,
1645711582.855137,156.000000,0.000000,4215.384766,4193.461426,4203.461426,4197.051270,4201.410156,4210.769043,4215.641113,4232.179688,4214.487305,4209.615234,4208.461426,4142.179688,4220.897461,4213.333496,3412.000000,4.000000,86.000000,,,,0.000000,4.000000,4.000000,4.000000,4.000000,4.000000,4.000000,4.000000,4.000000,4.000000,4.000000,4.000000,4.000000,4.000000,4.000000,100.000000,,,,,,,,,,,,,,,,
1645711582.859077,157.000000,0.000000,4210.641113,4191.025879,4203.333496,4203.077148,4205.897461,4215.000000,4215.897461,4231.153809,4216.794922,4210.512695,4206.922852,4145.000000,4218.077148,4213.974121,3100.000000,4.000000,86.000000,,,,0.000000,4.000000,4.000000,4.000000,4.000000,4.000000,4.000000,4.000000,4.000000,4.000000,4.000000,4.000000,4.000000,4.000000,4.000000,100.000000,,,,,,,,,,,,,,,,
1645711582.863017,158.000000,0.000000,4205.256348,4194.358887,4206.282227,4211.922852,4212.563965,4219.871582,4217.179688,4232.692383,4222.692383,4212.436035,4208.205078,4148.077148,4218.717773,4216.153809,2290.000000,4.000000,86.000000,,,,0.000000,4.000000,4.000000,4.000000,4.000000,4.000000,4.000000,4.000000,4.000000,4.000000,4.000000,4.000000,4.000000,4.000000,4.000000,100.000000,,,,,,,,,,,,,,,,
1645711582.866957,159.000000,0.000000,4208.461426,4200.128418,4210.128418,4216.282227,4214.230957,4218.846191,4216.666504,4234.230957,4227.051270,4209.615234,4207.436035,4148.205078,4219.871582,4219.358887,2676.000000,4.000000,86.000000,,,,0.000000,4.000000,4.000000,4.000000,4.000000,4.000000,4.000000,4.000000,4.000000,4.000000,4.000000,4.000000,4.000000,4.000000,4.000000,100.000000,,,,,,,,,,,,,,,,
1645711582.870997,160.000000,0.000000,4217.307617,4206.025879,4213.589844,4215.512695,4211.410156,4212.692383,4214.615234,4235.000000,4227.436035,4202.307617,4204.615234,4146.025879,4219.358887,4222.436035,3412.000000,4.000000,86.000000,,,,0.000000,4.000000,4.000000,4.000000,4.000000,4.000000,4.000000,4.000000,4.000000,4.000000,4.000000,4.000000,4.000000,4.000000,4.000000,100.000000,,,,,,,,,,,,,,,,
1645711582.874937,161.000000,0.000000,4220.769043,4211.794922,4216.794922,4215.000000,4211.538574,4208.846191,4214.230957,4237.179688,4225.769043,4198.717773,4205.512695,4144.743652,4217.820313,4223.846191,3100.000000,4.000000,86.000000,,,,0.000000,4.000000,4.000000,4.000000,4.000000,4.000000,4.000000,4.000000,4.000000,4.000000,4.000000,4.000000,4.000000,4.000000,4.000000,100.000000,,,,,,,,,,,,,,,,
1645711582.878877,162.000000,0.000000,4214.615234,4216.282227,4218.717773,4218.461426,4218.589844,4212.179688,4216.538574,4241.794922,4224.871582,4203.846191,4212.307617,4146.410156,4216.538574,4222.692383,2290.000000,4.000000,86.000000,,,,0.000000,4.000000,4.000000,4.000000,4.000000,4.000000,4.000000,4.000000,4.000000,4.000000,4.000000,4.000000,4.000000,4.000000,4.000000,100.000000,,,,,,,,,,,,,,,,
1645711582.882817,163.000000,0.000000,4207.051270,4216.538574,4218.077148,4222.563965,4226.666504,4219.102539,4219.487305,4245.641113,4224.871582,4212.820313,4219.487305,4149.102539,4215.769043,4220.128418,2676.000000,4.000000,86.000000,,,,0.000000,4.000000,4.000000,4.000000,4.000000,4.000000,4.000000,4.000000,4.000000,4.000000,4.000000,4.000000,4.000000,4.000000,4.000000,100.000000,,,,,,,,,,,,,,,,
1645711582.886757,164.000000,0.000000,4208.333496,4211.410156,4214.871582,4222.051270,4226.922852,4222.179688,4220.256348,4245.000000,4223.974121,4216.282227,4219.230957,4150.128418,4214.487305,4219.615234,3412.000000,4.000000,86.000000,,,,0.000000,4.000000,4.000000,4.000000,4.000000,4.000000,4.000000,4.000000,4.000000,4.000000,4.000000,4.000000,4.000000,4.000000,4.000000,100.000000,,,,,,,,,,,,,,,,
1645711582.890698,165.000000,0.000000,4217.436035,4205.512695,4211.666504,4217.307617,4218.974121,4219.871582,4219.102539,4240.000000,4222.179688,4211.922852,4212.179688,4149.230957,4213.717773,4222.948730,3100.000000,4.000000,86.000000,,,,0.000000,4.000000,4.000000,4.000000,4.000000,4.000000,4.000000,4.000000,4.000000,4.000000,4.000000,4.000000,4.000000,4.000000,4.000000,100.000000,,,,,,,,,,,,,,,,
1645711582.894638,166.000000,0.000000,4223.461426,4206.410156,4211.538574,4214.615234,4212.307617,4216.794922,4218.717773,4235.512695,4221.538574,4206.794922,4207.307617,4148.461426,4215.256348,4227.692383,2290.000000,4.000000,86.000000,,,,0.000000,4.000000,4.000000,4.000000,4.000000,4.000000,4.000000,4.000000,4.000000,4.000000,4.000000,4.000000,4.000000,4.000000,4.000000,100.000000,,,,,,,,,,,,,,,,
1645711582.898578,167.000000,0.000000,4220.000000,4215.897461,4214.487305,4218.717773,4214.615234,4217.692383,4220.384766,4235.769043,4223.846191,4208.205078,4210.512695,4148.717773,4219.487305,4229.871582,2676.000000,4.000000,86.000000,,,,0.000000,4.000000,4.000000,4.000000,4.000000,4.000000,4.000000,4.000000,4.000000,4.000000,4.000000,4.000000,4.000000,4.000000,4.000000,100.000000,,,,,,,,,,,,,,,,
1645711582.902518,168.000000,0.000000,4212.948730,4227.051270,4217.179688,4226.025879,4222.179688,4220.512695,4222.436035,4240.128418,4227.179688,4213.974121,4218.333496,4148.461426,4222.820313,4227.563965,3412.000000,4.000000,86.000000,,,,0.000000,4.000000,4.000000,4.000000,4.000000,4.000000,4.000000,4.000000,4.000000,4.000000,4.000000,4.000000,4.000000,4.000000,4.000000,100.000000,,,,,,,,,,,,,,,,
1645711582.906458,169.000000,0.000000,4211.794922,4230.641113,4215.769043,4228.974121,4225.256348,4220.641113,4223.077148,4244.102539,4228.077148,4216.025879,4222.179688,4145.384766,4221.922852,4222.948730,3100.000000,4.000000,86.000000,,,,0.000000,4.000000,4.000000,4.000000,4.000000,4.000000,4.000000,4.000000,4.000000,4.000000,4.000000,4.000000,4.000000,4.000000,4.000000,100.000000,,,,,,,,,,,,,,,,
1645711582.910398,170.000000,0.000000,4216.538574,4225.256348,4210.897461,4225.000000,4220.641113,4217.436035,4222.692383,4244.871582,4225.641113,4211.282227,4219.615234,4140.641113,4217.436035,4219.487305,2290.000000,4.000000,86.000000,,,,0.000000,4.000000,4.000000,4.000000,4.000000,4.000000,4.000000,4.000000,4.000000,4.000000,4.000000,4.000000,4.000000,4.000000,4.000000,100.000000,,,,,,,,,,,,,,,,
1645711582.914338,171.000000,0.000000,4217.820313,4218.205078,4205.897461,4218.974121,4214.871582,4215.769043,4222.948730,4243.589844,4223.077148,4205.384766,4216.282227,4137.692383,4214.230957,4217.948730,2676.000000,4.000000,86.000000,,,,0.000000,4.000000,4.000000,4.000000,4.000000,4.000000,4.000000,4.000000,4.000000,4.000000,4.000000,4.000000,4.000000,4.000000,4.000000,100.000000,,,,,,,,,,,,,,,,
1645711582.918278,172.000000,0.000000,4210.256348,4216.153809,4203.717773,4216.666504,4215.000000,4218.717773,4223.846191,4243.205078,4223.077148,4205.512695,4217.179688,4138.846191,4215.384766,4216.025879,3412.000000,4.000000,86.000000,,,,0.000000,4.000000,4.000000,4.000000,4.000000,4.000000,4.000000,4.000000,4.000000,4.000000,4.000000,4.000000,4.000000,4.000000,4.000000,100.000000,,,,,,,,,,,,,,,,
1645711582.922218,173.000000,0.000000,4200.769043,4217.692383,4203.461426,4217.820313,4219.487305,4223.077148,4223.077148,4244.102539,4225.000000,4210.384766,4219.102539,4141.538574,4218.589844,4212.563965,3100.000000,4.000000,86.000000,,,,0.000000,4.000000,4.000000,4.000000,4.000000,4.000000,4.000000,4.000000,4.000000,4.000000,4.000000,4.000000,4.000000,4.000000,4.000000,100.000000,,,,,,,,,,,,,,,,
1645711582.926158,174.000000,0.000000,4200.000000,4216.410156,4202.563965,4218.077148,4221.153809,4222.820313,4219.487305,4244.102539,4225.512695,4212.436035,4215.512695,4142.051270,4219.102539,4210.000000,2290.000000,4.000000,86.000000,,,,0.000000,4.000000,4.000000,4.000000,4.000000,4.000000,4.000000,4.000000,4.000000,4.000000,4.000000,4.000000,4.000000,4.000000,4.000000,100.000000,,,,,,,,,,,,,,,,
1645711582.930099,175.000000,0.000000,4208.333496,4210.128418,4200.384766,4215.897461,4217.436035,4217.563965,4214.871582,4242.179688,4223.333496,4208.333496,4205.769043,4139.615234,4215.897461,4211.666504,2676.000000,4.000000,86.000000,,,,0.000000,4.000000,4.000000,4.000000,4.000000,4.000000,4.000000,4.000000,4.000000,4.000000,4.000000,4.000000,4.000000,4.000000,4.000000,100.000000,,,,,,,,,,,,,,,,
1645711582.934039,176.000000,0.000000,4215.641113,4204.102539,4198.974121,4214.871582,4214.102539,4212.948730,4212.948730,4240.769043,4221.025879,4203.205078,4198.205078,4137.179688,4212.948730,4217.307617,3412.000000,4.000000,86.000000,,,,0.000000,4.000000,4.000000,4.000000,4.000000,4.000000,4.000000,4.000000,4.000000,4.000000,4.000000,4.000000,4.000000,4.000000,4.000000,100.000000,,,,,,,,,,,,,,,,
