title:Alex-1BNALAxXgtYDjGrRjMb3qw, start timestamp:1645708232.062393, stop timestamp:1645708257.747241, headset type:EPOCPLUS, headset serial:3B9AEBFF, headset firmware:626, channels:55, sampling rate:eeg_256, samples:6520      , version:2.1, 
Timestamp,EEG.Counter,EEG.Interpolated,EEG.AF3,EEG.F7,EEG.F3,EEG.FC5,EEG.T7,EEG.P7,EEG.O1,EEG.O2,EEG.P8,EEG.T8,EEG.FC6,EEG.F4,EEG.F8,EEG.AF4,EEG.RawCq,EEG.Battery,EEG.BatteryPercent,MarkerIndex,MarkerType,MarkerValueInt,EEG.MarkerHardware,CQ.AF3,CQ.F7,CQ.F3,CQ.FC5,CQ.T7,CQ.P7,CQ.O1,CQ.O2,CQ.P8,CQ.T8,CQ.FC6,CQ.F4,CQ.F8,CQ.AF4,CQ.Overall,EQ.SampleRateQuality,EQ.OVERALL,EQ.AF3,EQ.F7,EQ.F3,EQ.FC5,EQ.T7,EQ.P7,EQ.O1,EQ.O2,EQ.P8,EQ.T8,EQ.FC6,EQ.F4,EQ.F8,EQ.AF4
1645708232.062393,127.000000,0.000000,4214.487305,4186.025879,4181.794922,4186.922852,4209.743652,4205.128418,4210.256348,4202.692383,4215.128418,4191.282227,4198.846191,4156.025879,4202.307617,4177.820313,0.000000,4.000000,91.000000,,,,0.000000,4.000000,4.000000,4.000000,4.000000,4.000000,4.000000,4.000000,4.000000,4.000000,4.000000,4.000000,4.000000,4.000000,4.000000,100.000000,,,,,,,,,,,,,,,,
1645708232.066233,128.000000,0.000000,4214.230957,4189.615234,4180.897461,4189.230957,4210.769043,4206.538574,4207.179688,4207.692383,4216.025879,4193.974121,4203.205078,4155.897461,4205.000000,4178.846191,3056.000000,4.000000,91.000000,,,,0.000000,4.000000,4.000000,4.000000,4.000000,4.000000,4.000000,4.000000,4.000000,4.000000,4.000000,4.000000,4.000000,4.000000,4.000000,100.000000,,,,,,,,,,,,,,,,
1645708232.070173,129.000000,0.000000,4213.077148,4193.333496,4179.871582,4195.512695,4209.230957,4207.820313,4203.846191,4211.025879,4216.538574,4200.256348,4208.589844,4157.820313,4211.794922,4183.461426,3417.000000,4.000000,91.000000,,,,0.000000,4.000000,4.000000,4.000000,4.000000,4.000000,4.000000,4.000000,4.000000,4.000000,4.000000,4.000000,4.000000,4.000000,4.000000,100.000000,,,,,,,,,,,,,,,,
1645708232.074113,130.000000,0.000000,4212.179688,4194.743652,4180.000000,4202.692383,4205.641113,4207.307617,4202.692383,4212.436035,4215.897461,4207.692383,4212.179688,4161.025879,4220.000000,4189.358887,3466.000000,4.000000,91.000000,,,,0.000000,4.000000,4.000000,4.000000,4.000000,4.000000,4.000000,4.000000,4.000000,4.000000,4.000000,4.000000,4.000000,4.000000,4.000000,100.000000,,,,,,,,,,,,,,,,
1645708232.078054,131.000000,0.000000,4214.615234,4194.615234,4182.179688,4208.461426,4202.948730,4205.769043,4205.384766,4212.948730,4215.384766,4214.871582,4214.358887,4165.512695,4227.179688,4194.358887,3337.000000,4.000000,91.000000,,,,0.000000,4.000000,4.000000,4.000000,4.000000,4.000000,4.000000,4.000000,4.000000,4.000000,4.000000,4.000000,4.000000,4.000000,4.000000,100.000000,,,,,,,,,,,,,,,,
1645708232.081994,132.000000,0.000000,4221.794922,4195.512695,4186.794922,4212.692383,4204.230957,4205.256348,4210.512695,4213.846191,4216.666504,4221.410156,4218.333496,4171.538574,4232.436035,4198.333496,3296.000000,4.000000,91.000000,,,,0.000000,4.000000,4.000000,4.000000,4.000000,4.000000,4.000000,4.000000,4.000000,4.000000,4.000000,4.000000,4.000000,4.000000,4.000000,100.000000,,,,,,,,,,,,,,,,
1645708232.085934,133.000000,0.000000,4231.794922,4198.717773,4192.948730,4216.282227,4209.743652,4206.922852,4215.128418,4216.282227,4220.769043,4226.922852,4225.641113,4178.333496,4236.153809,4201.794922,3439.000000,4.000000,91.000000,,,,0.000000,4.000000,4.000000,4.000000,4.000000,4.000000,4.000000,4.000000,4.000000,4.000000,4.000000,4.000000,4.000000,4.000000,4.000000,100.000000,,,,,,,,,,,,,,,,
1645708232.089874,134.000000,0.000000,4240.384766,4202.948730,4199.230957,4219.743652,4217.436035,4210.384766,4217.692383,4220.000000,4226.025879,4230.897461,4234.102539,4184.615234,4238.077148,4205.384766,3226.000000,4.000000,91.000000,,,,0.000000,4.000000,4.000000,4.000000,4.000000,4.000000,4.000000,4.000000,4.000000,4.000000,4.000000,4.000000,4.000000,4.000000,4.000000,100.000000,,,,,,,,,,,,,,,,
1645708232.093814,135.000000,0.000000,4244.358887,4206.282227,4203.717773,4222.692383,4223.717773,4215.512695,4219.230957,4222.948730,4228.974121,4232.563965,4239.358887,4189.102539,4238.205078,4209.230957,2764.000000,4.000000,91.000000,,,,0.000000,4.000000,4.000000,4.000000,4.000000,4.000000,4.000000,4.000000,4.000000,4.000000,4.000000,4.000000,4.000000,4.000000,4.000000,100.000000,,,,,,,,,,,,,,,,
1645708232.097754,136.000000,0.000000,4244.358887,4208.461426,4205.384766,4224.871582,4226.794922,4221.282227,4220.769043,4222.820313,4227.563965,4231.153809,4238.974121,4190.769043,4237.820313,4213.461426,1540.000000,4.000000,91.000000,,,,0.000000,4.000000,4.000000,4.000000,4.000000,4.000000,4.000000,4.000000,4.000000,4.000000,4.000000,4.000000,4.000000,4.000000,4.000000,100.000000,,,,,,,,,,,,,,,,
1645708232.101694,137.000000,0.000000,4242.948730,4210.512695,4204.743652,4225.897461,4226.794922,4226.282227,4222.692383,4219.615234,4223.333496,4227.563965,4234.615234,4190.000000,4238.589844,4218.205078,3292.000000,4.000000,91.000000,,,,0.000000,4.000000,4.000000,4.000000,4.000000,4.000000,4.000000,4.000000,4.000000,4.000000,4.000000,4.000000,4.000000,4.000000,4.000000,100.000000,,,,,,,,,,,,,,,,
1645708232.105634,138.000000,0.000000,4241.666504,4212.563965,4203.205078,4226.025879,4225.769043,4228.333496,4224.102539,4216.153809,4220.256348,4223.461426,4230.256348,4187.820313,4241.410156,4222.307617,2702.000000,4.000000,91.000000,,,,0.000000,4.000000,4.000000,4.000000,4.000000,4.000000,4.000000,4.000000,4.000000,4.000000,4.000000,4.000000,4.000000,4.000000,4.000000,100.000000,,,,,,,,,,,,,,,,
1645708232.109674,139.000000,0.000000,4241.282227,4213.974121,4202.692383,4225.641113,4224.871582,4226.666504,4224.358887,4215.769043,4221.410156,4220.769043,4228.461426,4185.897461,4244.358887,4224.487305,3424.000000,4.000000,91.000000,,,,0.000000,4.000000,4.000000,4.000000,4.000000,4.000000,4.000000,4.000000,4.000000,4.000000,4.000000,4.000000,4.000000,4.000000,4.000000,100.000000,,,,,,,,,,,,,,,,
1645708232.113614,140.000000,0.000000,4241.922852,4214.487305,4204.743652,4224.615234,4224.230957,4222.307617,4223.846191,4219.871582,4226.282227,4220.897461,4229.487305,4185.512695,4245.897461,4225.000000,3388.000000,4.000000,91.000000,,,,0.000000,4.000000,4.000000,4.000000,4.000000,4.000000,4.000000,4.000000,4.000000,4.000000,4.000000,4.000000,4.000000,4.000000,4.000000,100.000000,,,,,,,,,,,,,,,,
1645708232.117554,141.000000,0.000000,4244.230957,4214.871582,4209.102539,4223.333496,4222.820313,4218.205078,4223.333496,4225.769043,4231.153809,4223.589844,4231.025879,4186.794922,4245.384766,4224.743652,3053.000000,4.000000,91.000000,,,,0.000000,4.000000,4.000000,4.000000,4.000000,4.000000,4.000000,4.000000,4.000000,4.000000,4.000000,4.000000,4.000000,4.000000,4.000000,100.000000,,,,,,,,,,,,,,,,
1645708232.121495,142.000000,0.000000,4247.948730,4215.641113,4213.461426,4222.307617,4220.512695,4216.538574,4222.948730,4228.974121,4232.051270,4226.794922,4230.512695,4188.846191,4243.589844,4224.871582,2702.000000,4.000000,91.000000,,,,0.000000,4.000000,4.000000,4.000000,4.000000,4.000000,4.000000,4.000000,4.000000,4.000000,4.000000,4.000000,4.000000,4.000000,4.000000,100.000000,,,,,,,,,,,,,,,,
1645708232.125435,143.000000,0.000000,4251.025879,4216.538574,4215.000000,4222.692383,4218.717773,4217.563965,4222.820313,4226.666504,4227.820313,4227.307617,4226.666504,4189.871582,4241.666504,4224.487305,3424.000000,4.000000,91.000000,,,,0.000000,4.000000,4.000000,4.000000,4.000000,4.000000,4.000000,4.000000,4.000000,4.000000,4.000000,4.000000,4.000000,4.000000,4.000000,100.000000,,,,,,,,,,,,,,,,
1645708232.129375,144.000000,0.000000,4251.153809,4216.538574,4212.692383,4225.128418,4219.358887,4219.487305,4222.563965,4219.358887,4220.512695,4222.820313,4220.641113,4188.077148,4239.487305,4221.153809,3388.000000,4.000000,91.000000,,,,0.000000,4.000000,4.000000,4.000000,4.000000,4.000000,4.000000,4.000000,4.000000,4.000000,4.000000,4.000000,4.000000,4.000000,4.000000,100.000000,,,,,,,,,,,,,,,,
1645708232.133315,145.000000,0.000000,4248.205078,4215.384766,4208.589844,4228.846191,4222.820313,4220.384766,4221.410156,4210.769043,4214.615234,4214.358887,4215.000000,4183.461426,4237.307617,4214.102539,3053.000000,4.000000,91.000000,,,,0.000000,4.000000,4.000000,4.000000,4.000000,4.000000,4.000000,4.000000,4.000000,4.000000,4.000000,4.000000,4.000000,4.000000,4.000000,100.000000,,,,,,,,,,,,,,,,
1645708232.137255,146.000000,0.000000,4243.717773,4214.358887,4205.384766,4231.794922,4227.563965,4220.128418,4218.974121,4205.000000,4213.077148,4206.282227,4211.666504,4177.820313,4235.384766,4204.743652,2702.000000,4.000000,91.000000,,,,0.000000,4.000000,4.000000,4.000000,4.000000,4.000000,4.000000,4.000000,4.000000,4.000000,4.000000,4.000000,4.000000,4.000000,4.000000,100.000000,,,,,,,,,,,,,,,,
1645708232.141195,147.000000,0.000000,4240.128418,4213.974121,4203.717773,4232.820313,4231.153809,4219.615234,4216.282227,4204.743652,4215.641113,4202.948730,4210.256348,4172.948730,4233.589844,4196.410156,3424.000000,4.000000,91.000000,,,,0.000000,4.000000,4.000000,4.000000,4.000000,4.000000,4.000000,4.000000,4.000000,4.000000,4.000000,4.000000,4.000000,4.000000,4.000000,100.000000,,,,,,,,,,,,,,,,
1645708232.145135,148.000000,0.000000,4237.692383,4213.846191,4202.179688,4231.025879,4231.794922,4219.743652,4214.871582,4208.974121,4219.230957,4205.128418,4208.205078,4170.128418,4231.282227,4191.282227,3388.000000,4.000000,91.000000,,,,0.000000,4.000000,4.000000,4.000000,4.000000,4.000000,4.000000,4.000000,4.000000,4.000000,4.000000,4.000000,4.000000,4.000000,4.000000,100.000000,,,,,,,,,,,,,,,,
1645708232.149075,149.000000,0.000000,4234.743652,4211.922852,4199.102539,4226.282227,4228.846191,4220.384766,4215.384766,4214.743652,4220.256348,4209.358887,4204.358887,4169.230957,4228.333496,4189.358887,3053.000000,4.000000,91.000000,,,,0.000000,4.000000,4.000000,4.000000,4.000000,4.000000,4.000000,4.000000,4.000000,4.000000,4.000000,4.000000,4.000000,4.000000,4.000000,100.000000,,,,,,,,,,,,,,,,
1645708232.153015,150.000000,0.000000,4230.384766,4207.307617,4194.871582,4219.358887,4223.589844,4221.410156,4217.436035,4218.461426,4218.333496,4211.025879,4200.512695,4168.846191,4224.743652,4189.230957,2702.000000,4.000000,91.000000,,,,0.000000,4.000000,4.000000,4.000000,4.000000,4.000000,4.000000,4.000000,4.000000,4.000000,4.000000,4.000000,4.000000,4.000000,4.000000,100.000000,,,,,,,,,,,,,,,,
1645708232.156956,151.000000,0.000000,4225.256348,4201.538574,4191.666504,4212.563965,4217.820313,4222.563965,4219.615234,4218.589844,4215.512695,4208.333496,4199.487305,4167.563965,4221.922852,4189.358887,3424.000000,4.000000,91.000000,,,,0.000000,4.000000,4.000000,4.000000,4.000000,4.000000,4.000000,4.000000,4.000000,4.000000,4.000000,4.000000,4.000000,4.000000,4.000000,100.000000,,,,,,,,,,,,,,,,
1645708232.160896,152.000000,0.000000,4220.897461,4196.922852,4191.025879,4207.820313,4213.717773,4223.205078,4220.384766,4215.897461,4214.487305,4203.461426,4202.179688,4164.615234,4220.897461,4188.974121,3388.000000,4.000000,91.000000,,,,0.000000,4.000000,4.000000,4.000000,4.000000,4.000000,4.000000,4.000000,4.000000,4.000000,4.000000,4.000000,4.000000,4.000000,4.000000,100.000000,1.000000,100.000000,4.000000,4.000000,4.000000,4.000000,4.000000,4.000000,4.000000,4.000000,4.000000,4.000000,4.000000,4.000000,4.000000,4.000000
1645708232.164836,153.000000,0.000000,4217.820313,4194.230957,4192.179688,4205.512695,4212.307617,4222.820313,4219.102539,4212.692383,4215.512695,4199.871582,4205.512695,4160.769043,4220.641113,4186.922852,3053.000000,4.000000,91.000000,,,,0.000000,4.000000,4.000000,4.000000,4.000000,4.000000,4.000000,4.000000,4.000000,4.000000,4.000000,4.000000,4.000000,4.000000,4.000000,100.000000,,,,,,,,,,,,,,,,
1645708232.168776,154.000000,0.000000,4214.871582,4191.794922,4192.692383,4204.102539,4212.051270,4220.512695,4216.153809,4211.025879,4217.563965,4198.974121,4205.512695,4156.538574,4219.615234,4182.179688,2702.000000,4.000000,91.000000,,,,0.000000,4.000000,4.000000,4.000000,4.000000,4.000000,4.000000,4.000000,4.000000,4.000000,4.000000,4.000000,4.000000,4.000000,4.000000,100.000000,,,,,,,,,,,,,,,,
1645708232.172716,155.000000,0.000000,4211.410156,4188.589844,4190.384766,4202.692383,4211.282227,4216.538574,4213.077148,4211.410156,4218.846191,4199.743652,4201.153809,4152.307617,4217.179688,4175.000000,3424.000000,4.000000,91.000000,,,,0.000000,4.000000,4.000000,4.000000,4.000000,4.000000,4.000000,4.000000,4.000000,4.000000,4.000000,4.000000,4.000000,4.000000,4.000000,100.000000,,,,,,,,,,,,,,,,
1645708232.176656,156.000000,0.000000,4208.589844,4185.256348,4186.153809,4202.179688,4209.358887,4212.051270,4210.897461,4212.820313,4218.846191,4200.384766,4195.897461,4149.743652,4214.102539,4168.717773,3388.000000,4.000000,91.000000,,,,0.000000,4.000000,4.000000,4.000000,4.000000,4.000000,4.000000,4.000000,4.000000,4.000000,4.000000,4.000000,4.000000,4.000000,4.000000,100.000000,,,,,,,,,,,,,,,,
1645708232.180696,157.000000,0.000000,4208.589844,4184.102539,4182.692383,4204.743652,4207.692383,4208.717773,4209.743652,4213.846191,4217.692383,4201.025879,4194.487305,4150.384766,4212.820313,4167.179688,3053.000000,4.000000,91.000000,,,,0.000000,4.000000,4.000000,4.000000,4.000000,4.000000,4.000000,4.000000,4.000000,4.000000,4.000000,4.000000,4.000000,4.000000,4.000000,100.000000,,,,,,,,,,,,,,,,
1645708232.184636,158.000000,0.000000,4212.436035,4187.051270,4183.205078,4209.743652,4207.436035,4207.563965,4209.230957,4213.717773,4216.410156,4203.333496,4199.358887,4155.128418,4215.128418,4172.051270,2702.000000,4.000000,91.000000,,,,0.000000,4.000000,4.000000,4.000000,4.000000,4.000000,4.000000,4.000000,4.000000,4.000000,4.000000,4.000000,4.000000,4.000000,4.000000,100.000000,,,,,,,,,,,,,,,,
1645708232.188576,159.000000,0.000000,4218.846191,4193.205078,4187.563965,4214.102539,4208.333496,4207.948730,4209.102539,4212.948730,4215.769043,4207.948730,4207.820313,4162.563965,4220.512695,4181.025879,3424.000000,4.000000,91.000000,,,,0.000000,4.000000,4.000000,4.000000,4.000000,4.000000,4.000000,4.000000,4.000000,4.000000,4.000000,4.000000,4.000000,4.000000,4.000000,100.000000,,,,,,,,,,,,,,,,
1645708232.192516,160.000000,0.000000,4224.871582,4198.717773,4192.820313,4214.358887,4209.358887,4208.333496,4209.102539,4213.077148,4216.153809,4213.717773,4215.128418,4170.256348,4226.538574,4189.871582,3388.000000,4.000000,91.000000,,,,0.000000,4.000000,4.000000,4.000000,4.000000,4.000000,4.000000,4.000000,4.000000,4.000000,4.000000,4.000000,4.000000,4.000000,4.000000,100.000000,,,,,,,,,,,,,,,,
1645708232.196456,161.000000,0.000000,4227.179688,4199.615234,4195.000000,4209.743652,4209.230957,4208.205078,4208.205078,4214.743652,4217.436035,4217.948730,4217.948730,4175.128418,4231.282227,4195.128418,3053.000000,4.000000,91.000000,,,,0.000000,4.000000,4.000000,4.000000,4.000000,4.000000,4.000000,4.000000,4.000000,4.000000,4.000000,4.000000,4.000000,4.000000,4.000000,100.000000,,,,,,,,,,,,,,,,
1645708232.200397,162.000000,0.000000,4225.128418,4195.641113,4192.051270,4202.948730,4208.717773,4207.692383,4206.410156,4216.666504,4219.230957,4217.948730,4216.282227,4175.897461,4233.461426,4195.384766,2702.000000,4.000000,91.000000,,,,0.000000,4.000000,4.000000,4.000000,4.000000,4.000000,4.000000,4.000000,4.000000,4.000000,4.000000,4.000000,4.000000,4.000000,4.000000,100.000000,,,,,,,,,,,,,,,,
1645708232.204337,163.000000,0.000000,4220.256348,4189.871582,4186.153809,4197.179688,4208.461426,4207.307617,4204.358887,4215.641113,4220.641113,4213.461426,4212.179688,4172.948730,4232.948730,4191.410156,3424.000000,4.000000,91.000000,,,,0.000000,4.000000,4.000000,4.000000,4.000000,4.000000,4.000000,4.000000,4.000000,4.000000,4.000000,4.000000,4.000000,4.000000,4.000000,100.000000,,,,,,,,,,,,,,,,
1645708232.208277,164.000000,0.000000,4215.512695,4186.538574,4181.025879,4194.102539,4207.948730,4206.922852,4203.077148,4209.615234,4220.769043,4205.897461,4207.820313,4168.461426,4230.384766,4185.384766,3388.000000,4.000000,91.000000,,,,0.000000,4.000000,4.000000,4.000000,4.000000,4.000000,4.000000,4.000000,4.000000,4.000000,4.000000,4.000000,4.000000,4.000000,4.000000,100.000000,,,,,,,,,,,,,,,,
1645708232.212217,165.000000,0.000000,4212.948730,4187.692383,4179.487305,4193.205078,4206.538574,4206.025879,4203.077148,4199.743652,4218.717773,4199.358887,4203.717773,4164.743652,4226.538574,4180.384766,3053.000000,4.000000,91.000000,,,,0.000000,4.000000,4.000000,4.000000,4.000000,4.000000,4.000000,4.000000,4.000000,4.000000,4.000000,4.000000,4.000000,4.000000,4.000000,100.000000,,,,,,,,,,,,,,,,
1645708232.216157,166.000000,0.000000,4213.205078,4192.179688,4181.538574,4193.846191,4205.256348,4205.000000,4204.102539,4189.358887,4214.743652,4197.563965,4200.256348,4163.333496,4222.563965,4179.102539,2702.000000,4.000000,91.000000,,,,0.000000,4.000000,4.000000,4.000000,4.000000,4.000000,4.000000,4.000000,4.000000,4.000000,4.000000,4.000000,4.000000,4.000000,4.000000,100.000000,,,,,,,,,,,,,,,,
1645708232.220097,167.000000,0.000000,4216.025879,4197.563965,4184.358887,4196.410156,4206.410156,4205.128418,4204.487305,4182.436035,4210.384766,4200.897461,4198.333496,4164.487305,4219.743652,4182.692383,3424.000000,4.000000,91.000000,,,,0.000000,4.000000,4.000000,4.000000,4.000000,4.000000,4.000000,4.000000,4.000000,4.000000,4.000000,4.000000,4.000000,4.000000,4.000000,100.000000,,,,,,,,,,,,,,,,
1645708232.224037,168.000000,0.000000,4220.128418,4201.153809,4186.025879,4200.769043,4210.000000,4206.922852,4203.077148,4180.897461,4207.563965,4206.282227,4199.358887,4166.922852,4218.846191,4189.358887,3388.000000,4.000000,91.000000,,,,0.000000,4.000000,4.000000,4.000000,4.000000,4.000000,4.000000,4.000000,4.000000,4.000000,4.000000,4.000000,4.000000,4.000000,4.000000,100.000000,,,,,,,,,,,,,,,,
1645708232.227977,169.000000,0.000000,4223.974121,4201.538574,4186.282227,4205.512695,4213.205078,4210.128418,4200.512695,4184.102539,4207.563965,4208.461426,4203.461426,4169.615234,4219.871582,4195.641113,3053.000000,4.000000,91.000000,,,,0.000000,4.000000,4.000000,4.000000,4.000000,4.000000,4.000000,4.000000,4.000000,4.000000,4.000000,4.000000,4.000000,4.000000,4.000000,100.000000,,,,,,,,,,,,,,,,
1645708232.231917,170.000000,0.000000,4226.025879,4200.000000,4186.153809,4208.974121,4212.436035,4213.974121,4199.487305,4190.512695,4209.871582,4205.641113,4209.358887,4171.538574,4222.051270,4198.717773,2702.000000,4.000000,91.000000,,,,0.000000,4.000000,4.000000,4.000000,4.000000,4.000000,4.000000,4.000000,4.000000,4.000000,4.000000,4.000000,4.000000,4.000000,4.000000,100.000000,,,,,,,,,,,,,,,,
1645708232.235858,171.000000,0.000000,4226.538574,4198.717773,4186.666504,4210.128418,4208.333496,4217.179688,4201.922852,4198.077148,4213.333496,4201.282227,4214.871582,4172.436035,4224.358887,4198.846191,3424.000000,4.000000,91.000000,,,,0.000000,4.000000,4.000000,4.000000,4.000000,4.000000,4.000000,4.000000,4.000000,4.000000,4.000000,4.000000,4.000000,4.000000,4.000000,100.000000,,,,,,,,,,,,,,,,
1645708232.239798,172.000000,0.000000,4226.538574,4199.615234,4188.205078,4208.974121,4205.384766,4219.230957,4207.179688,4204.871582,4216.922852,4201.025879,4218.589844,4172.563965,4225.897461,4198.205078,3388.000000,4.000000,91.000000,,,,0.000000,4.000000,4.000000,4.000000,4.000000,4.000000,4.000000,4.000000,4.000000,4.000000,4.000000,4.000000,4.000000,4.000000,4.000000,100.000000,,,,,,,,,,,,,,,,
1645708232.243738,173.000000,0.000000,4227.307617,4202.820313,4190.769043,4206.538574,4208.077148,4220.128418,4212.307617,4210.512695,4220.000000,4207.179688,4220.512695,4172.179688,4226.666504,4198.974121,3053.000000,4.000000,91.000000,1,1,2,0.000000,4.000000,4.000000,4.000000,4.000000,4.000000,4.000000,4.000000,4.000000,4.000000,4.000000,4.000000,4.000000,4.000000,4.000000,100.000000,,,,,,,,,,,,,,,,
1645708232.247678,174.000000,0.000000,4229.358887,4207.179688,4194.487305,4204.743652,4216.282227,4219.871582,4215.000000,4214.487305,4221.922852,4216.282227,4221.153809,4171.666504,4227.179688,4200.769043,2702.000000,4.000000,91.000000,,,,0.000000,4.000000,4.000000,4.000000,4.000000,4.000000,4.000000,4.000000,4.000000,4.000000,4.000000,4.000000,4.000000,4.000000,4.000000,100.000000,,,,,,,,,,,,,,,,
1645708232.251618,175.000000,0.000000,4231.666504,4211.153809,4199.102539,4205.512695,4224.871582,4219.615234,4214.743652,4216.282227,4222.563965,4222.179688,4221.282227,4171.410156,4227.307617,4201.282227,3424.000000,4.000000,91.000000,,,,0.000000,4.000000,4.000000,4.000000,4.000000,4.000000,4.000000,4.000000,4.000000,4.000000,4.000000,4.000000,4.000000,4.000000,4.000000,100.000000,,,,,,,,,,,,,,,,
1645708232.255558,176.000000,0.000000,4232.820313,4213.077148,4203.077148,4209.230957,4228.461426,4220.000000,4212.820313,4216.410156,4221.922852,4221.410156,4221.282227,4171.538574,4227.179688,4199.358887,3388.000000,4.000000,91.000000,,,,0.000000,4.000000,4.000000,4.000000,4.000000,4.000000,4.000000,4.000000,4.000000,4.000000,4.000000,4.000000,4.000000,4.000000,4.000000,100.000000,,,,,,,,,,,,,,,,
1645708232.259498,177.000000,0.000000,4231.794922,4212.563965,4204.871582,4214.230957,4225.256348,4220.641113,4211.153809,4216.282227,4220.769043,4216.282227,4221.282227,4172.051270,4226.538574,4195.897461,3053.000000,4.000000,91.000000,,,,0.000000,4.000000,4.000000,4.000000,4.000000,4.000000,4.000000,4.000000,4.000000,4.000000,4.000000,4.000000,4.000000,4.000000,4.000000,100.000000,,,,,,,,,,,,,,,,
1645708232.263438,178.000000,0.000000,4229.615234,4209.871582,4204.358887,4218.205078,4218.077148,4220.512695,4211.153809,4217.051270,4219.615234,4212.563965,4221.794922,4172.563965,4225.384766,4193.461426,2702.000000,4.000000,91.000000,,,,0.000000,4.000000,4.000000,4.000000,4.000000,4.000000,4.000000,4.000000,4.000000,4.000000,4.000000,4.000000,4.000000,4.000000,4.000000,100.000000,,,,,,,,,,,,,,,,
1645708232.267378,179.000000,0.000000,4228.077148,4206.794922,4202.820313,4218.846191,4211.666504,4219.230957,4213.205078,4218.461426,4219.102539,4213.846191,4223.077148,4172.820313,4223.846191,4193.974121,3424.000000,4.000000,91.000000,,,,0.000000,4.000000,4.000000,4.000000,4.000000,4.000000,4.000000,4.000000,4.000000,4.000000,4.000000,4.000000,4.000000,4.000000,4.000000,100.000000,,,,,,,,,,,,,,,,
1645708232.271318,180.000000,0.000000,4228.461426,4204.487305,4201.794922,4216.282227,4209.871582,4217.436035,4216.025879,4219.230957,4218.974121,4218.846191,4224.743652,4172.563965,4221.666504,4196.794922,3388.000000,4.000000,91.000000,,,,0.000000,4.000000,4.000000,4.000000,4.000000,4.000000,4.000000,4.000000,4.000000,4.000000,4.000000,4.000000,4.000000,4.000000,4.000000,100.000000,,,,,,,,,,,,,,,,
1645708232.275259,181.000000,0.000000,4230.000000,4203.461426,4201.410156,4212.179688,4212.179688,4217.051270,4218.205078,4217.948730,4219.102539,4223.077148,4225.641113,4170.897461,4218.846191,4198.974121,3053.000000,4.000000,91.000000,,,,0.000000,4.000000,4.000000,4.000000,4.000000,4.000000,4.000000,4.000000,4.000000,4.000000,4.000000,4.000000,4.000000,4.000000,4.000000,100.000000,,,,,,,,,,,,,,,,
1645708232.279199,182.000000,0.000000,4231.153809,4203.333496,4201.153809,4208.846191,4215.641113,4218.461426,4218.846191,4215.128418,4218.974121,4222.820313,4224.487305,4167.436035,4215.256348,4198.077148,2702.000000,4.000000,91.000000,,,,0.000000,4.000000,4.000000,4.000000,4.000000,4.000000,4.000000,4.000000,4.000000,4.000000,4.000000,4.000000,4.000000,4.000000,4.000000,100.000000,,,,,,,,,,,,,,,,
1645708232.283139,183.000000,0.000000,4230.641113,4203.077148,4200.256348,4207.307617,4216.538574,4220.641113,4217.563965,4212.179688,4218.717773,4217.820313,4220.641113,4163.077148,4211.410156,4193.461426,3424.000000,4.000000,91.000000,,,,0.000000,4.000000,4.000000,4.000000,4.000000,4.000000,4.000000,4.000000,4.000000,4.000000,4.000000,4.000000,4.000000,4.000000,4.000000,100.000000,,,,,,,,,,,,,,,,
1645708232.287079,184.000000,0.000000,4228.333496,4201.538574,4199.230957,4207.436035,4214.102539,4221.282227,4214.743652,4210.256348,4217.820313,4211.538574,4215.384766,4160.128418,4208.077148,4187.820313,3388.000000,4.000000,91.000000,,,,0.000000,4.000000,4.000000,4.000000,4.000000,4.000000,4.000000,4.000000,4.000000,4.000000,4.000000,4.000000,4.000000,4.000000,4.000000,100.000000,,,,,,,,,,,,,,,,
1645708232.291019,185.000000,0.000000,4225.256348,4198.846191,4199.230957,4207.436035,4210.384766,4219.230957,4211.025879,4209.358887,4216.410156,4207.563965,4210.769043,4160.641113,4206.538574,4184.102539,3053.000000,4.000000,91.000000,,,,0.000000,4.000000,4.000000,4.000000,4.000000,4.000000,4.000000,4.000000,4.000000,4.000000,4.000000,4.000000,4.000000,4.000000,4.000000,100.000000,,,,,,,,,,,,,,,,
1645708232.294959,186.000000,0.000000,4222.948730,4196.410156,4200.256348,4206.538574,4208.846191,4215.512695,4207.692383,4208.589844,4215.256348,4207.563965,4209.230957,4164.615234,4208.333496,4183.461426,2702.000000,4.000000,91.000000,,,,0.000000,4.000000,4.000000,4.000000,4.000000,4.000000,4.000000,4.000000,4.000000,4.000000,4.000000,4.000000,4.000000,4.000000,4.000000,100.000000,,,,,,,,,,,,,,,,
1645708232.298899,187.000000,0.000000,4222.820313,4196.153809,4201.666504,4205.512695,4210.769043,4212.307617,4205.769043,4206.666504,4214.743652,4210.256348,4211.922852,4169.615234,4213.077148,4185.128418,3424.000000,4.000000,91.000000,,,,0.000000,4.000000,4.000000,4.000000,4.000000,4.000000,4.000000,4.000000,4.000000,4.000000,4.000000,4.000000,4.000000,4.000000,4.000000,100.000000,,,,,,,,,,,,,,,,
1645708232.302839,188.000000,0.000000,4223.974121,4197.820313,4202.179688,4205.128418,4214.615234,4211.538574,4205.641113,4203.205078,4214.743652,4212.692383,4217.563965,4172.948730,4218.589844,4187.436035,3388.000000,4.000000,91.000000,,,,0.000000,4.000000,4.000000,4.000000,4.000000,4.000000,4.000000,4.000000,4.000000,4.000000,4.000000,4.000000,4.000000,4.000000,4.000000,100.000000,,,,,,,,,,,,,,,,
1645708232.306779,189.000000,0.000000,4224.230957,4198.461426,4201.025879,4205.897461,4217.179688,4212.820313,4206.538574,4199.358887,4214.615234,4212.563965,4222.948730,4173.461426,4221.282227,4189.615234,3053.000000,4.000000,91.000000,,,,0.000000,4.000000,4.000000,4.000000,4.000000,4.000000,4.000000,4.000000,4.000000,4.000000,4.000000,4.000000,4.000000,4.000000,4.000000,100.000000,,,,,,,,,,,,,,,,
1645708232.310720,190.000000,0.000000,4221.922852,4195.897461,4198.589844,4207.179688,4216.666504,4214.615234,4207.692383,4197.563965,4214.615234,4210.256348,4224.615234,4172.563965,4219.358887,4191.666504,2702.000000,4.000000,91.000000,,,,0.000000,4.000000,4.000000,4.000000,4.000000,4.000000,4.000000,4.000000,4.000000,4.000000,4.000000,4.000000,4.000000,4.000000,4.000000,100.000000,,,,,,,,,,,,,,,,
1645708232.314660,191.000000,0.000000,4218.205078,4190.384766,4196.538574,4207.563965,4213.717773,4215.128418,4208.461426,4200.000000,4215.641113,4208.717773,4221.922852,4173.077148,4213.974121,4193.333496,3424.000000,4.000000,91.000000,,,,0.000000,4.000000,4.000000,4.000000,4.000000,4.000000,4.000000,4.000000,4.000000,4.000000,4.000000,4.000000,4.000000,4.000000,4.000000,100.000000,,,,,,,,,,,,,,,,
1645708232.318700,192.000000,0.000000,4215.769043,4186.025879,4196.153809,4206.666504,4210.641113,4214.743652,4209.102539,4205.769043,4217.820313,4210.384766,4217.692383,4176.922852,4209.102539,4194.871582,3388.000000,4.000000,91.000000,,,,0.000000,4.000000,4.000000,4.000000,4.000000,4.000000,4.000000,4.000000,4.000000,4.000000,4.000000,4.000000,4.000000,4.000000,4.000000,100.000000,,,,,,,,,,,,,,,,
1645708232.322640,193.000000,0.000000,4217.179688,4186.410156,4197.436035,4205.000000,4209.230957,4215.000000,4209.743652,4211.794922,4220.384766,4215.000000,4216.153809,4183.077148,4208.717773,4196.025879,3053.000000,4.000000,91.000000,,,,0.000000,4.000000,4.000000,4.000000,4.000000,4.000000,4.000000,4.000000,4.000000,4.000000,4.000000,4.000000,4.000000,4.000000,4.000000,100.000000,,,,,,,,,,,,,,,,
1645708232.326580,194.000000,0.000000,4222.436035,4192.436035,4199.230957,4205.000000,4210.769043,4216.922852,4210.769043,4215.256348,4221.922852,4220.000000,4219.102539,4188.589844,4213.461426,4196.410156,2702.000000,4.000000,91.000000,,,,0.000000,4.000000,4.000000,4.000000,4.000000,4.000000,4.000000,4.000000,4.000000,4.000000,4.000000,4.000000,4.000000,4.000000,4.000000,100.000000,,,,,,,,,,,,,,,,
1645708232.330520,195.000000,0.000000,4229.743652,4201.538574,4201.025879,4207.820313,4215.512695,4220.128418,4212.051270,4214.871582,4221.538574,4222.563965,4224.871582,4190.641113,4220.384766,4196.410156,3424.000000,4.000000,91.000000,2,1,2,0.000000,4.000000,4.000000,4.000000,4.000000,4.000000,4.000000,4.000000,4.000000,4.000000,4.000000,4.000000,4.000000,4.000000,4.000000,100.000000,,,,,,,,,,,,,,,,
1645708232.334460,196.000000,0.000000,4236.538574,4209.871582,4203.077148,4212.179688,4222.051270,4223.077148,4213.461426,4212.436035,4220.000000,4222.563965,4230.384766,4188.717773,4226.025879,4196.794922,3388.000000,4.000000,91.000000,,,,0.000000,4.000000,4.000000,4.000000,4.000000,4.000000,4.000000,4.000000,4.000000,4.000000,4.000000,4.000000,4.000000,4.000000,4.000000,100.000000,,,,,,,,,,,,,,,,
1645708232.338500,197.000000,0.000000,4240.256348,4214.358887,4205.512695,4214.487305,4227.436035,4224.743652,4214.487305,4210.769043,4218.717773,4221.922852,4232.563965,4185.512695,4228.333496,4198.333496,3053.000000,4.000000,91.000000,,,,0.000000,4.000000,4.000000,4.000000,4.000000,4.000000,4.000000,4.000000,4.000000,4.000000,4.000000,4.000000,4.000000,4.000000,4.000000,100.000000,,,,,,,,,,,,,,,,
1645708232.342440,198.000000,0.000000,4239.615234,4213.589844,4207.436035,4212.179688,4228.205078,4224.615234,4214.615234,4211.282227,4218.461426,4222.051270,4230.897461,4184.358887,4227.051270,4200.128418,2702.000000,4.000000,91.000000,,,,0.000000,4.000000,4.000000,4.000000,4.000000,4.000000,4.000000,4.000000,4.000000,4.000000,4.000000,4.000000,4.000000,4.000000,4.000000,100.000000,,,,,,,,,,,,,,,,
1645708232.346380,199.000000,0.000000,4235.256348,4208.205078,4208.077148,4205.897461,4223.205078,4223.077148,4213.717773,4213.589844,4218.974121,4222.948730,4226.666504,4185.897461,4223.717773,4201.153809,3424.000000,4.000000,91.000000,,,,0.000000,4.000000,4.000000,4.000000,4.000000,4.000000,4.000000,4.000000,4.000000,4.000000,4.000000,4.000000,4.000000,4.000000,4.000000,100.000000,,,,,,,,,,,,,,,,
1645708232.350320,200.000000,0.000000,4229.487305,4201.025879,4207.436035,4200.000000,4215.128418,4220.769043,4212.436035,4216.410156,4219.358887,4223.846191,4222.307617,4188.333496,4219.871582,4200.512695,3388.000000,4.000000,91.000000,,,,0.000000,4.000000,4.000000,4.000000,4.000000,4.000000,4.000000,4.000000,4.000000,4.000000,4.000000,4.000000,4.000000,4.000000,4.000000,100.000000,,,,,,,,,,,,,,,,
1645708232.354260,201.000000,0.000000,4225.897461,4196.025879,4206.538574,4199.615234,4208.974121,4218.846191,4211.794922,4218.461426,4219.230957,4223.974121,4220.000000,4189.615234,4217.563965,4199.102539,3053.000000,4.000000,91.000000,,,,0.000000,4.000000,4.000000,4.000000,4.000000,4.000000,4.000000,4.000000,4.000000,4.000000,4.000000,4.000000,4.000000,4.000000,4.000000,100.000000,,,,,,,,,,,,,,,,
1645708232.358201,202.000000,0.000000,4226.666504,4195.512695,4206.410156,4206.410156,4208.333496,4218.333496,4211.922852,4218.717773,4218.717773,4223.717773,4220.641113,4189.615234,4217.948730,4198.077148,2702.000000,4.000000,91.000000,,,,0.000000,4.000000,4.000000,4.000000,4.000000,4.000000,4.000000,4.000000,4.000000,4.000000,4.000000,4.000000,4.000000,4.000000,4.000000,100.000000,,,,,,,,,,,,,,,,
1645708232.362141,203.000000,0.000000,4230.512695,4198.846191,4207.179688,4216.666504,4213.077148,4219.230957,4212.179688,4216.538574,4218.205078,4223.461426,4223.205078,4190.128418,4220.384766,4198.205078,3424.000000,4.000000,91.000000,,,,0.000000,4.000000,4.000000,4.000000,4.000000,4.000000,4.000000,4.000000,4.000000,4.000000,4.000000,4.000000,4.000000,4.000000,4.000000,100.000000,,,,,,,,,,,,,,,,
1645708232.366081,204.000000,0.000000,4234.230957,4203.077148,4208.205078,4223.461426,4218.717773,4219.871582,4211.666504,4212.948730,4218.333496,4222.692383,4224.871582,4193.205078,4222.307617,4199.230957,3388.000000,4.000000,91.000000,,,,0.000000,4.000000,4.000000,4.000000,4.000000,4.000000,4.000000,4.000000,4.000000,4.000000,4.000000,4.000000,4.000000,4.000000,4.000000,100.000000,,,,,,,,,,,,,,,,
1645708232.370021,205.000000,0.000000,4235.512695,4204.743652,4208.333496,4222.948730,4220.512695,4218.333496,4210.128418,4209.102539,4218.717773,4220.512695,4222.948730,4197.436035,4221.666504,4200.000000,3053.000000,4.000000,91.000000,,,,0.000000,4.000000,4.000000,4.000000,4.000000,4.000000,4.000000,4.000000,4.000000,4.000000,4.000000,4.000000,4.000000,4.000000,4.000000,100.000000,,,,,,,,,,,,,,,,
1645708232.374061,206.000000,0.000000,4234.358887,4202.820313,4206.666504,4216.666504,4216.410156,4213.846191,4207.179688,4206.153809,4218.846191,4216.025879,4217.563965,4199.871582,4218.077148,4199.615234,2702.000000,4.000000,91.000000,,,,0.000000,4.000000,4.000000,4.000000,4.000000,4.000000,4.000000,4.000000,4.000000,4.000000,4.000000,4.000000,4.000000,4.000000,4.000000,100.000000,,,,,,,,,,,,,,,,
1645708232.378001,207.000000,0.000000,4232.692383,4200.000000,4203.974121,4209.871582,4209.615234,4208.333496,4202.948730,4204.358887,4218.205078,4210.256348,4211.794922,4198.333496,4213.589844,4198.333496,3424.000000,4.000000,91.000000,,,,0.000000,4.000000,4.000000,4.000000,4.000000,4.000000,4.000000,4.000000,4.000000,4.000000,4.000000,4.000000,4.000000,4.000000,4.000000,100.000000,,,,,,,,,,,,,,,,
1645708232.381941,208.000000,0.000000,4232.179688,4198.974121,4201.538574,4206.153809,4205.128418,4205.000000,4198.974121,4203.333496,4217.436035,4205.256348,4209.358887,4194.358887,4210.897461,4196.666504,3388.000000,4.000000,91.000000,,,,0.000000,4.000000,4.000000,4.000000,4.000000,4.000000,4.000000,4.000000,4.000000,4.000000,4.000000,4.000000,4.000000,4.000000,4.000000,100.000000,,,,,,,,,,,,,,,,
1645708232.385881,209.000000,0.000000,4232.436035,4200.000000,4200.897461,4204.871582,4205.512695,4205.769043,4197.307617,4203.205078,4217.051270,4202.692383,4211.153809,4190.897461,4211.153809,4195.000000,3053.000000,4.000000,91.000000,,,,0.000000,4.000000,4.000000,4.000000,4.000000,4.000000,4.000000,4.000000,4.000000,4.000000,4.000000,4.000000,4.000000,4.000000,4.000000,100.000000,,,,,,,,,,,,,,,,
1645708232.389821,210.000000,0.000000,4232.179688,4201.666504,4202.179688,4203.205078,4208.333496,4209.102539,4199.230957,4203.846191,4217.307617,4202.436035,4214.358887,4189.487305,4213.205078,4192.948730,2702.000000,4.000000,91.000000,,,,0.000000,4.000000,4.000000,4.000000,4.000000,4.000000,4.000000,4.000000,4.000000,4.000000,4.000000,4.000000,4.000000,4.000000,4.000000,100.000000,,,,,,,,,,,,,,,,
1645708232.393761,211.000000,0.000000,4231.282227,4202.051270,4203.974121,4200.000000,4209.358887,4211.794922,4203.205078,4204.230957,4217.820313,4202.948730,4215.384766,4189.615234,4214.487305,4190.512695,3424.000000,4.000000,91.000000,,,,0.000000,4.000000,4.000000,4.000000,4.000000,4.000000,4.000000,4.000000,4.000000,4.000000,4.000000,4.000000,4.000000,4.000000,4.000000,100.000000,,,,,,,,,,,,,,,,
1645708232.397702,212.000000,0.000000,4230.384766,4201.666504,4204.871582,4197.436035,4206.794922,4211.922852,4205.769043,4203.333496,4217.820313,4203.077148,4213.461426,4189.615234,4213.717773,4188.846191,3388.000000,4.000000,91.000000,,,,0.000000,4.000000,4.000000,4.000000,4.000000,4.000000,4.000000,4.000000,4.000000,4.000000,4.000000,4.000000,4.000000,4.000000,4.000000,100.000000,,,,,,,,,,,,,,,,
1645708232.401642,213.000000,0.000000,4231.153809,4202.179688,4204.743652,4198.461426,4203.333496,4210.128418,4204.615234,4201.153809,4217.307617,4203.846191,4211.025879,4189.358887,4212.179688,4188.974121,3053.000000,4.000000,91.000000,,,,0.000000,4.000000,4.000000,4.000000,4.000000,4.000000,4.000000,4.000000,4.000000,4.000000,4.000000,4.000000,4.000000,4.000000,4.000000,100.000000,,,,,,,,,,,,,,,,
1645708232.405582,214.000000,0.000000,4234.487305,4205.128418,4205.256348,4204.615234,4203.333496,4208.333496,4200.512695,4200.128418,4216.922852,4206.666504,4211.794922,4189.615234,4212.563965,4191.153809,2702.000000,4.000000,91.000000,,,,0.000000,4.000000,4.000000,4.000000,4.000000,4.000000,4.000000,4.000000,4.000000,4.000000,4.000000,4.000000,4.000000,4.000000,4.000000,100.000000,,,,,,,,,,,,,,,,
1645708232.409522,215.000000,0.000000,4239.743652,4209.743652,4208.205078,4213.205078,4208.333496,4207.820313,4196.666504,4202.563965,4217.436035,4211.922852,4216.410156,4191.025879,4216.666504,4193.974121,3424.000000,4.000000,91.000000,,,,0.000000,4.000000,4.000000,4.000000,4.000000,4.000000,4.000000,4.000000,4.000000,4.000000,4.000000,4.000000,4.000000,4.000000,4.000000,100.000000,,,,,,,,,,,,,,,,
1645708232.413462,216.000000,0.000000,4244.230957,4213.333496,4212.820313,4219.487305,4216.025879,4208.461426,4196.538574,4208.205078,4218.846191,4217.692383,4222.948730,4193.461426,4222.948730,4196.410156,3388.000000,4.000000,91.000000,,,,0.000000,4.000000,4.000000,4.000000,4.000000,4.000000,4.000000,4.000000,4.000000,4.000000,4.000000,4.000000,4.000000,4.000000,4.000000,100.000000,,,,,,,,,,,,,,,,
1645708232.417402,217.000000,0.000000,4245.384766,4213.333496,4216.025879,4221.153809,4221.666504,4209.230957,4200.384766,4214.358887,4220.384766,4221.666504,4228.205078,4195.512695,4227.948730,4197.692383,3053.000000,4.000000,91.000000,,,,0.000000,4.000000,4.000000,4.000000,4.000000,4.000000,4.000000,4.000000,4.000000,4.000000,4.000000,4.000000,4.000000,4.000000,4.000000,100.000000,,,,,,,,,,,,,,,,
1645708232.421342,218.000000,0.000000,4242.436035,4209.358887,4215.256348,4218.461426,4222.692383,4210.000000,4205.769043,4217.820313,4221.410156,4222.436035,4229.615234,4196.025879,4227.820313,4196.794922,2702.000000,4.000000,91.000000,,,,0.000000,4.000000,4.000000,4.000000,4.000000,4.000000,4.000000,4.000000,4.000000,4.000000,4.000000,4.000000,4.000000,4.000000,4.000000,100.000000,,,,,,,,,,,,,,,,
1645708232.425282,219.000000,0.000000,4237.179688,4203.461426,4210.384766,4213.717773,4219.230957,4210.512695,4210.128418,4217.436035,4221.153809,4221.153809,4227.051270,4194.615234,4221.666504,4193.589844,3424.000000,4.000000,91.000000,,,,0.000000,4.000000,4.000000,4.000000,4.000000,4.000000,4.000000,4.000000,4.000000,4.000000,4.000000,4.000000,4.000000,4.000000,4.000000,100.000000,,,,,,,,,,,,,,,,
1645708232.429122,220.000000,0.000000,4232.307617,4198.846191,4204.615234,4208.974121,4213.974121,4210.897461,4212.692383,4215.384766,4220.000000,4219.487305,4221.922852,4191.922852,4212.948730,4188.717773,3388.000000,4.000000,91.000000,,,,0.000000,4.000000,4.000000,4.000000,4.000000,4.000000,4.000000,4.000000,4.000000,4.000000,4.000000,4.000000,4.000000,4.000000,4.000000,100.000000,,,,,,,,,,,,,,,,
1645708232.433063,221.000000,0.000000,4229.230957,4197.563965,4201.282227,4205.128418,4209.615234,4211.153809,4213.461426,4214.102539,4218.846191,4218.461426,4217.051270,4189.615234,4206.666504,4183.717773,3053.000000,4.000000,91.000000,,,,0.000000,4.000000,4.000000,4.000000,4.000000,4.000000,4.000000,4.000000,4.000000,4.000000,4.000000,4.000000,4.000000,4.000000,4.000000,100.000000,,,,,,,,,,,,,,,,
1645708232.437003,222.000000,0.000000,4227.948730,4198.846191,4201.538574,4202.051270,4207.692383,4211.538574,4213.333496,4214.743652,4218.461426,4217.307617,4213.846191,4188.589844,4206.153809,4180.769043,2702.000000,4.000000,91.000000,,,,0.000000,4.000000,4.000000,4.000000,4.000000,4.000000,4.000000,4.000000,4.000000,4.000000,4.000000,4.000000,4.000000,4.000000,4.000000,100.000000,,,,,,,,,,,,,,,,
1645708232.440943,223.000000,0.000000,4227.692383,4200.641113,4203.974121,4200.256348,4207.948730,4211.794922,4212.820313,4215.897461,4218.589844,4214.358887,4212.563965,4188.205078,4210.256348,4180.897461,3424.000000,4.000000,91.000000,,,,0.000000,4.000000,4.000000,4.000000,4.000000,4.000000,4.000000,4.000000,4.000000,4.000000,4.000000,4.000000,4.000000,4.000000,4.000000,100.000000,,,,,,,,,,,,,,,,
1645708232.444883,224.000000,0.000000,4228.205078,4200.769043,4205.769043,4200.512695,4208.589844,4211.666504,4212.307617,4215.897461,4218.717773,4208.974121,4211.922852,4187.051270,4215.128418,4183.589844,3388.000000,4.000000,91.000000,,,,0.000000,4.000000,4.000000,4.000000,4.000000,4.000000,4.000000,4.000000,4.000000,4.000000,4.000000,4.000000,4.000000,4.000000,4.000000,100.000000,,,,,,,,,,,,,,,,
1645708232.448823,225.000000,0.000000,4228.589844,4198.846191,4205.128418,4203.717773,4208.589844,4211.538574,4212.307617,4214.871582,4218.461426,4202.563965,4210.769043,4185.128418,4217.307617,4187.051270,3053.000000,4.000000,91.000000,,,,0.000000,4.000000,4.000000,4.000000,4.000000,4.000000,4.000000,4.000000,4.000000,4.000000,4.000000,4.000000,4.000000,4.000000,4.000000,100.000000,,,,,,,,,,,,,,,,
1645708232.452763,226.000000,0.000000,4228.461426,4196.538574,4203.077148,4208.974121,4208.974121,4212.948730,4213.589844,4214.358887,4217.820313,4198.846191,4209.871582,4183.589844,4216.410156,4190.000000,2702.000000,4.000000,91.000000,,,,0.000000,4.000000,4.000000,4.000000,4.000000,4.000000,4.000000,4.000000,4.000000,4.000000,4.000000,4.000000,4.000000,4.000000,4.000000,100.000000,,,,,,,,,,,,,,,,
1645708232.456703,227.000000,0.000000,4228.205078,4196.153809,4202.179688,4213.974121,4211.666504,4216.666504,4216.153809,4215.769043,4217.563965,4200.769043,4211.282227,4184.487305,4214.358887,4192.436035,3424.000000,4.000000,91.000000,,,,0.000000,4.000000,4.000000,4.000000,4.000000,4.000000,4.000000,4.000000,4.000000,4.000000,4.000000,4.000000,4.000000,4.000000,4.000000,100.000000,,,,,,,,,,,,,,,,
1645708232.460643,228.000000,0.000000,4228.717773,4198.589844,4203.974121,4217.179688,4217.307617,4220.897461,4218.974121,4217.948730,4217.948730,4207.051270,4215.256348,4187.307617,4213.461426,4194.358887,3388.000000,4.000000,91.000000,,,,0.000000,4.000000,4.000000,4.000000,4.000000,4.000000,4.000000,4.000000,4.000000,4.000000,4.000000,4.000000,4.000000,4.000000,4.000000,100.000000,,,,,,,,,,,,,,,,
1645708232.464583,229.000000,0.000000,4229.743652,4201.794922,4207.307617,4217.948730,4222.820313,4222.563965,4219.487305,4217.436035,4218.461426,4212.307617,4219.487305,4189.358887,4214.487305,4194.615234,3053.000000,4.000000,91.000000,,,,0.000000,4.000000,4.000000,4.000000,4.000000,4.000000,4.000000,4.000000,4.000000,4.000000,4.000000,4.000000,4.000000,4.000000,4.000000,100.000000,,,,,,,,,,,,,,,,
1645708232.468524,230.000000,0.000000,4229.871582,4202.692383,4209.102539,4216.153809,4224.102539,4220.128418,4216.666504,4212.051270,4218.205078,4211.025879,4220.128418,4188.205078,4215.256348,4191.153809,2702.000000,4.000000,91.000000,,,,0.000000,4.000000,4.000000,4.000000,4.000000,4.000000,4.000000,4.000000,4.000000,4.000000,4.000000,4.000000,4.000000,4.000000,4.000000,100.000000,,,,,,,,,,,,,,,,
1645708232.472464,231.000000,0.000000,4227.948730,4199.358887,4207.307617,4212.820313,4219.615234,4215.769043,4211.666504,4204.102539,4217.179688,4202.948730,4215.384766,4183.846191,4213.717773,4185.512695,3424.000000,4.000000,91.000000,,,,0.000000,4.000000,4.000000,4.000000,4.000000,4.000000,4.000000,4.000000,4.000000,4.000000,4.000000,4.000000,4.000000,4.000000,4.000000,100.000000,,,,,,,,,,,,,,,,
1645708232.476404,232.000000,0.000000,4225.000000,4193.461426,4202.820313,4209.615234,4212.820313,4213.077148,4207.692383,4198.589844,4215.897461,4193.846191,4207.563965,4178.974121,4210.000000,4181.282227,3388.000000,4.000000,91.000000,,,,0.000000,4.000000,4.000000,4.000000,4.000000,4.000000,4.000000,4.000000,4.000000,4.000000,4.000000,4.000000,4.000000,4.000000,4.000000,100.000000,,,,,,,,,,,,,,,,
1645708232.480344,233.000000,0.000000,4223.077148,4189.358887,4198.846191,4208.333496,4208.974121,4214.102539,4206.922852,4198.717773,4215.256348,4191.025879,4201.282227,4176.794922,4206.538574,4182.307617,3053.000000,4.000000,91.000000,,,,0.000000,4.000000,4.000000,4.000000,4.000000,4.000000,4.000000,4.000000,4.000000,4.000000,4.000000,4.000000,4.000000,4.000000,4.000000,100.000000,,,,,,,,,,,,,,,,
1645708232.484284,234.000000,0.000000,4223.974121,4190.641113,4197.948730,4209.230957,4210.512695,4216.922852,4209.487305,4203.077148,4215.256348,4196.666504,4200.641113,4178.461426,4206.794922,4188.717773,2702.000000,4.000000,91.000000,,,,0.000000,4.000000,4.000000,4.000000,4.000000,4.000000,4.000000,4.000000,4.000000,4.000000,4.000000,4.000000,4.000000,4.000000,4.000000,100.000000,,,,,,,,,,,,,,,,
1645708232.488224,235.000000,0.000000,4227.948730,4197.307617,4200.384766,4211.282227,4214.871582,4218.461426,4213.974121,4207.820313,4215.897461,4206.153809,4205.641113,4182.436035,4211.410156,4196.538574,3424.000000,4.000000,91.000000,,,,0.000000,4.000000,4.000000,4.000000,4.000000,4.000000,4.000000,4.000000,4.000000,4.000000,4.000000,4.000000,4.000000,4.000000,4.000000,100.000000,,,,,,,,,,,,,,,,
1645708232.492164,236.000000,0.000000,4232.948730,4205.512695,4204.102539,4212.948730,4217.307617,4217.563965,4218.461426,4209.743652,4216.666504,4213.077148,4212.436035,4185.897461,4217.179688,4201.282227,3388.000000,4.000000,91.000000,,,,0.000000,4.000000,4.000000,4.000000,4.000000,4.000000,4.000000,4.000000,4.000000,4.000000,4.000000,4.000000,4.000000,4.000000,4.000000,100.000000,,,,,,,,,,,,,,,,
1645708232.496104,237.000000,0.000000,4236.025879,4210.641113,4206.410156,4212.948730,4215.384766,4216.025879,4221.282227,4209.102539,4217.948730,4213.846191,4215.769043,4186.153809,4219.487305,4200.256348,3053.000000,4.000000,91.000000,,,,0.000000,4.000000,4.000000,4.000000,4.000000,4.000000,4.000000,4.000000,4.000000,4.000000,4.000000,4.000000,4.000000,4.000000,4.000000,100.000000,,,,,,,,,,,,,,,,
1645708232.500044,238.000000,0.000000,4235.128418,4209.487305,4205.769043,4210.512695,4210.512695,4215.897461,4221.666504,4208.461426,4219.230957,4210.000000,4212.692383,4182.436035,4215.512695,4194.358887,2702.000000,4.000000,91.000000,,,,0.000000,4.000000,4.000000,4.000000,4.000000,4.000000,4.000000,4.000000,4.000000,4.000000,4.000000,4.000000,4.000000,4.000000,4.000000,100.000000,,,,,,,,,,,,,,,,
1645708232.503885,239.000000,0.000000,4229.743652,4202.307617,4202.692383,4205.769043,4206.282227,4217.436035,4220.128418,4209.871582,4220.384766,4205.256348,4204.615234,4176.538574,4207.563965,4186.922852,3424.000000,4.000000,91.000000,,,,0.000000,4.000000,4.000000,4.000000,4.000000,4.000000,4.000000,4.000000,4.000000,4.000000,4.000000,4.000000,4.000000,4.000000,4.000000,100.000000,,,,,,,,,,,,,,,,
1645708232.507825,240.000000,0.000000,4222.692383,4192.820313,4199.358887,4200.769043,4205.256348,4218.974121,4217.436035,4213.077148,4220.897461,4202.563965,4196.282227,4171.410156,4200.641113,4182.051270,3388.000000,4.000000,91.000000,,,,0.000000,4.000000,4.000000,4.000000,4.000000,4.000000,4.000000,4.000000,4.000000,4.000000,4.000000,4.000000,4.000000,4.000000,4.000000,100.000000,,,,,,,,,,,,,,,,
1645708232.511765,241.000000,0.000000,4218.077148,4187.051270,4197.948730,4197.948730,4207.692383,4218.974121,4215.512695,4216.922852,4220.769043,4203.205078,4193.589844,4170.128418,4199.487305,4181.794922,3053.000000,4.000000,91.000000,,,,0.000000,4.000000,4.000000,4.000000,4.000000,4.000000,4.000000,4.000000,4.000000,4.000000,4.000000,4.000000,4.000000,4.000000,4.000000,100.000000,,,,,,,,,,,,,,,,
1645708232.515705,242.000000,0.000000,4219.102539,4188.846191,4198.974121,4198.589844,4211.153809,4217.692383,4215.641113,4219.615234,4220.384766,4207.307617,4199.358887,4173.461426,4205.641113,4187.307617,2702.000000,4.000000,91.000000,,,,0.000000,4.000000,4.000000,4.000000,4.000000,4.000000,4.000000,4.000000,4.000000,4.000000,4.000000,4.000000,4.000000,4.000000,4.000000,100.000000,,,,,,,,,,,,,,,,
1645708232.519645,243.000000,0.000000,4225.512695,4196.922852,4201.153809,4201.666504,4213.077148,4216.282227,4217.307617,4220.641113,4220.256348,4213.846191,4211.025879,4179.615234,4216.282227,4197.563965,3424.000000,4.000000,91.000000,,,,0.000000,4.000000,4.000000,4.000000,4.000000,4.000000,4.000000,4.000000,4.000000,4.000000,4.000000,4.000000,4.000000,4.000000,4.000000,100.000000,,,,,,,,,,,,,,,,
1645708232.523585,244.000000,0.000000,4233.077148,4205.512695,4202.948730,4205.384766,4212.051270,4216.282227,4218.589844,4220.000000,4220.512695,4220.512695,4222.307617,4185.512695,4225.769043,4208.974121,3388.000000,4.000000,91.000000,,,,0.000000,4.000000,4.000000,4.000000,4.000000,4.000000,4.000000,4.000000,4.000000,4.000000,4.000000,4.000000,4.000000,4.000000,4.000000,100.000000,,,,,,,,,,,,,,,,
1645708232.527525,245.000000,0.000000,4236.922852,4208.717773,4203.333496,4207.563965,4208.461426,4217.179688,4217.820313,4217.692383,4220.384766,4223.846191,4227.436035,4188.461426,4229.743652,4216.666504,3053.000000,4.000000,91.000000,,,,0.000000,4.000000,4.000000,4.000000,4.000000,4.000000,4.000000,4.000000,4.000000,4.000000,4.000000,4.000000,4.000000,4.000000,4.000000,100.000000,,,,,,,,,,,,,,,,
1645708232.531465,246.000000,0.000000,4235.769043,4205.128418,4202.436035,4206.794922,4204.358887,4217.436035,4214.871582,4213.974121,4219.358887,4222.179688,4225.512695,4187.820313,4227.692383,4217.563965,2702.000000,4.000000,91.000000,,,,0.000000,4.000000,4.000000,4.000000,4.000000,4.000000,4.000000,4.000000,4.000000,4.000000,4.000000,4.000000,4.000000,4.000000,4.000000,100.000000,,,,,,,,,,,,,,,,
1645708232.535405,247.000000,0.000000,4232.307617,4198.717773,4201.153809,4203.205078,4201.794922,4215.256348,4211.282227,4209.615234,4217.436035,4216.666504,4220.512695,4185.384766,4223.333496,4212.820313,3424.000000,4.000000,91.000000,,,,0.000000,4.000000,4.000000,4.000000,4.000000,4.000000,4.000000,4.000000,4.000000,4.000000,4.000000,4.000000,4.000000,4.000000,4.000000,100.000000,,,,,,,,,,,,,,,,
1645708232.539346,248.000000,0.000000,4230.128418,4195.384766,4200.384766,4198.333496,4201.538574,4210.897461,4208.333496,4205.384766,4215.256348,4210.641113,4217.436035,4183.717773,4220.769043,4207.051270,3388.000000,4.000000,91.000000,,,,0.000000,4.000000,4.000000,4.000000,4.000000,4.000000,4.000000,4.000000,4.000000,4.000000,4.000000,4.000000,4.000000,4.000000,4.000000,100.000000,,,,,,,,,,,,,,,,
1645708232.543286,249.000000,0.000000,4230.641113,4197.436035,4200.000000,4194.102539,4201.922852,4206.538574,4206.282227,4201.794922,4213.846191,4207.051270,4218.077148,4184.230957,4221.153809,4204.102539,3053.000000,4.000000,91.000000,,,,0.000000,4.000000,4.000000,4.000000,4.000000,4.000000,4.000000,4.000000,4.000000,4.000000,4.000000,4.000000,4.000000,4.000000,4.000000,100.000000,,,,,,,,,,,,,,,,
1645708232.547226,250.000000,0.000000,4231.922852,4201.538574,4199.615234,4191.538574,4200.769043,4204.358887,4205.000000,4198.974121,4213.205078,4205.641113,4220.000000,4185.897461,4221.922852,4205.128418,2702.000000,4.000000,91.000000,,,,0.000000,4.000000,4.000000,4.000000,4.000000,4.000000,4.000000,4.000000,4.000000,4.000000,4.000000,4.000000,4.000000,4.000000,4.000000,100.000000,,,,,,,,,,,,,,,,
1645708232.551166,251.000000,0.000000,4231.538574,4202.948730,4199.358887,4191.025879,4197.563965,4205.128418,4204.102539,4197.563965,4212.948730,4204.615234,4219.358887,4186.153809,4220.000000,4207.307617,3424.000000,4.000000,91.000000,,,,0.000000,4.000000,4.000000,4.000000,4.000000,4.000000,4.000000,4.000000,4.000000,4.000000,4.000000,4.000000,4.000000,4.000000,4.000000,100.000000,,,,,,,,,,,,,,,,
1645708232.555106,252.000000,0.000000,4229.358887,4199.487305,4199.615234,4192.307617,4194.358887,4206.922852,4203.077148,4197.948730,4212.820313,4202.563965,4215.000000,4183.974121,4215.128418,4207.307617,3388.000000,4.000000,91.000000,,,,0.000000,4.000000,4.000000,4.000000,4.000000,4.000000,4.000000,4.000000,4.000000,4.000000,4.000000,4.000000,4.000000,4.000000,4.000000,100.000000,,,,,,,,,,,,,,,,
1645708232.559046,253.000000,0.000000,4227.948730,4194.358887,4200.641113,4194.230957,4194.102539,4207.692383,4202.307617,4199.871582,4212.948730,4200.769043,4210.256348,4181.025879,4210.641113,4203.846191,3053.000000,4.000000,91.000000,,,,0.000000,4.000000,4.000000,4.000000,4.000000,4.000000,4.000000,4.000000,4.000000,4.000000,4.000000,4.000000,4.000000,4.000000,4.000000,100.000000,,,,,,,,,,,,,,,,
1645708232.563086,254.000000,0.000000,4229.743652,4191.922852,4202.051270,4194.615234,4198.205078,4207.563965,4202.820313,4202.820313,4213.589844,4201.410156,4209.615234,4179.743652,4210.384766,4199.102539,2702.000000,4.000000,91.000000,,,,0.000000,4.000000,4.000000,4.000000,4.000000,4.000000,4.000000,4.000000,4.000000,4.000000,4.000000,4.000000,4.000000,4.000000,4.000000,100.000000,,,,,,,,,,,,,,,,
1645708232.567026,255.000000,0.000000,4234.358887,4193.974121,4203.589844,4192.563965,4204.615234,4207.820313,4205.897461,4206.410156,4215.000000,4205.384766,4213.717773,4180.769043,4215.128418,4196.538574,114.000000,4.000000,91.000000,,,,0.000000,4.000000,4.000000,4.000000,4.000000,4.000000,4.000000,4.000000,4.000000,4.000000,4.000000,4.000000,4.000000,4.000000,4.000000,100.000000,,,,,,,,,,,,,,,,
1645708232.570966,0.000000,0.000000,4238.205078,4198.461426,4205.000000,4188.974121,4209.487305,4209.615234,4211.282227,4210.256348,4216.410156,4210.769043,4219.358887,4182.820313,4221.153809,4198.589844,3130.000000,4.000000,91.000000,,,,0.000000,4.000000,4.000000,4.000000,4.000000,4.000000,4.000000,4.000000,4.000000,4.000000,4.000000,4.000000,4.000000,4.000000,4.000000,100.000000,,,,,,,,,,,,,,,,
1645708232.574906,1.000000,0.000000,4238.974121,4201.666504,4206.666504,4186.538574,4211.025879,4212.692383,4217.051270,4212.820313,4217.307617,4214.358887,4223.077148,4185.512695,4224.358887,4204.615234,3595.000000,4.000000,91.000000,,,,0.000000,4.000000,4.000000,4.000000,4.000000,4.000000,4.000000,4.000000,4.000000,4.000000,4.000000,4.000000,4.000000,4.000000,4.000000,100.000000,,,,,,,,,,,,,,,,
1645708232.578847,2.000000,0.000000,4237.436035,4202.051270,4208.846191,4188.589844,4209.358887,4215.512695,4220.512695,4212.948730,4217.179688,4214.487305,4224.230957,4188.974121,4224.230957,4212.179688,3457.000000,4.000000,91.000000,,,,0.000000,4.000000,4.000000,4.000000,4.000000,4.000000,4.000000,4.000000,4.000000,4.000000,4.000000,4.000000,4.000000,4.000000,4.000000,100.000000,,,,,,,,,,,,,,,,
1645708232.582787,3.000000,0.000000,4237.179688,4200.769043,4211.538574,4196.410156,4206.794922,4216.153809,4219.230957,4211.410156,4216.922852,4212.563965,4224.743652,4193.589844,4223.846191,4218.333496,3372.000000,4.000000,91.000000,,,,0.000000,4.000000,4.000000,4.000000,4.000000,4.000000,4.000000,4.000000,4.000000,4.000000,4.000000,4.000000,4.000000,4.000000,4.000000,100.000000,,,,,,,,,,,,,,,,
1645708232.586727,4.000000,0.000000,4240.384766,4200.128418,4213.589844,4207.563965,4204.487305,4213.974121,4213.717773,4210.897461,4217.307617,4211.025879,4226.153809,4197.563965,4225.000000,4221.410156,3436.000000,4.000000,91.000000,,,,0.000000,4.000000,4.000000,4.000000,4.000000,4.000000,4.000000,4.000000,4.000000,4.000000,4.000000,4.000000,4.000000,4.000000,4.000000,100.000000,,,,,,,,,,,,,,,,
1645708232.590667,5.000000,0.000000,4245.256348,4200.512695,4214.102539,4216.666504,4202.436035,4208.974121,4206.922852,4213.589844,4218.077148,4211.153809,4228.077148,4198.974121,4227.179688,4220.769043,3441.000000,4.000000,91.000000,,,,0.000000,4.000000,4.000000,4.000000,4.000000,4.000000,4.000000,4.000000,4.000000,4.000000,4.000000,4.000000,4.000000,4.000000,4.000000,100.000000,,,,,,,,,,,,,,,,
1645708232.594607,6.000000,0.000000,4247.436035,4200.256348,4212.948730,4219.102539,4200.512695,4203.205078,4202.179688,4218.333496,4218.717773,4212.307617,4228.717773,4196.794922,4228.205078,4217.820313,3131.000000,4.000000,91.000000,,,,0.000000,4.000000,4.000000,4.000000,4.000000,4.000000,4.000000,4.000000,4.000000,4.000000,4.000000,4.000000,4.000000,4.000000,4.000000,100.000000,,,,,,,,,,,,,,,,
1645708232.598547,7.000000,0.000000,4245.128418,4198.077148,4210.384766,4214.615234,4199.230957,4199.487305,4201.282227,4222.051270,4218.205078,4213.205078,4227.051270,4192.307617,4227.436035,4215.000000,3002.000000,4.000000,91.000000,,,,0.000000,4.000000,4.000000,4.000000,4.000000,4.000000,4.000000,4.000000,4.000000,4.000000,4.000000,4.000000,4.000000,4.000000,4.000000,100.000000,,,,,,,,,,,,,,,,
1645708232.602487,8.000000,0.000000,4240.384766,4194.487305,4207.692383,4207.692383,4198.589844,4200.128418,4203.461426,4221.794922,4216.666504,4213.205078,4223.974121,4187.948730,4225.897461,4215.384766,1450.000000,4.000000,91.000000,,,,0.000000,4.000000,4.000000,4.000000,4.000000,4.000000,4.000000,4.000000,4.000000,4.000000,4.000000,4.000000,4.000000,4.000000,4.000000,100.000000,,,,,,,,,,,,,,,,
1645708232.606427,9.000000,0.000000,4237.563965,4191.794922,4205.897461,4203.717773,4198.205078,4204.487305,4206.794922,4218.205078,4215.000000,4212.436035,4221.282227,4185.512695,4225.256348,4219.358887,3492.000000,4.000000,91.000000,,,,0.000000,4.000000,4.000000,4.000000,4.000000,4.000000,4.000000,4.000000,4.000000,4.000000,4.000000,4.000000,4.000000,4.000000,4.000000,100.000000,,,,,,,,,,,,,,,,
1645708232.610367,10.000000,0.000000,4238.205078,4191.153809,4206.025879,4204.358887,4197.051270,4209.615234,4208.589844,4214.230957,4214.230957,4211.153809,4220.000000,4184.487305,4225.897461,4224.102539,2624.000000,4.000000,91.000000,,,,0.000000,4.000000,4.000000,4.000000,4.000000,4.000000,4.000000,4.000000,4.000000,4.000000,4.000000,4.000000,4.000000,4.000000,4.000000,100.000000,,,,,,,,,,,,,,,,
1645708232.614307,11.000000,0.000000,4240.384766,4192.179688,4207.179688,4207.307617,4195.384766,4212.179688,4207.948730,4212.436035,4214.615234,4209.358887,4219.487305,4183.205078,4226.922852,4225.897461,3419.000000,4.000000,91.000000,,,,0.000000,4.000000,4.000000,4.000000,4.000000,4.000000,4.000000,4.000000,4.000000,4.000000,4.000000,4.000000,4.000000,4.000000,4.000000,100.000000,,,,,,,,,,,,,,,,
1645708232.618248,12.000000,0.000000,4241.025879,4192.820313,4207.563965,4208.974121,4194.743652,4211.282227,4205.384766,4212.692383,4215.769043,4207.436035,4218.717773,4179.871582,4226.922852,4223.077148,3395.000000,4.000000,91.000000,,,,0.000000,4.000000,4.000000,4.000000,4.000000,4.000000,4.000000,4.000000,4.000000,4.000000,4.000000,4.000000,4.000000,4.000000,4.000000,100.000000,,,,,,,,,,,,,,,,
1645708232.622188,13.000000,0.000000,4238.461426,4192.179688,4205.128418,4207.563965,4197.436035,4208.461426,4202.692383,4213.589844,4216.538574,4205.897461,4216.794922,4174.871582,4224.358887,4216.538574,3425.000000,4.000000,91.000000,,,,0.000000,4.000000,4.000000,4.000000,4.000000,4.000000,4.000000,4.000000,4.000000,4.000000,4.000000,4.000000,4.000000,4.000000,4.000000,100.000000,,,,,,,,,,,,,,,,
1645708232.626128,14.000000,0.000000,4233.333496,4189.615234,4200.384766,4203.589844,4202.820313,4206.410156,4201.666504,4214.102539,4216.282227,4205.128418,4213.846191,4169.615234,4219.615234,4209.871582,2624.000000,4.000000,91.000000,,,,0.000000,4.000000,4.000000,4.000000,4.000000,4.000000,4.000000,4.000000,4.000000,4.000000,4.000000,4.000000,4.000000,4.000000,4.000000,100.000000,,,,,,,,,,,,,,,,
1645708232.630068,15.000000,0.000000,4227.692383,4186.025879,4195.256348,4200.000000,4207.563965,4205.897461,4202.820313,4214.487305,4215.256348,4205.256348,4210.897461,4166.410156,4214.615234,4205.641113,3419.000000,4.000000,91.000000,,,,0.000000,4.000000,4.000000,4.000000,4.000000,4.000000,4.000000,4.000000,4.000000,4.000000,4.000000,4.000000,4.000000,4.000000,4.000000,100.000000,,,,,,,,,,,,,,,,
1645708232.634008,16.000000,0.000000,4223.589844,4181.922852,4192.436035,4199.358887,4207.820313,4206.410156,4205.000000,4215.384766,4214.615234,4206.025879,4209.102539,4166.025879,4211.666504,4204.230957,3395.000000,4.000000,91.000000,,,,0.000000,4.000000,4.000000,4.000000,4.000000,4.000000,4.000000,4.000000,4.000000,4.000000,4.000000,4.000000,4.000000,4.000000,4.000000,100.000000,,,,,,,,,,,,,,,,
1645708232.637948,17.000000,0.000000,4222.051270,4178.333496,4192.051270,4202.820313,4203.333496,4206.666504,4206.666504,4216.410156,4215.128418,4207.307617,4208.974121,4167.692383,4212.307617,4204.102539,3425.000000,4.000000,91.000000,,,,0.000000,4.000000,4.000000,4.000000,4.000000,4.000000,4.000000,4.000000,4.000000,4.000000,4.000000,4.000000,4.000000,4.000000,4.000000,100.000000,,,,,,,,,,,,,,,,
1645708232.641888,18.000000,0.000000,4222.820313,4176.282227,4192.436035,4208.333496,4197.051270,4206.025879,4206.922852,4217.051270,4216.410156,4209.358887,4210.384766,4169.487305,4216.025879,4204.230957,2624.000000,4.000000,91.000000,,,,0.000000,4.000000,4.000000,4.000000,4.000000,4.000000,4.000000,4.000000,4.000000,4.000000,4.000000,4.000000,4.000000,4.000000,4.000000,100.000000,,,,,,,,,,,,,,,,
1645708232.645828,19.000000,0.000000,4224.102539,4175.512695,4191.794922,4211.282227,4192.436035,4204.871582,4206.666504,4217.179688,4217.307617,4211.794922,4211.666504,4169.871582,4219.871582,4204.871582,3419.000000,4.000000,91.000000,,,,0.000000,4.000000,4.000000,4.000000,4.000000,4.000000,4.000000,4.000000,4.000000,4.000000,4.000000,4.000000,4.000000,4.000000,4.000000,100.000000,,,,,,,,,,,,,,,,
1645708232.649768,20.000000,0.000000,4224.102539,4175.384766,4189.743652,4207.948730,4190.000000,4204.487305,4206.666504,4216.794922,4217.436035,4213.717773,4212.051270,4168.589844,4220.769043,4206.282227,3395.000000,4.000000,91.000000,,,,0.000000,4.000000,4.000000,4.000000,4.000000,4.000000,4.000000,4.000000,4.000000,4.000000,4.000000,4.000000,4.000000,4.000000,4.000000,100.000000,,,,,,,,,,,,,,,,
1645708232.653709,21.000000,0.000000,4222.563965,4174.743652,4187.948730,4199.487305,4188.974121,4205.384766,4207.692383,4216.282227,4216.794922,4214.487305,4211.922852,4166.538574,4218.205078,4208.333496,3425.000000,4.000000,91.000000,,,,0.000000,4.000000,4.000000,4.000000,4.000000,4.000000,4.000000,4.000000,4.000000,4.000000,4.000000,4.000000,4.000000,4.000000,4.000000,100.000000,,,,,,,,,,,,,,,,
1645708232.657649,22.000000,0.000000,4220.256348,4173.333496,4187.179688,4191.025879,4188.077148,4207.051270,4208.846191,4216.153809,4216.410156,4214.358887,4212.820313,4165.512695,4214.871582,4210.128418,2624.000000,4.000000,91.000000,,,,0.000000,4.000000,4.000000,4.000000,4.000000,4.000000,4.000000,4.000000,4.000000,4.000000,4.000000,4.000000,4.000000,4.000000,4.000000,100.000000,,,,,,,,,,,,,,,,
1645708232.661589,23.000000,0.000000,4218.333496,4171.538574,4187.692383,4188.717773,4187.563965,4208.461426,4209.102539,4216.794922,4217.307617,4214.871582,4215.512695,4166.922852,4214.743652,4211.153809,3419.000000,4.000000,91.000000,,,,0.000000,4.000000,4.000000,4.000000,4.000000,4.000000,4.000000,4.000000,4.000000,4.000000,4.000000,4.000000,4.000000,4.000000,4.000000,100.000000,,,,,,,,,,,,,,,,
1645708232.665429,24.000000,0.000000,4217.307617,4170.128418,4189.102539,4194.358887,4187.820313,4207.820313,4207.307617,4217.563965,4219.230957,4216.666504,4219.615234,4171.025879,4218.846191,4211.538574,3395.000000,4.000000,91.000000,,,,0.000000,4.000000,4.000000,4.000000,4.000000,4.000000,4.000000,4.000000,4.000000,4.000000,4.000000,4.000000,4.000000,4.000000,4.000000,100.000000,1.000000,100.000000,4.000000,4.000000,4.000000,4.000000,4.000000,4.000000,4.000000,4.000000,4.000000,4.000000,4.000000,4.000000,4.000000,4.000000
1645708232.669369,25.000000,0.000000,4217.948730,4170.512695,4191.538574,4204.102539,4189.358887,4204.615234,4203.846191,4217.692383,4221.025879,4219.230957,4223.333496,4176.666504,4224.358887,4211.794922,3425.000000,4.000000,91.000000,,,,0.000000,4.000000,4.000000,4.000000,4.000000,4.000000,4.000000,4.000000,4.000000,4.000000,4.000000,4.000000,4.000000,4.000000,4.000000,100.000000,,,,,,,,,,,,,,,,
1645708232.673309,26.000000,0.000000,4221.282227,4173.846191,4194.743652,4211.282227,4192.307617,4200.128418,4200.641113,4216.538574,4221.410156,4221.794922,4225.512695,4181.410156,4227.436035,4211.666504,2624.000000,4.000000,91.000000,,,,0.000000,4.000000,4.000000,4.000000,4.000000,4.000000,4.000000,4.000000,4.000000,4.000000,4.000000,4.000000,4.000000,4.000000,4.000000,100.000000,,,,,,,,,,,,,,,,
1645708232.677249,27.000000,0.000000,4227.563965,4179.871582,4197.820313,4212.436035,4196.025879,4197.179688,4200.128418,4215.256348,4219.871582,4223.717773,4225.641113,4182.820313,4226.282227,4211.410156,3419.000000,4.000000,91.000000,,,,0.000000,4.000000,4.000000,4.000000,4.000000,4.000000,4.000000,4.000000,4.000000,4.000000,4.000000,4.000000,4.000000,4.000000,4.000000,100.000000,,,,,,,,,,,,,,,,
1645708232.681189,28.000000,0.000000,4234.487305,4186.666504,4199.230957,4208.589844,4199.871582,4198.077148,4203.077148,4214.871582,4217.692383,4224.743652,4224.230957,4180.641113,4222.563965,4211.282227,3395.000000,4.000000,91.000000,,,,0.000000,4.000000,4.000000,4.000000,4.000000,4.000000,4.000000,4.000000,4.000000,4.000000,4.000000,4.000000,4.000000,4.000000,4.000000,100.000000,,,,,,,,,,,,,,,,
1645708232.685129,29.000000,0.000000,4238.333496,4190.769043,4198.461426,4204.102539,4202.436035,4202.820313,4208.077148,4215.384766,4216.410156,4223.974121,4222.051270,4176.153809,4219.358887,4211.153809,3425.000000,4.000000,91.000000,,,,0.000000,4.000000,4.000000,4.000000,4.000000,4.000000,4.000000,4.000000,4.000000,4.000000,4.000000,4.000000,4.000000,4.000000,4.000000,100.000000,,,,,,,,,,,,,,,,
1645708232.689070,30.000000,0.000000,4236.922852,4190.512695,4196.282227,4202.948730,4202.820313,4208.589844,4212.307617,4215.256348,4216.282227,4220.769043,4219.230957,4171.922852,4218.589844,4210.641113,2624.000000,4.000000,91.000000,,,,0.000000,4.000000,4.000000,4.000000,4.000000,4.000000,4.000000,4.000000,4.000000,4.000000,4.000000,4.000000,4.000000,4.000000,4.000000,100.000000,,,,,,,,,,,,,,,,
1645708232.693010,31.000000,0.000000,4231.025879,4186.922852,4193.461426,4206.153809,4201.538574,4212.563965,4213.589844,4212.820313,4216.153809,4215.512695,4215.641113,4169.487305,4219.871582,4209.487305,3419.000000,4.000000,91.000000,,,,0.000000,4.000000,4.000000,4.000000,4.000000,4.000000,4.000000,4.000000,4.000000,4.000000,4.000000,4.000000,4.000000,4.000000,4.000000,100.000000,,,,,,,,,,,,,,,,
1645708232.696950,32.000000,0.000000,4224.615234,4183.589844,4189.871582,4211.922852,4200.000000,4213.205078,4211.794922,4208.589844,4215.256348,4209.871582,4212.179688,4168.589844,4221.410156,4208.461426,0.000000,4.000000,91.000000,,,,0.000000,4.000000,4.000000,4.000000,4.000000,4.000000,4.000000,4.000000,4.000000,4.000000,4.000000,4.000000,4.000000,4.000000,4.000000,100.000000,,,,,,,,,,,,,,,,
1645708232.700890,33.000000,0.000000,4220.384766,4182.820313,4185.384766,4215.897461,4199.230957,4211.410156,4207.692383,4204.102539,4214.230957,4205.384766,4209.871582,4167.436035,4220.769043,4207.820313,0.000000,4.000000,91.000000,,,,0.000000,4.000000,4.000000,4.000000,4.000000,4.000000,4.000000,4.000000,4.000000,4.000000,4.000000,4.000000,4.000000,4.000000,4.000000,100.000000,,,,,,,,,,,,,,,,
1645708232.704830,34.000000,0.000000,4218.461426,4184.230957,4180.897461,4214.230957,4198.974121,4208.461426,4203.205078,4200.897461,4213.461426,4202.051270,4208.589844,4163.846191,4217.692383,4207.307617,0.000000,4.000000,91.000000,,,,0.000000,4.000000,4.000000,4.000000,4.000000,4.000000,4.000000,4.000000,4.000000,4.000000,4.000000,4.000000,4.000000,4.000000,4.000000,100.000000,,,,,,,,,,,,,,,,
1645708232.708770,35.000000,0.000000,4217.948730,4185.000000,4177.436035,4206.282227,4197.436035,4205.000000,4200.256348,4199.358887,4213.077148,4198.974121,4207.563965,4158.077148,4214.102539,4206.153809,0.000000,4.000000,91.000000,,,,0.000000,4.000000,4.000000,4.000000,4.000000,4.000000,4.000000,4.000000,4.000000,4.000000,4.000000,4.000000,4.000000,4.000000,4.000000,100.000000,,,,,,,,,,,,,,,,
1645708232.712710,36.000000,0.000000,4217.948730,4183.461426,4175.897461,4196.282227,4194.615234,4201.922852,4199.871582,4198.717773,4212.051270,4196.410156,4206.025879,4152.179688,4212.051270,4204.230957,0.000000,4.000000,91.000000,,,,0.000000,4.000000,4.000000,4.000000,4.000000,4.000000,4.000000,4.000000,4.000000,4.000000,4.000000,4.000000,4.000000,4.000000,4.000000,100.000000,,,,,,,,,,,,,,,,
1645708232.716650,37.000000,0.000000,4219.358887,4181.025879,4176.666504,4191.538574,4193.077148,4200.512695,4201.794922,4198.717773,4209.871582,4195.641113,4204.743652,4149.487305,4212.820313,4203.077148,0.000000,4.000000,91.000000,,,,0.000000,4.000000,4.000000,4.000000,4.000000,4.000000,4.000000,4.000000,4.000000,4.000000,4.000000,4.000000,4.000000,4.000000,4.000000,100.000000,,,,,,,,,,,,,,,,
1645708232.720590,38.000000,0.000000,4222.563965,4181.025879,4179.358887,4196.666504,4195.256348,4201.794922,4204.358887,4199.102539,4207.820313,4198.589844,4205.512695,4152.051270,4215.512695,4204.358887,0.000000,4.000000,91.000000,,,,0.000000,4.000000,4.000000,4.000000,4.000000,4.000000,4.000000,4.000000,4.000000,4.000000,4.000000,4.000000,4.000000,4.000000,4.000000,100.000000,,,,,,,,,,,,,,,,
1645708232.724531,39.000000,0.000000,4227.179688,4185.256348,4183.077148,4209.743652,4201.153809,4204.871582,4206.025879,4199.871582,4208.077148,4204.487305,4208.846191,4159.358887,4218.717773,4208.461426,0.000000,4.000000,91.000000,,,,0.000000,4.000000,4.000000,4.000000,4.000000,4.000000,4.000000,4.000000,4.000000,4.000000,4.000000,4.000000,4.000000,4.000000,4.000000,100.000000,,,,,,,,,,,,,,,,
1645708232.728471,40.000000,0.000000,4231.282227,4192.307617,4186.538574,4222.051270,4207.692383,4207.436035,4205.897461,4200.769043,4211.282227,4210.897461,4213.461426,4167.563965,4220.641113,4213.333496,0.000000,4.000000,91.000000,,,,0.000000,4.000000,4.000000,4.000000,4.000000,4.000000,4.000000,4.000000,4.000000,4.000000,4.000000,4.000000,4.000000,4.000000,4.000000,100.000000,,,,,,,,,,,,,,,,
1645708232.732311,41.000000,0.000000,4233.205078,4197.436035,4188.333496,4224.358887,4210.512695,4207.692383,4204.615234,4201.153809,4214.871582,4213.974121,4216.410156,4172.436035,4220.384766,4216.410156,0.000000,4.000000,91.000000,,,,0.000000,4.000000,4.000000,4.000000,4.000000,4.000000,4.000000,4.000000,4.000000,4.000000,4.000000,4.000000,4.000000,4.000000,4.000000,100.000000,,,,,,,,,,,,,,,,
1645708232.736251,42.000000,0.000000,4232.179688,4197.307617,4187.051270,4214.743652,4207.563965,4205.897461,4202.820313,4200.128418,4215.897461,4212.436035,4215.384766,4171.410156,4218.333496,4216.410156,0.000000,4.000000,91.000000,,,,0.000000,4.000000,4.000000,4.000000,4.000000,4.000000,4.000000,4.000000,4.000000,4.000000,4.000000,4.000000,4.000000,4.000000,4.000000,100.000000,,,,,,,,,,,,,,,,
1645708232.740191,43.000000,0.000000,4228.846191,4191.666504,4183.589844,4199.871582,4200.512695,4203.333496,4201.025879,4197.692383,4213.077148,4207.820313,4211.153809,4165.512695,4215.384766,4214.358887,0.000000,4.000000,91.000000,,,,0.000000,4.000000,4.000000,4.000000,4.000000,4.000000,4.000000,4.000000,4.000000,4.000000,4.000000,4.000000,4.000000,4.000000,4.000000,100.000000,,,,,,,,,,,,,,,,
1645708232.744131,44.000000,0.000000,4225.256348,4184.358887,4180.128418,4190.384766,4194.102539,4201.025879,4199.102539,4195.128418,4208.846191,4202.820313,4206.794922,4159.102539,4213.333496,4212.051270,0.000000,4.000000,91.000000,,,,0.000000,4.000000,4.000000,4.000000,4.000000,4.000000,4.000000,4.000000,4.000000,4.000000,4.000000,4.000000,4.000000,4.000000,4.000000,100.000000,,,,,,,,,,,,,,,,
1645708232.748071,45.000000,0.000000,4223.846191,4179.743652,4179.358887,4192.307617,4192.307617,4199.102539,4197.307617,4194.615234,4206.666504,4199.615234,4205.384766,4156.538574,4212.948730,4211.025879,0.000000,4.000000,91.000000,,,,0.000000,4.000000,4.000000,4.000000,4.000000,4.000000,4.000000,4.000000,4.000000,4.000000,4.000000,4.000000,4.000000,4.000000,4.000000,100.000000,,,,,,,,,,,,,,,,
1645708232.752011,46.000000,0.000000,4225.769043,4180.256348,4181.794922,4203.846191,4195.641113,4198.077148,4196.922852,4197.436035,4208.077148,4198.205078,4206.922852,4159.230957,4213.717773,4212.692383,0.000000,4.000000,91.000000,,,,0.000000,4.000000,4.000000,4.000000,4.000000,4.000000,4.000000,4.000000,4.000000,4.000000,4.000000,4.000000,4.000000,4.000000,4.000000,100.000000,,,,,,,,,,,,,,,,
1645708232.755951,47.000000,0.000000,4229.743652,4184.358887,4185.512695,4216.410156,4201.410156,4198.461426,4198.717773,4201.794922,4211.282227,4197.820313,4208.717773,4165.000000,4214.102539,4217.051270,0.000000,4.000000,91.000000,,,,0.000000,4.000000,4.000000,4.000000,4.000000,4.000000,4.000000,4.000000,4.000000,4.000000,4.000000,4.000000,4.000000,4.000000,4.000000,100.000000,,,,,,,,,,,,,,,,
1645708232.759892,48.000000,0.000000,4233.461426,4189.230957,4187.820313,4222.436035,4205.128418,4200.897461,4201.153809,4203.589844,4213.333496,4197.179688,4208.333496,4169.102539,4213.077148,4221.538574,0.000000,4.000000,91.000000,,,,0.000000,4.000000,4.000000,4.000000,4.000000,4.000000,4.000000,4.000000,4.000000,4.000000,4.000000,4.000000,4.000000,4.000000,4.000000,100.000000,,,,,,,,,,,,,,,,
1645708232.763832,49.000000,0.000000,4235.128418,4191.538574,4187.563965,4219.871582,4203.846191,4203.717773,4201.794922,4200.384766,4211.922852,4195.512695,4204.871582,4168.589844,4210.512695,4222.948730,0.000000,4.000000,91.000000,,,,0.000000,4.000000,4.000000,4.000000,4.000000,4.000000,4.000000,4.000000,4.000000,4.000000,4.000000,4.000000,4.000000,4.000000,4.000000,100.000000,,,,,,,,,,,,,,,,
1645708232.767772,50.000000,0.000000,4234.487305,4189.871582,4185.000000,4212.820313,4198.333496,4204.358887,4199.358887,4193.589844,4207.436035,4193.205078,4199.230957,4163.717773,4207.692383,4219.487305,0.000000,4.000000,91.000000,,,,0.000000,4.000000,4.000000,4.000000,4.000000,4.000000,4.000000,4.000000,4.000000,4.000000,4.000000,4.000000,4.000000,4.000000,4.000000,100.000000,,,,,,,,,,,,,,,,
1645708232.771712,51.000000,0.000000,4231.666504,4184.743652,4181.794922,4206.794922,4192.051270,4201.538574,4194.743652,4187.179688,4201.666504,4190.897461,4193.333496,4157.820313,4206.794922,4212.179688,0.000000,4.000000,91.000000,,,,0.000000,4.000000,4.000000,4.000000,4.000000,4.000000,4.000000,4.000000,4.000000,4.000000,4.000000,4.000000,4.000000,4.000000,4.000000,100.000000,,,,,,,,,,,,,,,,
1645708232.775652,52.000000,0.000000,4227.820313,4178.333496,4179.102539,4204.871582,4188.846191,4196.282227,4190.512695,4184.743652,4197.436035,4189.102539,4189.230957,4153.974121,4208.077148,4205.128418,0.000000,4.000000,91.000000,,,,0.000000,4.000000,4.000000,4.000000,4.000000,4.000000,4.000000,4.000000,4.000000,4.000000,4.000000,4.000000,4.000000,4.000000,4.000000,100.000000,,,,,,,,,,,,,,,,
1645708232.779592,53.000000,0.000000,4224.743652,4173.717773,4178.461426,4205.769043,4190.256348,4191.538574,4188.717773,4186.922852,4196.538574,4187.948730,4187.692383,4153.077148,4209.743652,4201.922852,0.000000,4.000000,91.000000,,,,0.000000,4.000000,4.000000,4.000000,4.000000,4.000000,4.000000,4.000000,4.000000,4.000000,4.000000,4.000000,4.000000,4.000000,4.000000,100.000000,,,,,,,,,,,,,,,,
1645708232.783532,54.000000,0.000000,4224.487305,4172.820313,4180.128418,4206.538574,4194.230957,4190.128418,4190.384766,4192.307617,4199.487305,4187.692383,4188.205078,4153.846191,4209.230957,4202.948730,0.000000,4.000000,91.000000,,,,0.000000,4.000000,4.000000,4.000000,4.000000,4.000000,4.000000,4.000000,4.000000,4.000000,4.000000,4.000000,4.000000,4.000000,4.000000,100.000000,,,,,,,,,,,,,,,,
1645708232.787472,55.000000,0.000000,4227.307617,4175.000000,4183.333496,4205.769043,4197.436035,4192.436035,4194.871582,4198.333496,4204.743652,4188.333496,4189.230957,4155.128418,4205.384766,4205.256348,0.000000,4.000000,91.000000,,,,0.000000,4.000000,4.000000,4.000000,4.000000,4.000000,4.000000,4.000000,4.000000,4.000000,4.000000,4.000000,4.000000,4.000000,4.000000,100.000000,,,,,,,,,,,,,,,,
1645708232.791412,56.000000,0.000000,4231.794922,4178.205078,4186.282227,4204.230957,4198.077148,4196.666504,4200.128418,4202.436035,4209.358887,4190.000000,4189.743652,4155.897461,4199.615234,4205.641113,0.000000,4.000000,91.000000,,,,0.000000,4.000000,4.000000,4.000000,4.000000,4.000000,4.000000,4.000000,4.000000,4.000000,4.000000,4.000000,4.000000,4.000000,4.000000,100.000000,,,,,,,,,,,,,,,,
1645708232.795353,57.000000,0.000000,4236.025879,4180.256348,4188.077148,4203.846191,4197.436035,4200.384766,4203.717773,4203.846191,4211.282227,4192.307617,4190.384766,4155.897461,4195.128418,4203.974121,0.000000,4.000000,91.000000,,,,0.000000,4.000000,4.000000,4.000000,4.000000,4.000000,4.000000,4.000000,4.000000,4.000000,4.000000,4.000000,4.000000,4.000000,4.000000,100.000000,,,,,,,,,,,,,,,,
1645708232.799193,58.000000,0.000000,4238.846191,4180.384766,4188.589844,4205.641113,4197.307617,4202.051270,4203.974121,4202.820313,4210.000000,4194.615234,4191.922852,4155.384766,4194.743652,4202.948730,0.000000,4.000000,91.000000,,,,0.000000,4.000000,4.000000,4.000000,4.000000,4.000000,4.000000,4.000000,4.000000,4.000000,4.000000,4.000000,4.000000,4.000000,4.000000,100.000000,,,,,,,,,,,,,,,,
1645708232.803133,59.000000,0.000000,4239.871582,4177.948730,4187.820313,4209.230957,4197.948730,4201.922852,4201.538574,4200.641113,4206.922852,4195.641113,4193.846191,4154.743652,4198.846191,4204.871582,0.000000,4.000000,91.000000,,,,0.000000,4.000000,4.000000,4.000000,4.000000,4.000000,4.000000,4.000000,4.000000,4.000000,4.000000,4.000000,4.000000,4.000000,4.000000,100.000000,,,,,,,,,,,,,,,,
1645708232.807073,60.000000,0.000000,4239.358887,4173.974121,4185.897461,4212.692383,4197.820313,4201.153809,4198.974121,4198.717773,4204.102539,4195.000000,4195.256348,4153.974121,4205.000000,4208.589844,0.000000,4.000000,91.000000,,,,0.000000,4.000000,4.000000,4.000000,4.000000,4.000000,4.000000,4.000000,4.000000,4.000000,4.000000,4.000000,4.000000,4.000000,4.000000,100.000000,,,,,,,,,,,,,,,,
1645708232.811013,61.000000,0.000000,4238.205078,4171.282227,4183.974121,4214.102539,4196.282227,4201.538574,4198.589844,4198.077148,4203.846191,4193.846191,4195.512695,4153.589844,4209.230957,4211.282227,0.000000,4.000000,91.000000,,,,0.000000,4.000000,4.000000,4.000000,4.000000,4.000000,4.000000,4.000000,4.000000,4.000000,4.000000,4.000000,4.000000,4.000000,4.000000,100.000000,,,,,,,,,,,,,,,,
1645708232.814953,62.000000,0.000000,4237.563965,4172.563965,4183.717773,4214.102539,4194.871582,4203.846191,4201.153809,4199.358887,4206.666504,4194.743652,4195.769043,4154.487305,4209.871582,4210.897461,0.000000,4.000000,91.000000,,,,0.000000,4.000000,4.000000,4.000000,4.000000,4.000000,4.000000,4.000000,4.000000,4.000000,4.000000,4.000000,4.000000,4.000000,4.000000,100.000000,,,,,,,,,,,,,,,,
1645708232.818893,63.000000,0.000000,4238.333496,4178.461426,4185.641113,4214.230957,4196.025879,4206.410156,4205.000000,4202.051270,4211.282227,4198.846191,4197.948730,4157.563965,4207.948730,4208.333496,0.000000,4.000000,91.000000,,,,0.000000,4.000000,4.000000,4.000000,4.000000,4.000000,4.000000,4.000000,4.000000,4.000000,4.000000,4.000000,4.000000,4.000000,4.000000,100.000000,,,,,,,,,,,,,,,,
1645708232.822733,64.000000,0.000000,4240.512695,4185.512695,4188.461426,4214.487305,4200.384766,4207.179688,4207.692383,4205.256348,4215.256348,4205.000000,4202.179688,4162.051270,4205.897461,4206.282227,0.000000,4.000000,91.000000,,,,0.000000,4.000000,4.000000,4.000000,4.000000,4.000000,4.000000,4.000000,4.000000,4.000000,4.000000,4.000000,4.000000,4.000000,4.000000,100.000000,,,,,,,,,,,,,,,,
1645708232.826674,65.000000,0.000000,4242.820313,4189.230957,4191.025879,4213.461426,4205.641113,4205.512695,4207.948730,4208.333496,4216.666504,4209.358887,4206.282227,4165.897461,4205.000000,4206.410156,0.000000,4.000000,91.000000,,,,0.000000,4.000000,4.000000,4.000000,4.000000,4.000000,4.000000,4.000000,4.000000,4.000000,4.000000,4.000000,4.000000,4.000000,4.000000,100.000000,,,,,,,,,,,,,,,,
1645708232.830714,66.000000,0.000000,4243.846191,4187.692383,4192.307617,4209.871582,4208.205078,4202.179688,4205.897461,4209.743652,4215.512695,4209.358887,4207.820313,4167.179688,4205.384766,4208.205078,0.000000,4.000000,91.000000,,,,0.000000,4.000000,4.000000,4.000000,4.000000,4.000000,4.000000,4.000000,4.000000,4.000000,4.000000,4.000000,4.000000,4.000000,4.000000,100.000000,,,,,,,,,,,,,,,,
1645708232.834654,67.000000,0.000000,4243.205078,4183.333496,4192.563965,4205.128418,4206.153809,4198.846191,4203.205078,4209.102539,4213.974121,4205.512695,4206.794922,4166.538574,4207.436035,4210.256348,0.000000,4.000000,91.000000,,,,0.000000,4.000000,4.000000,4.000000,4.000000,4.000000,4.000000,4.000000,4.000000,4.000000,4.000000,4.000000,4.000000,4.000000,4.000000,100.000000,,,,,,,,,,,,,,,,
1645708232.838594,68.000000,0.000000,4242.436035,4180.769043,4191.538574,4202.051270,4201.410156,4197.051270,4201.153809,4206.282227,4213.589844,4201.282227,4205.641113,4166.153809,4211.666504,4211.410156,0.000000,4.000000,91.000000,,,,0.000000,4.000000,4.000000,4.000000,4.000000,4.000000,4.000000,4.000000,4.000000,4.000000,4.000000,4.000000,4.000000,4.000000,4.000000,100.000000,,,,,,,,,,,,,,,,
1645708232.842534,69.000000,0.000000,4243.077148,4182.820313,4189.743652,4202.436035,4198.077148,4197.820313,4200.128418,4202.179688,4214.358887,4200.000000,4206.538574,4167.563965,4216.794922,4211.666504,0.000000,4.000000,91.000000,,,,0.000000,4.000000,4.000000,4.000000,4.000000,4.000000,4.000000,4.000000,4.000000,4.000000,4.000000,4.000000,4.000000,4.000000,4.000000,100.000000,,,,,,,,,,,,,,,,
1645708232.846474,70.000000,0.000000,4245.256348,4188.461426,4187.948730,4206.282227,4199.487305,4200.384766,4200.000000,4198.205078,4214.615234,4202.307617,4208.846191,4169.743652,4220.256348,4211.922852,0.000000,4.000000,91.000000,,,,0.000000,4.000000,4.000000,4.000000,4.000000,4.000000,4.000000,4.000000,4.000000,4.000000,4.000000,4.000000,4.000000,4.000000,4.000000,100.000000,,,,,,,,,,,,,,,,
1645708232.850414,71.000000,0.000000,4247.820313,4193.974121,4187.179688,4212.051270,4205.384766,4203.461426,4200.769043,4196.025879,4213.333496,4205.769043,4210.384766,4170.384766,4219.871582,4213.077148,0.000000,4.000000,91.000000,,,,0.000000,4.000000,4.000000,4.000000,4.000000,4.000000,4.000000,4.000000,4.000000,4.000000,4.000000,4.000000,4.000000,4.000000,4.000000,100.000000,,,,,,,,,,,,,,,,
1645708232.854354,72.000000,0.000000,4249.871582,4196.666504,4188.077148,4217.436035,4212.179688,4205.256348,4202.692383,4196.410156,4211.666504,4208.461426,4210.769043,4169.358887,4216.410156,4215.641113,0.000000,4.000000,91.000000,,,,0.000000,4.000000,4.000000,4.000000,4.000000,4.000000,4.000000,4.000000,4.000000,4.000000,4.000000,4.000000,4.000000,4.000000,4.000000,100.000000,,,,,,,,,,,,,,,,
1645708232.858294,73.000000,0.000000,4251.666504,4196.153809,4190.897461,4220.897461,4215.897461,4205.769043,4205.384766,4199.871582,4211.666504,4211.025879,4211.666504,4168.717773,4213.974121,4220.128418,0.000000,4.000000,91.000000,,,,0.000000,4.000000,4.000000,4.000000,4.000000,4.000000,4.000000,4.000000,4.000000,4.000000,4.000000,4.000000,4.000000,4.000000,4.000000,100.000000,,,,,,,,,,,,,,,,
1645708232.862135,74.000000,0.000000,4253.333496,4194.871582,4194.487305,4221.410156,4215.000000,4206.282227,4207.948730,4204.487305,4214.230957,4214.871582,4215.000000,4171.025879,4215.897461,4225.512695,0.000000,4.000000,91.000000,,,,0.000000,4.000000,4.000000,4.000000,4.000000,4.000000,4.000000,4.000000,4.000000,4.000000,4.000000,4.000000,4.000000,4.000000,4.000000,100.000000,,,,,,,,,,,,,,,,
1645708232.866075,75.000000,0.000000,4254.358887,4194.615234,4197.436035,4219.743652,4210.897461,4207.307617,4208.974121,4207.820313,4217.692383,4219.871582,4220.512695,4176.025879,4222.179688,4229.871582,0.000000,4.000000,91.000000,,,,0.000000,4.000000,4.000000,4.000000,4.000000,4.000000,4.000000,4.000000,4.000000,4.000000,4.000000,4.000000,4.000000,4.000000,4.000000,100.000000,,,,,,,,,,,,,,,,
1645708232.870015,76.000000,0.000000,4254.487305,4195.897461,4199.358887,4217.179688,4207.051270,4207.948730,4208.205078,4208.077148,4219.743652,4224.230957,4226.153809,4181.153809,4229.102539,4231.794922,0.000000,4.000000,91.000000,,,,0.000000,4.000000,4.000000,4.000000,4.000000,4.000000,4.000000,4.000000,4.000000,4.000000,4.000000,4.000000,4.000000,4.000000,4.000000,100.000000,,,,,,,,,,,,,,,,
1645708232.873955,77.000000,0.000000,4254.102539,4197.563965,4200.256348,4215.128418,4206.282227,4206.922852,4206.922852,4205.512695,4218.974121,4225.384766,4228.974121,4182.563965,4232.820313,4231.025879,0.000000,4.000000,91.000000,,,,0.000000,4.000000,4.000000,4.000000,4.000000,4.000000,4.000000,4.000000,4.000000,4.000000,4.000000,4.000000,4.000000,4.000000,4.000000,100.000000,,,,,,,,,,,,,,,,
1645708232.877895,78.000000,0.000000,4253.846191,4198.461426,4200.384766,4213.846191,4208.974121,4204.743652,4206.666504,4202.051270,4216.153809,4223.333496,4227.948730,4179.487305,4231.922852,4228.333496,0.000000,4.000000,91.000000,,,,0.000000,4.000000,4.000000,4.000000,4.000000,4.000000,4.000000,4.000000,4.000000,4.000000,4.000000,4.000000,4.000000,4.000000,4.000000,100.000000,,,,,,,,,,,,,,,,
1645708232.881735,79.000000,0.000000,4253.846191,4198.333496,4199.487305,4212.436035,4213.461426,4203.205078,4207.692383,4199.487305,4213.205078,4219.871582,4223.717773,4173.846191,4227.948730,4224.615234,0.000000,4.000000,91.000000,,,,0.000000,4.000000,4.000000,4.000000,4.000000,4.000000,4.000000,4.000000,4.000000,4.000000,4.000000,4.000000,4.000000,4.000000,4.000000,100.000000,,,,,,,,,,,,,,,,
1645708232.885675,80.000000,0.000000,4252.948730,4197.436035,4197.563965,4210.128418,4216.794922,4203.717773,4208.846191,4198.461426,4211.410156,4216.922852,4218.589844,4168.589844,4223.589844,4220.641113,0.000000,4.000000,91.000000,,,,0.000000,4.000000,4.000000,4.000000,4.000000,4.000000,4.000000,4.000000,4.000000,4.000000,4.000000,4.000000,4.000000,4.000000,4.000000,100.000000,,,,,,,,,,,,,,,,
1645708232.889615,81.000000,0.000000,4250.512695,4196.538574,4195.384766,4208.205078,4216.410156,4205.512695,4209.102539,4199.102539,4211.410156,4214.743652,4214.358887,4166.025879,4220.000000,4217.563965,0.000000,4.000000,91.000000,,,,0.000000,4.000000,4.000000,4.000000,4.000000,4.000000,4.000000,4.000000,4.000000,4.000000,4.000000,4.000000,4.000000,4.000000,4.000000,100.000000,,,,,,,,,,,,,,,,
1645708232.893555,82.000000,0.000000,4246.794922,4195.641113,4193.589844,4208.846191,4212.179688,4206.794922,4207.948730,4200.897461,4212.948730,4212.563965,4211.666504,4166.025879,4217.563965,4216.153809,0.000000,4.000000,91.000000,,,,0.000000,4.000000,4.000000,4.000000,4.000000,4.000000,4.000000,4.000000,4.000000,4.000000,4.000000,4.000000,4.000000,4.000000,4.000000,100.000000,,,,,,,,,,,,,,,,
1645708232.897595,83.000000,0.000000,4243.846191,4194.615234,4192.179688,4212.436035,4206.410156,4206.282227,4206.410156,4203.589844,4214.871582,4210.256348,4211.153809,4167.307617,4216.282227,4216.922852,0.000000,4.000000,91.000000,,,,0.000000,4.000000,4.000000,4.000000,4.000000,4.000000,4.000000,4.000000,4.000000,4.000000,4.000000,4.000000,4.000000,4.000000,4.000000,100.000000,,,,,,,,,,,,,,,,
1645708232.901536,84.000000,0.000000,4243.717773,4193.589844,4191.922852,4217.179688,4202.948730,4205.256348,4206.538574,4206.794922,4216.410156,4209.358887,4213.461426,4168.589844,4217.436035,4219.743652,0.000000,4.000000,91.000000,,,,0.000000,4.000000,4.000000,4.000000,4.000000,4.000000,4.000000,4.000000,4.000000,4.000000,4.000000,4.000000,4.000000,4.000000,4.000000,100.000000,,,,,,,,,,,,,,,,
1645708232.905476,85.000000,0.000000,4247.051270,4193.589844,4193.717773,4220.384766,4203.717773,4205.128418,4209.230957,4209.871582,4217.051270,4212.051270,4218.589844,4169.358887,4221.538574,4223.205078,0.000000,4.000000,91.000000,,,,0.000000,4.000000,4.000000,4.000000,4.000000,4.000000,4.000000,4.000000,4.000000,4.000000,4.000000,4.000000,4.000000,4.000000,4.000000,100.000000,,,,,,,,,,,,,,,,
1645708232.909416,86.000000,0.000000,4252.179688,4194.871582,4197.179688,4221.794922,4207.436035,4206.153809,4213.461426,4212.692383,4216.794922,4218.461426,4224.743652,4170.128418,4227.436035,4226.025879,0.000000,4.000000,91.000000,,,,0.000000,4.000000,4.000000,4.000000,4.000000,4.000000,4.000000,4.000000,4.000000,4.000000,4.000000,4.000000,4.000000,4.000000,4.000000,100.000000,,,,,,,,,,,,,,,,
1645708232.913256,87.000000,0.000000,4255.897461,4197.051270,4200.641113,4221.666504,4210.384766,4206.922852,4217.436035,4214.743652,4215.897461,4225.256348,4228.717773,4171.282227,4232.179688,4226.666504,0.000000,4.000000,91.000000,,,,0.000000,4.000000,4.000000,4.000000,4.000000,4.000000,4.000000,4.000000,4.000000,4.000000,4.000000,4.000000,4.000000,4.000000,4.000000,100.000000,,,,,,,,,,,,,,,,
1645708232.917196,88.000000,0.000000,4256.153809,4199.230957,4201.922852,4219.743652,4210.384766,4207.436035,4219.743652,4215.384766,4214.871582,4228.461426,4228.205078,4172.692383,4233.461426,4225.512695,0.000000,4.000000,91.000000,,,,0.000000,4.000000,4.000000,4.000000,4.000000,4.000000,4.000000,4.000000,4.000000,4.000000,4.000000,4.000000,4.000000,4.000000,4.000000,100.000000,,,,,,,,,,,,,,,,
1645708232.921136,89.000000,0.000000,4253.717773,4201.025879,4201.025879,4215.384766,4208.205078,4208.461426,4219.358887,4214.487305,4214.871582,4226.410156,4223.461426,4173.333496,4231.153809,4223.333496,0.000000,4.000000,91.000000,,,,0.000000,4.000000,4.000000,4.000000,4.000000,4.000000,4.000000,4.000000,4.000000,4.000000,4.000000,4.000000,4.000000,4.000000,4.000000,100.000000,,,,,,,,,,,,,,,,
1645708232.924976,90.000000,0.000000,4250.769043,4202.051270,4199.487305,4209.230957,4205.897461,4210.000000,4217.051270,4212.820313,4216.538574,4220.641113,4217.563965,4172.436035,4227.692383,4221.282227,0.000000,4.000000,91.000000,,,,0.000000,4.000000,4.000000,4.000000,4.000000,4.000000,4.000000,4.000000,4.000000,4.000000,4.000000,4.000000,4.000000,4.000000,4.000000,100.000000,,,,,,,,,,,,,,,,
1645708232.928917,91.000000,0.000000,4249.358887,4202.051270,4198.589844,4203.589844,4204.615234,4210.641113,4213.974121,4211.538574,4218.974121,4215.512695,4214.102539,4169.743652,4225.256348,4220.256348,0.000000,4.000000,91.000000,,,,0.000000,4.000000,4.000000,4.000000,4.000000,4.000000,4.000000,4.000000,4.000000,4.000000,4.000000,4.000000,4.000000,4.000000,4.000000,100.000000,,,,,,,,,,,,,,,,
1645708232.932857,92.000000,0.000000,4250.641113,4201.922852,4198.461426,4201.410156,4204.358887,4209.615234,4211.153809,4210.897461,4220.256348,4214.487305,4214.871582,4166.794922,4224.871582,4220.256348,0.000000,4.000000,91.000000,,,,0.000000,4.000000,4.000000,4.000000,4.000000,4.000000,4.000000,4.000000,4.000000,4.000000,4.000000,4.000000,4.000000,4.000000,4.000000,100.000000,,,,,,,,,,,,,,,,
1645708232.936797,93.000000,0.000000,4253.461426,4202.692383,4198.589844,4204.615234,4205.128418,4207.307617,4208.589844,4209.615234,4218.846191,4217.948730,4218.974121,4165.384766,4225.256348,4220.641113,0.000000,4.000000,91.000000,,,,0.000000,4.000000,4.000000,4.000000,4.000000,4.000000,4.000000,4.000000,4.000000,4.000000,4.000000,4.000000,4.000000,4.000000,4.000000,100.000000,,,,,,,,,,,,,,,,
1645708232.940737,94.000000,0.000000,4255.769043,4204.743652,4198.205078,4212.051270,4207.179688,4205.384766,4205.897461,4206.025879,4214.487305,4222.436035,4223.461426,4165.897461,4224.871582,4220.512695,0.000000,4.000000,91.000000,,,,0.000000,4.000000,4.000000,4.000000,4.000000,4.000000,4.000000,4.000000,4.000000,4.000000,4.000000,4.000000,4.000000,4.000000,4.000000,100.000000,,,,,,,,,,,,,,,,
1645708232.944677,95.000000,0.000000,4255.641113,4206.922852,4197.692383,4219.102539,4210.128418,4204.358887,4203.974121,4200.512695,4209.358887,4223.589844,4224.743652,4167.820313,4223.333496,4219.615234,0.000000,4.000000,91.000000,,,,0.000000,4.000000,4.000000,4.000000,4.000000,4.000000,4.000000,4.000000,4.000000,4.000000,4.000000,4.000000,4.000000,4.000000,4.000000,100.000000,,,,,,,,,,,,,,,,
1645708232.948617,96.000000,0.000000,4253.077148,4207.051270,4197.820313,4219.743652,4211.922852,4203.717773,4204.230957,4196.282227,4206.282227,4219.743652,4221.922852,4169.487305,4221.410156,4218.846191,0.000000,4.000000,91.000000,,,,0.000000,4.000000,4.000000,4.000000,4.000000,4.000000,4.000000,4.000000,4.000000,4.000000,4.000000,4.000000,4.000000,4.000000,4.000000,100.000000,,,,,,,,,,,,,,,,
1645708232.952557,97.000000,0.000000,4249.487305,4204.743652,4198.974121,4212.948730,4211.282227,4203.461426,4207.051270,4196.794922,4207.179688,4213.589844,4217.051270,4169.743652,4220.641113,4219.487305,0.000000,4.000000,91.000000,,,,0.000000,4.000000,4.000000,4.000000,4.000000,4.000000,4.000000,4.000000,4.000000,4.000000,4.000000,4.000000,4.000000,4.000000,4.000000,100.000000,,,,,,,,,,,,,,,,
1645708232.956497,98.000000,0.000000,4247.307617,4201.666504,4200.384766,4204.102539,4209.230957,4204.358887,4210.641113,4201.794922,4211.538574,4209.615234,4214.102539,4169.230957,4221.538574,4222.820313,0.000000,4.000000,91.000000,,,,0.000000,4.000000,4.000000,4.000000,4.000000,4.000000,4.000000,4.000000,4.000000,4.000000,4.000000,4.000000,4.000000,4.000000,4.000000,100.000000,,,,,,,,,,,,,,,,
1645708232.960437,99.000000,0.000000,4248.589844,4200.769043,4201.282227,4201.153809,4207.948730,4206.666504,4213.077148,4208.205078,4216.666504,4210.512695,4215.897461,4169.871582,4224.230957,4228.589844,0.000000,4.000000,91.000000,,,,0.000000,4.000000,4.000000,4.000000,4.000000,4.000000,4.000000,4.000000,4.000000,4.000000,4.000000,4.000000,4.000000,4.000000,4.000000,100.000000,,,,,,,,,,,,,,,,
1645708232.964377,100.000000,0.000000,4253.589844,4203.717773,4201.666504,4206.410156,4207.948730,4209.358887,4213.717773,4212.307617,4219.358887,4215.769043,4221.153809,4173.333496,4227.436035,4235.000000,0.000000,4.000000,91.000000,,,,0.000000,4.000000,4.000000,4.000000,4.000000,4.000000,4.000000,4.000000,4.000000,4.000000,4.000000,4.000000,4.000000,4.000000,4.000000,100.000000,,,,,,,,,,,,,,,,
1645708232.968318,101.000000,0.000000,4260.897461,4209.102539,4202.307617,4214.487305,4207.948730,4211.153809,4213.589844,4212.820313,4218.461426,4222.051270,4226.410156,4178.974121,4229.615234,4239.358887,0.000000,4.000000,91.000000,,,,0.000000,4.000000,4.000000,4.000000,4.000000,4.000000,4.000000,4.000000,4.000000,4.000000,4.000000,4.000000,4.000000,4.000000,4.000000,100.000000,,,,,,,,,,,,,,,,
1645708232.972258,102.000000,0.000000,4267.563965,4214.230957,4203.974121,4218.333496,4206.922852,4211.538574,4213.974121,4211.282227,4215.641113,4226.410156,4228.717773,4184.358887,4230.000000,4239.871582,0.000000,4.000000,91.000000,,,,0.000000,4.000000,4.000000,4.000000,4.000000,4.000000,4.000000,4.000000,4.000000,4.000000,4.000000,4.000000,4.000000,4.000000,4.000000,100.000000,,,,,,,,,,,,,,,,
1645708232.976198,103.000000,0.000000,4271.153809,4216.025879,4206.153809,4215.641113,4205.384766,4211.922852,4215.769043,4210.769043,4213.717773,4227.948730,4228.205078,4187.051270,4228.974121,4236.666504,0.000000,4.000000,91.000000,,,,0.000000,4.000000,4.000000,4.000000,4.000000,4.000000,4.000000,4.000000,4.000000,4.000000,4.000000,4.000000,4.000000,4.000000,4.000000,100.000000,,,,,,,,,,,,,,,,
1645708232.980138,104.000000,0.000000,4270.641113,4213.333496,4207.051270,4210.384766,4205.000000,4213.846191,4217.948730,4213.077148,4214.615234,4227.692383,4227.051270,4186.025879,4227.436035,4231.666504,0.000000,4.000000,91.000000,,,,0.000000,4.000000,4.000000,4.000000,4.000000,4.000000,4.000000,4.000000,4.000000,4.000000,4.000000,4.000000,4.000000,4.000000,4.000000,100.000000,,,,,,,,,,,,,,,,
1645708232.983978,105.000000,0.000000,4266.282227,4207.820313,4204.871582,4208.077148,4206.538574,4216.794922,4218.974121,4217.820313,4217.436035,4227.179688,4225.897461,4181.410156,4225.128418,4226.666504,0.000000,4.000000,91.000000,,,,0.000000,4.000000,4.000000,4.000000,4.000000,4.000000,4.000000,4.000000,4.000000,4.000000,4.000000,4.000000,4.000000,4.000000,4.000000,100.000000,,,,,,,,,,,,,,,,
1645708232.987918,106.000000,0.000000,4258.974121,4201.922852,4199.230957,4210.128418,4209.487305,4218.461426,4217.948730,4221.922852,4219.487305,4225.512695,4223.205078,4174.615234,4221.282227,4221.922852,0.000000,4.000000,91.000000,,,,0.000000,4.000000,4.000000,4.000000,4.000000,4.000000,4.000000,4.000000,4.000000,4.000000,4.000000,4.000000,4.000000,4.000000,4.000000,100.000000,,,,,,,,,,,,,,,,
1645708232.991858,107.000000,0.000000,4250.641113,4197.179688,4191.922852,4213.077148,4211.794922,4216.922852,4215.512695,4222.692383,4218.846191,4221.282227,4216.538574,4167.307617,4214.743652,4217.179688,0.000000,4.000000,91.000000,,,,0.000000,4.000000,4.000000,4.000000,4.000000,4.000000,4.000000,4.000000,4.000000,4.000000,4.000000,4.000000,4.000000,4.000000,4.000000,100.000000,,,,,,,,,,,,,,,,
1645708232.995798,108.000000,0.000000,4243.077148,4193.974121,4185.384766,4212.563965,4212.051270,4212.692383,4212.948730,4219.358887,4216.153809,4214.230957,4206.794922,4160.897461,4206.666504,4211.922852,0.000000,4.000000,91.000000,,,,0.000000,4.000000,4.000000,4.000000,4.000000,4.000000,4.000000,4.000000,4.000000,4.000000,4.000000,4.000000,4.000000,4.000000,4.000000,100.000000,,,,,,,,,,,,,,,,
1645708232.999739,109.000000,0.000000,4238.717773,4191.794922,4181.410156,4207.307617,4209.615234,4208.205078,4211.538574,4213.974121,4213.205078,4207.436035,4197.948730,4155.641113,4200.256348,4206.922852,0.000000,4.000000,91.000000,,,,0.000000,4.000000,4.000000,4.000000,4.000000,4.000000,4.000000,4.000000,4.000000,4.000000,4.000000,4.000000,4.000000,4.000000,4.000000,100.000000,,,,,,,,,,,,,,,,
1645708233.003779,110.000000,0.000000,4238.589844,4190.897461,4180.384766,4200.641113,4205.897461,4205.897461,4211.282227,4210.897461,4212.051270,4204.871582,4194.743652,4152.179688,4199.358887,4203.461426,0.000000,4.000000,91.000000,,,,0.000000,4.000000,4.000000,4.000000,4.000000,4.000000,4.000000,4.000000,4.000000,4.000000,4.000000,4.000000,4.000000,4.000000,4.000000,100.000000,,,,,,,,,,,,,,,,
1645708233.007719,111.000000,0.000000,4242.051270,4191.538574,4181.922852,4197.307617,4203.077148,4206.538574,4212.051270,4212.563965,4213.333496,4208.205078,4199.102539,4151.153809,4205.000000,4202.948730,0.000000,4.000000,91.000000,,,,0.000000,4.000000,4.000000,4.000000,4.000000,4.000000,4.000000,4.000000,4.000000,4.000000,4.000000,4.000000,4.000000,4.000000,4.000000,100.000000,,,,,,,,,,,,,,,,
1645708233.011659,112.000000,0.000000,4247.307617,4194.615234,4185.512695,4199.743652,4203.077148,4208.974121,4212.820313,4217.820313,4215.897461,4215.256348,4208.077148,4153.333496,4215.128418,4205.769043,0.000000,4.000000,91.000000,,,,0.000000,4.000000,4.000000,4.000000,4.000000,4.000000,4.000000,4.000000,4.000000,4.000000,4.000000,4.000000,4.000000,4.000000,4.000000,100.000000,,,,,,,,,,,,,,,,
1645708233.015599,113.000000,0.000000,4252.051270,4200.128418,4189.871582,4205.897461,4205.512695,4211.025879,4212.692383,4222.051270,4218.461426,4221.794922,4216.153809,4157.179688,4224.230957,4210.256348,0.000000,4.000000,91.000000,,,,0.000000,4.000000,4.000000,4.000000,4.000000,4.000000,4.000000,4.000000,4.000000,4.000000,4.000000,4.000000,4.000000,4.000000,4.000000,100.000000,,,,,,,,,,,,,,,,
1645708233.019539,114.000000,0.000000,4254.743652,4206.538574,4193.461426,4211.794922,4207.563965,4211.153809,4210.641113,4220.256348,4219.615234,4223.717773,4218.974121,4159.615234,4227.179688,4213.974121,0.000000,4.000000,91.000000,,,,0.000000,4.000000,4.000000,4.000000,4.000000,4.000000,4.000000,4.000000,4.000000,4.000000,4.000000,4.000000,4.000000,4.000000,4.000000,100.000000,,,,,,,,,,,,,,,,
1645708233.023479,115.000000,0.000000,4255.000000,4211.153809,4195.641113,4214.615234,4206.922852,4209.358887,4206.410156,4212.179688,4218.974121,4220.384766,4215.769043,4158.205078,4222.436035,4214.615234,0.000000,4.000000,91.000000,,,,0.000000,4.000000,4.000000,4.000000,4.000000,4.000000,4.000000,4.000000,4.000000,4.000000,4.000000,4.000000,4.000000,4.000000,4.000000,100.000000,,,,,,,,,,,,,,,,
1645708233.027419,116.000000,0.000000,4253.974121,4212.563965,4196.794922,4215.128418,4203.846191,4206.666504,4201.666504,4202.179688,4216.794922,4213.974121,4209.487305,4153.717773,4212.948730,4212.179688,0.000000,4.000000,91.000000,,,,0.000000,4.000000,4.000000,4.000000,4.000000,4.000000,4.000000,4.000000,4.000000,4.000000,4.000000,4.000000,4.000000,4.000000,4.000000,100.000000,,,,,,,,,,,,,,,,
1645708233.031359,117.000000,0.000000,4253.461426,4211.794922,4198.077148,4216.153809,4201.538574,4205.000000,4198.333496,4196.922852,4214.358887,4208.461426,4204.743652,4150.256348,4205.128418,4208.589844,0.000000,4.000000,91.000000,,,,0.000000,4.000000,4.000000,4.000000,4.000000,4.000000,4.000000,4.000000,4.000000,4.000000,4.000000,4.000000,4.000000,4.000000,4.000000,100.000000,,,,,,,,,,,,,,,,
1645708233.035299,118.000000,0.000000,4255.384766,4211.794922,4201.025879,4219.487305,4204.230957,4205.897461,4198.461426,4199.358887,4213.077148,4206.922852,4205.256348,4151.538574,4203.974121,4207.051270,0.000000,4.000000,91.000000,,,,0.000000,4.000000,4.000000,4.000000,4.000000,4.000000,4.000000,4.000000,4.000000,4.000000,4.000000,4.000000,4.000000,4.000000,4.000000,100.000000,,,,,,,,,,,,,,,,
1645708233.039239,119.000000,0.000000,4260.769043,4215.128418,4205.384766,4224.358887,4212.692383,4209.230957,4202.051270,4207.179688,4213.589844,4210.000000,4210.512695,4158.333496,4209.871582,4209.743652,0.000000,4.000000,91.000000,,,,0.000000,4.000000,4.000000,4.000000,4.000000,4.000000,4.000000,4.000000,4.000000,4.000000,4.000000,4.000000,4.000000,4.000000,4.000000,100.000000,,,,,,,,,,,,,,,,
1645708233.043180,120.000000,0.000000,4268.461426,4221.538574,4210.256348,4228.846191,4223.717773,4213.717773,4207.179688,4214.487305,4215.384766,4215.384766,4217.051270,4167.179688,4218.589844,4215.897461,0.000000,4.000000,91.000000,,,,0.000000,4.000000,4.000000,4.000000,4.000000,4.000000,4.000000,4.000000,4.000000,4.000000,4.000000,4.000000,4.000000,4.000000,4.000000,100.000000,,,,,,,,,,,,,,,,
1645708233.047120,121.000000,0.000000,4275.384766,4228.589844,4214.358887,4231.153809,4231.922852,4217.307617,4211.282227,4216.666504,4217.820313,4220.128418,4220.897461,4173.205078,4224.487305,4222.820313,0.000000,4.000000,91.000000,,,,0.000000,4.000000,4.000000,4.000000,4.000000,4.000000,4.000000,4.000000,4.000000,4.000000,4.000000,4.000000,4.000000,4.000000,4.000000,100.000000,,,,,,,,,,,,,,,,
1645708233.050960,122.000000,0.000000,4278.077148,4233.589844,4217.436035,4230.897461,4233.717773,4218.717773,4212.948730,4213.461426,4219.743652,4222.051270,4220.769043,4174.230957,4224.743652,4227.179688,0.000000,4.000000,91.000000,,,,0.000000,4.000000,4.000000,4.000000,4.000000,4.000000,4.000000,4.000000,4.000000,4.000000,4.000000,4.000000,4.000000,4.000000,4.000000,100.000000,,,,,,,,,,,,,,,,
1645708233.054900,123.000000,0.000000,4276.282227,4235.769043,4220.128418,4228.461426,4229.743652,4218.077148,4212.820313,4208.974121,4220.384766,4221.922852,4218.846191,4172.051270,4221.282227,4228.333496,0.000000,4.000000,91.000000,,,,0.000000,4.000000,4.000000,4.000000,4.000000,4.000000,4.000000,4.000000,4.000000,4.000000,4.000000,4.000000,4.000000,4.000000,4.000000,100.000000,,,,,,,,,,,,,,,,
1645708233.058840,124.000000,0.000000,4272.948730,4236.025879,4222.436035,4225.000000,4224.230957,4217.051270,4212.563965,4207.179688,4219.743652,4221.538574,4218.589844,4170.256348,4218.333496,4227.307617,0.000000,4.000000,91.000000,,,,0.000000,4.000000,4.000000,4.000000,4.000000,4.000000,4.000000,4.000000,4.000000,4.000000,4.000000,4.000000,4.000000,4.000000,4.000000,100.000000,,,,,,,,,,,,,,,,
1645708233.062780,125.000000,0.000000,4271.922852,4235.512695,4224.615234,4222.307617,4221.666504,4218.077148,4212.948730,4209.230957,4218.333496,4222.436035,4220.641113,4171.282227,4218.717773,4225.641113,0.000000,4.000000,91.000000,,,,0.000000,4.000000,4.000000,4.000000,4.000000,4.000000,4.000000,4.000000,4.000000,4.000000,4.000000,4.000000,4.000000,4.000000,4.000000,100.000000,,,,,,,,,,,,,,,,
1645708233.066720,126.000000,0.000000,4274.102539,4233.846191,4225.769043,4222.436035,4223.589844,4221.666504,4214.487305,4212.436035,4216.666504,4222.820313,4222.692383,4173.717773,4221.153809,4222.948730,0.000000,4.000000,91.000000,,,,0.000000,4.000000,4.000000,4.000000,4.000000,4.000000,4.000000,4.000000,4.000000,4.000000,4.000000,4.000000,4.000000,4.000000,4.000000,100.000000,,,,,,,,,,,,,,,,
1645708233.070561,127.000000,0.000000,4277.179688,4229.871582,4225.256348,4224.871582,4227.307617,4225.641113,4217.051270,4213.717773,4215.384766,4220.769043,4221.153809,4174.102539,4221.794922,4218.589844,0.000000,4.000000,91.000000,,,,0.000000,4.000000,4.000000,4.000000,4.000000,4.000000,4.000000,4.000000,4.000000,4.000000,4.000000,4.000000,4.000000,4.000000,4.000000,100.000000,,,,,,,,,,,,,,,,
1645708233.074501,128.000000,0.000000,4277.948730,4223.846191,4222.179688,4227.692383,4229.102539,4228.077148,4219.871582,4212.563965,4215.000000,4216.410156,4215.384766,4170.000000,4218.205078,4213.077148,3218.000000,4.000000,91.000000,,,,0.000000,4.000000,4.000000,4.000000,4.000000,4.000000,4.000000,4.000000,4.000000,4.000000,4.000000,4.000000,4.000000,4.000000,4.000000,100.000000,,,,,,,,,,,,,,,,
1645708233.078441,129.000000,0.000000,4275.256348,4218.077148,4217.179688,4228.461426,4227.051270,4227.692383,4222.051270,4211.282227,4215.512695,4212.820313,4208.589844,4162.692383,4212.436035,4208.846191,3469.000000,4.000000,91.000000,,,,0.000000,4.000000,4.000000,4.000000,4.000000,4.000000,4.000000,4.000000,4.000000,4.000000,4.000000,4.000000,4.000000,4.000000,4.000000,100.000000,,,,,,,,,,,,,,,,
1645708233.082381,130.000000,0.000000,4270.897461,4215.128418,4212.179688,4227.179688,4223.205078,4225.384766,4222.948730,4212.179688,4216.666504,4212.436035,4204.487305,4156.025879,4208.205078,4207.051270,3163.000000,4.000000,91.000000,,,,0.000000,4.000000,4.000000,4.000000,4.000000,4.000000,4.000000,4.000000,4.000000,4.000000,4.000000,4.000000,4.000000,4.000000,4.000000,100.000000,,,,,,,,,,,,,,,,
1645708233.086321,131.000000,0.000000,4267.179688,4215.641113,4209.102539,4225.384766,4220.897461,4223.077148,4222.692383,4214.871582,4217.436035,4214.615234,4203.974121,4153.077148,4207.820313,4206.410156,3443.000000,4.000000,91.000000,,,,0.000000,4.000000,4.000000,4.000000,4.000000,4.000000,4.000000,4.000000,4.000000,4.000000,4.000000,4.000000,4.000000,4.000000,4.000000,100.000000,,,,,,,,,,,,,,,,
1645708233.090261,132.000000,0.000000,4265.641113,4218.077148,4208.717773,4224.487305,4221.666504,4222.179688,4221.922852,4217.692383,4217.179688,4216.666504,4204.743652,4154.358887,4209.487305,4203.974121,3242.000000,4.000000,91.000000,,,,0.000000,4.000000,4.000000,4.000000,4.000000,4.000000,4.000000,4.000000,4.000000,4.000000,4.000000,4.000000,4.000000,4.000000,4.000000,100.000000,,,,,,,,,,,,,,,,
1645708233.094201,133.000000,0.000000,4266.282227,4220.512695,4210.128418,4224.487305,4224.487305,4222.948730,4221.410156,4219.102539,4216.153809,4217.692383,4204.743652,4156.922852,4210.512695,4198.589844,3441.000000,4.000000,91.000000,,,,0.000000,4.000000,4.000000,4.000000,4.000000,4.000000,4.000000,4.000000,4.000000,4.000000,4.000000,4.000000,4.000000,4.000000,4.000000,100.000000,,,,,,,,,,,,,,,,
1645708233.098141,134.000000,0.000000,4267.820313,4222.307617,4212.307617,4224.230957,4227.436035,4224.358887,4221.153809,4219.615234,4215.641113,4218.717773,4203.974121,4157.948730,4209.615234,4192.307617,2849.000000,4.000000,91.000000,,,,0.000000,4.000000,4.000000,4.000000,4.000000,4.000000,4.000000,4.000000,4.000000,4.000000,4.000000,4.000000,4.000000,4.000000,4.000000,100.000000,,,,,,,,,,,,,,,,
1645708233.102081,135.000000,0.000000,4269.487305,4223.205078,4214.230957,4221.794922,4228.846191,4224.487305,4220.384766,4219.102539,4216.922852,4221.153809,4203.589844,4157.307617,4207.692383,4189.230957,2847.000000,4.000000,91.000000,,,,0.000000,4.000000,4.000000,4.000000,4.000000,4.000000,4.000000,4.000000,4.000000,4.000000,4.000000,4.000000,4.000000,4.000000,4.000000,100.000000,,,,,,,,,,,,,,,,
1645708233.106021,136.000000,0.000000,4270.512695,4223.333496,4215.769043,4215.897461,4227.563965,4222.436035,4218.205078,4217.436035,4218.846191,4223.333496,4204.743652,4156.282227,4206.153809,4191.153809,1442.000000,4.000000,91.000000,,,,0.000000,4.000000,4.000000,4.000000,4.000000,4.000000,4.000000,4.000000,4.000000,4.000000,4.000000,4.000000,4.000000,4.000000,4.000000,100.000000,,,,,,,,,,,,,,,,
1645708233.109962,137.000000,0.000000,4270.769043,4222.692383,4216.666504,4208.205078,4224.230957,4218.589844,4214.615234,4214.358887,4219.358887,4222.563965,4206.282227,4156.153809,4205.384766,4196.282227,3350.000000,4.000000,91.000000,,,,0.000000,4.000000,4.000000,4.000000,4.000000,4.000000,4.000000,4.000000,4.000000,4.000000,4.000000,4.000000,4.000000,4.000000,4.000000,100.000000,,,,,,,,,,,,,,,,
1645708233.113902,138.000000,0.000000,4270.512695,4221.538574,4216.538574,4202.692383,4220.641113,4214.871582,4210.384766,4210.769043,4217.436035,4217.820313,4207.179688,4156.922852,4205.384766,4200.641113,2619.000000,4.000000,91.000000,,,,0.000000,4.000000,4.000000,4.000000,4.000000,4.000000,4.000000,4.000000,4.000000,4.000000,4.000000,4.000000,4.000000,4.000000,4.000000,100.000000,,,,,,,,,,,,,,,,
1645708233.117842,139.000000,0.000000,4270.769043,4220.256348,4215.256348,4203.589844,4219.358887,4213.461426,4207.179688,4207.820313,4213.974121,4212.179688,4207.436035,4157.820313,4206.025879,4201.410156,3418.000000,4.000000,91.000000,,,,0.000000,4.000000,4.000000,4.000000,4.000000,4.000000,4.000000,4.000000,4.000000,4.000000,4.000000,4.000000,4.000000,4.000000,4.000000,100.000000,,,,,,,,,,,,,,,,
1645708233.121782,140.000000,0.000000,4271.666504,4219.743652,4213.461426,4210.256348,4221.025879,4214.358887,4205.897461,4206.538574,4211.025879,4209.871582,4207.051270,4158.333496,4207.436035,4199.102539,3139.000000,4.000000,91.000000,,,,0.000000,4.000000,4.000000,4.000000,4.000000,4.000000,4.000000,4.000000,4.000000,4.000000,4.000000,4.000000,4.000000,4.000000,4.000000,100.000000,,,,,,,,,,,,,,,,
1645708233.125722,141.000000,0.000000,4272.179688,4219.871582,4211.794922,4217.563965,4223.077148,4216.025879,4206.410156,4206.666504,4209.871582,4212.436035,4206.153809,4157.948730,4208.461426,4195.769043,3333.000000,4.000000,91.000000,,,,0.000000,4.000000,4.000000,4.000000,4.000000,4.000000,4.000000,4.000000,4.000000,4.000000,4.000000,4.000000,4.000000,4.000000,4.000000,100.000000,,,,,,,,,,,,,,,,
1645708233.129662,142.000000,0.000000,4271.666504,4219.871582,4211.410156,4220.512695,4223.205078,4216.794922,4208.589844,4207.436035,4210.769043,4217.563965,4204.871582,4156.666504,4208.333496,4193.846191,2619.000000,4.000000,91.000000,,,,0.000000,4.000000,4.000000,4.000000,4.000000,4.000000,4.000000,4.000000,4.000000,4.000000,4.000000,4.000000,4.000000,4.000000,4.000000,100.000000,,,,,,,,,,,,,,,,
1645708233.133602,143.000000,0.000000,4270.000000,4219.230957,4212.692383,4218.846191,4220.897461,4216.538574,4211.922852,4207.948730,4212.436035,4221.282227,4203.846191,4155.128418,4207.179688,4194.615234,3418.000000,4.000000,91.000000,,,,0.000000,4.000000,4.000000,4.000000,4.000000,4.000000,4.000000,4.000000,4.000000,4.000000,4.000000,4.000000,4.000000,4.000000,4.000000,100.000000,,,,,,,,,,,,,,,,
1645708233.137542,144.000000,0.000000,4268.589844,4217.563965,4215.256348,4216.153809,4218.846191,4216.922852,4215.256348,4207.820313,4213.846191,4221.666504,4204.358887,4155.000000,4206.410156,4197.307617,3139.000000,4.000000,91.000000,,,,0.000000,4.000000,4.000000,4.000000,4.000000,4.000000,4.000000,4.000000,4.000000,4.000000,4.000000,4.000000,4.000000,4.000000,4.000000,100.000000,,,,,,,,,,,,,,,,
1645708233.141482,145.000000,0.000000,4268.717773,4215.512695,4218.077148,4215.897461,4219.743652,4218.333496,4216.794922,4207.563965,4214.615234,4220.384766,4207.436035,4157.051270,4207.692383,4200.256348,3333.000000,4.000000,91.000000,,,,0.000000,4.000000,4.000000,4.000000,4.000000,4.000000,4.000000,4.000000,4.000000,4.000000,4.000000,4.000000,4.000000,4.000000,4.000000,100.000000,,,,,,,,,,,,,,,,
1645708233.145323,146.000000,0.000000,4270.641113,4213.333496,4219.102539,4217.820313,4223.333496,4220.128418,4215.384766,4208.077148,4215.000000,4219.615234,4212.307617,4161.282227,4210.897461,4201.666504,2619.000000,4.000000,91.000000,,,,0.000000,4.000000,4.000000,4.000000,4.000000,4.000000,4.000000,4.000000,4.000000,4.000000,4.000000,4.000000,4.000000,4.000000,4.000000,100.000000,,,,,,,,,,,,,,,,
1645708233.149263,147.000000,0.000000,4272.820313,4211.282227,4217.436035,4218.846191,4226.794922,4221.410156,4212.051270,4209.487305,4215.512695,4220.384766,4217.179688,4165.512695,4214.230957,4200.641113,3418.000000,4.000000,91.000000,,,,0.000000,4.000000,4.000000,4.000000,4.000000,4.000000,4.000000,4.000000,4.000000,4.000000,4.000000,4.000000,4.000000,4.000000,4.000000,100.000000,,,,,,,,,,,,,,,,
1645708233.153203,148.000000,0.000000,4273.846191,4209.743652,4213.333496,4215.641113,4227.820313,4222.051270,4208.846191,4211.153809,4216.025879,4221.666504,4219.871582,4167.436035,4215.897461,4197.820313,3139.000000,4.000000,91.000000,,,,0.000000,4.000000,4.000000,4.000000,4.000000,4.000000,4.000000,4.000000,4.000000,4.000000,4.000000,4.000000,4.000000,4.000000,4.000000,100.000000,,,,,,,,,,,,,,,,
1645708233.157143,149.000000,0.000000,4273.205078,4209.615234,4208.461426,4208.846191,4226.153809,4222.692383,4207.436035,4212.307617,4216.282227,4222.563965,4219.230957,4165.769043,4215.128418,4194.358887,3333.000000,4.000000,91.000000,,,,0.000000,4.000000,4.000000,4.000000,4.000000,4.000000,4.000000,4.000000,4.000000,4.000000,4.000000,4.000000,4.000000,4.000000,4.000000,100.000000,,,,,,,,,,,,,,,,
1645708233.161083,150.000000,0.000000,4271.410156,4211.153809,4205.384766,4202.051270,4223.077148,4223.333496,4208.077148,4212.820313,4216.410156,4222.820313,4216.025879,4162.179688,4212.948730,4191.538574,2619.000000,4.000000,91.000000,,,,0.000000,4.000000,4.000000,4.000000,4.000000,4.000000,4.000000,4.000000,4.000000,4.000000,4.000000,4.000000,4.000000,4.000000,4.000000,100.000000,,,,,,,,,,,,,,,,
1645708233.165023,151.000000,0.000000,4269.743652,4213.333496,4204.871582,4199.230957,4220.000000,4223.077148,4210.000000,4213.717773,4216.794922,4222.563965,4212.692383,4159.358887,4211.538574,4190.128418,3418.000000,4.000000,91.000000,,,,0.000000,4.000000,4.000000,4.000000,4.000000,4.000000,4.000000,4.000000,4.000000,4.000000,4.000000,4.000000,4.000000,4.000000,4.000000,100.000000,,,,,,,,,,,,,,,,
1645708233.168963,152.000000,0.000000,4268.589844,4215.000000,4206.538574,4201.922852,4216.922852,4221.153809,4211.666504,4215.512695,4217.563965,4222.436035,4212.179688,4159.615234,4212.563965,4189.871582,3139.000000,4.000000,91.000000,,,,0.000000,4.000000,4.000000,4.000000,4.000000,4.000000,4.000000,4.000000,4.000000,4.000000,4.000000,4.000000,4.000000,4.000000,4.000000,100.000000,1.000000,100.000000,4.000000,4.000000,4.000000,4.000000,4.000000,4.000000,4.000000,4.000000,4.000000,4.000000,4.000000,4.000000,4.000000,4.000000
1645708233.172803,153.000000,0.000000,4267.820313,4215.128418,4208.461426,4208.205078,4213.717773,4217.948730,4211.666504,4217.307617,4218.077148,4221.922852,4214.743652,4162.051270,4215.641113,4190.000000,3333.000000,4.000000,91.000000,,,,0.000000,4.000000,4.000000,4.000000,4.000000,4.000000,4.000000,4.000000,4.000000,4.000000,4.000000,4.000000,4.000000,4.000000,4.000000,100.000000,,,,,,,,,,,,,,,,
1645708233.176744,154.000000,0.000000,4266.666504,4213.461426,4208.589844,4213.333496,4210.641113,4215.128418,4209.230957,4216.282227,4217.307617,4220.641113,4217.820313,4163.974121,4218.461426,4188.333496,2619.000000,4.000000,91.000000,,,,0.000000,4.000000,4.000000,4.000000,4.000000,4.000000,4.000000,4.000000,4.000000,4.000000,4.000000,4.000000,4.000000,4.000000,4.000000,100.000000,,,,,,,,,,,,,,,,
1645708233.180684,155.000000,0.000000,4264.230957,4210.256348,4205.641113,4213.333496,4208.846191,4214.102539,4205.128418,4211.153809,4214.230957,4218.077148,4217.692383,4162.692383,4217.948730,4184.102539,3418.000000,4.000000,91.000000,,,,0.000000,4.000000,4.000000,4.000000,4.000000,4.000000,4.000000,4.000000,4.000000,4.000000,4.000000,4.000000,4.000000,4.000000,4.000000,100.000000,,,,,,,,,,,,,,,,
1645708233.184624,156.000000,0.000000,4260.641113,4205.769043,4200.512695,4208.461426,4208.333496,4214.615234,4201.282227,4204.487305,4209.487305,4214.615234,4212.820313,4157.563965,4212.948730,4178.077148,3139.000000,4.000000,91.000000,,,,0.000000,4.000000,4.000000,4.000000,4.000000,4.000000,4.000000,4.000000,4.000000,4.000000,4.000000,4.000000,4.000000,4.000000,4.000000,100.000000,,,,,,,,,,,,,,,,
1645708233.188564,157.000000,0.000000,4256.666504,4201.410156,4195.769043,4202.307617,4208.717773,4214.615234,4199.358887,4200.256348,4204.743652,4210.897461,4204.615234,4150.769043,4205.769043,4172.563965,3333.000000,4.000000,91.000000,,,,0.000000,4.000000,4.000000,4.000000,4.000000,4.000000,4.000000,4.000000,4.000000,4.000000,4.000000,4.000000,4.000000,4.000000,4.000000,100.000000,,,,,,,,,,,,,,,,
1645708233.192604,158.000000,0.000000,4253.846191,4198.589844,4194.743652,4198.974121,4209.871582,4212.948730,4200.128418,4200.000000,4201.922852,4208.205078,4197.436035,4145.769043,4200.897461,4169.230957,2619.000000,4.000000,91.000000,,,,0.000000,4.000000,4.000000,4.000000,4.000000,4.000000,4.000000,4.000000,4.000000,4.000000,4.000000,4.000000,4.000000,4.000000,4.000000,100.000000,,,,,,,,,,,,,,,,
1645708233.196544,159.000000,0.000000,4253.846191,4198.589844,4198.077148,4199.487305,4211.410156,4210.256348,4202.563965,4200.769043,4201.538574,4206.153809,4194.615234,4144.743652,4200.641113,4168.846191,3418.000000,4.000000,91.000000,,,,0.000000,4.000000,4.000000,4.000000,4.000000,4.000000,4.000000,4.000000,4.000000,4.000000,4.000000,4.000000,4.000000,4.000000,4.000000,100.000000,,,,,,,,,,,,,,,,
1645708233.200484,160.000000,0.000000,4256.282227,4201.666504,4203.974121,4201.282227,4212.563965,4208.333496,4203.846191,4198.846191,4202.436035,4204.230957,4196.666504,4147.563965,4203.589844,4170.897461,3139.000000,4.000000,91.000000,,,,0.000000,4.000000,4.000000,4.000000,4.000000,4.000000,4.000000,4.000000,4.000000,4.000000,4.000000,4.000000,4.000000,4.000000,4.000000,100.000000,,,,,,,,,,,,,,,,
1645708233.204424,161.000000,0.000000,4258.974121,4205.897461,4209.230957,4201.410156,4212.179688,4207.692383,4201.922852,4193.205078,4202.948730,4201.666504,4200.128418,4152.051270,4205.641113,4173.846191,3333.000000,4.000000,91.000000,,,,0.000000,4.000000,4.000000,4.000000,4.000000,4.000000,4.000000,4.000000,4.000000,4.000000,4.000000,4.000000,4.000000,4.000000,4.000000,100.000000,,,,,,,,,,,,,,,,
1645708233.208464,162.000000,0.000000,4259.358887,4208.205078,4211.410156,4198.589844,4210.256348,4207.692383,4197.307617,4186.538574,4202.692383,4198.717773,4201.410156,4154.871582,4204.487305,4175.384766,2619.000000,4.000000,91.000000,,,,0.000000,4.000000,4.000000,4.000000,4.000000,4.000000,4.000000,4.000000,4.000000,4.000000,4.000000,4.000000,4.000000,4.000000,4.000000,100.000000,,,,,,,,,,,,,,,,
1645708233.212404,163.000000,0.000000,4257.179688,4206.282227,4210.512695,4194.487305,4207.820313,4207.307617,4192.820313,4182.820313,4201.794922,4196.153809,4198.974121,4154.230957,4200.769043,4173.846191,3418.000000,4.000000,91.000000,,,,0.000000,4.000000,4.000000,4.000000,4.000000,4.000000,4.000000,4.000000,4.000000,4.000000,4.000000,4.000000,4.000000,4.000000,4.000000,100.000000,,,,,,,,,,,,,,,,
1645708233.216344,164.000000,0.000000,4254.615234,4200.641113,4208.077148,4192.563965,4206.153809,4205.897461,4190.769043,4182.948730,4201.025879,4194.230957,4194.358887,4150.512695,4197.307617,4169.615234,3139.000000,4.000000,91.000000,,,,0.000000,4.000000,4.000000,4.000000,4.000000,4.000000,4.000000,4.000000,4.000000,4.000000,4.000000,4.000000,4.000000,4.000000,4.000000,100.000000,,,,,,,,,,,,,,,,
1645708233.220285,165.000000,0.000000,4253.974121,4194.871582,4206.282227,4195.256348,4205.256348,4204.230957,4191.025879,4185.128418,4200.641113,4192.948730,4191.153809,4146.538574,4196.666504,4164.487305,3333.000000,4.000000,91.000000,,,,0.000000,4.000000,4.000000,4.000000,4.000000,4.000000,4.000000,4.000000,4.000000,4.000000,4.000000,4.000000,4.000000,4.000000,4.000000,100.000000,,,,,,,,,,,,,,,,
1645708233.224225,166.000000,0.000000,4255.897461,4192.820313,4206.538574,4201.538574,4204.358887,4203.461426,4192.436035,4186.666504,4200.512695,4191.922852,4191.666504,4145.512695,4198.974121,4161.282227,2619.000000,4.000000,91.000000,,,,0.000000,4.000000,4.000000,4.000000,4.000000,4.000000,4.000000,4.000000,4.000000,4.000000,4.000000,4.000000,4.000000,4.000000,4.000000,100.000000,,,,,,,,,,,,,,,,
