title:Alex-Hcg5-5BRuDqzfrZVYju5Lg, start timestamp:1645709912.068032, stop timestamp:1645709937.875811, headset type:EPOCPLUS, headset serial:3B9AEBFF, headset firmware:626, channels:55, sampling rate:eeg_256, samples:6553      , version:2.1, 
Timestamp,EEG.Counter,EEG.Interpolated,EEG.AF3,EEG.F7,EEG.F3,EEG.FC5,EEG.T7,EEG.P7,EEG.O1,EEG.O2,EEG.P8,EEG.T8,EEG.FC6,EEG.F4,EEG.F8,EEG.AF4,EEG.RawCq,EEG.Battery,EEG.BatteryPercent,MarkerIndex,MarkerType,MarkerValueInt,EEG.MarkerHardware,CQ.AF3,CQ.F7,CQ.F3,CQ.FC5,CQ.T7,CQ.P7,CQ.O1,CQ.O2,CQ.P8,CQ.T8,CQ.FC6,CQ.F4,CQ.F8,CQ.AF4,CQ.Overall,EQ.SampleRateQuality,EQ.OVERALL,EQ.AF3,EQ.F7,EQ.F3,EQ.FC5,EQ.T7,EQ.P7,EQ.O1,EQ.O2,EQ.P8,EQ.T8,EQ.FC6,EQ.F4,EQ.F8,EQ.AF4
1645709912.068032,171.000000,0.000000,4222.692383,4225.256348,4226.794922,4228.974121,4220.641113,4217.051270,4214.615234,4218.333496,4221.538574,4225.769043,4208.077148,4180.000000,4225.128418,4235.128418,2808.000000,4.000000,91.000000,,,,0.000000,4.000000,4.000000,4.000000,4.000000,4.000000,4.000000,4.000000,4.000000,4.000000,4.000000,4.000000,4.000000,4.000000,4.000000,100.000000,,,,,,,,,,,,,,,,
1645709912.072072,172.000000,0.000000,4220.769043,4221.794922,4227.436035,4226.025879,4219.230957,4213.077148,4208.717773,4215.128418,4219.102539,4226.538574,4205.256348,4182.307617,4225.512695,4235.384766,3274.000000,4.000000,91.000000,,,,0.000000,4.000000,4.000000,4.000000,4.000000,4.000000,4.000000,4.000000,4.000000,4.000000,4.000000,4.000000,4.000000,4.000000,4.000000,100.000000,,,,,,,,,,,,,,,,
1645709912.076012,173.000000,0.000000,4220.000000,4217.436035,4229.102539,4221.794922,4214.487305,4209.230957,4204.743652,4214.743652,4216.666504,4224.743652,4199.358887,4182.436035,4225.897461,4233.333496,2776.000000,4.000000,91.000000,,,,0.000000,4.000000,4.000000,4.000000,4.000000,4.000000,4.000000,4.000000,4.000000,4.000000,4.000000,4.000000,4.000000,4.000000,4.000000,100.000000,,,,,,,,,,,,,,,,
1645709912.079953,174.000000,0.000000,4220.000000,4213.717773,4229.487305,4217.179688,4208.077148,4206.666504,4203.589844,4216.410156,4215.000000,4220.897461,4193.077148,4180.512695,4224.358887,4230.384766,2115.000000,4.000000,91.000000,,,,0.000000,4.000000,4.000000,4.000000,4.000000,4.000000,4.000000,4.000000,4.000000,4.000000,4.000000,4.000000,4.000000,4.000000,4.000000,100.000000,,,,,,,,,,,,,,,,
1645709912.083893,175.000000,0.000000,4218.717773,4212.179688,4226.666504,4212.051270,4203.205078,4206.666504,4204.358887,4217.563965,4215.384766,4216.922852,4188.974121,4176.922852,4220.384766,4227.563965,2808.000000,4.000000,91.000000,,,,0.000000,4.000000,4.000000,4.000000,4.000000,4.000000,4.000000,4.000000,4.000000,4.000000,4.000000,4.000000,4.000000,4.000000,4.000000,100.000000,,,,,,,,,,,,,,,,
1645709912.087833,176.000000,0.000000,4215.000000,4212.051270,4221.282227,4207.051270,4201.410156,4208.205078,4205.384766,4216.282227,4216.922852,4214.871582,4187.563965,4172.563965,4216.153809,4224.743652,3274.000000,4.000000,91.000000,,,,0.000000,4.000000,4.000000,4.000000,4.000000,4.000000,4.000000,4.000000,4.000000,4.000000,4.000000,4.000000,4.000000,4.000000,4.000000,100.000000,,,,,,,,,,,,,,,,
1645709912.091773,177.000000,0.000000,4210.769043,4212.051270,4215.897461,4204.230957,4201.666504,4209.230957,4205.000000,4213.461426,4217.948730,4214.615234,4187.820313,4168.461426,4214.358887,4221.538574,2776.000000,4.000000,91.000000,,,,0.000000,4.000000,4.000000,4.000000,4.000000,4.000000,4.000000,4.000000,4.000000,4.000000,4.000000,4.000000,4.000000,4.000000,4.000000,100.000000,,,,,,,,,,,,,,,,
1645709912.095713,178.000000,0.000000,4208.974121,4210.897461,4213.461426,4205.512695,4202.051270,4207.948730,4202.563965,4211.282227,4216.538574,4214.487305,4188.717773,4166.153809,4215.641113,4218.717773,2115.000000,4.000000,91.000000,,,,0.000000,4.000000,4.000000,4.000000,4.000000,4.000000,4.000000,4.000000,4.000000,4.000000,4.000000,4.000000,4.000000,4.000000,4.000000,100.000000,,,,,,,,,,,,,,,,
1645709912.099653,179.000000,0.000000,4210.128418,4209.102539,4214.358887,4210.769043,4201.666504,4204.871582,4199.615234,4211.922852,4213.717773,4214.102539,4189.743652,4166.922852,4218.589844,4217.436035,2808.000000,4.000000,91.000000,,,,0.000000,4.000000,4.000000,4.000000,4.000000,4.000000,4.000000,4.000000,4.000000,4.000000,4.000000,4.000000,4.000000,4.000000,4.000000,100.000000,,,,,,,,,,,,,,,,
1645709912.103593,180.000000,0.000000,4212.179688,4207.692383,4216.794922,4218.333496,4201.666504,4202.307617,4198.717773,4215.769043,4212.692383,4213.974121,4191.666504,4170.897461,4221.410156,4219.230957,3274.000000,4.000000,91.000000,,,,0.000000,4.000000,4.000000,4.000000,4.000000,4.000000,4.000000,4.000000,4.000000,4.000000,4.000000,4.000000,4.000000,4.000000,4.000000,100.000000,,,,,,,,,,,,,,,,
1645709912.107533,181.000000,0.000000,4212.692383,4207.820313,4218.205078,4224.871582,4203.205078,4202.436035,4201.538574,4220.769043,4215.641113,4215.384766,4194.615234,4176.410156,4223.461426,4223.589844,2776.000000,4.000000,91.000000,,,,0.000000,4.000000,4.000000,4.000000,4.000000,4.000000,4.000000,4.000000,4.000000,4.000000,4.000000,4.000000,4.000000,4.000000,4.000000,100.000000,,,,,,,,,,,,,,,,
1645709912.111473,182.000000,0.000000,4212.436035,4209.615234,4217.948730,4226.666504,4206.282227,4205.000000,4206.538574,4223.974121,4221.538574,4218.205078,4197.051270,4181.153809,4225.000000,4228.717773,2115.000000,4.000000,91.000000,,,,0.000000,4.000000,4.000000,4.000000,4.000000,4.000000,4.000000,4.000000,4.000000,4.000000,4.000000,4.000000,4.000000,4.000000,4.000000,100.000000,,,,,,,,,,,,,,,,
1645709912.115413,183.000000,0.000000,4213.333496,4211.666504,4217.051270,4222.051270,4208.846191,4208.461426,4211.282227,4224.230957,4226.410156,4221.153809,4197.692383,4183.846191,4226.025879,4231.538574,2808.000000,4.000000,91.000000,,,,0.000000,4.000000,4.000000,4.000000,4.000000,4.000000,4.000000,4.000000,4.000000,4.000000,4.000000,4.000000,4.000000,4.000000,4.000000,100.000000,,,,,,,,,,,,,,,,
1645709912.119254,184.000000,0.000000,4215.897461,4212.820313,4217.436035,4212.820313,4208.717773,4210.769043,4214.358887,4222.436035,4227.820313,4222.948730,4196.538574,4184.615234,4226.282227,4230.000000,3274.000000,4.000000,91.000000,,,,0.000000,4.000000,4.000000,4.000000,4.000000,4.000000,4.000000,4.000000,4.000000,4.000000,4.000000,4.000000,4.000000,4.000000,4.000000,100.000000,,,,,,,,,,,,,,,,
1645709912.123194,185.000000,0.000000,4217.948730,4212.563965,4218.974121,4204.615234,4205.128418,4211.282227,4216.025879,4220.000000,4226.282227,4223.333496,4194.743652,4183.461426,4225.512695,4224.615234,2776.000000,4.000000,91.000000,,,,0.000000,4.000000,4.000000,4.000000,4.000000,4.000000,4.000000,4.000000,4.000000,4.000000,4.000000,4.000000,4.000000,4.000000,4.000000,100.000000,,,,,,,,,,,,,,,,
1645709912.127134,186.000000,0.000000,4217.307617,4211.153809,4220.000000,4203.205078,4199.743652,4210.256348,4217.179688,4219.230957,4223.974121,4222.692383,4193.461426,4180.128418,4222.820313,4218.333496,2115.000000,4.000000,91.000000,,,,0.000000,4.000000,4.000000,4.000000,4.000000,4.000000,4.000000,4.000000,4.000000,4.000000,4.000000,4.000000,4.000000,4.000000,4.000000,100.000000,,,,,,,,,,,,,,,,
1645709912.131074,187.000000,0.000000,4213.846191,4209.358887,4218.205078,4209.102539,4194.615234,4208.333496,4217.179688,4220.769043,4222.948730,4221.666504,4192.179688,4175.384766,4218.077148,4213.974121,2808.000000,4.000000,91.000000,,,,0.000000,4.000000,4.000000,4.000000,4.000000,4.000000,4.000000,4.000000,4.000000,4.000000,4.000000,4.000000,4.000000,4.000000,4.000000,100.000000,,,,,,,,,,,,,,,,
1645709912.135014,188.000000,0.000000,4209.487305,4207.563965,4213.333496,4217.179688,4191.153809,4206.410156,4215.000000,4223.717773,4223.461426,4219.743652,4189.358887,4170.897461,4212.692383,4212.563965,3274.000000,4.000000,91.000000,,,,0.000000,4.000000,4.000000,4.000000,4.000000,4.000000,4.000000,4.000000,4.000000,4.000000,4.000000,4.000000,4.000000,4.000000,4.000000,100.000000,,,,,,,,,,,,,,,,
1645709912.138954,189.000000,0.000000,4205.897461,4206.153809,4207.948730,4221.794922,4191.025879,4205.641113,4211.282227,4225.128418,4224.487305,4217.563965,4185.384766,4168.461426,4209.230957,4212.820313,2776.000000,4.000000,91.000000,,,,0.000000,4.000000,4.000000,4.000000,4.000000,4.000000,4.000000,4.000000,4.000000,4.000000,4.000000,4.000000,4.000000,4.000000,4.000000,100.000000,,,,,,,,,,,,,,,,
1645709912.142894,190.000000,0.000000,4203.461426,4205.512695,4205.128418,4222.179688,4195.512695,4207.307617,4207.948730,4222.563965,4224.487305,4216.922852,4183.205078,4169.102539,4209.743652,4213.333496,2115.000000,4.000000,91.000000,,,,0.000000,4.000000,4.000000,4.000000,4.000000,4.000000,4.000000,4.000000,4.000000,4.000000,4.000000,4.000000,4.000000,4.000000,4.000000,100.000000,,,,,,,,,,,,,,,,
1645709912.146834,191.000000,0.000000,4202.692383,4206.153809,4206.794922,4221.025879,4203.846191,4211.153809,4207.179688,4215.384766,4222.436035,4218.974121,4185.641113,4172.307617,4214.230957,4213.974121,2808.000000,4.000000,91.000000,,,,0.000000,4.000000,4.000000,4.000000,4.000000,4.000000,4.000000,4.000000,4.000000,4.000000,4.000000,4.000000,4.000000,4.000000,4.000000,100.000000,,,,,,,,,,,,,,,,
1645709912.150775,192.000000,0.000000,4204.102539,4207.692383,4212.948730,4220.256348,4212.051270,4215.000000,4208.717773,4206.794922,4218.974121,4222.692383,4191.538574,4176.666504,4219.487305,4215.512695,3274.000000,4.000000,91.000000,,,,0.000000,4.000000,4.000000,4.000000,4.000000,4.000000,4.000000,4.000000,4.000000,4.000000,4.000000,4.000000,4.000000,4.000000,4.000000,100.000000,,,,,,,,,,,,,,,,
1645709912.154715,193.000000,0.000000,4208.077148,4209.358887,4221.153809,4219.102539,4215.641113,4215.897461,4210.641113,4200.128418,4215.897461,4224.358887,4196.410156,4180.256348,4221.922852,4217.820313,2776.000000,4.000000,91.000000,,,,0.000000,4.000000,4.000000,4.000000,4.000000,4.000000,4.000000,4.000000,4.000000,4.000000,4.000000,4.000000,4.000000,4.000000,4.000000,100.000000,,,,,,,,,,,,,,,,
1645709912.158655,194.000000,0.000000,4212.307617,4210.000000,4227.563965,4215.769043,4212.948730,4213.077148,4211.153809,4197.307617,4214.743652,4222.051270,4195.897461,4181.153809,4219.871582,4218.974121,2115.000000,4.000000,91.000000,,,,0.000000,4.000000,4.000000,4.000000,4.000000,4.000000,4.000000,4.000000,4.000000,4.000000,4.000000,4.000000,4.000000,4.000000,4.000000,100.000000,,,,,,,,,,,,,,,,
1645709912.162595,195.000000,0.000000,4213.589844,4210.000000,4228.461426,4210.897461,4207.436035,4209.230957,4209.871582,4197.051270,4215.769043,4216.538574,4189.230957,4177.820313,4214.615234,4216.410156,2808.000000,4.000000,91.000000,,,,0.000000,4.000000,4.000000,4.000000,4.000000,4.000000,4.000000,4.000000,4.000000,4.000000,4.000000,4.000000,4.000000,4.000000,4.000000,100.000000,,,,,,,,,,,,,,,,
1645709912.166535,196.000000,0.000000,4210.128418,4209.743652,4222.692383,4206.666504,4203.205078,4208.205078,4208.205078,4196.922852,4217.179688,4211.025879,4179.871582,4170.384766,4209.487305,4209.743652,3274.000000,4.000000,91.000000,,,,0.000000,4.000000,4.000000,4.000000,4.000000,4.000000,4.000000,4.000000,4.000000,4.000000,4.000000,4.000000,4.000000,4.000000,4.000000,100.000000,,,,,,,,,,,,,,,,
1645709912.170475,197.000000,0.000000,4204.102539,4208.717773,4212.820313,4205.128418,4202.179688,4211.153809,4207.179688,4196.282227,4217.307617,4208.205078,4172.948730,4161.922852,4207.051270,4202.436035,2776.000000,4.000000,91.000000,,,,0.000000,4.000000,4.000000,4.000000,4.000000,4.000000,4.000000,4.000000,4.000000,4.000000,4.000000,4.000000,4.000000,4.000000,4.000000,100.000000,,,,,,,,,,,,,,,,
1645709912.174415,198.000000,0.000000,4199.871582,4205.384766,4203.846191,4206.025879,4202.692383,4215.256348,4207.051270,4196.025879,4216.153809,4208.846191,4171.410156,4156.794922,4207.563965,4199.230957,2115.000000,4.000000,91.000000,,,,0.000000,4.000000,4.000000,4.000000,4.000000,4.000000,4.000000,4.000000,4.000000,4.000000,4.000000,4.000000,4.000000,4.000000,4.000000,100.000000,,,,,,,,,,,,,,,,
1645709912.178355,199.000000,0.000000,4199.615234,4199.615234,4199.487305,4208.333496,4202.820313,4217.179688,4207.692383,4197.307617,4215.000000,4211.922852,4174.487305,4156.922852,4210.128418,4202.692383,2808.000000,4.000000,91.000000,,,,0.000000,4.000000,4.000000,4.000000,4.000000,4.000000,4.000000,4.000000,4.000000,4.000000,4.000000,4.000000,4.000000,4.000000,4.000000,100.000000,,,,,,,,,,,,,,,,
1645709912.182295,200.000000,0.000000,4202.436035,4193.974121,4201.025879,4209.615234,4202.692383,4215.512695,4209.102539,4199.743652,4215.512695,4216.025879,4179.358887,4160.897461,4213.077148,4210.897461,3274.000000,4.000000,91.000000,,,,0.000000,4.000000,4.000000,4.000000,4.000000,4.000000,4.000000,4.000000,4.000000,4.000000,4.000000,4.000000,4.000000,4.000000,4.000000,100.000000,,,,,,,,,,,,,,,,
1645709912.186235,201.000000,0.000000,4205.128418,4192.436035,4206.538574,4207.820313,4204.102539,4212.948730,4211.410156,4201.410156,4217.051270,4220.384766,4182.948730,4165.384766,4214.615234,4218.589844,2776.000000,4.000000,91.000000,,,,0.000000,4.000000,4.000000,4.000000,4.000000,4.000000,4.000000,4.000000,4.000000,4.000000,4.000000,4.000000,4.000000,4.000000,4.000000,100.000000,,,,,,,,,,,,,,,,
1645709912.190275,202.000000,0.000000,4206.538574,4195.897461,4212.436035,4202.436035,4207.307617,4213.333496,4214.743652,4201.282227,4218.333496,4224.102539,4183.717773,4168.589844,4213.589844,4221.794922,2115.000000,4.000000,91.000000,,,,0.000000,4.000000,4.000000,4.000000,4.000000,4.000000,4.000000,4.000000,4.000000,4.000000,4.000000,4.000000,4.000000,4.000000,4.000000,100.000000,,,,,,,,,,,,,,,,
1645709912.194216,203.000000,0.000000,4207.051270,4201.025879,4215.897461,4195.256348,4210.512695,4217.692383,4218.461426,4200.512695,4218.333496,4226.025879,4181.922852,4170.769043,4210.769043,4219.615234,2808.000000,4.000000,91.000000,,,,0.000000,4.000000,4.000000,4.000000,4.000000,4.000000,4.000000,4.000000,4.000000,4.000000,4.000000,4.000000,4.000000,4.000000,4.000000,100.000000,,,,,,,,,,,,,,,,
1645709912.198156,204.000000,0.000000,4207.436035,4203.589844,4216.153809,4190.256348,4211.410156,4223.974121,4221.538574,4201.025879,4217.307617,4225.512695,4179.102539,4172.820313,4208.461426,4214.358887,3274.000000,4.000000,91.000000,,,,0.000000,4.000000,4.000000,4.000000,4.000000,4.000000,4.000000,4.000000,4.000000,4.000000,4.000000,4.000000,4.000000,4.000000,4.000000,100.000000,,,,,,,,,,,,,,,,
1645709912.202096,205.000000,0.000000,4207.948730,4202.820313,4215.000000,4191.025879,4210.512695,4228.461426,4223.077148,4203.974121,4216.538574,4223.589844,4178.205078,4175.256348,4209.102539,4210.256348,2776.000000,4.000000,91.000000,,,,0.000000,4.000000,4.000000,4.000000,4.000000,4.000000,4.000000,4.000000,4.000000,4.000000,4.000000,4.000000,4.000000,4.000000,4.000000,100.000000,,,,,,,,,,,,,,,,
1645709912.206036,206.000000,0.000000,4208.717773,4201.025879,4214.358887,4197.051270,4209.871582,4228.974121,4222.563965,4208.077148,4216.538574,4222.179688,4180.641113,4177.307617,4213.077148,4209.871582,2115.000000,4.000000,91.000000,,,,0.000000,4.000000,4.000000,4.000000,4.000000,4.000000,4.000000,4.000000,4.000000,4.000000,4.000000,4.000000,4.000000,4.000000,4.000000,100.000000,,,,,,,,,,,,,,,,
1645709912.209976,207.000000,0.000000,4210.128418,4200.000000,4214.487305,4204.102539,4210.128418,4226.025879,4221.025879,4211.025879,4217.307617,4221.410156,4185.256348,4178.461426,4218.205078,4212.692383,2808.000000,4.000000,91.000000,,,,0.000000,4.000000,4.000000,4.000000,4.000000,4.000000,4.000000,4.000000,4.000000,4.000000,4.000000,4.000000,4.000000,4.000000,4.000000,100.000000,,,,,,,,,,,,,,,,
1645709912.213816,208.000000,0.000000,4212.051270,4199.871582,4214.615234,4208.077148,4209.230957,4222.051270,4219.743652,4211.153809,4217.820313,4220.384766,4188.589844,4178.461426,4220.897461,4215.897461,3274.000000,4.000000,91.000000,,,,0.000000,4.000000,4.000000,4.000000,4.000000,4.000000,4.000000,4.000000,4.000000,4.000000,4.000000,4.000000,4.000000,4.000000,4.000000,100.000000,,,,,,,,,,,,,,,,
1645709912.217756,209.000000,0.000000,4213.333496,4200.256348,4213.461426,4207.307617,4205.512695,4219.743652,4219.871582,4208.461426,4217.307617,4218.333496,4187.820313,4177.563965,4218.974121,4216.666504,2776.000000,4.000000,91.000000,,,,0.000000,4.000000,4.000000,4.000000,4.000000,4.000000,4.000000,4.000000,4.000000,4.000000,4.000000,4.000000,4.000000,4.000000,4.000000,100.000000,,,,,,,,,,,,,,,,
1645709912.221696,210.000000,0.000000,4211.922852,4200.769043,4210.897461,4203.846191,4200.256348,4220.256348,4220.512695,4204.743652,4215.641113,4216.025879,4183.077148,4176.025879,4213.846191,4214.743652,2115.000000,4.000000,91.000000,,,,0.000000,4.000000,4.000000,4.000000,4.000000,4.000000,4.000000,4.000000,4.000000,4.000000,4.000000,4.000000,4.000000,4.000000,4.000000,100.000000,,,,,,,,,,,,,,,,
1645709912.225637,211.000000,0.000000,4207.307617,4200.897461,4206.922852,4199.743652,4196.666504,4221.410156,4219.358887,4201.666504,4212.948730,4214.230957,4176.538574,4173.461426,4208.717773,4212.179688,2808.000000,4.000000,91.000000,,,,0.000000,4.000000,4.000000,4.000000,4.000000,4.000000,4.000000,4.000000,4.000000,4.000000,4.000000,4.000000,4.000000,4.000000,4.000000,100.000000,,,,,,,,,,,,,,,,
1645709912.229577,212.000000,0.000000,4201.025879,4199.487305,4202.436035,4195.641113,4196.922852,4220.256348,4214.615234,4199.358887,4209.743652,4212.179688,4170.897461,4169.743652,4205.769043,4210.384766,3274.000000,4.000000,91.000000,,,,0.000000,4.000000,4.000000,4.000000,4.000000,4.000000,4.000000,4.000000,4.000000,4.000000,4.000000,4.000000,4.000000,4.000000,4.000000,100.000000,,,,,,,,,,,,,,,,
1645709912.233517,213.000000,0.000000,4196.282227,4196.025879,4198.717773,4192.307617,4199.743652,4215.384766,4207.436035,4197.563965,4207.563965,4208.974121,4167.948730,4165.512695,4205.128418,4210.000000,2776.000000,4.000000,91.000000,,,,0.000000,4.000000,4.000000,4.000000,4.000000,4.000000,4.000000,4.000000,4.000000,4.000000,4.000000,4.000000,4.000000,4.000000,4.000000,100.000000,,,,,,,,,,,,,,,,
1645709912.237457,214.000000,0.000000,4195.512695,4192.436035,4197.563965,4191.538574,4202.820313,4209.615234,4202.179688,4196.282227,4207.820313,4205.256348,4168.461426,4162.179688,4205.897461,4210.769043,2115.000000,4.000000,91.000000,,,,0.000000,4.000000,4.000000,4.000000,4.000000,4.000000,4.000000,4.000000,4.000000,4.000000,4.000000,4.000000,4.000000,4.000000,4.000000,100.000000,1.000000,100.000000,4.000000,4.000000,4.000000,4.000000,4.000000,4.000000,4.000000,4.000000,4.000000,4.000000,4.000000,4.000000,4.000000,4.000000
1645709912.241397,215.000000,0.000000,4198.717773,4192.436035,4200.512695,4195.769043,4205.512695,4207.948730,4202.820313,4196.282227,4210.769043,4204.230957,4172.948730,4161.666504,4207.563965,4212.692383,2808.000000,4.000000,91.000000,,,,0.000000,4.000000,4.000000,4.000000,4.000000,4.000000,4.000000,4.000000,4.000000,4.000000,4.000000,4.000000,4.000000,4.000000,4.000000,100.000000,,,,,,,,,,,,,,,,
1645709912.245337,216.000000,0.000000,4204.230957,4198.717773,4207.436035,4205.897461,4208.333496,4213.717773,4209.615234,4198.205078,4215.256348,4207.820313,4180.256348,4164.743652,4210.128418,4215.769043,3274.000000,4.000000,91.000000,,,,0.000000,4.000000,4.000000,4.000000,4.000000,4.000000,4.000000,4.000000,4.000000,4.000000,4.000000,4.000000,4.000000,4.000000,4.000000,100.000000,,,,,,,,,,,,,,,,
1645709912.249277,217.000000,0.000000,4210.384766,4210.128418,4215.897461,4218.717773,4211.922852,4225.000000,4218.974121,4201.410156,4219.102539,4215.000000,4187.948730,4170.256348,4213.589844,4218.846191,2776.000000,4.000000,91.000000,,,,0.000000,4.000000,4.000000,4.000000,4.000000,4.000000,4.000000,4.000000,4.000000,4.000000,4.000000,4.000000,4.000000,4.000000,4.000000,100.000000,,,,,,,,,,,,,,,,
1645709912.253117,218.000000,0.000000,4215.897461,4222.051270,4222.563965,4228.461426,4215.769043,4235.512695,4226.153809,4204.102539,4220.512695,4220.897461,4192.051270,4175.897461,4216.794922,4220.256348,2115.000000,4.000000,91.000000,,,,0.000000,4.000000,4.000000,4.000000,4.000000,4.000000,4.000000,4.000000,4.000000,4.000000,4.000000,4.000000,4.000000,4.000000,4.000000,100.000000,,,,,,,,,,,,,,,,
1645709912.257057,219.000000,0.000000,4219.743652,4229.102539,4224.871582,4230.769043,4219.358887,4240.256348,4228.846191,4205.128418,4219.230957,4221.538574,4190.641113,4178.333496,4218.205078,4219.743652,2808.000000,4.000000,91.000000,,,,0.000000,4.000000,4.000000,4.000000,4.000000,4.000000,4.000000,4.000000,4.000000,4.000000,4.000000,4.000000,4.000000,4.000000,4.000000,100.000000,,,,,,,,,,,,,,,,
1645709912.260998,220.000000,0.000000,4220.641113,4229.743652,4222.948730,4225.641113,4222.820313,4238.974121,4227.436035,4203.846191,4216.410156,4217.051270,4185.384766,4176.410156,4217.051270,4218.077148,3274.000000,4.000000,91.000000,,,,0.000000,4.000000,4.000000,4.000000,4.000000,4.000000,4.000000,4.000000,4.000000,4.000000,4.000000,4.000000,4.000000,4.000000,4.000000,100.000000,,,,,,,,,,,,,,,,
1645709912.264938,221.000000,0.000000,4217.948730,4226.153809,4218.974121,4217.820313,4226.025879,4235.128418,4223.717773,4201.282227,4214.102539,4211.538574,4181.025879,4171.025879,4214.230957,4216.666504,2776.000000,4.000000,91.000000,,,,0.000000,4.000000,4.000000,4.000000,4.000000,4.000000,4.000000,4.000000,4.000000,4.000000,4.000000,4.000000,4.000000,4.000000,4.000000,100.000000,,,,,,,,,,,,,,,,
1645709912.268878,222.000000,0.000000,4213.333496,4222.051270,4215.897461,4213.205078,4228.461426,4231.666504,4219.615234,4198.846191,4213.717773,4208.974121,4180.897461,4165.641113,4211.922852,4215.897461,2115.000000,4.000000,91.000000,,,,0.000000,4.000000,4.000000,4.000000,4.000000,4.000000,4.000000,4.000000,4.000000,4.000000,4.000000,4.000000,4.000000,4.000000,4.000000,100.000000,,,,,,,,,,,,,,,,
1645709912.272818,223.000000,0.000000,4210.256348,4219.487305,4215.256348,4214.102539,4228.461426,4229.487305,4216.025879,4198.461426,4215.128418,4209.871582,4184.615234,4163.077148,4211.538574,4215.512695,2808.000000,4.000000,91.000000,,,,0.000000,4.000000,4.000000,4.000000,4.000000,4.000000,4.000000,4.000000,4.000000,4.000000,4.000000,4.000000,4.000000,4.000000,4.000000,100.000000,,,,,,,,,,,,,,,,
1645709912.276758,224.000000,0.000000,4211.538574,4218.974121,4216.538574,4218.589844,4226.025879,4227.563965,4213.589844,4200.384766,4216.282227,4212.692383,4189.102539,4163.846191,4213.205078,4215.256348,3274.000000,4.000000,91.000000,,,,0.000000,4.000000,4.000000,4.000000,4.000000,4.000000,4.000000,4.000000,4.000000,4.000000,4.000000,4.000000,4.000000,4.000000,4.000000,100.000000,,,,,,,,,,,,,,,,
1645709912.280698,225.000000,0.000000,4216.410156,4220.000000,4218.461426,4223.205078,4222.948730,4226.282227,4213.205078,4203.461426,4216.538574,4216.282227,4192.692383,4166.538574,4216.153809,4215.641113,2776.000000,4.000000,91.000000,,,,0.000000,4.000000,4.000000,4.000000,4.000000,4.000000,4.000000,4.000000,4.000000,4.000000,4.000000,4.000000,4.000000,4.000000,4.000000,100.000000,,,,,,,,,,,,,,,,
1645709912.284638,226.000000,0.000000,4221.538574,4222.179688,4219.487305,4225.897461,4222.051270,4226.922852,4215.769043,4206.025879,4216.794922,4221.025879,4195.897461,4169.102539,4219.487305,4216.538574,2115.000000,4.000000,91.000000,,,,0.000000,4.000000,4.000000,4.000000,4.000000,4.000000,4.000000,4.000000,4.000000,4.000000,4.000000,4.000000,4.000000,4.000000,4.000000,100.000000,,,,,,,,,,,,,,,,
1645709912.288578,227.000000,0.000000,4224.102539,4225.128418,4219.487305,4226.282227,4224.230957,4230.256348,4220.128418,4207.692383,4218.461426,4227.051270,4199.230957,4170.769043,4222.948730,4217.179688,2808.000000,4.000000,91.000000,,,,0.000000,4.000000,4.000000,4.000000,4.000000,4.000000,4.000000,4.000000,4.000000,4.000000,4.000000,4.000000,4.000000,4.000000,4.000000,100.000000,,,,,,,,,,,,,,,,
1645709912.292518,228.000000,0.000000,4224.230957,4228.333496,4218.846191,4224.743652,4227.436035,4235.128418,4223.717773,4208.717773,4221.282227,4233.205078,4202.179688,4171.666504,4225.256348,4217.051270,3274.000000,4.000000,91.000000,,,,0.000000,4.000000,4.000000,4.000000,4.000000,4.000000,4.000000,4.000000,4.000000,4.000000,4.000000,4.000000,4.000000,4.000000,4.000000,100.000000,,,,,,,,,,,,,,,,
1645709912.296459,229.000000,0.000000,4223.589844,4231.153809,4218.846191,4221.922852,4228.205078,4238.077148,4223.974121,4209.230957,4223.974121,4237.692383,4204.102539,4172.179688,4226.025879,4216.410156,2776.000000,4.000000,91.000000,,,,0.000000,4.000000,4.000000,4.000000,4.000000,4.000000,4.000000,4.000000,4.000000,4.000000,4.000000,4.000000,4.000000,4.000000,4.000000,100.000000,,,,,,,,,,,,,,,,
1645709912.300399,230.000000,0.000000,4223.205078,4232.436035,4219.230957,4218.717773,4225.256348,4237.051270,4220.897461,4208.717773,4224.615234,4238.974121,4204.487305,4171.922852,4224.871582,4216.153809,2115.000000,4.000000,91.000000,,,,0.000000,4.000000,4.000000,4.000000,4.000000,4.000000,4.000000,4.000000,4.000000,4.000000,4.000000,4.000000,4.000000,4.000000,4.000000,100.000000,,,,,,,,,,,,,,,,
1645709912.304339,231.000000,0.000000,4222.307617,4230.641113,4218.974121,4216.538574,4220.512695,4232.179688,4215.897461,4206.794922,4222.820313,4237.307617,4203.589844,4170.256348,4222.179688,4216.410156,2808.000000,4.000000,91.000000,,,,0.000000,4.000000,4.000000,4.000000,4.000000,4.000000,4.000000,4.000000,4.000000,4.000000,4.000000,4.000000,4.000000,4.000000,4.000000,100.000000,,,,,,,,,,,,,,,,
1645709912.308279,232.000000,0.000000,4220.256348,4226.666504,4217.436035,4216.153809,4217.307617,4226.025879,4211.282227,4204.230957,4219.615234,4233.461426,4201.282227,4167.948730,4218.205078,4216.410156,3274.000000,4.000000,91.000000,,,,0.000000,4.000000,4.000000,4.000000,4.000000,4.000000,4.000000,4.000000,4.000000,4.000000,4.000000,4.000000,4.000000,4.000000,4.000000,100.000000,,,,,,,,,,,,,,,,
1645709912.312219,233.000000,0.000000,4218.205078,4222.436035,4215.641113,4217.436035,4217.179688,4221.153809,4208.589844,4202.563965,4216.922852,4228.205078,4197.563965,4166.794922,4214.102539,4215.512695,2776.000000,4.000000,91.000000,,,,0.000000,4.000000,4.000000,4.000000,4.000000,4.000000,4.000000,4.000000,4.000000,4.000000,4.000000,4.000000,4.000000,4.000000,4.000000,100.000000,,,,,,,,,,,,,,,,
1645709912.316159,234.000000,0.000000,4217.820313,4219.743652,4215.000000,4219.743652,4218.846191,4219.230957,4208.205078,4202.179688,4215.384766,4222.820313,4193.205078,4167.436035,4211.282227,4213.717773,2115.000000,4.000000,91.000000,,,,0.000000,4.000000,4.000000,4.000000,4.000000,4.000000,4.000000,4.000000,4.000000,4.000000,4.000000,4.000000,4.000000,4.000000,4.000000,100.000000,,,,,,,,,,,,,,,,
1645709912.320099,235.000000,0.000000,4218.846191,4218.846191,4215.512695,4222.307617,4220.000000,4220.000000,4209.615234,4202.436035,4214.615234,4218.846191,4189.487305,4168.589844,4210.769043,4212.307617,2808.000000,4.000000,91.000000,,,,0.000000,4.000000,4.000000,4.000000,4.000000,4.000000,4.000000,4.000000,4.000000,4.000000,4.000000,4.000000,4.000000,4.000000,4.000000,100.000000,,,,,,,,,,,,,,,,
1645709912.324039,236.000000,0.000000,4219.487305,4219.102539,4216.025879,4224.358887,4219.615234,4222.051270,4211.538574,4201.794922,4214.230957,4217.307617,4188.205078,4168.589844,4212.948730,4212.307617,3274.000000,4.000000,91.000000,,,,0.000000,4.000000,4.000000,4.000000,4.000000,4.000000,4.000000,4.000000,4.000000,4.000000,4.000000,4.000000,4.000000,4.000000,4.000000,100.000000,,,,,,,,,,,,,,,,
1645709912.327879,237.000000,0.000000,4219.102539,4219.871582,4215.897461,4224.871582,4218.333496,4223.974121,4212.820313,4200.384766,4214.871582,4218.461426,4189.615234,4167.563965,4217.051270,4214.102539,2776.000000,4.000000,91.000000,,,,0.000000,4.000000,4.000000,4.000000,4.000000,4.000000,4.000000,4.000000,4.000000,4.000000,4.000000,4.000000,4.000000,4.000000,4.000000,100.000000,,,,,,,,,,,,,,,,
1645709912.331820,238.000000,0.000000,4218.589844,4221.025879,4215.256348,4223.461426,4217.307617,4225.128418,4213.461426,4199.615234,4216.922852,4220.512695,4192.563965,4167.179688,4221.153809,4216.410156,2115.000000,4.000000,91.000000,,,,0.000000,4.000000,4.000000,4.000000,4.000000,4.000000,4.000000,4.000000,4.000000,4.000000,4.000000,4.000000,4.000000,4.000000,4.000000,100.000000,,,,,,,,,,,,,,,,
1645709912.335760,239.000000,0.000000,4219.871582,4222.436035,4215.384766,4221.153809,4216.666504,4225.512695,4214.102539,4200.769043,4219.743652,4221.794922,4195.384766,4168.717773,4223.461426,4217.563965,2808.000000,4.000000,91.000000,,,,0.000000,4.000000,4.000000,4.000000,4.000000,4.000000,4.000000,4.000000,4.000000,4.000000,4.000000,4.000000,4.000000,4.000000,4.000000,100.000000,,,,,,,,,,,,,,,,
1645709912.339700,240.000000,0.000000,4222.179688,4223.846191,4216.922852,4220.256348,4216.282227,4226.025879,4215.641113,4203.846191,4222.436035,4221.794922,4196.666504,4172.179688,4223.205078,4217.179688,3274.000000,4.000000,91.000000,,,,0.000000,4.000000,4.000000,4.000000,4.000000,4.000000,4.000000,4.000000,4.000000,4.000000,4.000000,4.000000,4.000000,4.000000,4.000000,100.000000,,,,,,,,,,,,,,,,
1645709912.343640,241.000000,0.000000,4223.205078,4224.487305,4218.589844,4222.051270,4216.025879,4227.692383,4218.717773,4207.820313,4224.487305,4221.922852,4197.436035,4176.538574,4220.897461,4216.666504,2776.000000,4.000000,91.000000,,,,0.000000,4.000000,4.000000,4.000000,4.000000,4.000000,4.000000,4.000000,4.000000,4.000000,4.000000,4.000000,4.000000,4.000000,4.000000,100.000000,,,,,,,,,,,,,,,,
1645709912.347580,242.000000,0.000000,4221.538574,4223.974121,4218.717773,4226.153809,4216.282227,4230.256348,4222.563965,4211.410156,4226.153809,4224.102539,4198.717773,4181.025879,4218.205078,4217.436035,2115.000000,4.000000,91.000000,,,,0.000000,4.000000,4.000000,4.000000,4.000000,4.000000,4.000000,4.000000,4.000000,4.000000,4.000000,4.000000,4.000000,4.000000,4.000000,100.000000,,,,,,,,,,,,,,,,
1645709912.351520,243.000000,0.000000,4219.102539,4221.666504,4217.179688,4229.615234,4217.179688,4232.307617,4225.256348,4214.102539,4227.692383,4228.846191,4201.538574,4184.487305,4216.410156,4220.641113,2808.000000,4.000000,91.000000,,,,0.000000,4.000000,4.000000,4.000000,4.000000,4.000000,4.000000,4.000000,4.000000,4.000000,4.000000,4.000000,4.000000,4.000000,4.000000,100.000000,,,,,,,,,,,,,,,,
1645709912.355460,244.000000,0.000000,4219.102539,4218.333496,4215.384766,4229.871582,4218.077148,4233.077148,4225.897461,4215.641113,4228.846191,4233.974121,4205.512695,4186.410156,4216.794922,4225.256348,3274.000000,4.000000,91.000000,,,,0.000000,4.000000,4.000000,4.000000,4.000000,4.000000,4.000000,4.000000,4.000000,4.000000,4.000000,4.000000,4.000000,4.000000,4.000000,100.000000,,,,,,,,,,,,,,,,
1645709912.359400,245.000000,0.000000,4222.051270,4216.025879,4215.384766,4226.538574,4219.358887,4232.820313,4224.615234,4216.410156,4229.743652,4236.794922,4209.871582,4186.794922,4220.256348,4228.974121,2776.000000,4.000000,91.000000,,,,0.000000,4.000000,4.000000,4.000000,4.000000,4.000000,4.000000,4.000000,4.000000,4.000000,4.000000,4.000000,4.000000,4.000000,4.000000,100.000000,,,,,,,,,,,,,,,,
1645709912.363340,246.000000,0.000000,4225.897461,4216.282227,4217.692383,4221.153809,4221.153809,4232.820313,4223.333496,4216.666504,4230.512695,4236.410156,4213.717773,4186.282227,4226.282227,4230.512695,2115.000000,4.000000,91.000000,,,,0.000000,4.000000,4.000000,4.000000,4.000000,4.000000,4.000000,4.000000,4.000000,4.000000,4.000000,4.000000,4.000000,4.000000,4.000000,100.000000,,,,,,,,,,,,,,,,
1645709912.367281,247.000000,0.000000,4227.820313,4218.974121,4221.794922,4216.282227,4222.948730,4233.846191,4223.077148,4216.538574,4231.282227,4234.230957,4216.025879,4185.256348,4232.820313,4230.256348,2808.000000,4.000000,91.000000,,,,0.000000,4.000000,4.000000,4.000000,4.000000,4.000000,4.000000,4.000000,4.000000,4.000000,4.000000,4.000000,4.000000,4.000000,4.000000,100.000000,,,,,,,,,,,,,,,,
1645709912.371221,248.000000,0.000000,4227.948730,4222.179688,4226.153809,4213.717773,4223.077148,4234.871582,4223.974121,4216.282227,4232.563965,4232.307617,4217.563965,4184.615234,4237.179688,4230.256348,3274.000000,4.000000,91.000000,,,,0.000000,4.000000,4.000000,4.000000,4.000000,4.000000,4.000000,4.000000,4.000000,4.000000,4.000000,4.000000,4.000000,4.000000,4.000000,100.000000,,,,,,,,,,,,,,,,
1645709912.375161,249.000000,0.000000,4228.461426,4224.358887,4230.000000,4214.230957,4220.512695,4234.230957,4225.256348,4216.538574,4233.461426,4232.820313,4219.230957,4185.000000,4237.820313,4231.794922,2776.000000,4.000000,91.000000,,,,0.000000,4.000000,4.000000,4.000000,4.000000,4.000000,4.000000,4.000000,4.000000,4.000000,4.000000,4.000000,4.000000,4.000000,4.000000,100.000000,,,,,,,,,,,,,,,,
1645709912.379101,250.000000,0.000000,4230.256348,4225.128418,4232.436035,4217.692383,4216.282227,4231.794922,4226.153809,4217.820313,4233.205078,4235.641113,4222.179688,4187.051270,4235.256348,4233.717773,2115.000000,4.000000,91.000000,,,,0.000000,4.000000,4.000000,4.000000,4.000000,4.000000,4.000000,4.000000,4.000000,4.000000,4.000000,4.000000,4.000000,4.000000,4.000000,100.000000,,,,,,,,,,,,,,,,
1645709912.383041,251.000000,0.000000,4231.922852,4225.384766,4232.948730,4223.077148,4213.077148,4229.230957,4226.153809,4219.230957,4231.410156,4239.743652,4225.384766,4189.871582,4231.538574,4233.333496,2808.000000,4.000000,91.000000,,,,0.000000,4.000000,4.000000,4.000000,4.000000,4.000000,4.000000,4.000000,4.000000,4.000000,4.000000,4.000000,4.000000,4.000000,4.000000,100.000000,,,,,,,,,,,,,,,,
1645709912.386981,252.000000,0.000000,4231.153809,4224.615234,4230.897461,4227.692383,4213.205078,4228.333496,4224.743652,4218.717773,4229.358887,4242.307617,4226.538574,4191.282227,4228.461426,4229.230957,3274.000000,4.000000,91.000000,1,1,1,0.000000,4.000000,4.000000,4.000000,4.000000,4.000000,4.000000,4.000000,4.000000,4.000000,4.000000,4.000000,4.000000,4.000000,4.000000,100.000000,,,,,,,,,,,,,,,,
1645709912.390921,253.000000,0.000000,4227.563965,4222.179688,4226.794922,4228.717773,4215.897461,4229.102539,4221.922852,4215.256348,4227.436035,4240.641113,4223.077148,4188.974121,4226.410156,4222.436035,2776.000000,4.000000,91.000000,,,,0.000000,4.000000,4.000000,4.000000,4.000000,4.000000,4.000000,4.000000,4.000000,4.000000,4.000000,4.000000,4.000000,4.000000,4.000000,100.000000,,,,,,,,,,,,,,,,
1645709912.394861,254.000000,0.000000,4222.692383,4217.692383,4221.410156,4224.487305,4218.461426,4230.128418,4218.589844,4209.743652,4225.641113,4233.461426,4214.615234,4182.692383,4224.230957,4216.025879,2115.000000,4.000000,91.000000,,,,0.000000,4.000000,4.000000,4.000000,4.000000,4.000000,4.000000,4.000000,4.000000,4.000000,4.000000,4.000000,4.000000,4.000000,4.000000,100.000000,,,,,,,,,,,,,,,,
1645709912.398901,255.000000,0.000000,4218.717773,4213.461426,4216.666504,4216.538574,4218.974121,4230.512695,4216.410156,4205.000000,4223.077148,4222.820313,4203.205078,4174.358887,4221.025879,4212.692383,114.000000,4.000000,91.000000,,,,0.000000,4.000000,4.000000,4.000000,4.000000,4.000000,4.000000,4.000000,4.000000,4.000000,4.000000,4.000000,4.000000,4.000000,4.000000,100.000000,,,,,,,,,,,,,,,,
1645709912.402841,0.000000,0.000000,4216.666504,4212.307617,4213.974121,4209.358887,4217.820313,4230.256348,4216.794922,4203.589844,4220.384766,4213.333496,4193.589844,4167.563965,4217.179688,4212.948730,3276.000000,4.000000,91.000000,,,,0.000000,4.000000,4.000000,4.000000,4.000000,4.000000,4.000000,4.000000,4.000000,4.000000,4.000000,4.000000,4.000000,4.000000,4.000000,100.000000,,,,,,,,,,,,,,,,
1645709912.406781,1.000000,0.000000,4216.666504,4215.256348,4214.102539,4206.538574,4217.051270,4230.641113,4219.487305,4205.897461,4219.102539,4209.358887,4189.487305,4164.871582,4214.102539,4215.128418,3658.000000,4.000000,91.000000,,,,0.000000,4.000000,4.000000,4.000000,4.000000,4.000000,4.000000,4.000000,4.000000,4.000000,4.000000,4.000000,4.000000,4.000000,4.000000,100.000000,,,,,,,,,,,,,,,,
1645709912.410722,2.000000,0.000000,4218.717773,4219.615234,4216.025879,4208.846191,4217.179688,4231.410156,4223.077148,4210.256348,4219.615234,4211.410156,4191.410156,4166.025879,4212.692383,4216.794922,2435.000000,4.000000,91.000000,,,,0.000000,4.000000,4.000000,4.000000,4.000000,4.000000,4.000000,4.000000,4.000000,4.000000,4.000000,4.000000,4.000000,4.000000,4.000000,100.000000,,,,,,,,,,,,,,,,
1645709912.414662,3.000000,0.000000,4222.051270,4220.897461,4217.820313,4213.333496,4217.051270,4231.282227,4225.256348,4214.230957,4221.410156,4216.410156,4196.410156,4169.358887,4212.436035,4216.922852,3581.000000,4.000000,91.000000,,,,0.000000,4.000000,4.000000,4.000000,4.000000,4.000000,4.000000,4.000000,4.000000,4.000000,4.000000,4.000000,4.000000,4.000000,4.000000,100.000000,,,,,,,,,,,,,,,,
1645709912.418602,4.000000,0.000000,4224.615234,4217.179688,4217.948730,4216.538574,4214.871582,4229.358887,4224.743652,4216.153809,4223.333496,4220.384766,4200.128418,4172.436035,4212.563965,4216.025879,3416.000000,4.000000,91.000000,,,,0.000000,4.000000,4.000000,4.000000,4.000000,4.000000,4.000000,4.000000,4.000000,4.000000,4.000000,4.000000,4.000000,4.000000,4.000000,100.000000,,,,,,,,,,,,,,,,
1645709912.422542,5.000000,0.000000,4224.743652,4210.512695,4217.051270,4217.692383,4210.769043,4226.922852,4221.794922,4215.769043,4224.358887,4221.282227,4200.128418,4173.461426,4212.179688,4215.512695,3596.000000,4.000000,91.000000,,,,0.000000,4.000000,4.000000,4.000000,4.000000,4.000000,4.000000,4.000000,4.000000,4.000000,4.000000,4.000000,4.000000,4.000000,4.000000,100.000000,,,,,,,,,,,,,,,,
1645709912.426482,6.000000,0.000000,4223.333496,4205.641113,4216.153809,4218.461426,4206.666504,4225.512695,4217.692383,4214.102539,4224.358887,4220.000000,4197.051270,4172.051270,4211.410156,4216.025879,3130.000000,4.000000,91.000000,,,,0.000000,4.000000,4.000000,4.000000,4.000000,4.000000,4.000000,4.000000,4.000000,4.000000,4.000000,4.000000,4.000000,4.000000,4.000000,100.000000,,,,,,,,,,,,,,,,
1645709912.430422,7.000000,0.000000,4223.589844,4206.282227,4216.410156,4220.897461,4205.384766,4225.641113,4214.615234,4212.051270,4223.589844,4218.205078,4193.333496,4169.487305,4210.897461,4216.666504,1970.000000,4.000000,91.000000,,,,0.000000,4.000000,4.000000,4.000000,4.000000,4.000000,4.000000,4.000000,4.000000,4.000000,4.000000,4.000000,4.000000,4.000000,4.000000,100.000000,,,,,,,,,,,,,,,,
1645709912.434362,8.000000,0.000000,4227.692383,4212.179688,4217.692383,4224.102539,4208.205078,4226.410156,4213.589844,4210.897461,4222.563965,4216.794922,4191.666504,4167.948730,4211.153809,4216.282227,1398.000000,4.000000,91.000000,,,,0.000000,4.000000,4.000000,4.000000,4.000000,4.000000,4.000000,4.000000,4.000000,4.000000,4.000000,4.000000,4.000000,4.000000,4.000000,100.000000,,,,,,,,,,,,,,,,
1645709912.438302,9.000000,0.000000,4234.358887,4219.615234,4218.974121,4225.641113,4213.846191,4227.179688,4214.615234,4210.256348,4221.922852,4215.641113,4193.461426,4169.743652,4212.051270,4215.128418,2967.000000,4.000000,91.000000,,,,0.000000,4.000000,4.000000,4.000000,4.000000,4.000000,4.000000,4.000000,4.000000,4.000000,4.000000,4.000000,4.000000,4.000000,4.000000,100.000000,,,,,,,,,,,,,,,,
1645709912.442242,10.000000,0.000000,4239.230957,4225.897461,4219.487305,4223.589844,4219.871582,4227.948730,4215.641113,4208.717773,4221.666504,4214.871582,4197.820313,4174.102539,4213.461426,4215.000000,2279.000000,4.000000,91.000000,,,,0.000000,4.000000,4.000000,4.000000,4.000000,4.000000,4.000000,4.000000,4.000000,4.000000,4.000000,4.000000,4.000000,4.000000,4.000000,100.000000,,,,,,,,,,,,,,,,
1645709912.446183,11.000000,0.000000,4239.615234,4230.384766,4219.743652,4218.974121,4223.589844,4229.230957,4214.743652,4205.000000,4221.282227,4214.615234,4201.922852,4177.948730,4216.025879,4217.436035,2818.000000,4.000000,91.000000,,,,0.000000,4.000000,4.000000,4.000000,4.000000,4.000000,4.000000,4.000000,4.000000,4.000000,4.000000,4.000000,4.000000,4.000000,4.000000,100.000000,,,,,,,,,,,,,,,,
1645709912.450123,12.000000,0.000000,4236.922852,4234.230957,4220.641113,4215.128418,4224.102539,4230.512695,4212.307617,4200.512695,4219.743652,4215.512695,4202.692383,4179.615234,4219.358887,4221.538574,3201.000000,4.000000,91.000000,,,,0.000000,4.000000,4.000000,4.000000,4.000000,4.000000,4.000000,4.000000,4.000000,4.000000,4.000000,4.000000,4.000000,4.000000,4.000000,100.000000,,,,,,,,,,,,,,,,
1645709912.454063,13.000000,0.000000,4235.256348,4237.820313,4222.692383,4214.871582,4222.307617,4230.384766,4210.512695,4198.974121,4217.051270,4217.436035,4199.358887,4180.384766,4222.436035,4224.615234,2974.000000,4.000000,91.000000,,,,0.000000,4.000000,4.000000,4.000000,4.000000,4.000000,4.000000,4.000000,4.000000,4.000000,4.000000,4.000000,4.000000,4.000000,4.000000,100.000000,,,,,,,,,,,,,,,,
1645709912.458003,14.000000,0.000000,4237.179688,4240.000000,4225.384766,4219.230957,4219.230957,4228.461426,4211.666504,4202.307617,4214.615234,4219.743652,4194.487305,4182.179688,4223.717773,4224.871582,2279.000000,4.000000,91.000000,,,,0.000000,4.000000,4.000000,4.000000,4.000000,4.000000,4.000000,4.000000,4.000000,4.000000,4.000000,4.000000,4.000000,4.000000,4.000000,100.000000,,,,,,,,,,,,,,,,
1645709912.461943,15.000000,0.000000,4241.153809,4239.743652,4227.948730,4226.153809,4216.153809,4226.025879,4215.641113,4208.205078,4214.487305,4221.025879,4192.948730,4185.512695,4223.333496,4222.948730,2818.000000,4.000000,91.000000,,,,0.000000,4.000000,4.000000,4.000000,4.000000,4.000000,4.000000,4.000000,4.000000,4.000000,4.000000,4.000000,4.000000,4.000000,4.000000,100.000000,,,,,,,,,,,,,,,,
1645709912.465883,16.000000,0.000000,4244.230957,4236.538574,4230.128418,4233.205078,4213.846191,4225.000000,4219.358887,4212.820313,4216.666504,4221.153809,4197.307617,4189.230957,4222.692383,4221.538574,3201.000000,4.000000,91.000000,,,,0.000000,4.000000,4.000000,4.000000,4.000000,4.000000,4.000000,4.000000,4.000000,4.000000,4.000000,4.000000,4.000000,4.000000,4.000000,100.000000,,,,,,,,,,,,,,,,
1645709912.469723,17.000000,0.000000,4245.128418,4232.051270,4232.051270,4238.461426,4213.077148,4226.282227,4220.256348,4213.589844,4219.871582,4220.512695,4205.641113,4191.922852,4222.948730,4223.077148,2974.000000,4.000000,91.000000,,,,0.000000,4.000000,4.000000,4.000000,4.000000,4.000000,4.000000,4.000000,4.000000,4.000000,4.000000,4.000000,4.000000,4.000000,4.000000,100.000000,,,,,,,,,,,,,,,,
1645709912.473663,18.000000,0.000000,4245.256348,4229.230957,4233.333496,4241.410156,4213.717773,4228.461426,4218.077148,4211.282227,4221.794922,4220.128418,4212.820313,4193.589844,4223.846191,4227.820313,2279.000000,4.000000,91.000000,,,,0.000000,4.000000,4.000000,4.000000,4.000000,4.000000,4.000000,4.000000,4.000000,4.000000,4.000000,4.000000,4.000000,4.000000,4.000000,100.000000,,,,,,,,,,,,,,,,
1645709912.477603,19.000000,0.000000,4246.153809,4230.512695,4233.974121,4241.153809,4215.897461,4229.871582,4215.256348,4208.846191,4221.922852,4220.769043,4214.230957,4194.230957,4224.230957,4233.333496,2818.000000,4.000000,91.000000,2,1,1,0.000000,4.000000,4.000000,4.000000,4.000000,4.000000,4.000000,4.000000,4.000000,4.000000,4.000000,4.000000,4.000000,4.000000,4.000000,100.000000,,,,,,,,,,,,,,,,
1645709912.481544,20.000000,0.000000,4247.692383,4235.769043,4233.974121,4236.922852,4219.487305,4229.871582,4213.974121,4207.948730,4221.025879,4222.179688,4209.871582,4194.102539,4223.846191,4237.179688,3201.000000,4.000000,91.000000,,,,0.000000,4.000000,4.000000,4.000000,4.000000,4.000000,4.000000,4.000000,4.000000,4.000000,4.000000,4.000000,4.000000,4.000000,4.000000,100.000000,,,,,,,,,,,,,,,,
1645709912.485484,21.000000,0.000000,4248.461426,4242.307617,4233.589844,4229.102539,4223.077148,4228.846191,4215.128418,4207.948730,4219.743652,4223.717773,4203.846191,4193.205078,4223.077148,4237.436035,2974.000000,4.000000,91.000000,,,,0.000000,4.000000,4.000000,4.000000,4.000000,4.000000,4.000000,4.000000,4.000000,4.000000,4.000000,4.000000,4.000000,4.000000,4.000000,100.000000,,,,,,,,,,,,,,,,
1645709912.489424,22.000000,0.000000,4247.820313,4245.769043,4232.563965,4220.384766,4224.487305,4227.307617,4216.666504,4207.051270,4217.820313,4223.974121,4200.641113,4192.051270,4222.692383,4234.615234,2279.000000,4.000000,91.000000,,,,0.000000,4.000000,4.000000,4.000000,4.000000,4.000000,4.000000,4.000000,4.000000,4.000000,4.000000,4.000000,4.000000,4.000000,4.000000,100.000000,,,,,,,,,,,,,,,,
1645709912.493364,23.000000,0.000000,4246.410156,4242.948730,4230.512695,4215.000000,4223.077148,4225.769043,4216.794922,4204.871582,4215.256348,4222.179688,4201.153809,4191.153809,4223.077148,4230.641113,2818.000000,4.000000,91.000000,,,,0.000000,4.000000,4.000000,4.000000,4.000000,4.000000,4.000000,4.000000,4.000000,4.000000,4.000000,4.000000,4.000000,4.000000,4.000000,100.000000,,,,,,,,,,,,,,,,
1645709912.497304,24.000000,0.000000,4245.256348,4235.000000,4227.948730,4216.666504,4220.512695,4225.256348,4215.128418,4202.820313,4213.205078,4219.230957,4203.589844,4190.641113,4224.230957,4228.333496,3201.000000,4.000000,91.000000,,,,0.000000,4.000000,4.000000,4.000000,4.000000,4.000000,4.000000,4.000000,4.000000,4.000000,4.000000,4.000000,4.000000,4.000000,4.000000,100.000000,,,,,,,,,,,,,,,,
1645709912.501244,25.000000,0.000000,4244.615234,4226.282227,4225.897461,4226.153809,4219.102539,4226.666504,4213.717773,4202.692383,4212.948730,4216.922852,4205.256348,4189.487305,4225.769043,4228.461426,2974.000000,4.000000,91.000000,,,,0.000000,4.000000,4.000000,4.000000,4.000000,4.000000,4.000000,4.000000,4.000000,4.000000,4.000000,4.000000,4.000000,4.000000,4.000000,100.000000,,,,,,,,,,,,,,,,
1645709912.505184,26.000000,0.000000,4243.589844,4222.179688,4224.743652,4238.974121,4220.000000,4229.871582,4214.615234,4204.743652,4214.743652,4216.410156,4204.871582,4187.051270,4226.922852,4230.384766,2279.000000,4.000000,91.000000,,,,0.000000,4.000000,4.000000,4.000000,4.000000,4.000000,4.000000,4.000000,4.000000,4.000000,4.000000,4.000000,4.000000,4.000000,4.000000,100.000000,,,,,,,,,,,,,,,,
1645709912.509124,27.000000,0.000000,4242.692383,4224.358887,4224.487305,4247.692383,4221.666504,4233.589844,4217.563965,4207.692383,4217.051270,4217.051270,4202.436035,4184.102539,4226.666504,4231.538574,2818.000000,4.000000,91.000000,,,,0.000000,4.000000,4.000000,4.000000,4.000000,4.000000,4.000000,4.000000,4.000000,4.000000,4.000000,4.000000,4.000000,4.000000,4.000000,100.000000,,,,,,,,,,,,,,,,
1645709912.513064,28.000000,0.000000,4242.948730,4229.743652,4224.487305,4247.051270,4221.794922,4236.025879,4220.512695,4209.871582,4218.333496,4217.307617,4198.974121,4182.307617,4224.615234,4230.769043,3201.000000,4.000000,91.000000,,,,0.000000,4.000000,4.000000,4.000000,4.000000,4.000000,4.000000,4.000000,4.000000,4.000000,4.000000,4.000000,4.000000,4.000000,4.000000,100.000000,,,,,,,,,,,,,,,,
1645709912.517005,29.000000,0.000000,4245.000000,4234.102539,4224.358887,4239.102539,4220.128418,4236.666504,4221.794922,4210.256348,4217.436035,4216.282227,4196.282227,4182.820313,4221.025879,4229.230957,2974.000000,4.000000,91.000000,,,,0.000000,4.000000,4.000000,4.000000,4.000000,4.000000,4.000000,4.000000,4.000000,4.000000,4.000000,4.000000,4.000000,4.000000,4.000000,100.000000,,,,,,,,,,,,,,,,
1645709912.520945,30.000000,0.000000,4247.436035,4235.641113,4224.102539,4231.282227,4219.358887,4236.794922,4222.051270,4209.743652,4215.384766,4215.000000,4195.641113,4185.000000,4217.563965,4228.333496,2279.000000,4.000000,91.000000,,,,0.000000,4.000000,4.000000,4.000000,4.000000,4.000000,4.000000,4.000000,4.000000,4.000000,4.000000,4.000000,4.000000,4.000000,4.000000,100.000000,,,,,,,,,,,,,,,,
1645709912.524885,31.000000,0.000000,4247.820313,4236.025879,4223.846191,4229.615234,4222.436035,4238.461426,4222.820313,4210.256348,4214.358887,4215.256348,4197.179688,4186.410156,4216.153809,4228.077148,2818.000000,4.000000,91.000000,,,,0.000000,4.000000,4.000000,4.000000,4.000000,4.000000,4.000000,4.000000,4.000000,4.000000,4.000000,4.000000,4.000000,4.000000,4.000000,100.000000,,,,,,,,,,,,,,,,
1645709912.528825,32.000000,0.000000,4245.897461,4237.179688,4224.102539,4233.333496,4228.846191,4242.179688,4225.256348,4212.948730,4216.153809,4217.692383,4199.615234,4185.384766,4217.563965,4227.179688,0.000000,4.000000,91.000000,,,,0.000000,4.000000,4.000000,4.000000,4.000000,4.000000,4.000000,4.000000,4.000000,4.000000,4.000000,4.000000,4.000000,4.000000,4.000000,100.000000,,,,,,,,,,,,,,,,
1645709912.532765,33.000000,0.000000,4243.974121,4239.358887,4225.000000,4235.897461,4234.743652,4246.922852,4228.589844,4217.051270,4220.384766,4220.128418,4201.410156,4183.077148,4220.256348,4225.256348,0.000000,4.000000,91.000000,,,,0.000000,4.000000,4.000000,4.000000,4.000000,4.000000,4.000000,4.000000,4.000000,4.000000,4.000000,4.000000,4.000000,4.000000,4.000000,100.000000,,,,,,,,,,,,,,,,
1645709912.536705,34.000000,0.000000,4244.615234,4240.897461,4226.538574,4232.563965,4236.794922,4250.256348,4231.153809,4219.615234,4223.717773,4220.769043,4201.794922,4181.922852,4222.307617,4223.205078,0.000000,4.000000,91.000000,,,,0.000000,4.000000,4.000000,4.000000,4.000000,4.000000,4.000000,4.000000,4.000000,4.000000,4.000000,4.000000,4.000000,4.000000,4.000000,100.000000,,,,,,,,,,,,,,,,
1645709912.540545,35.000000,0.000000,4247.948730,4240.128418,4228.333496,4225.641113,4234.615234,4251.410156,4232.051270,4219.102539,4224.358887,4220.000000,4201.794922,4184.230957,4222.948730,4222.051270,0.000000,4.000000,91.000000,,,,0.000000,4.000000,4.000000,4.000000,4.000000,4.000000,4.000000,4.000000,4.000000,4.000000,4.000000,4.000000,4.000000,4.000000,4.000000,100.000000,,,,,,,,,,,,,,,,
1645709912.544485,36.000000,0.000000,4251.153809,4236.666504,4230.000000,4221.410156,4230.512695,4250.641113,4231.794922,4216.538574,4222.820313,4220.384766,4203.333496,4189.871582,4223.077148,4221.666504,0.000000,4.000000,91.000000,,,,0.000000,4.000000,4.000000,4.000000,4.000000,4.000000,4.000000,4.000000,4.000000,4.000000,4.000000,4.000000,4.000000,4.000000,4.000000,100.000000,,,,,,,,,,,,,,,,
1645709912.548425,37.000000,0.000000,4252.307617,4232.051270,4230.769043,4224.230957,4226.410156,4248.717773,4231.410156,4215.256348,4222.179688,4223.846191,4206.282227,4196.282227,4223.333496,4221.282227,0.000000,4.000000,91.000000,,,,0.000000,4.000000,4.000000,4.000000,4.000000,4.000000,4.000000,4.000000,4.000000,4.000000,4.000000,4.000000,4.000000,4.000000,4.000000,100.000000,,,,,,,,,,,,,,,,
1645709912.552366,38.000000,0.000000,4252.051270,4227.820313,4229.487305,4231.922852,4223.077148,4246.282227,4231.410156,4216.538574,4223.846191,4228.974121,4208.333496,4199.615234,4223.846191,4220.641113,0.000000,4.000000,91.000000,,,,0.000000,4.000000,4.000000,4.000000,4.000000,4.000000,4.000000,4.000000,4.000000,4.000000,4.000000,4.000000,4.000000,4.000000,4.000000,100.000000,,,,,,,,,,,,,,,,
1645709912.556306,39.000000,0.000000,4252.307617,4225.384766,4226.410156,4238.205078,4220.128418,4244.230957,4231.410156,4219.230957,4226.282227,4233.077148,4207.436035,4198.205078,4223.974121,4220.000000,0.000000,4.000000,91.000000,,,,0.000000,4.000000,4.000000,4.000000,4.000000,4.000000,4.000000,4.000000,4.000000,4.000000,4.000000,4.000000,4.000000,4.000000,4.000000,100.000000,,,,,,,,,,,,,,,,
1645709912.560246,40.000000,0.000000,4253.461426,4224.871582,4223.461426,4239.487305,4218.205078,4243.333496,4230.769043,4220.769043,4227.179688,4233.974121,4203.589844,4192.948730,4223.333496,4219.871582,0.000000,4.000000,91.000000,,,,0.000000,4.000000,4.000000,4.000000,4.000000,4.000000,4.000000,4.000000,4.000000,4.000000,4.000000,4.000000,4.000000,4.000000,4.000000,100.000000,,,,,,,,,,,,,,,,
1645709912.564186,41.000000,0.000000,4253.974121,4226.025879,4221.794922,4236.538574,4218.205078,4243.589844,4229.743652,4219.871582,4225.641113,4232.051270,4199.487305,4186.666504,4222.051270,4220.384766,0.000000,4.000000,91.000000,,,,0.000000,4.000000,4.000000,4.000000,4.000000,4.000000,4.000000,4.000000,4.000000,4.000000,4.000000,4.000000,4.000000,4.000000,4.000000,100.000000,,,,,,,,,,,,,,,,
1645709912.568126,42.000000,0.000000,4252.436035,4227.563965,4221.153809,4231.922852,4220.128418,4244.102539,4228.077148,4217.179688,4222.948730,4229.230957,4197.307617,4181.922852,4220.641113,4221.153809,0.000000,4.000000,91.000000,,,,0.000000,4.000000,4.000000,4.000000,4.000000,4.000000,4.000000,4.000000,4.000000,4.000000,4.000000,4.000000,4.000000,4.000000,4.000000,100.000000,,,,,,,,,,,,,,,,
1645709912.572066,43.000000,0.000000,4249.358887,4228.077148,4219.871582,4226.794922,4221.794922,4242.692383,4225.384766,4215.128418,4221.282227,4226.666504,4197.307617,4179.615234,4219.487305,4221.153809,0.000000,4.000000,91.000000,,,,0.000000,4.000000,4.000000,4.000000,4.000000,4.000000,4.000000,4.000000,4.000000,4.000000,4.000000,4.000000,4.000000,4.000000,4.000000,100.000000,,,,,,,,,,,,,,,,
1645709912.576006,44.000000,0.000000,4246.282227,4226.666504,4216.666504,4219.871582,4220.384766,4238.589844,4221.794922,4215.000000,4221.794922,4224.615234,4197.307617,4179.358887,4218.717773,4219.487305,0.000000,4.000000,91.000000,,,,0.000000,4.000000,4.000000,4.000000,4.000000,4.000000,4.000000,4.000000,4.000000,4.000000,4.000000,4.000000,4.000000,4.000000,4.000000,100.000000,,,,,,,,,,,,,,,,
1645709912.579946,45.000000,0.000000,4243.717773,4223.846191,4212.563965,4212.051270,4215.512695,4233.077148,4217.820313,4215.769043,4223.717773,4222.820313,4196.153809,4179.487305,4218.333496,4217.179688,0.000000,4.000000,91.000000,,,,0.000000,4.000000,4.000000,4.000000,4.000000,4.000000,4.000000,4.000000,4.000000,4.000000,4.000000,4.000000,4.000000,4.000000,4.000000,100.000000,,,,,,,,,,,,,,,,
1645709912.583886,46.000000,0.000000,4241.794922,4221.538574,4209.230957,4206.666504,4210.897461,4228.846191,4214.230957,4215.512695,4224.743652,4221.410156,4193.974121,4178.589844,4217.948730,4215.769043,0.000000,4.000000,91.000000,,,,0.000000,4.000000,4.000000,4.000000,4.000000,4.000000,4.000000,4.000000,4.000000,4.000000,4.000000,4.000000,4.000000,4.000000,4.000000,100.000000,,,,,,,,,,,,,,,,
1645709912.587827,47.000000,0.000000,4240.769043,4221.282227,4208.205078,4207.692383,4210.897461,4227.820313,4211.410156,4213.205078,4223.717773,4220.128418,4192.307617,4176.282227,4216.922852,4216.153809,0.000000,4.000000,91.000000,,,,0.000000,4.000000,4.000000,4.000000,4.000000,4.000000,4.000000,4.000000,4.000000,4.000000,4.000000,4.000000,4.000000,4.000000,4.000000,100.000000,,,,,,,,,,,,,,,,
1645709912.591767,48.000000,0.000000,4241.666504,4223.077148,4208.589844,4215.000000,4215.512695,4229.230957,4210.256348,4209.615234,4220.512695,4218.589844,4191.538574,4173.589844,4215.128418,4217.820313,0.000000,4.000000,91.000000,,,,0.000000,4.000000,4.000000,4.000000,4.000000,4.000000,4.000000,4.000000,4.000000,4.000000,4.000000,4.000000,4.000000,4.000000,4.000000,100.000000,,,,,,,,,,,,,,,,
1645709912.595707,49.000000,0.000000,4244.358887,4225.512695,4208.589844,4224.615234,4220.641113,4231.025879,4211.153809,4206.538574,4216.410156,4216.794922,4191.538574,4172.692383,4213.205078,4219.871582,0.000000,4.000000,91.000000,,,,0.000000,4.000000,4.000000,4.000000,4.000000,4.000000,4.000000,4.000000,4.000000,4.000000,4.000000,4.000000,4.000000,4.000000,4.000000,100.000000,,,,,,,,,,,,,,,,
1645709912.599647,50.000000,0.000000,4246.538574,4226.922852,4207.307617,4230.769043,4222.179688,4232.436035,4214.102539,4205.897461,4213.589844,4215.897461,4192.179688,4174.615234,4212.307617,4221.410156,0.000000,4.000000,91.000000,,,,0.000000,4.000000,4.000000,4.000000,4.000000,4.000000,4.000000,4.000000,4.000000,4.000000,4.000000,4.000000,4.000000,4.000000,4.000000,100.000000,,,,,,,,,,,,,,,,
1645709912.603587,51.000000,0.000000,4246.282227,4226.666504,4205.384766,4230.256348,4220.000000,4233.846191,4217.307617,4208.333496,4213.846191,4217.307617,4194.102539,4177.563965,4213.846191,4222.436035,0.000000,4.000000,91.000000,,,,0.000000,4.000000,4.000000,4.000000,4.000000,4.000000,4.000000,4.000000,4.000000,4.000000,4.000000,4.000000,4.000000,4.000000,4.000000,100.000000,,,,,,,,,,,,,,,,
1645709912.607527,52.000000,0.000000,4244.102539,4225.512695,4205.128418,4224.358887,4216.794922,4235.769043,4218.717773,4212.820313,4217.436035,4220.897461,4197.563965,4179.487305,4217.563965,4223.077148,0.000000,4.000000,91.000000,,,,0.000000,4.000000,4.000000,4.000000,4.000000,4.000000,4.000000,4.000000,4.000000,4.000000,4.000000,4.000000,4.000000,4.000000,4.000000,100.000000,,,,,,,,,,,,,,,,
1645709912.611467,53.000000,0.000000,4242.820313,4224.615234,4207.563965,4217.692383,4215.769043,4237.948730,4217.692383,4217.051270,4222.051270,4224.871582,4200.897461,4179.230957,4221.153809,4223.717773,0.000000,4.000000,91.000000,,,,0.000000,4.000000,4.000000,4.000000,4.000000,4.000000,4.000000,4.000000,4.000000,4.000000,4.000000,4.000000,4.000000,4.000000,4.000000,100.000000,,,,,,,,,,,,,,,,
1645709912.615307,54.000000,0.000000,4244.230957,4225.000000,4212.051270,4214.871582,4217.948730,4239.358887,4215.512695,4219.358887,4225.256348,4227.563965,4201.922852,4178.077148,4221.794922,4223.717773,0.000000,4.000000,91.000000,,,,0.000000,4.000000,4.000000,4.000000,4.000000,4.000000,4.000000,4.000000,4.000000,4.000000,4.000000,4.000000,4.000000,4.000000,4.000000,100.000000,,,,,,,,,,,,,,,,
1645709912.619247,55.000000,0.000000,4247.179688,4226.922852,4215.641113,4216.794922,4222.307617,4239.871582,4214.615234,4220.128418,4226.538574,4228.846191,4199.871582,4176.922852,4219.102539,4222.179688,0.000000,4.000000,91.000000,,,,0.000000,4.000000,4.000000,4.000000,4.000000,4.000000,4.000000,4.000000,4.000000,4.000000,4.000000,4.000000,4.000000,4.000000,4.000000,100.000000,,,,,,,,,,,,,,,,
1645709912.623188,56.000000,0.000000,4248.717773,4229.871582,4215.641113,4221.025879,4226.794922,4239.487305,4216.025879,4220.000000,4227.051270,4229.871582,4196.666504,4176.794922,4215.000000,4219.615234,0.000000,4.000000,91.000000,,,,0.000000,4.000000,4.000000,4.000000,4.000000,4.000000,4.000000,4.000000,4.000000,4.000000,4.000000,4.000000,4.000000,4.000000,4.000000,100.000000,,,,,,,,,,,,,,,,
1645709912.627128,57.000000,0.000000,4247.563965,4232.307617,4211.282227,4223.846191,4229.615234,4238.333496,4218.461426,4219.358887,4227.563965,4231.282227,4195.897461,4177.307617,4212.436035,4216.922852,0.000000,4.000000,91.000000,,,,0.000000,4.000000,4.000000,4.000000,4.000000,4.000000,4.000000,4.000000,4.000000,4.000000,4.000000,4.000000,4.000000,4.000000,4.000000,100.000000,,,,,,,,,,,,,,,,
1645709912.631068,58.000000,0.000000,4244.871582,4232.820313,4205.384766,4223.589844,4229.358887,4236.282227,4219.487305,4217.820313,4227.307617,4231.282227,4197.820313,4177.820313,4212.820313,4215.128418,0.000000,4.000000,91.000000,,,,0.000000,4.000000,4.000000,4.000000,4.000000,4.000000,4.000000,4.000000,4.000000,4.000000,4.000000,4.000000,4.000000,4.000000,4.000000,100.000000,,,,,,,,,,,,,,,,
1645709912.635008,59.000000,0.000000,4242.692383,4230.512695,4201.153809,4220.897461,4225.897461,4232.948730,4217.436035,4215.512695,4225.769043,4227.563965,4199.743652,4177.051270,4214.358887,4214.487305,0.000000,4.000000,91.000000,,,,0.000000,4.000000,4.000000,4.000000,4.000000,4.000000,4.000000,4.000000,4.000000,4.000000,4.000000,4.000000,4.000000,4.000000,4.000000,100.000000,,,,,,,,,,,,,,,,
1645709912.638948,60.000000,0.000000,4241.282227,4226.025879,4200.128418,4217.436035,4220.512695,4229.230957,4213.205078,4213.461426,4223.461426,4220.897461,4197.692383,4174.230957,4215.128418,4214.358887,0.000000,4.000000,91.000000,,,,0.000000,4.000000,4.000000,4.000000,4.000000,4.000000,4.000000,4.000000,4.000000,4.000000,4.000000,4.000000,4.000000,4.000000,4.000000,100.000000,,,,,,,,,,,,,,,,
1645709912.642888,61.000000,0.000000,4239.743652,4221.282227,4201.025879,4215.128418,4215.512695,4227.051270,4209.615234,4212.179688,4221.025879,4214.102539,4191.282227,4169.615234,4214.358887,4214.487305,0.000000,4.000000,91.000000,,,,0.000000,4.000000,4.000000,4.000000,4.000000,4.000000,4.000000,4.000000,4.000000,4.000000,4.000000,4.000000,4.000000,4.000000,4.000000,100.000000,,,,,,,,,,,,,,,,
1645709912.646828,62.000000,0.000000,4237.948730,4218.589844,4201.794922,4214.102539,4213.461426,4228.205078,4209.102539,4211.794922,4218.974121,4210.384766,4183.717773,4165.256348,4213.205078,4214.230957,0.000000,4.000000,91.000000,,,,0.000000,4.000000,4.000000,4.000000,4.000000,4.000000,4.000000,4.000000,4.000000,4.000000,4.000000,4.000000,4.000000,4.000000,4.000000,100.000000,,,,,,,,,,,,,,,,
1645709912.650768,63.000000,0.000000,4237.051270,4218.974121,4201.282227,4213.717773,4214.871582,4232.436035,4212.179688,4211.666504,4217.179688,4210.000000,4179.358887,4163.589844,4212.820313,4212.820313,0.000000,4.000000,91.000000,,,,0.000000,4.000000,4.000000,4.000000,4.000000,4.000000,4.000000,4.000000,4.000000,4.000000,4.000000,4.000000,4.000000,4.000000,4.000000,100.000000,,,,,,,,,,,,,,,,
1645709912.654708,64.000000,0.000000,4238.461426,4221.922852,4200.769043,4213.589844,4218.461426,4237.436035,4216.922852,4210.897461,4216.153809,4210.128418,4179.615234,4165.384766,4212.820313,4210.384766,0.000000,4.000000,91.000000,,,,0.000000,4.000000,4.000000,4.000000,4.000000,4.000000,4.000000,4.000000,4.000000,4.000000,4.000000,4.000000,4.000000,4.000000,4.000000,100.000000,,,,,,,,,,,,,,,,
1645709912.658649,65.000000,0.000000,4241.922852,4225.769043,4201.153809,4214.230957,4222.948730,4240.512695,4219.871582,4208.974121,4216.538574,4208.846191,4182.820313,4169.487305,4212.563965,4208.589844,0.000000,4.000000,91.000000,,,,0.000000,4.000000,4.000000,4.000000,4.000000,4.000000,4.000000,4.000000,4.000000,4.000000,4.000000,4.000000,4.000000,4.000000,4.000000,100.000000,,,,,,,,,,,,,,,,
1645709912.662589,66.000000,0.000000,4245.128418,4229.102539,4202.820313,4216.410156,4227.307617,4240.641113,4219.102539,4206.025879,4217.948730,4206.794922,4185.641113,4173.589844,4211.794922,4209.487305,0.000000,4.000000,91.000000,,,,0.000000,4.000000,4.000000,4.000000,4.000000,4.000000,4.000000,4.000000,4.000000,4.000000,4.000000,4.000000,4.000000,4.000000,4.000000,100.000000,,,,,,,,,,,,,,,,
1645709912.666529,67.000000,0.000000,4246.153809,4230.641113,4204.487305,4219.615234,4230.512695,4238.589844,4215.256348,4203.077148,4219.487305,4206.410156,4186.282227,4175.897461,4211.282227,4212.436035,0.000000,4.000000,91.000000,,,,0.000000,4.000000,4.000000,4.000000,4.000000,4.000000,4.000000,4.000000,4.000000,4.000000,4.000000,4.000000,4.000000,4.000000,4.000000,100.000000,,,,,,,,,,,,,,,,
1645709912.670469,68.000000,0.000000,4244.358887,4229.743652,4204.871582,4222.820313,4230.897461,4235.897461,4210.641113,4201.666504,4219.743652,4208.077148,4184.102539,4176.025879,4211.666504,4215.128418,0.000000,4.000000,91.000000,,,,0.000000,4.000000,4.000000,4.000000,4.000000,4.000000,4.000000,4.000000,4.000000,4.000000,4.000000,4.000000,4.000000,4.000000,4.000000,100.000000,,,,,,,,,,,,,,,,
1645709912.674409,69.000000,0.000000,4241.666504,4226.922852,4203.846191,4224.743652,4228.589844,4233.717773,4208.333496,4201.922852,4218.205078,4209.871582,4179.743652,4174.743652,4211.922852,4215.000000,0.000000,4.000000,91.000000,,,,0.000000,4.000000,4.000000,4.000000,4.000000,4.000000,4.000000,4.000000,4.000000,4.000000,4.000000,4.000000,4.000000,4.000000,4.000000,100.000000,,,,,,,,,,,,,,,,
1645709912.678349,70.000000,0.000000,4239.358887,4223.077148,4202.563965,4224.615234,4225.384766,4233.205078,4209.358887,4203.077148,4215.897461,4208.974121,4175.000000,4173.333496,4211.153809,4211.538574,0.000000,4.000000,91.000000,,,,0.000000,4.000000,4.000000,4.000000,4.000000,4.000000,4.000000,4.000000,4.000000,4.000000,4.000000,4.000000,4.000000,4.000000,4.000000,100.000000,,,,,,,,,,,,,,,,
1645709912.682289,71.000000,0.000000,4237.820313,4220.128418,4202.436035,4222.820313,4223.461426,4234.743652,4212.692383,4203.589844,4214.487305,4205.769043,4172.692383,4172.692383,4210.000000,4206.538574,0.000000,4.000000,91.000000,,,,0.000000,4.000000,4.000000,4.000000,4.000000,4.000000,4.000000,4.000000,4.000000,4.000000,4.000000,4.000000,4.000000,4.000000,4.000000,100.000000,,,,,,,,,,,,,,,,
1645709912.686229,72.000000,0.000000,4237.051270,4218.974121,4204.487305,4220.000000,4223.461426,4237.820313,4216.282227,4202.563965,4214.871582,4203.205078,4174.230957,4173.589844,4209.871582,4203.077148,0.000000,4.000000,91.000000,,,,0.000000,4.000000,4.000000,4.000000,4.000000,4.000000,4.000000,4.000000,4.000000,4.000000,4.000000,4.000000,4.000000,4.000000,4.000000,100.000000,,,,,,,,,,,,,,,,
1645709912.690069,73.000000,0.000000,4237.948730,4219.487305,4208.461426,4217.436035,4224.743652,4241.282227,4218.589844,4200.512695,4216.282227,4204.230957,4179.102539,4177.051270,4211.922852,4204.102539,0.000000,4.000000,91.000000,,,,0.000000,4.000000,4.000000,4.000000,4.000000,4.000000,4.000000,4.000000,4.000000,4.000000,4.000000,4.000000,4.000000,4.000000,4.000000,100.000000,,,,,,,,,,,,,,,,
1645709912.694010,74.000000,0.000000,4241.666504,4220.512695,4213.589844,4216.538574,4226.153809,4243.205078,4219.358887,4199.615234,4217.820313,4208.589844,4184.871582,4182.820313,4216.025879,4209.743652,0.000000,4.000000,91.000000,,,,0.000000,4.000000,4.000000,4.000000,4.000000,4.000000,4.000000,4.000000,4.000000,4.000000,4.000000,4.000000,4.000000,4.000000,4.000000,100.000000,,,,,,,,,,,,,,,,
1645709912.697950,75.000000,0.000000,4248.077148,4222.179688,4218.461426,4218.461426,4227.179688,4242.436035,4219.230957,4201.410156,4219.102539,4213.974121,4189.230957,4188.589844,4220.769043,4217.692383,0.000000,4.000000,91.000000,,,,0.000000,4.000000,4.000000,4.000000,4.000000,4.000000,4.000000,4.000000,4.000000,4.000000,4.000000,4.000000,4.000000,4.000000,4.000000,100.000000,,,,,,,,,,,,,,,,
1645709912.701890,76.000000,0.000000,4253.974121,4225.128418,4221.794922,4223.205078,4228.333496,4239.358887,4218.846191,4205.384766,4220.384766,4218.589844,4191.538574,4192.179688,4224.358887,4223.717773,0.000000,4.000000,91.000000,,,,0.000000,4.000000,4.000000,4.000000,4.000000,4.000000,4.000000,4.000000,4.000000,4.000000,4.000000,4.000000,4.000000,4.000000,4.000000,100.000000,,,,,,,,,,,,,,,,
1645709912.705830,77.000000,0.000000,4256.538574,4229.230957,4222.692383,4229.615234,4229.871582,4235.641113,4218.333496,4209.487305,4221.282227,4221.282227,4192.179688,4193.205078,4225.000000,4224.871582,0.000000,4.000000,91.000000,,,,0.000000,4.000000,4.000000,4.000000,4.000000,4.000000,4.000000,4.000000,4.000000,4.000000,4.000000,4.000000,4.000000,4.000000,4.000000,100.000000,,,,,,,,,,,,,,,,
1645709912.709770,78.000000,0.000000,4255.000000,4231.794922,4221.410156,4234.743652,4231.282227,4232.820313,4217.563965,4212.179688,4221.538574,4221.666504,4191.153809,4192.179688,4222.051270,4220.769043,0.000000,4.000000,91.000000,,,,0.000000,4.000000,4.000000,4.000000,4.000000,4.000000,4.000000,4.000000,4.000000,4.000000,4.000000,4.000000,4.000000,4.000000,4.000000,100.000000,,,,,,,,,,,,,,,,
1645709912.713710,79.000000,0.000000,4252.051270,4230.384766,4219.102539,4235.769043,4231.025879,4232.051270,4216.410156,4213.333496,4220.769043,4219.743652,4188.717773,4190.000000,4217.563965,4214.743652,0.000000,4.000000,91.000000,,,,0.000000,4.000000,4.000000,4.000000,4.000000,4.000000,4.000000,4.000000,4.000000,4.000000,4.000000,4.000000,4.000000,4.000000,4.000000,100.000000,,,,,,,,,,,,,,,,
1645709912.717650,80.000000,0.000000,4250.769043,4225.769043,4217.436035,4232.051270,4228.077148,4233.333496,4215.128418,4213.461426,4218.974121,4216.410156,4186.282227,4187.692383,4214.487305,4211.794922,0.000000,4.000000,91.000000,,,,0.000000,4.000000,4.000000,4.000000,4.000000,4.000000,4.000000,4.000000,4.000000,4.000000,4.000000,4.000000,4.000000,4.000000,4.000000,100.000000,,,,,,,,,,,,,,,,
1645709912.721590,81.000000,0.000000,4251.666504,4222.051270,4217.307617,4226.025879,4223.205078,4236.410156,4215.128418,4213.589844,4217.179688,4213.846191,4185.512695,4185.897461,4215.256348,4214.102539,0.000000,4.000000,91.000000,,,,0.000000,4.000000,4.000000,4.000000,4.000000,4.000000,4.000000,4.000000,4.000000,4.000000,4.000000,4.000000,4.000000,4.000000,4.000000,100.000000,,,,,,,,,,,,,,,,
1645709912.725530,82.000000,0.000000,4253.205078,4222.692383,4218.589844,4221.410156,4219.102539,4240.000000,4217.179688,4214.615234,4216.922852,4213.333496,4187.179688,4185.000000,4219.230957,4219.487305,0.000000,4.000000,91.000000,,,,0.000000,4.000000,4.000000,4.000000,4.000000,4.000000,4.000000,4.000000,4.000000,4.000000,4.000000,4.000000,4.000000,4.000000,4.000000,100.000000,,,,,,,,,,,,,,,,
1645709912.729471,83.000000,0.000000,4253.846191,4227.307617,4219.743652,4220.384766,4217.563965,4241.922852,4220.000000,4216.538574,4219.102539,4215.128418,4188.974121,4185.000000,4222.948730,4223.461426,0.000000,4.000000,91.000000,,,,0.000000,4.000000,4.000000,4.000000,4.000000,4.000000,4.000000,4.000000,4.000000,4.000000,4.000000,4.000000,4.000000,4.000000,4.000000,100.000000,,,,,,,,,,,,,,,,
1645709912.733411,84.000000,0.000000,4253.974121,4231.922852,4219.615234,4221.922852,4218.589844,4240.512695,4221.410156,4218.333496,4222.948730,4218.205078,4187.820313,4185.897461,4223.205078,4223.846191,0.000000,4.000000,91.000000,,,,0.000000,4.000000,4.000000,4.000000,4.000000,4.000000,4.000000,4.000000,4.000000,4.000000,4.000000,4.000000,4.000000,4.000000,4.000000,100.000000,,,,,,,,,,,,,,,,
1645709912.737351,85.000000,0.000000,4254.230957,4232.692383,4218.589844,4222.948730,4220.384766,4236.666504,4220.512695,4218.974121,4225.769043,4220.512695,4183.205078,4187.307617,4219.615234,4221.538574,0.000000,4.000000,91.000000,,,,0.000000,4.000000,4.000000,4.000000,4.000000,4.000000,4.000000,4.000000,4.000000,4.000000,4.000000,4.000000,4.000000,4.000000,4.000000,100.000000,,,,,,,,,,,,,,,,
1645709912.741291,86.000000,0.000000,4254.102539,4228.974121,4217.307617,4222.307617,4221.794922,4233.205078,4219.230957,4217.948730,4225.512695,4221.282227,4177.692383,4187.820313,4214.615234,4218.846191,0.000000,4.000000,91.000000,,,,0.000000,4.000000,4.000000,4.000000,4.000000,4.000000,4.000000,4.000000,4.000000,4.000000,4.000000,4.000000,4.000000,4.000000,4.000000,100.000000,1.000000,100.000000,4.000000,4.000000,4.000000,4.000000,4.000000,4.000000,4.000000,4.000000,4.000000,4.000000,4.000000,4.000000,4.000000,4.000000
1645709912.745231,87.000000,0.000000,4252.307617,4223.461426,4216.282227,4220.897461,4222.436035,4232.563965,4219.871582,4216.282227,4222.820313,4220.769043,4174.358887,4186.538574,4211.410156,4216.666504,0.000000,4.000000,91.000000,,,,0.000000,4.000000,4.000000,4.000000,4.000000,4.000000,4.000000,4.000000,4.000000,4.000000,4.000000,4.000000,4.000000,4.000000,4.000000,100.000000,,,,,,,,,,,,,,,,
1645709912.749171,88.000000,0.000000,4248.974121,4219.487305,4215.000000,4219.743652,4223.077148,4234.871582,4222.948730,4215.128418,4220.128418,4219.615234,4174.871582,4183.077148,4210.512695,4214.102539,0.000000,4.000000,91.000000,,,,0.000000,4.000000,4.000000,4.000000,4.000000,4.000000,4.000000,4.000000,4.000000,4.000000,4.000000,4.000000,4.000000,4.000000,4.000000,100.000000,,,,,,,,,,,,,,,,
1645709912.753111,89.000000,0.000000,4245.256348,4218.205078,4212.692383,4218.846191,4223.589844,4237.436035,4226.922852,4215.897461,4220.256348,4218.589844,4177.563965,4178.717773,4211.153809,4210.384766,0.000000,4.000000,91.000000,,,,0.000000,4.000000,4.000000,4.000000,4.000000,4.000000,4.000000,4.000000,4.000000,4.000000,4.000000,4.000000,4.000000,4.000000,4.000000,100.000000,,,,,,,,,,,,,,,,
1645709912.757151,90.000000,0.000000,4243.077148,4219.230957,4210.641113,4216.794922,4223.077148,4238.461426,4229.615234,4218.846191,4223.717773,4218.589844,4180.000000,4175.256348,4212.051270,4206.538574,0.000000,4.000000,91.000000,,,,0.000000,4.000000,4.000000,4.000000,4.000000,4.000000,4.000000,4.000000,4.000000,4.000000,4.000000,4.000000,4.000000,4.000000,4.000000,100.000000,,,,,,,,,,,,,,,,
1645709912.761091,91.000000,0.000000,4242.436035,4221.282227,4210.384766,4214.102539,4221.666504,4238.077148,4230.641113,4222.820313,4229.230957,4220.384766,4181.282227,4173.846191,4213.077148,4204.487305,0.000000,4.000000,91.000000,,,,0.000000,4.000000,4.000000,4.000000,4.000000,4.000000,4.000000,4.000000,4.000000,4.000000,4.000000,4.000000,4.000000,4.000000,4.000000,100.000000,,,,,,,,,,,,,,,,
1645709912.765031,92.000000,0.000000,4242.563965,4223.205078,4212.820313,4212.948730,4220.641113,4238.205078,4231.153809,4225.384766,4233.974121,4224.358887,4181.666504,4175.000000,4214.487305,4205.641113,0.000000,4.000000,91.000000,,,,0.000000,4.000000,4.000000,4.000000,4.000000,4.000000,4.000000,4.000000,4.000000,4.000000,4.000000,4.000000,4.000000,4.000000,4.000000,100.000000,,,,,,,,,,,,,,,,
1645709912.768971,93.000000,0.000000,4242.948730,4224.743652,4216.794922,4215.000000,4221.538574,4239.487305,4231.410156,4225.256348,4235.897461,4229.230957,4181.666504,4178.077148,4215.641113,4209.871582,0.000000,4.000000,91.000000,,,,0.000000,4.000000,4.000000,4.000000,4.000000,4.000000,4.000000,4.000000,4.000000,4.000000,4.000000,4.000000,4.000000,4.000000,4.000000,100.000000,,,,,,,,,,,,,,,,
1645709912.772912,94.000000,0.000000,4244.230957,4225.256348,4220.256348,4219.743652,4223.846191,4240.769043,4230.641113,4223.205078,4234.871582,4232.563965,4181.153809,4181.538574,4215.641113,4214.743652,0.000000,4.000000,91.000000,,,,0.000000,4.000000,4.000000,4.000000,4.000000,4.000000,4.000000,4.000000,4.000000,4.000000,4.000000,4.000000,4.000000,4.000000,4.000000,100.000000,,,,,,,,,,,,,,,,
1645709912.776852,95.000000,0.000000,4247.051270,4224.615234,4222.179688,4224.358887,4226.282227,4240.384766,4227.948730,4221.153809,4232.179688,4232.692383,4181.282227,4183.974121,4213.846191,4217.692383,0.000000,4.000000,91.000000,,,,0.000000,4.000000,4.000000,4.000000,4.000000,4.000000,4.000000,4.000000,4.000000,4.000000,4.000000,4.000000,4.000000,4.000000,4.000000,100.000000,,,,,,,,,,,,,,,,
1645709912.780792,96.000000,0.000000,4251.282227,4224.487305,4223.077148,4226.922852,4227.820313,4238.846191,4224.615234,4221.153809,4229.743652,4230.897461,4183.846191,4185.512695,4212.051270,4217.563965,0.000000,4.000000,91.000000,,,,0.000000,4.000000,4.000000,4.000000,4.000000,4.000000,4.000000,4.000000,4.000000,4.000000,4.000000,4.000000,4.000000,4.000000,4.000000,100.000000,,,,,,,,,,,,,,,,
1645709912.784732,97.000000,0.000000,4255.384766,4226.922852,4224.102539,4228.205078,4229.358887,4238.333496,4223.461426,4223.589844,4229.615234,4230.384766,4189.358887,4187.820313,4212.692383,4216.282227,0.000000,4.000000,91.000000,,,,0.000000,4.000000,4.000000,4.000000,4.000000,4.000000,4.000000,4.000000,4.000000,4.000000,4.000000,4.000000,4.000000,4.000000,4.000000,100.000000,,,,,,,,,,,,,,,,
1645709912.788672,98.000000,0.000000,4258.461426,4232.563965,4226.666504,4230.128418,4231.794922,4240.384766,4225.641113,4227.051270,4232.179688,4232.948730,4196.538574,4192.179688,4217.179688,4216.922852,0.000000,4.000000,91.000000,,,,0.000000,4.000000,4.000000,4.000000,4.000000,4.000000,4.000000,4.000000,4.000000,4.000000,4.000000,4.000000,4.000000,4.000000,4.000000,100.000000,,,,,,,,,,,,,,,,
1645709912.792612,99.000000,0.000000,4261.025879,4240.000000,4230.641113,4233.717773,4235.000000,4244.358887,4229.615234,4230.256348,4234.871582,4238.333496,4202.820313,4198.333496,4224.230957,4221.794922,0.000000,4.000000,91.000000,,,,0.000000,4.000000,4.000000,4.000000,4.000000,4.000000,4.000000,4.000000,4.000000,4.000000,4.000000,4.000000,4.000000,4.000000,4.000000,100.000000,,,,,,,,,,,,,,,,
1645709912.796552,100.000000,0.000000,4263.205078,4246.538574,4234.487305,4237.563965,4237.692383,4247.820313,4232.692383,4231.794922,4235.000000,4243.717773,4206.282227,4204.102539,4230.000000,4229.102539,0.000000,4.000000,91.000000,,,,0.000000,4.000000,4.000000,4.000000,4.000000,4.000000,4.000000,4.000000,4.000000,4.000000,4.000000,4.000000,4.000000,4.000000,4.000000,100.000000,,,,,,,,,,,,,,,,
1645709912.800492,101.000000,0.000000,4263.717773,4249.871582,4236.410156,4238.589844,4238.589844,4248.717773,4233.205078,4231.922852,4231.922852,4246.666504,4207.307617,4207.307617,4231.666504,4235.512695,0.000000,4.000000,91.000000,,,,0.000000,4.000000,4.000000,4.000000,4.000000,4.000000,4.000000,4.000000,4.000000,4.000000,4.000000,4.000000,4.000000,4.000000,4.000000,100.000000,,,,,,,,,,,,,,,,
1645709912.804432,102.000000,0.000000,4261.666504,4248.974121,4235.897461,4235.256348,4237.436035,4247.179688,4231.666504,4231.153809,4228.077148,4246.282227,4207.692383,4206.538574,4229.102539,4237.692383,0.000000,4.000000,91.000000,,,,0.000000,4.000000,4.000000,4.000000,4.000000,4.000000,4.000000,4.000000,4.000000,4.000000,4.000000,4.000000,4.000000,4.000000,4.000000,100.000000,,,,,,,,,,,,,,,,
1645709912.808373,103.000000,0.000000,4257.307617,4244.871582,4234.615234,4228.846191,4235.000000,4244.615234,4229.230957,4230.384766,4226.153809,4243.461426,4208.589844,4203.333496,4225.512695,4235.641113,0.000000,4.000000,91.000000,,,,0.000000,4.000000,4.000000,4.000000,4.000000,4.000000,4.000000,4.000000,4.000000,4.000000,4.000000,4.000000,4.000000,4.000000,4.000000,100.000000,,,,,,,,,,,,,,,,
1645709912.812313,104.000000,0.000000,4253.333496,4239.487305,4234.230957,4223.077148,4231.410156,4241.922852,4227.307617,4229.871582,4226.794922,4239.615234,4209.358887,4200.000000,4224.102539,4231.666504,0.000000,4.000000,91.000000,,,,0.000000,4.000000,4.000000,4.000000,4.000000,4.000000,4.000000,4.000000,4.000000,4.000000,4.000000,4.000000,4.000000,4.000000,4.000000,100.000000,,,,,,,,,,,,,,,,
1645709912.816253,105.000000,0.000000,4251.410156,4234.871582,4234.871582,4221.410156,4227.563965,4240.000000,4226.538574,4228.717773,4227.820313,4235.769043,4208.589844,4198.461426,4225.512695,4227.820313,0.000000,4.000000,91.000000,,,,0.000000,4.000000,4.000000,4.000000,4.000000,4.000000,4.000000,4.000000,4.000000,4.000000,4.000000,4.000000,4.000000,4.000000,4.000000,100.000000,,,,,,,,,,,,,,,,
1645709912.820193,106.000000,0.000000,4251.153809,4232.563965,4234.487305,4224.871582,4224.871582,4239.615234,4227.051270,4226.153809,4226.922852,4232.436035,4205.897461,4197.563965,4227.820313,4224.743652,0.000000,4.000000,91.000000,,,,0.000000,4.000000,4.000000,4.000000,4.000000,4.000000,4.000000,4.000000,4.000000,4.000000,4.000000,4.000000,4.000000,4.000000,4.000000,100.000000,,,,,,,,,,,,,,,,
1645709912.824133,107.000000,0.000000,4250.256348,4232.692383,4231.538574,4231.282227,4225.384766,4241.538574,4228.333496,4222.051270,4223.846191,4230.641113,4202.692383,4195.641113,4228.589844,4221.538574,0.000000,4.000000,91.000000,,,,0.000000,4.000000,4.000000,4.000000,4.000000,4.000000,4.000000,4.000000,4.000000,4.000000,4.000000,4.000000,4.000000,4.000000,4.000000,100.000000,,,,,,,,,,,,,,,,
1645709912.828073,108.000000,0.000000,4247.436035,4233.333496,4226.025879,4235.512695,4229.102539,4245.000000,4229.743652,4217.820313,4220.128418,4231.025879,4201.153809,4191.922852,4227.307617,4218.333496,0.000000,4.000000,91.000000,,,,0.000000,4.000000,4.000000,4.000000,4.000000,4.000000,4.000000,4.000000,4.000000,4.000000,4.000000,4.000000,4.000000,4.000000,4.000000,100.000000,,,,,,,,,,,,,,,,
1645709912.832113,109.000000,0.000000,4243.717773,4231.794922,4220.384766,4233.205078,4233.846191,4247.179688,4230.512695,4215.512695,4218.077148,4232.948730,4201.794922,4187.692383,4224.615234,4215.897461,0.000000,4.000000,91.000000,,,,0.000000,4.000000,4.000000,4.000000,4.000000,4.000000,4.000000,4.000000,4.000000,4.000000,4.000000,4.000000,4.000000,4.000000,4.000000,100.000000,,,,,,,,,,,,,,,,
1645709912.836053,110.000000,0.000000,4240.512695,4226.922852,4216.410156,4224.487305,4236.025879,4245.769043,4230.128418,4215.897461,4218.846191,4235.000000,4203.461426,4184.743652,4221.538574,4215.000000,0.000000,4.000000,91.000000,,,,0.000000,4.000000,4.000000,4.000000,4.000000,4.000000,4.000000,4.000000,4.000000,4.000000,4.000000,4.000000,4.000000,4.000000,4.000000,100.000000,,,,,,,,,,,,,,,,
1645709912.839993,111.000000,0.000000,4238.205078,4220.769043,4214.871582,4214.230957,4233.589844,4241.282227,4228.589844,4217.563965,4221.538574,4235.897461,4204.487305,4183.846191,4218.846191,4215.128418,0.000000,4.000000,91.000000,,,,0.000000,4.000000,4.000000,4.000000,4.000000,4.000000,4.000000,4.000000,4.000000,4.000000,4.000000,4.000000,4.000000,4.000000,4.000000,100.000000,,,,,,,,,,,,,,,,
1645709912.843933,112.000000,0.000000,4235.512695,4216.794922,4214.102539,4208.077148,4227.436035,4236.794922,4226.153809,4218.589844,4223.589844,4235.128418,4203.333496,4183.846191,4216.794922,4215.256348,0.000000,4.000000,91.000000,,,,0.000000,4.000000,4.000000,4.000000,4.000000,4.000000,4.000000,4.000000,4.000000,4.000000,4.000000,4.000000,4.000000,4.000000,4.000000,100.000000,,,,,,,,,,,,,,,,
1645709912.847873,113.000000,0.000000,4232.051270,4216.922852,4213.205078,4208.461426,4220.769043,4235.384766,4223.974121,4217.948730,4222.948730,4232.563965,4199.358887,4183.205078,4215.769043,4214.230957,0.000000,4.000000,91.000000,,,,0.000000,4.000000,4.000000,4.000000,4.000000,4.000000,4.000000,4.000000,4.000000,4.000000,4.000000,4.000000,4.000000,4.000000,4.000000,100.000000,,,,,,,,,,,,,,,,
1645709912.851814,114.000000,0.000000,4230.256348,4220.256348,4212.692383,4213.333496,4216.282227,4237.436035,4223.077148,4216.282227,4219.743652,4227.820313,4193.717773,4181.538574,4215.897461,4212.820313,0.000000,4.000000,91.000000,,,,0.000000,4.000000,4.000000,4.000000,4.000000,4.000000,4.000000,4.000000,4.000000,4.000000,4.000000,4.000000,4.000000,4.000000,4.000000,100.000000,,,,,,,,,,,,,,,,
1645709912.855754,115.000000,0.000000,4231.922852,4223.846191,4213.717773,4218.461426,4215.641113,4241.025879,4224.230957,4214.871582,4215.384766,4222.051270,4189.230957,4179.871582,4216.922852,4212.051270,0.000000,4.000000,91.000000,,,,0.000000,4.000000,4.000000,4.000000,4.000000,4.000000,4.000000,4.000000,4.000000,4.000000,4.000000,4.000000,4.000000,4.000000,4.000000,100.000000,,,,,,,,,,,,,,,,
1645709912.859694,116.000000,0.000000,4236.410156,4225.641113,4215.769043,4221.922852,4219.230957,4244.230957,4226.794922,4214.358887,4212.179688,4218.461426,4188.846191,4180.000000,4218.333496,4212.563965,0.000000,4.000000,91.000000,,,,0.000000,4.000000,4.000000,4.000000,4.000000,4.000000,4.000000,4.000000,4.000000,4.000000,4.000000,4.000000,4.000000,4.000000,4.000000,100.000000,,,,,,,,,,,,,,,,
1645709912.863634,117.000000,0.000000,4240.256348,4225.641113,4217.307617,4223.846191,4226.153809,4245.897461,4229.230957,4214.615234,4211.794922,4220.256348,4193.717773,4181.794922,4219.487305,4213.846191,0.000000,4.000000,91.000000,,,,0.000000,4.000000,4.000000,4.000000,4.000000,4.000000,4.000000,4.000000,4.000000,4.000000,4.000000,4.000000,4.000000,4.000000,4.000000,100.000000,,,,,,,,,,,,,,,,
1645709912.867574,118.000000,0.000000,4241.025879,4225.256348,4217.179688,4225.000000,4233.333496,4246.025879,4230.000000,4215.256348,4214.487305,4227.307617,4201.666504,4183.461426,4220.000000,4215.384766,0.000000,4.000000,91.000000,,,,0.000000,4.000000,4.000000,4.000000,4.000000,4.000000,4.000000,4.000000,4.000000,4.000000,4.000000,4.000000,4.000000,4.000000,4.000000,100.000000,,,,,,,,,,,,,,,,
1645709912.871514,119.000000,0.000000,4240.128418,4226.025879,4216.666504,4225.384766,4236.794922,4244.871582,4228.589844,4215.769043,4218.333496,4235.256348,4208.717773,4184.230957,4219.743652,4217.051270,0.000000,4.000000,91.000000,,,,0.000000,4.000000,4.000000,4.000000,4.000000,4.000000,4.000000,4.000000,4.000000,4.000000,4.000000,4.000000,4.000000,4.000000,4.000000,100.000000,,,,,,,,,,,,,,,,
1645709912.875454,120.000000,0.000000,4240.384766,4228.589844,4218.077148,4225.000000,4235.000000,4243.077148,4226.153809,4216.538574,4220.897461,4238.589844,4211.410156,4185.256348,4219.230957,4219.615234,0.000000,4.000000,91.000000,,,,0.000000,4.000000,4.000000,4.000000,4.000000,4.000000,4.000000,4.000000,4.000000,4.000000,4.000000,4.000000,4.000000,4.000000,4.000000,100.000000,,,,,,,,,,,,,,,,
1645709912.879394,121.000000,0.000000,4243.205078,4232.436035,4222.051270,4224.615234,4229.871582,4241.538574,4224.358887,4217.563965,4221.153809,4235.641113,4209.871582,4188.974121,4219.615234,4223.077148,0.000000,4.000000,91.000000,,,,0.000000,4.000000,4.000000,4.000000,4.000000,4.000000,4.000000,4.000000,4.000000,4.000000,4.000000,4.000000,4.000000,4.000000,4.000000,100.000000,,,,,,,,,,,,,,,,
1645709912.883334,122.000000,0.000000,4246.794922,4236.025879,4227.179688,4226.282227,4225.769043,4240.769043,4223.717773,4218.077148,4219.871582,4230.256348,4207.563965,4195.641113,4221.538574,4227.307617,0.000000,4.000000,91.000000,,,,0.000000,4.000000,4.000000,4.000000,4.000000,4.000000,4.000000,4.000000,4.000000,4.000000,4.000000,4.000000,4.000000,4.000000,4.000000,100.000000,,,,,,,,,,,,,,,,
1645709912.887275,123.000000,0.000000,4248.974121,4238.461426,4231.410156,4231.153809,4225.256348,4240.384766,4223.846191,4217.948730,4218.974121,4228.077148,4208.717773,4203.717773,4224.743652,4231.153809,0.000000,4.000000,91.000000,,,,0.000000,4.000000,4.000000,4.000000,4.000000,4.000000,4.000000,4.000000,4.000000,4.000000,4.000000,4.000000,4.000000,4.000000,4.000000,100.000000,,,,,,,,,,,,,,,,
1645709912.891215,124.000000,0.000000,4250.128418,4239.615234,4233.974121,4237.820313,4227.179688,4239.743652,4223.846191,4217.307617,4219.871582,4232.051270,4214.358887,4210.641113,4227.948730,4233.333496,0.000000,4.000000,91.000000,,,,0.000000,4.000000,4.000000,4.000000,4.000000,4.000000,4.000000,4.000000,4.000000,4.000000,4.000000,4.000000,4.000000,4.000000,4.000000,100.000000,,,,,,,,,,,,,,,,
1645709912.895155,125.000000,0.000000,4251.666504,4240.384766,4235.641113,4243.077148,4228.717773,4238.974121,4223.717773,4217.307617,4222.051270,4239.615234,4221.410156,4214.871582,4229.871582,4233.846191,0.000000,4.000000,91.000000,,,,0.000000,4.000000,4.000000,4.000000,4.000000,4.000000,4.000000,4.000000,4.000000,4.000000,4.000000,4.000000,4.000000,4.000000,4.000000,100.000000,,,,,,,,,,,,,,,,
1645709912.899095,126.000000,0.000000,4254.358887,4242.051270,4237.563965,4244.487305,4228.717773,4238.589844,4224.102539,4218.974121,4224.102539,4246.410156,4226.025879,4216.282227,4229.615234,4233.333496,0.000000,4.000000,91.000000,,,,0.000000,4.000000,4.000000,4.000000,4.000000,4.000000,4.000000,4.000000,4.000000,4.000000,4.000000,4.000000,4.000000,4.000000,4.000000,100.000000,,,,,,,,,,,,,,,,
1645709912.903035,127.000000,0.000000,4256.922852,4244.615234,4240.000000,4242.179688,4228.717773,4239.358887,4225.256348,4222.307617,4224.871582,4249.615234,4226.153809,4215.512695,4228.589844,4232.436035,0.000000,4.000000,91.000000,,,,0.000000,4.000000,4.000000,4.000000,4.000000,4.000000,4.000000,4.000000,4.000000,4.000000,4.000000,4.000000,4.000000,4.000000,4.000000,100.000000,,,,,,,,,,,,,,,,
1645709912.906875,128.000000,0.000000,4257.051270,4246.794922,4241.538574,4237.948730,4229.615234,4240.769043,4226.025879,4226.282227,4224.743652,4249.102539,4223.077148,4213.333496,4228.077148,4232.051270,3263.000000,4.000000,91.000000,,,,0.000000,4.000000,4.000000,4.000000,4.000000,4.000000,4.000000,4.000000,4.000000,4.000000,4.000000,4.000000,4.000000,4.000000,4.000000,100.000000,,,,,,,,,,,,,,,,
1645709912.910815,129.000000,0.000000,4255.128418,4246.538574,4240.641113,4233.846191,4230.384766,4241.282227,4226.025879,4229.615234,4224.743652,4247.051270,4219.358887,4210.897461,4228.461426,4232.179688,3217.000000,4.000000,91.000000,,,,0.000000,4.000000,4.000000,4.000000,4.000000,4.000000,4.000000,4.000000,4.000000,4.000000,4.000000,4.000000,4.000000,4.000000,4.000000,100.000000,,,,,,,,,,,,,,,,
1645709912.914755,130.000000,0.000000,4253.077148,4242.563965,4237.307617,4231.282227,4228.589844,4239.871582,4225.769043,4231.922852,4226.025879,4245.769043,4217.436035,4209.615234,4228.717773,4232.307617,2428.000000,4.000000,91.000000,,,,0.000000,4.000000,4.000000,4.000000,4.000000,4.000000,4.000000,4.000000,4.000000,4.000000,4.000000,4.000000,4.000000,4.000000,4.000000,100.000000,,,,,,,,,,,,,,,,
1645709912.918695,131.000000,0.000000,4251.794922,4236.666504,4233.589844,4230.897461,4224.743652,4237.692383,4226.538574,4233.333496,4228.205078,4246.410156,4217.948730,4210.512695,4228.461426,4231.538574,3406.000000,4.000000,91.000000,,,,0.000000,4.000000,4.000000,4.000000,4.000000,4.000000,4.000000,4.000000,4.000000,4.000000,4.000000,4.000000,4.000000,4.000000,4.000000,100.000000,,,,,,,,,,,,,,,,
1645709912.922636,132.000000,0.000000,4250.512695,4232.051270,4231.666504,4232.179688,4221.666504,4236.666504,4229.487305,4234.102539,4230.512695,4248.461426,4219.615234,4212.692383,4228.461426,4230.128418,3500.000000,4.000000,91.000000,,,,0.000000,4.000000,4.000000,4.000000,4.000000,4.000000,4.000000,4.000000,4.000000,4.000000,4.000000,4.000000,4.000000,4.000000,4.000000,100.000000,,,,,,,,,,,,,,,,
1645709912.926576,133.000000,0.000000,4248.846191,4231.666504,4232.179688,4233.717773,4222.179688,4238.717773,4233.077148,4233.846191,4231.794922,4249.615234,4220.512695,4213.717773,4229.358887,4229.358887,3442.000000,4.000000,91.000000,,,,0.000000,4.000000,4.000000,4.000000,4.000000,4.000000,4.000000,4.000000,4.000000,4.000000,4.000000,4.000000,4.000000,4.000000,4.000000,100.000000,,,,,,,,,,,,,,,,
1645709912.930516,134.000000,0.000000,4247.179688,4234.871582,4233.077148,4234.615234,4225.128418,4242.820313,4234.615234,4232.436035,4231.538574,4247.179688,4219.230957,4211.666504,4230.512695,4230.384766,3208.000000,4.000000,91.000000,,,,0.000000,4.000000,4.000000,4.000000,4.000000,4.000000,4.000000,4.000000,4.000000,4.000000,4.000000,4.000000,4.000000,4.000000,4.000000,100.000000,,,,,,,,,,,,,,,,
1645709912.934456,135.000000,0.000000,4245.769043,4237.820313,4231.922852,4234.871582,4226.922852,4246.282227,4233.077148,4230.128418,4229.615234,4239.871582,4215.641113,4206.538574,4230.256348,4232.948730,1751.000000,4.000000,91.000000,,,,0.000000,4.000000,4.000000,4.000000,4.000000,4.000000,4.000000,4.000000,4.000000,4.000000,4.000000,4.000000,4.000000,4.000000,4.000000,100.000000,,,,,,,,,,,,,,,,
1645709912.938396,136.000000,0.000000,4243.974121,4236.922852,4228.205078,4234.871582,4226.153809,4246.922852,4229.487305,4228.077148,4226.666504,4229.487305,4210.897461,4200.128418,4227.436035,4234.615234,1398.000000,4.000000,91.000000,,,,0.000000,4.000000,4.000000,4.000000,4.000000,4.000000,4.000000,4.000000,4.000000,4.000000,4.000000,4.000000,4.000000,4.000000,4.000000,100.000000,,,,,,,,,,,,,,,,
1645709912.942236,137.000000,0.000000,4240.512695,4232.436035,4224.230957,4234.487305,4224.358887,4244.871582,4226.538574,4227.051270,4224.230957,4221.025879,4206.794922,4194.743652,4223.333496,4232.820313,2782.000000,4.000000,91.000000,,,,0.000000,4.000000,4.000000,4.000000,4.000000,4.000000,4.000000,4.000000,4.000000,4.000000,4.000000,4.000000,4.000000,4.000000,4.000000,100.000000,,,,,,,,,,,,,,,,
1645709912.946176,138.000000,0.000000,4236.282227,4227.692383,4222.436035,4232.948730,4223.974121,4242.692383,4225.384766,4227.307617,4223.974121,4218.717773,4205.128418,4191.922852,4220.512695,4227.179688,2344.000000,4.000000,91.000000,,,,0.000000,4.000000,4.000000,4.000000,4.000000,4.000000,4.000000,4.000000,4.000000,4.000000,4.000000,4.000000,4.000000,4.000000,4.000000,100.000000,,,,,,,,,,,,,,,,
1645709912.950116,139.000000,0.000000,4233.974121,4226.025879,4223.461426,4229.615234,4225.000000,4242.307617,4226.410156,4229.102539,4225.641113,4223.461426,4206.153809,4191.922852,4220.128418,4220.128418,2815.000000,4.000000,91.000000,,,,0.000000,4.000000,4.000000,4.000000,4.000000,4.000000,4.000000,4.000000,4.000000,4.000000,4.000000,4.000000,4.000000,4.000000,4.000000,100.000000,,,,,,,,,,,,,,,,
1645709912.954057,140.000000,0.000000,4236.282227,4228.077148,4226.025879,4225.769043,4226.410156,4243.717773,4228.846191,4232.051270,4228.077148,4232.051270,4208.461426,4193.974121,4222.179688,4215.512695,3186.000000,4.000000,91.000000,,,,0.000000,4.000000,4.000000,4.000000,4.000000,4.000000,4.000000,4.000000,4.000000,4.000000,4.000000,4.000000,4.000000,4.000000,4.000000,100.000000,,,,,,,,,,,,,,,,
1645709912.957997,141.000000,0.000000,4242.051270,4231.410156,4228.461426,4224.102539,4227.051270,4245.512695,4232.179688,4235.384766,4230.256348,4240.128418,4211.025879,4196.282227,4225.384766,4215.897461,2550.000000,4.000000,91.000000,,,,0.000000,4.000000,4.000000,4.000000,4.000000,4.000000,4.000000,4.000000,4.000000,4.000000,4.000000,4.000000,4.000000,4.000000,4.000000,100.000000,,,,,,,,,,,,,,,,
1645709912.961937,142.000000,0.000000,4247.436035,4233.589844,4230.512695,4227.179688,4227.820313,4246.410156,4235.512695,4237.179688,4231.666504,4244.230957,4213.717773,4197.179688,4228.846191,4221.153809,2344.000000,4.000000,91.000000,,,,0.000000,4.000000,4.000000,4.000000,4.000000,4.000000,4.000000,4.000000,4.000000,4.000000,4.000000,4.000000,4.000000,4.000000,4.000000,100.000000,,,,,,,,,,,,,,,,
1645709912.965877,143.000000,0.000000,4248.846191,4233.589844,4232.436035,4234.615234,4229.102539,4246.025879,4236.794922,4235.641113,4231.666504,4243.461426,4216.794922,4196.282227,4231.282227,4228.077148,2815.000000,4.000000,91.000000,,,,0.000000,4.000000,4.000000,4.000000,4.000000,4.000000,4.000000,4.000000,4.000000,4.000000,4.000000,4.000000,4.000000,4.000000,4.000000,100.000000,,,,,,,,,,,,,,,,
1645709912.969817,144.000000,0.000000,4246.794922,4232.436035,4233.589844,4242.436035,4229.871582,4244.358887,4234.871582,4230.256348,4229.230957,4239.102539,4219.358887,4194.743652,4231.538574,4233.077148,3186.000000,4.000000,91.000000,,,,0.000000,4.000000,4.000000,4.000000,4.000000,4.000000,4.000000,4.000000,4.000000,4.000000,4.000000,4.000000,4.000000,4.000000,4.000000,100.000000,,,,,,,,,,,,,,,,
1645709912.973757,145.000000,0.000000,4244.487305,4231.410156,4232.820313,4245.641113,4228.589844,4241.794922,4230.000000,4222.563965,4224.615234,4233.461426,4220.384766,4194.102539,4229.615234,4234.615234,2550.000000,4.000000,91.000000,,,,0.000000,4.000000,4.000000,4.000000,4.000000,4.000000,4.000000,4.000000,4.000000,4.000000,4.000000,4.000000,4.000000,4.000000,4.000000,100.000000,,,,,,,,,,,,,,,,
1645709912.977697,146.000000,0.000000,4245.000000,4231.666504,4231.153809,4243.077148,4225.256348,4238.974121,4223.846191,4215.769043,4219.871582,4228.846191,4220.128418,4195.384766,4226.922852,4233.589844,2344.000000,4.000000,91.000000,,,,0.000000,4.000000,4.000000,4.000000,4.000000,4.000000,4.000000,4.000000,4.000000,4.000000,4.000000,4.000000,4.000000,4.000000,4.000000,100.000000,,,,,,,,,,,,,,,,
1645709912.981637,147.000000,0.000000,4247.948730,4233.717773,4231.410156,4238.589844,4222.820313,4237.436035,4218.846191,4212.948730,4217.436035,4226.410156,4220.641113,4197.820313,4226.410156,4232.948730,2815.000000,4.000000,91.000000,,,,0.000000,4.000000,4.000000,4.000000,4.000000,4.000000,4.000000,4.000000,4.000000,4.000000,4.000000,4.000000,4.000000,4.000000,4.000000,100.000000,,,,,,,,,,,,,,,,
1645709912.985577,148.000000,0.000000,4250.897461,4236.794922,4235.256348,4237.948730,4224.102539,4237.692383,4216.794922,4214.615234,4217.820313,4226.410156,4223.205078,4200.512695,4229.871582,4235.000000,3186.000000,4.000000,91.000000,,,,0.000000,4.000000,4.000000,4.000000,4.000000,4.000000,4.000000,4.000000,4.000000,4.000000,4.000000,4.000000,4.000000,4.000000,4.000000,100.000000,,,,,,,,,,,,,,,,
1645709912.989517,149.000000,0.000000,4252.436035,4239.615234,4241.282227,4242.436035,4229.487305,4238.974121,4217.563965,4218.974121,4219.743652,4227.948730,4227.051270,4202.179688,4236.025879,4238.846191,2550.000000,4.000000,91.000000,,,,0.000000,4.000000,4.000000,4.000000,4.000000,4.000000,4.000000,4.000000,4.000000,4.000000,4.000000,4.000000,4.000000,4.000000,4.000000,100.000000,,,,,,,,,,,,,,,,
1645709912.993458,150.000000,0.000000,4252.948730,4241.282227,4245.769043,4247.307617,4235.512695,4239.743652,4219.743652,4222.436035,4221.025879,4230.128418,4229.487305,4202.307617,4241.410156,4242.179688,2344.000000,4.000000,91.000000,,,,0.000000,4.000000,4.000000,4.000000,4.000000,4.000000,4.000000,4.000000,4.000000,4.000000,4.000000,4.000000,4.000000,4.000000,4.000000,100.000000,,,,,,,,,,,,,,,,
1645709912.997398,151.000000,0.000000,4253.205078,4242.051270,4246.282227,4246.922852,4238.077148,4238.846191,4221.410156,4223.077148,4220.256348,4232.307617,4228.974121,4201.025879,4243.333496,4243.461426,2815.000000,4.000000,91.000000,,,,0.000000,4.000000,4.000000,4.000000,4.000000,4.000000,4.000000,4.000000,4.000000,4.000000,4.000000,4.000000,4.000000,4.000000,4.000000,100.000000,,,,,,,,,,,,,,,,
1645709913.001338,152.000000,0.000000,4252.563965,4242.692383,4242.179688,4240.256348,4235.512695,4237.051270,4221.538574,4220.256348,4218.333496,4234.230957,4226.153809,4198.974121,4241.153809,4242.436035,3186.000000,4.000000,91.000000,,,,0.000000,4.000000,4.000000,4.000000,4.000000,4.000000,4.000000,4.000000,4.000000,4.000000,4.000000,4.000000,4.000000,4.000000,4.000000,100.000000,,,,,,,,,,,,,,,,
1645709913.005278,153.000000,0.000000,4250.128418,4243.205078,4235.512695,4232.563965,4230.128418,4235.641113,4220.128418,4215.512695,4217.051270,4235.384766,4223.717773,4197.307617,4236.666504,4240.384766,2550.000000,4.000000,91.000000,,,,0.000000,4.000000,4.000000,4.000000,4.000000,4.000000,4.000000,4.000000,4.000000,4.000000,4.000000,4.000000,4.000000,4.000000,4.000000,100.000000,,,,,,,,,,,,,,,,
1645709913.009218,154.000000,0.000000,4245.897461,4242.051270,4229.230957,4229.102539,4225.897461,4234.615234,4218.205078,4211.794922,4217.307617,4235.256348,4223.333496,4196.282227,4232.179688,4237.051270,2344.000000,4.000000,91.000000,,,,0.000000,4.000000,4.000000,4.000000,4.000000,4.000000,4.000000,4.000000,4.000000,4.000000,4.000000,4.000000,4.000000,4.000000,4.000000,100.000000,,,,,,,,,,,,,,,,
1645709913.013258,155.000000,0.000000,4241.153809,4238.205078,4225.000000,4230.000000,4224.743652,4233.333496,4216.666504,4211.922852,4218.974121,4233.461426,4223.974121,4195.641113,4228.846191,4232.307617,2815.000000,4.000000,91.000000,,,,0.000000,4.000000,4.000000,4.000000,4.000000,4.000000,4.000000,4.000000,4.000000,4.000000,4.000000,4.000000,4.000000,4.000000,4.000000,100.000000,,,,,,,,,,,,,,,,
1645709913.017198,156.000000,0.000000,4237.820313,4232.307617,4223.333496,4230.256348,4225.000000,4231.666504,4215.769043,4216.153809,4221.538574,4230.641113,4223.589844,4194.743652,4227.179688,4226.410156,3186.000000,4.000000,91.000000,,,,0.000000,4.000000,4.000000,4.000000,4.000000,4.000000,4.000000,4.000000,4.000000,4.000000,4.000000,4.000000,4.000000,4.000000,4.000000,100.000000,,,,,,,,,,,,,,,,
1645709913.021138,157.000000,0.000000,4235.512695,4226.153809,4222.563965,4225.769043,4223.717773,4230.256348,4216.153809,4221.922852,4223.974121,4228.717773,4221.922852,4192.692383,4227.051270,4221.153809,2550.000000,4.000000,91.000000,,,,0.000000,4.000000,4.000000,4.000000,4.000000,4.000000,4.000000,4.000000,4.000000,4.000000,4.000000,4.000000,4.000000,4.000000,4.000000,100.000000,,,,,,,,,,,,,,,,
1645709913.025078,158.000000,0.000000,4232.948730,4221.666504,4221.025879,4218.077148,4220.000000,4229.871582,4217.563965,4225.769043,4225.000000,4228.589844,4219.615234,4189.487305,4227.179688,4217.692383,2344.000000,4.000000,91.000000,,,,0.000000,4.000000,4.000000,4.000000,4.000000,4.000000,4.000000,4.000000,4.000000,4.000000,4.000000,4.000000,4.000000,4.000000,4.000000,100.000000,,,,,,,,,,,,,,,,
1645709913.029018,159.000000,0.000000,4229.358887,4219.358887,4217.436035,4211.666504,4215.256348,4230.000000,4219.358887,4226.153809,4223.461426,4228.974121,4217.051270,4185.769043,4225.769043,4215.512695,2815.000000,4.000000,91.000000,,,,0.000000,4.000000,4.000000,4.000000,4.000000,4.000000,4.000000,4.000000,4.000000,4.000000,4.000000,4.000000,4.000000,4.000000,4.000000,100.000000,,,,,,,,,,,,,,,,
1645709913.032959,160.000000,0.000000,4226.153809,4218.589844,4212.948730,4209.615234,4211.922852,4229.230957,4221.153809,4223.589844,4220.000000,4226.410156,4212.820313,4182.051270,4222.051270,4213.974121,3186.000000,4.000000,91.000000,,,,0.000000,4.000000,4.000000,4.000000,4.000000,4.000000,4.000000,4.000000,4.000000,4.000000,4.000000,4.000000,4.000000,4.000000,4.000000,100.000000,,,,,,,,,,,,,,,,
1645709913.036899,161.000000,0.000000,4225.128418,4218.717773,4210.512695,4211.282227,4211.538574,4227.307617,4222.436035,4220.000000,4216.666504,4219.487305,4206.410156,4178.717773,4216.922852,4213.461426,2550.000000,4.000000,91.000000,,,,0.000000,4.000000,4.000000,4.000000,4.000000,4.000000,4.000000,4.000000,4.000000,4.000000,4.000000,4.000000,4.000000,4.000000,4.000000,100.000000,,,,,,,,,,,,,,,,
1645709913.040839,162.000000,0.000000,4226.922852,4219.743652,4212.051270,4213.974121,4214.102539,4225.256348,4222.820313,4216.922852,4215.641113,4211.025879,4200.000000,4176.153809,4212.820313,4214.871582,2344.000000,4.000000,91.000000,,,,0.000000,4.000000,4.000000,4.000000,4.000000,4.000000,4.000000,4.000000,4.000000,4.000000,4.000000,4.000000,4.000000,4.000000,4.000000,100.000000,,,,,,,,,,,,,,,,
1645709913.044779,163.000000,0.000000,4229.487305,4222.307617,4217.179688,4216.538574,4217.820313,4224.871582,4222.051270,4215.512695,4217.179688,4206.153809,4196.922852,4175.256348,4211.538574,4218.205078,2815.000000,4.000000,91.000000,,,,0.000000,4.000000,4.000000,4.000000,4.000000,4.000000,4.000000,4.000000,4.000000,4.000000,4.000000,4.000000,4.000000,4.000000,4.000000,100.000000,,,,,,,,,,,,,,,,
1645709913.048719,164.000000,0.000000,4231.538574,4225.897461,4222.307617,4219.102539,4220.384766,4226.666504,4220.128418,4215.769043,4219.487305,4207.948730,4198.717773,4177.436035,4213.717773,4221.025879,3186.000000,4.000000,91.000000,,,,0.000000,4.000000,4.000000,4.000000,4.000000,4.000000,4.000000,4.000000,4.000000,4.000000,4.000000,4.000000,4.000000,4.000000,4.000000,100.000000,,,,,,,,,,,,,,,,
1645709913.052659,165.000000,0.000000,4233.461426,4229.230957,4224.230957,4222.307617,4220.512695,4228.974121,4217.563965,4216.666504,4220.256348,4214.615234,4203.589844,4182.179688,4218.077148,4221.282227,2550.000000,4.000000,91.000000,,,,0.000000,4.000000,4.000000,4.000000,4.000000,4.000000,4.000000,4.000000,4.000000,4.000000,4.000000,4.000000,4.000000,4.000000,4.000000,100.000000,,,,,,,,,,,,,,,,
1645709913.056599,166.000000,0.000000,4236.025879,4231.538574,4222.820313,4225.769043,4218.717773,4230.000000,4215.128418,4216.922852,4218.974121,4221.666504,4208.205078,4187.436035,4222.436035,4219.743652,2344.000000,4.000000,91.000000,,,,0.000000,4.000000,4.000000,4.000000,4.000000,4.000000,4.000000,4.000000,4.000000,4.000000,4.000000,4.000000,4.000000,4.000000,4.000000,100.000000,,,,,,,,,,,,,,,,
1645709913.060539,167.000000,0.000000,4238.589844,4233.333496,4220.256348,4228.333496,4216.666504,4229.102539,4214.230957,4216.025879,4216.922852,4225.128418,4210.384766,4190.384766,4224.871582,4219.358887,2815.000000,4.000000,91.000000,,,,0.000000,4.000000,4.000000,4.000000,4.000000,4.000000,4.000000,4.000000,4.000000,4.000000,4.000000,4.000000,4.000000,4.000000,4.000000,100.000000,,,,,,,,,,,,,,,,
1645709913.064479,168.000000,0.000000,4239.615234,4235.641113,4219.615234,4228.717773,4215.512695,4227.179688,4215.897461,4214.615234,4215.769043,4223.717773,4209.615234,4189.487305,4225.000000,4221.538574,3186.000000,4.000000,91.000000,,,,0.000000,4.000000,4.000000,4.000000,4.000000,4.000000,4.000000,4.000000,4.000000,4.000000,4.000000,4.000000,4.000000,4.000000,4.000000,100.000000,,,,,,,,,,,,,,,,
1645709913.068420,169.000000,0.000000,4238.846191,4237.307617,4221.794922,4227.307617,4214.871582,4225.641113,4219.615234,4213.717773,4216.410156,4218.333496,4207.179688,4185.897461,4223.333496,4224.871582,2550.000000,4.000000,91.000000,,,,0.000000,4.000000,4.000000,4.000000,4.000000,4.000000,4.000000,4.000000,4.000000,4.000000,4.000000,4.000000,4.000000,4.000000,4.000000,100.000000,,,,,,,,,,,,,,,,
1645709913.072360,170.000000,0.000000,4237.563965,4236.410156,4226.025879,4225.769043,4212.948730,4225.000000,4222.948730,4213.717773,4217.820313,4211.153809,4204.230957,4182.436035,4220.256348,4226.410156,2344.000000,4.000000,91.000000,,,,0.000000,4.000000,4.000000,4.000000,4.000000,4.000000,4.000000,4.000000,4.000000,4.000000,4.000000,4.000000,4.000000,4.000000,4.000000,100.000000,,,,,,,,,,,,,,,,
1645709913.076300,171.000000,0.000000,4238.205078,4233.333496,4230.641113,4225.769043,4209.871582,4224.615234,4223.717773,4214.615234,4218.077148,4205.128418,4202.307617,4182.179688,4217.051270,4225.128418,2815.000000,4.000000,91.000000,,,,0.000000,4.000000,4.000000,4.000000,4.000000,4.000000,4.000000,4.000000,4.000000,4.000000,4.000000,4.000000,4.000000,4.000000,4.000000,100.000000,,,,,,,,,,,,,,,,
1645709913.080240,172.000000,0.000000,4241.153809,4231.025879,4234.487305,4228.077148,4207.563965,4223.974121,4221.538574,4215.897461,4216.922852,4203.461426,4203.333496,4185.641113,4215.769043,4223.205078,3186.000000,4.000000,91.000000,,,,0.000000,4.000000,4.000000,4.000000,4.000000,4.000000,4.000000,4.000000,4.000000,4.000000,4.000000,4.000000,4.000000,4.000000,4.000000,100.000000,,,,,,,,,,,,,,,,
1645709913.084180,173.000000,0.000000,4245.512695,4233.717773,4237.820313,4231.025879,4209.102539,4223.974121,4218.461426,4217.692383,4216.794922,4208.461426,4208.974121,4191.410156,4218.205078,4223.717773,2550.000000,4.000000,91.000000,,,,0.000000,4.000000,4.000000,4.000000,4.000000,4.000000,4.000000,4.000000,4.000000,4.000000,4.000000,4.000000,4.000000,4.000000,4.000000,100.000000,,,,,,,,,,,,,,,,
1645709913.088120,174.000000,0.000000,4249.615234,4241.410156,4241.025879,4232.820313,4214.871582,4225.256348,4216.666504,4220.512695,4219.743652,4219.102539,4218.846191,4197.307617,4224.487305,4229.230957,2344.000000,4.000000,91.000000,,,,0.000000,4.000000,4.000000,4.000000,4.000000,4.000000,4.000000,4.000000,4.000000,4.000000,4.000000,4.000000,4.000000,4.000000,4.000000,100.000000,,,,,,,,,,,,,,,,
1645709913.092060,175.000000,0.000000,4252.436035,4249.487305,4243.974121,4232.436035,4221.538574,4227.051270,4216.666504,4224.358887,4225.384766,4230.641113,4229.358887,4201.922852,4232.692383,4239.230957,2815.000000,4.000000,91.000000,,,,0.000000,4.000000,4.000000,4.000000,4.000000,4.000000,4.000000,4.000000,4.000000,4.000000,4.000000,4.000000,4.000000,4.000000,4.000000,100.000000,,,,,,,,,,,,,,,,
1645709913.096000,176.000000,0.000000,4253.846191,4251.922852,4245.641113,4231.282227,4225.000000,4228.333496,4217.820313,4228.589844,4230.512695,4238.205078,4237.051270,4205.384766,4240.000000,4249.743652,3186.000000,4.000000,91.000000,,,,0.000000,4.000000,4.000000,4.000000,4.000000,4.000000,4.000000,4.000000,4.000000,4.000000,4.000000,4.000000,4.000000,4.000000,4.000000,100.000000,,,,,,,,,,,,,,,,
1645709913.099940,177.000000,0.000000,4253.333496,4246.282227,4245.256348,4230.897461,4223.846191,4228.717773,4219.743652,4232.051270,4232.179688,4241.282227,4241.282227,4207.436035,4245.256348,4255.897461,2550.000000,4.000000,91.000000,,,,0.000000,4.000000,4.000000,4.000000,4.000000,4.000000,4.000000,4.000000,4.000000,4.000000,4.000000,4.000000,4.000000,4.000000,4.000000,100.000000,,,,,,,,,,,,,,,,
1645709913.103880,178.000000,0.000000,4250.897461,4235.769043,4242.563965,4231.922852,4220.512695,4228.974121,4221.666504,4233.974121,4231.025879,4242.692383,4243.589844,4207.692383,4248.846191,4254.871582,2344.000000,4.000000,91.000000,,,,0.000000,4.000000,4.000000,4.000000,4.000000,4.000000,4.000000,4.000000,4.000000,4.000000,4.000000,4.000000,4.000000,4.000000,4.000000,100.000000,,,,,,,,,,,,,,,,
1645709913.107721,179.000000,0.000000,4247.307617,4225.897461,4238.205078,4233.077148,4217.563965,4229.743652,4223.461426,4234.487305,4229.615234,4244.487305,4245.256348,4205.384766,4252.051270,4248.205078,2815.000000,4.000000,91.000000,,,,0.000000,4.000000,4.000000,4.000000,4.000000,4.000000,4.000000,4.000000,4.000000,4.000000,4.000000,4.000000,4.000000,4.000000,4.000000,100.000000,,,,,,,,,,,,,,,,
1645709913.111661,180.000000,0.000000,4244.615234,4220.256348,4233.461426,4232.563965,4215.256348,4230.512695,4224.743652,4233.077148,4229.615234,4245.641113,4245.512695,4201.153809,4253.974121,4240.512695,3186.000000,4.000000,91.000000,,,,0.000000,4.000000,4.000000,4.000000,4.000000,4.000000,4.000000,4.000000,4.000000,4.000000,4.000000,4.000000,4.000000,4.000000,4.000000,100.000000,,,,,,,,,,,,,,,,
1645709913.115601,181.000000,0.000000,4243.077148,4218.717773,4228.974121,4229.871582,4212.692383,4230.897461,4225.256348,4229.871582,4230.128418,4243.461426,4242.436035,4195.897461,4252.051270,4235.384766,2550.000000,4.000000,91.000000,,,,0.000000,4.000000,4.000000,4.000000,4.000000,4.000000,4.000000,4.000000,4.000000,4.000000,4.000000,4.000000,4.000000,4.000000,4.000000,100.000000,,,,,,,,,,,,,,,,
1645709913.119541,182.000000,0.000000,4241.153809,4218.717773,4224.358887,4226.025879,4209.871582,4230.769043,4224.615234,4225.256348,4228.461426,4236.794922,4235.384766,4190.256348,4245.256348,4233.461426,2344.000000,4.000000,91.000000,,,,0.000000,4.000000,4.000000,4.000000,4.000000,4.000000,4.000000,4.000000,4.000000,4.000000,4.000000,4.000000,4.000000,4.000000,4.000000,100.000000,,,,,,,,,,,,,,,,
1645709913.123481,183.000000,0.000000,4236.538574,4218.717773,4218.974121,4221.922852,4209.615234,4230.897461,4223.077148,4220.000000,4224.102539,4227.948730,4226.410156,4184.871582,4235.641113,4232.563965,2815.000000,4.000000,91.000000,,,,0.000000,4.000000,4.000000,4.000000,4.000000,4.000000,4.000000,4.000000,4.000000,4.000000,4.000000,4.000000,4.000000,4.000000,4.000000,100.000000,,,,,,,,,,,,,,,,
1645709913.127421,184.000000,0.000000,4229.871582,4218.461426,4213.461426,4218.077148,4213.589844,4231.666504,4220.641113,4215.641113,4219.743652,4220.512695,4219.102539,4180.769043,4227.692383,4231.410156,3186.000000,4.000000,91.000000,,,,0.000000,4.000000,4.000000,4.000000,4.000000,4.000000,4.000000,4.000000,4.000000,4.000000,4.000000,4.000000,4.000000,4.000000,4.000000,100.000000,,,,,,,,,,,,,,,,
1645709913.131361,185.000000,0.000000,4224.358887,4218.717773,4209.615234,4215.000000,4220.384766,4231.794922,4217.563965,4213.974121,4218.589844,4217.307617,4216.922852,4179.358887,4225.128418,4230.256348,2550.000000,4.000000,91.000000,,,,0.000000,4.000000,4.000000,4.000000,4.000000,4.000000,4.000000,4.000000,4.000000,4.000000,4.000000,4.000000,4.000000,4.000000,4.000000,100.000000,,,,,,,,,,,,,,,,
1645709913.135301,186.000000,0.000000,4223.461426,4220.000000,4209.230957,4213.974121,4225.256348,4229.743652,4214.871582,4216.025879,4221.666504,4218.717773,4220.641113,4181.282227,4228.333496,4230.512695,2344.000000,4.000000,91.000000,,,,0.000000,4.000000,4.000000,4.000000,4.000000,4.000000,4.000000,4.000000,4.000000,4.000000,4.000000,4.000000,4.000000,4.000000,4.000000,100.000000,,,,,,,,,,,,,,,,
1645709913.139242,187.000000,0.000000,4226.794922,4221.282227,4211.794922,4215.769043,4225.000000,4225.897461,4214.358887,4221.410156,4226.666504,4222.948730,4227.563965,4185.897461,4233.846191,4231.922852,2815.000000,4.000000,91.000000,,,,0.000000,4.000000,4.000000,4.000000,4.000000,4.000000,4.000000,4.000000,4.000000,4.000000,4.000000,4.000000,4.000000,4.000000,4.000000,100.000000,,,,,,,,,,,,,,,,
1645709913.143182,188.000000,0.000000,4230.384766,4221.025879,4214.358887,4219.871582,4220.641113,4222.948730,4216.794922,4227.436035,4230.512695,4227.307617,4233.205078,4190.769043,4237.051270,4232.692383,3186.000000,4.000000,91.000000,,,,0.000000,4.000000,4.000000,4.000000,4.000000,4.000000,4.000000,4.000000,4.000000,4.000000,4.000000,4.000000,4.000000,4.000000,4.000000,100.000000,,,,,,,,,,,,,,,,
1645709913.147122,189.000000,0.000000,4230.256348,4218.333496,4213.974121,4224.102539,4216.025879,4223.461426,4220.641113,4230.000000,4231.282227,4229.487305,4233.846191,4193.333496,4234.871582,4230.897461,2550.000000,4.000000,91.000000,,,,0.000000,4.000000,4.000000,4.000000,4.000000,4.000000,4.000000,4.000000,4.000000,4.000000,4.000000,4.000000,4.000000,4.000000,4.000000,100.000000,,,,,,,,,,,,,,,,
1645709913.151062,190.000000,0.000000,4226.794922,4214.358887,4209.871582,4225.641113,4214.230957,4227.307617,4223.461426,4227.307617,4228.717773,4227.948730,4228.589844,4192.179688,4227.820313,4226.282227,2344.000000,4.000000,91.000000,,,,0.000000,4.000000,4.000000,4.000000,4.000000,4.000000,4.000000,4.000000,4.000000,4.000000,4.000000,4.000000,4.000000,4.000000,4.000000,100.000000,,,,,,,,,,,,,,,,
1645709913.155002,191.000000,0.000000,4223.077148,4211.153809,4204.102539,4223.974121,4215.000000,4231.794922,4223.461426,4221.922852,4224.743652,4222.948730,4219.230957,4188.846191,4219.102539,4220.128418,2815.000000,4.000000,91.000000,,,,0.000000,4.000000,4.000000,4.000000,4.000000,4.000000,4.000000,4.000000,4.000000,4.000000,4.000000,4.000000,4.000000,4.000000,4.000000,100.000000,,,,,,,,,,,,,,,,
1645709913.158942,192.000000,0.000000,4221.666504,4210.641113,4199.615234,4221.410156,4215.641113,4234.358887,4221.410156,4218.077148,4221.153809,4216.282227,4209.487305,4185.512695,4212.179688,4214.743652,3186.000000,4.000000,91.000000,,,,0.000000,4.000000,4.000000,4.000000,4.000000,4.000000,4.000000,4.000000,4.000000,4.000000,4.000000,4.000000,4.000000,4.000000,4.000000,100.000000,,,,,,,,,,,,,,,,
1645709913.162882,193.000000,0.000000,4222.820313,4212.436035,4198.846191,4220.769043,4214.871582,4235.000000,4219.358887,4217.948730,4219.358887,4210.641113,4203.205078,4184.358887,4209.102539,4212.436035,2550.000000,4.000000,91.000000,,,,0.000000,4.000000,4.000000,4.000000,4.000000,4.000000,4.000000,4.000000,4.000000,4.000000,4.000000,4.000000,4.000000,4.000000,4.000000,100.000000,,,,,,,,,,,,,,,,
1645709913.166722,194.000000,0.000000,4225.000000,4215.128418,4202.692383,4222.051270,4213.974121,4234.743652,4217.948730,4219.871582,4219.487305,4207.948730,4202.692383,4185.897461,4209.615234,4214.358887,2344.000000,4.000000,91.000000,,,,0.000000,4.000000,4.000000,4.000000,4.000000,4.000000,4.000000,4.000000,4.000000,4.000000,4.000000,4.000000,4.000000,4.000000,4.000000,100.000000,,,,,,,,,,,,,,,,
1645709913.170662,195.000000,0.000000,4227.692383,4217.436035,4209.871582,4222.692383,4215.000000,4234.102539,4216.922852,4221.153809,4220.256348,4208.333496,4207.563965,4190.128418,4212.179688,4220.256348,2815.000000,4.000000,91.000000,,,,0.000000,4.000000,4.000000,4.000000,4.000000,4.000000,4.000000,4.000000,4.000000,4.000000,4.000000,4.000000,4.000000,4.000000,4.000000,100.000000,,,,,,,,,,,,,,,,
1645709913.174603,196.000000,0.000000,4231.282227,4219.102539,4218.461426,4220.769043,4218.333496,4233.077148,4215.769043,4220.512695,4220.256348,4211.153809,4214.743652,4195.641113,4216.025879,4227.820313,3186.000000,4.000000,91.000000,,,,0.000000,4.000000,4.000000,4.000000,4.000000,4.000000,4.000000,4.000000,4.000000,4.000000,4.000000,4.000000,4.000000,4.000000,4.000000,100.000000,,,,,,,,,,,,,,,,
1645709913.178543,197.000000,0.000000,4235.769043,4220.897461,4225.769043,4218.461426,4222.436035,4231.666504,4215.512695,4219.871582,4219.358887,4215.769043,4221.025879,4200.641113,4220.128418,4234.487305,2550.000000,4.000000,91.000000,,,,0.000000,4.000000,4.000000,4.000000,4.000000,4.000000,4.000000,4.000000,4.000000,4.000000,4.000000,4.000000,4.000000,4.000000,4.000000,100.000000,,,,,,,,,,,,,,,,
1645709913.182483,198.000000,0.000000,4239.487305,4223.461426,4230.512695,4220.256348,4225.000000,4230.512695,4217.179688,4220.897461,4218.589844,4220.897461,4224.743652,4203.717773,4224.358887,4237.948730,2344.000000,4.000000,91.000000,,,,0.000000,4.000000,4.000000,4.000000,4.000000,4.000000,4.000000,4.000000,4.000000,4.000000,4.000000,4.000000,4.000000,4.000000,4.000000,100.000000,,,,,,,,,,,,,,,,
1645709913.186423,199.000000,0.000000,4241.410156,4226.025879,4232.436035,4228.461426,4225.769043,4230.128418,4220.384766,4223.846191,4219.358887,4224.743652,4226.794922,4204.615234,4228.205078,4237.820313,2815.000000,4.000000,91.000000,,,,0.000000,4.000000,4.000000,4.000000,4.000000,4.000000,4.000000,4.000000,4.000000,4.000000,4.000000,4.000000,4.000000,4.000000,4.000000,100.000000,,,,,,,,,,,,,,,,
1645709913.190363,200.000000,0.000000,4241.794922,4227.948730,4232.820313,4239.487305,4225.000000,4230.256348,4223.461426,4227.563965,4221.922852,4225.512695,4228.461426,4204.743652,4231.282227,4235.128418,3186.000000,4.000000,91.000000,,,,0.000000,4.000000,4.000000,4.000000,4.000000,4.000000,4.000000,4.000000,4.000000,4.000000,4.000000,4.000000,4.000000,4.000000,4.000000,100.000000,,,,,,,,,,,,,,,,
1645709913.194303,201.000000,0.000000,4241.922852,4229.102539,4231.794922,4245.769043,4223.333496,4230.128418,4224.487305,4230.641113,4225.256348,4223.589844,4230.512695,4205.000000,4232.179688,4231.794922,2550.000000,4.000000,91.000000,,,,0.000000,4.000000,4.000000,4.000000,4.000000,4.000000,4.000000,4.000000,4.000000,4.000000,4.000000,4.000000,4.000000,4.000000,4.000000,100.000000,,,,,,,,,,,,,,,,
1645709913.198243,202.000000,0.000000,4242.307617,4229.358887,4229.487305,4243.205078,4221.153809,4229.487305,4223.077148,4232.436035,4227.563965,4220.897461,4232.307617,4205.384766,4231.153809,4230.000000,2344.000000,4.000000,91.000000,,,,0.000000,4.000000,4.000000,4.000000,4.000000,4.000000,4.000000,4.000000,4.000000,4.000000,4.000000,4.000000,4.000000,4.000000,4.000000,100.000000,,,,,,,,,,,,,,,,
1645709913.202183,203.000000,0.000000,4241.666504,4228.589844,4225.897461,4234.615234,4219.102539,4229.615234,4221.153809,4232.563965,4228.205078,4220.512695,4233.333496,4204.615234,4228.846191,4230.512695,2815.000000,4.000000,91.000000,,,,0.000000,4.000000,4.000000,4.000000,4.000000,4.000000,4.000000,4.000000,4.000000,4.000000,4.000000,4.000000,4.000000,4.000000,4.000000,100.000000,,,,,,,,,,,,,,,,
1645709913.206123,204.000000,0.000000,4238.846191,4226.666504,4221.666504,4226.666504,4217.692383,4231.025879,4221.282227,4231.538574,4227.179688,4224.230957,4233.589844,4201.922852,4226.666504,4232.692383,3186.000000,4.000000,91.000000,,,,0.000000,4.000000,4.000000,4.000000,4.000000,4.000000,4.000000,4.000000,4.000000,4.000000,4.000000,4.000000,4.000000,4.000000,4.000000,100.000000,,,,,,,,,,,,,,,,
1645709913.210064,205.000000,0.000000,4234.615234,4223.589844,4217.692383,4223.846191,4217.307617,4233.205078,4224.358887,4230.512695,4225.512695,4231.153809,4233.333496,4197.820313,4225.384766,4234.487305,2550.000000,4.000000,91.000000,,,,0.000000,4.000000,4.000000,4.000000,4.000000,4.000000,4.000000,4.000000,4.000000,4.000000,4.000000,4.000000,4.000000,4.000000,4.000000,100.000000,,,,,,,,,,,,,,,,
1645709913.214004,206.000000,0.000000,4230.897461,4219.102539,4214.230957,4224.871582,4217.436035,4234.487305,4228.717773,4230.128418,4224.615234,4237.563965,4232.692383,4193.461426,4224.743652,4233.717773,2344.000000,4.000000,91.000000,,,,0.000000,4.000000,4.000000,4.000000,4.000000,4.000000,4.000000,4.000000,4.000000,4.000000,4.000000,4.000000,4.000000,4.000000,4.000000,100.000000,,,,,,,,,,,,,,,,
1645709913.217944,207.000000,0.000000,4228.461426,4213.717773,4211.282227,4225.256348,4218.077148,4233.589844,4231.538574,4230.384766,4225.641113,4239.230957,4231.666504,4189.871582,4224.615234,4229.487305,2815.000000,4.000000,91.000000,,,,0.000000,4.000000,4.000000,4.000000,4.000000,4.000000,4.000000,4.000000,4.000000,4.000000,4.000000,4.000000,4.000000,4.000000,4.000000,100.000000,,,,,,,,,,,,,,,,
1645709913.221884,208.000000,0.000000,4226.410156,4209.102539,4208.589844,4222.307617,4218.717773,4231.153809,4231.410156,4230.000000,4227.692383,4235.256348,4230.128418,4187.307617,4224.615234,4222.692383,3186.000000,4.000000,91.000000,,,,0.000000,4.000000,4.000000,4.000000,4.000000,4.000000,4.000000,4.000000,4.000000,4.000000,4.000000,4.000000,4.000000,4.000000,4.000000,100.000000,,,,,,,,,,,,,,,,
1645709913.225824,209.000000,0.000000,4223.974121,4207.307617,4205.897461,4217.436035,4217.820313,4228.333496,4228.846191,4227.820313,4228.589844,4228.461426,4227.692383,4185.512695,4223.974121,4215.769043,2550.000000,4.000000,91.000000,,,,0.000000,4.000000,4.000000,4.000000,4.000000,4.000000,4.000000,4.000000,4.000000,4.000000,4.000000,4.000000,4.000000,4.000000,4.000000,100.000000,,,,,,,,,,,,,,,,
1645709913.229764,210.000000,0.000000,4221.282227,4208.333496,4202.948730,4213.846191,4214.102539,4225.897461,4225.384766,4223.717773,4226.153809,4222.563965,4223.717773,4183.717773,4221.410156,4211.282227,2344.000000,4.000000,91.000000,,,,0.000000,4.000000,4.000000,4.000000,4.000000,4.000000,4.000000,4.000000,4.000000,4.000000,4.000000,4.000000,4.000000,4.000000,4.000000,100.000000,,,,,,,,,,,,,,,,
1645709913.233704,211.000000,0.000000,4219.871582,4209.871582,4200.128418,4213.846191,4208.461426,4223.846191,4222.692383,4219.230957,4220.769043,4219.487305,4217.820313,4182.307617,4217.179688,4211.282227,2815.000000,4.000000,91.000000,,,,0.000000,4.000000,4.000000,4.000000,4.000000,4.000000,4.000000,4.000000,4.000000,4.000000,4.000000,4.000000,4.000000,4.000000,4.000000,100.000000,,,,,,,,,,,,,,,,
