title:Alex-CelRByiPrzFM9BmpppdjsQ, start timestamp:1645709876.804100, stop timestamp:1645709902.607398, headset type:EPOCPLUS, headset serial:3B9AEBFF, headset firmware:626, channels:55, sampling rate:eeg_256, samples:6550      , version:2.1, 
Timestamp,OriginalTimestamp,EEG.Counter,EEG.Interpolated,EEG.AF3,EEG.F7,EEG.F3,EEG.FC5,EEG.T7,EEG.P7,EEG.O1,EEG.O2,EEG.P8,EEG.T8,EEG.FC6,EEG.F4,EEG.F8,EEG.AF4,EEG.RawCq,EEG.Battery,EEG.BatteryPercent,MarkerIndex,MarkerType,MarkerValueInt,EEG.MarkerHardware,CQ.AF3,CQ.F7,CQ.F3,CQ.FC5,CQ.T7,CQ.P7,CQ.O1,CQ.O2,CQ.P8,CQ.T8,CQ.FC6,CQ.F4,CQ.F8,CQ.AF4,CQ.Overall,EQ.SampleRateQuality,EQ.OVERALL,EQ.AF3,EQ.F7,EQ.F3,EQ.FC5,EQ.T7,EQ.P7,EQ.O1,EQ.O2,EQ.P8,EQ.T8,EQ.FC6,EQ.F4,EQ.F8,EQ.AF4
1645709876.804100,1645709876.816301,184.000000,0.000000,4298.461426,4408.077148,4256.922852,4387.307617,4273.461426,4264.743652,4228.461426,4215.641113,4216.666504,4287.179688,4387.948730,4321.282227,4254.871582,4275.000000,3159.000000,4.000000,91.000000,,,,0.000000,4.000000,4.000000,4.000000,4.000000,4.000000,4.000000,4.000000,4.000000,4.000000,4.000000,4.000000,4.000000,4.000000,4.000000,100.000000,,,,,,,,,,,,,,,,
1645709876.808041,1645709876.820141,185.000000,0.000000,4299.230957,4404.871582,4254.615234,4382.948730,4269.230957,4263.717773,4226.794922,4216.922852,4212.692383,4282.051270,4388.846191,4322.436035,4254.871582,4274.743652,2696.000000,4.000000,91.000000,,,,0.000000,4.000000,4.000000,4.000000,4.000000,4.000000,4.000000,4.000000,4.000000,4.000000,4.000000,4.000000,4.000000,4.000000,4.000000,100.000000,,,,,,,,,,,,,,,,
1645709876.811981,1645709876.824081,186.000000,0.000000,4297.820313,4399.743652,4253.974121,4382.436035,4267.563965,4261.794922,4223.717773,4216.153809,4209.743652,4274.102539,4385.384766,4320.897461,4252.820313,4270.897461,2377.000000,4.000000,91.000000,,,,0.000000,4.000000,4.000000,4.000000,4.000000,4.000000,4.000000,4.000000,4.000000,4.000000,4.000000,4.000000,4.000000,4.000000,4.000000,100.000000,,,,,,,,,,,,,,,,
1645709876.815920,1645709876.828022,187.000000,0.000000,4295.384766,4394.871582,4253.846191,4384.615234,4269.102539,4258.846191,4219.358887,4212.436035,4208.589844,4267.436035,4378.205078,4316.794922,4249.230957,4267.051270,2628.000000,4.000000,91.000000,,,,0.000000,4.000000,4.000000,4.000000,4.000000,4.000000,4.000000,4.000000,4.000000,4.000000,4.000000,4.000000,4.000000,4.000000,4.000000,100.000000,,,,,,,,,,,,,,,,
1645709876.819861,1645709876.831962,188.000000,0.000000,4293.461426,4392.436035,4252.692383,4386.666504,4272.692383,4256.025879,4215.000000,4207.307617,4208.974121,4264.743652,4370.769043,4312.692383,4246.666504,4267.563965,3159.000000,4.000000,91.000000,,,,0.000000,4.000000,4.000000,4.000000,4.000000,4.000000,4.000000,4.000000,4.000000,4.000000,4.000000,4.000000,4.000000,4.000000,4.000000,100.000000,,,,,,,,,,,,,,,,
1645709876.823801,1645709876.835902,189.000000,0.000000,4292.307617,4393.333496,4250.256348,4387.307617,4276.666504,4254.871582,4212.820313,4203.974121,4210.256348,4266.666504,4367.692383,4311.282227,4247.563965,4273.077148,2696.000000,4.000000,91.000000,,,,0.000000,4.000000,4.000000,4.000000,4.000000,4.000000,4.000000,4.000000,4.000000,4.000000,4.000000,4.000000,4.000000,4.000000,4.000000,100.000000,,,,,,,,,,,,,,,,
1645709876.827741,1645709876.839842,190.000000,0.000000,4291.794922,4397.051270,4248.205078,4386.153809,4279.230957,4256.538574,4214.358887,4204.487305,4211.282227,4271.410156,4370.384766,4313.461426,4251.153809,4280.128418,2377.000000,4.000000,91.000000,,,,0.000000,4.000000,4.000000,4.000000,4.000000,4.000000,4.000000,4.000000,4.000000,4.000000,4.000000,4.000000,4.000000,4.000000,4.000000,100.000000,,,,,,,,,,,,,,,,
1645709876.831681,1645709876.843782,191.000000,0.000000,4291.922852,4401.025879,4248.461426,4384.230957,4279.230957,4259.615234,4218.717773,4208.589844,4210.897461,4275.512695,4375.897461,4317.948730,4253.974121,4283.974121,2628.000000,4.000000,91.000000,,,,0.000000,4.000000,4.000000,4.000000,4.000000,4.000000,4.000000,4.000000,4.000000,4.000000,4.000000,4.000000,4.000000,4.000000,4.000000,100.000000,,,,,,,,,,,,,,,,
1645709876.835621,1645709876.847722,192.000000,0.000000,4293.205078,4402.563965,4251.666504,4382.563965,4276.282227,4261.282227,4223.205078,4213.846191,4209.743652,4275.897461,4379.230957,4322.820313,4252.820313,4282.820313,3159.000000,4.000000,91.000000,,,,0.000000,4.000000,4.000000,4.000000,4.000000,4.000000,4.000000,4.000000,4.000000,4.000000,4.000000,4.000000,4.000000,4.000000,4.000000,100.000000,,,,,,,,,,,,,,,,
1645709876.839561,1645709876.851662,193.000000,0.000000,4295.641113,4400.384766,4256.282227,4382.179688,4271.538574,4259.487305,4225.000000,4217.563965,4209.871582,4273.333496,4378.333496,4326.282227,4248.077148,4279.230957,2696.000000,4.000000,91.000000,,,,0.000000,4.000000,4.000000,4.000000,4.000000,4.000000,4.000000,4.000000,4.000000,4.000000,4.000000,4.000000,4.000000,4.000000,4.000000,100.000000,,,,,,,,,,,,,,,,
1645709876.843501,1645709876.855602,194.000000,0.000000,4297.948730,4396.666504,4259.871582,4383.333496,4266.794922,4255.256348,4223.717773,4218.717773,4212.307617,4271.153809,4375.641113,4328.333496,4243.717773,4277.563965,2377.000000,4.000000,91.000000,,,,0.000000,4.000000,4.000000,4.000000,4.000000,4.000000,4.000000,4.000000,4.000000,4.000000,4.000000,4.000000,4.000000,4.000000,4.000000,100.000000,,,,,,,,,,,,,,,,
1645709876.847441,1645709876.859542,195.000000,0.000000,4299.102539,4394.615234,4261.153809,4385.256348,4263.846191,4252.051270,4221.538574,4217.820313,4216.794922,4272.692383,4375.769043,4329.743652,4243.846191,4280.128418,2628.000000,4.000000,91.000000,,,,0.000000,4.000000,4.000000,4.000000,4.000000,4.000000,4.000000,4.000000,4.000000,4.000000,4.000000,4.000000,4.000000,4.000000,4.000000,100.000000,,,,,,,,,,,,,,,,
1645709876.851381,1645709876.863483,196.000000,0.000000,4299.102539,4395.641113,4260.384766,4386.538574,4263.846191,4252.692383,4221.025879,4216.794922,4220.769043,4277.692383,4381.025879,4331.922852,4250.000000,4286.153809,3159.000000,4.000000,91.000000,,,,0.000000,4.000000,4.000000,4.000000,4.000000,4.000000,4.000000,4.000000,4.000000,4.000000,4.000000,4.000000,4.000000,4.000000,4.000000,100.000000,,,,,,,,,,,,,,,,
1645709876.855321,1645709876.867423,197.000000,0.000000,4300.000000,4397.563965,4258.974121,4385.897461,4267.179688,4257.563965,4222.692383,4216.922852,4221.666504,4283.461426,4389.230957,4335.769043,4259.615234,4292.563965,2696.000000,4.000000,91.000000,,,,0.000000,4.000000,4.000000,4.000000,4.000000,4.000000,4.000000,4.000000,4.000000,4.000000,4.000000,4.000000,4.000000,4.000000,4.000000,100.000000,,,,,,,,,,,,,,,,
1645709876.859261,1645709876.871363,198.000000,0.000000,4302.436035,4397.179688,4258.717773,4383.974121,4272.436035,4263.717773,4225.128418,4217.820313,4219.102539,4286.666504,4395.897461,4340.384766,4267.948730,4297.179688,2377.000000,4.000000,91.000000,,,,0.000000,4.000000,4.000000,4.000000,4.000000,4.000000,4.000000,4.000000,4.000000,4.000000,4.000000,4.000000,4.000000,4.000000,4.000000,100.000000,,,,,,,,,,,,,,,,
1645709876.863201,1645709876.875303,199.000000,0.000000,4305.000000,4393.205078,4260.512695,4382.179688,4277.436035,4267.820313,4226.538574,4218.461426,4215.256348,4286.666504,4397.563965,4343.974121,4271.410156,4299.102539,2628.000000,4.000000,91.000000,,,,0.000000,4.000000,4.000000,4.000000,4.000000,4.000000,4.000000,4.000000,4.000000,4.000000,4.000000,4.000000,4.000000,4.000000,4.000000,100.000000,,,,,,,,,,,,,,,,
1645709876.867141,1645709876.879243,200.000000,0.000000,4304.743652,4387.563965,4263.589844,4380.641113,4279.743652,4267.307617,4226.025879,4217.948730,4213.077148,4285.256348,4394.615234,4344.615234,4270.384766,4299.102539,3159.000000,4.000000,91.000000,,,,0.000000,4.000000,4.000000,4.000000,4.000000,4.000000,4.000000,4.000000,4.000000,4.000000,4.000000,4.000000,4.000000,4.000000,4.000000,100.000000,,,,,,,,,,,,,,,,
1645709876.871081,1645709876.883283,201.000000,0.000000,4300.897461,4382.436035,4265.256348,4377.948730,4277.948730,4262.563965,4223.974121,4216.922852,4214.358887,4284.743652,4390.000000,4342.563965,4267.436035,4297.563965,2696.000000,4.000000,91.000000,,,,0.000000,4.000000,4.000000,4.000000,4.000000,4.000000,4.000000,4.000000,4.000000,4.000000,4.000000,4.000000,4.000000,4.000000,4.000000,100.000000,,,,,,,,,,,,,,,,
1645709876.875021,1645709876.887223,202.000000,0.000000,4295.641113,4378.333496,4264.102539,4372.692383,4273.461426,4256.025879,4221.538574,4216.410156,4217.692383,4285.769043,4386.666504,4339.487305,4265.512695,4295.769043,2377.000000,4.000000,91.000000,,,,0.000000,4.000000,4.000000,4.000000,4.000000,4.000000,4.000000,4.000000,4.000000,4.000000,4.000000,4.000000,4.000000,4.000000,4.000000,100.000000,,,,,,,,,,,,,,,,
1645709876.878961,1645709876.891163,203.000000,0.000000,4291.922852,4374.358887,4260.256348,4365.897461,4268.717773,4251.538574,4219.743652,4217.179688,4220.128418,4286.538574,4385.769043,4337.563965,4265.512695,4294.615234,2628.000000,4.000000,91.000000,,,,0.000000,4.000000,4.000000,4.000000,4.000000,4.000000,4.000000,4.000000,4.000000,4.000000,4.000000,4.000000,4.000000,4.000000,4.000000,100.000000,,,,,,,,,,,,,,,,
1645709876.882901,1645709876.895103,204.000000,0.000000,4290.769043,4369.743652,4255.641113,4360.897461,4266.282227,4251.794922,4219.358887,4218.717773,4220.000000,4285.512695,4386.025879,4337.051270,4266.794922,4294.743652,3159.000000,4.000000,91.000000,,,,0.000000,4.000000,4.000000,4.000000,4.000000,4.000000,4.000000,4.000000,4.000000,4.000000,4.000000,4.000000,4.000000,4.000000,4.000000,100.000000,,,,,,,,,,,,,,,,
1645709876.886841,1645709876.899043,205.000000,0.000000,4290.000000,4365.256348,4251.538574,4360.128418,4265.897461,4256.538574,4220.769043,4219.358887,4218.077148,4283.077148,4386.025879,4336.794922,4266.922852,4295.256348,2696.000000,4.000000,91.000000,,,,0.000000,4.000000,4.000000,4.000000,4.000000,4.000000,4.000000,4.000000,4.000000,4.000000,4.000000,4.000000,4.000000,4.000000,4.000000,100.000000,,,,,,,,,,,,,,,,
1645709876.890781,1645709876.902983,206.000000,0.000000,4288.077148,4361.922852,4248.461426,4362.436035,4265.512695,4262.436035,4223.333496,4218.461426,4216.666504,4280.897461,4384.743652,4335.641113,4264.871582,4294.487305,2377.000000,4.000000,91.000000,,,,0.000000,4.000000,4.000000,4.000000,4.000000,4.000000,4.000000,4.000000,4.000000,4.000000,4.000000,4.000000,4.000000,4.000000,4.000000,100.000000,,,,,,,,,,,,,,,,
1645709876.894721,1645709876.906924,207.000000,0.000000,4285.641113,4359.743652,4246.410156,4364.358887,4263.333496,4265.256348,4225.384766,4217.179688,4216.922852,4280.256348,4382.436035,4333.589844,4261.538574,4292.051270,2628.000000,4.000000,91.000000,,,,0.000000,4.000000,4.000000,4.000000,4.000000,4.000000,4.000000,4.000000,4.000000,4.000000,4.000000,4.000000,4.000000,4.000000,4.000000,100.000000,,,,,,,,,,,,,,,,
1645709876.898661,1645709876.910864,208.000000,0.000000,4284.871582,4358.077148,4246.282227,4363.589844,4258.974121,4262.692383,4225.641113,4217.563965,4219.358887,4280.769043,4380.512695,4331.410156,4259.102539,4289.102539,3159.000000,4.000000,91.000000,,,,0.000000,4.000000,4.000000,4.000000,4.000000,4.000000,4.000000,4.000000,4.000000,4.000000,4.000000,4.000000,4.000000,4.000000,4.000000,100.000000,,,,,,,,,,,,,,,,
1645709876.902601,1645709876.914804,209.000000,0.000000,4285.641113,4356.282227,4247.948730,4361.666504,4254.871582,4256.538574,4224.230957,4220.256348,4222.820313,4280.769043,4379.615234,4330.256348,4259.102539,4287.820313,2696.000000,4.000000,91.000000,,,,0.000000,4.000000,4.000000,4.000000,4.000000,4.000000,4.000000,4.000000,4.000000,4.000000,4.000000,4.000000,4.000000,4.000000,4.000000,100.000000,,,,,,,,,,,,,,,,
1645709876.906541,1645709876.918744,210.000000,0.000000,4286.538574,4354.871582,4250.128418,4361.410156,4253.974121,4251.282227,4222.307617,4223.717773,4225.000000,4279.358887,4379.615234,4330.256348,4261.153809,4289.358887,2377.000000,4.000000,91.000000,,,,0.000000,4.000000,4.000000,4.000000,4.000000,4.000000,4.000000,4.000000,4.000000,4.000000,4.000000,4.000000,4.000000,4.000000,4.000000,100.000000,,,,,,,,,,,,,,,,
1645709876.910481,1645709876.922684,211.000000,0.000000,4286.538574,4355.512695,4251.153809,4363.333496,4257.051270,4250.256348,4220.641113,4225.384766,4224.615234,4277.051270,4379.871582,4331.538574,4263.205078,4293.461426,2628.000000,4.000000,91.000000,,,,0.000000,4.000000,4.000000,4.000000,4.000000,4.000000,4.000000,4.000000,4.000000,4.000000,4.000000,4.000000,4.000000,4.000000,4.000000,100.000000,,,,,,,,,,,,,,,,
1645709876.914421,1645709876.926624,212.000000,0.000000,4287.179688,4358.717773,4250.512695,4365.128418,4262.179688,4253.461426,4219.615234,4224.358887,4221.666504,4275.128418,4380.128418,4333.974121,4263.461426,4298.717773,3159.000000,4.000000,91.000000,,,,0.000000,4.000000,4.000000,4.000000,4.000000,4.000000,4.000000,4.000000,4.000000,4.000000,4.000000,4.000000,4.000000,4.000000,4.000000,100.000000,,,,,,,,,,,,,,,,
1645709876.918362,1645709876.930564,213.000000,0.000000,4290.000000,4362.692383,4249.615234,4364.743652,4266.025879,4257.563965,4219.230957,4222.051270,4218.333496,4274.871582,4380.384766,4337.436035,4261.666504,4302.692383,2696.000000,4.000000,91.000000,,,,0.000000,4.000000,4.000000,4.000000,4.000000,4.000000,4.000000,4.000000,4.000000,4.000000,4.000000,4.000000,4.000000,4.000000,4.000000,100.000000,,,,,,,,,,,,,,,,
1645709876.922302,1645709876.934504,214.000000,0.000000,4293.974121,4364.358887,4249.743652,4362.051270,4267.051270,4258.974121,4218.974121,4219.743652,4216.666504,4277.307617,4380.128418,4340.512695,4259.615234,4303.846191,2377.000000,4.000000,91.000000,,,,0.000000,4.000000,4.000000,4.000000,4.000000,4.000000,4.000000,4.000000,4.000000,4.000000,4.000000,4.000000,4.000000,4.000000,4.000000,100.000000,,,,,,,,,,,,,,,,
1645709876.926242,1645709876.938444,215.000000,0.000000,4295.897461,4362.051270,4250.769043,4359.102539,4265.769043,4256.922852,4218.205078,4218.333496,4217.179688,4281.153809,4378.846191,4341.666504,4259.615234,4301.922852,2628.000000,4.000000,91.000000,,,,0.000000,4.000000,4.000000,4.000000,4.000000,4.000000,4.000000,4.000000,4.000000,4.000000,4.000000,4.000000,4.000000,4.000000,4.000000,100.000000,,,,,,,,,,,,,,,,
1645709876.930182,1645709876.942385,216.000000,0.000000,4294.743652,4357.179688,4251.410156,4358.077148,4263.205078,4252.692383,4216.282227,4216.922852,4218.846191,4283.461426,4376.410156,4340.256348,4262.051270,4298.974121,3159.000000,4.000000,91.000000,,,,0.000000,4.000000,4.000000,4.000000,4.000000,4.000000,4.000000,4.000000,4.000000,4.000000,4.000000,4.000000,4.000000,4.000000,4.000000,100.000000,,,,,,,,,,,,,,,,
1645709876.934122,1645709876.946325,217.000000,0.000000,4291.666504,4352.820313,4250.897461,4359.358887,4260.000000,4248.589844,4213.461426,4215.256348,4219.743652,4281.282227,4372.692383,4337.436035,4265.000000,4297.051270,2696.000000,4.000000,91.000000,,,,0.000000,4.000000,4.000000,4.000000,4.000000,4.000000,4.000000,4.000000,4.000000,4.000000,4.000000,4.000000,4.000000,4.000000,4.000000,100.000000,,,,,,,,,,,,,,,,
1645709876.938062,1645709876.950265,218.000000,0.000000,4289.358887,4351.538574,4249.743652,4362.179688,4257.179688,4246.282227,4211.025879,4213.717773,4218.846191,4274.102539,4367.563965,4334.743652,4265.641113,4296.922852,2377.000000,4.000000,91.000000,,,,0.000000,4.000000,4.000000,4.000000,4.000000,4.000000,4.000000,4.000000,4.000000,4.000000,4.000000,4.000000,4.000000,4.000000,4.000000,100.000000,,,,,,,,,,,,,,,,
1645709876.942002,1645709876.954205,219.000000,0.000000,4288.205078,4353.333496,4248.589844,4364.615234,4256.410156,4246.410156,4210.641113,4213.205078,4216.538574,4265.512695,4361.922852,4332.820313,4262.179688,4297.436035,2628.000000,4.000000,91.000000,,,,0.000000,4.000000,4.000000,4.000000,4.000000,4.000000,4.000000,4.000000,4.000000,4.000000,4.000000,4.000000,4.000000,4.000000,4.000000,100.000000,,,,,,,,,,,,,,,,
1645709876.945942,1645709876.958245,220.000000,0.000000,4287.436035,4356.410156,4247.307617,4365.000000,4259.358887,4248.461426,4212.948730,4213.589844,4214.487305,4261.153809,4358.333496,4331.922852,4256.794922,4297.179688,3159.000000,4.000000,91.000000,,,,0.000000,4.000000,4.000000,4.000000,4.000000,4.000000,4.000000,4.000000,4.000000,4.000000,4.000000,4.000000,4.000000,4.000000,4.000000,100.000000,,,,,,,,,,,,,,,,
1645709876.949882,1645709876.962185,221.000000,0.000000,4286.666504,4358.717773,4246.153809,4362.692383,4264.487305,4252.179688,4217.436035,4213.717773,4215.000000,4263.589844,4358.846191,4331.922852,4252.820313,4295.641113,2696.000000,4.000000,91.000000,,,,0.000000,4.000000,4.000000,4.000000,4.000000,4.000000,4.000000,4.000000,4.000000,4.000000,4.000000,4.000000,4.000000,4.000000,4.000000,100.000000,,,,,,,,,,,,,,,,
1645709876.953822,1645709876.966125,222.000000,0.000000,4287.563965,4358.846191,4246.538574,4359.102539,4268.205078,4255.769043,4221.666504,4213.846191,4218.461426,4269.615234,4362.692383,4332.179688,4252.563965,4293.846191,2377.000000,4.000000,91.000000,,,,0.000000,4.000000,4.000000,4.000000,4.000000,4.000000,4.000000,4.000000,4.000000,4.000000,4.000000,4.000000,4.000000,4.000000,4.000000,100.000000,,,,,,,,,,,,,,,,
1645709876.957762,1645709876.970065,223.000000,0.000000,4291.282227,4358.077148,4249.487305,4356.282227,4267.563965,4257.563965,4224.102539,4215.128418,4222.563965,4273.717773,4366.794922,4331.794922,4255.384766,4293.461426,2628.000000,4.000000,91.000000,,,,0.000000,4.000000,4.000000,4.000000,4.000000,4.000000,4.000000,4.000000,4.000000,4.000000,4.000000,4.000000,4.000000,4.000000,4.000000,100.000000,,,,,,,,,,,,,,,,
1645709876.961702,1645709876.974005,224.000000,0.000000,4295.641113,4357.948730,4254.102539,4355.897461,4263.205078,4256.794922,4224.743652,4218.333496,4225.512695,4273.461426,4368.461426,4330.000000,4258.461426,4295.256348,3159.000000,4.000000,91.000000,,,,0.000000,4.000000,4.000000,4.000000,4.000000,4.000000,4.000000,4.000000,4.000000,4.000000,4.000000,4.000000,4.000000,4.000000,4.000000,100.000000,,,,,,,,,,,,,,,,
1645709876.965642,1645709876.977945,225.000000,0.000000,4296.794922,4358.717773,4257.692383,4357.563965,4258.461426,4254.743652,4224.487305,4223.077148,4226.794922,4271.025879,4367.563965,4327.307617,4259.615234,4298.589844,2696.000000,4.000000,91.000000,,,,0.000000,4.000000,4.000000,4.000000,4.000000,4.000000,4.000000,4.000000,4.000000,4.000000,4.000000,4.000000,4.000000,4.000000,4.000000,100.000000,,,,,,,,,,,,,,,,
1645709876.969582,1645709876.981885,226.000000,0.000000,4292.948730,4357.948730,4258.077148,4358.846191,4256.153809,4252.692383,4224.230957,4227.307617,4227.436035,4270.128418,4364.871582,4325.000000,4258.205078,4300.897461,2377.000000,4.000000,91.000000,,,,0.000000,4.000000,4.000000,4.000000,4.000000,4.000000,4.000000,4.000000,4.000000,4.000000,4.000000,4.000000,4.000000,4.000000,4.000000,100.000000,,,,,,,,,,,,,,,,
1645709876.973522,1645709876.985826,227.000000,0.000000,4286.794922,4352.563965,4254.743652,4357.051270,4255.384766,4251.025879,4223.974121,4229.615234,4228.205078,4271.794922,4360.897461,4324.615234,4255.512695,4300.000000,2628.000000,4.000000,91.000000,,,,0.000000,4.000000,4.000000,4.000000,4.000000,4.000000,4.000000,4.000000,4.000000,4.000000,4.000000,4.000000,4.000000,4.000000,4.000000,100.000000,,,,,,,,,,,,,,,,
1645709876.977462,1645709876.989766,228.000000,0.000000,4282.179688,4342.563965,4250.000000,4351.410156,4253.205078,4249.102539,4223.589844,4228.461426,4228.717773,4273.589844,4355.897461,4326.282227,4252.307617,4295.641113,3159.000000,4.000000,91.000000,,,,0.000000,4.000000,4.000000,4.000000,4.000000,4.000000,4.000000,4.000000,4.000000,4.000000,4.000000,4.000000,4.000000,4.000000,4.000000,100.000000,,,,,,,,,,,,,,,,
1645709876.981402,1645709876.993706,229.000000,0.000000,4280.641113,4332.436035,4246.410156,4345.384766,4248.974121,4246.922852,4223.077148,4223.846191,4228.205078,4272.563965,4350.897461,4328.077148,4248.974121,4290.000000,2696.000000,4.000000,91.000000,,,,0.000000,4.000000,4.000000,4.000000,4.000000,4.000000,4.000000,4.000000,4.000000,4.000000,4.000000,4.000000,4.000000,4.000000,4.000000,100.000000,,,,,,,,,,,,,,,,
1645709876.985342,1645709876.997646,230.000000,0.000000,4280.641113,4328.589844,4245.000000,4343.717773,4245.512695,4245.000000,4222.307617,4217.436035,4225.769043,4267.436035,4348.205078,4327.563965,4246.538574,4285.897461,2377.000000,4.000000,91.000000,,,,0.000000,4.000000,4.000000,4.000000,4.000000,4.000000,4.000000,4.000000,4.000000,4.000000,4.000000,4.000000,4.000000,4.000000,4.000000,100.000000,,,,,,,,,,,,,,,,
1645709876.989282,1645709877.001586,231.000000,0.000000,4280.512695,4333.974121,4245.256348,4348.589844,4245.769043,4243.974121,4221.153809,4212.051270,4221.410156,4260.256348,4348.974121,4323.717773,4246.282227,4285.000000,2628.000000,4.000000,91.000000,,,,0.000000,4.000000,4.000000,4.000000,4.000000,4.000000,4.000000,4.000000,4.000000,4.000000,4.000000,4.000000,4.000000,4.000000,4.000000,100.000000,,,,,,,,,,,,,,,,
1645709876.993222,1645709877.005526,232.000000,0.000000,4280.769043,4344.230957,4246.538574,4356.666504,4249.743652,4243.333496,4219.358887,4210.384766,4216.282227,4253.974121,4352.179688,4318.589844,4248.846191,4287.692383,3159.000000,4.000000,91.000000,,,,0.000000,4.000000,4.000000,4.000000,4.000000,4.000000,4.000000,4.000000,4.000000,4.000000,4.000000,4.000000,4.000000,4.000000,4.000000,100.000000,,,,,,,,,,,,,,,,
1645709876.997162,1645709877.009466,233.000000,0.000000,4282.563965,4351.538574,4247.948730,4361.538574,4253.846191,4242.307617,4216.794922,4212.563965,4212.436035,4251.153809,4354.743652,4315.000000,4253.077148,4292.307617,2696.000000,4.000000,91.000000,,,,0.000000,4.000000,4.000000,4.000000,4.000000,4.000000,4.000000,4.000000,4.000000,4.000000,4.000000,4.000000,4.000000,4.000000,4.000000,100.000000,,,,,,,,,,,,,,,,
1645709877.001102,1645709877.013406,234.000000,0.000000,4285.769043,4350.769043,4249.230957,4359.102539,4254.743652,4241.025879,4214.358887,4215.769043,4211.666504,4252.307617,4355.000000,4315.641113,4256.410156,4296.282227,2377.000000,4.000000,91.000000,,,,0.000000,4.000000,4.000000,4.000000,4.000000,4.000000,4.000000,4.000000,4.000000,4.000000,4.000000,4.000000,4.000000,4.000000,4.000000,100.000000,,,,,,,,,,,,,,,,
1645709877.005042,1645709877.017346,235.000000,0.000000,4288.717773,4344.230957,4250.256348,4351.538574,4251.922852,4240.641113,4212.948730,4217.307617,4213.717773,4255.512695,4354.487305,4320.000000,4257.051270,4297.692383,2628.000000,4.000000,91.000000,,,,0.000000,4.000000,4.000000,4.000000,4.000000,4.000000,4.000000,4.000000,4.000000,4.000000,4.000000,4.000000,4.000000,4.000000,4.000000,100.000000,,,,,,,,,,,,,,,,
1645709877.008982,1645709877.021287,236.000000,0.000000,4289.615234,4338.846191,4251.025879,4345.256348,4247.820313,4241.538574,4212.692383,4216.666504,4217.051270,4257.948730,4355.897461,4326.025879,4255.384766,4296.794922,3159.000000,4.000000,91.000000,,,,0.000000,4.000000,4.000000,4.000000,4.000000,4.000000,4.000000,4.000000,4.000000,4.000000,4.000000,4.000000,4.000000,4.000000,4.000000,100.000000,,,,,,,,,,,,,,,,
1645709877.012922,1645709877.025227,237.000000,0.000000,4289.358887,4339.230957,4251.666504,4345.128418,4245.769043,4242.563965,4212.307617,4215.256348,4219.358887,4257.179688,4359.230957,4330.769043,4252.563965,4295.128418,2696.000000,4.000000,91.000000,,,,0.000000,4.000000,4.000000,4.000000,4.000000,4.000000,4.000000,4.000000,4.000000,4.000000,4.000000,4.000000,4.000000,4.000000,4.000000,100.000000,,,,,,,,,,,,,,,,
1645709877.016863,1645709877.029267,238.000000,0.000000,4289.743652,4343.974121,4251.922852,4350.641113,4246.410156,4241.794922,4210.641113,4214.615234,4219.358887,4252.563965,4361.153809,4332.692383,4249.615234,4294.358887,2377.000000,4.000000,91.000000,,,,0.000000,4.000000,4.000000,4.000000,4.000000,4.000000,4.000000,4.000000,4.000000,4.000000,4.000000,4.000000,4.000000,4.000000,4.000000,100.000000,,,,,,,,,,,,,,,,
1645709877.020802,1645709877.033207,239.000000,0.000000,4291.538574,4348.333496,4251.410156,4357.307617,4248.846191,4239.102539,4208.205078,4214.615234,4217.563965,4246.538574,4359.230957,4331.666504,4247.692383,4295.128418,2628.000000,4.000000,91.000000,,,,0.000000,4.000000,4.000000,4.000000,4.000000,4.000000,4.000000,4.000000,4.000000,4.000000,4.000000,4.000000,4.000000,4.000000,4.000000,100.000000,,,,,,,,,,,,,,,,
1645709877.024742,1645709877.037147,240.000000,0.000000,4293.333496,4348.077148,4250.512695,4361.025879,4251.922852,4236.922852,4206.666504,4214.487305,4215.641113,4242.948730,4354.358887,4328.846191,4247.179688,4296.410156,3159.000000,4.000000,91.000000,,,,0.000000,4.000000,4.000000,4.000000,4.000000,4.000000,4.000000,4.000000,4.000000,4.000000,4.000000,4.000000,4.000000,4.000000,4.000000,100.000000,,,,,,,,,,,,,,,,
1645709877.028683,1645709877.041087,241.000000,0.000000,4293.589844,4343.846191,4250.000000,4360.128418,4254.615234,4237.820313,4206.794922,4213.846191,4215.384766,4245.000000,4350.256348,4325.512695,4248.461426,4297.051270,2696.000000,4.000000,91.000000,,,,0.000000,4.000000,4.000000,4.000000,4.000000,4.000000,4.000000,4.000000,4.000000,4.000000,4.000000,4.000000,4.000000,4.000000,4.000000,100.000000,,,,,,,,,,,,,,,,
1645709877.032622,1645709877.045027,242.000000,0.000000,4292.436035,4338.846191,4249.871582,4355.128418,4256.794922,4241.410156,4207.820313,4213.077148,4216.538574,4251.794922,4349.487305,4322.948730,4250.384766,4296.538574,2377.000000,4.000000,91.000000,,,,0.000000,4.000000,4.000000,4.000000,4.000000,4.000000,4.000000,4.000000,4.000000,4.000000,4.000000,4.000000,4.000000,4.000000,4.000000,100.000000,,,,,,,,,,,,,,,,
1645709877.036563,1645709877.048967,243.000000,0.000000,4290.897461,4336.538574,4248.974121,4348.333496,4257.820313,4244.358887,4208.846191,4212.820313,4217.436035,4259.230957,4351.410156,4321.666504,4251.025879,4295.512695,2628.000000,4.000000,91.000000,,,,0.000000,4.000000,4.000000,4.000000,4.000000,4.000000,4.000000,4.000000,4.000000,4.000000,4.000000,4.000000,4.000000,4.000000,4.000000,100.000000,,,,,,,,,,,,,,,,
1645709877.040503,1645709877.052907,244.000000,0.000000,4289.487305,4337.692383,4246.794922,4342.692383,4257.436035,4244.230957,4210.256348,4212.948730,4217.436035,4262.948730,4353.589844,4321.794922,4249.230957,4295.000000,3159.000000,4.000000,91.000000,,,,0.000000,4.000000,4.000000,4.000000,4.000000,4.000000,4.000000,4.000000,4.000000,4.000000,4.000000,4.000000,4.000000,4.000000,4.000000,100.000000,,,,,,,,,,,,,,,,
1645709877.044443,1645709877.056947,245.000000,0.000000,4287.948730,4340.641113,4244.230957,4340.384766,4256.025879,4242.179688,4212.948730,4213.589844,4216.794922,4261.794922,4354.487305,4322.692383,4246.794922,4295.256348,2696.000000,4.000000,91.000000,,,,0.000000,4.000000,4.000000,4.000000,4.000000,4.000000,4.000000,4.000000,4.000000,4.000000,4.000000,4.000000,4.000000,4.000000,4.000000,100.000000,,,,,,,,,,,,,,,,
1645709877.048383,1645709877.060887,246.000000,0.000000,4286.025879,4342.436035,4242.948730,4341.794922,4254.230957,4241.666504,4217.436035,4214.743652,4216.922852,4258.846191,4353.846191,4323.974121,4246.666504,4295.512695,2377.000000,4.000000,91.000000,,,,0.000000,4.000000,4.000000,4.000000,4.000000,4.000000,4.000000,4.000000,4.000000,4.000000,4.000000,4.000000,4.000000,4.000000,4.000000,100.000000,,,,,,,,,,,,,,,,
1645709877.052323,1645709877.064827,247.000000,0.000000,4284.743652,4341.410156,4244.358887,4344.358887,4252.820313,4244.615234,4222.948730,4216.666504,4218.846191,4257.563965,4353.077148,4325.769043,4250.256348,4295.256348,2628.000000,4.000000,91.000000,,,,0.000000,4.000000,4.000000,4.000000,4.000000,4.000000,4.000000,4.000000,4.000000,4.000000,4.000000,4.000000,4.000000,4.000000,4.000000,100.000000,,,,,,,,,,,,,,,,
1645709877.056263,1645709877.068768,248.000000,0.000000,4285.897461,4337.820313,4247.692383,4345.512695,4251.666504,4249.743652,4227.820313,4218.461426,4221.922852,4259.102539,4352.820313,4328.077148,4255.256348,4294.358887,3159.000000,4.000000,91.000000,,,,0.000000,4.000000,4.000000,4.000000,4.000000,4.000000,4.000000,4.000000,4.000000,4.000000,4.000000,4.000000,4.000000,4.000000,4.000000,100.000000,,,,,,,,,,,,,,,,
1645709877.060203,1645709877.072708,249.000000,0.000000,4289.102539,4332.948730,4250.769043,4344.615234,4251.153809,4253.974121,4230.000000,4219.615234,4223.846191,4260.384766,4352.820313,4329.358887,4257.307617,4293.461426,2696.000000,4.000000,91.000000,,,,0.000000,4.000000,4.000000,4.000000,4.000000,4.000000,4.000000,4.000000,4.000000,4.000000,4.000000,4.000000,4.000000,4.000000,4.000000,100.000000,,,,,,,,,,,,,,,,
1645709877.064143,1645709877.076648,250.000000,0.000000,4292.179688,4328.974121,4251.282227,4342.563965,4252.179688,4255.769043,4229.358887,4219.230957,4222.948730,4258.333496,4352.179688,4327.563965,4253.974121,4293.077148,2377.000000,4.000000,91.000000,,,,0.000000,4.000000,4.000000,4.000000,4.000000,4.000000,4.000000,4.000000,4.000000,4.000000,4.000000,4.000000,4.000000,4.000000,4.000000,100.000000,,,,,,,,,,,,,,,,
1645709877.068083,1645709877.080688,251.000000,0.000000,4292.692383,4327.692383,4248.589844,4340.641113,4255.641113,4255.384766,4226.922852,4217.051270,4219.487305,4252.948730,4350.128418,4322.563965,4246.666504,4293.589844,2628.000000,4.000000,91.000000,,,,0.000000,4.000000,4.000000,4.000000,4.000000,4.000000,4.000000,4.000000,4.000000,4.000000,4.000000,4.000000,4.000000,4.000000,4.000000,100.000000,,,,,,,,,,,,,,,,
1645709877.072023,1645709877.084628,252.000000,0.000000,4290.641113,4328.974121,4243.717773,4338.846191,4259.743652,4254.358887,4224.487305,4214.615234,4216.025879,4247.307617,4347.820313,4316.410156,4239.615234,4294.358887,3159.000000,4.000000,91.000000,,,,0.000000,4.000000,4.000000,4.000000,4.000000,4.000000,4.000000,4.000000,4.000000,4.000000,4.000000,4.000000,4.000000,4.000000,4.000000,100.000000,,,,,,,,,,,,,,,,
1645709877.075963,1645709877.088568,253.000000,0.000000,4288.077148,4331.410156,4238.461426,4336.538574,4261.794922,4253.077148,4223.589844,4214.102539,4215.128418,4244.871582,4346.922852,4312.436035,4236.794922,4294.487305,2696.000000,4.000000,91.000000,,,,0.000000,4.000000,4.000000,4.000000,4.000000,4.000000,4.000000,4.000000,4.000000,4.000000,4.000000,4.000000,4.000000,4.000000,4.000000,100.000000,,,,,,,,,,,,,,,,
1645709877.079903,1645709877.092508,254.000000,0.000000,4286.666504,4333.333496,4235.000000,4333.974121,4259.743652,4251.794922,4224.487305,4216.410156,4217.307617,4246.410156,4347.948730,4312.563965,4238.333496,4293.077148,2377.000000,4.000000,91.000000,,,,0.000000,4.000000,4.000000,4.000000,4.000000,4.000000,4.000000,4.000000,4.000000,4.000000,4.000000,4.000000,4.000000,4.000000,4.000000,100.000000,,,,,,,,,,,,,,,,
1645709877.083843,1645709877.096448,255.000000,0.000000,4286.025879,4333.846191,4234.102539,4331.794922,4254.615234,4251.025879,4226.025879,4219.358887,4220.641113,4249.743652,4349.487305,4314.615234,4240.769043,4290.128418,114.000000,4.000000,91.000000,,,,0.000000,4.000000,4.000000,4.000000,4.000000,4.000000,4.000000,4.000000,4.000000,4.000000,4.000000,4.000000,4.000000,4.000000,4.000000,100.000000,,,,,,,,,,,,,,,,
1645709877.087783,1645709877.100388,0.000000,0.000000,4284.615234,4332.692383,4234.871582,4331.410156,4249.102539,4251.282227,4226.410156,4219.615234,4222.436035,4252.820313,4348.589844,4314.871582,4239.102539,4286.025879,3363.000000,4.000000,91.000000,,,,0.000000,4.000000,4.000000,4.000000,4.000000,4.000000,4.000000,4.000000,4.000000,4.000000,4.000000,4.000000,4.000000,4.000000,4.000000,100.000000,,,,,,,,,,,,,,,,
1645709877.091723,1645709877.104328,1.000000,0.000000,4281.666504,4329.487305,4235.512695,4332.307617,4245.769043,4251.794922,4224.358887,4215.256348,4221.282227,4253.461426,4343.333496,4310.256348,4231.538574,4281.538574,3394.000000,4.000000,91.000000,,,,0.000000,4.000000,4.000000,4.000000,4.000000,4.000000,4.000000,4.000000,4.000000,4.000000,4.000000,4.000000,4.000000,4.000000,4.000000,100.000000,,,,,,,,,,,,,,,,
1645709877.095663,1645709877.108269,2.000000,0.000000,4278.461426,4323.846191,4233.846191,4333.077148,4245.256348,4250.897461,4220.000000,4208.205078,4218.077148,4250.641113,4335.512695,4302.692383,4220.641113,4277.307617,2429.000000,4.000000,91.000000,,,,0.000000,4.000000,4.000000,4.000000,4.000000,4.000000,4.000000,4.000000,4.000000,4.000000,4.000000,4.000000,4.000000,4.000000,4.000000,100.000000,,,,,,,,,,,,,,,,
1645709877.099603,1645709877.112209,3.000000,0.000000,4277.179688,4317.436035,4230.000000,4332.051270,4247.179688,4247.948730,4216.025879,4203.333496,4215.000000,4244.487305,4329.102539,4296.922852,4211.922852,4274.615234,3346.000000,4.000000,91.000000,,,,0.000000,4.000000,4.000000,4.000000,4.000000,4.000000,4.000000,4.000000,4.000000,4.000000,4.000000,4.000000,4.000000,4.000000,4.000000,100.000000,,,,,,,,,,,,,,,,
1645709877.103543,1645709877.116149,4.000000,0.000000,4278.333496,4313.333496,4226.538574,4329.358887,4250.769043,4244.871582,4214.615234,4203.974121,4213.846191,4238.077148,4328.333496,4296.794922,4209.230957,4274.871582,3618.000000,4.000000,91.000000,,,,0.000000,4.000000,4.000000,4.000000,4.000000,4.000000,4.000000,4.000000,4.000000,4.000000,4.000000,4.000000,4.000000,4.000000,4.000000,100.000000,,,,,,,,,,,,,,,,
1645709877.107483,1645709877.120089,5.000000,0.000000,4280.897461,4314.487305,4225.769043,4326.794922,4255.384766,4244.230957,4217.051270,4208.717773,4215.000000,4235.256348,4333.846191,4301.922852,4212.051270,4278.717773,3397.000000,4.000000,91.000000,,,,0.000000,4.000000,4.000000,4.000000,4.000000,4.000000,4.000000,4.000000,4.000000,4.000000,4.000000,4.000000,4.000000,4.000000,4.000000,100.000000,,,,,,,,,,,,,,,,
1645709877.111423,1645709877.124029,6.000000,0.000000,4283.589844,4319.871582,4228.461426,4326.922852,4259.102539,4246.410156,4221.922852,4213.205078,4217.179688,4238.333496,4341.282227,4308.205078,4216.538574,4284.615234,3225.000000,4.000000,91.000000,,,,0.000000,4.000000,4.000000,4.000000,4.000000,4.000000,4.000000,4.000000,4.000000,4.000000,4.000000,4.000000,4.000000,4.000000,4.000000,100.000000,,,,,,,,,,,,,,,,
1645709877.115363,1645709877.127969,7.000000,0.000000,4285.641113,4326.153809,4232.307617,4330.384766,4259.743652,4249.743652,4226.153809,4213.589844,4218.717773,4245.256348,4345.256348,4311.666504,4218.333496,4289.230957,2201.000000,4.000000,91.000000,,,,0.000000,4.000000,4.000000,4.000000,4.000000,4.000000,4.000000,4.000000,4.000000,4.000000,4.000000,4.000000,4.000000,4.000000,4.000000,100.000000,,,,,,,,,,,,,,,,
1645709877.119303,1645709877.131909,8.000000,0.000000,4286.794922,4329.230957,4234.743652,4335.384766,4257.051270,4251.922852,4227.563965,4210.384766,4218.589844,4252.051270,4343.461426,4310.897461,4216.666504,4290.641113,1410.000000,4.000000,91.000000,,,,0.000000,4.000000,4.000000,4.000000,4.000000,4.000000,4.000000,4.000000,4.000000,4.000000,4.000000,4.000000,4.000000,4.000000,4.000000,100.000000,,,,,,,,,,,,,,,,
1645709877.123243,1645709877.135849,9.000000,0.000000,4286.410156,4328.205078,4234.358887,4338.846191,4253.077148,4252.179688,4226.153809,4206.025879,4217.692383,4255.769043,4338.205078,4308.205078,4214.102539,4289.230957,3184.000000,4.000000,91.000000,,,,0.000000,4.000000,4.000000,4.000000,4.000000,4.000000,4.000000,4.000000,4.000000,4.000000,4.000000,4.000000,4.000000,4.000000,4.000000,100.000000,,,,,,,,,,,,,,,,
1645709877.127183,1645709877.139789,10.000000,0.000000,4283.974121,4324.230957,4232.051270,4339.743652,4250.769043,4251.282227,4223.846191,4203.333496,4217.307617,4256.282227,4334.358887,4306.922852,4212.820313,4286.538574,2355.000000,4.000000,91.000000,,,,0.000000,4.000000,4.000000,4.000000,4.000000,4.000000,4.000000,4.000000,4.000000,4.000000,4.000000,4.000000,4.000000,4.000000,4.000000,100.000000,,,,,,,,,,,,,,,,
1645709877.131123,1645709877.143729,11.000000,0.000000,4281.153809,4319.615234,4229.358887,4338.589844,4251.538574,4251.025879,4222.307617,4203.461426,4217.948730,4254.358887,4333.846191,4308.846191,4212.563965,4283.589844,2783.000000,4.000000,91.000000,,,,0.000000,4.000000,4.000000,4.000000,4.000000,4.000000,4.000000,4.000000,4.000000,4.000000,4.000000,4.000000,4.000000,4.000000,4.000000,100.000000,,,,,,,,,,,,,,,,
1645709877.135064,1645709877.147769,12.000000,0.000000,4280.000000,4316.282227,4227.692383,4336.025879,4253.846191,4251.666504,4222.051270,4205.256348,4218.589844,4251.153809,4335.128418,4312.436035,4211.794922,4280.256348,3169.000000,4.000000,91.000000,,,,0.000000,4.000000,4.000000,4.000000,4.000000,4.000000,4.000000,4.000000,4.000000,4.000000,4.000000,4.000000,4.000000,4.000000,4.000000,100.000000,,,,,,,,,,,,,,,,
1645709877.139004,1645709877.151710,13.000000,0.000000,4281.538574,4315.641113,4227.820313,4331.922852,4255.128418,4252.692383,4222.692383,4207.051270,4217.820313,4247.820313,4335.512695,4314.871582,4209.871582,4276.794922,2826.000000,4.000000,91.000000,,,,0.000000,4.000000,4.000000,4.000000,4.000000,4.000000,4.000000,4.000000,4.000000,4.000000,4.000000,4.000000,4.000000,4.000000,4.000000,100.000000,,,,,,,,,,,,,,,,
1645709877.142944,1645709877.155650,14.000000,0.000000,4283.974121,4317.820313,4229.487305,4326.410156,4254.487305,4252.820313,4223.717773,4207.820313,4215.897461,4246.282227,4335.000000,4314.102539,4208.589844,4274.743652,2355.000000,4.000000,91.000000,,,,0.000000,4.000000,4.000000,4.000000,4.000000,4.000000,4.000000,4.000000,4.000000,4.000000,4.000000,4.000000,4.000000,4.000000,4.000000,100.000000,,,,,,,,,,,,,,,,
1645709877.146884,1645709877.159590,15.000000,0.000000,4285.000000,4321.538574,4231.922852,4321.538574,4253.589844,4251.922852,4224.743652,4208.205078,4214.743652,4248.717773,4335.384766,4311.025879,4210.256348,4275.384766,2783.000000,4.000000,91.000000,,,,0.000000,4.000000,4.000000,4.000000,4.000000,4.000000,4.000000,4.000000,4.000000,4.000000,4.000000,4.000000,4.000000,4.000000,4.000000,100.000000,,,,,,,,,,,,,,,,
1645709877.150824,1645709877.163530,16.000000,0.000000,4284.102539,4324.358887,4234.102539,4319.358887,4253.846191,4250.256348,4225.256348,4209.743652,4216.538574,4254.358887,4338.205078,4308.333496,4215.000000,4278.846191,3169.000000,4.000000,91.000000,,,,0.000000,4.000000,4.000000,4.000000,4.000000,4.000000,4.000000,4.000000,4.000000,4.000000,4.000000,4.000000,4.000000,4.000000,4.000000,100.000000,,,,,,,,,,,,,,,,
1645709877.154764,1645709877.167470,17.000000,0.000000,4283.205078,4324.487305,4234.743652,4320.769043,4254.487305,4248.717773,4225.512695,4213.333496,4221.153809,4259.358887,4341.282227,4309.102539,4219.871582,4283.589844,2826.000000,4.000000,91.000000,,,,0.000000,4.000000,4.000000,4.000000,4.000000,4.000000,4.000000,4.000000,4.000000,4.000000,4.000000,4.000000,4.000000,4.000000,4.000000,100.000000,,,,,,,,,,,,,,,,
1645709877.158704,1645709877.171410,18.000000,0.000000,4283.846191,4322.436035,4233.974121,4325.128418,4253.461426,4247.948730,4226.410156,4217.563965,4226.025879,4259.487305,4341.538574,4312.948730,4221.282227,4287.179688,2355.000000,4.000000,91.000000,,,,0.000000,4.000000,4.000000,4.000000,4.000000,4.000000,4.000000,4.000000,4.000000,4.000000,4.000000,4.000000,4.000000,4.000000,4.000000,100.000000,1.000000,58.333332,4.000000,3.000000,4.000000,1.000000,4.000000,4.000000,4.000000,4.000000,4.000000,4.000000,3.000000,4.000000,4.000000,4.000000
1645709877.162644,1645709877.175350,19.000000,0.000000,4285.000000,4320.128418,4232.051270,4331.025879,4250.128418,4247.948730,4227.948730,4219.871582,4228.077148,4254.615234,4338.077148,4316.538574,4217.820313,4287.692383,2783.000000,4.000000,91.000000,,,,0.000000,4.000000,4.000000,4.000000,4.000000,4.000000,4.000000,4.000000,4.000000,4.000000,4.000000,4.000000,4.000000,4.000000,4.000000,100.000000,,,,,,,,,,,,,,,,
1645709877.166584,1645709877.179290,20.000000,0.000000,4284.230957,4318.846191,4229.743652,4336.538574,4246.794922,4247.948730,4228.205078,4218.846191,4226.282227,4248.846191,4333.333496,4315.769043,4212.307617,4284.743652,3169.000000,4.000000,91.000000,,,,0.000000,4.000000,4.000000,4.000000,4.000000,4.000000,4.000000,4.000000,4.000000,4.000000,4.000000,4.000000,4.000000,4.000000,4.000000,100.000000,,,,,,,,,,,,,,,,
1645709877.170524,1645709877.183230,21.000000,0.000000,4281.153809,4317.179688,4227.307617,4339.102539,4245.769043,4246.410156,4224.615234,4215.512695,4222.436035,4245.512695,4330.512695,4309.871582,4208.974121,4279.871582,2826.000000,4.000000,91.000000,,,,0.000000,4.000000,4.000000,4.000000,4.000000,4.000000,4.000000,4.000000,4.000000,4.000000,4.000000,4.000000,4.000000,4.000000,4.000000,100.000000,,,,,,,,,,,,,,,,
1645709877.174464,1645709877.187171,22.000000,0.000000,4277.692383,4313.974121,4225.512695,4336.922852,4247.563965,4243.077148,4217.692383,4212.563965,4219.743652,4245.512695,4331.282227,4302.563965,4209.615234,4276.282227,2355.000000,4.000000,91.000000,,,,0.000000,4.000000,4.000000,4.000000,4.000000,4.000000,4.000000,4.000000,4.000000,4.000000,4.000000,4.000000,4.000000,4.000000,4.000000,100.000000,,,,,,,,,,,,,,,,
1645709877.178404,1645709877.191111,23.000000,0.000000,4276.666504,4309.743652,4225.512695,4331.282227,4250.000000,4239.102539,4211.794922,4212.436035,4220.512695,4246.538574,4334.615234,4298.461426,4212.307617,4276.666504,2783.000000,4.000000,91.000000,,,,0.000000,4.000000,4.000000,4.000000,4.000000,4.000000,4.000000,4.000000,4.000000,4.000000,4.000000,4.000000,4.000000,4.000000,4.000000,100.000000,,,,,,,,,,,,,,,,
1645709877.182344,1645709877.195051,24.000000,0.000000,4279.102539,4307.051270,4227.563965,4326.794922,4251.025879,4237.820313,4211.794922,4215.128418,4224.487305,4247.563965,4338.846191,4299.615234,4214.102539,4280.512695,3169.000000,4.000000,91.000000,,,,0.000000,4.000000,4.000000,4.000000,4.000000,4.000000,4.000000,4.000000,4.000000,4.000000,4.000000,4.000000,4.000000,4.000000,4.000000,100.000000,,,,,,,,,,,,,,,,
1645709877.186284,1645709877.198991,25.000000,0.000000,4283.077148,4308.077148,4230.897461,4327.307617,4250.512695,4240.897461,4218.205078,4218.461426,4228.589844,4248.846191,4342.307617,4304.230957,4213.333496,4284.487305,2826.000000,4.000000,91.000000,,,,0.000000,4.000000,4.000000,4.000000,4.000000,4.000000,4.000000,4.000000,4.000000,4.000000,4.000000,4.000000,4.000000,4.000000,4.000000,100.000000,,,,,,,,,,,,,,,,
1645709877.190224,1645709877.202931,26.000000,0.000000,4286.410156,4311.922852,4233.717773,4331.666504,4249.102539,4246.410156,4226.538574,4220.000000,4229.487305,4250.000000,4342.820313,4307.948730,4210.512695,4285.000000,2355.000000,4.000000,91.000000,,,,0.000000,4.000000,4.000000,4.000000,4.000000,4.000000,4.000000,4.000000,4.000000,4.000000,4.000000,4.000000,4.000000,4.000000,4.000000,100.000000,,,,,,,,,,,,,,,,
1645709877.194164,1645709877.206871,27.000000,0.000000,4287.948730,4314.743652,4234.102539,4334.487305,4247.692383,4250.128418,4230.641113,4218.333496,4225.897461,4249.358887,4339.358887,4307.051270,4206.794922,4281.666504,2783.000000,4.000000,91.000000,,,,0.000000,4.000000,4.000000,4.000000,4.000000,4.000000,4.000000,4.000000,4.000000,4.000000,4.000000,4.000000,4.000000,4.000000,4.000000,100.000000,,,,,,,,,,,,,,,,
1645709877.198104,1645709877.210811,28.000000,0.000000,4287.436035,4312.820313,4232.436035,4331.922852,4246.538574,4249.102539,4227.436035,4214.615234,4219.615234,4246.025879,4332.307617,4301.666504,4203.205078,4277.307617,3169.000000,4.000000,91.000000,,,,0.000000,4.000000,4.000000,4.000000,4.000000,4.000000,4.000000,4.000000,4.000000,4.000000,4.000000,4.000000,4.000000,4.000000,4.000000,100.000000,,,,,,,,,,,,,,,,
1645709877.202044,1645709877.214751,29.000000,0.000000,4285.128418,4306.794922,4230.256348,4325.641113,4246.153809,4244.230957,4220.000000,4211.282227,4214.487305,4241.410156,4325.384766,4295.000000,4201.282227,4275.384766,2826.000000,4.000000,91.000000,,,,0.000000,4.000000,4.000000,4.000000,4.000000,4.000000,4.000000,4.000000,4.000000,4.000000,4.000000,4.000000,4.000000,4.000000,4.000000,100.000000,,,,,,,,,,,,,,,,
1645709877.205984,1645709877.218791,30.000000,0.000000,4281.794922,4301.282227,4229.743652,4321.794922,4247.948730,4239.743652,4214.102539,4210.769043,4213.333496,4238.333496,4323.077148,4290.897461,4202.179688,4276.794922,2355.000000,4.000000,91.000000,,,,0.000000,4.000000,4.000000,4.000000,4.000000,4.000000,4.000000,4.000000,4.000000,4.000000,4.000000,4.000000,4.000000,4.000000,4.000000,100.000000,,,,,,,,,,,,,,,,
1645709877.209924,1645709877.222731,31.000000,0.000000,4279.358887,4300.769043,4231.025879,4324.615234,4252.307617,4238.717773,4213.974121,4212.948730,4215.897461,4239.230957,4326.794922,4291.025879,4205.256348,4279.871582,2783.000000,4.000000,91.000000,,,,0.000000,4.000000,4.000000,4.000000,4.000000,4.000000,4.000000,4.000000,4.000000,4.000000,4.000000,4.000000,4.000000,4.000000,4.000000,100.000000,,,,,,,,,,,,,,,,
1645709877.213864,1645709877.226672,32.000000,0.000000,4279.230957,4305.000000,4231.922852,4332.051270,4256.922852,4240.769043,4218.717773,4216.025879,4219.487305,4243.589844,4332.692383,4293.333496,4207.820313,4281.922852,0.000000,4.000000,91.000000,,,,0.000000,4.000000,4.000000,4.000000,4.000000,4.000000,4.000000,4.000000,4.000000,4.000000,4.000000,4.000000,4.000000,4.000000,4.000000,100.000000,,,,,,,,,,,,,,,,
1645709877.217804,1645709877.230612,33.000000,0.000000,4281.025879,4309.615234,4230.256348,4337.820313,4258.461426,4242.692383,4223.974121,4216.794922,4220.641113,4247.820313,4334.743652,4294.743652,4206.794922,4281.538574,0.000000,4.000000,91.000000,1,1,1,0.000000,4.000000,4.000000,4.000000,4.000000,4.000000,4.000000,4.000000,4.000000,4.000000,4.000000,4.000000,4.000000,4.000000,4.000000,100.000000,,,,,,,,,,,,,,,,
1645709877.221744,1645709877.234552,34.000000,0.000000,4282.563965,4310.256348,4225.512695,4336.794922,4255.000000,4243.077148,4225.769043,4214.487305,4218.589844,4248.461426,4330.128418,4293.333496,4202.179688,4279.358887,0.000000,4.000000,91.000000,,,,0.000000,4.000000,4.000000,4.000000,4.000000,4.000000,4.000000,4.000000,4.000000,4.000000,4.000000,4.000000,4.000000,4.000000,4.000000,100.000000,,,,,,,,,,,,,,,,
1645709877.225684,1645709877.238492,35.000000,0.000000,4281.410156,4306.666504,4220.384766,4329.487305,4249.230957,4243.205078,4224.102539,4211.025879,4216.025879,4244.358887,4322.436035,4290.000000,4197.179688,4276.922852,0.000000,4.000000,91.000000,,,,0.000000,4.000000,4.000000,4.000000,4.000000,4.000000,4.000000,4.000000,4.000000,4.000000,4.000000,4.000000,4.000000,4.000000,4.000000,100.000000,,,,,,,,,,,,,,,,
1645709877.229624,1645709877.242432,36.000000,0.000000,4278.333496,4302.563965,4218.589844,4320.897461,4245.512695,4245.000000,4221.410156,4209.615234,4215.897461,4237.948730,4318.205078,4287.179688,4195.512695,4275.897461,0.000000,4.000000,91.000000,,,,0.000000,4.000000,4.000000,4.000000,4.000000,4.000000,4.000000,4.000000,4.000000,4.000000,4.000000,4.000000,4.000000,4.000000,4.000000,100.000000,,,,,,,,,,,,,,,,
1645709877.233565,1645709877.246372,37.000000,0.000000,4276.153809,4301.538574,4221.153809,4315.512695,4245.641113,4247.563965,4220.769043,4211.410156,4218.846191,4233.077148,4320.641113,4287.179688,4197.948730,4276.794922,0.000000,4.000000,91.000000,,,,0.000000,4.000000,4.000000,4.000000,4.000000,4.000000,4.000000,4.000000,4.000000,4.000000,4.000000,4.000000,4.000000,4.000000,4.000000,100.000000,,,,,,,,,,,,,,,,
1645709877.237504,1645709877.250312,38.000000,0.000000,4277.179688,4302.820313,4225.897461,4314.615234,4248.205078,4248.589844,4222.436035,4215.128418,4222.179688,4232.692383,4326.794922,4289.102539,4201.922852,4278.589844,0.000000,4.000000,91.000000,,,,0.000000,4.000000,4.000000,4.000000,4.000000,4.000000,4.000000,4.000000,4.000000,4.000000,4.000000,4.000000,4.000000,4.000000,4.000000,100.000000,,,,,,,,,,,,,,,,
1645709877.241444,1645709877.254252,39.000000,0.000000,4280.000000,4303.461426,4228.461426,4315.641113,4250.512695,4246.666504,4224.743652,4217.563965,4222.948730,4236.922852,4331.282227,4290.512695,4204.871582,4279.871582,0.000000,4.000000,91.000000,,,,0.000000,4.000000,4.000000,4.000000,4.000000,4.000000,4.000000,4.000000,4.000000,4.000000,4.000000,4.000000,4.000000,4.000000,4.000000,100.000000,,,,,,,,,,,,,,,,
1645709877.245385,1645709877.258192,40.000000,0.000000,4280.769043,4301.282227,4225.769043,4314.615234,4251.153809,4243.461426,4225.769043,4217.051270,4221.410156,4243.589844,4331.282227,4289.358887,4205.384766,4279.487305,0.000000,4.000000,91.000000,,,,0.000000,4.000000,4.000000,4.000000,4.000000,4.000000,4.000000,4.000000,4.000000,4.000000,4.000000,4.000000,4.000000,4.000000,4.000000,100.000000,,,,,,,,,,,,,,,,
1645709877.249325,1645709877.262132,41.000000,0.000000,4277.436035,4297.436035,4219.230957,4310.384766,4250.641113,4241.538574,4225.128418,4214.487305,4220.256348,4249.487305,4328.333496,4286.025879,4204.487305,4278.461426,0.000000,4.000000,91.000000,,,,0.000000,4.000000,4.000000,4.000000,4.000000,4.000000,4.000000,4.000000,4.000000,4.000000,4.000000,4.000000,4.000000,4.000000,4.000000,100.000000,,,,,,,,,,,,,,,,
1645709877.253265,1645709877.266073,42.000000,0.000000,4272.563965,4294.487305,4212.820313,4305.000000,4249.102539,4241.666504,4223.077148,4212.563965,4222.179688,4251.538574,4325.769043,4283.461426,4203.333496,4278.077148,0.000000,4.000000,91.000000,,,,0.000000,4.000000,4.000000,4.000000,4.000000,4.000000,4.000000,4.000000,4.000000,4.000000,4.000000,4.000000,4.000000,4.000000,4.000000,100.000000,,,,,,,,,,,,,,,,
1645709877.257205,1645709877.270013,43.000000,0.000000,4270.512695,4294.102539,4210.384766,4302.692383,4246.666504,4243.077148,4220.769043,4213.077148,4226.282227,4249.615234,4325.256348,4283.846191,4202.692383,4278.717773,0.000000,4.000000,91.000000,,,,0.000000,4.000000,4.000000,4.000000,4.000000,4.000000,4.000000,4.000000,4.000000,4.000000,4.000000,4.000000,4.000000,4.000000,4.000000,100.000000,,,,,,,,,,,,,,,,
1645709877.261145,1645709877.273953,44.000000,0.000000,4273.589844,4295.512695,4212.820313,4305.641113,4243.589844,4244.358887,4219.358887,4215.769043,4229.743652,4246.282227,4326.025879,4287.563965,4202.563965,4279.230957,0.000000,4.000000,91.000000,,,,0.000000,4.000000,4.000000,4.000000,4.000000,4.000000,4.000000,4.000000,4.000000,4.000000,4.000000,4.000000,4.000000,4.000000,4.000000,100.000000,,,,,,,,,,,,,,,,
1645709877.265085,1645709877.277893,45.000000,0.000000,4279.487305,4296.922852,4217.436035,4312.436035,4241.794922,4244.743652,4220.000000,4218.333496,4230.384766,4244.615234,4326.282227,4292.563965,4203.077148,4279.487305,0.000000,4.000000,91.000000,,,,0.000000,4.000000,4.000000,4.000000,4.000000,4.000000,4.000000,4.000000,4.000000,4.000000,4.000000,4.000000,4.000000,4.000000,4.000000,100.000000,,,,,,,,,,,,,,,,
1645709877.269025,1645709877.281833,46.000000,0.000000,4283.333496,4296.922852,4220.897461,4319.102539,4242.948730,4244.102539,4222.563965,4218.974121,4228.333496,4245.897461,4325.897461,4296.025879,4203.846191,4279.615234,0.000000,4.000000,91.000000,,,,0.000000,4.000000,4.000000,4.000000,4.000000,4.000000,4.000000,4.000000,4.000000,4.000000,4.000000,4.000000,4.000000,4.000000,4.000000,100.000000,,,,,,,,,,,,,,,,
1645709877.272965,1645709877.285773,47.000000,0.000000,4283.077148,4295.641113,4221.153809,4321.282227,4247.051270,4242.948730,4225.256348,4217.563965,4225.384766,4248.077148,4325.128418,4296.282227,4204.358887,4280.128418,0.000000,4.000000,91.000000,,,,0.000000,4.000000,4.000000,4.000000,4.000000,4.000000,4.000000,4.000000,4.000000,4.000000,4.000000,4.000000,4.000000,4.000000,4.000000,100.000000,,,,,,,,,,,,,,,,
1645709877.276905,1645709877.289813,48.000000,0.000000,4280.128418,4293.205078,4218.846191,4317.179688,4251.922852,4242.307617,4225.897461,4215.256348,4223.461426,4248.461426,4323.974121,4293.077148,4203.846191,4280.256348,0.000000,4.000000,91.000000,,,,0.000000,4.000000,4.000000,4.000000,4.000000,4.000000,4.000000,4.000000,4.000000,4.000000,4.000000,4.000000,4.000000,4.000000,4.000000,100.000000,,,,,,,,,,,,,,,,
1645709877.280845,1645709877.293753,49.000000,0.000000,4277.051270,4290.512695,4216.410156,4308.589844,4255.128418,4243.205078,4224.487305,4213.846191,4222.948730,4245.256348,4321.538574,4288.333496,4201.538574,4278.717773,0.000000,4.000000,91.000000,,,,0.000000,4.000000,4.000000,4.000000,4.000000,4.000000,4.000000,4.000000,4.000000,4.000000,4.000000,4.000000,4.000000,4.000000,4.000000,100.000000,,,,,,,,,,,,,,,,
1645709877.284785,1645709877.297693,50.000000,0.000000,4274.871582,4288.846191,4215.769043,4300.128418,4255.256348,4245.641113,4222.820313,4213.717773,4222.820313,4239.743652,4317.948730,4283.461426,4197.563965,4275.256348,0.000000,4.000000,91.000000,,,,0.000000,4.000000,4.000000,4.000000,4.000000,4.000000,4.000000,4.000000,4.000000,4.000000,4.000000,4.000000,4.000000,4.000000,4.000000,100.000000,,,,,,,,,,,,,,,,
1645709877.288725,1645709877.301633,51.000000,0.000000,4273.461426,4288.974121,4216.538574,4295.897461,4252.179688,4247.948730,4222.563965,4214.230957,4222.436035,4235.256348,4314.487305,4279.615234,4193.589844,4270.769043,0.000000,4.000000,91.000000,,,,0.000000,4.000000,4.000000,4.000000,4.000000,4.000000,4.000000,4.000000,4.000000,4.000000,4.000000,4.000000,4.000000,4.000000,4.000000,100.000000,,,,,,,,,,,,,,,,
1645709877.292665,1645709877.305574,52.000000,0.000000,4272.436035,4290.128418,4217.051270,4297.436035,4246.410156,4248.077148,4223.205078,4214.358887,4221.794922,4234.358887,4312.563965,4277.820313,4191.794922,4267.692383,0.000000,4.000000,91.000000,,,,0.000000,4.000000,4.000000,4.000000,4.000000,4.000000,4.000000,4.000000,4.000000,4.000000,4.000000,4.000000,4.000000,4.000000,4.000000,100.000000,,,,,,,,,,,,,,,,
1645709877.296605,1645709877.309514,53.000000,0.000000,4272.179688,4290.384766,4216.794922,4302.563965,4239.743652,4245.128418,4223.333496,4213.974121,4221.538574,4237.692383,4313.717773,4278.589844,4193.717773,4267.820313,0.000000,4.000000,91.000000,,,,0.000000,4.000000,4.000000,4.000000,4.000000,4.000000,4.000000,4.000000,4.000000,4.000000,4.000000,4.000000,4.000000,4.000000,4.000000,100.000000,,,,,,,,,,,,,,,,
1645709877.300545,1645709877.313454,54.000000,0.000000,4273.077148,4288.846191,4216.666504,4308.717773,4235.256348,4240.897461,4222.948730,4213.974121,4222.563965,4243.589844,4317.820313,4281.410156,4198.974121,4272.179688,0.000000,4.000000,91.000000,,,,0.000000,4.000000,4.000000,4.000000,4.000000,4.000000,4.000000,4.000000,4.000000,4.000000,4.000000,4.000000,4.000000,4.000000,4.000000,100.000000,,,,,,,,,,,,,,,,
1645709877.304485,1645709877.317394,55.000000,0.000000,4274.487305,4287.692383,4218.205078,4313.333496,4236.153809,4238.589844,4222.948730,4215.512695,4225.641113,4249.871582,4324.230957,4284.615234,4205.641113,4279.230957,0.000000,4.000000,91.000000,,,,0.000000,4.000000,4.000000,4.000000,4.000000,4.000000,4.000000,4.000000,4.000000,4.000000,4.000000,4.000000,4.000000,4.000000,4.000000,100.000000,,,,,,,,,,,,,,,,
1645709877.308425,1645709877.321334,56.000000,0.000000,4275.769043,4289.230957,4221.025879,4314.358887,4242.820313,4239.743652,4224.102539,4218.589844,4230.897461,4255.128418,4330.128418,4286.410156,4211.282227,4285.512695,0.000000,4.000000,91.000000,,,,0.000000,4.000000,4.000000,4.000000,4.000000,4.000000,4.000000,4.000000,4.000000,4.000000,4.000000,4.000000,4.000000,4.000000,4.000000,100.000000,,,,,,,,,,,,,,,,
1645709877.312365,1645709877.325274,57.000000,0.000000,4276.794922,4293.333496,4223.589844,4310.769043,4251.153809,4242.692383,4225.512695,4222.436035,4236.410156,4258.589844,4332.307617,4286.410156,4213.846191,4288.333496,0.000000,4.000000,91.000000,,,,0.000000,4.000000,4.000000,4.000000,4.000000,4.000000,4.000000,4.000000,4.000000,4.000000,4.000000,4.000000,4.000000,4.000000,4.000000,100.000000,,,,,,,,,,,,,,,,
1645709877.316305,1645709877.329214,58.000000,0.000000,4277.692383,4296.666504,4224.230957,4303.717773,4255.769043,4243.846191,4225.897461,4225.128418,4238.717773,4259.487305,4328.717773,4285.512695,4212.820313,4286.666504,0.000000,4.000000,91.000000,,,,0.000000,4.000000,4.000000,4.000000,4.000000,4.000000,4.000000,4.000000,4.000000,4.000000,4.000000,4.000000,4.000000,4.000000,4.000000,100.000000,,,,,,,,,,,,,,,,
1645709877.320245,1645709877.333154,59.000000,0.000000,4278.205078,4295.641113,4222.948730,4296.794922,4254.487305,4241.282227,4224.615234,4225.384766,4236.025879,4257.436035,4320.769043,4284.230957,4209.102539,4282.179688,0.000000,4.000000,91.000000,,,,0.000000,4.000000,4.000000,4.000000,4.000000,4.000000,4.000000,4.000000,4.000000,4.000000,4.000000,4.000000,4.000000,4.000000,4.000000,100.000000,,,,,,,,,,,,,,,,
1645709877.324185,1645709877.337094,60.000000,0.000000,4276.794922,4289.743652,4220.641113,4293.717773,4249.230957,4236.538574,4221.666504,4222.948730,4229.743652,4252.692383,4312.820313,4282.436035,4204.743652,4278.077148,0.000000,4.000000,91.000000,,,,0.000000,4.000000,4.000000,4.000000,4.000000,4.000000,4.000000,4.000000,4.000000,4.000000,4.000000,4.000000,4.000000,4.000000,4.000000,100.000000,,,,,,,,,,,,,,,,
1645709877.328125,1645709877.341034,61.000000,0.000000,4272.563965,4281.666504,4217.948730,4295.769043,4243.717773,4232.820313,4217.820313,4218.974121,4223.974121,4246.282227,4308.717773,4279.358887,4201.538574,4276.282227,0.000000,4.000000,91.000000,,,,0.000000,4.000000,4.000000,4.000000,4.000000,4.000000,4.000000,4.000000,4.000000,4.000000,4.000000,4.000000,4.000000,4.000000,4.000000,100.000000,,,,,,,,,,,,,,,,
1645709877.332065,1645709877.344975,62.000000,0.000000,4267.436035,4274.615234,4214.615234,4300.256348,4239.615234,4232.563965,4214.358887,4215.512695,4222.051270,4239.230957,4309.230957,4275.128418,4199.871582,4275.769043,0.000000,4.000000,91.000000,,,,0.000000,4.000000,4.000000,4.000000,4.000000,4.000000,4.000000,4.000000,4.000000,4.000000,4.000000,4.000000,4.000000,4.000000,4.000000,100.000000,,,,,,,,,,,,,,,,
1645709877.336005,1645709877.348915,63.000000,0.000000,4263.974121,4271.025879,4210.641113,4303.077148,4236.282227,4235.256348,4212.692383,4213.717773,4224.230957,4233.077148,4311.666504,4271.153809,4198.846191,4274.487305,0.000000,4.000000,91.000000,,,,0.000000,4.000000,4.000000,4.000000,4.000000,4.000000,4.000000,4.000000,4.000000,4.000000,4.000000,4.000000,4.000000,4.000000,4.000000,100.000000,,,,,,,,,,,,,,,,
1645709877.339945,1645709877.352855,64.000000,0.000000,4263.846191,4271.410156,4206.538574,4301.410156,4233.974121,4238.589844,4213.205078,4213.846191,4227.436035,4229.230957,4312.563965,4269.230957,4196.666504,4271.666504,0.000000,4.000000,91.000000,,,,0.000000,4.000000,4.000000,4.000000,4.000000,4.000000,4.000000,4.000000,4.000000,4.000000,4.000000,4.000000,4.000000,4.000000,4.000000,100.000000,,,,,,,,,,,,,,,,
1645709877.343886,1645709877.356795,65.000000,0.000000,4265.769043,4274.871582,4204.358887,4296.153809,4234.615234,4240.512695,4215.000000,4215.000000,4228.333496,4228.589844,4311.025879,4268.974121,4193.589844,4268.077148,0.000000,4.000000,91.000000,,,,0.000000,4.000000,4.000000,4.000000,4.000000,4.000000,4.000000,4.000000,4.000000,4.000000,4.000000,4.000000,4.000000,4.000000,4.000000,100.000000,,,,,,,,,,,,,,,,
1645709877.347825,1645709877.360735,66.000000,0.000000,4266.922852,4279.102539,4205.128418,4290.512695,4238.974121,4240.512695,4217.179688,4215.769043,4226.025879,4230.769043,4308.077148,4269.230957,4191.410156,4266.025879,0.000000,4.000000,91.000000,,,,0.000000,4.000000,4.000000,4.000000,4.000000,4.000000,4.000000,4.000000,4.000000,4.000000,4.000000,4.000000,4.000000,4.000000,4.000000,100.000000,,,,,,,,,,,,,,,,
1645709877.351766,1645709877.364775,67.000000,0.000000,4266.153809,4280.641113,4208.717773,4286.922852,4244.487305,4239.743652,4219.358887,4215.897461,4222.563965,4234.102539,4305.512695,4268.974121,4192.563965,4266.153809,0.000000,4.000000,91.000000,,,,0.000000,4.000000,4.000000,4.000000,4.000000,4.000000,4.000000,4.000000,4.000000,4.000000,4.000000,4.000000,4.000000,4.000000,4.000000,100.000000,,,,,,,,,,,,,,,,
1645709877.355706,1645709877.368715,68.000000,0.000000,4264.743652,4277.436035,4213.461426,4285.384766,4247.436035,4238.846191,4221.538574,4215.641113,4220.128418,4236.153809,4304.615234,4268.333496,4196.922852,4267.820313,0.000000,4.000000,91.000000,,,,0.000000,4.000000,4.000000,4.000000,4.000000,4.000000,4.000000,4.000000,4.000000,4.000000,4.000000,4.000000,4.000000,4.000000,4.000000,100.000000,,,,,,,,,,,,,,,,
1645709877.359645,1645709877.372655,69.000000,0.000000,4264.743652,4271.153809,4217.563965,4285.384766,4245.897461,4238.205078,4223.974121,4215.512695,4220.256348,4236.025879,4305.384766,4268.077148,4202.307617,4270.000000,0.000000,4.000000,91.000000,,,,0.000000,4.000000,4.000000,4.000000,4.000000,4.000000,4.000000,4.000000,4.000000,4.000000,4.000000,4.000000,4.000000,4.000000,4.000000,100.000000,,,,,,,,,,,,,,,,
1645709877.363586,1645709877.376595,70.000000,0.000000,4266.153809,4266.538574,4219.743652,4287.307617,4242.307617,4237.307617,4225.641113,4216.025879,4222.563965,4234.871582,4307.179688,4268.333496,4205.641113,4271.666504,0.000000,4.000000,91.000000,,,,0.000000,4.000000,4.000000,4.000000,4.000000,4.000000,4.000000,4.000000,4.000000,4.000000,4.000000,4.000000,4.000000,4.000000,4.000000,100.000000,,,,,,,,,,,,,,,,
1645709877.367526,1645709877.380535,71.000000,0.000000,4267.563965,4267.051270,4219.615234,4291.666504,4240.384766,4236.282227,4225.000000,4216.538574,4225.256348,4234.358887,4308.333496,4268.077148,4205.256348,4271.666504,0.000000,4.000000,91.000000,,,,0.000000,4.000000,4.000000,4.000000,4.000000,4.000000,4.000000,4.000000,4.000000,4.000000,4.000000,4.000000,4.000000,4.000000,4.000000,100.000000,,,,,,,,,,,,,,,,
1645709877.371466,1645709877.384575,72.000000,0.000000,4267.436035,4271.794922,4217.692383,4297.179688,4241.282227,4235.512695,4222.563965,4216.153809,4226.025879,4234.743652,4307.436035,4266.410156,4201.410156,4269.615234,0.000000,4.000000,91.000000,,,,0.000000,4.000000,4.000000,4.000000,4.000000,4.000000,4.000000,4.000000,4.000000,4.000000,4.000000,4.000000,4.000000,4.000000,4.000000,100.000000,,,,,,,,,,,,,,,,
1645709877.375406,1645709877.388516,73.000000,0.000000,4266.666504,4275.897461,4215.128418,4301.410156,4243.333496,4235.897461,4220.256348,4214.615234,4224.487305,4234.102539,4303.974121,4263.974121,4195.641113,4266.153809,0.000000,4.000000,91.000000,2,1,1,0.000000,4.000000,4.000000,4.000000,4.000000,4.000000,4.000000,4.000000,4.000000,4.000000,4.000000,4.000000,4.000000,4.000000,4.000000,100.000000,,,,,,,,,,,,,,,,
1645709877.379346,1645709877.392456,74.000000,0.000000,4266.410156,4276.794922,4213.589844,4302.436035,4243.974121,4237.692383,4220.384766,4212.948730,4221.922852,4231.794922,4299.871582,4262.563965,4191.282227,4262.948730,0.000000,4.000000,91.000000,,,,0.000000,4.000000,4.000000,4.000000,4.000000,4.000000,4.000000,4.000000,4.000000,4.000000,4.000000,4.000000,4.000000,4.000000,4.000000,100.000000,,,,,,,,,,,,,,,,
1645709877.383286,1645709877.396396,75.000000,0.000000,4267.179688,4275.897461,4214.230957,4300.128418,4242.948730,4240.897461,4223.589844,4213.333496,4221.025879,4229.743652,4298.589844,4263.077148,4191.410156,4262.179688,0.000000,4.000000,91.000000,,,,0.000000,4.000000,4.000000,4.000000,4.000000,4.000000,4.000000,4.000000,4.000000,4.000000,4.000000,4.000000,4.000000,4.000000,4.000000,100.000000,,,,,,,,,,,,,,,,
1645709877.387226,1645709877.400336,76.000000,0.000000,4268.846191,4276.666504,4217.563965,4296.282227,4241.794922,4244.102539,4228.333496,4216.666504,4223.461426,4231.153809,4302.692383,4265.769043,4196.538574,4265.128418,0.000000,4.000000,91.000000,,,,0.000000,4.000000,4.000000,4.000000,4.000000,4.000000,4.000000,4.000000,4.000000,4.000000,4.000000,4.000000,4.000000,4.000000,4.000000,100.000000,,,,,,,,,,,,,,,,
1645709877.391166,1645709877.404276,77.000000,0.000000,4271.538574,4280.512695,4222.820313,4293.077148,4242.051270,4245.769043,4232.307617,4222.179688,4228.461426,4236.794922,4310.000000,4269.615234,4203.589844,4271.282227,0.000000,4.000000,91.000000,,,,0.000000,4.000000,4.000000,4.000000,4.000000,4.000000,4.000000,4.000000,4.000000,4.000000,4.000000,4.000000,4.000000,4.000000,4.000000,100.000000,,,,,,,,,,,,,,,,
1645709877.395106,1645709877.408216,78.000000,0.000000,4275.641113,4285.384766,4228.205078,4291.282227,4243.333496,4244.871582,4234.102539,4227.692383,4233.077148,4243.974121,4316.153809,4273.846191,4208.461426,4278.589844,0.000000,4.000000,91.000000,,,,0.000000,4.000000,4.000000,4.000000,4.000000,4.000000,4.000000,4.000000,4.000000,4.000000,4.000000,4.000000,4.000000,4.000000,4.000000,100.000000,,,,,,,,,,,,,,,,
1645709877.399046,1645709877.412156,79.000000,0.000000,4280.384766,4287.692383,4231.410156,4290.128418,4244.230957,4242.179688,4233.461426,4230.641113,4235.256348,4248.461426,4316.922852,4277.563965,4208.717773,4284.230957,0.000000,4.000000,91.000000,,,,0.000000,4.000000,4.000000,4.000000,4.000000,4.000000,4.000000,4.000000,4.000000,4.000000,4.000000,4.000000,4.000000,4.000000,4.000000,100.000000,,,,,,,,,,,,,,,,
1645709877.402986,1645709877.416096,80.000000,0.000000,4283.077148,4285.641113,4231.025879,4288.461426,4243.974121,4239.615234,4231.538574,4230.000000,4234.487305,4248.717773,4313.077148,4279.743652,4205.897461,4286.538574,0.000000,4.000000,91.000000,,,,0.000000,4.000000,4.000000,4.000000,4.000000,4.000000,4.000000,4.000000,4.000000,4.000000,4.000000,4.000000,4.000000,4.000000,4.000000,100.000000,,,,,,,,,,,,,,,,
1645709877.406926,1645709877.420036,81.000000,0.000000,4281.282227,4280.384766,4227.436035,4286.922852,4243.077148,4239.102539,4229.615234,4225.512695,4232.179688,4245.641113,4307.820313,4279.102539,4202.948730,4285.384766,0.000000,4.000000,91.000000,,,,0.000000,4.000000,4.000000,4.000000,4.000000,4.000000,4.000000,4.000000,4.000000,4.000000,4.000000,4.000000,4.000000,4.000000,4.000000,100.000000,,,,,,,,,,,,,,,,
1645709877.410866,1645709877.423976,82.000000,0.000000,4275.384766,4275.256348,4223.077148,4286.922852,4242.948730,4240.256348,4228.205078,4218.974121,4229.743652,4240.769043,4303.974121,4275.128418,4201.666504,4281.922852,0.000000,4.000000,91.000000,,,,0.000000,4.000000,4.000000,4.000000,4.000000,4.000000,4.000000,4.000000,4.000000,4.000000,4.000000,4.000000,4.000000,4.000000,4.000000,100.000000,,,,,,,,,,,,,,,,
1645709877.414806,1645709877.427917,83.000000,0.000000,4269.487305,4272.820313,4219.871582,4289.615234,4243.461426,4241.410156,4227.307617,4213.333496,4227.563965,4234.230957,4300.641113,4269.230957,4201.025879,4278.077148,0.000000,4.000000,91.000000,,,,0.000000,4.000000,4.000000,4.000000,4.000000,4.000000,4.000000,4.000000,4.000000,4.000000,4.000000,4.000000,4.000000,4.000000,4.000000,100.000000,,,,,,,,,,,,,,,,
1645709877.418746,1645709877.431857,84.000000,0.000000,4267.051270,4273.077148,4218.077148,4293.461426,4243.461426,4241.282227,4227.051270,4211.922852,4225.769043,4226.922852,4296.025879,4263.717773,4199.358887,4275.128418,0.000000,4.000000,91.000000,,,,0.000000,4.000000,4.000000,4.000000,4.000000,4.000000,4.000000,4.000000,4.000000,4.000000,4.000000,4.000000,4.000000,4.000000,4.000000,100.000000,,,,,,,,,,,,,,,,
1645709877.422686,1645709877.435797,85.000000,0.000000,4267.307617,4273.717773,4215.769043,4295.512695,4242.307617,4240.256348,4228.589844,4216.025879,4226.153809,4221.282227,4290.384766,4259.871582,4196.538574,4273.205078,0.000000,4.000000,91.000000,,,,0.000000,4.000000,4.000000,4.000000,4.000000,4.000000,4.000000,4.000000,4.000000,4.000000,4.000000,4.000000,4.000000,4.000000,4.000000,100.000000,,,,,,,,,,,,,,,,
1645709877.426626,1645709877.439737,86.000000,0.000000,4266.410156,4271.922852,4211.410156,4292.563965,4240.641113,4240.128418,4231.794922,4223.589844,4229.615234,4220.128418,4286.282227,4257.820313,4193.717773,4270.769043,0.000000,4.000000,91.000000,,,,0.000000,4.000000,4.000000,4.000000,4.000000,4.000000,4.000000,4.000000,4.000000,4.000000,4.000000,4.000000,4.000000,4.000000,4.000000,100.000000,,,,,,,,,,,,,,,,
1645709877.430566,1645709877.443777,87.000000,0.000000,4262.051270,4267.179688,4205.384766,4284.358887,4240.000000,4241.025879,4234.743652,4229.743652,4234.358887,4223.717773,4285.897461,4256.538574,4192.563965,4267.179688,0.000000,4.000000,91.000000,,,,0.000000,4.000000,4.000000,4.000000,4.000000,4.000000,4.000000,4.000000,4.000000,4.000000,4.000000,4.000000,4.000000,4.000000,4.000000,100.000000,,,,,,,,,,,,,,,,
1645709877.434506,1645709877.447717,88.000000,0.000000,4256.025879,4261.410156,4200.000000,4274.487305,4241.282227,4241.794922,4234.743652,4230.512695,4236.538574,4228.589844,4288.461426,4255.000000,4193.461426,4262.820313,0.000000,4.000000,91.000000,,,,0.000000,4.000000,4.000000,4.000000,4.000000,4.000000,4.000000,4.000000,4.000000,4.000000,4.000000,4.000000,4.000000,4.000000,4.000000,100.000000,,,,,,,,,,,,,,,,
1645709877.438446,1645709877.451657,89.000000,0.000000,4252.563965,4257.948730,4198.205078,4268.077148,4243.974121,4241.666504,4230.897461,4225.000000,4233.205078,4231.410156,4291.282227,4253.333496,4196.153809,4260.128418,0.000000,4.000000,91.000000,,,,0.000000,4.000000,4.000000,4.000000,4.000000,4.000000,4.000000,4.000000,4.000000,4.000000,4.000000,4.000000,4.000000,4.000000,4.000000,100.000000,,,,,,,,,,,,,,,,
1645709877.442386,1645709877.455597,90.000000,0.000000,4253.717773,4258.461426,4200.512695,4268.461426,4246.794922,4241.025879,4225.641113,4216.410156,4225.769043,4230.769043,4292.692383,4252.563965,4199.615234,4260.897461,0.000000,4.000000,91.000000,,,,0.000000,4.000000,4.000000,4.000000,4.000000,4.000000,4.000000,4.000000,4.000000,4.000000,4.000000,4.000000,4.000000,4.000000,4.000000,100.000000,,,,,,,,,,,,,,,,
1645709877.446326,1645709877.459537,91.000000,0.000000,4257.051270,4260.769043,4204.743652,4274.743652,4248.333496,4241.282227,4222.179688,4209.487305,4218.589844,4228.461426,4292.820313,4253.205078,4203.077148,4264.487305,0.000000,4.000000,91.000000,,,,0.000000,4.000000,4.000000,4.000000,4.000000,4.000000,4.000000,4.000000,4.000000,4.000000,4.000000,4.000000,4.000000,4.000000,4.000000,100.000000,,,,,,,,,,,,,,,,
1645709877.450266,1645709877.463477,92.000000,0.000000,4258.846191,4261.025879,4206.538574,4282.179688,4247.948730,4241.922852,4222.051270,4207.820313,4215.897461,4225.769043,4292.307617,4254.487305,4205.384766,4268.205078,0.000000,4.000000,91.000000,,,,0.000000,4.000000,4.000000,4.000000,4.000000,4.000000,4.000000,4.000000,4.000000,4.000000,4.000000,4.000000,4.000000,4.000000,4.000000,100.000000,,,,,,,,,,,,,,,,
1645709877.454206,1645709877.467418,93.000000,0.000000,4257.307617,4256.794922,4203.974121,4285.256348,4246.282227,4241.410156,4224.487305,4211.153809,4218.846191,4223.205078,4291.666504,4255.256348,4205.384766,4268.974121,0.000000,4.000000,91.000000,,,,0.000000,4.000000,4.000000,4.000000,4.000000,4.000000,4.000000,4.000000,4.000000,4.000000,4.000000,4.000000,4.000000,4.000000,4.000000,100.000000,,,,,,,,,,,,,,,,
1645709877.458146,1645709877.471358,94.000000,0.000000,4253.717773,4249.743652,4199.230957,4282.179688,4244.487305,4239.358887,4227.179688,4217.179688,4224.871582,4220.641113,4291.025879,4255.128418,4202.436035,4266.282227,0.000000,4.000000,91.000000,,,,0.000000,4.000000,4.000000,4.000000,4.000000,4.000000,4.000000,4.000000,4.000000,4.000000,4.000000,4.000000,4.000000,4.000000,4.000000,100.000000,,,,,,,,,,,,,,,,
1645709877.462087,1645709877.475298,95.000000,0.000000,4250.384766,4244.871582,4196.922852,4275.641113,4243.717773,4236.922852,4228.205078,4222.051270,4230.000000,4219.230957,4290.897461,4254.102539,4197.563965,4262.436035,0.000000,4.000000,91.000000,,,,0.000000,4.000000,4.000000,4.000000,4.000000,4.000000,4.000000,4.000000,4.000000,4.000000,4.000000,4.000000,4.000000,4.000000,4.000000,100.000000,,,,,,,,,,,,,,,,
1645709877.466027,1645709877.479238,96.000000,0.000000,4248.461426,4245.897461,4199.615234,4270.769043,4243.846191,4236.153809,4227.563965,4222.948730,4231.666504,4219.871582,4290.897461,4252.563965,4193.589844,4260.512695,0.000000,4.000000,91.000000,,,,0.000000,4.000000,4.000000,4.000000,4.000000,4.000000,4.000000,4.000000,4.000000,4.000000,4.000000,4.000000,4.000000,4.000000,4.000000,100.000000,,,,,,,,,,,,,,,,
1645709877.469967,1645709877.483178,97.000000,0.000000,4248.589844,4252.051270,4205.641113,4270.641113,4243.589844,4237.307617,4225.256348,4219.871582,4229.358887,4222.820313,4290.128418,4250.769043,4192.692383,4261.922852,0.000000,4.000000,91.000000,,,,0.000000,4.000000,4.000000,4.000000,4.000000,4.000000,4.000000,4.000000,4.000000,4.000000,4.000000,4.000000,4.000000,4.000000,4.000000,100.000000,,,,,,,,,,,,,,,,
1645709877.473907,1645709877.487118,98.000000,0.000000,4250.256348,4258.205078,4210.897461,4273.589844,4241.282227,4238.077148,4221.666504,4215.256348,4224.743652,4226.153809,4287.307617,4248.974121,4194.743652,4265.641113,0.000000,4.000000,91.000000,,,,0.000000,4.000000,4.000000,4.000000,4.000000,4.000000,4.000000,4.000000,4.000000,4.000000,4.000000,4.000000,4.000000,4.000000,4.000000,100.000000,,,,,,,,,,,,,,,,
1645709877.477847,1645709877.491058,99.000000,0.000000,4252.820313,4260.000000,4212.051270,4276.282227,4236.922852,4235.769043,4217.436035,4212.563965,4219.743652,4227.563965,4282.948730,4247.563965,4197.179688,4268.846191,0.000000,4.000000,91.000000,,,,0.000000,4.000000,4.000000,4.000000,4.000000,4.000000,4.000000,4.000000,4.000000,4.000000,4.000000,4.000000,4.000000,4.000000,4.000000,100.000000,,,,,,,,,,,,,,,,
1645709877.481787,1645709877.494998,100.000000,0.000000,4254.743652,4256.538574,4209.615234,4276.410156,4232.692383,4230.512695,4214.487305,4213.461426,4216.410156,4226.025879,4278.974121,4246.666504,4197.307617,4269.358887,0.000000,4.000000,91.000000,,,,0.000000,4.000000,4.000000,4.000000,4.000000,4.000000,4.000000,4.000000,4.000000,4.000000,4.000000,4.000000,4.000000,4.000000,4.000000,100.000000,,,,,,,,,,,,,,,,
1645709877.485727,1645709877.498938,101.000000,0.000000,4255.000000,4251.666504,4206.410156,4274.871582,4231.666504,4225.897461,4214.102539,4216.538574,4216.410156,4223.077148,4278.077148,4246.922852,4195.512695,4267.179688,0.000000,4.000000,91.000000,,,,0.000000,4.000000,4.000000,4.000000,4.000000,4.000000,4.000000,4.000000,4.000000,4.000000,4.000000,4.000000,4.000000,4.000000,4.000000,100.000000,,,,,,,,,,,,,,,,
1645709877.489667,1645709877.502878,102.000000,0.000000,4254.871582,4249.743652,4206.025879,4274.230957,4235.000000,4225.769043,4216.538574,4219.487305,4219.615234,4221.410156,4281.025879,4248.974121,4194.743652,4264.871582,0.000000,4.000000,91.000000,,,,0.000000,4.000000,4.000000,4.000000,4.000000,4.000000,4.000000,4.000000,4.000000,4.000000,4.000000,4.000000,4.000000,4.000000,4.000000,100.000000,,,,,,,,,,,,,,,,
1645709877.493607,1645709877.506819,103.000000,0.000000,4256.794922,4251.922852,4209.487305,4276.666504,4240.128418,4230.384766,4220.384766,4220.384766,4224.358887,4222.179688,4285.897461,4253.205078,4197.307617,4265.256348,0.000000,4.000000,91.000000,,,,0.000000,4.000000,4.000000,4.000000,4.000000,4.000000,4.000000,4.000000,4.000000,4.000000,4.000000,4.000000,4.000000,4.000000,4.000000,100.000000,,,,,,,,,,,,,,,,
1645709877.497547,1645709877.510759,104.000000,0.000000,4261.538574,4255.769043,4215.000000,4281.922852,4243.077148,4236.025879,4223.717773,4220.256348,4228.333496,4224.615234,4290.256348,4258.461426,4203.205078,4268.974121,0.000000,4.000000,91.000000,,,,0.000000,4.000000,4.000000,4.000000,4.000000,4.000000,4.000000,4.000000,4.000000,4.000000,4.000000,4.000000,4.000000,4.000000,4.000000,100.000000,,,,,,,,,,,,,,,,
1645709877.501487,1645709877.514699,105.000000,0.000000,4266.538574,4258.461426,4219.358887,4286.666504,4241.153809,4238.589844,4225.384766,4220.641113,4229.615234,4227.307617,4291.794922,4262.051270,4209.615234,4274.102539,0.000000,4.000000,91.000000,,,,0.000000,4.000000,4.000000,4.000000,4.000000,4.000000,4.000000,4.000000,4.000000,4.000000,4.000000,4.000000,4.000000,4.000000,4.000000,100.000000,,,,,,,,,,,,,,,,
1645709877.505427,1645709877.518739,106.000000,0.000000,4268.589844,4258.974121,4220.256348,4287.692383,4235.769043,4236.922852,4225.897461,4222.436035,4228.205078,4229.871582,4290.384766,4261.922852,4213.589844,4278.077148,0.000000,4.000000,91.000000,,,,0.000000,4.000000,4.000000,4.000000,4.000000,4.000000,4.000000,4.000000,4.000000,4.000000,4.000000,4.000000,4.000000,4.000000,4.000000,100.000000,,,,,,,,,,,,,,,,
1645709877.509367,1645709877.522679,107.000000,0.000000,4267.051270,4258.333496,4218.333496,4283.717773,4230.769043,4233.461426,4226.282227,4224.743652,4225.897461,4231.538574,4286.922852,4258.589844,4213.717773,4279.487305,0.000000,4.000000,91.000000,,,,0.000000,4.000000,4.000000,4.000000,4.000000,4.000000,4.000000,4.000000,4.000000,4.000000,4.000000,4.000000,4.000000,4.000000,4.000000,100.000000,,,,,,,,,,,,,,,,
1645709877.513307,1645709877.526619,108.000000,0.000000,4264.487305,4258.333496,4215.641113,4276.666504,4230.128418,4231.538574,4227.051270,4225.769043,4224.358887,4231.538574,4283.077148,4254.871582,4211.025879,4278.717773,0.000000,4.000000,91.000000,,,,0.000000,4.000000,4.000000,4.000000,4.000000,4.000000,4.000000,4.000000,4.000000,4.000000,4.000000,4.000000,4.000000,4.000000,4.000000,100.000000,,,,,,,,,,,,,,,,
1645709877.517247,1645709877.530559,109.000000,0.000000,4264.102539,4259.102539,4214.102539,4270.256348,4234.358887,4232.820313,4228.589844,4224.487305,4224.743652,4229.358887,4279.230957,4253.589844,4207.820313,4276.666504,0.000000,4.000000,91.000000,,,,0.000000,4.000000,4.000000,4.000000,4.000000,4.000000,4.000000,4.000000,4.000000,4.000000,4.000000,4.000000,4.000000,4.000000,4.000000,100.000000,,,,,,,,,,,,,,,,
1645709877.521187,1645709877.534499,110.000000,0.000000,4265.769043,4259.615234,4213.846191,4267.179688,4240.641113,4236.794922,4230.512695,4221.282227,4226.153809,4225.384766,4275.769043,4253.461426,4205.512695,4273.974121,0.000000,4.000000,91.000000,,,,0.000000,4.000000,4.000000,4.000000,4.000000,4.000000,4.000000,4.000000,4.000000,4.000000,4.000000,4.000000,4.000000,4.000000,4.000000,100.000000,,,,,,,,,,,,,,,,
1645709877.525127,1645709877.538439,111.000000,0.000000,4266.794922,4258.589844,4214.102539,4268.461426,4245.000000,4240.897461,4232.179688,4218.077148,4227.051270,4221.153809,4273.205078,4251.794922,4204.615234,4270.897461,0.000000,4.000000,91.000000,,,,0.000000,4.000000,4.000000,4.000000,4.000000,4.000000,4.000000,4.000000,4.000000,4.000000,4.000000,4.000000,4.000000,4.000000,4.000000,100.000000,,,,,,,,,,,,,,,,
1645709877.529067,1645709877.542379,112.000000,0.000000,4265.000000,4255.641113,4214.487305,4272.051270,4245.000000,4243.333496,4233.077148,4216.282227,4226.410156,4218.461426,4272.307617,4247.179688,4204.615234,4268.205078,0.000000,4.000000,91.000000,,,,0.000000,4.000000,4.000000,4.000000,4.000000,4.000000,4.000000,4.000000,4.000000,4.000000,4.000000,4.000000,4.000000,4.000000,4.000000,100.000000,,,,,,,,,,,,,,,,
1645709877.533007,1645709877.546320,113.000000,0.000000,4261.794922,4252.179688,4215.128418,4274.358887,4241.153809,4243.333496,4233.717773,4217.051270,4224.358887,4217.692383,4273.717773,4241.922852,4204.871582,4267.692383,0.000000,4.000000,91.000000,,,,0.000000,4.000000,4.000000,4.000000,4.000000,4.000000,4.000000,4.000000,4.000000,4.000000,4.000000,4.000000,4.000000,4.000000,4.000000,100.000000,,,,,,,,,,,,,,,,
1645709877.536947,1645709877.550260,114.000000,0.000000,4260.128418,4250.256348,4216.025879,4273.589844,4236.794922,4241.794922,4235.256348,4220.000000,4222.820313,4217.948730,4277.436035,4239.743652,4205.128418,4270.512695,0.000000,4.000000,91.000000,,,,0.000000,4.000000,4.000000,4.000000,4.000000,4.000000,4.000000,4.000000,4.000000,4.000000,4.000000,4.000000,4.000000,4.000000,4.000000,100.000000,,,,,,,,,,,,,,,,
1645709877.540887,1645709877.554200,115.000000,0.000000,4261.410156,4251.410156,4216.410156,4271.153809,4235.000000,4241.153809,4237.948730,4224.230957,4223.589844,4218.717773,4282.179688,4242.179688,4205.769043,4276.025879,0.000000,4.000000,91.000000,,,,0.000000,4.000000,4.000000,4.000000,4.000000,4.000000,4.000000,4.000000,4.000000,4.000000,4.000000,4.000000,4.000000,4.000000,4.000000,100.000000,,,,,,,,,,,,,,,,
1645709877.544827,1645709877.558140,116.000000,0.000000,4263.333496,4254.615234,4214.743652,4270.256348,4237.307617,4242.692383,4240.384766,4227.051270,4226.794922,4220.512695,4285.897461,4246.666504,4207.692383,4281.153809,0.000000,4.000000,91.000000,,,,0.000000,4.000000,4.000000,4.000000,4.000000,4.000000,4.000000,4.000000,4.000000,4.000000,4.000000,4.000000,4.000000,4.000000,4.000000,100.000000,,,,,,,,,,,,,,,,
1645709877.548767,1645709877.562080,117.000000,0.000000,4263.077148,4256.794922,4210.512695,4272.307617,4242.307617,4245.769043,4240.384766,4226.410156,4230.384766,4223.717773,4286.922852,4249.102539,4210.512695,4282.307617,0.000000,4.000000,91.000000,,,,0.000000,4.000000,4.000000,4.000000,4.000000,4.000000,4.000000,4.000000,4.000000,4.000000,4.000000,4.000000,4.000000,4.000000,4.000000,100.000000,,,,,,,,,,,,,,,,
1645709877.552707,1645709877.566020,118.000000,0.000000,4259.487305,4255.128418,4204.871582,4275.128418,4247.307617,4247.948730,4236.538574,4222.820313,4231.666504,4227.051270,4284.358887,4246.410156,4212.563965,4278.461426,0.000000,4.000000,91.000000,,,,0.000000,4.000000,4.000000,4.000000,4.000000,4.000000,4.000000,4.000000,4.000000,4.000000,4.000000,4.000000,4.000000,4.000000,4.000000,100.000000,,,,,,,,,,,,,,,,
1645709877.556647,1645709877.569960,119.000000,0.000000,4254.230957,4248.846191,4199.871582,4273.846191,4249.102539,4246.794922,4231.153809,4219.487305,4230.000000,4227.307617,4278.589844,4238.846191,4211.794922,4271.025879,0.000000,4.000000,91.000000,,,,0.000000,4.000000,4.000000,4.000000,4.000000,4.000000,4.000000,4.000000,4.000000,4.000000,4.000000,4.000000,4.000000,4.000000,4.000000,100.000000,,,,,,,,,,,,,,,,
1645709877.560588,1645709877.573900,120.000000,0.000000,4249.487305,4241.153809,4197.307617,4265.641113,4246.282227,4242.563965,4227.820313,4219.615234,4227.563965,4223.077148,4271.922852,4229.230957,4208.333496,4262.948730,0.000000,4.000000,91.000000,,,,0.000000,4.000000,4.000000,4.000000,4.000000,4.000000,4.000000,4.000000,4.000000,4.000000,4.000000,4.000000,4.000000,4.000000,4.000000,100.000000,,,,,,,,,,,,,,,,
1645709877.564527,1645709877.577840,121.000000,0.000000,4246.153809,4236.153809,4197.051270,4252.692383,4240.897461,4238.077148,4228.846191,4222.820313,4226.922852,4216.153809,4267.692383,4220.897461,4204.871582,4257.820313,0.000000,4.000000,91.000000,,,,0.000000,4.000000,4.000000,4.000000,4.000000,4.000000,4.000000,4.000000,4.000000,4.000000,4.000000,4.000000,4.000000,4.000000,4.000000,100.000000,,,,,,,,,,,,,,,,
1645709877.568468,1645709877.581780,122.000000,0.000000,4244.230957,4235.512695,4197.948730,4241.410156,4236.794922,4236.025879,4232.436035,4226.282227,4228.589844,4211.538574,4268.461426,4216.025879,4204.102539,4257.436035,0.000000,4.000000,91.000000,,,,0.000000,4.000000,4.000000,4.000000,4.000000,4.000000,4.000000,4.000000,4.000000,4.000000,4.000000,4.000000,4.000000,4.000000,4.000000,100.000000,,,,,,,,,,,,,,,,
1645709877.572408,1645709877.585721,123.000000,0.000000,4243.846191,4238.077148,4198.461426,4238.461426,4235.769043,4236.538574,4235.256348,4227.820313,4230.897461,4212.948730,4273.589844,4215.256348,4206.153809,4262.051270,0.000000,4.000000,91.000000,,,,0.000000,4.000000,4.000000,4.000000,4.000000,4.000000,4.000000,4.000000,4.000000,4.000000,4.000000,4.000000,4.000000,4.000000,4.000000,100.000000,,,,,,,,,,,,,,,,
1645709877.576347,1645709877.589761,124.000000,0.000000,4245.384766,4240.384766,4197.820313,4244.743652,4236.794922,4237.948730,4235.256348,4227.948730,4232.307617,4219.615234,4279.615234,4217.436035,4209.358887,4269.102539,0.000000,4.000000,91.000000,,,,0.000000,4.000000,4.000000,4.000000,4.000000,4.000000,4.000000,4.000000,4.000000,4.000000,4.000000,4.000000,4.000000,4.000000,4.000000,100.000000,,,,,,,,,,,,,,,,
1645709877.580288,1645709877.593701,125.000000,0.000000,4247.820313,4240.256348,4196.666504,4255.512695,4237.563965,4238.589844,4232.820313,4227.436035,4232.692383,4227.436035,4283.589844,4220.384766,4211.538574,4275.641113,0.000000,4.000000,91.000000,,,,0.000000,4.000000,4.000000,4.000000,4.000000,4.000000,4.000000,4.000000,4.000000,4.000000,4.000000,4.000000,4.000000,4.000000,4.000000,100.000000,,,,,,,,,,,,,,,,
1645709877.584228,1645709877.597641,126.000000,0.000000,4249.230957,4237.948730,4196.538574,4263.717773,4237.563965,4238.333496,4230.256348,4226.794922,4232.692383,4231.794922,4285.000000,4221.282227,4212.051270,4278.717773,0.000000,4.000000,91.000000,,,,0.000000,4.000000,4.000000,4.000000,4.000000,4.000000,4.000000,4.000000,4.000000,4.000000,4.000000,4.000000,4.000000,4.000000,4.000000,100.000000,,,,,,,,,,,,,,,,
1645709877.588168,1645709877.601581,127.000000,0.000000,4247.820313,4234.615234,4197.179688,4265.128418,4237.820313,4237.820313,4228.846191,4225.128418,4232.948730,4231.025879,4284.871582,4218.974121,4210.769043,4276.666504,0.000000,4.000000,91.000000,,,,0.000000,4.000000,4.000000,4.000000,4.000000,4.000000,4.000000,4.000000,4.000000,4.000000,4.000000,4.000000,4.000000,4.000000,4.000000,100.000000,,,,,,,,,,,,,,,,
1645709877.592108,1645709877.605521,128.000000,0.000000,4244.487305,4231.538574,4197.692383,4260.256348,4238.717773,4237.307617,4228.589844,4222.307617,4233.205078,4226.025879,4283.717773,4214.230957,4208.461426,4270.641113,3275.000000,4.000000,91.000000,,,,0.000000,4.000000,4.000000,4.000000,4.000000,4.000000,4.000000,4.000000,4.000000,4.000000,4.000000,4.000000,4.000000,4.000000,4.000000,100.000000,,,,,,,,,,,,,,,,
1645709877.596048,1645709877.609461,129.000000,0.000000,4242.436035,4228.717773,4197.051270,4252.563965,4239.487305,4236.922852,4228.974121,4219.487305,4233.333496,4220.000000,4281.538574,4209.871582,4205.769043,4263.717773,3390.000000,4.000000,91.000000,,,,0.000000,4.000000,4.000000,4.000000,4.000000,4.000000,4.000000,4.000000,4.000000,4.000000,4.000000,4.000000,4.000000,4.000000,4.000000,100.000000,,,,,,,,,,,,,,,,
1645709877.599988,1645709877.613401,130.000000,0.000000,4243.589844,4226.538574,4196.794922,4246.666504,4239.230957,4236.538574,4229.743652,4218.333496,4232.820313,4215.512695,4278.589844,4208.717773,4203.974121,4260.000000,2349.000000,4.000000,91.000000,,,,0.000000,4.000000,4.000000,4.000000,4.000000,4.000000,4.000000,4.000000,4.000000,4.000000,4.000000,4.000000,4.000000,4.000000,4.000000,100.000000,,,,,,,,,,,,,,,,
1645709877.603928,1645709877.617341,131.000000,0.000000,4247.692383,4225.641113,4199.102539,4245.512695,4238.717773,4237.051270,4231.025879,4218.461426,4231.794922,4213.846191,4276.410156,4210.641113,4203.974121,4260.641113,3357.000000,4.000000,91.000000,,,,0.000000,4.000000,4.000000,4.000000,4.000000,4.000000,4.000000,4.000000,4.000000,4.000000,4.000000,4.000000,4.000000,4.000000,4.000000,100.000000,,,,,,,,,,,,,,,,
1645709877.607868,1645709877.621281,132.000000,0.000000,4251.538574,4226.282227,4204.871582,4249.102539,4239.358887,4238.846191,4232.820313,4218.205078,4230.000000,4213.589844,4275.256348,4213.717773,4205.256348,4264.102539,3385.000000,4.000000,91.000000,,,,0.000000,4.000000,4.000000,4.000000,4.000000,4.000000,4.000000,4.000000,4.000000,4.000000,4.000000,4.000000,4.000000,4.000000,4.000000,100.000000,,,,,,,,,,,,,,,,
1645709877.611808,1645709877.625222,133.000000,0.000000,4253.205078,4227.820313,4212.307617,4254.230957,4240.641113,4240.769043,4234.358887,4216.282227,4227.051270,4212.307617,4273.717773,4215.128418,4205.769043,4267.051270,3400.000000,4.000000,91.000000,,,,0.000000,4.000000,4.000000,4.000000,4.000000,4.000000,4.000000,4.000000,4.000000,4.000000,4.000000,4.000000,4.000000,4.000000,4.000000,100.000000,,,,,,,,,,,,,,,,
1645709877.615748,1645709877.629162,134.000000,0.000000,4253.205078,4228.077148,4217.948730,4257.051270,4239.871582,4240.897461,4235.000000,4212.051270,4222.436035,4208.974121,4269.871582,4213.589844,4203.589844,4267.307617,3061.000000,4.000000,91.000000,,,,0.000000,4.000000,4.000000,4.000000,4.000000,4.000000,4.000000,4.000000,4.000000,4.000000,4.000000,4.000000,4.000000,4.000000,4.000000,100.000000,,,,,,,,,,,,,,,,
1645709877.619688,1645709877.633102,135.000000,0.000000,4253.077148,4226.025879,4219.358887,4255.128418,4235.641113,4238.589844,4233.974121,4206.922852,4216.922852,4204.871582,4263.589844,4210.256348,4198.461426,4265.128418,2153.000000,4.000000,91.000000,,,,0.000000,4.000000,4.000000,4.000000,4.000000,4.000000,4.000000,4.000000,4.000000,4.000000,4.000000,4.000000,4.000000,4.000000,4.000000,100.000000,,,,,,,,,,,,,,,,
1645709877.623628,1645709877.637042,136.000000,0.000000,4253.077148,4222.307617,4217.179688,4249.487305,4229.102539,4235.128418,4232.307617,4203.077148,4212.692383,4202.820313,4257.179688,4207.563965,4192.692383,4262.307617,1453.000000,4.000000,91.000000,,,,0.000000,4.000000,4.000000,4.000000,4.000000,4.000000,4.000000,4.000000,4.000000,4.000000,4.000000,4.000000,4.000000,4.000000,4.000000,100.000000,,,,,,,,,,,,,,,,
1645709877.627568,1645709877.640982,137.000000,0.000000,4252.563965,4218.717773,4214.487305,4243.846191,4224.102539,4232.692383,4231.538574,4203.205078,4212.307617,4204.615234,4253.589844,4207.051270,4188.846191,4260.897461,3070.000000,4.000000,91.000000,,,,0.000000,4.000000,4.000000,4.000000,4.000000,4.000000,4.000000,4.000000,4.000000,4.000000,4.000000,4.000000,4.000000,4.000000,4.000000,100.000000,,,,,,,,,,,,,,,,
1645709877.631508,1645709877.644922,138.000000,0.000000,4251.410156,4216.794922,4214.487305,4241.538574,4223.077148,4232.692383,4233.333496,4207.820313,4216.538574,4208.205078,4254.230957,4208.846191,4188.077148,4261.282227,2354.000000,4.000000,91.000000,,,,0.000000,4.000000,4.000000,4.000000,4.000000,4.000000,4.000000,4.000000,4.000000,4.000000,4.000000,4.000000,4.000000,4.000000,4.000000,100.000000,,,,,,,,,,,,,,,,
1645709877.635448,1645709877.648862,139.000000,0.000000,4251.153809,4216.922852,4218.205078,4242.563965,4225.641113,4235.000000,4237.692383,4214.743652,4222.948730,4210.256348,4258.461426,4212.436035,4190.128418,4262.692383,2812.000000,4.000000,91.000000,,,,0.000000,4.000000,4.000000,4.000000,4.000000,4.000000,4.000000,4.000000,4.000000,4.000000,4.000000,4.000000,4.000000,4.000000,4.000000,100.000000,,,,,,,,,,,,,,,,
1645709877.639388,1645709877.652802,140.000000,0.000000,4252.692383,4217.692383,4224.230957,4244.487305,4230.384766,4238.589844,4242.948730,4220.000000,4227.563965,4208.846191,4264.615234,4217.051270,4193.717773,4263.974121,3145.000000,4.000000,91.000000,,,,0.000000,4.000000,4.000000,4.000000,4.000000,4.000000,4.000000,4.000000,4.000000,4.000000,4.000000,4.000000,4.000000,4.000000,4.000000,100.000000,,,,,,,,,,,,,,,,
1645709877.643328,1645709877.656742,141.000000,0.000000,4254.230957,4217.948730,4229.358887,4245.128418,4235.769043,4242.051270,4246.410156,4221.025879,4228.461426,4205.641113,4270.897461,4221.282227,4198.077148,4265.128418,2723.000000,4.000000,91.000000,,,,0.000000,4.000000,4.000000,4.000000,4.000000,4.000000,4.000000,4.000000,4.000000,4.000000,4.000000,4.000000,4.000000,4.000000,4.000000,100.000000,,,,,,,,,,,,,,,,
1645709877.647268,1645709877.660682,142.000000,0.000000,4253.589844,4217.563965,4230.641113,4243.974121,4240.897461,4244.358887,4246.153809,4218.461426,4226.666504,4204.871582,4275.512695,4223.077148,4202.307617,4266.025879,2354.000000,4.000000,91.000000,,,,0.000000,4.000000,4.000000,4.000000,4.000000,4.000000,4.000000,4.000000,4.000000,4.000000,4.000000,4.000000,4.000000,4.000000,4.000000,100.000000,,,,,,,,,,,,,,,,
1645709877.651208,1645709877.664722,143.000000,0.000000,4250.512695,4217.307617,4227.051270,4242.563965,4243.974121,4244.487305,4242.692383,4215.512695,4224.871582,4208.077148,4276.282227,4220.897461,4205.897461,4267.179688,2812.000000,4.000000,91.000000,,,,0.000000,4.000000,4.000000,4.000000,4.000000,4.000000,4.000000,4.000000,4.000000,4.000000,4.000000,4.000000,4.000000,4.000000,4.000000,100.000000,,,,,,,,,,,,,,,,
1645709877.655148,1645709877.668663,144.000000,0.000000,4247.948730,4217.436035,4220.384766,4242.820313,4243.077148,4242.051270,4237.307617,4214.230957,4224.871582,4212.948730,4272.307617,4215.769043,4207.307617,4268.077148,3145.000000,4.000000,91.000000,,,,0.000000,4.000000,4.000000,4.000000,4.000000,4.000000,4.000000,4.000000,4.000000,4.000000,4.000000,4.000000,4.000000,4.000000,4.000000,100.000000,,,,,,,,,,,,,,,,
1645709877.659088,1645709877.672603,145.000000,0.000000,4247.692383,4217.179688,4213.461426,4245.128418,4238.589844,4237.820313,4231.666504,4214.487305,4225.641113,4215.128418,4264.615234,4210.256348,4205.641113,4267.820313,2723.000000,4.000000,91.000000,,,,0.000000,4.000000,4.000000,4.000000,4.000000,4.000000,4.000000,4.000000,4.000000,4.000000,4.000000,4.000000,4.000000,4.000000,4.000000,100.000000,,,,,,,,,,,,,,,,
1645709877.663028,1645709877.676543,146.000000,0.000000,4248.461426,4214.743652,4208.461426,4247.692383,4233.461426,4233.717773,4227.563965,4214.358887,4225.769043,4212.563965,4256.538574,4206.794922,4201.922852,4265.897461,2354.000000,4.000000,91.000000,,,,0.000000,4.000000,4.000000,4.000000,4.000000,4.000000,4.000000,4.000000,4.000000,4.000000,4.000000,4.000000,4.000000,4.000000,4.000000,100.000000,1.000000,75.000000,4.000000,3.000000,4.000000,3.000000,4.000000,4.000000,4.000000,4.000000,4.000000,4.000000,3.000000,3.000000,4.000000,4.000000
1645709877.666968,1645709877.680483,147.000000,0.000000,4247.051270,4209.487305,4206.282227,4247.820313,4230.641113,4231.794922,4226.025879,4213.589844,4224.871582,4207.179688,4251.794922,4206.794922,4198.589844,4262.820313,2812.000000,4.000000,91.000000,,,,0.000000,4.000000,4.000000,4.000000,4.000000,4.000000,4.000000,4.000000,4.000000,4.000000,4.000000,4.000000,4.000000,4.000000,4.000000,100.000000,,,,,,,,,,,,,,,,
1645709877.670909,1645709877.684423,148.000000,0.000000,4243.077148,4203.205078,4206.410156,4243.717773,4230.000000,4232.692383,4226.922852,4213.205078,4223.974121,4203.077148,4252.051270,4209.358887,4198.077148,4260.256348,3145.000000,4.000000,91.000000,,,,0.000000,4.000000,4.000000,4.000000,4.000000,4.000000,4.000000,4.000000,4.000000,4.000000,4.000000,4.000000,4.000000,4.000000,4.000000,100.000000,,,,,,,,,,,,,,,,
1645709877.674848,1645709877.688363,149.000000,0.000000,4239.358887,4199.358887,4208.205078,4237.051270,4229.230957,4234.743652,4228.461426,4214.102539,4224.615234,4202.179688,4256.153809,4212.563965,4201.025879,4259.615234,2723.000000,4.000000,91.000000,,,,0.000000,4.000000,4.000000,4.000000,4.000000,4.000000,4.000000,4.000000,4.000000,4.000000,4.000000,4.000000,4.000000,4.000000,4.000000,100.000000,,,,,,,,,,,,,,,,
1645709877.678789,1645709877.692303,150.000000,0.000000,4238.974121,4200.897461,4210.897461,4232.307617,4226.794922,4236.025879,4228.974121,4216.282227,4227.307617,4203.974121,4259.615234,4213.205078,4204.871582,4260.641113,2354.000000,4.000000,91.000000,,,,0.000000,4.000000,4.000000,4.000000,4.000000,4.000000,4.000000,4.000000,4.000000,4.000000,4.000000,4.000000,4.000000,4.000000,4.000000,100.000000,,,,,,,,,,,,,,,,
1645709877.682729,1645709877.696243,151.000000,0.000000,4241.538574,4208.333496,4213.205078,4233.974121,4224.230957,4235.897461,4227.820313,4217.948730,4230.384766,4205.897461,4258.717773,4209.487305,4206.025879,4261.410156,2812.000000,4.000000,91.000000,,,,0.000000,4.000000,4.000000,4.000000,4.000000,4.000000,4.000000,4.000000,4.000000,4.000000,4.000000,4.000000,4.000000,4.000000,4.000000,100.000000,,,,,,,,,,,,,,,,
1645709877.686669,1645709877.700183,152.000000,0.000000,4243.589844,4218.077148,4214.358887,4242.436035,4224.743652,4235.641113,4226.538574,4218.077148,4232.436035,4207.051270,4253.461426,4202.563965,4202.820313,4259.871582,3145.000000,4.000000,91.000000,,,,0.000000,4.000000,4.000000,4.000000,4.000000,4.000000,4.000000,4.000000,4.000000,4.000000,4.000000,4.000000,4.000000,4.000000,4.000000,100.000000,,,,,,,,,,,,,,,,
1645709877.690609,1645709877.704124,153.000000,0.000000,4242.820313,4224.615234,4213.974121,4252.563965,4229.615234,4236.538574,4226.794922,4217.179688,4233.077148,4207.436035,4246.794922,4196.410156,4197.051270,4255.897461,2723.000000,4.000000,91.000000,,,,0.000000,4.000000,4.000000,4.000000,4.000000,4.000000,4.000000,4.000000,4.000000,4.000000,4.000000,4.000000,4.000000,4.000000,4.000000,100.000000,,,,,,,,,,,,,,,,
1645709877.694549,1645709877.708064,154.000000,0.000000,4239.871582,4224.615234,4212.563965,4257.948730,4236.666504,4238.077148,4228.717773,4216.922852,4232.820313,4207.948730,4241.538574,4194.615234,4192.179688,4251.282227,2354.000000,4.000000,91.000000,,,,0.000000,4.000000,4.000000,4.000000,4.000000,4.000000,4.000000,4.000000,4.000000,4.000000,4.000000,4.000000,4.000000,4.000000,4.000000,100.000000,,,,,,,,,,,,,,,,
1645709877.698489,1645709877.712004,155.000000,0.000000,4236.794922,4219.230957,4210.897461,4255.641113,4242.179688,4238.974121,4230.897461,4217.948730,4232.179688,4208.333496,4238.974121,4197.820313,4191.153809,4247.820313,2812.000000,4.000000,91.000000,,,,0.000000,4.000000,4.000000,4.000000,4.000000,4.000000,4.000000,4.000000,4.000000,4.000000,4.000000,4.000000,4.000000,4.000000,4.000000,100.000000,,,,,,,,,,,,,,,,
1645709877.702429,1645709877.715944,156.000000,0.000000,4234.615234,4213.333496,4209.743652,4248.846191,4243.461426,4238.205078,4231.922852,4218.717773,4231.282227,4207.820313,4238.077148,4203.205078,4193.589844,4246.282227,3145.000000,4.000000,91.000000,,,,0.000000,4.000000,4.000000,4.000000,4.000000,4.000000,4.000000,4.000000,4.000000,4.000000,4.000000,4.000000,4.000000,4.000000,4.000000,100.000000,,,,,,,,,,,,,,,,
1645709877.706369,1645709877.719884,157.000000,0.000000,4233.077148,4210.256348,4210.128418,4243.974121,4240.512695,4236.282227,4231.666504,4217.436035,4230.000000,4205.384766,4238.077148,4206.282227,4196.794922,4244.871582,2723.000000,4.000000,91.000000,,,,0.000000,4.000000,4.000000,4.000000,4.000000,4.000000,4.000000,4.000000,4.000000,4.000000,4.000000,4.000000,4.000000,4.000000,4.000000,100.000000,,,,,,,,,,,,,,,,
1645709877.710309,1645709877.723824,158.000000,0.000000,4232.051270,4209.743652,4211.922852,4244.743652,4234.871582,4234.102539,4230.641113,4213.589844,4228.077148,4200.384766,4237.692383,4205.000000,4197.563965,4242.307617,2354.000000,4.000000,91.000000,,,,0.000000,4.000000,4.000000,4.000000,4.000000,4.000000,4.000000,4.000000,4.000000,4.000000,4.000000,4.000000,4.000000,4.000000,4.000000,100.000000,,,,,,,,,,,,,,,,
1645709877.714249,1645709877.727764,159.000000,0.000000,4232.436035,4208.461426,4214.358887,4249.358887,4228.589844,4232.051270,4229.358887,4208.589844,4225.769043,4192.563965,4235.512695,4200.384766,4194.615234,4238.205078,2812.000000,4.000000,91.000000,,,,0.000000,4.000000,4.000000,4.000000,4.000000,4.000000,4.000000,4.000000,4.000000,4.000000,4.000000,4.000000,4.000000,4.000000,4.000000,100.000000,,,,,,,,,,,,,,,,
1645709877.718189,1645709877.731704,160.000000,0.000000,4234.358887,4204.358887,4216.025879,4251.922852,4223.333496,4229.743652,4227.820313,4204.743652,4223.333496,4182.948730,4230.256348,4195.512695,4188.589844,4234.358887,3145.000000,4.000000,91.000000,,,,0.000000,4.000000,4.000000,4.000000,4.000000,4.000000,4.000000,4.000000,4.000000,4.000000,4.000000,4.000000,4.000000,4.000000,4.000000,100.000000,,,,,,,,,,,,,,,,
1645709877.722129,1645709877.735744,161.000000,0.000000,4236.025879,4199.102539,4215.512695,4248.589844,4220.769043,4226.922852,4226.025879,4202.948730,4221.538574,4173.974121,4222.307617,4192.307617,4181.538574,4232.051270,2723.000000,4.000000,91.000000,,,,0.000000,4.000000,4.000000,4.000000,4.000000,4.000000,4.000000,4.000000,4.000000,4.000000,4.000000,4.000000,4.000000,4.000000,4.000000,100.000000,,,,,,,,,,,,,,,,
1645709877.726069,1645709877.739684,162.000000,0.000000,4235.000000,4196.794922,4211.922852,4240.641113,4221.410156,4224.871582,4224.487305,4201.922852,4220.769043,4168.974121,4214.615234,4190.769043,4176.410156,4231.410156,2354.000000,4.000000,91.000000,,,,0.000000,4.000000,4.000000,4.000000,4.000000,4.000000,4.000000,4.000000,4.000000,4.000000,4.000000,4.000000,4.000000,4.000000,4.000000,100.000000,,,,,,,,,,,,,,,,
1645709877.730009,1645709877.743624,163.000000,0.000000,4231.538574,4200.256348,4206.282227,4233.077148,4224.230957,4225.000000,4223.589844,4200.384766,4220.512695,4169.487305,4211.025879,4189.871582,4174.871582,4230.769043,2812.000000,4.000000,91.000000,,,,0.000000,4.000000,4.000000,4.000000,4.000000,4.000000,4.000000,4.000000,4.000000,4.000000,4.000000,4.000000,4.000000,4.000000,4.000000,100.000000,,,,,,,,,,,,,,,,
1645709877.733949,1645709877.747565,164.000000,0.000000,4228.461426,4207.179688,4201.282227,4230.000000,4226.922852,4226.666504,4223.077148,4198.717773,4220.512695,4175.000000,4212.563965,4189.487305,4176.666504,4228.974121,3145.000000,4.000000,91.000000,,,,0.000000,4.000000,4.000000,4.000000,4.000000,4.000000,4.000000,4.000000,4.000000,4.000000,4.000000,4.000000,4.000000,4.000000,4.000000,100.000000,,,,,,,,,,,,,,,,
1645709877.737889,1645709877.751505,165.000000,0.000000,4228.077148,4212.179688,4199.230957,4231.794922,4227.820313,4227.948730,4222.692383,4198.974121,4220.897461,4182.179688,4217.179688,4190.256348,4180.256348,4226.282227,2723.000000,4.000000,91.000000,,,,0.000000,4.000000,4.000000,4.000000,4.000000,4.000000,4.000000,4.000000,4.000000,4.000000,4.000000,4.000000,4.000000,4.000000,4.000000,100.000000,,,,,,,,,,,,,,,,
1645709877.741829,1645709877.755445,166.000000,0.000000,4229.871582,4211.538574,4200.512695,4235.641113,4227.179688,4227.820313,4222.307617,4202.820313,4221.922852,4188.589844,4220.897461,4191.666504,4184.358887,4224.871582,2354.000000,4.000000,91.000000,,,,0.000000,4.000000,4.000000,4.000000,4.000000,4.000000,4.000000,4.000000,4.000000,4.000000,4.000000,4.000000,4.000000,4.000000,4.000000,100.000000,,,,,,,,,,,,,,,,
1645709877.745769,1645709877.759385,167.000000,0.000000,4231.282227,4206.025879,4202.692383,4238.589844,4226.538574,4226.666504,4222.692383,4209.230957,4224.102539,4192.692383,4221.282227,4192.563965,4188.333496,4226.410156,2812.000000,4.000000,91.000000,,,,0.000000,4.000000,4.000000,4.000000,4.000000,4.000000,4.000000,4.000000,4.000000,4.000000,4.000000,4.000000,4.000000,4.000000,4.000000,100.000000,,,,,,,,,,,,,,,,
1645709877.749709,1645709877.763325,168.000000,0.000000,4230.897461,4199.230957,4203.717773,4238.974121,4226.538574,4226.538574,4223.717773,4215.128418,4226.922852,4194.743652,4219.102539,4192.051270,4191.666504,4230.512695,3145.000000,4.000000,91.000000,,,,0.000000,4.000000,4.000000,4.000000,4.000000,4.000000,4.000000,4.000000,4.000000,4.000000,4.000000,4.000000,4.000000,4.000000,4.000000,100.000000,,,,,,,,,,,,,,,,
1645709877.753649,1645709877.767265,169.000000,0.000000,4229.743652,4194.743652,4202.692383,4235.769043,4226.794922,4228.333496,4224.743652,4217.307617,4229.487305,4195.000000,4216.538574,4190.769043,4193.589844,4234.615234,2723.000000,4.000000,91.000000,,,,0.000000,4.000000,4.000000,4.000000,4.000000,4.000000,4.000000,4.000000,4.000000,4.000000,4.000000,4.000000,4.000000,4.000000,4.000000,100.000000,,,,,,,,,,,,,,,,
1645709877.757589,1645709877.771205,170.000000,0.000000,4230.000000,4193.077148,4200.769043,4229.615234,4225.512695,4230.769043,4225.384766,4215.000000,4230.512695,4193.717773,4215.384766,4190.256348,4193.461426,4236.538574,2354.000000,4.000000,91.000000,,,,0.000000,4.000000,4.000000,4.000000,4.000000,4.000000,4.000000,4.000000,4.000000,4.000000,4.000000,4.000000,4.000000,4.000000,4.000000,100.000000,,,,,,,,,,,,,,,,
1645709877.761529,1645709877.775145,171.000000,0.000000,4231.922852,4192.948730,4199.871582,4223.333496,4222.563965,4232.179688,4225.641113,4210.512695,4229.102539,4191.666504,4216.025879,4191.666504,4191.666504,4235.897461,2812.000000,4.000000,91.000000,,,,0.000000,4.000000,4.000000,4.000000,4.000000,4.000000,4.000000,4.000000,4.000000,4.000000,4.000000,4.000000,4.000000,4.000000,4.000000,100.000000,,,,,,,,,,,,,,,,
1645709877.765469,1645709877.779085,172.000000,0.000000,4233.846191,4192.820313,4200.897461,4219.615234,4219.358887,4232.179688,4226.282227,4207.179688,4226.410156,4190.769043,4217.563965,4194.102539,4189.743652,4234.358887,3145.000000,4.000000,91.000000,,,,0.000000,4.000000,4.000000,4.000000,4.000000,4.000000,4.000000,4.000000,4.000000,4.000000,4.000000,4.000000,4.000000,4.000000,4.000000,100.000000,,,,,,,,,,,,,,,,
1645709877.769409,1645709877.783026,173.000000,0.000000,4233.589844,4192.051270,4202.948730,4219.102539,4217.563965,4231.153809,4227.692383,4207.692383,4224.358887,4192.948730,4219.487305,4195.384766,4188.461426,4233.717773,2723.000000,4.000000,91.000000,,,,0.000000,4.000000,4.000000,4.000000,4.000000,4.000000,4.000000,4.000000,4.000000,4.000000,4.000000,4.000000,4.000000,4.000000,4.000000,100.000000,,,,,,,,,,,,,,,,
1645709877.773349,1645709877.786966,174.000000,0.000000,4230.512695,4189.743652,4204.358887,4219.358887,4216.922852,4229.102539,4229.487305,4211.538574,4224.230957,4197.179688,4220.384766,4193.205078,4188.333496,4234.102539,2354.000000,4.000000,91.000000,,,,0.000000,4.000000,4.000000,4.000000,4.000000,4.000000,4.000000,4.000000,4.000000,4.000000,4.000000,4.000000,4.000000,4.000000,4.000000,100.000000,,,,,,,,,,,,,,,,
1645709877.777290,1645709877.790906,175.000000,0.000000,4226.410156,4185.769043,4203.589844,4217.820313,4216.410156,4226.153809,4231.025879,4216.282227,4225.897461,4199.615234,4220.128418,4187.563965,4188.717773,4234.871582,2812.000000,4.000000,91.000000,,,,0.000000,4.000000,4.000000,4.000000,4.000000,4.000000,4.000000,4.000000,4.000000,4.000000,4.000000,4.000000,4.000000,4.000000,4.000000,100.000000,,,,,,,,,,,,,,,,
1645709877.781229,1645709877.794846,176.000000,0.000000,4222.948730,4180.256348,4201.025879,4215.384766,4215.384766,4222.820313,4231.666504,4219.102539,4228.333496,4197.307617,4219.487305,4180.512695,4189.358887,4234.743652,3145.000000,4.000000,91.000000,,,,0.000000,4.000000,4.000000,4.000000,4.000000,4.000000,4.000000,4.000000,4.000000,4.000000,4.000000,4.000000,4.000000,4.000000,4.000000,100.000000,,,,,,,,,,,,,,,,
1645709877.785169,1645709877.798786,177.000000,0.000000,4220.769043,4175.128418,4198.077148,4215.000000,4215.128418,4221.025879,4231.794922,4219.230957,4230.512695,4190.897461,4219.743652,4175.128418,4190.000000,4233.461426,2723.000000,4.000000,91.000000,,,,0.000000,4.000000,4.000000,4.000000,4.000000,4.000000,4.000000,4.000000,4.000000,4.000000,4.000000,4.000000,4.000000,4.000000,4.000000,100.000000,,,,,,,,,,,,,,,,
1645709877.789110,1645709877.802726,178.000000,0.000000,4219.871582,4172.948730,4195.769043,4218.077148,4216.666504,4222.307617,4231.922852,4218.077148,4231.538574,4185.256348,4221.025879,4173.974121,4190.641113,4231.922852,2354.000000,4.000000,91.000000,,,,0.000000,4.000000,4.000000,4.000000,4.000000,4.000000,4.000000,4.000000,4.000000,4.000000,4.000000,4.000000,4.000000,4.000000,4.000000,100.000000,,,,,,,,,,,,,,,,
1645709877.793050,1645709877.806766,179.000000,0.000000,4220.384766,4174.487305,4194.743652,4221.794922,4219.615234,4226.538574,4232.563965,4217.307617,4231.025879,4184.487305,4221.922852,4177.307617,4190.769043,4230.769043,2812.000000,4.000000,91.000000,,,,0.000000,4.000000,4.000000,4.000000,4.000000,4.000000,4.000000,4.000000,4.000000,4.000000,4.000000,4.000000,4.000000,4.000000,4.000000,100.000000,,,,,,,,,,,,,,,,
1645709877.796990,1645709877.810706,180.000000,0.000000,4222.563965,4178.846191,4194.871582,4222.436035,4221.538574,4231.538574,4233.846191,4217.563965,4229.487305,4189.230957,4220.256348,4182.563965,4190.512695,4230.256348,3145.000000,4.000000,91.000000,,,,0.000000,4.000000,4.000000,4.000000,4.000000,4.000000,4.000000,4.000000,4.000000,4.000000,4.000000,4.000000,4.000000,4.000000,4.000000,100.000000,,,,,,,,,,,,,,,,
1645709877.800930,1645709877.814646,181.000000,0.000000,4225.769043,4183.717773,4196.410156,4219.743652,4222.051270,4235.000000,4235.769043,4219.102539,4228.333496,4196.410156,4216.922852,4186.666504,4191.025879,4230.641113,2723.000000,4.000000,91.000000,,,,0.000000,4.000000,4.000000,4.000000,4.000000,4.000000,4.000000,4.000000,4.000000,4.000000,4.000000,4.000000,4.000000,4.000000,4.000000,100.000000,,,,,,,,,,,,,,,,
1645709877.804870,1645709877.818586,182.000000,0.000000,4227.820313,4187.307617,4199.102539,4217.179688,4222.948730,4236.666504,4238.077148,4221.025879,4229.487305,4203.205078,4214.871582,4187.051270,4193.974121,4231.922852,2354.000000,4.000000,91.000000,,,,0.000000,4.000000,4.000000,4.000000,4.000000,4.000000,4.000000,4.000000,4.000000,4.000000,4.000000,4.000000,4.000000,4.000000,4.000000,100.000000,,,,,,,,,,,,,,,,
1645709877.808810,1645709877.822527,183.000000,0.000000,4227.436035,4189.230957,4201.922852,4217.948730,4225.641113,4237.563965,4239.615234,4222.051270,4232.820313,4207.692383,4216.538574,4184.102539,4198.974121,4233.974121,2812.000000,4.000000,91.000000,,,,0.000000,4.000000,4.000000,4.000000,4.000000,4.000000,4.000000,4.000000,4.000000,4.000000,4.000000,4.000000,4.000000,4.000000,4.000000,100.000000,,,,,,,,,,,,,,,,
1645709877.812750,1645709877.826467,184.000000,0.000000,4225.769043,4189.615234,4202.948730,4221.025879,4229.102539,4238.077148,4239.487305,4220.512695,4236.153809,4208.974121,4220.897461,4180.256348,4203.077148,4235.641113,3145.000000,4.000000,91.000000,,,,0.000000,4.000000,4.000000,4.000000,4.000000,4.000000,4.000000,4.000000,4.000000,4.000000,4.000000,4.000000,4.000000,4.000000,4.000000,100.000000,,,,,,,,,,,,,,,,
1645709877.816690,1645709877.830407,185.000000,0.000000,4224.615234,4187.820313,4201.282227,4222.820313,4230.000000,4237.307617,4237.179688,4216.282227,4236.666504,4207.051270,4224.487305,4177.051270,4203.205078,4235.769043,2723.000000,4.000000,91.000000,,,,0.000000,4.000000,4.000000,4.000000,4.000000,4.000000,4.000000,4.000000,4.000000,4.000000,4.000000,4.000000,4.000000,4.000000,4.000000,100.000000,,,,,,,,,,,,,,,,
1645709877.820630,1645709877.834347,186.000000,0.000000,4224.615234,4184.230957,4197.179688,4220.897461,4226.410156,4234.743652,4233.461426,4211.025879,4233.461426,4203.205078,4224.743652,4175.128418,4199.743652,4234.358887,2354.000000,4.000000,91.000000,,,,0.000000,4.000000,4.000000,4.000000,4.000000,4.000000,4.000000,4.000000,4.000000,4.000000,4.000000,4.000000,4.000000,4.000000,4.000000,100.000000,,,,,,,,,,,,,,,,
1645709877.824570,1645709877.838287,187.000000,0.000000,4224.230957,4180.000000,4192.692383,4217.307617,4221.025879,4231.282227,4229.871582,4207.307617,4228.461426,4200.128418,4221.922852,4173.333496,4196.153809,4232.051270,2812.000000,4.000000,91.000000,,,,0.000000,4.000000,4.000000,4.000000,4.000000,4.000000,4.000000,4.000000,4.000000,4.000000,4.000000,4.000000,4.000000,4.000000,4.000000,100.000000,,,,,,,,,,,,,,,,
1645709877.828510,1645709877.842227,188.000000,0.000000,4222.563965,4177.179688,4190.128418,4216.282227,4218.333496,4228.717773,4226.794922,4206.282227,4225.256348,4199.487305,4218.846191,4171.666504,4195.897461,4230.128418,3145.000000,4.000000,91.000000,,,,0.000000,4.000000,4.000000,4.000000,4.000000,4.000000,4.000000,4.000000,4.000000,4.000000,4.000000,4.000000,4.000000,4.000000,4.000000,100.000000,,,,,,,,,,,,,,,,
1645709877.832450,1645709877.846167,189.000000,0.000000,4220.641113,4177.307617,4190.384766,4219.615234,4220.897461,4228.077148,4224.487305,4207.563965,4225.641113,4201.025879,4217.436035,4171.282227,4199.487305,4229.102539,2723.000000,4.000000,91.000000,,,,0.000000,4.000000,4.000000,4.000000,4.000000,4.000000,4.000000,4.000000,4.000000,4.000000,4.000000,4.000000,4.000000,4.000000,4.000000,100.000000,,,,,,,,,,,,,,,,
1645709877.836390,1645709877.850107,190.000000,0.000000,4220.512695,4180.512695,4193.589844,4224.871582,4226.410156,4228.846191,4223.717773,4209.487305,4228.461426,4202.820313,4217.820313,4173.461426,4204.487305,4229.487305,2354.000000,4.000000,91.000000,,,,0.000000,4.000000,4.000000,4.000000,4.000000,4.000000,4.000000,4.000000,4.000000,4.000000,4.000000,4.000000,4.000000,4.000000,4.000000,100.000000,,,,,,,,,,,,,,,,
1645709877.840330,1645709877.854047,191.000000,0.000000,4222.820313,4186.410156,4198.589844,4227.563965,4231.282227,4230.769043,4225.256348,4211.025879,4230.769043,4203.974121,4219.230957,4177.692383,4207.820313,4232.051270,2812.000000,4.000000,91.000000,,,,0.000000,4.000000,4.000000,4.000000,4.000000,4.000000,4.000000,4.000000,4.000000,4.000000,4.000000,4.000000,4.000000,4.000000,4.000000,100.000000,,,,,,,,,,,,,,,,
1645709877.844270,1645709877.857987,192.000000,0.000000,4225.384766,4193.205078,4203.461426,4225.769043,4232.563965,4233.333496,4229.102539,4211.538574,4230.512695,4204.743652,4221.282227,4182.307617,4208.717773,4236.922852,3145.000000,4.000000,91.000000,,,,0.000000,4.000000,4.000000,4.000000,4.000000,4.000000,4.000000,4.000000,4.000000,4.000000,4.000000,4.000000,4.000000,4.000000,4.000000,100.000000,,,,,,,,,,,,,,,,
1645709877.848210,1645709877.861928,193.000000,0.000000,4225.641113,4198.205078,4205.384766,4221.282227,4230.128418,4235.384766,4233.461426,4211.538574,4228.077148,4205.512695,4223.205078,4185.256348,4207.948730,4242.307617,2723.000000,4.000000,91.000000,,,,0.000000,4.000000,4.000000,4.000000,4.000000,4.000000,4.000000,4.000000,4.000000,4.000000,4.000000,4.000000,4.000000,4.000000,4.000000,100.000000,,,,,,,,,,,,,,,,
1645709877.852150,1645709877.865868,194.000000,0.000000,4223.461426,4198.717773,4202.307617,4218.205078,4225.512695,4235.256348,4235.512695,4211.153809,4225.641113,4205.128418,4223.205078,4185.384766,4206.410156,4245.256348,2354.000000,4.000000,91.000000,,,,0.000000,4.000000,4.000000,4.000000,4.000000,4.000000,4.000000,4.000000,4.000000,4.000000,4.000000,4.000000,4.000000,4.000000,4.000000,100.000000,,,,,,,,,,,,,,,,
1645709877.856090,1645709877.869808,195.000000,0.000000,4220.641113,4193.077148,4195.512695,4219.102539,4221.282227,4231.410156,4233.461426,4210.512695,4224.743652,4201.410156,4219.487305,4183.717773,4203.846191,4243.461426,2812.000000,4.000000,91.000000,,,,0.000000,4.000000,4.000000,4.000000,4.000000,4.000000,4.000000,4.000000,4.000000,4.000000,4.000000,4.000000,4.000000,4.000000,4.000000,100.000000,,,,,,,,,,,,,,,,
1645709877.860030,1645709877.873748,196.000000,0.000000,4218.589844,4182.820313,4189.230957,4222.307617,4218.717773,4225.000000,4227.948730,4209.358887,4225.128418,4195.000000,4212.563965,4181.666504,4200.256348,4237.692383,3145.000000,4.000000,91.000000,,,,0.000000,4.000000,4.000000,4.000000,4.000000,4.000000,4.000000,4.000000,4.000000,4.000000,4.000000,4.000000,4.000000,4.000000,4.000000,100.000000,,,,,,,,,,,,,,,,
1645709877.863970,1645709877.877688,197.000000,0.000000,4217.051270,4171.538574,4186.922852,4223.461426,4217.436035,4218.589844,4221.922852,4207.179688,4225.384766,4189.102539,4206.025879,4180.512695,4196.666504,4231.538574,2723.000000,4.000000,91.000000,,,,0.000000,4.000000,4.000000,4.000000,4.000000,4.000000,4.000000,4.000000,4.000000,4.000000,4.000000,4.000000,4.000000,4.000000,4.000000,100.000000,,,,,,,,,,,,,,,,
1645709877.867910,1645709877.881728,198.000000,0.000000,4215.256348,4163.461426,4189.230957,4220.000000,4215.128418,4215.000000,4218.077148,4204.487305,4224.487305,4187.307617,4203.974121,4180.256348,4195.641113,4229.230957,2354.000000,4.000000,91.000000,,,,0.000000,4.000000,4.000000,4.000000,4.000000,4.000000,4.000000,4.000000,4.000000,4.000000,4.000000,4.000000,4.000000,4.000000,4.000000,100.000000,,,,,,,,,,,,,,,,
1645709877.871850,1645709877.885668,199.000000,0.000000,4214.102539,4160.256348,4194.358887,4212.948730,4210.641113,4215.000000,4217.692383,4202.692383,4222.948730,4190.512695,4207.436035,4180.641113,4198.846191,4232.948730,2812.000000,4.000000,91.000000,,,,0.000000,4.000000,4.000000,4.000000,4.000000,4.000000,4.000000,4.000000,4.000000,4.000000,4.000000,4.000000,4.000000,4.000000,4.000000,100.000000,,,,,,,,,,,,,,,,
1645709877.875790,1645709877.889608,200.000000,0.000000,4215.384766,4160.897461,4199.102539,4206.666504,4205.256348,4216.538574,4220.128418,4203.974121,4221.794922,4195.897461,4213.974121,4182.307617,4205.000000,4240.769043,3145.000000,4.000000,91.000000,,,,0.000000,4.000000,4.000000,4.000000,4.000000,4.000000,4.000000,4.000000,4.000000,4.000000,4.000000,4.000000,4.000000,4.000000,4.000000,100.000000,,,,,,,,,,,,,,,,
1645709877.879730,1645709877.893548,201.000000,0.000000,4219.615234,4162.307617,4202.051270,4204.487305,4202.179688,4217.692383,4224.487305,4209.102539,4221.666504,4200.512695,4220.256348,4186.153809,4211.666504,4248.846191,2723.000000,4.000000,91.000000,,,,0.000000,4.000000,4.000000,4.000000,4.000000,4.000000,4.000000,4.000000,4.000000,4.000000,4.000000,4.000000,4.000000,4.000000,4.000000,100.000000,,,,,,,,,,,,,,,,
1645709877.883670,1645709877.897488,202.000000,0.000000,4225.000000,4162.307617,4203.846191,4206.666504,4204.615234,4218.333496,4229.487305,4215.512695,4222.948730,4203.077148,4225.000000,4191.666504,4216.922852,4253.461426,2354.000000,4.000000,91.000000,,,,0.000000,4.000000,4.000000,4.000000,4.000000,4.000000,4.000000,4.000000,4.000000,4.000000,4.000000,4.000000,4.000000,4.000000,4.000000,100.000000,,,,,,,,,,,,,,,,
1645709877.887611,1645709877.901429,203.000000,0.000000,4228.974121,4160.641113,4206.666504,4210.256348,4211.666504,4219.102539,4234.102539,4219.102539,4225.256348,4204.230957,4228.846191,4196.666504,4220.641113,4253.717773,2812.000000,4.000000,91.000000,,,,0.000000,4.000000,4.000000,4.000000,4.000000,4.000000,4.000000,4.000000,4.000000,4.000000,4.000000,4.000000,4.000000,4.000000,4.000000,100.000000,,,,,,,,,,,,,,,,
1645709877.891550,1645709877.905369,204.000000,0.000000,4230.897461,4158.589844,4211.410156,4212.436035,4218.974121,4220.128418,4235.769043,4218.077148,4227.436035,4204.743652,4231.794922,4199.615234,4223.589844,4251.538574,3145.000000,4.000000,91.000000,,,,0.000000,4.000000,4.000000,4.000000,4.000000,4.000000,4.000000,4.000000,4.000000,4.000000,4.000000,4.000000,4.000000,4.000000,4.000000,100.000000,,,,,,,,,,,,,,,,
1645709877.895491,1645709877.909309,205.000000,0.000000,4231.794922,4157.436035,4216.282227,4212.051270,4221.282227,4219.871582,4233.461426,4214.358887,4228.077148,4205.000000,4233.589844,4200.384766,4226.153809,4249.743652,2723.000000,4.000000,91.000000,,,,0.000000,4.000000,4.000000,4.000000,4.000000,4.000000,4.000000,4.000000,4.000000,4.000000,4.000000,4.000000,4.000000,4.000000,4.000000,100.000000,,,,,,,,,,,,,,,,
1645709877.899431,1645709877.913249,206.000000,0.000000,4232.436035,4157.820313,4218.333496,4209.358887,4217.307617,4217.692383,4227.948730,4211.025879,4226.794922,4204.230957,4233.205078,4200.128418,4227.820313,4249.358887,2354.000000,4.000000,91.000000,,,,0.000000,4.000000,4.000000,4.000000,4.000000,4.000000,4.000000,4.000000,4.000000,4.000000,4.000000,4.000000,4.000000,4.000000,4.000000,100.000000,,,,,,,,,,,,,,,,
1645709877.903371,1645709877.917189,207.000000,0.000000,4231.666504,4159.230957,4216.410156,4206.025879,4210.256348,4214.871582,4222.051270,4210.000000,4224.487305,4202.563965,4231.025879,4199.743652,4227.563965,4249.743652,2812.000000,4.000000,91.000000,,,,0.000000,4.000000,4.000000,4.000000,4.000000,4.000000,4.000000,4.000000,4.000000,4.000000,4.000000,4.000000,4.000000,4.000000,4.000000,100.000000,,,,,,,,,,,,,,,,
1645709877.907311,1645709877.921129,208.000000,0.000000,4228.846191,4160.897461,4211.794922,4203.974121,4205.769043,4213.461426,4218.974121,4210.641113,4223.333496,4200.769043,4228.077148,4199.358887,4225.384766,4249.487305,3145.000000,4.000000,91.000000,,,,0.000000,4.000000,4.000000,4.000000,4.000000,4.000000,4.000000,4.000000,4.000000,4.000000,4.000000,4.000000,4.000000,4.000000,4.000000,100.000000,,,,,,,,,,,,,,,,
1645709877.911251,1645709877.925069,209.000000,0.000000,4224.615234,4162.307617,4207.563965,4204.230957,4206.922852,4214.743652,4220.128418,4211.922852,4224.358887,4200.384766,4225.384766,4198.333496,4221.922852,4248.717773,2723.000000,4.000000,91.000000,,,,0.000000,4.000000,4.000000,4.000000,4.000000,4.000000,4.000000,4.000000,4.000000,4.000000,4.000000,4.000000,4.000000,4.000000,4.000000,100.000000,,,,,,,,,,,,,,,,
1645709877.915191,1645709877.929009,210.000000,0.000000,4221.538574,4163.205078,4205.897461,4205.128418,4212.307617,4217.692383,4224.743652,4213.846191,4226.538574,4202.692383,4223.461426,4196.794922,4218.333496,4248.589844,2354.000000,4.000000,91.000000,,,,0.000000,4.000000,4.000000,4.000000,4.000000,4.000000,4.000000,4.000000,4.000000,4.000000,4.000000,4.000000,4.000000,4.000000,4.000000,100.000000,,,,,,,,,,,,,,,,
1645709877.919131,1645709877.932949,211.000000,0.000000,4221.153809,4163.974121,4206.794922,4205.128418,4217.820313,4221.025879,4230.384766,4216.538574,4228.461426,4207.051270,4221.922852,4195.128418,4215.000000,4249.230957,2812.000000,4.000000,91.000000,,,,0.000000,4.000000,4.000000,4.000000,4.000000,4.000000,4.000000,4.000000,4.000000,4.000000,4.000000,4.000000,4.000000,4.000000,4.000000,100.000000,,,,,,,,,,,,,,,,
