title:Alex-IfvQ1vzv0XYBNeS6NI-3Zg, start timestamp:1645708336.135224, stop timestamp:1645708362.010496, headset type:EPOCPLUS, headset serial:3B9AEBFF, headset firmware:626, channels:55, sampling rate:eeg_256, samples:6568      , version:2.1, 
Timestamp,EEG.Counter,EEG.Interpolated,EEG.AF3,EEG.F7,EEG.F3,EEG.FC5,EEG.T7,EEG.P7,EEG.O1,EEG.O2,EEG.P8,EEG.T8,EEG.FC6,EEG.F4,EEG.F8,EEG.AF4,EEG.RawCq,EEG.Battery,EEG.BatteryPercent,MarkerIndex,MarkerType,MarkerValueInt,EEG.MarkerHardware,CQ.AF3,CQ.F7,CQ.F3,CQ.FC5,CQ.T7,CQ.P7,CQ.O1,CQ.O2,CQ.P8,CQ.T8,CQ.FC6,CQ.F4,CQ.F8,CQ.AF4,CQ.Overall,EQ.SampleRateQuality,EQ.OVERALL,EQ.AF3,EQ.F7,EQ.F3,EQ.FC5,EQ.T7,EQ.P7,EQ.O1,EQ.O2,EQ.P8,EQ.T8,EQ.FC6,EQ.F4,EQ.F8,EQ.AF4
1645708336.135224,171.000000,0.000000,4235.000000,4235.128418,4233.205078,4281.794922,4231.922852,4201.282227,4202.563965,4206.410156,4214.358887,4239.358887,4257.692383,4191.922852,4220.769043,4295.769043,3518.000000,4.000000,91.000000,,,,0.000000,4.000000,4.000000,4.000000,4.000000,4.000000,4.000000,4.000000,4.000000,4.000000,4.000000,4.000000,4.000000,4.000000,4.000000,100.000000,,,,,,,,,,,,,,,,
1645708336.139064,172.000000,0.000000,4234.743652,4239.487305,4231.922852,4278.589844,4231.922852,4204.871582,4201.922852,4206.410156,4214.230957,4236.025879,4258.333496,4190.897461,4221.666504,4294.487305,3355.000000,4.000000,91.000000,,,,0.000000,4.000000,4.000000,4.000000,4.000000,4.000000,4.000000,4.000000,4.000000,4.000000,4.000000,4.000000,4.000000,4.000000,4.000000,100.000000,,,,,,,,,,,,,,,,
1645708336.143004,173.000000,0.000000,4231.666504,4248.077148,4228.461426,4270.000000,4226.025879,4207.436035,4199.102539,4205.256348,4215.000000,4233.717773,4259.230957,4189.871582,4221.410156,4293.974121,3286.000000,4.000000,91.000000,,,,0.000000,4.000000,4.000000,4.000000,4.000000,4.000000,4.000000,4.000000,4.000000,4.000000,4.000000,4.000000,4.000000,4.000000,4.000000,100.000000,,,,,,,,,,,,,,,,
1645708336.146945,174.000000,0.000000,4225.384766,4254.102539,4222.820313,4258.333496,4218.717773,4205.897461,4195.256348,4202.692383,4215.512695,4231.410156,4257.179688,4187.563965,4217.820313,4291.282227,2579.000000,4.000000,91.000000,,,,0.000000,4.000000,4.000000,4.000000,4.000000,4.000000,4.000000,4.000000,4.000000,4.000000,4.000000,4.000000,4.000000,4.000000,4.000000,100.000000,,,,,,,,,,,,,,,,
1645708336.150885,175.000000,0.000000,4218.974121,4253.333496,4216.025879,4249.743652,4216.025879,4201.025879,4191.794922,4198.846191,4215.128418,4229.230957,4251.666504,4183.974121,4212.051270,4286.025879,3518.000000,4.000000,91.000000,,,,0.000000,4.000000,4.000000,4.000000,4.000000,4.000000,4.000000,4.000000,4.000000,4.000000,4.000000,4.000000,4.000000,4.000000,4.000000,100.000000,,,,,,,,,,,,,,,,
1645708336.154825,176.000000,0.000000,4216.153809,4246.538574,4211.410156,4249.615234,4218.461426,4196.666504,4190.128418,4195.769043,4214.487305,4227.563965,4245.512695,4180.897461,4207.436035,4280.128418,3355.000000,4.000000,91.000000,,,,0.000000,4.000000,4.000000,4.000000,4.000000,4.000000,4.000000,4.000000,4.000000,4.000000,4.000000,4.000000,4.000000,4.000000,4.000000,100.000000,,,,,,,,,,,,,,,,
1645708336.158765,177.000000,0.000000,4219.230957,4238.461426,4212.307617,4259.615234,4220.897461,4196.153809,4191.794922,4196.025879,4214.871582,4226.410156,4242.051270,4181.153809,4207.051270,4276.666504,3286.000000,4.000000,91.000000,,,,0.000000,4.000000,4.000000,4.000000,4.000000,4.000000,4.000000,4.000000,4.000000,4.000000,4.000000,4.000000,4.000000,4.000000,4.000000,100.000000,,,,,,,,,,,,,,,,
1645708336.162705,178.000000,0.000000,4226.282227,4233.333496,4219.230957,4275.897461,4218.077148,4199.871582,4196.538574,4200.769043,4216.666504,4225.384766,4243.717773,4185.641113,4210.897461,4277.051270,2579.000000,4.000000,91.000000,,,,0.000000,4.000000,4.000000,4.000000,4.000000,4.000000,4.000000,4.000000,4.000000,4.000000,4.000000,4.000000,4.000000,4.000000,4.000000,100.000000,,,,,,,,,,,,,,,,
1645708336.166645,179.000000,0.000000,4232.563965,4232.820313,4228.461426,4292.692383,4211.282227,4204.871582,4202.436035,4208.077148,4219.102539,4224.487305,4249.615234,4192.692383,4216.153809,4280.641113,3518.000000,4.000000,91.000000,,,,0.000000,4.000000,4.000000,4.000000,4.000000,4.000000,4.000000,4.000000,4.000000,4.000000,4.000000,4.000000,4.000000,4.000000,4.000000,100.000000,,,,,,,,,,,,,,,,
1645708336.170585,180.000000,0.000000,4233.846191,4235.769043,4234.102539,4305.384766,4207.692383,4208.077148,4206.025879,4214.102539,4220.769043,4224.743652,4256.282227,4198.589844,4220.000000,4284.358887,3355.000000,4.000000,91.000000,,,,0.000000,4.000000,4.000000,4.000000,4.000000,4.000000,4.000000,4.000000,4.000000,4.000000,4.000000,4.000000,4.000000,4.000000,4.000000,100.000000,,,,,,,,,,,,,,,,
1645708336.174525,181.000000,0.000000,4229.230957,4239.487305,4232.179688,4312.436035,4212.563965,4208.077148,4205.256348,4215.128418,4220.512695,4226.666504,4259.358887,4199.743652,4220.641113,4285.512695,3286.000000,4.000000,91.000000,,,,0.000000,4.000000,4.000000,4.000000,4.000000,4.000000,4.000000,4.000000,4.000000,4.000000,4.000000,4.000000,4.000000,4.000000,4.000000,100.000000,,,,,,,,,,,,,,,,
1645708336.178465,182.000000,0.000000,4222.179688,4241.794922,4223.974121,4313.974121,4223.205078,4206.025879,4201.538574,4211.025879,4218.461426,4229.102539,4256.666504,4195.384766,4218.333496,4283.205078,2579.000000,4.000000,91.000000,,,,0.000000,4.000000,4.000000,4.000000,4.000000,4.000000,4.000000,4.000000,4.000000,4.000000,4.000000,4.000000,4.000000,4.000000,4.000000,100.000000,,,,,,,,,,,,,,,,
1645708336.182406,183.000000,0.000000,4216.666504,4241.282227,4215.256348,4311.666504,4231.538574,4203.589844,4197.948730,4205.128418,4216.025879,4230.128418,4249.615234,4188.461426,4214.871582,4278.974121,3518.000000,4.000000,91.000000,,,,0.000000,4.000000,4.000000,4.000000,4.000000,4.000000,4.000000,4.000000,4.000000,4.000000,4.000000,4.000000,4.000000,4.000000,4.000000,100.000000,,,,,,,,,,,,,,,,
1645708336.186346,184.000000,0.000000,4215.256348,4237.563965,4211.538574,4307.820313,4231.282227,4202.563965,4196.922852,4201.025879,4214.102539,4228.077148,4242.563965,4183.205078,4211.794922,4274.871582,3355.000000,4.000000,91.000000,,,,0.000000,4.000000,4.000000,4.000000,4.000000,4.000000,4.000000,4.000000,4.000000,4.000000,4.000000,4.000000,4.000000,4.000000,4.000000,100.000000,,,,,,,,,,,,,,,,
1645708336.190286,185.000000,0.000000,4217.307617,4232.051270,4213.846191,4304.358887,4223.333496,4203.205078,4198.205078,4200.512695,4213.717773,4223.846191,4239.230957,4182.307617,4210.256348,4271.922852,3286.000000,4.000000,91.000000,,,,0.000000,4.000000,4.000000,4.000000,4.000000,4.000000,4.000000,4.000000,4.000000,4.000000,4.000000,4.000000,4.000000,4.000000,4.000000,100.000000,,,,,,,,,,,,,,,,
1645708336.194226,186.000000,0.000000,4220.769043,4226.666504,4218.333496,4302.692383,4213.589844,4204.615234,4199.871582,4202.179688,4214.230957,4220.000000,4240.128418,4184.615234,4210.128418,4269.743652,2579.000000,4.000000,91.000000,,,,0.000000,4.000000,4.000000,4.000000,4.000000,4.000000,4.000000,4.000000,4.000000,4.000000,4.000000,4.000000,4.000000,4.000000,4.000000,100.000000,,,,,,,,,,,,,,,,
1645708336.198166,187.000000,0.000000,4222.820313,4223.974121,4220.384766,4303.077148,4208.077148,4205.256348,4200.769043,4203.589844,4214.871582,4218.717773,4242.820313,4187.563965,4210.128418,4267.563965,3518.000000,4.000000,91.000000,,,,0.000000,4.000000,4.000000,4.000000,4.000000,4.000000,4.000000,4.000000,4.000000,4.000000,4.000000,4.000000,4.000000,4.000000,4.000000,100.000000,,,,,,,,,,,,,,,,
1645708336.202106,188.000000,0.000000,4221.922852,4225.769043,4218.974121,4305.641113,4208.717773,4204.871582,4200.897461,4203.589844,4214.743652,4220.641113,4244.615234,4189.102539,4209.615234,4265.256348,3355.000000,4.000000,91.000000,,,,0.000000,4.000000,4.000000,4.000000,4.000000,4.000000,4.000000,4.000000,4.000000,4.000000,4.000000,4.000000,4.000000,4.000000,4.000000,100.000000,,,,,,,,,,,,,,,,
1645708336.206146,189.000000,0.000000,4219.487305,4231.666504,4216.794922,4310.384766,4213.717773,4204.487305,4201.666504,4203.461426,4214.358887,4225.384766,4245.128418,4189.743652,4209.102539,4264.615234,3286.000000,4.000000,91.000000,,,,0.000000,4.000000,4.000000,4.000000,4.000000,4.000000,4.000000,4.000000,4.000000,4.000000,4.000000,4.000000,4.000000,4.000000,4.000000,100.000000,,,,,,,,,,,,,,,,
1645708336.210086,190.000000,0.000000,4218.717773,4238.589844,4217.692383,4316.410156,4220.256348,4205.769043,4203.717773,4205.641113,4214.871582,4231.153809,4246.666504,4191.794922,4210.000000,4267.436035,2579.000000,4.000000,91.000000,,,,0.000000,4.000000,4.000000,4.000000,4.000000,4.000000,4.000000,4.000000,4.000000,4.000000,4.000000,4.000000,4.000000,4.000000,4.000000,100.000000,,,,,,,,,,,,,,,,
1645708336.214026,191.000000,0.000000,4221.410156,4242.051270,4222.563965,4321.153809,4225.000000,4208.461426,4206.153809,4210.641113,4217.307617,4235.128418,4250.897461,4196.410156,4212.692383,4273.589844,3518.000000,4.000000,91.000000,,,,0.000000,4.000000,4.000000,4.000000,4.000000,4.000000,4.000000,4.000000,4.000000,4.000000,4.000000,4.000000,4.000000,4.000000,4.000000,100.000000,,,,,,,,,,,,,,,,
1645708336.217966,192.000000,0.000000,4225.641113,4239.743652,4228.461426,4321.410156,4225.897461,4210.769043,4207.179688,4215.897461,4220.897461,4235.641113,4256.282227,4202.179688,4215.641113,4279.871582,3355.000000,4.000000,91.000000,,,,0.000000,4.000000,4.000000,4.000000,4.000000,4.000000,4.000000,4.000000,4.000000,4.000000,4.000000,4.000000,4.000000,4.000000,4.000000,100.000000,,,,,,,,,,,,,,,,
1645708336.221906,193.000000,0.000000,4227.692383,4233.077148,4230.769043,4315.641113,4224.102539,4210.256348,4205.384766,4217.307617,4223.077148,4232.563965,4258.589844,4205.256348,4216.410156,4281.666504,3286.000000,4.000000,91.000000,,,,0.000000,4.000000,4.000000,4.000000,4.000000,4.000000,4.000000,4.000000,4.000000,4.000000,4.000000,4.000000,4.000000,4.000000,4.000000,100.000000,,,,,,,,,,,,,,,,
1645708336.225747,194.000000,0.000000,4224.743652,4225.641113,4227.051270,4307.051270,4222.820313,4206.922852,4202.179688,4213.077148,4221.922852,4228.077148,4255.128418,4202.948730,4214.487305,4277.563965,2579.000000,4.000000,91.000000,,,,0.000000,4.000000,4.000000,4.000000,4.000000,4.000000,4.000000,4.000000,4.000000,4.000000,4.000000,4.000000,4.000000,4.000000,4.000000,100.000000,,,,,,,,,,,,,,,,
1645708336.229687,195.000000,0.000000,4218.846191,4221.282227,4220.000000,4301.025879,4223.077148,4203.846191,4200.512695,4205.641113,4217.692383,4224.358887,4247.820313,4196.922852,4211.538574,4270.641113,3518.000000,4.000000,91.000000,,,,0.000000,4.000000,4.000000,4.000000,4.000000,4.000000,4.000000,4.000000,4.000000,4.000000,4.000000,4.000000,4.000000,4.000000,4.000000,100.000000,,,,,,,,,,,,,,,,
1645708336.233627,196.000000,0.000000,4214.487305,4220.897461,4214.871582,4300.897461,4222.179688,4204.358887,4202.307617,4200.769043,4213.589844,4222.307617,4241.666504,4191.282227,4210.641113,4266.538574,3355.000000,4.000000,91.000000,,,,0.000000,4.000000,4.000000,4.000000,4.000000,4.000000,4.000000,4.000000,4.000000,4.000000,4.000000,4.000000,4.000000,4.000000,4.000000,100.000000,,,,,,,,,,,,,,,,
1645708336.237567,197.000000,0.000000,4214.487305,4222.179688,4214.743652,4303.589844,4215.769043,4208.333496,4206.538574,4202.179688,4212.692383,4221.410156,4240.128418,4189.615234,4212.563965,4267.692383,3286.000000,4.000000,91.000000,,,,0.000000,4.000000,4.000000,4.000000,4.000000,4.000000,4.000000,4.000000,4.000000,4.000000,4.000000,4.000000,4.000000,4.000000,4.000000,100.000000,,,,,,,,,,,,,,,,
1645708336.241507,198.000000,0.000000,4217.692383,4222.563965,4217.307617,4304.102539,4203.974121,4212.179688,4210.000000,4209.102539,4215.512695,4220.641113,4242.692383,4191.666504,4215.897461,4271.538574,2579.000000,4.000000,91.000000,,,,0.000000,4.000000,4.000000,4.000000,4.000000,4.000000,4.000000,4.000000,4.000000,4.000000,4.000000,4.000000,4.000000,4.000000,4.000000,100.000000,,,,,,,,,,,,,,,,
1645708336.245447,199.000000,0.000000,4220.512695,4222.179688,4219.230957,4300.384766,4192.692383,4212.307617,4210.256348,4216.922852,4219.743652,4220.384766,4246.025879,4194.871582,4219.102539,4273.205078,3518.000000,4.000000,91.000000,,,,0.000000,4.000000,4.000000,4.000000,4.000000,4.000000,4.000000,4.000000,4.000000,4.000000,4.000000,4.000000,4.000000,4.000000,4.000000,100.000000,,,,,,,,,,,,,,,,
1645708336.249387,200.000000,0.000000,4220.897461,4223.077148,4219.358887,4296.153809,4189.743652,4208.589844,4207.820313,4221.153809,4222.436035,4222.436035,4247.179688,4196.922852,4222.051270,4270.384766,3355.000000,4.000000,91.000000,,,,0.000000,4.000000,4.000000,4.000000,4.000000,4.000000,4.000000,4.000000,4.000000,4.000000,4.000000,4.000000,4.000000,4.000000,4.000000,100.000000,,,,,,,,,,,,,,,,
1645708336.253228,201.000000,0.000000,4219.615234,4226.025879,4218.846191,4296.794922,4197.692383,4202.948730,4204.743652,4220.128418,4222.692383,4227.820313,4246.025879,4197.051270,4225.256348,4265.384766,3286.000000,4.000000,91.000000,,,,0.000000,4.000000,4.000000,4.000000,4.000000,4.000000,4.000000,4.000000,4.000000,4.000000,4.000000,4.000000,4.000000,4.000000,4.000000,100.000000,,,,,,,,,,,,,,,,
1645708336.257168,202.000000,0.000000,4219.230957,4229.230957,4219.615234,4303.717773,4211.538574,4198.077148,4203.077148,4216.025879,4221.410156,4234.615234,4243.974121,4196.153809,4227.820313,4262.179688,2579.000000,4.000000,91.000000,,,,0.000000,4.000000,4.000000,4.000000,4.000000,4.000000,4.000000,4.000000,4.000000,4.000000,4.000000,4.000000,4.000000,4.000000,4.000000,100.000000,,,,,,,,,,,,,,,,
1645708336.261108,203.000000,0.000000,4220.641113,4229.743652,4221.922852,4312.820313,4222.179688,4195.384766,4203.333496,4212.563965,4219.487305,4238.589844,4242.307617,4195.512695,4228.589844,4262.436035,3518.000000,4.000000,91.000000,,,,0.000000,4.000000,4.000000,4.000000,4.000000,4.000000,4.000000,4.000000,4.000000,4.000000,4.000000,4.000000,4.000000,4.000000,4.000000,100.000000,,,,,,,,,,,,,,,,
1645708336.265048,204.000000,0.000000,4223.077148,4227.692383,4224.615234,4318.205078,4224.358887,4195.512695,4205.128418,4212.820313,4217.948730,4236.538574,4242.051270,4196.025879,4227.436035,4265.384766,3355.000000,4.000000,91.000000,,,,0.000000,4.000000,4.000000,4.000000,4.000000,4.000000,4.000000,4.000000,4.000000,4.000000,4.000000,4.000000,4.000000,4.000000,4.000000,100.000000,,,,,,,,,,,,,,,,
1645708336.268988,205.000000,0.000000,4224.871582,4226.153809,4225.897461,4317.436035,4220.000000,4198.589844,4207.563965,4216.794922,4217.820313,4230.384766,4243.717773,4197.820313,4226.282227,4269.102539,3286.000000,4.000000,91.000000,,,,0.000000,4.000000,4.000000,4.000000,4.000000,4.000000,4.000000,4.000000,4.000000,4.000000,4.000000,4.000000,4.000000,4.000000,4.000000,100.000000,,,,,,,,,,,,,,,,
1645708336.272928,206.000000,0.000000,4225.641113,4228.589844,4225.384766,4312.179688,4216.538574,4203.589844,4209.102539,4222.179688,4219.102539,4225.769043,4247.820313,4200.128418,4227.436035,4272.820313,2579.000000,4.000000,91.000000,,,,0.000000,4.000000,4.000000,4.000000,4.000000,4.000000,4.000000,4.000000,4.000000,4.000000,4.000000,4.000000,4.000000,4.000000,4.000000,100.000000,,,,,,,,,,,,,,,,
1645708336.276868,207.000000,0.000000,4225.256348,4234.871582,4224.871582,4306.666504,4219.358887,4207.948730,4209.102539,4225.769043,4221.666504,4227.436035,4252.563965,4202.179688,4231.922852,4275.769043,3518.000000,4.000000,91.000000,,,,0.000000,4.000000,4.000000,4.000000,4.000000,4.000000,4.000000,4.000000,4.000000,4.000000,4.000000,4.000000,4.000000,4.000000,4.000000,100.000000,,,,,,,,,,,,,,,,
1645708336.280808,208.000000,0.000000,4224.615234,4240.641113,4225.897461,4304.102539,4226.794922,4209.230957,4207.692383,4225.897461,4224.230957,4233.846191,4255.769043,4202.948730,4237.179688,4276.538574,3355.000000,4.000000,91.000000,,,,0.000000,4.000000,4.000000,4.000000,4.000000,4.000000,4.000000,4.000000,4.000000,4.000000,4.000000,4.000000,4.000000,4.000000,4.000000,100.000000,,,,,,,,,,,,,,,,
1645708336.284748,209.000000,0.000000,4224.358887,4241.794922,4228.333496,4305.641113,4231.410156,4207.563965,4206.025879,4222.948730,4225.769043,4239.871582,4255.512695,4202.051270,4240.128418,4274.230957,3286.000000,4.000000,91.000000,,,,0.000000,4.000000,4.000000,4.000000,4.000000,4.000000,4.000000,4.000000,4.000000,4.000000,4.000000,4.000000,4.000000,4.000000,4.000000,100.000000,,,,,,,,,,,,,,,,
1645708336.288688,210.000000,0.000000,4225.256348,4237.436035,4230.256348,4310.384766,4228.461426,4205.384766,4204.615234,4218.717773,4225.256348,4241.025879,4252.948730,4200.256348,4238.974121,4270.256348,2579.000000,4.000000,91.000000,,,,0.000000,4.000000,4.000000,4.000000,4.000000,4.000000,4.000000,4.000000,4.000000,4.000000,4.000000,4.000000,4.000000,4.000000,4.000000,100.000000,,,,,,,,,,,,,,,,
1645708336.292629,211.000000,0.000000,4227.307617,4231.538574,4230.897461,4316.153809,4220.384766,4205.128418,4203.333496,4214.743652,4222.948730,4237.051270,4250.897461,4199.615234,4235.512695,4267.692383,3518.000000,4.000000,91.000000,,,,0.000000,4.000000,4.000000,4.000000,4.000000,4.000000,4.000000,4.000000,4.000000,4.000000,4.000000,4.000000,4.000000,4.000000,4.000000,100.000000,,,,,,,,,,,,,,,,
1645708336.296569,212.000000,0.000000,4229.743652,4229.102539,4230.897461,4320.256348,4215.128418,4207.307617,4201.922852,4212.051270,4219.743652,4232.051270,4251.282227,4201.922852,4233.333496,4268.974121,3355.000000,4.000000,91.000000,,,,0.000000,4.000000,4.000000,4.000000,4.000000,4.000000,4.000000,4.000000,4.000000,4.000000,4.000000,4.000000,4.000000,4.000000,4.000000,100.000000,1.000000,58.333332,4.000000,4.000000,4.000000,4.000000,3.000000,4.000000,4.000000,4.000000,3.000000,4.000000,4.000000,4.000000,4.000000,1.000000
1645708336.300509,213.000000,0.000000,4231.025879,4232.051270,4232.051270,4320.897461,4217.820313,4209.743652,4200.897461,4210.641113,4217.307617,4229.487305,4253.846191,4206.666504,4234.230957,4272.692383,3286.000000,4.000000,91.000000,,,,0.000000,4.000000,4.000000,4.000000,4.000000,4.000000,4.000000,4.000000,4.000000,4.000000,4.000000,4.000000,4.000000,4.000000,4.000000,100.000000,,,,,,,,,,,,,,,,
1645708336.304549,214.000000,0.000000,4230.000000,4236.922852,4233.846191,4318.205078,4225.769043,4210.000000,4200.897461,4209.358887,4216.666504,4230.000000,4256.410156,4210.641113,4236.922852,4275.128418,2579.000000,4.000000,91.000000,,,,0.000000,4.000000,4.000000,4.000000,4.000000,4.000000,4.000000,4.000000,4.000000,4.000000,4.000000,4.000000,4.000000,4.000000,4.000000,100.000000,,,,,,,,,,,,,,,,
1645708336.308489,215.000000,0.000000,4227.051270,4238.717773,4234.487305,4314.358887,4230.769043,4208.077148,4201.538574,4207.307617,4217.692383,4231.153809,4256.794922,4210.641113,4238.333496,4273.205078,3518.000000,4.000000,91.000000,,,,0.000000,4.000000,4.000000,4.000000,4.000000,4.000000,4.000000,4.000000,4.000000,4.000000,4.000000,4.000000,4.000000,4.000000,4.000000,100.000000,,,,,,,,,,,,,,,,
1645708336.312429,216.000000,0.000000,4223.717773,4235.512695,4232.179688,4311.282227,4227.820313,4205.512695,4202.051270,4204.358887,4219.102539,4231.666504,4254.358887,4206.153809,4236.282227,4267.179688,3355.000000,4.000000,91.000000,,,,0.000000,4.000000,4.000000,4.000000,4.000000,4.000000,4.000000,4.000000,4.000000,4.000000,4.000000,4.000000,4.000000,4.000000,4.000000,100.000000,,,,,,,,,,,,,,,,
1645708336.316369,217.000000,0.000000,4221.794922,4230.128418,4227.692383,4309.487305,4219.487305,4203.717773,4201.282227,4202.051270,4219.358887,4231.538574,4249.487305,4199.487305,4231.282227,4260.256348,3286.000000,4.000000,91.000000,,,,0.000000,4.000000,4.000000,4.000000,4.000000,4.000000,4.000000,4.000000,4.000000,4.000000,4.000000,4.000000,4.000000,4.000000,4.000000,100.000000,,,,,,,,,,,,,,,,
1645708336.320309,218.000000,0.000000,4221.410156,4226.666504,4223.846191,4307.307617,4212.692383,4202.307617,4199.358887,4201.666504,4218.205078,4230.128418,4243.077148,4194.102539,4225.256348,4255.384766,2579.000000,4.000000,91.000000,,,,0.000000,4.000000,4.000000,4.000000,4.000000,4.000000,4.000000,4.000000,4.000000,4.000000,4.000000,4.000000,4.000000,4.000000,4.000000,100.000000,,,,,,,,,,,,,,,,
1645708336.324249,219.000000,0.000000,4221.794922,4226.794922,4223.589844,4303.717773,4211.538574,4200.769043,4198.205078,4202.692383,4216.025879,4226.666504,4236.282227,4191.538574,4220.897461,4253.077148,3518.000000,4.000000,91.000000,,,,0.000000,4.000000,4.000000,4.000000,4.000000,4.000000,4.000000,4.000000,4.000000,4.000000,4.000000,4.000000,4.000000,4.000000,4.000000,100.000000,,,,,,,,,,,,,,,,
1645708336.328189,220.000000,0.000000,4221.666504,4228.717773,4226.666504,4300.000000,4213.974121,4199.230957,4198.717773,4203.205078,4214.230957,4220.897461,4231.153809,4191.025879,4219.230957,4251.794922,3355.000000,4.000000,91.000000,,,,0.000000,4.000000,4.000000,4.000000,4.000000,4.000000,4.000000,4.000000,4.000000,4.000000,4.000000,4.000000,4.000000,4.000000,4.000000,100.000000,,,,,,,,,,,,,,,,
1645708336.332130,221.000000,0.000000,4220.512695,4229.743652,4230.256348,4298.846191,4216.153809,4198.846191,4201.153809,4201.666504,4213.461426,4214.743652,4229.230957,4190.641113,4219.615234,4249.358887,3286.000000,4.000000,91.000000,,,,0.000000,4.000000,4.000000,4.000000,4.000000,4.000000,4.000000,4.000000,4.000000,4.000000,4.000000,4.000000,4.000000,4.000000,4.000000,100.000000,,,,,,,,,,,,,,,,
1645708336.336070,222.000000,0.000000,4218.333496,4228.974121,4231.282227,4301.153809,4215.897461,4200.000000,4204.102539,4199.615234,4213.974121,4211.025879,4230.256348,4190.384766,4220.641113,4246.282227,2579.000000,4.000000,91.000000,,,,0.000000,4.000000,4.000000,4.000000,4.000000,4.000000,4.000000,4.000000,4.000000,4.000000,4.000000,4.000000,4.000000,4.000000,4.000000,100.000000,,,,,,,,,,,,,,,,
1645708336.340010,223.000000,0.000000,4216.153809,4227.307617,4230.000000,4303.717773,4214.743652,4201.666504,4206.410156,4199.871582,4215.000000,4211.153809,4232.307617,4191.153809,4221.282227,4245.000000,3518.000000,4.000000,91.000000,,,,0.000000,4.000000,4.000000,4.000000,4.000000,4.000000,4.000000,4.000000,4.000000,4.000000,4.000000,4.000000,4.000000,4.000000,4.000000,100.000000,,,,,,,,,,,,,,,,
1645708336.343950,224.000000,0.000000,4215.128418,4225.128418,4228.461426,4301.410156,4215.641113,4202.820313,4207.051270,4203.589844,4215.897461,4214.358887,4232.948730,4193.589844,4221.153809,4247.307617,3355.000000,4.000000,91.000000,,,,0.000000,4.000000,4.000000,4.000000,4.000000,4.000000,4.000000,4.000000,4.000000,4.000000,4.000000,4.000000,4.000000,4.000000,4.000000,100.000000,,,,,,,,,,,,,,,,
1645708336.347890,225.000000,0.000000,4215.769043,4222.179688,4228.333496,4293.333496,4220.128418,4202.820313,4205.897461,4208.333496,4216.153809,4218.205078,4231.025879,4196.025879,4220.769043,4252.051270,3286.000000,4.000000,91.000000,,,,0.000000,4.000000,4.000000,4.000000,4.000000,4.000000,4.000000,4.000000,4.000000,4.000000,4.000000,4.000000,4.000000,4.000000,4.000000,100.000000,,,,,,,,,,,,,,,,
1645708336.351830,226.000000,0.000000,4217.436035,4217.563965,4228.589844,4284.102539,4226.666504,4202.307617,4203.333496,4209.743652,4215.384766,4219.615234,4227.436035,4196.410156,4220.512695,4254.743652,2579.000000,4.000000,91.000000,,,,0.000000,4.000000,4.000000,4.000000,4.000000,4.000000,4.000000,4.000000,4.000000,4.000000,4.000000,4.000000,4.000000,4.000000,4.000000,100.000000,,,,,,,,,,,,,,,,
1645708336.355770,227.000000,0.000000,4218.846191,4212.179688,4227.692383,4280.128418,4231.025879,4202.436035,4200.769043,4206.282227,4213.205078,4217.179688,4223.974121,4193.846191,4220.512695,4252.307617,3518.000000,4.000000,91.000000,,,,0.000000,4.000000,4.000000,4.000000,4.000000,4.000000,4.000000,4.000000,4.000000,4.000000,4.000000,4.000000,4.000000,4.000000,4.000000,100.000000,,,,,,,,,,,,,,,,
1645708336.359710,228.000000,0.000000,4219.487305,4208.461426,4226.538574,4283.205078,4229.615234,4203.461426,4200.128418,4200.641113,4210.512695,4212.051270,4221.922852,4189.871582,4220.641113,4245.641113,3355.000000,4.000000,91.000000,,,,0.000000,4.000000,4.000000,4.000000,4.000000,4.000000,4.000000,4.000000,4.000000,4.000000,4.000000,4.000000,4.000000,4.000000,4.000000,100.000000,,,,,,,,,,,,,,,,
1645708336.363650,229.000000,0.000000,4220.512695,4209.615234,4227.179688,4290.000000,4222.563965,4205.000000,4201.922852,4197.820313,4209.102539,4207.179688,4222.051270,4187.563965,4220.512695,4239.615234,3286.000000,4.000000,91.000000,,,,0.000000,4.000000,4.000000,4.000000,4.000000,4.000000,4.000000,4.000000,4.000000,4.000000,4.000000,4.000000,4.000000,4.000000,4.000000,100.000000,,,,,,,,,,,,,,,,
1645708336.367590,230.000000,0.000000,4223.205078,4217.179688,4231.410156,4294.871582,4214.487305,4206.794922,4205.641113,4201.153809,4210.256348,4206.025879,4224.358887,4189.230957,4220.512695,4239.615234,2579.000000,4.000000,91.000000,,,,0.000000,4.000000,4.000000,4.000000,4.000000,4.000000,4.000000,4.000000,4.000000,4.000000,4.000000,4.000000,4.000000,4.000000,4.000000,100.000000,,,,,,,,,,,,,,,,
1645708336.371630,231.000000,0.000000,4227.948730,4228.461426,4237.948730,4294.743652,4211.794922,4208.589844,4209.743652,4209.743652,4213.974121,4210.128418,4228.846191,4194.871582,4221.538574,4246.666504,3518.000000,4.000000,91.000000,,,,0.000000,4.000000,4.000000,4.000000,4.000000,4.000000,4.000000,4.000000,4.000000,4.000000,4.000000,4.000000,4.000000,4.000000,4.000000,100.000000,,,,,,,,,,,,,,,,
1645708336.375571,232.000000,0.000000,4232.948730,4237.948730,4243.077148,4291.538574,4217.436035,4210.256348,4212.820313,4218.717773,4218.205078,4217.563965,4234.871582,4201.922852,4223.461426,4256.410156,3355.000000,4.000000,91.000000,,,,0.000000,4.000000,4.000000,4.000000,4.000000,4.000000,4.000000,4.000000,4.000000,4.000000,4.000000,4.000000,4.000000,4.000000,4.000000,100.000000,,,,,,,,,,,,,,,,
1645708336.379511,233.000000,0.000000,4236.538574,4240.256348,4244.358887,4290.384766,4228.589844,4211.666504,4214.487305,4223.461426,4221.153809,4224.743652,4241.025879,4206.922852,4225.769043,4263.077148,3286.000000,4.000000,91.000000,,,,0.000000,4.000000,4.000000,4.000000,4.000000,4.000000,4.000000,4.000000,4.000000,4.000000,4.000000,4.000000,4.000000,4.000000,4.000000,100.000000,,,,,,,,,,,,,,,,
1645708336.383451,234.000000,0.000000,4238.205078,4235.897461,4242.563965,4295.000000,4238.589844,4213.589844,4215.128418,4222.820313,4221.282227,4229.230957,4245.384766,4208.589844,4228.077148,4263.846191,2579.000000,4.000000,91.000000,,,,0.000000,4.000000,4.000000,4.000000,4.000000,4.000000,4.000000,4.000000,4.000000,4.000000,4.000000,4.000000,4.000000,4.000000,4.000000,100.000000,,,,,,,,,,,,,,,,
1645708336.387391,235.000000,0.000000,4239.358887,4231.025879,4242.051270,4304.358887,4241.922852,4216.538574,4216.282227,4218.974121,4219.358887,4231.410156,4247.179688,4208.717773,4230.384766,4261.282227,3518.000000,4.000000,91.000000,,,,0.000000,4.000000,4.000000,4.000000,4.000000,4.000000,4.000000,4.000000,4.000000,4.000000,4.000000,4.000000,4.000000,4.000000,4.000000,100.000000,,,,,,,,,,,,,,,,
1645708336.391331,236.000000,0.000000,4241.922852,4231.922852,4246.153809,4312.692383,4238.205078,4220.000000,4218.077148,4215.769043,4217.307617,4232.563965,4247.436035,4210.384766,4233.461426,4260.128418,3355.000000,4.000000,91.000000,1,1,1,0.000000,4.000000,4.000000,4.000000,4.000000,4.000000,4.000000,4.000000,4.000000,4.000000,4.000000,4.000000,4.000000,4.000000,4.000000,100.000000,,,,,,,,,,,,,,,,
1645708336.395271,237.000000,0.000000,4246.282227,4238.077148,4254.487305,4314.102539,4231.666504,4222.436035,4219.230957,4215.128418,4217.051270,4232.820313,4247.307617,4214.358887,4236.410156,4262.307617,3286.000000,4.000000,91.000000,,,,0.000000,4.000000,4.000000,4.000000,4.000000,4.000000,4.000000,4.000000,4.000000,4.000000,4.000000,4.000000,4.000000,4.000000,4.000000,100.000000,,,,,,,,,,,,,,,,
1645708336.399211,238.000000,0.000000,4250.128418,4243.205078,4262.692383,4307.436035,4227.820313,4222.179688,4218.205078,4215.897461,4218.717773,4230.000000,4246.666504,4218.589844,4237.563965,4265.384766,2579.000000,4.000000,91.000000,,,,0.000000,4.000000,4.000000,4.000000,4.000000,4.000000,4.000000,4.000000,4.000000,4.000000,4.000000,4.000000,4.000000,4.000000,4.000000,100.000000,,,,,,,,,,,,,,,,
1645708336.403151,239.000000,0.000000,4251.282227,4241.794922,4265.897461,4297.051270,4230.000000,4218.717773,4215.384766,4216.025879,4220.512695,4223.589844,4245.769043,4220.384766,4236.025879,4265.641113,3518.000000,4.000000,91.000000,,,,0.000000,4.000000,4.000000,4.000000,4.000000,4.000000,4.000000,4.000000,4.000000,4.000000,4.000000,4.000000,4.000000,4.000000,4.000000,100.000000,,,,,,,,,,,,,,,,
1645708336.407091,240.000000,0.000000,4249.871582,4235.128418,4262.820313,4290.384766,4236.410156,4214.230957,4212.820313,4214.487305,4220.384766,4216.922852,4245.000000,4218.846191,4232.436035,4262.436035,3355.000000,4.000000,91.000000,,,,0.000000,4.000000,4.000000,4.000000,4.000000,4.000000,4.000000,4.000000,4.000000,4.000000,4.000000,4.000000,4.000000,4.000000,4.000000,100.000000,,,,,,,,,,,,,,,,
1645708336.411032,241.000000,0.000000,4247.820313,4230.000000,4256.410156,4292.051270,4241.410156,4211.282227,4212.563965,4212.436035,4218.461426,4214.743652,4245.256348,4215.256348,4229.358887,4258.077148,3286.000000,4.000000,91.000000,,,,0.000000,4.000000,4.000000,4.000000,4.000000,4.000000,4.000000,4.000000,4.000000,4.000000,4.000000,4.000000,4.000000,4.000000,4.000000,100.000000,,,,,,,,,,,,,,,,
1645708336.414972,242.000000,0.000000,4246.794922,4231.410156,4250.128418,4300.641113,4239.871582,4210.897461,4213.846191,4211.666504,4217.051270,4218.846191,4246.153809,4210.769043,4228.205078,4255.128418,2579.000000,4.000000,91.000000,,,,0.000000,4.000000,4.000000,4.000000,4.000000,4.000000,4.000000,4.000000,4.000000,4.000000,4.000000,4.000000,4.000000,4.000000,4.000000,100.000000,,,,,,,,,,,,,,,,
1645708336.418912,243.000000,0.000000,4246.794922,4238.077148,4246.025879,4310.000000,4231.153809,4211.794922,4214.743652,4213.205078,4218.461426,4226.282227,4246.282227,4206.282227,4228.717773,4253.589844,3518.000000,4.000000,91.000000,,,,0.000000,4.000000,4.000000,4.000000,4.000000,4.000000,4.000000,4.000000,4.000000,4.000000,4.000000,4.000000,4.000000,4.000000,4.000000,100.000000,,,,,,,,,,,,,,,,
1645708336.422852,244.000000,0.000000,4245.641113,4243.077148,4243.333496,4313.974121,4221.153809,4212.307617,4214.102539,4216.538574,4221.922852,4232.051270,4244.487305,4202.436035,4228.974121,4251.666504,3355.000000,4.000000,91.000000,,,,0.000000,4.000000,4.000000,4.000000,4.000000,4.000000,4.000000,4.000000,4.000000,4.000000,4.000000,4.000000,4.000000,4.000000,4.000000,100.000000,,,,,,,,,,,,,,,,
1645708336.426792,245.000000,0.000000,4241.794922,4241.282227,4240.384766,4310.000000,4217.692383,4212.436035,4212.307617,4219.487305,4225.000000,4232.563965,4241.153809,4200.512695,4228.077148,4248.077148,3286.000000,4.000000,91.000000,,,,0.000000,4.000000,4.000000,4.000000,4.000000,4.000000,4.000000,4.000000,4.000000,4.000000,4.000000,4.000000,4.000000,4.000000,4.000000,100.000000,,,,,,,,,,,,,,,,
1645708336.430732,246.000000,0.000000,4235.000000,4233.589844,4235.769043,4300.000000,4224.487305,4213.717773,4210.641113,4220.000000,4225.384766,4227.692383,4237.307617,4200.128418,4226.153809,4243.205078,2579.000000,4.000000,91.000000,,,,0.000000,4.000000,4.000000,4.000000,4.000000,4.000000,4.000000,4.000000,4.000000,4.000000,4.000000,4.000000,4.000000,4.000000,4.000000,100.000000,,,,,,,,,,,,,,,,
1645708336.434572,247.000000,0.000000,4227.051270,4225.128418,4229.743652,4287.820313,4236.794922,4217.307617,4210.000000,4217.692383,4223.077148,4220.256348,4233.589844,4199.358887,4223.333496,4237.948730,3518.000000,4.000000,91.000000,,,,0.000000,4.000000,4.000000,4.000000,4.000000,4.000000,4.000000,4.000000,4.000000,4.000000,4.000000,4.000000,4.000000,4.000000,4.000000,100.000000,,,,,,,,,,,,,,,,
1645708336.438512,248.000000,0.000000,4220.256348,4220.512695,4224.487305,4277.563965,4246.153809,4222.307617,4210.641113,4214.230957,4220.128418,4213.461426,4229.358887,4195.897461,4219.487305,4232.307617,3355.000000,4.000000,91.000000,,,,0.000000,4.000000,4.000000,4.000000,4.000000,4.000000,4.000000,4.000000,4.000000,4.000000,4.000000,4.000000,4.000000,4.000000,4.000000,100.000000,,,,,,,,,,,,,,,,
1645708336.442452,249.000000,0.000000,4217.179688,4219.743652,4221.794922,4272.692383,4247.436035,4226.794922,4213.077148,4213.077148,4219.230957,4210.256348,4224.871582,4189.102539,4215.000000,4226.666504,3286.000000,4.000000,91.000000,,,,0.000000,4.000000,4.000000,4.000000,4.000000,4.000000,4.000000,4.000000,4.000000,4.000000,4.000000,4.000000,4.000000,4.000000,4.000000,100.000000,,,,,,,,,,,,,,,,
1645708336.446393,250.000000,0.000000,4218.974121,4220.512695,4222.820313,4274.743652,4242.563965,4229.615234,4217.436035,4216.282227,4221.922852,4212.051270,4222.179688,4181.666504,4211.666504,4223.333496,2579.000000,4.000000,91.000000,,,,0.000000,4.000000,4.000000,4.000000,4.000000,4.000000,4.000000,4.000000,4.000000,4.000000,4.000000,4.000000,4.000000,4.000000,4.000000,100.000000,,,,,,,,,,,,,,,,
1645708336.450333,251.000000,0.000000,4224.615234,4221.153809,4226.922852,4281.794922,4237.820313,4231.025879,4223.077148,4223.205078,4227.436035,4219.230957,4224.102539,4178.846191,4211.794922,4224.871582,3518.000000,4.000000,91.000000,,,,0.000000,4.000000,4.000000,4.000000,4.000000,4.000000,4.000000,4.000000,4.000000,4.000000,4.000000,4.000000,4.000000,4.000000,4.000000,100.000000,,,,,,,,,,,,,,,,
1645708336.454273,252.000000,0.000000,4231.025879,4222.820313,4231.922852,4288.974121,4237.051270,4232.307617,4228.333496,4230.512695,4233.077148,4229.230957,4231.410156,4183.205078,4216.153809,4232.051270,3355.000000,4.000000,91.000000,,,,0.000000,4.000000,4.000000,4.000000,4.000000,4.000000,4.000000,4.000000,4.000000,4.000000,4.000000,4.000000,4.000000,4.000000,4.000000,100.000000,,,,,,,,,,,,,,,,
1645708336.458213,253.000000,0.000000,4234.358887,4226.922852,4235.897461,4292.820313,4238.589844,4234.230957,4231.282227,4234.743652,4235.897461,4238.461426,4240.641113,4192.692383,4222.948730,4240.641113,3286.000000,4.000000,91.000000,,,,0.000000,4.000000,4.000000,4.000000,4.000000,4.000000,4.000000,4.000000,4.000000,4.000000,4.000000,4.000000,4.000000,4.000000,4.000000,100.000000,,,,,,,,,,,,,,,,
1645708336.462153,254.000000,0.000000,4233.205078,4233.205078,4237.436035,4293.077148,4238.717773,4236.282227,4231.538574,4235.641113,4235.256348,4243.461426,4246.666504,4201.282227,4228.846191,4244.615234,2579.000000,4.000000,91.000000,,,,0.000000,4.000000,4.000000,4.000000,4.000000,4.000000,4.000000,4.000000,4.000000,4.000000,4.000000,4.000000,4.000000,4.000000,4.000000,100.000000,,,,,,,,,,,,,,,,
1645708336.466093,255.000000,0.000000,4229.743652,4238.846191,4236.666504,4292.051270,4236.538574,4237.307617,4230.384766,4235.000000,4233.333496,4242.820313,4246.794922,4204.102539,4231.794922,4241.153809,114.000000,4.000000,91.000000,,,,0.000000,4.000000,4.000000,4.000000,4.000000,4.000000,4.000000,4.000000,4.000000,4.000000,4.000000,4.000000,4.000000,4.000000,4.000000,100.000000,,,,,,,,,,,,,,,,
1645708336.470033,0.000000,0.000000,4227.563965,4241.025879,4233.974121,4292.179688,4235.512695,4236.794922,4229.871582,4235.000000,4232.692383,4238.717773,4243.589844,4200.769043,4231.538574,4233.077148,3266.000000,4.000000,91.000000,,,,0.000000,4.000000,4.000000,4.000000,4.000000,4.000000,4.000000,4.000000,4.000000,4.000000,4.000000,4.000000,4.000000,4.000000,4.000000,100.000000,,,,,,,,,,,,,,,,
1645708336.473973,1.000000,0.000000,4228.974121,4238.589844,4231.153809,4293.717773,4238.461426,4235.384766,4230.384766,4235.256348,4234.487305,4234.871582,4241.282227,4195.128418,4230.128418,4226.282227,3415.000000,4.000000,91.000000,,,,0.000000,4.000000,4.000000,4.000000,4.000000,4.000000,4.000000,4.000000,4.000000,4.000000,4.000000,4.000000,4.000000,4.000000,4.000000,100.000000,,,,,,,,,,,,,,,,
1645708336.477913,2.000000,0.000000,4232.948730,4233.205078,4229.871582,4294.743652,4243.846191,4233.974121,4230.641113,4234.358887,4237.051270,4234.102539,4241.922852,4191.410156,4229.102539,4225.256348,3471.000000,4.000000,91.000000,,,,0.000000,4.000000,4.000000,4.000000,4.000000,4.000000,4.000000,4.000000,4.000000,4.000000,4.000000,4.000000,4.000000,4.000000,4.000000,100.000000,,,,,,,,,,,,,,,,
1645708336.481854,3.000000,0.000000,4236.410156,4228.846191,4231.410156,4293.461426,4246.025879,4232.436035,4229.487305,4231.410156,4237.436035,4236.025879,4243.974121,4191.538574,4228.974121,4229.487305,3443.000000,4.000000,91.000000,,,,0.000000,4.000000,4.000000,4.000000,4.000000,4.000000,4.000000,4.000000,4.000000,4.000000,4.000000,4.000000,4.000000,4.000000,4.000000,100.000000,,,,,,,,,,,,,,,,
1645708336.485794,4.000000,0.000000,4237.563965,4228.974121,4235.000000,4289.871582,4241.025879,4230.256348,4226.666504,4227.307617,4235.128418,4237.307617,4244.615234,4193.974121,4229.487305,4235.256348,3550.000000,4.000000,91.000000,,,,0.000000,4.000000,4.000000,4.000000,4.000000,4.000000,4.000000,4.000000,4.000000,4.000000,4.000000,4.000000,4.000000,4.000000,4.000000,100.000000,,,,,,,,,,,,,,,,
1645708336.489734,5.000000,0.000000,4237.820313,4234.358887,4238.461426,4286.666504,4232.307617,4227.436035,4223.205078,4224.230957,4231.922852,4236.025879,4243.077148,4196.538574,4230.512695,4238.589844,3457.000000,4.000000,91.000000,,,,0.000000,4.000000,4.000000,4.000000,4.000000,4.000000,4.000000,4.000000,4.000000,4.000000,4.000000,4.000000,4.000000,4.000000,4.000000,100.000000,,,,,,,,,,,,,,,,
1645708336.493674,6.000000,0.000000,4240.128418,4242.436035,4241.025879,4287.051270,4227.692383,4224.871582,4220.897461,4223.717773,4230.897461,4232.948730,4242.179688,4198.077148,4231.794922,4239.230957,3174.000000,4.000000,91.000000,,,,0.000000,4.000000,4.000000,4.000000,4.000000,4.000000,4.000000,4.000000,4.000000,4.000000,4.000000,4.000000,4.000000,4.000000,4.000000,100.000000,,,,,,,,,,,,,,,,
1645708336.497614,7.000000,0.000000,4246.153809,4249.102539,4243.846191,4292.179688,4232.051270,4223.717773,4220.256348,4225.512695,4232.692383,4231.282227,4245.000000,4199.871582,4232.948730,4239.615234,2679.000000,4.000000,91.000000,,,,0.000000,4.000000,4.000000,4.000000,4.000000,4.000000,4.000000,4.000000,4.000000,4.000000,4.000000,4.000000,4.000000,4.000000,4.000000,100.000000,,,,,,,,,,,,,,,,
1645708336.501554,8.000000,0.000000,4253.846191,4251.922852,4248.461426,4300.256348,4242.436035,4223.717773,4220.897461,4226.794922,4235.256348,4232.307617,4251.025879,4202.436035,4233.461426,4241.025879,1508.000000,4.000000,91.000000,,,,0.000000,4.000000,4.000000,4.000000,4.000000,4.000000,4.000000,4.000000,4.000000,4.000000,4.000000,4.000000,4.000000,4.000000,4.000000,100.000000,,,,,,,,,,,,,,,,
1645708336.505594,9.000000,0.000000,4258.974121,4250.641113,4254.102539,4307.436035,4249.871582,4224.102539,4221.794922,4224.871582,4235.384766,4234.230957,4256.153809,4205.000000,4232.307617,4242.307617,3296.000000,4.000000,91.000000,,,,0.000000,4.000000,4.000000,4.000000,4.000000,4.000000,4.000000,4.000000,4.000000,4.000000,4.000000,4.000000,4.000000,4.000000,4.000000,100.000000,,,,,,,,,,,,,,,,
1645708336.509534,10.000000,0.000000,4258.589844,4247.307617,4257.820313,4311.025879,4247.948730,4223.974121,4222.051270,4220.000000,4232.307617,4234.230957,4255.512695,4205.641113,4229.102539,4241.153809,2729.000000,4.000000,91.000000,,,,0.000000,4.000000,4.000000,4.000000,4.000000,4.000000,4.000000,4.000000,4.000000,4.000000,4.000000,4.000000,4.000000,4.000000,4.000000,100.000000,,,,,,,,,,,,,,,,
1645708336.513474,11.000000,0.000000,4253.077148,4244.230957,4257.307617,4310.000000,4238.846191,4224.102539,4221.794922,4215.641113,4228.333496,4232.051270,4248.589844,4203.846191,4224.487305,4237.692383,3436.000000,4.000000,91.000000,2,1,1,0.000000,4.000000,4.000000,4.000000,4.000000,4.000000,4.000000,4.000000,4.000000,4.000000,4.000000,4.000000,4.000000,4.000000,4.000000,100.000000,,,,,,,,,,,,,,,,
1645708336.517414,12.000000,0.000000,4246.153809,4242.692383,4253.461426,4305.641113,4230.641113,4225.256348,4222.179688,4215.897461,4226.794922,4229.743652,4239.102539,4201.666504,4220.256348,4233.589844,3261.000000,4.000000,91.000000,,,,0.000000,4.000000,4.000000,4.000000,4.000000,4.000000,4.000000,4.000000,4.000000,4.000000,4.000000,4.000000,4.000000,4.000000,4.000000,100.000000,,,,,,,,,,,,,,,,
1645708336.521354,13.000000,0.000000,4241.922852,4242.692383,4249.743652,4299.743652,4230.000000,4227.179688,4223.461426,4221.538574,4228.333496,4228.846191,4232.563965,4201.922852,4217.692383,4231.538574,3290.000000,4.000000,91.000000,,,,0.000000,4.000000,4.000000,4.000000,4.000000,4.000000,4.000000,4.000000,4.000000,4.000000,4.000000,4.000000,4.000000,4.000000,4.000000,100.000000,,,,,,,,,,,,,,,,
1645708336.525295,14.000000,0.000000,4242.179688,4243.333496,4250.000000,4294.230957,4236.153809,4228.974121,4225.256348,4229.487305,4231.282227,4229.102539,4232.179688,4205.128418,4216.794922,4232.179688,2729.000000,4.000000,91.000000,,,,0.000000,4.000000,4.000000,4.000000,4.000000,4.000000,4.000000,4.000000,4.000000,4.000000,4.000000,4.000000,4.000000,4.000000,4.000000,100.000000,,,,,,,,,,,,,,,,
1645708336.529235,15.000000,0.000000,4246.025879,4243.333496,4254.743652,4290.000000,4243.846191,4229.358887,4225.769043,4234.743652,4232.436035,4229.743652,4236.666504,4209.615234,4216.666504,4234.358887,3436.000000,4.000000,91.000000,,,,0.000000,4.000000,4.000000,4.000000,4.000000,4.000000,4.000000,4.000000,4.000000,4.000000,4.000000,4.000000,4.000000,4.000000,4.000000,100.000000,,,,,,,,,,,,,,,,
1645708336.533175,16.000000,0.000000,4251.153809,4241.794922,4261.282227,4288.589844,4248.461426,4228.717773,4224.358887,4234.743652,4230.769043,4230.256348,4242.051270,4212.820313,4217.051270,4236.282227,3261.000000,4.000000,91.000000,,,,0.000000,4.000000,4.000000,4.000000,4.000000,4.000000,4.000000,4.000000,4.000000,4.000000,4.000000,4.000000,4.000000,4.000000,4.000000,100.000000,,,,,,,,,,,,,,,,
1645708336.537115,17.000000,0.000000,4255.128418,4239.102539,4265.128418,4290.641113,4249.615234,4227.820313,4222.563965,4230.256348,4227.436035,4230.641113,4244.358887,4213.205078,4217.820313,4236.153809,3290.000000,4.000000,91.000000,,,,0.000000,4.000000,4.000000,4.000000,4.000000,4.000000,4.000000,4.000000,4.000000,4.000000,4.000000,4.000000,4.000000,4.000000,4.000000,100.000000,,,,,,,,,,,,,,,,
1645708336.541055,18.000000,0.000000,4256.666504,4236.538574,4264.743652,4295.641113,4250.128418,4227.948730,4222.692383,4225.641113,4225.000000,4230.641113,4242.307617,4211.282227,4218.846191,4233.717773,2729.000000,4.000000,91.000000,,,,0.000000,4.000000,4.000000,4.000000,4.000000,4.000000,4.000000,4.000000,4.000000,4.000000,4.000000,4.000000,4.000000,4.000000,4.000000,100.000000,,,,,,,,,,,,,,,,
1645708336.544995,19.000000,0.000000,4256.153809,4236.282227,4261.666504,4301.282227,4252.307617,4229.615234,4226.025879,4225.256348,4225.512695,4230.641113,4238.333496,4209.230957,4219.743652,4231.025879,3436.000000,4.000000,91.000000,,,,0.000000,4.000000,4.000000,4.000000,4.000000,4.000000,4.000000,4.000000,4.000000,4.000000,4.000000,4.000000,4.000000,4.000000,4.000000,100.000000,,,,,,,,,,,,,,,,
1645708336.548935,20.000000,0.000000,4255.000000,4238.974121,4258.974121,4304.102539,4255.384766,4232.179688,4231.282227,4230.000000,4228.974121,4231.794922,4236.025879,4209.230957,4220.512695,4230.256348,3261.000000,4.000000,91.000000,,,,0.000000,4.000000,4.000000,4.000000,4.000000,4.000000,4.000000,4.000000,4.000000,4.000000,4.000000,4.000000,4.000000,4.000000,4.000000,100.000000,,,,,,,,,,,,,,,,
1645708336.552875,21.000000,0.000000,4254.230957,4243.077148,4258.333496,4301.922852,4256.025879,4234.615234,4234.871582,4237.051270,4233.589844,4234.615234,4237.563965,4211.666504,4220.897461,4232.179688,3290.000000,4.000000,91.000000,,,,0.000000,4.000000,4.000000,4.000000,4.000000,4.000000,4.000000,4.000000,4.000000,4.000000,4.000000,4.000000,4.000000,4.000000,4.000000,100.000000,,,,,,,,,,,,,,,,
1645708336.556815,22.000000,0.000000,4254.102539,4244.871582,4259.743652,4295.512695,4252.051270,4235.641113,4235.000000,4242.179688,4236.922852,4237.692383,4241.666504,4215.000000,4221.282227,4235.000000,2729.000000,4.000000,91.000000,,,,0.000000,4.000000,4.000000,4.000000,4.000000,4.000000,4.000000,4.000000,4.000000,4.000000,4.000000,4.000000,4.000000,4.000000,4.000000,100.000000,,,,,,,,,,,,,,,,
1645708336.560756,23.000000,0.000000,4253.077148,4241.922852,4261.282227,4287.436035,4245.000000,4234.487305,4232.563965,4243.077148,4237.692383,4237.948730,4244.743652,4216.794922,4221.153809,4235.256348,3436.000000,4.000000,91.000000,,,,0.000000,4.000000,4.000000,4.000000,4.000000,4.000000,4.000000,4.000000,4.000000,4.000000,4.000000,4.000000,4.000000,4.000000,4.000000,100.000000,,,,,,,,,,,,,,,,
1645708336.564696,24.000000,0.000000,4249.871582,4234.487305,4260.897461,4280.128418,4238.205078,4232.051270,4230.256348,4240.384766,4236.153809,4234.102539,4243.589844,4215.769043,4219.487305,4231.025879,3261.000000,4.000000,91.000000,,,,0.000000,4.000000,4.000000,4.000000,4.000000,4.000000,4.000000,4.000000,4.000000,4.000000,4.000000,4.000000,4.000000,4.000000,4.000000,100.000000,,,,,,,,,,,,,,,,
1645708336.568636,25.000000,0.000000,4244.487305,4225.512695,4257.307617,4276.153809,4234.487305,4230.384766,4229.743652,4235.897461,4233.717773,4228.333496,4238.589844,4211.922852,4216.025879,4223.974121,3290.000000,4.000000,91.000000,,,,0.000000,4.000000,4.000000,4.000000,4.000000,4.000000,4.000000,4.000000,4.000000,4.000000,4.000000,4.000000,4.000000,4.000000,4.000000,100.000000,,,,,,,,,,,,,,,,
1645708336.572676,26.000000,0.000000,4238.461426,4219.230957,4251.410156,4276.025879,4235.000000,4231.666504,4231.025879,4231.794922,4231.666504,4223.974121,4232.563965,4206.922852,4211.666504,4217.563965,2729.000000,4.000000,91.000000,,,,0.000000,4.000000,4.000000,4.000000,4.000000,4.000000,4.000000,4.000000,4.000000,4.000000,4.000000,4.000000,4.000000,4.000000,4.000000,100.000000,,,,,,,,,,,,,,,,
1645708336.576616,27.000000,0.000000,4233.333496,4217.820313,4245.000000,4278.205078,4238.333496,4235.769043,4232.692383,4229.102539,4230.512695,4222.179688,4228.333496,4202.307617,4208.333496,4214.487305,3436.000000,4.000000,91.000000,,,,0.000000,4.000000,4.000000,4.000000,4.000000,4.000000,4.000000,4.000000,4.000000,4.000000,4.000000,4.000000,4.000000,4.000000,4.000000,100.000000,,,,,,,,,,,,,,,,
1645708336.580556,28.000000,0.000000,4229.743652,4220.512695,4239.743652,4279.615234,4241.410156,4239.743652,4233.461426,4227.820313,4230.000000,4221.025879,4227.179688,4198.974121,4207.307617,4214.615234,3261.000000,4.000000,91.000000,,,,0.000000,4.000000,4.000000,4.000000,4.000000,4.000000,4.000000,4.000000,4.000000,4.000000,4.000000,4.000000,4.000000,4.000000,4.000000,100.000000,,,,,,,,,,,,,,,,
1645708336.584496,29.000000,0.000000,4227.436035,4224.358887,4236.153809,4277.692383,4242.563965,4240.897461,4232.948730,4227.692383,4229.743652,4219.358887,4228.205078,4197.179688,4208.717773,4216.282227,3290.000000,4.000000,91.000000,,,,0.000000,4.000000,4.000000,4.000000,4.000000,4.000000,4.000000,4.000000,4.000000,4.000000,4.000000,4.000000,4.000000,4.000000,4.000000,100.000000,,,,,,,,,,,,,,,,
1645708336.588436,30.000000,0.000000,4226.410156,4227.051270,4234.102539,4272.948730,4242.820313,4238.205078,4231.666504,4228.461426,4230.000000,4218.589844,4230.256348,4196.922852,4211.025879,4217.820313,2729.000000,4.000000,91.000000,,,,0.000000,4.000000,4.000000,4.000000,4.000000,4.000000,4.000000,4.000000,4.000000,4.000000,4.000000,4.000000,4.000000,4.000000,4.000000,100.000000,,,,,,,,,,,,,,,,
1645708336.592376,31.000000,0.000000,4226.025879,4228.077148,4233.333496,4268.589844,4244.102539,4233.974121,4230.512695,4230.512695,4231.282227,4220.128418,4232.051270,4197.692383,4212.179688,4218.077148,3436.000000,4.000000,91.000000,,,,0.000000,4.000000,4.000000,4.000000,4.000000,4.000000,4.000000,4.000000,4.000000,4.000000,4.000000,4.000000,4.000000,4.000000,4.000000,100.000000,,,,,,,,,,,,,,,,
1645708336.596316,32.000000,0.000000,4225.128418,4227.948730,4232.820313,4268.333496,4245.897461,4230.384766,4230.000000,4233.333496,4233.205078,4221.666504,4231.794922,4197.307617,4210.384766,4216.282227,0.000000,4.000000,91.000000,,,,0.000000,4.000000,4.000000,4.000000,4.000000,4.000000,4.000000,4.000000,4.000000,4.000000,4.000000,4.000000,4.000000,4.000000,4.000000,100.000000,,,,,,,,,,,,,,,,
1645708336.600256,33.000000,0.000000,4222.692383,4226.538574,4231.410156,4272.436035,4245.769043,4228.846191,4230.256348,4235.128418,4233.974121,4219.102539,4228.333496,4193.717773,4206.153809,4212.436035,0.000000,4.000000,91.000000,,,,0.000000,4.000000,4.000000,4.000000,4.000000,4.000000,4.000000,4.000000,4.000000,4.000000,4.000000,4.000000,4.000000,4.000000,4.000000,100.000000,,,,,,,,,,,,,,,,
1645708336.604197,34.000000,0.000000,4219.358887,4223.589844,4229.358887,4278.333496,4242.051270,4229.358887,4230.769043,4234.358887,4232.307617,4211.153809,4223.333496,4187.307617,4201.794922,4208.333496,0.000000,4.000000,91.000000,,,,0.000000,4.000000,4.000000,4.000000,4.000000,4.000000,4.000000,4.000000,4.000000,4.000000,4.000000,4.000000,4.000000,4.000000,4.000000,100.000000,,,,,,,,,,,,,,,,
1645708336.608137,35.000000,0.000000,4217.563965,4221.153809,4228.077148,4281.922852,4237.179688,4231.922852,4231.410156,4231.538574,4229.230957,4203.589844,4220.769043,4181.666504,4200.769043,4207.051270,0.000000,4.000000,91.000000,,,,0.000000,4.000000,4.000000,4.000000,4.000000,4.000000,4.000000,4.000000,4.000000,4.000000,4.000000,4.000000,4.000000,4.000000,4.000000,100.000000,,,,,,,,,,,,,,,,
1645708336.612077,36.000000,0.000000,4220.384766,4222.692383,4229.358887,4281.282227,4236.410156,4236.153809,4232.692383,4228.846191,4227.436035,4203.846191,4224.358887,4181.410156,4204.871582,4210.000000,0.000000,4.000000,91.000000,,,,0.000000,4.000000,4.000000,4.000000,4.000000,4.000000,4.000000,4.000000,4.000000,4.000000,4.000000,4.000000,4.000000,4.000000,4.000000,100.000000,,,,,,,,,,,,,,,,
1645708336.616017,37.000000,0.000000,4228.205078,4230.256348,4234.487305,4277.948730,4242.179688,4240.384766,4234.615234,4229.358887,4229.358887,4215.256348,4233.717773,4188.333496,4212.692383,4216.410156,0.000000,4.000000,91.000000,,,,0.000000,4.000000,4.000000,4.000000,4.000000,4.000000,4.000000,4.000000,4.000000,4.000000,4.000000,4.000000,4.000000,4.000000,4.000000,100.000000,,,,,,,,,,,,,,,,
1645708336.619957,38.000000,0.000000,4238.461426,4241.025879,4242.948730,4275.256348,4251.153809,4242.436035,4236.666504,4233.974121,4234.358887,4233.205078,4244.487305,4199.358887,4220.512695,4223.846191,0.000000,4.000000,91.000000,,,,0.000000,4.000000,4.000000,4.000000,4.000000,4.000000,4.000000,4.000000,4.000000,4.000000,4.000000,4.000000,4.000000,4.000000,4.000000,100.000000,,,,,,,,,,,,,,,,
1645708336.623897,39.000000,0.000000,4247.436035,4248.461426,4252.307617,4275.897461,4256.794922,4241.153809,4238.205078,4240.769043,4239.743652,4247.948730,4250.641113,4208.974121,4224.487305,4229.230957,0.000000,4.000000,91.000000,,,,0.000000,4.000000,4.000000,4.000000,4.000000,4.000000,4.000000,4.000000,4.000000,4.000000,4.000000,4.000000,4.000000,4.000000,4.000000,100.000000,,,,,,,,,,,,,,,,
1645708336.627837,40.000000,0.000000,4252.692383,4247.563965,4259.615234,4279.358887,4255.641113,4238.205078,4239.102539,4246.153809,4242.179688,4252.051270,4250.000000,4212.948730,4223.205078,4231.025879,0.000000,4.000000,91.000000,,,,0.000000,4.000000,4.000000,4.000000,4.000000,4.000000,4.000000,4.000000,4.000000,4.000000,4.000000,4.000000,4.000000,4.000000,4.000000,100.000000,,,,,,,,,,,,,,,,
1645708336.631777,41.000000,0.000000,4254.358887,4239.358887,4263.077148,4282.820313,4249.743652,4236.538574,4239.743652,4247.307617,4241.025879,4245.000000,4245.000000,4210.897461,4218.717773,4229.487305,0.000000,4.000000,91.000000,,,,0.000000,4.000000,4.000000,4.000000,4.000000,4.000000,4.000000,4.000000,4.000000,4.000000,4.000000,4.000000,4.000000,4.000000,4.000000,100.000000,,,,,,,,,,,,,,,,
1645708336.635717,42.000000,0.000000,4254.230957,4229.615234,4263.333496,4283.846191,4244.487305,4237.948730,4240.641113,4244.871582,4238.205078,4233.717773,4240.000000,4205.897461,4213.461426,4226.282227,0.000000,4.000000,91.000000,,,,0.000000,4.000000,4.000000,4.000000,4.000000,4.000000,4.000000,4.000000,4.000000,4.000000,4.000000,4.000000,4.000000,4.000000,4.000000,100.000000,,,,,,,,,,,,,,,,
1645708336.639658,43.000000,0.000000,4253.589844,4223.974121,4262.436035,4281.794922,4242.563965,4241.410156,4241.538574,4242.307617,4236.794922,4226.282227,4237.948730,4201.794922,4209.487305,4223.077148,0.000000,4.000000,91.000000,,,,0.000000,4.000000,4.000000,4.000000,4.000000,4.000000,4.000000,4.000000,4.000000,4.000000,4.000000,4.000000,4.000000,4.000000,4.000000,100.000000,,,,,,,,,,,,,,,,
1645708336.643598,44.000000,0.000000,4252.948730,4224.358887,4262.436035,4278.589844,4242.051270,4243.846191,4242.563965,4243.077148,4237.820313,4226.282227,4238.077148,4200.641113,4207.307617,4220.897461,0.000000,4.000000,91.000000,,,,0.000000,4.000000,4.000000,4.000000,4.000000,4.000000,4.000000,4.000000,4.000000,4.000000,4.000000,4.000000,4.000000,4.000000,4.000000,100.000000,,,,,,,,,,,,,,,,
1645708336.647638,45.000000,0.000000,4251.794922,4228.846191,4263.205078,4277.307617,4239.871582,4243.717773,4243.846191,4247.563965,4240.384766,4231.153809,4238.333496,4202.051270,4206.282227,4219.743652,0.000000,4.000000,91.000000,,,,0.000000,4.000000,4.000000,4.000000,4.000000,4.000000,4.000000,4.000000,4.000000,4.000000,4.000000,4.000000,4.000000,4.000000,4.000000,100.000000,,,,,,,,,,,,,,,,
1645708336.651578,46.000000,0.000000,4251.025879,4234.743652,4263.974121,4280.512695,4236.538574,4242.051270,4245.128418,4252.692383,4242.436035,4235.512695,4237.820313,4204.487305,4205.897461,4219.358887,0.000000,4.000000,91.000000,,,,0.000000,4.000000,4.000000,4.000000,4.000000,4.000000,4.000000,4.000000,4.000000,4.000000,4.000000,4.000000,4.000000,4.000000,4.000000,100.000000,,,,,,,,,,,,,,,,
1645708336.655518,47.000000,0.000000,4251.410156,4240.256348,4263.589844,4286.666504,4236.282227,4241.025879,4245.769043,4253.974121,4242.820313,4236.025879,4236.794922,4206.282227,4205.256348,4220.000000,0.000000,4.000000,91.000000,,,,0.000000,4.000000,4.000000,4.000000,4.000000,4.000000,4.000000,4.000000,4.000000,4.000000,4.000000,4.000000,4.000000,4.000000,4.000000,100.000000,,,,,,,,,,,,,,,,
1645708336.659458,48.000000,0.000000,4253.333496,4244.102539,4262.436035,4291.538574,4242.307617,4241.794922,4244.871582,4250.000000,4241.666504,4232.948730,4235.641113,4207.436035,4203.846191,4221.410156,0.000000,4.000000,91.000000,,,,0.000000,4.000000,4.000000,4.000000,4.000000,4.000000,4.000000,4.000000,4.000000,4.000000,4.000000,4.000000,4.000000,4.000000,4.000000,100.000000,,,,,,,,,,,,,,,,
1645708336.663398,49.000000,0.000000,4255.512695,4244.615234,4262.436035,4291.666504,4253.333496,4243.461426,4242.820313,4242.179688,4239.615234,4228.974121,4234.615234,4208.461426,4201.282227,4223.205078,0.000000,4.000000,91.000000,,,,0.000000,4.000000,4.000000,4.000000,4.000000,4.000000,4.000000,4.000000,4.000000,4.000000,4.000000,4.000000,4.000000,4.000000,4.000000,100.000000,,,,,,,,,,,,,,,,
1645708336.667238,50.000000,0.000000,4256.794922,4241.538574,4265.000000,4287.179688,4263.077148,4244.615234,4241.025879,4234.102539,4237.820313,4225.897461,4233.717773,4210.256348,4198.333496,4224.871582,0.000000,4.000000,91.000000,,,,0.000000,4.000000,4.000000,4.000000,4.000000,4.000000,4.000000,4.000000,4.000000,4.000000,4.000000,4.000000,4.000000,4.000000,4.000000,100.000000,,,,,,,,,,,,,,,,
1645708336.671178,51.000000,0.000000,4257.307617,4235.897461,4270.512695,4282.307617,4266.025879,4244.487305,4240.128418,4228.461426,4236.538574,4223.846191,4233.717773,4212.948730,4196.153809,4225.769043,0.000000,4.000000,91.000000,,,,0.000000,4.000000,4.000000,4.000000,4.000000,4.000000,4.000000,4.000000,4.000000,4.000000,4.000000,4.000000,4.000000,4.000000,4.000000,100.000000,,,,,,,,,,,,,,,,
1645708336.675118,52.000000,0.000000,4257.820313,4230.641113,4276.666504,4281.025879,4261.410156,4243.717773,4239.743652,4225.897461,4235.897461,4222.692383,4234.487305,4215.769043,4195.512695,4225.641113,0.000000,4.000000,91.000000,,,,0.000000,4.000000,4.000000,4.000000,4.000000,4.000000,4.000000,4.000000,4.000000,4.000000,4.000000,4.000000,4.000000,4.000000,4.000000,100.000000,,,,,,,,,,,,,,,,
1645708336.679059,53.000000,0.000000,4258.461426,4228.333496,4280.897461,4282.563965,4252.820313,4242.820313,4238.589844,4225.641113,4234.871582,4223.205078,4235.641113,4217.820313,4196.410156,4224.358887,0.000000,4.000000,91.000000,,,,0.000000,4.000000,4.000000,4.000000,4.000000,4.000000,4.000000,4.000000,4.000000,4.000000,4.000000,4.000000,4.000000,4.000000,4.000000,100.000000,,,,,,,,,,,,,,,,
1645708336.682999,54.000000,0.000000,4259.102539,4229.743652,4280.641113,4282.436035,4245.384766,4241.025879,4236.153809,4226.794922,4232.948730,4225.128418,4236.410156,4218.717773,4198.205078,4222.948730,0.000000,4.000000,91.000000,,,,0.000000,4.000000,4.000000,4.000000,4.000000,4.000000,4.000000,4.000000,4.000000,4.000000,4.000000,4.000000,4.000000,4.000000,4.000000,100.000000,,,,,,,,,,,,,,,,
1645708336.686939,55.000000,0.000000,4259.487305,4233.205078,4276.410156,4278.077148,4240.384766,4238.333496,4232.948730,4228.333496,4231.153809,4226.922852,4236.666504,4218.717773,4200.384766,4222.307617,0.000000,4.000000,91.000000,,,,0.000000,4.000000,4.000000,4.000000,4.000000,4.000000,4.000000,4.000000,4.000000,4.000000,4.000000,4.000000,4.000000,4.000000,4.000000,100.000000,,,,,,,,,,,,,,,,
1645708336.690879,56.000000,0.000000,4259.615234,4235.256348,4270.256348,4272.307617,4236.282227,4235.384766,4229.743652,4229.358887,4230.769043,4226.410156,4237.179688,4218.077148,4202.563965,4223.333496,0.000000,4.000000,91.000000,,,,0.000000,4.000000,4.000000,4.000000,4.000000,4.000000,4.000000,4.000000,4.000000,4.000000,4.000000,4.000000,4.000000,4.000000,4.000000,100.000000,,,,,,,,,,,,,,,,
1645708336.694819,57.000000,0.000000,4259.358887,4233.461426,4265.384766,4270.769043,4231.794922,4233.077148,4227.307617,4230.000000,4232.820313,4224.102539,4238.846191,4216.794922,4204.871582,4225.512695,0.000000,4.000000,91.000000,,,,0.000000,4.000000,4.000000,4.000000,4.000000,4.000000,4.000000,4.000000,4.000000,4.000000,4.000000,4.000000,4.000000,4.000000,4.000000,100.000000,,,,,,,,,,,,,,,,
1645708336.698759,58.000000,0.000000,4257.948730,4227.948730,4263.461426,4275.512695,4227.436035,4231.922852,4226.410156,4230.641113,4236.538574,4222.179688,4240.897461,4214.358887,4206.410156,4226.538574,0.000000,4.000000,91.000000,,,,0.000000,4.000000,4.000000,4.000000,4.000000,4.000000,4.000000,4.000000,4.000000,4.000000,4.000000,4.000000,4.000000,4.000000,4.000000,100.000000,,,,,,,,,,,,,,,,
1645708336.702699,59.000000,0.000000,4254.743652,4221.666504,4264.230957,4283.077148,4225.897461,4231.025879,4227.692383,4231.666504,4240.128418,4222.307617,4240.897461,4210.256348,4205.641113,4223.205078,0.000000,4.000000,91.000000,,,,0.000000,4.000000,4.000000,4.000000,4.000000,4.000000,4.000000,4.000000,4.000000,4.000000,4.000000,4.000000,4.000000,4.000000,4.000000,100.000000,,,,,,,,,,,,,,,,
1645708336.706639,60.000000,0.000000,4250.000000,4218.077148,4265.256348,4288.589844,4229.743652,4230.128418,4230.641113,4233.077148,4241.282227,4224.487305,4237.307617,4204.487305,4202.436035,4215.256348,0.000000,4.000000,91.000000,,,,0.000000,4.000000,4.000000,4.000000,4.000000,4.000000,4.000000,4.000000,4.000000,4.000000,4.000000,4.000000,4.000000,4.000000,4.000000,100.000000,,,,,,,,,,,,,,,,
1645708336.710579,61.000000,0.000000,4246.025879,4219.230957,4264.615234,4290.384766,4238.589844,4229.358887,4233.461426,4234.615234,4240.000000,4228.077148,4232.179688,4199.358887,4198.589844,4207.307617,0.000000,4.000000,91.000000,,,,0.000000,4.000000,4.000000,4.000000,4.000000,4.000000,4.000000,4.000000,4.000000,4.000000,4.000000,4.000000,4.000000,4.000000,4.000000,100.000000,,,,,,,,,,,,,,,,
1645708336.714520,62.000000,0.000000,4245.000000,4223.846191,4262.051270,4290.512695,4248.974121,4229.230957,4234.358887,4235.641113,4237.820313,4232.563965,4229.230957,4197.179688,4197.436035,4205.384766,0.000000,4.000000,91.000000,,,,0.000000,4.000000,4.000000,4.000000,4.000000,4.000000,4.000000,4.000000,4.000000,4.000000,4.000000,4.000000,4.000000,4.000000,4.000000,100.000000,,,,,,,,,,,,,,,,
1645708336.718460,63.000000,0.000000,4247.436035,4228.461426,4259.102539,4290.769043,4255.000000,4229.615234,4233.077148,4236.025879,4236.666504,4236.025879,4230.641113,4198.589844,4200.384766,4211.025879,0.000000,4.000000,91.000000,,,,0.000000,4.000000,4.000000,4.000000,4.000000,4.000000,4.000000,4.000000,4.000000,4.000000,4.000000,4.000000,4.000000,4.000000,4.000000,100.000000,,,,,,,,,,,,,,,,
1645708336.722400,64.000000,0.000000,4250.641113,4229.743652,4257.948730,4290.641113,4252.051270,4229.743652,4231.153809,4236.153809,4236.794922,4235.897461,4234.102539,4202.051270,4204.871582,4219.871582,0.000000,4.000000,91.000000,,,,0.000000,4.000000,4.000000,4.000000,4.000000,4.000000,4.000000,4.000000,4.000000,4.000000,4.000000,4.000000,4.000000,4.000000,4.000000,100.000000,,,,,,,,,,,,,,,,
1645708336.726240,65.000000,0.000000,4251.666504,4228.205078,4259.230957,4288.461426,4241.153809,4229.615234,4230.128418,4237.179688,4237.692383,4231.538574,4235.512695,4204.871582,4206.282227,4224.358887,0.000000,4.000000,91.000000,,,,0.000000,4.000000,4.000000,4.000000,4.000000,4.000000,4.000000,4.000000,4.000000,4.000000,4.000000,4.000000,4.000000,4.000000,4.000000,100.000000,,,,,,,,,,,,,,,,
1645708336.730180,66.000000,0.000000,4249.615234,4226.282227,4261.410156,4284.102539,4229.102539,4230.000000,4230.128418,4239.871582,4238.461426,4225.641113,4233.589844,4205.384766,4203.205078,4220.897461,0.000000,4.000000,91.000000,,,,0.000000,4.000000,4.000000,4.000000,4.000000,4.000000,4.000000,4.000000,4.000000,4.000000,4.000000,4.000000,4.000000,4.000000,4.000000,100.000000,,,,,,,,,,,,,,,,
1645708336.734120,67.000000,0.000000,4246.025879,4226.666504,4262.179688,4278.846191,4223.974121,4231.538574,4231.025879,4243.717773,4239.102539,4221.666504,4230.384766,4204.230957,4197.820313,4212.179688,0.000000,4.000000,91.000000,,,,0.000000,4.000000,4.000000,4.000000,4.000000,4.000000,4.000000,4.000000,4.000000,4.000000,4.000000,4.000000,4.000000,4.000000,4.000000,100.000000,,,,,,,,,,,,,,,,
1645708336.738060,68.000000,0.000000,4243.205078,4228.717773,4260.641113,4274.102539,4229.487305,4233.333496,4232.179688,4247.307617,4240.000000,4221.538574,4229.230957,4202.563965,4194.358887,4204.102539,0.000000,4.000000,91.000000,,,,0.000000,4.000000,4.000000,4.000000,4.000000,4.000000,4.000000,4.000000,4.000000,4.000000,4.000000,4.000000,4.000000,4.000000,4.000000,100.000000,,,,,,,,,,,,,,,,
1645708336.742000,69.000000,0.000000,4242.307617,4229.871582,4257.179688,4270.769043,4240.641113,4233.461426,4233.333496,4248.461426,4241.794922,4223.974121,4230.897461,4201.025879,4194.358887,4200.897461,0.000000,4.000000,91.000000,,,,0.000000,4.000000,4.000000,4.000000,4.000000,4.000000,4.000000,4.000000,4.000000,4.000000,4.000000,4.000000,4.000000,4.000000,4.000000,100.000000,,,,,,,,,,,,,,,,
1645708336.745940,70.000000,0.000000,4242.307617,4228.205078,4252.692383,4268.846191,4248.333496,4230.512695,4234.230957,4245.769043,4243.846191,4226.282227,4233.589844,4199.487305,4196.025879,4202.179688,0.000000,4.000000,91.000000,,,,0.000000,4.000000,4.000000,4.000000,4.000000,4.000000,4.000000,4.000000,4.000000,4.000000,4.000000,4.000000,4.000000,4.000000,4.000000,100.000000,,,,,,,,,,,,,,,,
1645708336.749881,71.000000,0.000000,4241.794922,4223.461426,4248.077148,4268.461426,4246.538574,4226.153809,4233.846191,4239.615234,4244.615234,4226.153809,4233.974121,4197.436035,4196.538574,4205.128418,0.000000,4.000000,91.000000,,,,0.000000,4.000000,4.000000,4.000000,4.000000,4.000000,4.000000,4.000000,4.000000,4.000000,4.000000,4.000000,4.000000,4.000000,4.000000,100.000000,,,,,,,,,,,,,,,,
1645708336.753821,72.000000,0.000000,4240.256348,4217.307617,4244.487305,4269.358887,4237.307617,4223.205078,4232.307617,4232.563965,4242.307617,4223.205078,4230.512695,4195.000000,4194.615234,4206.666504,0.000000,4.000000,91.000000,,,,0.000000,4.000000,4.000000,4.000000,4.000000,4.000000,4.000000,4.000000,4.000000,4.000000,4.000000,4.000000,4.000000,4.000000,4.000000,100.000000,,,,,,,,,,,,,,,,
1645708336.757761,73.000000,0.000000,4238.461426,4211.794922,4242.948730,4270.769043,4228.077148,4223.589844,4230.128418,4227.307617,4237.051270,4218.077148,4224.358887,4193.333496,4191.794922,4205.769043,0.000000,4.000000,91.000000,,,,0.000000,4.000000,4.000000,4.000000,4.000000,4.000000,4.000000,4.000000,4.000000,4.000000,4.000000,4.000000,4.000000,4.000000,4.000000,100.000000,,,,,,,,,,,,,,,,
1645708336.761701,74.000000,0.000000,4237.692383,4208.205078,4243.974121,4271.538574,4224.871582,4227.051270,4228.974121,4225.769043,4230.897461,4211.538574,4218.333496,4193.461426,4189.743652,4203.589844,0.000000,4.000000,91.000000,,,,0.000000,4.000000,4.000000,4.000000,4.000000,4.000000,4.000000,4.000000,4.000000,4.000000,4.000000,4.000000,4.000000,4.000000,4.000000,100.000000,,,,,,,,,,,,,,,,
1645708336.765641,75.000000,0.000000,4238.333496,4207.563965,4246.153809,4270.769043,4229.102539,4231.666504,4230.128418,4227.051270,4226.666504,4205.256348,4215.384766,4195.256348,4189.230957,4201.538574,0.000000,4.000000,91.000000,,,,0.000000,4.000000,4.000000,4.000000,4.000000,4.000000,4.000000,4.000000,4.000000,4.000000,4.000000,4.000000,4.000000,4.000000,4.000000,100.000000,,,,,,,,,,,,,,,,
1645708336.769581,76.000000,0.000000,4240.256348,4210.769043,4247.692383,4268.077148,4238.077148,4235.769043,4233.589844,4229.487305,4226.538574,4202.051270,4217.051270,4197.948730,4189.871582,4200.769043,0.000000,4.000000,91.000000,,,,0.000000,4.000000,4.000000,4.000000,4.000000,4.000000,4.000000,4.000000,4.000000,4.000000,4.000000,4.000000,4.000000,4.000000,4.000000,100.000000,,,,,,,,,,,,,,,,
1645708336.773521,77.000000,0.000000,4242.436035,4217.307617,4247.948730,4264.487305,4246.666504,4237.820313,4238.077148,4231.666504,4229.487305,4204.487305,4222.307617,4201.025879,4191.153809,4201.538574,0.000000,4.000000,91.000000,,,,0.000000,4.000000,4.000000,4.000000,4.000000,4.000000,4.000000,4.000000,4.000000,4.000000,4.000000,4.000000,4.000000,4.000000,4.000000,100.000000,,,,,,,,,,,,,,,,
1645708336.777461,78.000000,0.000000,4244.230957,4224.615234,4247.820313,4261.666504,4250.000000,4237.307617,4241.153809,4233.077148,4232.820313,4211.410156,4227.692383,4203.974121,4192.692383,4202.820313,0.000000,4.000000,91.000000,,,,0.000000,4.000000,4.000000,4.000000,4.000000,4.000000,4.000000,4.000000,4.000000,4.000000,4.000000,4.000000,4.000000,4.000000,4.000000,100.000000,,,,,,,,,,,,,,,,
1645708336.781401,79.000000,0.000000,4244.743652,4227.692383,4249.102539,4261.538574,4246.025879,4233.974121,4240.769043,4233.974121,4234.102539,4217.563965,4229.487305,4205.897461,4193.461426,4202.563965,0.000000,4.000000,91.000000,,,,0.000000,4.000000,4.000000,4.000000,4.000000,4.000000,4.000000,4.000000,4.000000,4.000000,4.000000,4.000000,4.000000,4.000000,4.000000,100.000000,,,,,,,,,,,,,,,,
1645708336.785342,80.000000,0.000000,4243.461426,4223.846191,4251.794922,4264.358887,4237.307617,4229.102539,4237.051270,4234.615234,4232.820313,4217.179688,4226.794922,4205.512695,4192.948730,4199.871582,0.000000,4.000000,91.000000,,,,0.000000,4.000000,4.000000,4.000000,4.000000,4.000000,4.000000,4.000000,4.000000,4.000000,4.000000,4.000000,4.000000,4.000000,4.000000,100.000000,,,,,,,,,,,,,,,,
1645708336.789282,81.000000,0.000000,4241.666504,4216.282227,4254.743652,4267.948730,4229.743652,4224.615234,4232.563965,4235.512695,4230.641113,4210.128418,4221.666504,4202.436035,4191.025879,4195.897461,0.000000,4.000000,91.000000,,,,0.000000,4.000000,4.000000,4.000000,4.000000,4.000000,4.000000,4.000000,4.000000,4.000000,4.000000,4.000000,4.000000,4.000000,4.000000,100.000000,,,,,,,,,,,,,,,,
1645708336.793222,82.000000,0.000000,4240.897461,4211.025879,4256.666504,4269.102539,4227.820313,4222.436035,4229.871582,4236.153809,4230.000000,4201.025879,4217.820313,4198.333496,4188.717773,4193.205078,0.000000,4.000000,91.000000,,,,0.000000,4.000000,4.000000,4.000000,4.000000,4.000000,4.000000,4.000000,4.000000,4.000000,4.000000,4.000000,4.000000,4.000000,4.000000,100.000000,,,,,,,,,,,,,,,,
1645708336.797262,83.000000,0.000000,4241.538574,4210.897461,4256.922852,4265.769043,4230.384766,4222.563965,4229.230957,4236.153809,4231.410156,4195.256348,4216.282227,4194.871582,4186.538574,4192.692383,0.000000,4.000000,91.000000,,,,0.000000,4.000000,4.000000,4.000000,4.000000,4.000000,4.000000,4.000000,4.000000,4.000000,4.000000,4.000000,4.000000,4.000000,4.000000,100.000000,,,,,,,,,,,,,,,,
1645708336.801202,84.000000,0.000000,4242.436035,4212.563965,4255.769043,4260.128418,4232.563965,4223.333496,4228.461426,4235.512695,4233.333496,4194.743652,4215.256348,4193.333496,4183.717773,4193.205078,0.000000,4.000000,91.000000,,,,0.000000,4.000000,4.000000,4.000000,4.000000,4.000000,4.000000,4.000000,4.000000,4.000000,4.000000,4.000000,4.000000,4.000000,4.000000,100.000000,1.000000,58.333332,4.000000,4.000000,4.000000,4.000000,3.000000,4.000000,4.000000,4.000000,4.000000,3.000000,4.000000,4.000000,4.000000,1.000000
1645708336.805142,85.000000,0.000000,4241.794922,4211.153809,4253.333496,4256.153809,4230.000000,4223.589844,4226.538574,4234.487305,4234.230957,4198.205078,4212.692383,4193.077148,4180.128418,4192.948730,0.000000,4.000000,91.000000,,,,0.000000,4.000000,4.000000,4.000000,4.000000,4.000000,4.000000,4.000000,4.000000,4.000000,4.000000,4.000000,4.000000,4.000000,4.000000,100.000000,,,,,,,,,,,,,,,,
1645708336.809082,86.000000,0.000000,4239.230957,4205.641113,4249.358887,4256.153809,4222.948730,4222.820313,4223.846191,4233.205078,4232.948730,4202.563965,4208.589844,4192.179688,4176.922852,4191.410156,0.000000,4.000000,91.000000,,,,0.000000,4.000000,4.000000,4.000000,4.000000,4.000000,4.000000,4.000000,4.000000,4.000000,4.000000,4.000000,4.000000,4.000000,4.000000,100.000000,,,,,,,,,,,,,,,,
1645708336.813022,87.000000,0.000000,4235.641113,4199.743652,4243.461426,4258.846191,4215.384766,4221.282227,4221.666504,4231.153809,4229.871582,4205.512695,4204.487305,4188.717773,4175.512695,4189.230957,0.000000,4.000000,91.000000,,,,0.000000,4.000000,4.000000,4.000000,4.000000,4.000000,4.000000,4.000000,4.000000,4.000000,4.000000,4.000000,4.000000,4.000000,4.000000,100.000000,,,,,,,,,,,,,,,,
1645708336.816962,88.000000,0.000000,4231.794922,4198.205078,4236.794922,4260.128418,4210.641113,4219.615234,4220.641113,4228.974121,4226.922852,4205.512695,4201.153809,4181.922852,4175.384766,4186.282227,0.000000,4.000000,91.000000,,,,0.000000,4.000000,4.000000,4.000000,4.000000,4.000000,4.000000,4.000000,4.000000,4.000000,4.000000,4.000000,4.000000,4.000000,4.000000,100.000000,,,,,,,,,,,,,,,,
1645708336.820902,89.000000,0.000000,4228.333496,4201.922852,4231.282227,4257.051270,4210.512695,4217.948730,4220.769043,4228.461426,4226.410156,4202.692383,4198.077148,4173.589844,4175.256348,4182.307617,0.000000,4.000000,91.000000,,,,0.000000,4.000000,4.000000,4.000000,4.000000,4.000000,4.000000,4.000000,4.000000,4.000000,4.000000,4.000000,4.000000,4.000000,4.000000,100.000000,,,,,,,,,,,,,,,,
1645708336.824843,90.000000,0.000000,4225.897461,4207.692383,4228.589844,4250.897461,4214.743652,4216.794922,4221.922852,4231.025879,4228.717773,4199.358887,4194.743652,4167.179688,4174.358887,4177.692383,0.000000,4.000000,91.000000,,,,0.000000,4.000000,4.000000,4.000000,4.000000,4.000000,4.000000,4.000000,4.000000,4.000000,4.000000,4.000000,4.000000,4.000000,4.000000,100.000000,,,,,,,,,,,,,,,,
1645708336.828783,91.000000,0.000000,4224.871582,4211.153809,4228.846191,4246.282227,4222.948730,4217.307617,4223.974121,4235.512695,4232.051270,4197.436035,4191.666504,4165.256348,4173.589844,4174.358887,0.000000,4.000000,91.000000,,,,0.000000,4.000000,4.000000,4.000000,4.000000,4.000000,4.000000,4.000000,4.000000,4.000000,4.000000,4.000000,4.000000,4.000000,4.000000,100.000000,,,,,,,,,,,,,,,,
1645708336.832723,92.000000,0.000000,4224.615234,4209.615234,4229.743652,4246.025879,4233.205078,4219.487305,4226.153809,4237.948730,4233.589844,4197.563965,4190.128418,4167.436035,4173.589844,4172.820313,0.000000,4.000000,91.000000,,,,0.000000,4.000000,4.000000,4.000000,4.000000,4.000000,4.000000,4.000000,4.000000,4.000000,4.000000,4.000000,4.000000,4.000000,4.000000,100.000000,,,,,,,,,,,,,,,,
1645708336.836563,93.000000,0.000000,4222.948730,4203.974121,4228.717773,4249.230957,4240.641113,4222.307617,4226.794922,4235.256348,4231.794922,4197.948730,4190.256348,4170.897461,4173.717773,4171.153809,0.000000,4.000000,91.000000,,,,0.000000,4.000000,4.000000,4.000000,4.000000,4.000000,4.000000,4.000000,4.000000,4.000000,4.000000,4.000000,4.000000,4.000000,4.000000,100.000000,,,,,,,,,,,,,,,,
1645708336.840503,94.000000,0.000000,4218.461426,4197.051270,4223.974121,4251.282227,4241.538574,4223.717773,4225.512695,4227.820313,4227.948730,4196.410156,4190.769043,4172.179688,4172.820313,4167.307617,0.000000,4.000000,91.000000,,,,0.000000,4.000000,4.000000,4.000000,4.000000,4.000000,4.000000,4.000000,4.000000,4.000000,4.000000,4.000000,4.000000,4.000000,4.000000,100.000000,,,,,,,,,,,,,,,,
1645708336.844443,95.000000,0.000000,4212.692383,4192.307617,4217.436035,4248.974121,4236.410156,4223.205078,4223.589844,4220.000000,4224.743652,4193.077148,4190.128418,4170.384766,4171.282227,4161.666504,0.000000,4.000000,91.000000,,,,0.000000,4.000000,4.000000,4.000000,4.000000,4.000000,4.000000,4.000000,4.000000,4.000000,4.000000,4.000000,4.000000,4.000000,4.000000,100.000000,,,,,,,,,,,,,,,,
1645708336.848383,96.000000,0.000000,4209.230957,4191.666504,4212.307617,4243.333496,4229.102539,4221.538574,4222.948730,4216.794922,4224.102539,4190.512695,4188.589844,4167.179688,4170.769043,4157.179688,0.000000,4.000000,91.000000,,,,0.000000,4.000000,4.000000,4.000000,4.000000,4.000000,4.000000,4.000000,4.000000,4.000000,4.000000,4.000000,4.000000,4.000000,4.000000,100.000000,,,,,,,,,,,,,,,,
1645708336.852323,97.000000,0.000000,4210.000000,4194.358887,4211.666504,4239.102539,4222.307617,4221.025879,4223.846191,4219.871582,4225.769043,4191.282227,4187.436035,4165.512695,4171.922852,4156.025879,0.000000,4.000000,91.000000,,,,0.000000,4.000000,4.000000,4.000000,4.000000,4.000000,4.000000,4.000000,4.000000,4.000000,4.000000,4.000000,4.000000,4.000000,4.000000,100.000000,,,,,,,,,,,,,,,,
1645708336.856263,98.000000,0.000000,4213.461426,4196.922852,4214.487305,4238.589844,4215.512695,4222.307617,4225.512695,4226.025879,4226.922852,4194.230957,4187.307617,4166.538574,4173.846191,4157.307617,0.000000,4.000000,91.000000,,,,0.000000,4.000000,4.000000,4.000000,4.000000,4.000000,4.000000,4.000000,4.000000,4.000000,4.000000,4.000000,4.000000,4.000000,4.000000,100.000000,,,,,,,,,,,,,,,,
1645708336.860204,99.000000,0.000000,4215.897461,4195.641113,4217.820313,4240.641113,4207.948730,4224.102539,4226.666504,4229.615234,4225.512695,4195.000000,4187.307617,4169.358887,4174.358887,4158.077148,0.000000,4.000000,91.000000,,,,0.000000,4.000000,4.000000,4.000000,4.000000,4.000000,4.000000,4.000000,4.000000,4.000000,4.000000,4.000000,4.000000,4.000000,4.000000,100.000000,,,,,,,,,,,,,,,,
1645708336.864144,100.000000,0.000000,4214.871582,4189.615234,4219.230957,4242.563965,4202.436035,4223.846191,4226.410156,4227.436035,4221.410156,4190.128418,4186.153809,4172.692383,4172.692383,4156.794922,0.000000,4.000000,91.000000,,,,0.000000,4.000000,4.000000,4.000000,4.000000,4.000000,4.000000,4.000000,4.000000,4.000000,4.000000,4.000000,4.000000,4.000000,4.000000,100.000000,,,,,,,,,,,,,,,,
1645708336.868084,101.000000,0.000000,4212.179688,4182.820313,4219.358887,4244.230957,4203.461426,4221.153809,4224.615234,4220.641113,4216.794922,4182.179688,4183.846191,4176.153809,4169.743652,4155.384766,0.000000,4.000000,91.000000,,,,0.000000,4.000000,4.000000,4.000000,4.000000,4.000000,4.000000,4.000000,4.000000,4.000000,4.000000,4.000000,4.000000,4.000000,4.000000,100.000000,,,,,,,,,,,,,,,,
1645708336.872024,102.000000,0.000000,4211.922852,4179.871582,4220.641113,4247.307617,4211.922852,4217.179688,4221.282227,4214.102539,4214.743652,4176.282227,4182.307617,4180.384766,4167.179688,4156.666504,0.000000,4.000000,91.000000,,,,0.000000,4.000000,4.000000,4.000000,4.000000,4.000000,4.000000,4.000000,4.000000,4.000000,4.000000,4.000000,4.000000,4.000000,4.000000,100.000000,,,,,,,,,,,,,,,,
1645708336.875964,103.000000,0.000000,4216.666504,4183.077148,4224.615234,4252.436035,4222.692383,4213.846191,4217.436035,4211.922852,4216.410156,4175.512695,4182.820313,4185.000000,4166.153809,4160.769043,0.000000,4.000000,91.000000,,,,0.000000,4.000000,4.000000,4.000000,4.000000,4.000000,4.000000,4.000000,4.000000,4.000000,4.000000,4.000000,4.000000,4.000000,4.000000,100.000000,,,,,,,,,,,,,,,,
1645708336.879904,104.000000,0.000000,4223.846191,4189.615234,4229.871582,4257.051270,4227.820313,4211.666504,4214.871582,4214.230957,4219.487305,4178.077148,4184.871582,4188.333496,4166.153809,4165.000000,0.000000,4.000000,91.000000,,,,0.000000,4.000000,4.000000,4.000000,4.000000,4.000000,4.000000,4.000000,4.000000,4.000000,4.000000,4.000000,4.000000,4.000000,4.000000,100.000000,,,,,,,,,,,,,,,,
1645708336.883844,105.000000,0.000000,4228.846191,4194.871582,4233.589844,4257.692383,4223.589844,4210.000000,4215.128418,4218.077148,4220.897461,4179.615234,4186.538574,4188.589844,4166.538574,4166.666504,0.000000,4.000000,91.000000,,,,0.000000,4.000000,4.000000,4.000000,4.000000,4.000000,4.000000,4.000000,4.000000,4.000000,4.000000,4.000000,4.000000,4.000000,4.000000,100.000000,,,,,,,,,,,,,,,,
1645708336.887784,106.000000,0.000000,4227.948730,4195.128418,4233.717773,4252.820313,4213.974121,4208.846191,4217.563965,4219.743652,4218.974121,4177.948730,4186.922852,4186.153809,4166.410156,4165.512695,0.000000,4.000000,91.000000,,,,0.000000,4.000000,4.000000,4.000000,4.000000,4.000000,4.000000,4.000000,4.000000,4.000000,4.000000,4.000000,4.000000,4.000000,4.000000,100.000000,,,,,,,,,,,,,,,,
1645708336.891724,107.000000,0.000000,4222.179688,4190.256348,4231.153809,4243.974121,4206.922852,4208.461426,4219.102539,4218.205078,4215.384766,4173.974121,4185.897461,4183.333496,4165.641113,4163.333496,0.000000,4.000000,91.000000,,,,0.000000,4.000000,4.000000,4.000000,4.000000,4.000000,4.000000,4.000000,4.000000,4.000000,4.000000,4.000000,4.000000,4.000000,4.000000,100.000000,,,,,,,,,,,,,,,,
1645708336.895665,108.000000,0.000000,4216.282227,4183.589844,4228.589844,4235.256348,4207.051270,4208.974121,4217.820313,4214.871582,4213.461426,4169.743652,4184.358887,4182.051270,4163.846191,4161.794922,0.000000,4.000000,91.000000,,,,0.000000,4.000000,4.000000,4.000000,4.000000,4.000000,4.000000,4.000000,4.000000,4.000000,4.000000,4.000000,4.000000,4.000000,4.000000,100.000000,,,,,,,,,,,,,,,,
1645708336.899605,109.000000,0.000000,4214.871582,4180.000000,4228.461426,4230.641113,4212.051270,4208.974121,4214.230957,4213.077148,4215.256348,4166.922852,4182.179688,4182.820313,4161.538574,4160.769043,0.000000,4.000000,91.000000,,,,0.000000,4.000000,4.000000,4.000000,4.000000,4.000000,4.000000,4.000000,4.000000,4.000000,4.000000,4.000000,4.000000,4.000000,4.000000,100.000000,,,,,,,,,,,,,,,,
1645708336.903645,110.000000,0.000000,4218.717773,4182.436035,4230.641113,4231.410156,4215.512695,4207.436035,4211.538574,4214.615234,4219.615234,4165.769043,4179.358887,4183.717773,4159.102539,4158.846191,0.000000,4.000000,91.000000,,,,0.000000,4.000000,4.000000,4.000000,4.000000,4.000000,4.000000,4.000000,4.000000,4.000000,4.000000,4.000000,4.000000,4.000000,4.000000,100.000000,,,,,,,,,,,,,,,,
1645708336.907585,111.000000,0.000000,4224.230957,4188.846191,4232.179688,4236.410156,4212.948730,4205.000000,4212.179688,4218.589844,4223.846191,4165.897461,4175.641113,4181.922852,4156.922852,4154.487305,0.000000,4.000000,91.000000,,,,0.000000,4.000000,4.000000,4.000000,4.000000,4.000000,4.000000,4.000000,4.000000,4.000000,4.000000,4.000000,4.000000,4.000000,4.000000,100.000000,,,,,,,,,,,,,,,,
1645708336.911525,112.000000,0.000000,4226.282227,4193.461426,4230.384766,4243.077148,4206.794922,4203.846191,4215.384766,4221.410156,4225.384766,4165.897461,4170.897461,4175.769043,4155.256348,4147.436035,0.000000,4.000000,91.000000,,,,0.000000,4.000000,4.000000,4.000000,4.000000,4.000000,4.000000,4.000000,4.000000,4.000000,4.000000,4.000000,4.000000,4.000000,4.000000,100.000000,,,,,,,,,,,,,,,,
1645708336.915465,113.000000,0.000000,4222.948730,4191.153809,4224.487305,4248.589844,4203.461426,4205.512695,4218.205078,4220.256348,4223.333496,4165.128418,4166.025879,4166.794922,4154.487305,4139.487305,0.000000,4.000000,91.000000,,,,0.000000,4.000000,4.000000,4.000000,4.000000,4.000000,4.000000,4.000000,4.000000,4.000000,4.000000,4.000000,4.000000,4.000000,4.000000,100.000000,,,,,,,,,,,,,,,,
1645708336.919405,114.000000,0.000000,4216.282227,4182.692383,4216.922852,4249.871582,4207.051270,4208.974121,4218.205078,4215.384766,4219.102539,4163.717773,4162.051270,4158.589844,4155.384766,4133.846191,0.000000,4.000000,91.000000,,,,0.000000,4.000000,4.000000,4.000000,4.000000,4.000000,4.000000,4.000000,4.000000,4.000000,4.000000,4.000000,4.000000,4.000000,4.000000,100.000000,,,,,,,,,,,,,,,,
1645708336.923345,115.000000,0.000000,4210.256348,4174.358887,4211.922852,4245.000000,4215.769043,4211.410156,4214.871582,4210.641113,4215.128418,4161.922852,4160.000000,4153.717773,4158.077148,4131.794922,0.000000,4.000000,91.000000,,,,0.000000,4.000000,4.000000,4.000000,4.000000,4.000000,4.000000,4.000000,4.000000,4.000000,4.000000,4.000000,4.000000,4.000000,4.000000,100.000000,,,,,,,,,,,,,,,,
1645708336.927285,116.000000,0.000000,4207.692383,4172.563965,4212.051270,4235.384766,4222.436035,4210.769043,4209.871582,4208.974121,4213.717773,4160.769043,4160.000000,4151.922852,4160.897461,4131.794922,0.000000,4.000000,91.000000,,,,0.000000,4.000000,4.000000,4.000000,4.000000,4.000000,4.000000,4.000000,4.000000,4.000000,4.000000,4.000000,4.000000,4.000000,4.000000,100.000000,,,,,,,,,,,,,,,,
1645708336.931225,117.000000,0.000000,4208.589844,4179.102539,4215.384766,4225.512695,4222.563965,4207.563965,4205.769043,4210.128418,4214.743652,4160.769043,4160.769043,4150.769043,4162.051270,4131.538574,0.000000,4.000000,91.000000,,,,0.000000,4.000000,4.000000,4.000000,4.000000,4.000000,4.000000,4.000000,4.000000,4.000000,4.000000,4.000000,4.000000,4.000000,4.000000,100.000000,,,,,,,,,,,,,,,,
1645708336.935165,118.000000,0.000000,4210.641113,4188.974121,4217.436035,4221.538574,4217.436035,4203.589844,4204.487305,4212.179688,4216.666504,4161.794922,4160.769043,4148.077148,4160.897461,4129.487305,0.000000,4.000000,91.000000,,,,0.000000,4.000000,4.000000,4.000000,4.000000,4.000000,4.000000,4.000000,4.000000,4.000000,4.000000,4.000000,4.000000,4.000000,4.000000,100.000000,,,,,,,,,,,,,,,,
1645708336.939106,119.000000,0.000000,4211.153809,4194.871582,4215.000000,4225.897461,4212.307617,4200.897461,4206.922852,4213.077148,4217.307617,4162.179688,4159.230957,4143.589844,4158.333496,4126.153809,0.000000,4.000000,91.000000,,,,0.000000,4.000000,4.000000,4.000000,4.000000,4.000000,4.000000,4.000000,4.000000,4.000000,4.000000,4.000000,4.000000,4.000000,4.000000,100.000000,,,,,,,,,,,,,,,,
1645708336.943046,120.000000,0.000000,4208.589844,4193.077148,4208.974121,4235.512695,4209.487305,4200.000000,4211.282227,4212.563965,4216.153809,4160.128418,4156.153809,4139.615234,4155.128418,4122.692383,0.000000,4.000000,91.000000,,,,0.000000,4.000000,4.000000,4.000000,4.000000,4.000000,4.000000,4.000000,4.000000,4.000000,4.000000,4.000000,4.000000,4.000000,4.000000,100.000000,,,,,,,,,,,,,,,,
1645708336.946986,121.000000,0.000000,4204.230957,4186.025879,4203.333496,4242.563965,4207.179688,4201.282227,4215.384766,4211.538574,4214.230957,4155.897461,4153.461426,4138.717773,4152.692383,4120.769043,0.000000,4.000000,91.000000,,,,0.000000,4.000000,4.000000,4.000000,4.000000,4.000000,4.000000,4.000000,4.000000,4.000000,4.000000,4.000000,4.000000,4.000000,4.000000,100.000000,,,,,,,,,,,,,,,,
1645708336.950926,122.000000,0.000000,4201.410156,4180.641113,4202.051270,4241.410156,4203.974121,4204.230957,4216.922852,4211.153809,4213.077148,4152.563965,4153.974121,4142.179688,4152.820313,4121.282227,0.000000,4.000000,91.000000,,,,0.000000,4.000000,4.000000,4.000000,4.000000,4.000000,4.000000,4.000000,4.000000,4.000000,4.000000,4.000000,4.000000,4.000000,4.000000,100.000000,,,,,,,,,,,,,,,,
1645708336.954866,123.000000,0.000000,4202.436035,4180.769043,4205.512695,4233.077148,4202.179688,4207.563965,4216.282227,4212.307617,4214.102539,4153.333496,4158.846191,4148.846191,4156.282227,4124.358887,0.000000,4.000000,91.000000,,,,0.000000,4.000000,4.000000,4.000000,4.000000,4.000000,4.000000,4.000000,4.000000,4.000000,4.000000,4.000000,4.000000,4.000000,4.000000,100.000000,,,,,,,,,,,,,,,,
1645708336.958806,124.000000,0.000000,4205.641113,4184.230957,4210.769043,4224.102539,4204.102539,4210.000000,4215.128418,4214.487305,4216.666504,4157.051270,4165.769043,4154.871582,4161.794922,4128.461426,0.000000,4.000000,91.000000,,,,0.000000,4.000000,4.000000,4.000000,4.000000,4.000000,4.000000,4.000000,4.000000,4.000000,4.000000,4.000000,4.000000,4.000000,4.000000,100.000000,,,,,,,,,,,,,,,,
1645708336.962746,125.000000,0.000000,4207.307617,4185.512695,4213.974121,4220.512695,4208.846191,4210.641113,4215.128418,4216.538574,4218.846191,4158.589844,4170.641113,4156.794922,4166.410156,4131.282227,0.000000,4.000000,91.000000,,,,0.000000,4.000000,4.000000,4.000000,4.000000,4.000000,4.000000,4.000000,4.000000,4.000000,4.000000,4.000000,4.000000,4.000000,4.000000,100.000000,,,,,,,,,,,,,,,,
1645708336.966686,126.000000,0.000000,4204.487305,4180.769043,4213.461426,4223.205078,4212.563965,4209.871582,4216.538574,4217.051270,4219.102539,4154.487305,4170.769043,4154.487305,4168.077148,4131.025879,0.000000,4.000000,91.000000,,,,0.000000,4.000000,4.000000,4.000000,4.000000,4.000000,4.000000,4.000000,4.000000,4.000000,4.000000,4.000000,4.000000,4.000000,4.000000,100.000000,,,,,,,,,,,,,,,,
1645708336.970626,127.000000,0.000000,4198.589844,4172.179688,4210.128418,4228.717773,4212.179688,4208.461426,4217.948730,4215.897461,4217.563965,4146.794922,4167.563965,4151.153809,4166.922852,4128.461426,0.000000,4.000000,91.000000,,,,0.000000,4.000000,4.000000,4.000000,4.000000,4.000000,4.000000,4.000000,4.000000,4.000000,4.000000,4.000000,4.000000,4.000000,4.000000,100.000000,,,,,,,,,,,,,,,,
1645708336.974567,128.000000,0.000000,4193.846191,4165.000000,4207.051270,4232.307617,4208.333496,4207.051270,4217.820313,4214.358887,4216.153809,4142.692383,4164.871582,4150.897461,4165.512695,4126.282227,3100.000000,4.000000,91.000000,,,,0.000000,4.000000,4.000000,4.000000,4.000000,4.000000,4.000000,4.000000,4.000000,4.000000,4.000000,4.000000,4.000000,4.000000,4.000000,100.000000,,,,,,,,,,,,,,,,
1645708336.978607,129.000000,0.000000,4194.230957,4163.333496,4206.794922,4231.666504,4204.615234,4206.153809,4215.897461,4214.358887,4216.153809,4148.717773,4165.897461,4155.512695,4166.153809,4127.436035,3391.000000,4.000000,91.000000,,,,0.000000,4.000000,4.000000,4.000000,4.000000,4.000000,4.000000,4.000000,4.000000,4.000000,4.000000,4.000000,4.000000,4.000000,4.000000,100.000000,,,,,,,,,,,,,,,,
1645708336.982547,130.000000,0.000000,4200.256348,4167.563965,4210.897461,4228.205078,4204.743652,4206.410156,4213.717773,4217.948730,4218.589844,4164.743652,4171.410156,4164.358887,4169.615234,4132.820313,3471.000000,4.000000,91.000000,,,,0.000000,4.000000,4.000000,4.000000,4.000000,4.000000,4.000000,4.000000,4.000000,4.000000,4.000000,4.000000,4.000000,4.000000,4.000000,100.000000,,,,,,,,,,,,,,,,
1645708336.986487,131.000000,0.000000,4210.384766,4174.615234,4218.077148,4226.538574,4211.282227,4208.333496,4213.717773,4225.128418,4222.820313,4184.230957,4179.743652,4175.000000,4175.000000,4141.282227,3344.000000,4.000000,91.000000,,,,0.000000,4.000000,4.000000,4.000000,4.000000,4.000000,4.000000,4.000000,4.000000,4.000000,4.000000,4.000000,4.000000,4.000000,4.000000,100.000000,,,,,,,,,,,,,,,,
1645708336.990427,132.000000,0.000000,4220.641113,4180.897461,4225.641113,4230.641113,4222.563965,4211.538574,4216.666504,4233.205078,4228.077148,4199.230957,4188.717773,4184.615234,4181.153809,4150.641113,3516.000000,4.000000,91.000000,,,,0.000000,4.000000,4.000000,4.000000,4.000000,4.000000,4.000000,4.000000,4.000000,4.000000,4.000000,4.000000,4.000000,4.000000,4.000000,100.000000,,,,,,,,,,,,,,,,
1645708336.994367,133.000000,0.000000,4227.179688,4184.615234,4230.641113,4239.487305,4232.692383,4215.000000,4220.512695,4238.333496,4232.692383,4205.256348,4196.153809,4191.794922,4187.051270,4157.948730,3196.000000,4.000000,91.000000,,,,0.000000,4.000000,4.000000,4.000000,4.000000,4.000000,4.000000,4.000000,4.000000,4.000000,4.000000,4.000000,4.000000,4.000000,4.000000,100.000000,,,,,,,,,,,,,,,,
1645708336.998307,134.000000,0.000000,4227.948730,4186.282227,4232.051270,4247.307617,4235.128418,4216.922852,4222.692383,4238.333496,4235.512695,4203.333496,4200.384766,4195.384766,4191.538574,4160.384766,3083.000000,4.000000,91.000000,,,,0.000000,4.000000,4.000000,4.000000,4.000000,4.000000,4.000000,4.000000,4.000000,4.000000,4.000000,4.000000,4.000000,4.000000,4.000000,100.000000,,,,,,,,,,,,,,,,
1645708337.002247,135.000000,0.000000,4223.846191,4187.051270,4230.897461,4247.948730,4227.563965,4216.538574,4222.179688,4233.461426,4235.641113,4197.948730,4200.512695,4195.256348,4192.948730,4157.051270,2845.000000,4.000000,91.000000,,,,0.000000,4.000000,4.000000,4.000000,4.000000,4.000000,4.000000,4.000000,4.000000,4.000000,4.000000,4.000000,4.000000,4.000000,4.000000,100.000000,,,,,,,,,,,,,,,,
1645708337.006187,136.000000,0.000000,4218.333496,4186.922852,4229.358887,4240.384766,4214.871582,4214.102539,4220.000000,4226.794922,4233.333496,4193.589844,4197.436035,4192.179688,4190.384766,4150.384766,1553.000000,4.000000,91.000000,,,,0.000000,4.000000,4.000000,4.000000,4.000000,4.000000,4.000000,4.000000,4.000000,4.000000,4.000000,4.000000,4.000000,4.000000,4.000000,100.000000,,,,,,,,,,,,,,,,
1645708337.010127,137.000000,0.000000,4215.512695,4186.025879,4228.077148,4229.615234,4205.641113,4211.153809,4218.205078,4221.794922,4230.000000,4192.051270,4193.461426,4188.205078,4185.256348,4145.384766,3298.000000,4.000000,91.000000,,,,0.000000,4.000000,4.000000,4.000000,4.000000,4.000000,4.000000,4.000000,4.000000,4.000000,4.000000,4.000000,4.000000,4.000000,4.000000,100.000000,,,,,,,,,,,,,,,,
1645708337.014067,138.000000,0.000000,4216.410156,4184.102539,4227.307617,4222.179688,4204.615234,4209.102539,4217.692383,4220.897461,4228.205078,4192.692383,4191.153809,4185.641113,4180.256348,4144.230957,2675.000000,4.000000,91.000000,,,,0.000000,4.000000,4.000000,4.000000,4.000000,4.000000,4.000000,4.000000,4.000000,4.000000,4.000000,4.000000,4.000000,4.000000,4.000000,100.000000,,,,,,,,,,,,,,,,
1645708337.018008,139.000000,0.000000,4219.102539,4181.410156,4227.307617,4222.051270,4208.974121,4208.077148,4217.179688,4223.846191,4229.358887,4193.333496,4190.512695,4185.256348,4177.692383,4144.743652,3422.000000,4.000000,91.000000,,,,0.000000,4.000000,4.000000,4.000000,4.000000,4.000000,4.000000,4.000000,4.000000,4.000000,4.000000,4.000000,4.000000,4.000000,4.000000,100.000000,,,,,,,,,,,,,,,,
1645708337.021948,140.000000,0.000000,4220.384766,4178.077148,4228.205078,4227.307617,4212.307617,4207.692383,4215.512695,4227.820313,4231.922852,4192.692383,4189.487305,4186.410156,4177.692383,4142.179688,3382.000000,4.000000,91.000000,,,,0.000000,4.000000,4.000000,4.000000,4.000000,4.000000,4.000000,4.000000,4.000000,4.000000,4.000000,4.000000,4.000000,4.000000,4.000000,100.000000,,,,,,,,,,,,,,,,
1645708337.025888,141.000000,0.000000,4218.589844,4175.512695,4229.743652,4233.589844,4210.512695,4207.436035,4212.948730,4229.615234,4233.205078,4191.666504,4187.051270,4187.436035,4178.717773,4135.128418,3059.000000,4.000000,91.000000,,,,0.000000,4.000000,4.000000,4.000000,4.000000,4.000000,4.000000,4.000000,4.000000,4.000000,4.000000,4.000000,4.000000,4.000000,4.000000,100.000000,,,,,,,,,,,,,,,,
1645708337.029828,142.000000,0.000000,4214.743652,4174.871582,4230.256348,4236.282227,4206.153809,4207.179688,4211.282227,4227.948730,4232.051270,4192.051270,4184.743652,4187.563965,4179.615234,4126.922852,2675.000000,4.000000,91.000000,,,,0.000000,4.000000,4.000000,4.000000,4.000000,4.000000,4.000000,4.000000,4.000000,4.000000,4.000000,4.000000,4.000000,4.000000,4.000000,100.000000,,,,,,,,,,,,,,,,
1645708337.033768,143.000000,0.000000,4211.538574,4175.769043,4228.717773,4233.589844,4204.230957,4207.307617,4211.410156,4224.358887,4229.743652,4194.102539,4184.871582,4186.410156,4180.256348,4123.333496,3422.000000,4.000000,91.000000,,,,0.000000,4.000000,4.000000,4.000000,4.000000,4.000000,4.000000,4.000000,4.000000,4.000000,4.000000,4.000000,4.000000,4.000000,4.000000,100.000000,,,,,,,,,,,,,,,,
1645708337.037708,144.000000,0.000000,4210.512695,4176.025879,4225.256348,4226.922852,4206.794922,4207.820313,4212.307617,4220.769043,4228.205078,4194.743652,4186.922852,4183.846191,4180.769043,4126.282227,3382.000000,4.000000,91.000000,,,,0.000000,4.000000,4.000000,4.000000,4.000000,4.000000,4.000000,4.000000,4.000000,4.000000,4.000000,4.000000,4.000000,4.000000,4.000000,100.000000,,,,,,,,,,,,,,,,
1645708337.041648,145.000000,0.000000,4210.897461,4173.717773,4221.410156,4220.769043,4210.769043,4207.692383,4212.307617,4218.461426,4227.820313,4191.282227,4187.179688,4179.358887,4179.871582,4132.436035,3059.000000,4.000000,91.000000,,,,0.000000,4.000000,4.000000,4.000000,4.000000,4.000000,4.000000,4.000000,4.000000,4.000000,4.000000,4.000000,4.000000,4.000000,4.000000,100.000000,,,,,,,,,,,,,,,,
1645708337.045588,146.000000,0.000000,4210.769043,4169.487305,4218.333496,4219.487305,4212.307617,4206.410156,4210.641113,4217.436035,4226.666504,4183.589844,4182.692383,4172.692383,4176.794922,4136.025879,2675.000000,4.000000,91.000000,,,,0.000000,4.000000,4.000000,4.000000,4.000000,4.000000,4.000000,4.000000,4.000000,4.000000,4.000000,4.000000,4.000000,4.000000,4.000000,100.000000,,,,,,,,,,,,,,,,
1645708337.049429,147.000000,0.000000,4208.974121,4165.641113,4215.641113,4223.974121,4210.128418,4205.256348,4208.205078,4216.794922,4223.974121,4175.384766,4174.230957,4165.384766,4172.307617,4134.102539,3422.000000,4.000000,91.000000,,,,0.000000,4.000000,4.000000,4.000000,4.000000,4.000000,4.000000,4.000000,4.000000,4.000000,4.000000,4.000000,4.000000,4.000000,4.000000,100.000000,,,,,,,,,,,,,,,,
1645708337.053369,148.000000,0.000000,4206.538574,4164.743652,4212.563965,4230.384766,4205.641113,4205.512695,4207.179688,4216.025879,4220.641113,4170.769043,4166.282227,4159.487305,4168.589844,4128.077148,3382.000000,4.000000,91.000000,,,,0.000000,4.000000,4.000000,4.000000,4.000000,4.000000,4.000000,4.000000,4.000000,4.000000,4.000000,4.000000,4.000000,4.000000,4.000000,100.000000,,,,,,,,,,,,,,,,
1645708337.057309,149.000000,0.000000,4204.615234,4166.794922,4209.615234,4232.820313,4201.025879,4207.820313,4208.974121,4215.000000,4218.461426,4171.025879,4162.820313,4156.538574,4167.307617,4121.922852,3059.000000,4.000000,91.000000,,,,0.000000,4.000000,4.000000,4.000000,4.000000,4.000000,4.000000,4.000000,4.000000,4.000000,4.000000,4.000000,4.000000,4.000000,4.000000,100.000000,,,,,,,,,,,,,,,,
1645708337.061249,150.000000,0.000000,4203.589844,4169.102539,4207.436035,4229.487305,4198.333496,4210.769043,4213.589844,4214.743652,4218.974121,4173.974121,4164.102539,4156.538574,4167.820313,4118.333496,2675.000000,4.000000,91.000000,,,,0.000000,4.000000,4.000000,4.000000,4.000000,4.000000,4.000000,4.000000,4.000000,4.000000,4.000000,4.000000,4.000000,4.000000,4.000000,100.000000,,,,,,,,,,,,,,,,
1645708337.065289,151.000000,0.000000,4202.948730,4168.333496,4206.410156,4223.717773,4198.589844,4212.179688,4218.846191,4215.897461,4221.410156,4175.897461,4166.666504,4157.563965,4167.820313,4116.922852,3422.000000,4.000000,91.000000,,,,0.000000,4.000000,4.000000,4.000000,4.000000,4.000000,4.000000,4.000000,4.000000,4.000000,4.000000,4.000000,4.000000,4.000000,4.000000,100.000000,,,,,,,,,,,,,,,,
1645708337.069229,152.000000,0.000000,4202.563965,4164.487305,4206.410156,4221.538574,4201.922852,4212.051270,4222.051270,4218.205078,4223.333496,4175.128418,4167.307617,4157.692383,4165.769043,4115.769043,3382.000000,4.000000,91.000000,,,,0.000000,4.000000,4.000000,4.000000,4.000000,4.000000,4.000000,4.000000,4.000000,4.000000,4.000000,4.000000,4.000000,4.000000,4.000000,100.000000,,,,,,,,,,,,,,,,
1645708337.073169,153.000000,0.000000,4203.205078,4161.538574,4207.820313,4224.743652,4207.563965,4211.025879,4221.538574,4220.000000,4223.077148,4172.948730,4165.641113,4156.025879,4162.307617,4113.717773,3059.000000,4.000000,91.000000,,,,0.000000,4.000000,4.000000,4.000000,4.000000,4.000000,4.000000,4.000000,4.000000,4.000000,4.000000,4.000000,4.000000,4.000000,4.000000,100.000000,,,,,,,,,,,,,,,,
1645708337.077109,154.000000,0.000000,4205.384766,4163.333496,4210.769043,4229.102539,4212.820313,4210.000000,4218.461426,4219.871582,4220.769043,4171.538574,4164.230957,4153.974121,4160.128418,4112.179688,2675.000000,4.000000,91.000000,,,,0.000000,4.000000,4.000000,4.000000,4.000000,4.000000,4.000000,4.000000,4.000000,4.000000,4.000000,4.000000,4.000000,4.000000,4.000000,100.000000,,,,,,,,,,,,,,,,
1645708337.081049,155.000000,0.000000,4209.102539,4169.230957,4215.000000,4228.717773,4214.487305,4208.589844,4215.512695,4217.307617,4218.589844,4171.282227,4165.256348,4153.205078,4161.153809,4112.307617,3422.000000,4.000000,91.000000,,,,0.000000,4.000000,4.000000,4.000000,4.000000,4.000000,4.000000,4.000000,4.000000,4.000000,4.000000,4.000000,4.000000,4.000000,4.000000,100.000000,,,,,,,,,,,,,,,,
1645708337.084989,156.000000,0.000000,4212.307617,4173.974121,4218.846191,4221.922852,4211.025879,4206.025879,4215.128418,4213.205078,4217.307617,4170.000000,4168.461426,4154.102539,4165.000000,4114.358887,3382.000000,4.000000,91.000000,,,,0.000000,4.000000,4.000000,4.000000,4.000000,4.000000,4.000000,4.000000,4.000000,4.000000,4.000000,4.000000,4.000000,4.000000,4.000000,100.000000,,,,,,,,,,,,,,,,
1645708337.088929,157.000000,0.000000,4213.077148,4172.307617,4220.512695,4213.077148,4204.230957,4203.333496,4216.794922,4208.205078,4216.666504,4165.512695,4171.282227,4155.256348,4169.358887,4116.282227,3059.000000,4.000000,91.000000,,,,0.000000,4.000000,4.000000,4.000000,4.000000,4.000000,4.000000,4.000000,4.000000,4.000000,4.000000,4.000000,4.000000,4.000000,4.000000,100.000000,,,,,,,,,,,,,,,,
1645708337.092870,158.000000,0.000000,4210.897461,4164.358887,4218.846191,4209.102539,4198.717773,4202.436035,4218.333496,4202.820313,4215.641113,4159.230957,4171.282227,4155.512695,4171.922852,4116.282227,2675.000000,4.000000,91.000000,,,,0.000000,4.000000,4.000000,4.000000,4.000000,4.000000,4.000000,4.000000,4.000000,4.000000,4.000000,4.000000,4.000000,4.000000,4.000000,100.000000,,,,,,,,,,,,,,,,
1645708337.096810,159.000000,0.000000,4207.692383,4156.538574,4215.512695,4213.333496,4198.461426,4204.358887,4217.692383,4198.077148,4213.846191,4155.000000,4168.589844,4155.384766,4172.563965,4115.000000,3422.000000,4.000000,91.000000,,,,0.000000,4.000000,4.000000,4.000000,4.000000,4.000000,4.000000,4.000000,4.000000,4.000000,4.000000,4.000000,4.000000,4.000000,4.000000,100.000000,,,,,,,,,,,,,,,,
1645708337.100750,160.000000,0.000000,4206.282227,4155.128418,4213.333496,4222.436035,4203.333496,4207.307617,4214.743652,4195.000000,4211.282227,4155.384766,4165.384766,4156.282227,4172.307617,4114.615234,3382.000000,4.000000,91.000000,,,,0.000000,4.000000,4.000000,4.000000,4.000000,4.000000,4.000000,4.000000,4.000000,4.000000,4.000000,4.000000,4.000000,4.000000,4.000000,100.000000,,,,,,,,,,,,,,,,
1645708337.104690,161.000000,0.000000,4207.948730,4161.538574,4214.230957,4230.256348,4208.589844,4208.077148,4211.282227,4194.358887,4209.230957,4160.000000,4164.102539,4158.846191,4172.820313,4116.282227,3059.000000,4.000000,91.000000,,,,0.000000,4.000000,4.000000,4.000000,4.000000,4.000000,4.000000,4.000000,4.000000,4.000000,4.000000,4.000000,4.000000,4.000000,4.000000,100.000000,,,,,,,,,,,,,,,,
1645708337.108630,162.000000,0.000000,4211.922852,4170.512695,4217.563965,4232.820313,4209.102539,4205.128418,4209.102539,4195.897461,4208.717773,4165.000000,4165.384766,4162.692383,4174.487305,4118.461426,2675.000000,4.000000,91.000000,,,,0.000000,4.000000,4.000000,4.000000,4.000000,4.000000,4.000000,4.000000,4.000000,4.000000,4.000000,4.000000,4.000000,4.000000,4.000000,100.000000,,,,,,,,,,,,,,,,
1645708337.112570,163.000000,0.000000,4215.128418,4175.256348,4219.871582,4230.512695,4203.974121,4200.512695,4208.846191,4197.948730,4210.000000,4167.307617,4167.948730,4165.384766,4175.769043,4118.461426,3422.000000,4.000000,91.000000,,,,0.000000,4.000000,4.000000,4.000000,4.000000,4.000000,4.000000,4.000000,4.000000,4.000000,4.000000,4.000000,4.000000,4.000000,4.000000,100.000000,,,,,,,,,,,,,,,,
1645708337.116410,164.000000,0.000000,4214.743652,4171.922852,4218.205078,4225.769043,4196.922852,4197.179688,4210.256348,4198.846191,4211.538574,4165.384766,4168.717773,4164.871582,4174.358887,4114.358887,3382.000000,4.000000,91.000000,,,,0.000000,4.000000,4.000000,4.000000,4.000000,4.000000,4.000000,4.000000,4.000000,4.000000,4.000000,4.000000,4.000000,4.000000,4.000000,100.000000,,,,,,,,,,,,,,,,
1645708337.120350,165.000000,0.000000,4210.000000,4162.307617,4212.692383,4220.384766,4192.692383,4197.307617,4212.563965,4198.589844,4211.794922,4159.871582,4165.769043,4160.256348,4169.230957,4107.436035,3059.000000,4.000000,91.000000,,,,0.000000,4.000000,4.000000,4.000000,4.000000,4.000000,4.000000,4.000000,4.000000,4.000000,4.000000,4.000000,4.000000,4.000000,4.000000,100.000000,,,,,,,,,,,,,,,,
1645708337.124291,166.000000,0.000000,4202.820313,4152.051270,4206.794922,4215.128418,4194.871582,4200.128418,4214.615234,4197.948730,4210.769043,4153.205078,4159.871582,4153.974121,4161.922852,4100.769043,2675.000000,4.000000,91.000000,,,,0.000000,4.000000,4.000000,4.000000,4.000000,4.000000,4.000000,4.000000,4.000000,4.000000,4.000000,4.000000,4.000000,4.000000,4.000000,100.000000,,,,,,,,,,,,,,,,
1645708337.128231,167.000000,0.000000,4197.563965,4147.307617,4204.487305,4210.769043,4202.563965,4203.589844,4216.153809,4198.846191,4210.000000,4148.846191,4154.743652,4150.128418,4156.153809,4097.948730,3422.000000,4.000000,91.000000,,,,0.000000,4.000000,4.000000,4.000000,4.000000,4.000000,4.000000,4.000000,4.000000,4.000000,4.000000,4.000000,4.000000,4.000000,4.000000,100.000000,,,,,,,,,,,,,,,,
1645708337.132171,168.000000,0.000000,4197.436035,4149.871582,4207.307617,4208.974121,4211.153809,4206.282227,4216.922852,4202.436035,4211.794922,4150.512695,4154.230957,4151.410156,4155.512695,4100.384766,3382.000000,4.000000,91.000000,,,,0.000000,4.000000,4.000000,4.000000,4.000000,4.000000,4.000000,4.000000,4.000000,4.000000,4.000000,4.000000,4.000000,4.000000,4.000000,100.000000,,,,,,,,,,,,,,,,
1645708337.136111,169.000000,0.000000,4201.922852,4156.794922,4213.589844,4210.384766,4215.256348,4207.948730,4217.692383,4208.589844,4216.153809,4158.974121,4159.358887,4157.436035,4160.512695,4106.153809,3059.000000,4.000000,91.000000,,,,0.000000,4.000000,4.000000,4.000000,4.000000,4.000000,4.000000,4.000000,4.000000,4.000000,4.000000,4.000000,4.000000,4.000000,4.000000,100.000000,,,,,,,,,,,,,,,,
1645708337.140151,170.000000,0.000000,4207.436035,4162.692383,4219.230957,4213.717773,4212.692383,4208.974121,4219.102539,4215.128418,4221.538574,4171.153809,4167.563965,4165.256348,4168.333496,4111.922852,2675.000000,4.000000,91.000000,,,,0.000000,4.000000,4.000000,4.000000,4.000000,4.000000,4.000000,4.000000,4.000000,4.000000,4.000000,4.000000,4.000000,4.000000,4.000000,100.000000,,,,,,,,,,,,,,,,
1645708337.144091,171.000000,0.000000,4210.384766,4164.358887,4220.769043,4216.538574,4206.922852,4209.871582,4221.153809,4220.000000,4226.153809,4181.922852,4175.000000,4171.538574,4175.128418,4115.128418,3422.000000,4.000000,91.000000,,,,0.000000,4.000000,4.000000,4.000000,4.000000,4.000000,4.000000,4.000000,4.000000,4.000000,4.000000,4.000000,4.000000,4.000000,4.000000,100.000000,,,,,,,,,,,,,,,,
1645708337.148031,172.000000,0.000000,4210.128418,4163.205078,4218.205078,4216.922852,4203.461426,4210.641113,4222.820313,4222.051270,4229.230957,4187.820313,4180.000000,4174.487305,4178.974121,4116.410156,3382.000000,4.000000,91.000000,,,,0.000000,4.000000,4.000000,4.000000,4.000000,4.000000,4.000000,4.000000,4.000000,4.000000,4.000000,4.000000,4.000000,4.000000,4.000000,100.000000,,,,,,,,,,,,,,,,
1645708337.151971,173.000000,0.000000,4209.102539,4162.563965,4215.000000,4215.000000,4205.256348,4211.282227,4222.820313,4221.153809,4230.769043,4189.230957,4183.333496,4174.615234,4180.769043,4118.077148,3059.000000,4.000000,91.000000,,,,0.000000,4.000000,4.000000,4.000000,4.000000,4.000000,4.000000,4.000000,4.000000,4.000000,4.000000,4.000000,4.000000,4.000000,4.000000,100.000000,,,,,,,,,,,,,,,,
1645708337.155911,174.000000,0.000000,4209.487305,4162.948730,4214.358887,4211.794922,4209.615234,4211.282227,4220.512695,4218.077148,4231.666504,4188.461426,4186.282227,4173.974121,4181.922852,4122.051270,2675.000000,4.000000,91.000000,,,,0.000000,4.000000,4.000000,4.000000,4.000000,4.000000,4.000000,4.000000,4.000000,4.000000,4.000000,4.000000,4.000000,4.000000,4.000000,100.000000,,,,,,,,,,,,,,,,
1645708337.159951,175.000000,0.000000,4210.897461,4161.666504,4216.538574,4208.333496,4211.410156,4210.512695,4217.179688,4214.230957,4231.794922,4186.922852,4187.692383,4173.846191,4182.948730,4126.538574,3422.000000,4.000000,91.000000,,,,0.000000,4.000000,4.000000,4.000000,4.000000,4.000000,4.000000,4.000000,4.000000,4.000000,4.000000,4.000000,4.000000,4.000000,4.000000,100.000000,,,,,,,,,,,,,,,,
1645708337.163891,176.000000,0.000000,4211.410156,4157.051270,4219.358887,4204.871582,4208.717773,4208.974121,4215.128418,4211.922852,4230.641113,4185.769043,4186.538574,4173.717773,4182.948730,4128.077148,3382.000000,4.000000,91.000000,,,,0.000000,4.000000,4.000000,4.000000,4.000000,4.000000,4.000000,4.000000,4.000000,4.000000,4.000000,4.000000,4.000000,4.000000,4.000000,100.000000,,,,,,,,,,,,,,,,
1645708337.167831,177.000000,0.000000,4210.128418,4151.410156,4220.641113,4201.794922,4204.615234,4207.820313,4216.282227,4213.461426,4229.230957,4185.128418,4182.948730,4172.563965,4181.410156,4124.487305,3059.000000,4.000000,91.000000,,,,0.000000,4.000000,4.000000,4.000000,4.000000,4.000000,4.000000,4.000000,4.000000,4.000000,4.000000,4.000000,4.000000,4.000000,4.000000,100.000000,,,,,,,,,,,,,,,,
1645708337.171772,178.000000,0.000000,4208.205078,4150.000000,4220.000000,4199.871582,4204.358887,4208.205078,4219.487305,4219.102539,4229.102539,4185.000000,4179.230957,4170.000000,4179.358887,4117.051270,2675.000000,4.000000,91.000000,,,,0.000000,4.000000,4.000000,4.000000,4.000000,4.000000,4.000000,4.000000,4.000000,4.000000,4.000000,4.000000,4.000000,4.000000,4.000000,100.000000,,,,,,,,,,,,,,,,
1645708337.175712,179.000000,0.000000,4207.307617,4154.871582,4218.333496,4201.282227,4208.717773,4209.615234,4221.666504,4226.282227,4231.025879,4184.487305,4177.051270,4166.922852,4178.333496,4109.230957,3422.000000,4.000000,91.000000,,,,0.000000,4.000000,4.000000,4.000000,4.000000,4.000000,4.000000,4.000000,4.000000,4.000000,4.000000,4.000000,4.000000,4.000000,4.000000,100.000000,,,,,,,,,,,,,,,,
1645708337.179652,180.000000,0.000000,4207.820313,4162.436035,4217.307617,4206.666504,4213.077148,4210.384766,4220.128418,4230.384766,4232.692383,4182.307617,4176.410156,4163.717773,4177.948730,4103.717773,3382.000000,4.000000,91.000000,,,,0.000000,4.000000,4.000000,4.000000,4.000000,4.000000,4.000000,4.000000,4.000000,4.000000,4.000000,4.000000,4.000000,4.000000,4.000000,100.000000,,,,,,,,,,,,,,,,
1645708337.183592,181.000000,0.000000,4208.333496,4167.051270,4218.077148,4214.230957,4211.282227,4208.461426,4215.128418,4228.717773,4231.794922,4178.205078,4175.897461,4161.153809,4177.307617,4101.538574,3059.000000,4.000000,91.000000,,,,0.000000,4.000000,4.000000,4.000000,4.000000,4.000000,4.000000,4.000000,4.000000,4.000000,4.000000,4.000000,4.000000,4.000000,4.000000,100.000000,,,,,,,,,,,,,,,,
1645708337.187532,182.000000,0.000000,4208.461426,4166.025879,4220.512695,4219.871582,4203.077148,4204.230957,4210.128418,4222.692383,4227.948730,4175.000000,4175.512695,4160.512695,4176.410156,4102.179688,2675.000000,4.000000,91.000000,,,,0.000000,4.000000,4.000000,4.000000,4.000000,4.000000,4.000000,4.000000,4.000000,4.000000,4.000000,4.000000,4.000000,4.000000,4.000000,100.000000,,,,,,,,,,,,,,,,
1645708337.191572,183.000000,0.000000,4209.615234,4162.307617,4223.589844,4220.000000,4193.974121,4200.128418,4208.589844,4216.794922,4223.846191,4176.025879,4176.538574,4162.820313,4176.410156,4104.102539,3422.000000,4.000000,91.000000,,,,0.000000,4.000000,4.000000,4.000000,4.000000,4.000000,4.000000,4.000000,4.000000,4.000000,4.000000,4.000000,4.000000,4.000000,4.000000,100.000000,,,,,,,,,,,,,,,,
1645708337.195512,184.000000,0.000000,4212.563965,4160.641113,4226.410156,4214.871582,4190.897461,4198.974121,4211.153809,4215.769043,4222.436035,4182.436035,4179.230957,4167.563965,4178.333496,4105.897461,3382.000000,4.000000,91.000000,,,,0.000000,4.000000,4.000000,4.000000,4.000000,4.000000,4.000000,4.000000,4.000000,4.000000,4.000000,4.000000,4.000000,4.000000,4.000000,100.000000,,,,,,,,,,,,,,,,
1645708337.199452,185.000000,0.000000,4215.897461,4162.820313,4227.820313,4208.205078,4196.025879,4200.897461,4215.256348,4220.256348,4225.256348,4191.538574,4182.179688,4172.307617,4181.282227,4106.666504,3059.000000,4.000000,91.000000,,,,0.000000,4.000000,4.000000,4.000000,4.000000,4.000000,4.000000,4.000000,4.000000,4.000000,4.000000,4.000000,4.000000,4.000000,4.000000,100.000000,,,,,,,,,,,,,,,,
1645708337.203392,186.000000,0.000000,4217.179688,4166.538574,4227.692383,4203.846191,4205.128418,4203.846191,4217.948730,4226.794922,4230.641113,4198.205078,4183.077148,4173.974121,4183.205078,4106.666504,2675.000000,4.000000,91.000000,,,,0.000000,4.000000,4.000000,4.000000,4.000000,4.000000,4.000000,4.000000,4.000000,4.000000,4.000000,4.000000,4.000000,4.000000,4.000000,100.000000,,,,,,,,,,,,,,,,
1645708337.207332,187.000000,0.000000,4214.743652,4167.307617,4226.666504,4203.461426,4210.641113,4205.128418,4217.692383,4230.256348,4234.230957,4199.102539,4181.666504,4171.538574,4182.692383,4106.282227,3422.000000,4.000000,91.000000,,,,0.000000,4.000000,4.000000,4.000000,4.000000,4.000000,4.000000,4.000000,4.000000,4.000000,4.000000,4.000000,4.000000,4.000000,4.000000,100.000000,,,,,,,,,,,,,,,,
1645708337.211273,188.000000,0.000000,4209.871582,4162.820313,4225.000000,4205.641113,4208.846191,4203.974121,4215.128418,4228.077148,4233.333496,4194.358887,4178.461426,4165.641113,4179.615234,4105.384766,3382.000000,4.000000,91.000000,,,,0.000000,4.000000,4.000000,4.000000,4.000000,4.000000,4.000000,4.000000,4.000000,4.000000,4.000000,4.000000,4.000000,4.000000,4.000000,100.000000,,,,,,,,,,,,,,,,
1645708337.215213,189.000000,0.000000,4205.769043,4154.358887,4222.820313,4209.102539,4201.666504,4200.897461,4211.794922,4222.051270,4228.077148,4186.282227,4174.358887,4158.846191,4175.128418,4103.205078,3059.000000,4.000000,91.000000,,,,0.000000,4.000000,4.000000,4.000000,4.000000,4.000000,4.000000,4.000000,4.000000,4.000000,4.000000,4.000000,4.000000,4.000000,4.000000,100.000000,,,,,,,,,,,,,,,,
1645708337.219153,190.000000,0.000000,4204.358887,4146.282227,4220.769043,4212.692383,4195.000000,4196.922852,4208.846191,4215.897461,4222.051270,4177.692383,4169.743652,4153.717773,4170.256348,4100.256348,2675.000000,4.000000,91.000000,,,,0.000000,4.000000,4.000000,4.000000,4.000000,4.000000,4.000000,4.000000,4.000000,4.000000,4.000000,4.000000,4.000000,4.000000,4.000000,100.000000,,,,,,,,,,,,,,,,
1645708337.223093,191.000000,0.000000,4205.512695,4142.948730,4219.743652,4215.128418,4193.333496,4193.333496,4207.307617,4212.563965,4218.461426,4171.153809,4165.000000,4151.922852,4166.538574,4097.948730,3422.000000,4.000000,91.000000,,,,0.000000,4.000000,4.000000,4.000000,4.000000,4.000000,4.000000,4.000000,4.000000,4.000000,4.000000,4.000000,4.000000,4.000000,4.000000,100.000000,,,,,,,,,,,,,,,,
1645708337.227033,192.000000,0.000000,4207.692383,4145.769043,4220.512695,4215.384766,4195.512695,4191.794922,4207.436035,4212.820313,4218.461426,4168.589844,4161.538574,4152.948730,4165.128418,4097.948730,3382.000000,4.000000,91.000000,,,,0.000000,4.000000,4.000000,4.000000,4.000000,4.000000,4.000000,4.000000,4.000000,4.000000,4.000000,4.000000,4.000000,4.000000,4.000000,100.000000,,,,,,,,,,,,,,,,
1645708337.230973,193.000000,0.000000,4209.487305,4152.820313,4222.820313,4213.717773,4197.948730,4193.846191,4209.358887,4215.641113,4221.282227,4170.769043,4161.410156,4155.384766,4166.538574,4100.256348,3059.000000,4.000000,91.000000,,,,0.000000,4.000000,4.000000,4.000000,4.000000,4.000000,4.000000,4.000000,4.000000,4.000000,4.000000,4.000000,4.000000,4.000000,4.000000,100.000000,,,,,,,,,,,,,,,,
1645708337.234913,194.000000,0.000000,4210.256348,4160.384766,4224.743652,4212.051270,4198.589844,4199.230957,4212.563965,4218.461426,4224.615234,4176.153809,4165.641113,4158.205078,4170.128418,4103.205078,2675.000000,4.000000,91.000000,,,,0.000000,4.000000,4.000000,4.000000,4.000000,4.000000,4.000000,4.000000,4.000000,4.000000,4.000000,4.000000,4.000000,4.000000,4.000000,100.000000,,,,,,,,,,,,,,,,
1645708337.238753,195.000000,0.000000,4210.000000,4165.000000,4225.000000,4212.563965,4198.205078,4205.256348,4215.384766,4219.871582,4226.538574,4181.282227,4171.922852,4160.128418,4174.358887,4103.974121,3422.000000,4.000000,91.000000,,,,0.000000,4.000000,4.000000,4.000000,4.000000,4.000000,4.000000,4.000000,4.000000,4.000000,4.000000,4.000000,4.000000,4.000000,4.000000,100.000000,,,,,,,,,,,,,,,,
1645708337.242693,196.000000,0.000000,4209.358887,4165.512695,4223.846191,4214.743652,4199.487305,4208.461426,4216.410156,4219.102539,4226.410156,4182.948730,4176.666504,4159.871582,4176.922852,4101.025879,3382.000000,4.000000,91.000000,,,,0.000000,4.000000,4.000000,4.000000,4.000000,4.000000,4.000000,4.000000,4.000000,4.000000,4.000000,4.000000,4.000000,4.000000,4.000000,100.000000,,,,,,,,,,,,,,,,
1645708337.246634,197.000000,0.000000,4209.358887,4162.563965,4222.948730,4216.410156,4203.333496,4207.948730,4215.256348,4216.153809,4224.615234,4180.256348,4176.794922,4157.179688,4176.922852,4096.153809,3059.000000,4.000000,91.000000,,,,0.000000,4.000000,4.000000,4.000000,4.000000,4.000000,4.000000,4.000000,4.000000,4.000000,4.000000,4.000000,4.000000,4.000000,4.000000,100.000000,,,,,,,,,,,,,,,,
1645708337.250574,198.000000,0.000000,4210.256348,4157.948730,4223.461426,4215.641113,4208.077148,4205.512695,4212.307617,4211.410156,4222.179688,4174.871582,4172.051270,4152.692383,4174.358887,4092.179443,2675.000000,4.000000,91.000000,,,,0.000000,4.000000,4.000000,4.000000,4.000000,4.000000,4.000000,4.000000,4.000000,4.000000,4.000000,4.000000,4.000000,4.000000,4.000000,100.000000,,,,,,,,,,,,,,,,
1645708337.254514,199.000000,0.000000,4210.897461,4153.205078,4224.743652,4212.436035,4210.384766,4203.846191,4209.230957,4205.512695,4219.743652,4170.000000,4164.871582,4147.692383,4170.128418,4091.538574,3422.000000,4.000000,91.000000,,,,0.000000,4.000000,4.000000,4.000000,4.000000,4.000000,4.000000,4.000000,4.000000,4.000000,4.000000,4.000000,4.000000,4.000000,4.000000,100.000000,,,,,,,,,,,,,,,,
1645708337.258454,200.000000,0.000000,4210.000000,4149.871582,4225.128418,4208.461426,4207.563965,4204.102539,4208.077148,4200.256348,4217.692383,4167.179688,4158.589844,4144.230957,4166.410156,4093.718018,3382.000000,4.000000,91.000000,,,,0.000000,4.000000,4.000000,4.000000,4.000000,4.000000,4.000000,4.000000,4.000000,4.000000,4.000000,4.000000,4.000000,4.000000,4.000000,100.000000,,,,,,,,,,,,,,,,
1645708337.262394,201.000000,0.000000,4207.692383,4149.487305,4224.230957,4205.769043,4200.897461,4205.512695,4209.615234,4198.077148,4216.153809,4166.922852,4155.769043,4143.589844,4165.384766,4096.282227,3059.000000,4.000000,91.000000,,,,0.000000,4.000000,4.000000,4.000000,4.000000,4.000000,4.000000,4.000000,4.000000,4.000000,4.000000,4.000000,4.000000,4.000000,4.000000,100.000000,,,,,,,,,,,,,,,,
1645708337.266334,202.000000,0.000000,4206.025879,4152.051270,4222.179688,4205.769043,4195.384766,4206.538574,4213.205078,4200.128418,4215.384766,4169.487305,4157.563965,4146.410156,4168.333496,4097.179688,2675.000000,4.000000,91.000000,,,,0.000000,4.000000,4.000000,4.000000,4.000000,4.000000,4.000000,4.000000,4.000000,4.000000,4.000000,4.000000,4.000000,4.000000,4.000000,100.000000,,,,,,,,,,,,,,,,
1645708337.270274,203.000000,0.000000,4206.282227,4155.384766,4220.256348,4209.487305,4196.410156,4206.794922,4216.666504,4205.512695,4215.128418,4174.487305,4162.692383,4151.410156,4174.102539,4096.282227,3422.000000,4.000000,91.000000,,,,0.000000,4.000000,4.000000,4.000000,4.000000,4.000000,4.000000,4.000000,4.000000,4.000000,4.000000,4.000000,4.000000,4.000000,4.000000,100.000000,,,,,,,,,,,,,,,,
1645708337.274214,204.000000,0.000000,4208.461426,4156.666504,4219.358887,4215.769043,4204.743652,4206.794922,4218.205078,4211.410156,4215.512695,4180.256348,4168.333496,4156.282227,4179.102539,4095.128174,3382.000000,4.000000,91.000000,,,,0.000000,4.000000,4.000000,4.000000,4.000000,4.000000,4.000000,4.000000,4.000000,4.000000,4.000000,4.000000,4.000000,4.000000,4.000000,100.000000,,,,,,,,,,,,,,,,
1645708337.278154,205.000000,0.000000,4210.000000,4154.743652,4219.358887,4221.025879,4213.846191,4207.436035,4217.948730,4214.871582,4217.436035,4183.333496,4171.794922,4158.461426,4180.512695,4094.230713,3059.000000,4.000000,91.000000,,,,0.000000,4.000000,4.000000,4.000000,4.000000,4.000000,4.000000,4.000000,4.000000,4.000000,4.000000,4.000000,4.000000,4.000000,4.000000,100.000000,,,,,,,,,,,,,,,,
1645708337.282095,206.000000,0.000000,4208.717773,4151.025879,4218.846191,4221.666504,4215.256348,4208.589844,4217.307617,4214.487305,4221.153809,4180.897461,4171.153809,4156.922852,4177.179688,4092.051270,2675.000000,4.000000,91.000000,,,,0.000000,4.000000,4.000000,4.000000,4.000000,4.000000,4.000000,4.000000,4.000000,4.000000,4.000000,4.000000,4.000000,4.000000,4.000000,100.000000,,,,,,,,,,,,,,,,
1645708337.286035,207.000000,0.000000,4203.717773,4148.589844,4215.897461,4216.538574,4206.025879,4210.000000,4217.179688,4211.666504,4225.897461,4173.846191,4166.153809,4152.948730,4171.538574,4087.692383,3422.000000,4.000000,91.000000,,,,0.000000,4.000000,4.000000,4.000000,4.000000,4.000000,4.000000,4.000000,4.000000,4.000000,4.000000,4.000000,4.000000,4.000000,4.000000,100.000000,,,,,,,,,,,,,,,,
1645708337.289975,208.000000,0.000000,4197.051270,4150.000000,4210.128418,4208.205078,4192.948730,4210.512695,4217.436035,4209.102539,4229.358887,4167.179688,4159.358887,4148.461426,4166.410156,4082.179443,3382.000000,4.000000,91.000000,,,,0.000000,4.000000,4.000000,4.000000,4.000000,4.000000,4.000000,4.000000,4.000000,4.000000,4.000000,4.000000,4.000000,4.000000,4.000000,100.000000,,,,,,,,,,,,,,,,
1645708337.293915,209.000000,0.000000,4192.051270,4154.230957,4203.717773,4201.153809,4186.538574,4209.358887,4216.794922,4209.102539,4230.128418,4166.153809,4154.615234,4145.384766,4164.487305,4078.846191,3059.000000,4.000000,91.000000,,,,0.000000,4.000000,4.000000,4.000000,4.000000,4.000000,4.000000,4.000000,4.000000,4.000000,4.000000,4.000000,4.000000,4.000000,4.000000,100.000000,,,,,,,,,,,,,,,,
1645708337.297855,210.000000,0.000000,4190.512695,4156.922852,4200.000000,4197.948730,4190.897461,4206.025879,4214.743652,4211.410156,4228.077148,4171.666504,4154.615234,4143.974121,4166.153809,4079.102539,2675.000000,4.000000,91.000000,,,,0.000000,4.000000,4.000000,4.000000,4.000000,4.000000,4.000000,4.000000,4.000000,4.000000,4.000000,4.000000,4.000000,4.000000,4.000000,100.000000,,,,,,,,,,,,,,,,
1645708337.301795,211.000000,0.000000,4191.538574,4153.077148,4200.384766,4198.077148,4200.641113,4201.282227,4212.436035,4213.974121,4224.743652,4178.974121,4157.563965,4143.077148,4169.102539,4080.769287,3422.000000,4.000000,91.000000,,,,0.000000,4.000000,4.000000,4.000000,4.000000,4.000000,4.000000,4.000000,4.000000,4.000000,4.000000,4.000000,4.000000,4.000000,4.000000,100.000000,,,,,,,,,,,,,,,,
