title:Alex-_DpBFH0gHntlqPxvAMvCfg, start timestamp:1645708293.386408, stop timestamp:1645708319.335044, headset type:EPOCPLUS, headset serial:3B9AEBFF, headset firmware:626, channels:55, sampling rate:eeg_256, samples:6587      , version:2.1, 
Timestamp,EEG.Counter,EEG.Interpolated,EEG.AF3,EEG.F7,EEG.F3,EEG.FC5,EEG.T7,EEG.P7,EEG.O1,EEG.O2,EEG.P8,EEG.T8,EEG.FC6,EEG.F4,EEG.F8,EEG.AF4,EEG.RawCq,EEG.Battery,EEG.BatteryPercent,MarkerIndex,MarkerType,MarkerValueInt,EEG.MarkerHardware,CQ.AF3,CQ.F7,CQ.F3,CQ.FC5,CQ.T7,CQ.P7,CQ.O1,CQ.O2,CQ.P8,CQ.T8,CQ.FC6,CQ.F4,CQ.F8,CQ.AF4,CQ.Overall,EQ.SampleRateQuality,EQ.OVERALL,EQ.AF3,EQ.F7,EQ.F3,EQ.FC5,EQ.T7,EQ.P7,EQ.O1,EQ.O2,EQ.P8,EQ.T8,EQ.FC6,EQ.F4,EQ.F8,EQ.AF4
1645708293.386408,73.000000,0.000000,4237.820313,4262.563965,4293.461426,4369.230957,4305.128418,4271.025879,4246.025879,4213.846191,4212.179688,4241.410156,4268.717773,4246.666504,4319.871582,4462.436035,0.000000,4.000000,91.000000,,,,0.000000,4.000000,4.000000,4.000000,4.000000,4.000000,4.000000,4.000000,4.000000,4.000000,4.000000,4.000000,4.000000,4.000000,4.000000,100.000000,,,,,,,,,,,,,,,,
1645708293.390249,74.000000,0.000000,4235.000000,4267.179688,4289.230957,4361.153809,4317.820313,4272.563965,4247.563965,4213.461426,4211.666504,4236.025879,4267.436035,4244.487305,4318.077148,4457.179688,0.000000,4.000000,91.000000,,,,0.000000,4.000000,4.000000,4.000000,4.000000,4.000000,4.000000,4.000000,4.000000,4.000000,4.000000,4.000000,4.000000,4.000000,4.000000,100.000000,,,,,,,,,,,,,,,,
1645708293.394189,75.000000,0.000000,4233.077148,4269.487305,4285.512695,4350.769043,4336.794922,4273.461426,4248.333496,4216.025879,4212.948730,4232.179688,4265.897461,4244.487305,4317.948730,4454.743652,0.000000,4.000000,91.000000,,,,0.000000,4.000000,4.000000,4.000000,4.000000,4.000000,4.000000,4.000000,4.000000,4.000000,4.000000,4.000000,4.000000,4.000000,4.000000,100.000000,,,,,,,,,,,,,,,,
1645708293.398129,76.000000,0.000000,4233.461426,4268.077148,4284.102539,4344.102539,4348.333496,4272.436035,4247.307617,4219.615234,4215.384766,4230.897461,4264.102539,4245.512695,4318.846191,4454.230957,0.000000,4.000000,91.000000,,,,0.000000,4.000000,4.000000,4.000000,4.000000,4.000000,4.000000,4.000000,4.000000,4.000000,4.000000,4.000000,4.000000,4.000000,4.000000,100.000000,,,,,,,,,,,,,,,,
1645708293.402069,77.000000,0.000000,4237.307617,4266.538574,4286.153809,4346.794922,4346.153809,4269.743652,4245.256348,4222.179688,4218.205078,4234.487305,4265.384766,4247.820313,4321.282227,4455.512695,0.000000,4.000000,91.000000,,,,0.000000,4.000000,4.000000,4.000000,4.000000,4.000000,4.000000,4.000000,4.000000,4.000000,4.000000,4.000000,4.000000,4.000000,4.000000,100.000000,,,,,,,,,,,,,,,,
1645708293.406009,78.000000,0.000000,4243.461426,4269.230957,4291.282227,4356.794922,4333.333496,4267.436035,4243.333496,4223.077148,4220.256348,4243.717773,4271.282227,4251.922852,4325.256348,4457.820313,0.000000,4.000000,91.000000,,,,0.000000,4.000000,4.000000,4.000000,4.000000,4.000000,4.000000,4.000000,4.000000,4.000000,4.000000,4.000000,4.000000,4.000000,4.000000,100.000000,,,,,,,,,,,,,,,,
1645708293.409949,79.000000,0.000000,4248.589844,4275.641113,4296.410156,4367.051270,4316.538574,4267.307617,4241.922852,4222.307617,4220.000000,4255.897461,4278.846191,4256.922852,4328.846191,4460.256348,0.000000,4.000000,91.000000,,,,0.000000,4.000000,4.000000,4.000000,4.000000,4.000000,4.000000,4.000000,4.000000,4.000000,4.000000,4.000000,4.000000,4.000000,4.000000,100.000000,,,,,,,,,,,,,,,,
1645708293.413889,80.000000,0.000000,4249.871582,4280.769043,4297.948730,4371.666504,4302.436035,4268.974121,4240.384766,4220.128418,4216.794922,4264.743652,4282.307617,4260.384766,4330.128418,4460.641113,0.000000,4.000000,91.000000,,,,0.000000,4.000000,4.000000,4.000000,4.000000,4.000000,4.000000,4.000000,4.000000,4.000000,4.000000,4.000000,4.000000,4.000000,4.000000,100.000000,,,,,,,,,,,,,,,,
1645708293.417829,81.000000,0.000000,4246.794922,4280.512695,4294.230957,4370.769043,4295.384766,4270.769043,4237.563965,4216.153809,4211.538574,4264.871582,4278.461426,4260.000000,4327.948730,4457.820313,0.000000,4.000000,91.000000,,,,0.000000,4.000000,4.000000,4.000000,4.000000,4.000000,4.000000,4.000000,4.000000,4.000000,4.000000,4.000000,4.000000,4.000000,4.000000,100.000000,,,,,,,,,,,,,,,,
1645708293.421769,82.000000,0.000000,4241.538574,4274.615234,4286.282227,4368.461426,4296.666504,4271.025879,4233.333496,4210.000000,4206.922852,4254.743652,4269.615234,4255.897461,4323.461426,4452.948730,0.000000,4.000000,91.000000,,,,0.000000,4.000000,4.000000,4.000000,4.000000,4.000000,4.000000,4.000000,4.000000,4.000000,4.000000,4.000000,4.000000,4.000000,4.000000,100.000000,1.000000,25.000000,4.000000,3.000000,3.000000,1.000000,1.000000,4.000000,4.000000,4.000000,4.000000,4.000000,3.000000,4.000000,4.000000,1.000000
1645708293.425710,83.000000,0.000000,4237.563965,4267.436035,4278.846191,4367.307617,4304.615234,4269.102539,4228.589844,4203.846191,4205.000000,4239.487305,4262.179688,4250.641113,4318.974121,4449.102539,0.000000,4.000000,91.000000,,,,0.000000,4.000000,4.000000,4.000000,4.000000,4.000000,4.000000,4.000000,4.000000,4.000000,4.000000,4.000000,4.000000,4.000000,4.000000,100.000000,,,,,,,,,,,,,,,,
1645708293.429650,84.000000,0.000000,4237.436035,4264.615234,4276.922852,4366.794922,4315.128418,4266.282227,4225.769043,4200.641113,4206.666504,4228.205078,4262.179688,4248.205078,4317.436035,4449.102539,0.000000,4.000000,91.000000,,,,0.000000,4.000000,4.000000,4.000000,4.000000,4.000000,4.000000,4.000000,4.000000,4.000000,4.000000,4.000000,4.000000,4.000000,4.000000,100.000000,,,,,,,,,,,,,,,,
1645708293.433590,85.000000,0.000000,4241.922852,4268.205078,4282.179688,4365.897461,4324.102539,4264.743652,4226.153809,4202.820313,4211.538574,4228.333496,4270.641113,4251.410156,4320.384766,4453.717773,0.000000,4.000000,91.000000,,,,0.000000,4.000000,4.000000,4.000000,4.000000,4.000000,4.000000,4.000000,4.000000,4.000000,4.000000,4.000000,4.000000,4.000000,4.000000,100.000000,,,,,,,,,,,,,,,,
1645708293.437530,86.000000,0.000000,4249.358887,4275.384766,4291.410156,4366.153809,4328.846191,4266.282227,4229.615234,4209.358887,4217.307617,4241.025879,4283.974121,4259.230957,4327.307617,4460.769043,0.000000,4.000000,91.000000,,,,0.000000,4.000000,4.000000,4.000000,4.000000,4.000000,4.000000,4.000000,4.000000,4.000000,4.000000,4.000000,4.000000,4.000000,4.000000,100.000000,,,,,,,,,,,,,,,,
1645708293.441470,87.000000,0.000000,4256.282227,4281.282227,4298.461426,4369.102539,4329.102539,4270.384766,4233.846191,4216.410156,4221.153809,4259.230957,4295.641113,4267.563965,4334.743652,4466.153809,0.000000,4.000000,91.000000,,,,0.000000,4.000000,4.000000,4.000000,4.000000,4.000000,4.000000,4.000000,4.000000,4.000000,4.000000,4.000000,4.000000,4.000000,4.000000,100.000000,,,,,,,,,,,,,,,,
1645708293.445410,88.000000,0.000000,4259.358887,4282.307617,4299.487305,4373.589844,4326.025879,4274.102539,4236.410156,4219.871582,4221.025879,4271.025879,4300.512695,4271.794922,4338.333496,4466.666504,0.000000,4.000000,91.000000,,,,0.000000,4.000000,4.000000,4.000000,4.000000,4.000000,4.000000,4.000000,4.000000,4.000000,4.000000,4.000000,4.000000,4.000000,4.000000,100.000000,,,,,,,,,,,,,,,,
1645708293.449350,89.000000,0.000000,4257.563965,4278.205078,4295.128418,4374.871582,4320.512695,4274.743652,4236.410156,4218.846191,4217.563965,4268.333496,4297.051270,4270.512695,4335.256348,4461.538574,0.000000,4.000000,91.000000,,,,0.000000,4.000000,4.000000,4.000000,4.000000,4.000000,4.000000,4.000000,4.000000,4.000000,4.000000,4.000000,4.000000,4.000000,4.000000,100.000000,,,,,,,,,,,,,,,,
1645708293.453290,90.000000,0.000000,4252.563965,4272.563965,4289.615234,4369.871582,4313.333496,4272.692383,4235.384766,4215.384766,4213.717773,4253.461426,4288.205078,4265.128418,4327.307617,4453.205078,0.000000,4.000000,91.000000,,,,0.000000,4.000000,4.000000,4.000000,4.000000,4.000000,4.000000,4.000000,4.000000,4.000000,4.000000,4.000000,4.000000,4.000000,4.000000,100.000000,,,,,,,,,,,,,,,,
1645708293.457230,91.000000,0.000000,4248.205078,4270.384766,4287.307617,4361.666504,4304.615234,4270.384766,4235.256348,4213.461426,4212.436035,4237.563965,4279.230957,4259.230957,4318.974121,4445.769043,0.000000,4.000000,91.000000,,,,0.000000,4.000000,4.000000,4.000000,4.000000,4.000000,4.000000,4.000000,4.000000,4.000000,4.000000,4.000000,4.000000,4.000000,4.000000,100.000000,,,,,,,,,,,,,,,,
1645708293.461071,92.000000,0.000000,4248.333496,4273.846191,4289.487305,4356.538574,4295.641113,4270.000000,4236.025879,4215.000000,4214.230957,4232.436035,4273.974121,4255.769043,4314.743652,4441.922852,0.000000,4.000000,91.000000,,,,0.000000,4.000000,4.000000,4.000000,4.000000,4.000000,4.000000,4.000000,4.000000,4.000000,4.000000,4.000000,4.000000,4.000000,4.000000,100.000000,,,,,,,,,,,,,,,,
1645708293.465011,93.000000,0.000000,4252.692383,4280.000000,4293.717773,4358.717773,4289.230957,4271.025879,4236.153809,4218.461426,4216.666504,4239.743652,4272.051270,4254.615234,4314.871582,4440.769043,0.000000,4.000000,91.000000,,,,0.000000,4.000000,4.000000,4.000000,4.000000,4.000000,4.000000,4.000000,4.000000,4.000000,4.000000,4.000000,4.000000,4.000000,4.000000,100.000000,,,,,,,,,,,,,,,,
1645708293.468951,94.000000,0.000000,4256.666504,4281.794922,4295.384766,4365.897461,4288.974121,4270.769043,4234.615234,4220.769043,4217.307617,4250.769043,4270.384766,4253.461426,4316.666504,4438.589844,0.000000,4.000000,91.000000,,,,0.000000,4.000000,4.000000,4.000000,4.000000,4.000000,4.000000,4.000000,4.000000,4.000000,4.000000,4.000000,4.000000,4.000000,4.000000,100.000000,,,,,,,,,,,,,,,,
1645708293.472891,95.000000,0.000000,4255.384766,4274.743652,4291.666504,4372.436035,4295.512695,4267.820313,4231.794922,4219.871582,4215.641113,4254.871582,4266.666504,4249.871582,4316.410156,4432.436035,0.000000,4.000000,91.000000,,,,0.000000,4.000000,4.000000,4.000000,4.000000,4.000000,4.000000,4.000000,4.000000,4.000000,4.000000,4.000000,4.000000,4.000000,4.000000,100.000000,,,,,,,,,,,,,,,,
1645708293.476831,96.000000,0.000000,4248.461426,4261.666504,4283.846191,4373.589844,4305.256348,4263.717773,4229.871582,4216.666504,4213.589844,4248.717773,4262.307617,4244.230957,4312.307617,4423.461426,0.000000,4.000000,91.000000,,,,0.000000,4.000000,4.000000,4.000000,4.000000,4.000000,4.000000,4.000000,4.000000,4.000000,4.000000,4.000000,4.000000,4.000000,4.000000,100.000000,,,,,,,,,,,,,,,,
1645708293.480771,97.000000,0.000000,4240.512695,4251.282227,4276.153809,4369.615234,4312.692383,4262.563965,4230.256348,4214.615234,4213.333496,4238.205078,4260.000000,4239.615234,4305.897461,4415.512695,0.000000,4.000000,91.000000,,,,0.000000,4.000000,4.000000,4.000000,4.000000,4.000000,4.000000,4.000000,4.000000,4.000000,4.000000,4.000000,4.000000,4.000000,4.000000,100.000000,,,,,,,,,,,,,,,,
1645708293.484711,98.000000,0.000000,4236.922852,4250.641113,4272.692383,4364.743652,4313.846191,4266.538574,4232.948730,4215.641113,4215.128418,4232.179688,4261.410156,4238.846191,4300.000000,4412.051270,0.000000,4.000000,91.000000,,,,0.000000,4.000000,4.000000,4.000000,4.000000,4.000000,4.000000,4.000000,4.000000,4.000000,4.000000,4.000000,4.000000,4.000000,4.000000,100.000000,,,,,,,,,,,,,,,,
1645708293.488651,99.000000,0.000000,4239.102539,4259.615234,4273.717773,4362.948730,4308.846191,4273.974121,4236.794922,4218.846191,4217.179688,4233.077148,4264.230957,4241.410156,4296.538574,4412.692383,0.000000,4.000000,91.000000,,,,0.000000,4.000000,4.000000,4.000000,4.000000,4.000000,4.000000,4.000000,4.000000,4.000000,4.000000,4.000000,4.000000,4.000000,4.000000,100.000000,,,,,,,,,,,,,,,,
1645708293.492591,100.000000,0.000000,4244.358887,4271.025879,4276.794922,4363.589844,4301.025879,4280.256348,4239.487305,4221.538574,4217.820313,4236.666504,4265.000000,4243.846191,4294.871582,4412.948730,0.000000,4.000000,91.000000,,,,0.000000,4.000000,4.000000,4.000000,4.000000,4.000000,4.000000,4.000000,4.000000,4.000000,4.000000,4.000000,4.000000,4.000000,4.000000,100.000000,,,,,,,,,,,,,,,,
1645708293.496532,101.000000,0.000000,4248.974121,4276.794922,4278.846191,4363.461426,4293.846191,4281.538574,4239.230957,4221.538574,4216.282227,4236.922852,4261.666504,4242.692383,4293.205078,4409.102539,0.000000,4.000000,91.000000,,,,0.000000,4.000000,4.000000,4.000000,4.000000,4.000000,4.000000,4.000000,4.000000,4.000000,4.000000,4.000000,4.000000,4.000000,4.000000,100.000000,,,,,,,,,,,,,,,,
1645708293.500472,102.000000,0.000000,4250.897461,4274.615234,4278.461426,4361.153809,4290.897461,4277.820313,4235.897461,4218.589844,4213.974121,4232.948730,4256.025879,4237.692383,4290.641113,4401.666504,0.000000,4.000000,91.000000,,,,0.000000,4.000000,4.000000,4.000000,4.000000,4.000000,4.000000,4.000000,4.000000,4.000000,4.000000,4.000000,4.000000,4.000000,4.000000,100.000000,,,,,,,,,,,,,,,,
1645708293.504412,103.000000,0.000000,4250.384766,4268.846191,4276.410156,4359.615234,4293.974121,4271.922852,4231.666504,4214.230957,4212.563965,4229.358887,4252.307617,4232.307617,4288.846191,4395.384766,0.000000,4.000000,91.000000,,,,0.000000,4.000000,4.000000,4.000000,4.000000,4.000000,4.000000,4.000000,4.000000,4.000000,4.000000,4.000000,4.000000,4.000000,4.000000,100.000000,,,,,,,,,,,,,,,,
1645708293.508352,104.000000,0.000000,4249.615234,4265.512695,4274.743652,4362.692383,4302.051270,4267.179688,4229.230957,4211.410156,4213.333496,4231.153809,4254.358887,4231.153809,4290.128418,4394.743652,0.000000,4.000000,91.000000,,,,0.000000,4.000000,4.000000,4.000000,4.000000,4.000000,4.000000,4.000000,4.000000,4.000000,4.000000,4.000000,4.000000,4.000000,4.000000,100.000000,,,,,,,,,,,,,,,,
1645708293.512292,105.000000,0.000000,4250.641113,4267.307617,4275.512695,4370.384766,4311.153809,4265.512695,4230.256348,4212.820313,4216.025879,4239.487305,4262.820313,4236.794922,4295.128418,4400.769043,0.000000,4.000000,91.000000,,,,0.000000,4.000000,4.000000,4.000000,4.000000,4.000000,4.000000,4.000000,4.000000,4.000000,4.000000,4.000000,4.000000,4.000000,4.000000,100.000000,,,,,,,,,,,,,,,,
1645708293.516232,106.000000,0.000000,4254.358887,4272.307617,4279.615234,4377.307617,4316.538574,4266.794922,4233.461426,4218.589844,4219.102539,4249.743652,4274.743652,4246.922852,4302.051270,4410.256348,0.000000,4.000000,91.000000,,,,0.000000,4.000000,4.000000,4.000000,4.000000,4.000000,4.000000,4.000000,4.000000,4.000000,4.000000,4.000000,4.000000,4.000000,4.000000,100.000000,,,,,,,,,,,,,,,,
1645708293.520172,107.000000,0.000000,4260.000000,4275.384766,4286.025879,4377.563965,4314.743652,4268.974121,4236.153809,4226.282227,4221.153809,4256.282227,4284.102539,4255.897461,4307.820313,4417.820313,0.000000,4.000000,91.000000,,,,0.000000,4.000000,4.000000,4.000000,4.000000,4.000000,4.000000,4.000000,4.000000,4.000000,4.000000,4.000000,4.000000,4.000000,4.000000,100.000000,,,,,,,,,,,,,,,,
1645708293.524112,108.000000,0.000000,4265.641113,4272.948730,4292.051270,4370.256348,4306.025879,4269.615234,4236.666504,4231.538574,4221.538574,4255.384766,4286.153809,4258.974121,4309.871582,4418.846191,0.000000,4.000000,91.000000,,,,0.000000,4.000000,4.000000,4.000000,4.000000,4.000000,4.000000,4.000000,4.000000,4.000000,4.000000,4.000000,4.000000,4.000000,4.000000,100.000000,,,,,,,,,,,,,,,,
1645708293.528052,109.000000,0.000000,4268.974121,4265.256348,4295.000000,4361.538574,4293.717773,4268.205078,4234.743652,4231.922852,4220.641113,4248.589844,4279.743652,4255.512695,4307.436035,4412.436035,0.000000,4.000000,91.000000,,,,0.000000,4.000000,4.000000,4.000000,4.000000,4.000000,4.000000,4.000000,4.000000,4.000000,4.000000,4.000000,4.000000,4.000000,4.000000,100.000000,,,,,,,,,,,,,,,,
1645708293.531893,110.000000,0.000000,4268.846191,4257.948730,4293.589844,4360.000000,4284.615234,4266.410156,4232.051270,4227.692383,4219.358887,4240.641113,4269.358887,4249.102539,4302.692383,4402.948730,0.000000,4.000000,91.000000,,,,0.000000,4.000000,4.000000,4.000000,4.000000,4.000000,4.000000,4.000000,4.000000,4.000000,4.000000,4.000000,4.000000,4.000000,4.000000,100.000000,,,,,,,,,,,,,,,,
1645708293.535833,111.000000,0.000000,4266.538574,4257.563965,4288.717773,4368.461426,4285.000000,4266.666504,4230.641113,4222.820313,4218.589844,4237.179688,4261.666504,4244.615234,4299.230957,4396.153809,0.000000,4.000000,91.000000,,,,0.000000,4.000000,4.000000,4.000000,4.000000,4.000000,4.000000,4.000000,4.000000,4.000000,4.000000,4.000000,4.000000,4.000000,4.000000,100.000000,,,,,,,,,,,,,,,,
1645708293.539773,112.000000,0.000000,4263.846191,4264.871582,4281.922852,4380.256348,4295.384766,4269.102539,4230.641113,4220.897461,4218.461426,4239.358887,4261.025879,4244.230957,4299.487305,4395.384766,0.000000,4.000000,91.000000,,,,0.000000,4.000000,4.000000,4.000000,4.000000,4.000000,4.000000,4.000000,4.000000,4.000000,4.000000,4.000000,4.000000,4.000000,4.000000,100.000000,,,,,,,,,,,,,,,,
1645708293.543713,113.000000,0.000000,4261.025879,4272.948730,4275.769043,4383.717773,4308.333496,4271.410156,4230.897461,4222.948730,4218.846191,4244.487305,4266.922852,4246.922852,4302.820313,4398.846191,0.000000,4.000000,91.000000,,,,0.000000,4.000000,4.000000,4.000000,4.000000,4.000000,4.000000,4.000000,4.000000,4.000000,4.000000,4.000000,4.000000,4.000000,4.000000,100.000000,,,,,,,,,,,,,,,,
1645708293.547653,114.000000,0.000000,4258.205078,4273.333496,4272.692383,4373.846191,4313.461426,4270.128418,4230.128418,4227.692383,4219.230957,4247.179688,4273.846191,4249.358887,4306.153809,4401.282227,0.000000,4.000000,91.000000,,,,0.000000,4.000000,4.000000,4.000000,4.000000,4.000000,4.000000,4.000000,4.000000,4.000000,4.000000,4.000000,4.000000,4.000000,4.000000,100.000000,,,,,,,,,,,,,,,,
1645708293.551593,115.000000,0.000000,4256.794922,4264.487305,4274.743652,4357.051270,4305.512695,4264.615234,4229.487305,4232.563965,4219.230957,4244.615234,4277.051270,4249.615234,4306.922852,4400.000000,0.000000,4.000000,91.000000,,,,0.000000,4.000000,4.000000,4.000000,4.000000,4.000000,4.000000,4.000000,4.000000,4.000000,4.000000,4.000000,4.000000,4.000000,4.000000,100.000000,,,,,,,,,,,,,,,,
1645708293.555533,116.000000,0.000000,4258.461426,4254.487305,4281.538574,4345.128418,4288.589844,4258.077148,4230.512695,4235.256348,4218.717773,4238.846191,4275.512695,4248.461426,4305.128418,4396.282227,0.000000,4.000000,91.000000,,,,0.000000,4.000000,4.000000,4.000000,4.000000,4.000000,4.000000,4.000000,4.000000,4.000000,4.000000,4.000000,4.000000,4.000000,4.000000,100.000000,,,,,,,,,,,,,,,,
1645708293.559473,117.000000,0.000000,4263.333496,4252.179688,4289.743652,4345.897461,4274.230957,4255.512695,4233.589844,4234.487305,4218.077148,4234.230957,4271.794922,4247.563965,4302.563965,4393.205078,0.000000,4.000000,91.000000,,,,0.000000,4.000000,4.000000,4.000000,4.000000,4.000000,4.000000,4.000000,4.000000,4.000000,4.000000,4.000000,4.000000,4.000000,4.000000,100.000000,,,,,,,,,,,,,,,,
1645708293.563413,118.000000,0.000000,4268.333496,4259.615234,4293.846191,4357.563965,4271.538574,4259.615234,4237.436035,4230.641113,4217.563965,4233.589844,4268.205078,4247.179688,4300.641113,4391.538574,0.000000,4.000000,91.000000,,,,0.000000,4.000000,4.000000,4.000000,4.000000,4.000000,4.000000,4.000000,4.000000,4.000000,4.000000,4.000000,4.000000,4.000000,4.000000,100.000000,,,,,,,,,,,,,,,,
1645708293.567354,119.000000,0.000000,4269.615234,4268.717773,4290.000000,4371.794922,4280.000000,4268.077148,4239.358887,4225.128418,4216.794922,4234.871582,4265.000000,4244.615234,4298.461426,4388.205078,0.000000,4.000000,91.000000,,,,0.000000,4.000000,4.000000,4.000000,4.000000,4.000000,4.000000,4.000000,4.000000,4.000000,4.000000,4.000000,4.000000,4.000000,4.000000,100.000000,,,,,,,,,,,,,,,,
1645708293.571294,120.000000,0.000000,4265.641113,4269.871582,4279.743652,4378.974121,4289.743652,4275.128418,4238.205078,4220.256348,4215.128418,4234.743652,4260.384766,4237.948730,4293.974121,4380.128418,0.000000,4.000000,91.000000,,,,0.000000,4.000000,4.000000,4.000000,4.000000,4.000000,4.000000,4.000000,4.000000,4.000000,4.000000,4.000000,4.000000,4.000000,4.000000,100.000000,,,,,,,,,,,,,,,,
1645708293.575234,121.000000,0.000000,4259.102539,4260.897461,4268.846191,4374.871582,4291.282227,4276.538574,4235.384766,4217.692383,4212.948730,4231.794922,4254.743652,4228.333496,4287.051270,4368.846191,0.000000,4.000000,91.000000,,,,0.000000,4.000000,4.000000,4.000000,4.000000,4.000000,4.000000,4.000000,4.000000,4.000000,4.000000,4.000000,4.000000,4.000000,4.000000,100.000000,,,,,,,,,,,,,,,,
1645708293.579174,122.000000,0.000000,4255.128418,4248.717773,4263.333496,4363.333496,4284.615234,4272.179688,4232.948730,4217.307617,4211.538574,4228.461426,4250.512695,4220.128418,4280.641113,4360.128418,0.000000,4.000000,91.000000,,,,0.000000,4.000000,4.000000,4.000000,4.000000,4.000000,4.000000,4.000000,4.000000,4.000000,4.000000,4.000000,4.000000,4.000000,4.000000,100.000000,,,,,,,,,,,,,,,,
1645708293.583114,123.000000,0.000000,4257.051270,4243.974121,4265.256348,4353.333496,4277.563965,4265.512695,4231.666504,4217.179688,4212.307617,4227.436035,4250.384766,4217.436035,4277.692383,4358.589844,0.000000,4.000000,91.000000,,,,0.000000,4.000000,4.000000,4.000000,4.000000,4.000000,4.000000,4.000000,4.000000,4.000000,4.000000,4.000000,4.000000,4.000000,4.000000,100.000000,,,,,,,,,,,,,,,,
1645708293.587054,124.000000,0.000000,4263.974121,4251.153809,4271.922852,4351.538574,4277.051270,4259.743652,4230.384766,4215.256348,4214.615234,4228.589844,4253.717773,4220.641113,4278.717773,4363.077148,0.000000,4.000000,91.000000,,,,0.000000,4.000000,4.000000,4.000000,4.000000,4.000000,4.000000,4.000000,4.000000,4.000000,4.000000,4.000000,4.000000,4.000000,4.000000,100.000000,,,,,,,,,,,,,,,,
1645708293.590994,125.000000,0.000000,4271.282227,4265.512695,4278.077148,4357.307617,4282.179688,4255.897461,4228.333496,4210.897461,4215.641113,4228.205078,4257.051270,4226.410156,4280.769043,4367.820313,0.000000,4.000000,91.000000,,,,0.000000,4.000000,4.000000,4.000000,4.000000,4.000000,4.000000,4.000000,4.000000,4.000000,4.000000,4.000000,4.000000,4.000000,4.000000,100.000000,,,,,,,,,,,,,,,,
1645708293.594934,126.000000,0.000000,4274.743652,4277.051270,4280.128418,4363.461426,4286.922852,4253.333496,4226.025879,4205.769043,4212.436035,4223.589844,4257.820313,4230.641113,4281.282227,4367.692383,0.000000,4.000000,91.000000,,,,0.000000,4.000000,4.000000,4.000000,4.000000,4.000000,4.000000,4.000000,4.000000,4.000000,4.000000,4.000000,4.000000,4.000000,4.000000,100.000000,,,,,,,,,,,,,,,,
1645708293.598874,127.000000,0.000000,4273.846191,4279.487305,4277.948730,4363.846191,4286.538574,4252.051270,4224.871582,4202.307617,4205.769043,4215.897461,4256.282227,4231.666504,4280.000000,4362.563965,0.000000,4.000000,91.000000,,,,0.000000,4.000000,4.000000,4.000000,4.000000,4.000000,4.000000,4.000000,4.000000,4.000000,4.000000,4.000000,4.000000,4.000000,4.000000,100.000000,,,,,,,,,,,,,,,,
1645708293.602715,128.000000,0.000000,4271.153809,4274.487305,4274.102539,4358.589844,4281.282227,4253.333496,4226.153809,4202.436035,4199.743652,4210.384766,4254.743652,4230.897461,4278.974121,4356.025879,3287.000000,4.000000,91.000000,,,,0.000000,4.000000,4.000000,4.000000,4.000000,4.000000,4.000000,4.000000,4.000000,4.000000,4.000000,4.000000,4.000000,4.000000,4.000000,100.000000,,,,,,,,,,,,,,,,
1645708293.606655,129.000000,0.000000,4269.615234,4267.948730,4271.410156,4352.051270,4274.871582,4257.692383,4229.487305,4206.153809,4198.846191,4211.666504,4254.358887,4230.769043,4279.102539,4351.538574,3366.000000,4.000000,91.000000,,,,0.000000,4.000000,4.000000,4.000000,4.000000,4.000000,4.000000,4.000000,4.000000,4.000000,4.000000,4.000000,4.000000,4.000000,4.000000,100.000000,,,,,,,,,,,,,,,,
1645708293.610595,130.000000,0.000000,4269.871582,4264.615234,4270.256348,4348.333496,4272.948730,4262.820313,4233.333496,4211.666504,4203.205078,4219.358887,4253.974121,4231.410156,4280.128418,4349.615234,3512.000000,4.000000,91.000000,,,,0.000000,4.000000,4.000000,4.000000,4.000000,4.000000,4.000000,4.000000,4.000000,4.000000,4.000000,4.000000,4.000000,4.000000,4.000000,100.000000,,,,,,,,,,,,,,,,
1645708293.614535,131.000000,0.000000,4270.897461,4264.871582,4269.230957,4348.461426,4278.205078,4265.897461,4236.666504,4217.051270,4209.615234,4228.205078,4253.077148,4231.922852,4280.769043,4348.974121,3369.000000,4.000000,91.000000,,,,0.000000,4.000000,4.000000,4.000000,4.000000,4.000000,4.000000,4.000000,4.000000,4.000000,4.000000,4.000000,4.000000,4.000000,4.000000,100.000000,,,,,,,,,,,,,,,,
1645708293.618475,132.000000,0.000000,4272.307617,4265.769043,4267.307617,4350.512695,4288.205078,4265.769043,4239.358887,4221.538574,4214.230957,4233.589844,4253.077148,4230.897461,4280.769043,4348.333496,3619.000000,4.000000,91.000000,,,,0.000000,4.000000,4.000000,4.000000,4.000000,4.000000,4.000000,4.000000,4.000000,4.000000,4.000000,4.000000,4.000000,4.000000,4.000000,100.000000,,,,,,,,,,,,,,,,
1645708293.622415,133.000000,0.000000,4273.846191,4265.384766,4265.128418,4352.563965,4295.512695,4264.615234,4242.051270,4225.641113,4215.641113,4234.487305,4255.897461,4228.846191,4280.512695,4347.563965,3434.000000,4.000000,91.000000,,,,0.000000,4.000000,4.000000,4.000000,4.000000,4.000000,4.000000,4.000000,4.000000,4.000000,4.000000,4.000000,4.000000,4.000000,4.000000,100.000000,,,,,,,,,,,,,,,,
1645708293.626355,134.000000,0.000000,4275.000000,4263.846191,4263.717773,4352.436035,4291.538574,4264.615234,4245.000000,4229.102539,4214.871582,4233.333496,4259.358887,4226.153809,4279.358887,4346.666504,3180.000000,4.000000,91.000000,,,,0.000000,4.000000,4.000000,4.000000,4.000000,4.000000,4.000000,4.000000,4.000000,4.000000,4.000000,4.000000,4.000000,4.000000,4.000000,100.000000,,,,,,,,,,,,,,,,
1645708293.630295,135.000000,0.000000,4274.102539,4261.282227,4263.333496,4348.205078,4273.846191,4266.282227,4247.179688,4230.769043,4213.205078,4232.051270,4258.846191,4222.692383,4276.153809,4343.974121,2712.000000,4.000000,91.000000,,,,0.000000,4.000000,4.000000,4.000000,4.000000,4.000000,4.000000,4.000000,4.000000,4.000000,4.000000,4.000000,4.000000,4.000000,4.000000,100.000000,,,,,,,,,,,,,,,,
1645708293.634235,136.000000,0.000000,4269.615234,4258.333496,4262.436035,4338.589844,4250.512695,4267.948730,4247.307617,4228.974121,4211.025879,4230.256348,4251.922852,4217.948730,4269.615234,4338.333496,1532.000000,4.000000,91.000000,,,,0.000000,4.000000,4.000000,4.000000,4.000000,4.000000,4.000000,4.000000,4.000000,4.000000,4.000000,4.000000,4.000000,4.000000,4.000000,100.000000,,,,,,,,,,,,,,,,
1645708293.638176,137.000000,0.000000,4262.307617,4256.410156,4259.230957,4326.282227,4237.307617,4268.717773,4244.743652,4223.974121,4208.333496,4226.282227,4241.025879,4212.051270,4260.897461,4330.256348,3297.000000,4.000000,91.000000,,,,0.000000,4.000000,4.000000,4.000000,4.000000,4.000000,4.000000,4.000000,4.000000,4.000000,4.000000,4.000000,4.000000,4.000000,4.000000,100.000000,,,,,,,,,,,,,,,,
1645708293.642116,138.000000,0.000000,4256.153809,4257.307617,4254.102539,4317.436035,4246.025879,4268.974121,4240.769043,4218.461426,4205.897461,4220.769043,4232.051270,4206.666504,4254.102539,4322.820313,2769.000000,4.000000,91.000000,,,,0.000000,4.000000,4.000000,4.000000,4.000000,4.000000,4.000000,4.000000,4.000000,4.000000,4.000000,4.000000,4.000000,4.000000,4.000000,100.000000,,,,,,,,,,,,,,,,
1645708293.646056,139.000000,0.000000,4255.128418,4261.794922,4250.384766,4318.205078,4272.820313,4269.358887,4237.692383,4216.538574,4205.000000,4216.538574,4229.615234,4203.205078,4253.205078,4319.230957,3437.000000,4.000000,91.000000,,,,0.000000,4.000000,4.000000,4.000000,4.000000,4.000000,4.000000,4.000000,4.000000,4.000000,4.000000,4.000000,4.000000,4.000000,4.000000,100.000000,,,,,,,,,,,,,,,,
1645708293.649996,140.000000,0.000000,4260.512695,4267.948730,4251.538574,4329.358887,4300.512695,4269.743652,4237.948730,4220.128418,4206.153809,4216.538574,4233.846191,4203.077148,4258.974121,4320.641113,3282.000000,4.000000,91.000000,,,,0.000000,4.000000,4.000000,4.000000,4.000000,4.000000,4.000000,4.000000,4.000000,4.000000,4.000000,4.000000,4.000000,4.000000,4.000000,100.000000,,,,,,,,,,,,,,,,
1645708293.653936,141.000000,0.000000,4269.102539,4272.563965,4257.948730,4344.615234,4312.436035,4270.000000,4241.666504,4227.563965,4208.846191,4221.410156,4240.897461,4206.666504,4268.333496,4325.641113,3296.000000,4.000000,91.000000,,,,0.000000,4.000000,4.000000,4.000000,4.000000,4.000000,4.000000,4.000000,4.000000,4.000000,4.000000,4.000000,4.000000,4.000000,4.000000,100.000000,,,,,,,,,,,,,,,,
1645708293.657876,142.000000,0.000000,4277.179688,4273.974121,4266.410156,4355.384766,4305.384766,4270.128418,4246.410156,4233.974121,4211.666504,4228.717773,4246.922852,4212.563965,4276.410156,4331.538574,2769.000000,4.000000,91.000000,,,,0.000000,4.000000,4.000000,4.000000,4.000000,4.000000,4.000000,4.000000,4.000000,4.000000,4.000000,4.000000,4.000000,4.000000,4.000000,100.000000,,,,,,,,,,,,,,,,
1645708293.661816,143.000000,0.000000,4282.307617,4273.077148,4273.077148,4356.282227,4290.000000,4270.641113,4249.871582,4236.282227,4213.077148,4235.000000,4250.512695,4219.487305,4280.384766,4336.153809,3437.000000,4.000000,91.000000,,,,0.000000,4.000000,4.000000,4.000000,4.000000,4.000000,4.000000,4.000000,4.000000,4.000000,4.000000,4.000000,4.000000,4.000000,4.000000,100.000000,,,,,,,,,,,,,,,,
1645708293.665856,144.000000,0.000000,4284.487305,4272.436035,4276.282227,4348.205078,4278.974121,4272.179688,4250.641113,4235.000000,4212.948730,4237.948730,4253.205078,4225.897461,4280.384766,4338.333496,3282.000000,4.000000,91.000000,,,,0.000000,4.000000,4.000000,4.000000,4.000000,4.000000,4.000000,4.000000,4.000000,4.000000,4.000000,4.000000,4.000000,4.000000,4.000000,100.000000,,,,,,,,,,,,,,,,
1645708293.669796,145.000000,0.000000,4285.256348,4273.846191,4277.051270,4336.538574,4277.179688,4275.512695,4250.000000,4233.205078,4212.563965,4238.589844,4256.410156,4231.282227,4279.487305,4337.820313,3296.000000,4.000000,91.000000,,,,0.000000,4.000000,4.000000,4.000000,4.000000,4.000000,4.000000,4.000000,4.000000,4.000000,4.000000,4.000000,4.000000,4.000000,4.000000,100.000000,,,,,,,,,,,,,,,,
1645708293.673736,146.000000,0.000000,4285.769043,4277.051270,4276.794922,4328.333496,4280.256348,4280.000000,4249.871582,4233.205078,4213.461426,4239.615234,4260.256348,4235.128418,4280.128418,4335.512695,2769.000000,4.000000,91.000000,,,,0.000000,4.000000,4.000000,4.000000,4.000000,4.000000,4.000000,4.000000,4.000000,4.000000,4.000000,4.000000,4.000000,4.000000,4.000000,100.000000,,,,,,,,,,,,,,,,
1645708293.677676,147.000000,0.000000,4286.153809,4280.128418,4276.410156,4327.820313,4280.641113,4283.589844,4250.512695,4234.358887,4216.025879,4243.205078,4263.333496,4236.666504,4282.948730,4332.436035,3437.000000,4.000000,91.000000,1,1,3,0.000000,4.000000,4.000000,4.000000,4.000000,4.000000,4.000000,4.000000,4.000000,4.000000,4.000000,4.000000,4.000000,4.000000,4.000000,100.000000,,,,,,,,,,,,,,,,
1645708293.681617,148.000000,0.000000,4286.282227,4280.641113,4275.769043,4334.358887,4275.769043,4283.461426,4250.256348,4235.256348,4219.102539,4247.820313,4264.615234,4236.153809,4285.641113,4330.000000,3282.000000,4.000000,91.000000,,,,0.000000,4.000000,4.000000,4.000000,4.000000,4.000000,4.000000,4.000000,4.000000,4.000000,4.000000,4.000000,4.000000,4.000000,4.000000,100.000000,,,,,,,,,,,,,,,,
1645708293.685557,149.000000,0.000000,4286.410156,4277.436035,4275.256348,4342.179688,4270.256348,4278.461426,4248.077148,4235.641113,4220.769043,4250.000000,4264.743652,4233.589844,4286.153809,4329.230957,3296.000000,4.000000,91.000000,,,,0.000000,4.000000,4.000000,4.000000,4.000000,4.000000,4.000000,4.000000,4.000000,4.000000,4.000000,4.000000,4.000000,4.000000,4.000000,100.000000,,,,,,,,,,,,,,,,
1645708293.689497,150.000000,0.000000,4286.666504,4271.794922,4275.384766,4345.641113,4271.794922,4270.256348,4244.230957,4236.025879,4220.256348,4246.538574,4264.358887,4229.871582,4283.205078,4330.128418,2769.000000,4.000000,91.000000,,,,0.000000,4.000000,4.000000,4.000000,4.000000,4.000000,4.000000,4.000000,4.000000,4.000000,4.000000,4.000000,4.000000,4.000000,4.000000,100.000000,,,,,,,,,,,,,,,,
1645708293.693437,151.000000,0.000000,4287.563965,4267.179688,4276.538574,4343.846191,4282.436035,4263.846191,4240.512695,4236.922852,4218.461426,4238.589844,4263.589844,4225.897461,4278.333496,4331.538574,3437.000000,4.000000,91.000000,,,,0.000000,4.000000,4.000000,4.000000,4.000000,4.000000,4.000000,4.000000,4.000000,4.000000,4.000000,4.000000,4.000000,4.000000,4.000000,100.000000,,,,,,,,,,,,,,,,
1645708293.697377,152.000000,0.000000,4288.717773,4267.436035,4278.077148,4340.641113,4294.615234,4263.205078,4238.717773,4237.051270,4217.051270,4230.769043,4261.666504,4222.692383,4273.333496,4331.922852,3282.000000,4.000000,91.000000,,,,0.000000,4.000000,4.000000,4.000000,4.000000,4.000000,4.000000,4.000000,4.000000,4.000000,4.000000,4.000000,4.000000,4.000000,4.000000,100.000000,,,,,,,,,,,,,,,,
1645708293.701317,153.000000,0.000000,4288.589844,4273.077148,4279.102539,4339.871582,4298.589844,4268.333496,4239.230957,4235.256348,4216.794922,4227.051270,4257.820313,4220.897461,4269.487305,4330.000000,3296.000000,4.000000,91.000000,,,,0.000000,4.000000,4.000000,4.000000,4.000000,4.000000,4.000000,4.000000,4.000000,4.000000,4.000000,4.000000,4.000000,4.000000,4.000000,100.000000,,,,,,,,,,,,,,,,
1645708293.705257,154.000000,0.000000,4285.897461,4281.153809,4278.974121,4342.692383,4291.538574,4274.615234,4240.897461,4231.666504,4216.538574,4228.205078,4252.307617,4220.384766,4266.538574,4326.153809,2769.000000,4.000000,91.000000,,,,0.000000,4.000000,4.000000,4.000000,4.000000,4.000000,4.000000,4.000000,4.000000,4.000000,4.000000,4.000000,4.000000,4.000000,4.000000,100.000000,,,,,,,,,,,,,,,,
1645708293.709197,155.000000,0.000000,4282.051270,4286.922852,4279.615234,4347.692383,4280.769043,4277.179688,4242.563965,4228.589844,4215.769043,4232.692383,4247.307617,4221.410156,4265.000000,4322.820313,3437.000000,4.000000,91.000000,,,,0.000000,4.000000,4.000000,4.000000,4.000000,4.000000,4.000000,4.000000,4.000000,4.000000,4.000000,4.000000,4.000000,4.000000,4.000000,100.000000,,,,,,,,,,,,,,,,
1645708293.713137,156.000000,0.000000,4281.538574,4288.205078,4283.717773,4353.333496,4276.538574,4274.358887,4244.358887,4228.333496,4215.128418,4239.102539,4246.666504,4224.230957,4266.282227,4323.333496,3282.000000,4.000000,91.000000,,,,0.000000,4.000000,4.000000,4.000000,4.000000,4.000000,4.000000,4.000000,4.000000,4.000000,4.000000,4.000000,4.000000,4.000000,4.000000,100.000000,,,,,,,,,,,,,,,,
1645708293.717078,157.000000,0.000000,4288.205078,4285.512695,4291.922852,4358.846191,4282.436035,4270.000000,4246.666504,4231.282227,4215.641113,4246.538574,4252.436035,4229.230957,4271.794922,4329.358887,3296.000000,4.000000,91.000000,,,,0.000000,4.000000,4.000000,4.000000,4.000000,4.000000,4.000000,4.000000,4.000000,4.000000,4.000000,4.000000,4.000000,4.000000,4.000000,100.000000,,,,,,,,,,,,,,,,
1645708293.721018,158.000000,0.000000,4301.025879,4281.538574,4302.179688,4363.205078,4292.179688,4268.205078,4248.846191,4235.256348,4217.692383,4252.307617,4262.563965,4234.871582,4280.256348,4338.846191,2769.000000,4.000000,91.000000,,,,0.000000,4.000000,4.000000,4.000000,4.000000,4.000000,4.000000,4.000000,4.000000,4.000000,4.000000,4.000000,4.000000,4.000000,4.000000,100.000000,,,,,,,,,,,,,,,,
1645708293.724958,159.000000,0.000000,4313.846191,4277.563965,4309.871582,4365.256348,4296.538574,4269.871582,4250.000000,4237.051270,4220.000000,4251.538574,4271.410156,4238.717773,4287.307617,4346.666504,3437.000000,4.000000,91.000000,,,,0.000000,4.000000,4.000000,4.000000,4.000000,4.000000,4.000000,4.000000,4.000000,4.000000,4.000000,4.000000,4.000000,4.000000,4.000000,100.000000,,,,,,,,,,,,,,,,
1645708293.728898,160.000000,0.000000,4319.871582,4274.230957,4312.179688,4364.230957,4291.282227,4272.307617,4250.256348,4235.897461,4221.025879,4242.563965,4273.589844,4238.589844,4288.717773,4348.077148,3282.000000,4.000000,91.000000,,,,0.000000,4.000000,4.000000,4.000000,4.000000,4.000000,4.000000,4.000000,4.000000,4.000000,4.000000,4.000000,4.000000,4.000000,4.000000,100.000000,,,,,,,,,,,,,,,,
1645708293.732838,161.000000,0.000000,4316.922852,4271.922852,4308.717773,4360.641113,4281.282227,4272.436035,4251.153809,4233.077148,4220.256348,4229.871582,4267.948730,4235.128418,4283.846191,4342.563965,3296.000000,4.000000,91.000000,,,,0.000000,4.000000,4.000000,4.000000,4.000000,4.000000,4.000000,4.000000,4.000000,4.000000,4.000000,4.000000,4.000000,4.000000,4.000000,100.000000,,,,,,,,,,,,,,,,
1645708293.736778,162.000000,0.000000,4308.589844,4271.282227,4302.179688,4356.794922,4274.743652,4270.256348,4253.461426,4231.025879,4218.077148,4222.307617,4258.205078,4230.641113,4276.153809,4333.589844,2769.000000,4.000000,91.000000,,,,0.000000,4.000000,4.000000,4.000000,4.000000,4.000000,4.000000,4.000000,4.000000,4.000000,4.000000,4.000000,4.000000,4.000000,4.000000,100.000000,,,,,,,,,,,,,,,,
1645708293.740818,163.000000,0.000000,4300.512695,4272.563965,4295.897461,4354.871582,4275.256348,4268.205078,4256.153809,4231.153809,4216.282227,4225.384766,4250.384766,4227.307617,4270.384766,4325.128418,3437.000000,4.000000,91.000000,,,,0.000000,4.000000,4.000000,4.000000,4.000000,4.000000,4.000000,4.000000,4.000000,4.000000,4.000000,4.000000,4.000000,4.000000,4.000000,100.000000,,,,,,,,,,,,,,,,
1645708293.744758,164.000000,0.000000,4296.922852,4274.230957,4292.307617,4354.871582,4278.846191,4268.846191,4257.051270,4233.461426,4216.153809,4236.666504,4248.205078,4225.128418,4268.589844,4319.230957,3282.000000,4.000000,91.000000,,,,0.000000,4.000000,4.000000,4.000000,4.000000,4.000000,4.000000,4.000000,4.000000,4.000000,4.000000,4.000000,4.000000,4.000000,4.000000,100.000000,,,,,,,,,,,,,,,,
1645708293.748698,165.000000,0.000000,4297.179688,4273.846191,4292.051270,4353.846191,4278.333496,4271.794922,4255.769043,4236.922852,4218.205078,4248.077148,4250.128418,4223.077148,4269.102539,4314.743652,3296.000000,4.000000,91.000000,,,,0.000000,4.000000,4.000000,4.000000,4.000000,4.000000,4.000000,4.000000,4.000000,4.000000,4.000000,4.000000,4.000000,4.000000,4.000000,100.000000,,,,,,,,,,,,,,,,
1645708293.752638,166.000000,0.000000,4299.102539,4270.641113,4293.461426,4349.743652,4269.871582,4274.615234,4253.846191,4240.512695,4220.641113,4252.051270,4252.436035,4220.384766,4268.717773,4309.743652,2769.000000,4.000000,91.000000,,,,0.000000,4.000000,4.000000,4.000000,4.000000,4.000000,4.000000,4.000000,4.000000,4.000000,4.000000,4.000000,4.000000,4.000000,4.000000,100.000000,,,,,,,,,,,,,,,,
1645708293.756578,167.000000,0.000000,4300.384766,4266.282227,4294.487305,4344.358887,4256.282227,4275.384766,4253.461426,4243.589844,4222.179688,4248.589844,4253.333496,4218.333496,4266.153809,4304.743652,3437.000000,4.000000,91.000000,,,,0.000000,4.000000,4.000000,4.000000,4.000000,4.000000,4.000000,4.000000,4.000000,4.000000,4.000000,4.000000,4.000000,4.000000,4.000000,100.000000,,,,,,,,,,,,,,,,
1645708293.760519,168.000000,0.000000,4300.769043,4264.230957,4293.717773,4342.436035,4245.512695,4274.230957,4255.256348,4245.897461,4222.051270,4244.358887,4253.846191,4218.077148,4263.717773,4302.563965,3282.000000,4.000000,91.000000,,,,0.000000,4.000000,4.000000,4.000000,4.000000,4.000000,4.000000,4.000000,4.000000,4.000000,4.000000,4.000000,4.000000,4.000000,4.000000,100.000000,,,,,,,,,,,,,,,,
1645708293.764459,169.000000,0.000000,4300.128418,4266.282227,4290.641113,4346.794922,4243.333496,4272.820313,4257.563965,4247.179688,4221.153809,4245.897461,4255.897461,4218.846191,4264.358887,4304.615234,3296.000000,4.000000,91.000000,,,,0.000000,4.000000,4.000000,4.000000,4.000000,4.000000,4.000000,4.000000,4.000000,4.000000,4.000000,4.000000,4.000000,4.000000,4.000000,100.000000,,,,,,,,,,,,,,,,
1645708293.768399,170.000000,0.000000,4297.692383,4270.641113,4285.641113,4355.000000,4250.128418,4272.436035,4258.333496,4247.179688,4221.153809,4253.333496,4258.846191,4219.102539,4267.692383,4308.589844,2769.000000,4.000000,91.000000,,,,0.000000,4.000000,4.000000,4.000000,4.000000,4.000000,4.000000,4.000000,4.000000,4.000000,4.000000,4.000000,4.000000,4.000000,4.000000,100.000000,,,,,,,,,,,,,,,,
1645708293.772339,171.000000,0.000000,4293.205078,4274.358887,4280.256348,4361.282227,4260.000000,4274.102539,4256.922852,4246.538574,4222.820313,4260.769043,4260.384766,4217.948730,4270.512695,4310.641113,3437.000000,4.000000,91.000000,,,,0.000000,4.000000,4.000000,4.000000,4.000000,4.000000,4.000000,4.000000,4.000000,4.000000,4.000000,4.000000,4.000000,4.000000,4.000000,100.000000,,,,,,,,,,,,,,,,
1645708293.776279,172.000000,0.000000,4289.230957,4276.153809,4276.410156,4363.077148,4265.769043,4278.333496,4255.000000,4246.538574,4226.153809,4262.820313,4259.743652,4216.282227,4269.871582,4308.846191,3282.000000,4.000000,91.000000,,,,0.000000,4.000000,4.000000,4.000000,4.000000,4.000000,4.000000,4.000000,4.000000,4.000000,4.000000,4.000000,4.000000,4.000000,4.000000,100.000000,,,,,,,,,,,,,,,,
1645708293.780219,173.000000,0.000000,4289.358887,4277.307617,4275.512695,4362.820313,4263.846191,4284.487305,4254.615234,4248.205078,4230.897461,4259.102539,4258.205078,4215.769043,4266.025879,4305.641113,3296.000000,4.000000,91.000000,,,,0.000000,4.000000,4.000000,4.000000,4.000000,4.000000,4.000000,4.000000,4.000000,4.000000,4.000000,4.000000,4.000000,4.000000,4.000000,100.000000,,,,,,,,,,,,,,,,
1645708293.784159,174.000000,0.000000,4295.384766,4279.743652,4277.820313,4364.743652,4255.384766,4289.871582,4255.897461,4250.897461,4235.384766,4252.948730,4257.307617,4216.922852,4261.922852,4304.743652,2769.000000,4.000000,91.000000,,,,0.000000,4.000000,4.000000,4.000000,4.000000,4.000000,4.000000,4.000000,4.000000,4.000000,4.000000,4.000000,4.000000,4.000000,4.000000,100.000000,,,,,,,,,,,,,,,,
1645708293.788099,175.000000,0.000000,4305.000000,4283.461426,4281.922852,4369.358887,4244.230957,4290.641113,4257.051270,4252.820313,4237.051270,4247.307617,4256.922852,4218.589844,4260.128418,4307.307617,3437.000000,4.000000,91.000000,,,,0.000000,4.000000,4.000000,4.000000,4.000000,4.000000,4.000000,4.000000,4.000000,4.000000,4.000000,4.000000,4.000000,4.000000,4.000000,100.000000,,,,,,,,,,,,,,,,
1645708293.792039,176.000000,0.000000,4313.077148,4286.538574,4285.641113,4372.563965,4234.102539,4285.000000,4256.410156,4252.051270,4233.717773,4242.692383,4256.025879,4219.102539,4261.538574,4311.410156,3282.000000,4.000000,91.000000,,,,0.000000,4.000000,4.000000,4.000000,4.000000,4.000000,4.000000,4.000000,4.000000,4.000000,4.000000,4.000000,4.000000,4.000000,4.000000,100.000000,,,,,,,,,,,,,,,,
1645708293.795980,177.000000,0.000000,4315.256348,4287.563965,4286.922852,4370.384766,4228.974121,4275.000000,4254.102539,4248.589844,4226.153809,4239.358887,4254.615234,4217.820313,4264.230957,4314.743652,3296.000000,4.000000,91.000000,,,,0.000000,4.000000,4.000000,4.000000,4.000000,4.000000,4.000000,4.000000,4.000000,4.000000,4.000000,4.000000,4.000000,4.000000,4.000000,100.000000,,,,,,,,,,,,,,,,
1645708293.799920,178.000000,0.000000,4311.410156,4287.179688,4284.743652,4363.846191,4232.436035,4266.153809,4252.179688,4244.487305,4219.102539,4239.487305,4254.358887,4215.256348,4266.282227,4316.282227,2769.000000,4.000000,91.000000,,,,0.000000,4.000000,4.000000,4.000000,4.000000,4.000000,4.000000,4.000000,4.000000,4.000000,4.000000,4.000000,4.000000,4.000000,4.000000,100.000000,,,,,,,,,,,,,,,,
1645708293.803860,179.000000,0.000000,4306.153809,4287.179688,4280.000000,4358.589844,4245.000000,4263.589844,4252.563965,4242.307617,4217.307617,4244.615234,4256.666504,4213.333496,4266.538574,4316.922852,3437.000000,4.000000,91.000000,,,,0.000000,4.000000,4.000000,4.000000,4.000000,4.000000,4.000000,4.000000,4.000000,4.000000,4.000000,4.000000,4.000000,4.000000,4.000000,100.000000,,,,,,,,,,,,,,,,
1645708293.807800,180.000000,0.000000,4304.102539,4288.461426,4276.282227,4359.743652,4261.025879,4268.589844,4256.410156,4243.974121,4222.051270,4251.794922,4260.897461,4213.846191,4265.769043,4317.051270,3282.000000,4.000000,91.000000,,,,0.000000,4.000000,4.000000,4.000000,4.000000,4.000000,4.000000,4.000000,4.000000,4.000000,4.000000,4.000000,4.000000,4.000000,4.000000,100.000000,,,,,,,,,,,,,,,,
1645708293.811740,181.000000,0.000000,4306.794922,4289.871582,4276.794922,4367.307617,4270.512695,4276.922852,4261.666504,4248.589844,4229.871582,4254.358887,4263.717773,4216.666504,4264.230957,4316.025879,3296.000000,4.000000,91.000000,,,,0.000000,4.000000,4.000000,4.000000,4.000000,4.000000,4.000000,4.000000,4.000000,4.000000,4.000000,4.000000,4.000000,4.000000,4.000000,100.000000,,,,,,,,,,,,,,,,
1645708293.815580,182.000000,0.000000,4311.153809,4289.102539,4281.794922,4376.153809,4264.871582,4282.692383,4264.871582,4252.948730,4235.000000,4247.692383,4261.666504,4219.743652,4261.922852,4312.436035,2769.000000,4.000000,91.000000,,,,0.000000,4.000000,4.000000,4.000000,4.000000,4.000000,4.000000,4.000000,4.000000,4.000000,4.000000,4.000000,4.000000,4.000000,4.000000,100.000000,,,,,,,,,,,,,,,,
1645708293.819520,183.000000,0.000000,4313.589844,4284.743652,4288.333496,4379.871582,4245.000000,4282.051270,4262.948730,4253.717773,4234.230957,4234.358887,4255.000000,4220.897461,4258.717773,4306.282227,3437.000000,4.000000,91.000000,2,1,3,0.000000,4.000000,4.000000,4.000000,4.000000,4.000000,4.000000,4.000000,4.000000,4.000000,4.000000,4.000000,4.000000,4.000000,4.000000,100.000000,,,,,,,,,,,,,,,,
1645708293.823460,184.000000,0.000000,4312.820313,4278.461426,4293.077148,4375.128418,4221.153809,4276.282227,4256.666504,4250.128418,4228.589844,4223.717773,4247.436035,4219.230957,4255.000000,4299.358887,3282.000000,4.000000,91.000000,,,,0.000000,4.000000,4.000000,4.000000,4.000000,4.000000,4.000000,4.000000,4.000000,4.000000,4.000000,4.000000,4.000000,4.000000,4.000000,100.000000,,,,,,,,,,,,,,,,
1645708293.827400,185.000000,0.000000,4310.000000,4273.333496,4293.974121,4364.487305,4205.512695,4269.230957,4250.128418,4244.615234,4222.307617,4224.102539,4243.205078,4216.282227,4251.794922,4294.615234,3296.000000,4.000000,91.000000,,,,0.000000,4.000000,4.000000,4.000000,4.000000,4.000000,4.000000,4.000000,4.000000,4.000000,4.000000,4.000000,4.000000,4.000000,4.000000,100.000000,,,,,,,,,,,,,,,,
1645708293.831341,186.000000,0.000000,4307.563965,4272.307617,4291.153809,4355.000000,4204.487305,4265.384766,4247.307617,4241.410156,4219.487305,4235.769043,4243.846191,4214.102539,4249.487305,4293.846191,2769.000000,4.000000,91.000000,,,,0.000000,4.000000,4.000000,4.000000,4.000000,4.000000,4.000000,4.000000,4.000000,4.000000,4.000000,4.000000,4.000000,4.000000,4.000000,100.000000,,,,,,,,,,,,,,,,
1645708293.835281,187.000000,0.000000,4306.922852,4275.769043,4286.794922,4352.948730,4215.256348,4266.538574,4249.102539,4242.820313,4221.922852,4251.153809,4247.563965,4213.717773,4248.717773,4296.666504,3437.000000,4.000000,91.000000,,,,0.000000,4.000000,4.000000,4.000000,4.000000,4.000000,4.000000,4.000000,4.000000,4.000000,4.000000,4.000000,4.000000,4.000000,4.000000,100.000000,,,,,,,,,,,,,,,,
1645708293.839221,188.000000,0.000000,4307.563965,4281.282227,4283.846191,4359.102539,4230.128418,4271.922852,4253.589844,4247.820313,4227.820313,4261.153809,4250.641113,4214.487305,4249.743652,4300.641113,3282.000000,4.000000,91.000000,,,,0.000000,4.000000,4.000000,4.000000,4.000000,4.000000,4.000000,4.000000,4.000000,4.000000,4.000000,4.000000,4.000000,4.000000,4.000000,100.000000,,,,,,,,,,,,,,,,
1645708293.843161,189.000000,0.000000,4307.563965,4285.256348,4284.230957,4367.436035,4241.025879,4278.461426,4257.820313,4253.077148,4233.717773,4261.025879,4250.769043,4215.769043,4252.436035,4302.820313,3296.000000,4.000000,91.000000,,,,0.000000,4.000000,4.000000,4.000000,4.000000,4.000000,4.000000,4.000000,4.000000,4.000000,4.000000,4.000000,4.000000,4.000000,4.000000,100.000000,,,,,,,,,,,,,,,,
1645708293.847101,190.000000,0.000000,4305.512695,4285.256348,4288.205078,4370.384766,4243.077148,4282.820313,4260.897461,4255.641113,4236.025879,4251.666504,4248.333496,4217.051270,4255.256348,4301.538574,2769.000000,4.000000,91.000000,,,,0.000000,4.000000,4.000000,4.000000,4.000000,4.000000,4.000000,4.000000,4.000000,4.000000,4.000000,4.000000,4.000000,4.000000,4.000000,100.000000,,,,,,,,,,,,,,,,
1645708293.851041,191.000000,0.000000,4301.538574,4281.025879,4294.358887,4364.743652,4235.384766,4282.948730,4262.692383,4254.615234,4234.358887,4238.589844,4245.512695,4218.333496,4255.384766,4297.948730,3437.000000,4.000000,91.000000,,,,0.000000,4.000000,4.000000,4.000000,4.000000,4.000000,4.000000,4.000000,4.000000,4.000000,4.000000,4.000000,4.000000,4.000000,4.000000,100.000000,,,,,,,,,,,,,,,,
1645708293.854981,192.000000,0.000000,4297.307617,4275.128418,4300.128418,4355.641113,4222.179688,4278.589844,4263.077148,4251.666504,4230.641113,4227.820313,4244.487305,4218.846191,4251.282227,4294.230957,3282.000000,4.000000,91.000000,,,,0.000000,4.000000,4.000000,4.000000,4.000000,4.000000,4.000000,4.000000,4.000000,4.000000,4.000000,4.000000,4.000000,4.000000,4.000000,100.000000,,,,,,,,,,,,,,,,
1645708293.858921,193.000000,0.000000,4294.230957,4271.153809,4302.051270,4351.922852,4211.025879,4272.692383,4261.666504,4248.205078,4227.692383,4223.589844,4245.256348,4217.436035,4244.487305,4292.051270,3296.000000,4.000000,91.000000,,,,0.000000,4.000000,4.000000,4.000000,4.000000,4.000000,4.000000,4.000000,4.000000,4.000000,4.000000,4.000000,4.000000,4.000000,4.000000,100.000000,,,,,,,,,,,,,,,,
1645708293.862861,194.000000,0.000000,4291.153809,4270.512695,4298.461426,4357.051270,4208.461426,4268.717773,4258.846191,4245.384766,4226.538574,4225.897461,4245.384766,4213.589844,4238.589844,4290.641113,2769.000000,4.000000,91.000000,,,,0.000000,4.000000,4.000000,4.000000,4.000000,4.000000,4.000000,4.000000,4.000000,4.000000,4.000000,4.000000,4.000000,4.000000,4.000000,100.000000,,,,,,,,,,,,,,,,
1645708293.866802,195.000000,0.000000,4286.538574,4271.922852,4290.769043,4366.410156,4215.000000,4269.102539,4256.922852,4243.589844,4226.153809,4231.410156,4242.692383,4207.692383,4237.179688,4287.820313,3437.000000,4.000000,91.000000,,,,0.000000,4.000000,4.000000,4.000000,4.000000,4.000000,4.000000,4.000000,4.000000,4.000000,4.000000,4.000000,4.000000,4.000000,4.000000,100.000000,,,,,,,,,,,,,,,,
1645708293.870742,196.000000,0.000000,4280.128418,4272.948730,4283.461426,4371.666504,4224.615234,4273.333496,4257.692383,4244.102539,4226.282227,4235.769043,4237.692383,4201.538574,4241.153809,4283.205078,3282.000000,4.000000,91.000000,,,,0.000000,4.000000,4.000000,4.000000,4.000000,4.000000,4.000000,4.000000,4.000000,4.000000,4.000000,4.000000,4.000000,4.000000,4.000000,100.000000,,,,,,,,,,,,,,,,
1645708293.874682,197.000000,0.000000,4274.230957,4273.077148,4280.769043,4369.102539,4229.871582,4278.333496,4260.897461,4247.948730,4227.307617,4236.794922,4233.461426,4196.922852,4247.563965,4278.717773,3296.000000,4.000000,91.000000,,,,0.000000,4.000000,4.000000,4.000000,4.000000,4.000000,4.000000,4.000000,4.000000,4.000000,4.000000,4.000000,4.000000,4.000000,4.000000,100.000000,,,,,,,,,,,,,,,,
1645708293.878622,198.000000,0.000000,4272.307617,4273.717773,4284.358887,4362.051270,4227.948730,4280.769043,4264.230957,4254.102539,4229.615234,4234.358887,4232.692383,4196.153809,4252.692383,4277.307617,2769.000000,4.000000,91.000000,,,,0.000000,4.000000,4.000000,4.000000,4.000000,4.000000,4.000000,4.000000,4.000000,4.000000,4.000000,4.000000,4.000000,4.000000,4.000000,100.000000,,,,,,,,,,,,,,,,
1645708293.882562,199.000000,0.000000,4275.897461,4275.641113,4291.794922,4357.179688,4220.641113,4279.230957,4265.128418,4258.974121,4232.563965,4230.512695,4236.153809,4200.128418,4253.846191,4280.384766,3437.000000,4.000000,91.000000,,,,0.000000,4.000000,4.000000,4.000000,4.000000,4.000000,4.000000,4.000000,4.000000,4.000000,4.000000,4.000000,4.000000,4.000000,4.000000,100.000000,,,,,,,,,,,,,,,,
1645708293.886502,200.000000,0.000000,4282.307617,4277.563965,4299.743652,4358.333496,4211.025879,4275.000000,4263.846191,4259.230957,4234.487305,4227.820313,4241.282227,4207.051270,4251.153809,4285.897461,3282.000000,4.000000,91.000000,,,,0.000000,4.000000,4.000000,4.000000,4.000000,4.000000,4.000000,4.000000,4.000000,4.000000,4.000000,4.000000,4.000000,4.000000,4.000000,100.000000,,,,,,,,,,,,,,,,
1645708293.890342,201.000000,0.000000,4286.538574,4277.307617,4304.615234,4363.846191,4202.307617,4270.512695,4262.307617,4255.000000,4233.846191,4228.077148,4243.974121,4213.461426,4246.153809,4289.743652,3296.000000,4.000000,91.000000,,,,0.000000,4.000000,4.000000,4.000000,4.000000,4.000000,4.000000,4.000000,4.000000,4.000000,4.000000,4.000000,4.000000,4.000000,4.000000,100.000000,,,,,,,,,,,,,,,,
1645708293.894282,202.000000,0.000000,4284.358887,4274.230957,4304.487305,4368.846191,4199.487305,4268.846191,4262.307617,4249.871582,4230.897461,4231.282227,4242.307617,4215.897461,4241.410156,4289.102539,2769.000000,4.000000,91.000000,,,,0.000000,4.000000,4.000000,4.000000,4.000000,4.000000,4.000000,4.000000,4.000000,4.000000,4.000000,4.000000,4.000000,4.000000,4.000000,100.000000,,,,,,,,,,,,,,,,
1645708293.898222,203.000000,0.000000,4276.666504,4270.512695,4299.358887,4369.743652,4206.025879,4271.538574,4263.974121,4248.077148,4228.077148,4236.666504,4238.205078,4213.974121,4239.487305,4284.615234,3437.000000,4.000000,91.000000,,,,0.000000,4.000000,4.000000,4.000000,4.000000,4.000000,4.000000,4.000000,4.000000,4.000000,4.000000,4.000000,4.000000,4.000000,4.000000,100.000000,,,,,,,,,,,,,,,,
1645708293.902163,204.000000,0.000000,4267.307617,4268.846191,4291.922852,4366.922852,4219.358887,4276.922852,4265.769043,4250.769043,4228.205078,4242.307617,4236.025879,4209.743652,4240.897461,4279.230957,3282.000000,4.000000,91.000000,,,,0.000000,4.000000,4.000000,4.000000,4.000000,4.000000,4.000000,4.000000,4.000000,4.000000,4.000000,4.000000,4.000000,4.000000,4.000000,100.000000,,,,,,,,,,,,,,,,
1645708293.906103,205.000000,0.000000,4259.743652,4269.358887,4285.128418,4363.205078,4228.974121,4280.769043,4266.153809,4255.769043,4231.794922,4245.897461,4237.307617,4205.641113,4243.333496,4275.000000,3296.000000,4.000000,91.000000,,,,0.000000,4.000000,4.000000,4.000000,4.000000,4.000000,4.000000,4.000000,4.000000,4.000000,4.000000,4.000000,4.000000,4.000000,4.000000,100.000000,,,,,,,,,,,,,,,,
1645708293.910043,206.000000,0.000000,4254.871582,4269.743652,4281.025879,4362.051270,4225.256348,4279.230957,4264.615234,4259.102539,4236.794922,4245.512695,4240.256348,4202.307617,4243.461426,4271.922852,2769.000000,4.000000,91.000000,,,,0.000000,4.000000,4.000000,4.000000,4.000000,4.000000,4.000000,4.000000,4.000000,4.000000,4.000000,4.000000,4.000000,4.000000,4.000000,100.000000,,,,,,,,,,,,,,,,
1645708293.913983,207.000000,0.000000,4251.538574,4267.948730,4280.256348,4363.974121,4208.461426,4273.589844,4262.563965,4259.102539,4239.871582,4242.307617,4242.307617,4199.871582,4240.512695,4269.230957,3437.000000,4.000000,91.000000,,,,0.000000,4.000000,4.000000,4.000000,4.000000,4.000000,4.000000,4.000000,4.000000,4.000000,4.000000,4.000000,4.000000,4.000000,4.000000,100.000000,,,,,,,,,,,,,,,,
1645708293.917923,208.000000,0.000000,4249.615234,4264.871582,4281.794922,4367.051270,4190.000000,4268.717773,4262.692383,4257.436035,4240.000000,4239.871582,4243.717773,4198.974121,4237.307617,4267.563965,3282.000000,4.000000,91.000000,,,,0.000000,4.000000,4.000000,4.000000,4.000000,4.000000,4.000000,4.000000,4.000000,4.000000,4.000000,4.000000,4.000000,4.000000,4.000000,100.000000,,,,,,,,,,,,,,,,
1645708293.921863,209.000000,0.000000,4248.717773,4263.589844,4284.102539,4368.077148,4183.589844,4269.615234,4266.410156,4257.692383,4239.358887,4241.794922,4245.641113,4200.256348,4237.307617,4267.692383,3296.000000,4.000000,91.000000,,,,0.000000,4.000000,4.000000,4.000000,4.000000,4.000000,4.000000,4.000000,4.000000,4.000000,4.000000,4.000000,4.000000,4.000000,4.000000,100.000000,,,,,,,,,,,,,,,,
1645708293.925803,210.000000,0.000000,4248.077148,4265.128418,4285.384766,4365.000000,4193.589844,4276.410156,4272.436035,4261.025879,4240.128418,4247.948730,4248.333496,4203.333496,4240.641113,4269.358887,2769.000000,4.000000,91.000000,,,,0.000000,4.000000,4.000000,4.000000,4.000000,4.000000,4.000000,4.000000,4.000000,4.000000,4.000000,4.000000,4.000000,4.000000,4.000000,100.000000,1.000000,25.000000,4.000000,3.000000,3.000000,1.000000,1.000000,4.000000,4.000000,4.000000,4.000000,4.000000,3.000000,4.000000,4.000000,1.000000
1645708293.929743,211.000000,0.000000,4246.025879,4267.820313,4285.128418,4358.974121,4213.589844,4284.743652,4277.820313,4265.512695,4241.922852,4254.102539,4249.487305,4206.025879,4243.846191,4270.384766,3437.000000,4.000000,91.000000,,,,0.000000,4.000000,4.000000,4.000000,4.000000,4.000000,4.000000,4.000000,4.000000,4.000000,4.000000,4.000000,4.000000,4.000000,4.000000,100.000000,,,,,,,,,,,,,,,,
1645708293.933683,212.000000,0.000000,4242.051270,4269.230957,4283.589844,4353.974121,4232.563965,4289.487305,4280.128418,4267.948730,4243.461426,4256.666504,4247.051270,4206.282227,4243.589844,4268.205078,3282.000000,4.000000,91.000000,,,,0.000000,4.000000,4.000000,4.000000,4.000000,4.000000,4.000000,4.000000,4.000000,4.000000,4.000000,4.000000,4.000000,4.000000,4.000000,100.000000,,,,,,,,,,,,,,,,
1645708293.937624,213.000000,0.000000,4237.307617,4268.717773,4281.410156,4353.717773,4243.333496,4289.487305,4279.487305,4266.666504,4243.461426,4255.512695,4241.922852,4204.102539,4239.871582,4262.820313,3296.000000,4.000000,91.000000,,,,0.000000,4.000000,4.000000,4.000000,4.000000,4.000000,4.000000,4.000000,4.000000,4.000000,4.000000,4.000000,4.000000,4.000000,4.000000,100.000000,,,,,,,,,,,,,,,,
1645708293.941564,214.000000,0.000000,4234.358887,4267.692383,4280.512695,4359.358887,4245.128418,4287.051270,4277.436035,4263.205078,4242.051270,4253.846191,4237.692383,4201.922852,4235.641113,4256.922852,2769.000000,4.000000,91.000000,,,,0.000000,4.000000,4.000000,4.000000,4.000000,4.000000,4.000000,4.000000,4.000000,4.000000,4.000000,4.000000,4.000000,4.000000,4.000000,100.000000,,,,,,,,,,,,,,,,
1645708293.945504,215.000000,0.000000,4235.256348,4267.948730,4282.692383,4367.436035,4241.025879,4285.000000,4275.000000,4260.641113,4240.641113,4253.077148,4237.692383,4202.179688,4234.102539,4253.846191,3437.000000,4.000000,91.000000,,,,0.000000,4.000000,4.000000,4.000000,4.000000,4.000000,4.000000,4.000000,4.000000,4.000000,4.000000,4.000000,4.000000,4.000000,4.000000,100.000000,,,,,,,,,,,,,,,,
1645708293.949444,216.000000,0.000000,4239.102539,4270.512695,4287.820313,4373.717773,4233.205078,4283.846191,4272.948730,4260.384766,4239.743652,4252.436035,4241.794922,4205.256348,4236.025879,4254.871582,3282.000000,4.000000,91.000000,,,,0.000000,4.000000,4.000000,4.000000,4.000000,4.000000,4.000000,4.000000,4.000000,4.000000,4.000000,4.000000,4.000000,4.000000,4.000000,100.000000,,,,,,,,,,,,,,,,
1645708293.953384,217.000000,0.000000,4242.307617,4273.974121,4293.077148,4375.256348,4223.077148,4282.436035,4271.153809,4260.641113,4238.974121,4250.000000,4246.666504,4208.717773,4239.102539,4258.589844,3296.000000,4.000000,91.000000,,,,0.000000,4.000000,4.000000,4.000000,4.000000,4.000000,4.000000,4.000000,4.000000,4.000000,4.000000,4.000000,4.000000,4.000000,4.000000,100.000000,,,,,,,,,,,,,,,,
1645708293.957324,218.000000,0.000000,4242.436035,4275.897461,4295.512695,4371.666504,4212.948730,4280.512695,4270.128418,4258.333496,4237.051270,4245.512695,4248.333496,4209.743652,4240.128418,4261.794922,2769.000000,4.000000,91.000000,,,,0.000000,4.000000,4.000000,4.000000,4.000000,4.000000,4.000000,4.000000,4.000000,4.000000,4.000000,4.000000,4.000000,4.000000,4.000000,100.000000,,,,,,,,,,,,,,,,
1645708293.961364,219.000000,0.000000,4240.384766,4274.743652,4294.615234,4365.641113,4206.538574,4278.589844,4269.743652,4252.820313,4234.358887,4240.512695,4245.512695,4207.563965,4238.077148,4261.794922,3437.000000,4.000000,91.000000,,,,0.000000,4.000000,4.000000,4.000000,4.000000,4.000000,4.000000,4.000000,4.000000,4.000000,4.000000,4.000000,4.000000,4.000000,4.000000,100.000000,,,,,,,,,,,,,,,,
1645708293.965304,220.000000,0.000000,4239.487305,4271.282227,4293.461426,4362.051270,4206.410156,4277.307617,4269.487305,4246.922852,4232.436035,4237.179688,4240.256348,4203.846191,4235.256348,4258.974121,3282.000000,4.000000,91.000000,,,,0.000000,4.000000,4.000000,4.000000,4.000000,4.000000,4.000000,4.000000,4.000000,4.000000,4.000000,4.000000,4.000000,4.000000,4.000000,100.000000,,,,,,,,,,,,,,,,
1645708293.969244,221.000000,0.000000,4242.179688,4268.717773,4295.128418,4364.615234,4210.641113,4277.051270,4268.461426,4244.871582,4232.179688,4236.025879,4236.282227,4202.051270,4234.615234,4256.282227,3296.000000,4.000000,91.000000,,,,0.000000,4.000000,4.000000,4.000000,4.000000,4.000000,4.000000,4.000000,4.000000,4.000000,4.000000,4.000000,4.000000,4.000000,4.000000,100.000000,,,,,,,,,,,,,,,,
1645708293.973184,222.000000,0.000000,4248.461426,4269.871582,4300.512695,4373.077148,4214.743652,4277.948730,4267.179688,4248.205078,4233.461426,4236.794922,4236.666504,4204.487305,4237.820313,4257.051270,2769.000000,4.000000,91.000000,,,,0.000000,4.000000,4.000000,4.000000,4.000000,4.000000,4.000000,4.000000,4.000000,4.000000,4.000000,4.000000,4.000000,4.000000,4.000000,100.000000,,,,,,,,,,,,,,,,
1645708293.977125,223.000000,0.000000,4255.897461,4275.769043,4307.307617,4383.461426,4216.666504,4280.256348,4267.179688,4255.256348,4235.641113,4239.487305,4242.307617,4210.769043,4243.717773,4262.563965,3437.000000,4.000000,91.000000,,,,0.000000,4.000000,4.000000,4.000000,4.000000,4.000000,4.000000,4.000000,4.000000,4.000000,4.000000,4.000000,4.000000,4.000000,4.000000,100.000000,,,,,,,,,,,,,,,,
1645708293.981065,224.000000,0.000000,4261.410156,4284.871582,4312.436035,4390.769043,4218.717773,4283.717773,4269.487305,4262.436035,4238.205078,4244.358887,4250.128418,4217.563965,4249.102539,4270.000000,3282.000000,4.000000,91.000000,,,,0.000000,4.000000,4.000000,4.000000,4.000000,4.000000,4.000000,4.000000,4.000000,4.000000,4.000000,4.000000,4.000000,4.000000,4.000000,100.000000,,,,,,,,,,,,,,,,
1645708293.985005,225.000000,0.000000,4262.948730,4292.948730,4314.230957,4392.179688,4223.589844,4287.051270,4273.077148,4266.922852,4240.256348,4250.384766,4254.102539,4221.538574,4250.384766,4274.743652,3296.000000,4.000000,91.000000,,,,0.000000,4.000000,4.000000,4.000000,4.000000,4.000000,4.000000,4.000000,4.000000,4.000000,4.000000,4.000000,4.000000,4.000000,4.000000,100.000000,,,,,,,,,,,,,,,,
1645708293.988945,226.000000,0.000000,4260.512695,4295.000000,4312.820313,4388.333496,4228.461426,4288.461426,4275.512695,4267.563965,4240.769043,4255.000000,4250.128418,4220.897461,4246.153809,4273.205078,2769.000000,4.000000,91.000000,,,,0.000000,4.000000,4.000000,4.000000,4.000000,4.000000,4.000000,4.000000,4.000000,4.000000,4.000000,4.000000,4.000000,4.000000,4.000000,100.000000,,,,,,,,,,,,,,,,
1645708293.992885,227.000000,0.000000,4256.410156,4289.358887,4309.743652,4381.794922,4225.641113,4287.436035,4275.384766,4265.000000,4240.000000,4255.512695,4239.743652,4216.922852,4238.846191,4265.769043,3437.000000,4.000000,91.000000,,,,0.000000,4.000000,4.000000,4.000000,4.000000,4.000000,4.000000,4.000000,4.000000,4.000000,4.000000,4.000000,4.000000,4.000000,4.000000,100.000000,,,,,,,,,,,,,,,,
1645708293.996825,228.000000,0.000000,4252.820313,4279.102539,4306.410156,4376.025879,4211.153809,4285.256348,4273.205078,4261.922852,4238.974121,4251.538574,4230.000000,4213.077148,4233.077148,4256.794922,3282.000000,4.000000,91.000000,,,,0.000000,4.000000,4.000000,4.000000,4.000000,4.000000,4.000000,4.000000,4.000000,4.000000,4.000000,4.000000,4.000000,4.000000,4.000000,100.000000,,,,,,,,,,,,,,,,
1645708294.000765,229.000000,0.000000,4251.153809,4270.256348,4304.358887,4374.102539,4191.922852,4284.102539,4270.384766,4260.769043,4238.717773,4244.743652,4227.948730,4212.563965,4232.436035,4251.794922,3296.000000,4.000000,91.000000,,,,0.000000,4.000000,4.000000,4.000000,4.000000,4.000000,4.000000,4.000000,4.000000,4.000000,4.000000,4.000000,4.000000,4.000000,4.000000,100.000000,,,,,,,,,,,,,,,,
1645708294.004705,230.000000,0.000000,4251.538574,4267.436035,4304.487305,4377.948730,4181.794922,4285.256348,4268.589844,4262.692383,4239.871582,4238.333496,4234.743652,4216.410156,4236.282227,4252.563965,2769.000000,4.000000,91.000000,,,,0.000000,4.000000,4.000000,4.000000,4.000000,4.000000,4.000000,4.000000,4.000000,4.000000,4.000000,4.000000,4.000000,4.000000,4.000000,100.000000,,,,,,,,,,,,,,,,
1645708294.008645,231.000000,0.000000,4253.333496,4270.256348,4307.692383,4385.641113,4189.358887,4287.563965,4269.102539,4267.307617,4241.666504,4235.641113,4245.641113,4222.563965,4241.666504,4256.410156,3437.000000,4.000000,91.000000,,,,0.000000,4.000000,4.000000,4.000000,4.000000,4.000000,4.000000,4.000000,4.000000,4.000000,4.000000,4.000000,4.000000,4.000000,4.000000,100.000000,,,,,,,,,,,,,,,,
1645708294.012585,232.000000,0.000000,4255.641113,4275.000000,4312.563965,4393.333496,4209.615234,4288.717773,4271.922852,4272.820313,4244.102539,4239.615234,4254.743652,4228.077148,4245.769043,4258.717773,3282.000000,4.000000,91.000000,,,,0.000000,4.000000,4.000000,4.000000,4.000000,4.000000,4.000000,4.000000,4.000000,4.000000,4.000000,4.000000,4.000000,4.000000,4.000000,100.000000,,,,,,,,,,,,,,,,
1645708294.016526,233.000000,0.000000,4257.307617,4277.820313,4315.897461,4397.820313,4228.077148,4287.051270,4275.128418,4277.179688,4246.538574,4250.641113,4258.077148,4230.897461,4248.077148,4256.922852,3296.000000,4.000000,91.000000,,,,0.000000,4.000000,4.000000,4.000000,4.000000,4.000000,4.000000,4.000000,4.000000,4.000000,4.000000,4.000000,4.000000,4.000000,4.000000,100.000000,,,,,,,,,,,,,,,,
1645708294.020466,234.000000,0.000000,4256.538574,4277.692383,4313.974121,4398.205078,4232.051270,4282.820313,4276.538574,4278.333496,4248.717773,4264.743652,4256.410156,4230.000000,4249.487305,4252.307617,2769.000000,4.000000,91.000000,,,,0.000000,4.000000,4.000000,4.000000,4.000000,4.000000,4.000000,4.000000,4.000000,4.000000,4.000000,4.000000,4.000000,4.000000,4.000000,100.000000,,,,,,,,,,,,,,,,
1645708294.024406,235.000000,0.000000,4251.922852,4275.769043,4305.641113,4395.128418,4219.615234,4278.461426,4275.384766,4276.922852,4250.384766,4275.769043,4252.436035,4225.641113,4250.384766,4247.948730,3437.000000,4.000000,91.000000,,,,0.000000,4.000000,4.000000,4.000000,4.000000,4.000000,4.000000,4.000000,4.000000,4.000000,4.000000,4.000000,4.000000,4.000000,4.000000,100.000000,,,,,,,,,,,,,,,,
1645708294.028346,236.000000,0.000000,4243.333496,4273.077148,4293.333496,4389.102539,4200.128418,4276.538574,4273.846191,4275.256348,4251.666504,4278.589844,4248.461426,4219.230957,4250.000000,4244.743652,3282.000000,4.000000,91.000000,,,,0.000000,4.000000,4.000000,4.000000,4.000000,4.000000,4.000000,4.000000,4.000000,4.000000,4.000000,4.000000,4.000000,4.000000,4.000000,100.000000,,,,,,,,,,,,,,,,
1645708294.032286,237.000000,0.000000,4232.820313,4269.615234,4282.051270,4380.256348,4187.051270,4278.461426,4274.743652,4276.025879,4252.563965,4273.333496,4244.743652,4212.307617,4246.410156,4240.897461,3296.000000,4.000000,91.000000,,,,0.000000,4.000000,4.000000,4.000000,4.000000,4.000000,4.000000,4.000000,4.000000,4.000000,4.000000,4.000000,4.000000,4.000000,4.000000,100.000000,,,,,,,,,,,,,,,,
1645708294.036126,238.000000,0.000000,4224.487305,4265.641113,4276.410156,4370.769043,4187.179688,4283.205078,4279.102539,4280.512695,4253.974121,4265.000000,4240.641113,4206.538574,4240.000000,4234.487305,2769.000000,4.000000,91.000000,,,,0.000000,4.000000,4.000000,4.000000,4.000000,4.000000,4.000000,4.000000,4.000000,4.000000,4.000000,4.000000,4.000000,4.000000,4.000000,100.000000,,,,,,,,,,,,,,,,
1645708294.040066,239.000000,0.000000,4221.538574,4261.794922,4277.692383,4364.615234,4196.794922,4287.563965,4284.743652,4287.436035,4256.410156,4259.487305,4236.794922,4202.307617,4233.589844,4226.153809,3437.000000,4.000000,91.000000,,,,0.000000,4.000000,4.000000,4.000000,4.000000,4.000000,4.000000,4.000000,4.000000,4.000000,4.000000,4.000000,4.000000,4.000000,4.000000,100.000000,,,,,,,,,,,,,,,,
1645708294.044006,240.000000,0.000000,4223.461426,4259.230957,4282.307617,4365.000000,4205.256348,4289.487305,4288.333496,4294.230957,4259.487305,4259.743652,4234.871582,4199.743652,4230.897461,4219.230957,3282.000000,4.000000,91.000000,,,,0.000000,4.000000,4.000000,4.000000,4.000000,4.000000,4.000000,4.000000,4.000000,4.000000,4.000000,4.000000,4.000000,4.000000,4.000000,100.000000,,,,,,,,,,,,,,,,
1645708294.047947,241.000000,0.000000,4226.794922,4257.820313,4285.256348,4371.153809,4206.794922,4288.974121,4288.974121,4298.717773,4261.794922,4264.487305,4236.025879,4198.974121,4233.461426,4217.179688,3296.000000,4.000000,91.000000,,,,0.000000,4.000000,4.000000,4.000000,4.000000,4.000000,4.000000,4.000000,4.000000,4.000000,4.000000,4.000000,4.000000,4.000000,4.000000,100.000000,,,,,,,,,,,,,,,,
1645708294.051887,242.000000,0.000000,4227.820313,4257.563965,4283.717773,4378.846191,4205.512695,4288.333496,4287.692383,4300.641113,4262.307617,4270.384766,4240.256348,4200.641113,4240.256348,4221.282227,2769.000000,4.000000,91.000000,,,,0.000000,4.000000,4.000000,4.000000,4.000000,4.000000,4.000000,4.000000,4.000000,4.000000,4.000000,4.000000,4.000000,4.000000,4.000000,100.000000,,,,,,,,,,,,,,,,
1645708294.055827,243.000000,0.000000,4226.025879,4259.487305,4279.102539,4383.717773,4209.615234,4289.358887,4285.897461,4300.897461,4261.153809,4275.128418,4246.794922,4205.000000,4248.589844,4229.102539,3437.000000,4.000000,91.000000,,,,0.000000,4.000000,4.000000,4.000000,4.000000,4.000000,4.000000,4.000000,4.000000,4.000000,4.000000,4.000000,4.000000,4.000000,4.000000,100.000000,,,,,,,,,,,,,,,,
1645708294.059767,244.000000,0.000000,4223.974121,4263.846191,4275.769043,4383.974121,4220.000000,4291.410156,4283.974121,4299.487305,4259.358887,4277.948730,4253.846191,4210.897461,4255.897461,4236.025879,3282.000000,4.000000,91.000000,,,,0.000000,4.000000,4.000000,4.000000,4.000000,4.000000,4.000000,4.000000,4.000000,4.000000,4.000000,4.000000,4.000000,4.000000,4.000000,100.000000,,,,,,,,,,,,,,,,
1645708294.063607,245.000000,0.000000,4223.589844,4268.717773,4276.794922,4380.000000,4225.897461,4291.922852,4281.153809,4296.153809,4257.563965,4278.333496,4259.230957,4215.512695,4259.487305,4238.077148,3296.000000,4.000000,91.000000,,,,0.000000,4.000000,4.000000,4.000000,4.000000,4.000000,4.000000,4.000000,4.000000,4.000000,4.000000,4.000000,4.000000,4.000000,4.000000,100.000000,,,,,,,,,,,,,,,,
1645708294.067547,246.000000,0.000000,4224.743652,4269.871582,4281.922852,4373.846191,4216.153809,4289.358887,4277.820313,4291.282227,4255.897461,4274.743652,4261.153809,4217.051270,4258.461426,4234.487305,2769.000000,4.000000,91.000000,,,,0.000000,4.000000,4.000000,4.000000,4.000000,4.000000,4.000000,4.000000,4.000000,4.000000,4.000000,4.000000,4.000000,4.000000,4.000000,100.000000,,,,,,,,,,,,,,,,
1645708294.071487,247.000000,0.000000,4226.282227,4265.384766,4287.948730,4367.692383,4193.205078,4285.128418,4275.512695,4287.307617,4254.230957,4266.794922,4259.487305,4215.256348,4254.743652,4227.948730,3437.000000,4.000000,91.000000,,,,0.000000,4.000000,4.000000,4.000000,4.000000,4.000000,4.000000,4.000000,4.000000,4.000000,4.000000,4.000000,4.000000,4.000000,4.000000,100.000000,,,,,,,,,,,,,,,,
1645708294.075427,248.000000,0.000000,4227.436035,4258.589844,4291.538574,4363.846191,4173.461426,4282.436035,4275.384766,4286.410156,4252.692383,4256.282227,4255.897461,4212.307617,4251.153809,4222.948730,3282.000000,4.000000,91.000000,,,,0.000000,4.000000,4.000000,4.000000,4.000000,4.000000,4.000000,4.000000,4.000000,4.000000,4.000000,4.000000,4.000000,4.000000,4.000000,100.000000,,,,,,,,,,,,,,,,
1645708294.079268,249.000000,0.000000,4229.102539,4255.256348,4291.794922,4363.333496,4172.692383,4283.717773,4276.794922,4287.692383,4251.025879,4246.666504,4252.820313,4210.641113,4249.871582,4221.922852,3296.000000,4.000000,91.000000,,,,0.000000,4.000000,4.000000,4.000000,4.000000,4.000000,4.000000,4.000000,4.000000,4.000000,4.000000,4.000000,4.000000,4.000000,4.000000,100.000000,,,,,,,,,,,,,,,,
1645708294.083208,250.000000,0.000000,4232.179688,4259.743652,4291.282227,4365.512695,4191.794922,4287.692383,4278.974121,4288.717773,4249.230957,4241.410156,4251.025879,4211.282227,4249.743652,4223.461426,2769.000000,4.000000,91.000000,,,,0.000000,4.000000,4.000000,4.000000,4.000000,4.000000,4.000000,4.000000,4.000000,4.000000,4.000000,4.000000,4.000000,4.000000,4.000000,100.000000,,,,,,,,,,,,,,,,
1645708294.087148,251.000000,0.000000,4237.307617,4270.384766,4293.589844,4369.230957,4216.410156,4290.256348,4281.025879,4288.205078,4248.333496,4242.051270,4250.512695,4214.358887,4249.358887,4224.487305,3437.000000,4.000000,91.000000,,,,0.000000,4.000000,4.000000,4.000000,4.000000,4.000000,4.000000,4.000000,4.000000,4.000000,4.000000,4.000000,4.000000,4.000000,4.000000,100.000000,,,,,,,,,,,,,,,,
1645708294.091088,252.000000,0.000000,4243.717773,4281.153809,4299.871582,4375.000000,4230.897461,4288.461426,4282.692383,4286.666504,4249.358887,4246.794922,4250.256348,4219.102539,4248.205078,4223.717773,3282.000000,4.000000,91.000000,,,,0.000000,4.000000,4.000000,4.000000,4.000000,4.000000,4.000000,4.000000,4.000000,4.000000,4.000000,4.000000,4.000000,4.000000,4.000000,100.000000,,,,,,,,,,,,,,,,
1645708294.094928,253.000000,0.000000,4250.128418,4286.666504,4308.333496,4383.589844,4229.615234,4283.461426,4283.846191,4285.384766,4252.307617,4252.563965,4250.000000,4223.974121,4247.436035,4222.692383,3296.000000,4.000000,91.000000,,,,0.000000,4.000000,4.000000,4.000000,4.000000,4.000000,4.000000,4.000000,4.000000,4.000000,4.000000,4.000000,4.000000,4.000000,4.000000,100.000000,,,,,,,,,,,,,,,,
1645708294.098868,254.000000,0.000000,4254.871582,4285.384766,4315.512695,4391.922852,4218.461426,4279.230957,4283.974121,4283.974121,4255.256348,4256.282227,4249.615234,4227.820313,4248.205078,4223.205078,2769.000000,4.000000,91.000000,,,,0.000000,4.000000,4.000000,4.000000,4.000000,4.000000,4.000000,4.000000,4.000000,4.000000,4.000000,4.000000,4.000000,4.000000,4.000000,100.000000,,,,,,,,,,,,,,,,
1645708294.102808,255.000000,0.000000,4256.666504,4279.615234,4318.974121,4394.230957,4205.769043,4279.230957,4282.563965,4280.897461,4255.384766,4256.153809,4248.974121,4230.128418,4249.743652,4224.487305,114.000000,4.000000,91.000000,,,,0.000000,4.000000,4.000000,4.000000,4.000000,4.000000,4.000000,4.000000,4.000000,4.000000,4.000000,4.000000,4.000000,4.000000,4.000000,100.000000,,,,,,,,,,,,,,,,
1645708294.106748,0.000000,0.000000,4255.384766,4273.461426,4318.589844,4387.436035,4196.666504,4282.563965,4280.256348,4275.512695,4251.666504,4252.692383,4247.436035,4231.025879,4250.256348,4224.358887,3266.000000,4.000000,91.000000,,,,0.000000,4.000000,4.000000,4.000000,4.000000,4.000000,4.000000,4.000000,4.000000,4.000000,4.000000,4.000000,4.000000,4.000000,4.000000,100.000000,,,,,,,,,,,,,,,,
1645708294.110788,1.000000,0.000000,4252.307617,4270.512695,4315.769043,4376.666504,4191.153809,4285.641113,4278.333496,4268.974121,4245.897461,4248.589844,4244.871582,4231.025879,4248.333496,4221.282227,3174.000000,4.000000,91.000000,,,,0.000000,4.000000,4.000000,4.000000,4.000000,4.000000,4.000000,4.000000,4.000000,4.000000,4.000000,4.000000,4.000000,4.000000,4.000000,100.000000,,,,,,,,,,,,,,,,
1645708294.114828,2.000000,0.000000,4249.615234,4272.820313,4312.820313,4371.410156,4188.205078,4285.897461,4278.077148,4264.743652,4242.307617,4247.051270,4243.205078,4229.871582,4245.512695,4216.410156,3471.000000,4.000000,91.000000,,,,0.000000,4.000000,4.000000,4.000000,4.000000,4.000000,4.000000,4.000000,4.000000,4.000000,4.000000,4.000000,4.000000,4.000000,4.000000,100.000000,,,,,,,,,,,,,,,,
1645708294.118769,3.000000,0.000000,4248.974121,4279.743652,4311.282227,4377.179688,4189.230957,4284.358887,4280.000000,4264.871582,4242.820313,4250.000000,4244.615234,4228.205078,4244.487305,4212.436035,3244.000000,4.000000,91.000000,,,,0.000000,4.000000,4.000000,4.000000,4.000000,4.000000,4.000000,4.000000,4.000000,4.000000,4.000000,4.000000,4.000000,4.000000,4.000000,100.000000,,,,,,,,,,,,,,,,
1645708294.122709,4.000000,0.000000,4250.512695,4287.563965,4311.025879,4390.128418,4197.436035,4284.102539,4283.333496,4268.846191,4246.282227,4255.897461,4249.230957,4226.410156,4246.922852,4211.153809,3563.000000,4.000000,91.000000,,,,0.000000,4.000000,4.000000,4.000000,4.000000,4.000000,4.000000,4.000000,4.000000,4.000000,4.000000,4.000000,4.000000,4.000000,4.000000,100.000000,,,,,,,,,,,,,,,,
1645708294.126649,5.000000,0.000000,4252.563965,4291.538574,4311.538574,4401.410156,4213.589844,4286.025879,4286.538574,4273.974121,4249.615234,4261.025879,4254.230957,4224.230957,4251.538574,4211.538574,3170.000000,4.000000,91.000000,,,,0.000000,4.000000,4.000000,4.000000,4.000000,4.000000,4.000000,4.000000,4.000000,4.000000,4.000000,4.000000,4.000000,4.000000,4.000000,100.000000,,,,,,,,,,,,,,,,
1645708294.130589,6.000000,0.000000,4253.461426,4289.871582,4312.051270,4403.846191,4230.128418,4288.333496,4288.077148,4277.051270,4250.641113,4261.666504,4255.512695,4221.282227,4255.641113,4211.025879,3195.000000,4.000000,91.000000,,,,0.000000,4.000000,4.000000,4.000000,4.000000,4.000000,4.000000,4.000000,4.000000,4.000000,4.000000,4.000000,4.000000,4.000000,4.000000,100.000000,,,,,,,,,,,,,,,,
1645708294.134529,7.000000,0.000000,4252.692383,4284.230957,4312.692383,4396.922852,4235.769043,4288.205078,4286.794922,4276.282227,4249.358887,4257.179688,4251.666504,4217.307617,4256.922852,4208.333496,2835.000000,4.000000,91.000000,,,,0.000000,4.000000,4.000000,4.000000,4.000000,4.000000,4.000000,4.000000,4.000000,4.000000,4.000000,4.000000,4.000000,4.000000,4.000000,100.000000,,,,,,,,,,,,,,,,
1645708294.138469,8.000000,0.000000,4251.153809,4278.205078,4312.948730,4385.512695,4225.384766,4285.000000,4283.461426,4272.692383,4247.307617,4251.153809,4245.256348,4212.948730,4255.128418,4204.487305,1550.000000,4.000000,91.000000,,,,0.000000,4.000000,4.000000,4.000000,4.000000,4.000000,4.000000,4.000000,4.000000,4.000000,4.000000,4.000000,4.000000,4.000000,4.000000,100.000000,,,,,,,,,,,,,,,,
1645708294.142409,9.000000,0.000000,4249.358887,4274.230957,4311.794922,4375.769043,4206.153809,4281.538574,4279.487305,4268.717773,4245.641113,4247.307617,4240.128418,4208.846191,4251.538574,4201.153809,3269.000000,4.000000,91.000000,,,,0.000000,4.000000,4.000000,4.000000,4.000000,4.000000,4.000000,4.000000,4.000000,4.000000,4.000000,4.000000,4.000000,4.000000,4.000000,100.000000,,,,,,,,,,,,,,,,
1645708294.146349,10.000000,0.000000,4246.410156,4273.205078,4307.948730,4371.153809,4192.692383,4280.769043,4276.922852,4267.563965,4245.000000,4246.282227,4238.461426,4204.871582,4248.077148,4198.717773,2678.000000,4.000000,91.000000,,,,0.000000,4.000000,4.000000,4.000000,4.000000,4.000000,4.000000,4.000000,4.000000,4.000000,4.000000,4.000000,4.000000,4.000000,4.000000,100.000000,,,,,,,,,,,,,,,,
1645708294.150289,11.000000,0.000000,4241.538574,4275.128418,4301.922852,4372.307617,4194.743652,4283.846191,4276.794922,4270.256348,4245.384766,4245.897461,4239.230957,4200.512695,4246.282227,4196.025879,3419.000000,4.000000,91.000000,,,,0.000000,4.000000,4.000000,4.000000,4.000000,4.000000,4.000000,4.000000,4.000000,4.000000,4.000000,4.000000,4.000000,4.000000,4.000000,100.000000,,,,,,,,,,,,,,,,
1645708294.154229,12.000000,0.000000,4235.256348,4279.743652,4296.538574,4377.179688,4209.871582,4289.102539,4279.230957,4276.153809,4246.922852,4245.384766,4241.282227,4197.307617,4247.179688,4193.589844,3368.000000,4.000000,91.000000,,,,0.000000,4.000000,4.000000,4.000000,4.000000,4.000000,4.000000,4.000000,4.000000,4.000000,4.000000,4.000000,4.000000,4.000000,4.000000,100.000000,,,,,,,,,,,,,,,,
1645708294.158170,13.000000,0.000000,4230.000000,4285.256348,4295.128418,4382.179688,4226.153809,4293.974121,4282.948730,4283.333496,4250.769043,4246.922852,4245.128418,4197.563965,4251.153809,4193.077148,3035.000000,4.000000,91.000000,,,,0.000000,4.000000,4.000000,4.000000,4.000000,4.000000,4.000000,4.000000,4.000000,4.000000,4.000000,4.000000,4.000000,4.000000,4.000000,100.000000,,,,,,,,,,,,,,,,
1645708294.162110,14.000000,0.000000,4227.436035,4289.102539,4298.205078,4383.846191,4231.922852,4295.512695,4286.153809,4289.743652,4257.051270,4253.205078,4251.666504,4202.692383,4257.692383,4196.666504,2678.000000,4.000000,91.000000,,,,0.000000,4.000000,4.000000,4.000000,4.000000,4.000000,4.000000,4.000000,4.000000,4.000000,4.000000,4.000000,4.000000,4.000000,4.000000,100.000000,,,,,,,,,,,,,,,,
1645708294.166050,15.000000,0.000000,4226.538574,4288.461426,4303.077148,4380.897461,4224.615234,4292.179688,4286.922852,4293.589844,4263.717773,4263.461426,4259.743652,4210.641113,4264.871582,4203.205078,3419.000000,4.000000,91.000000,,,,0.000000,4.000000,4.000000,4.000000,4.000000,4.000000,4.000000,4.000000,4.000000,4.000000,4.000000,4.000000,4.000000,4.000000,4.000000,100.000000,,,,,,,,,,,,,,,,
1645708294.169990,16.000000,0.000000,4224.230957,4283.333496,4305.897461,4374.487305,4211.153809,4285.128418,4284.743652,4292.948730,4267.179688,4272.436035,4265.769043,4216.666504,4269.487305,4208.333496,3368.000000,4.000000,91.000000,,,,0.000000,4.000000,4.000000,4.000000,4.000000,4.000000,4.000000,4.000000,4.000000,4.000000,4.000000,4.000000,4.000000,4.000000,4.000000,100.000000,,,,,,,,,,,,,,,,
1645708294.173830,17.000000,0.000000,4219.230957,4276.666504,4304.615234,4366.922852,4202.307617,4278.205078,4281.666504,4288.077148,4265.128418,4275.128418,4266.410156,4217.307617,4269.102539,4208.589844,3035.000000,4.000000,91.000000,,,,0.000000,4.000000,4.000000,4.000000,4.000000,4.000000,4.000000,4.000000,4.000000,4.000000,4.000000,4.000000,4.000000,4.000000,4.000000,100.000000,,,,,,,,,,,,,,,,
1645708294.177770,18.000000,0.000000,4214.358887,4272.948730,4301.922852,4360.897461,4205.128418,4275.384766,4279.743652,4282.051270,4259.487305,4271.922852,4262.692383,4214.358887,4264.487305,4204.743652,2678.000000,4.000000,91.000000,,,,0.000000,4.000000,4.000000,4.000000,4.000000,4.000000,4.000000,4.000000,4.000000,4.000000,4.000000,4.000000,4.000000,4.000000,4.000000,100.000000,,,,,,,,,,,,,,,,
1645708294.181710,19.000000,0.000000,4214.230957,4275.128418,4301.794922,4359.487305,4218.589844,4278.077148,4279.743652,4278.846191,4255.000000,4268.333496,4258.717773,4212.436035,4259.358887,4201.153809,3419.000000,4.000000,91.000000,,,,0.000000,4.000000,4.000000,4.000000,4.000000,4.000000,4.000000,4.000000,4.000000,4.000000,4.000000,4.000000,4.000000,4.000000,4.000000,100.000000,,,,,,,,,,,,,,,,
1645708294.185650,20.000000,0.000000,4220.897461,4281.666504,4306.794922,4363.589844,4233.333496,4283.717773,4279.743652,4280.897461,4255.384766,4269.102539,4258.461426,4214.230957,4257.563965,4201.666504,3368.000000,4.000000,91.000000,,,,0.000000,4.000000,4.000000,4.000000,4.000000,4.000000,4.000000,4.000000,4.000000,4.000000,4.000000,4.000000,4.000000,4.000000,4.000000,100.000000,,,,,,,,,,,,,,,,
1645708294.189591,21.000000,0.000000,4230.384766,4287.948730,4314.358887,4370.256348,4237.307617,4287.179688,4278.077148,4286.410156,4259.871582,4274.487305,4261.794922,4218.333496,4259.615234,4205.256348,3035.000000,4.000000,91.000000,,,,0.000000,4.000000,4.000000,4.000000,4.000000,4.000000,4.000000,4.000000,4.000000,4.000000,4.000000,4.000000,4.000000,4.000000,4.000000,100.000000,,,,,,,,,,,,,,,,
1645708294.193531,22.000000,0.000000,4235.384766,4288.717773,4319.487305,4373.846191,4225.256348,4285.512695,4274.743652,4290.897461,4263.846191,4279.743652,4265.384766,4221.025879,4262.436035,4207.563965,2678.000000,4.000000,91.000000,,,,0.000000,4.000000,4.000000,4.000000,4.000000,4.000000,4.000000,4.000000,4.000000,4.000000,4.000000,4.000000,4.000000,4.000000,4.000000,100.000000,,,,,,,,,,,,,,,,
1645708294.197471,23.000000,0.000000,4231.794922,4282.820313,4317.563965,4371.794922,4203.461426,4280.000000,4271.794922,4290.128418,4263.333496,4279.871582,4265.769043,4219.615234,4262.948730,4205.384766,3419.000000,4.000000,91.000000,,,,0.000000,4.000000,4.000000,4.000000,4.000000,4.000000,4.000000,4.000000,4.000000,4.000000,4.000000,4.000000,4.000000,4.000000,4.000000,100.000000,,,,,,,,,,,,,,,,
1645708294.201411,24.000000,0.000000,4221.153809,4274.102539,4308.333496,4366.794922,4186.153809,4274.743652,4270.384766,4284.102539,4258.589844,4273.333496,4261.922852,4215.000000,4260.000000,4199.230957,3368.000000,4.000000,91.000000,,,,0.000000,4.000000,4.000000,4.000000,4.000000,4.000000,4.000000,4.000000,4.000000,4.000000,4.000000,4.000000,4.000000,4.000000,4.000000,100.000000,,,,,,,,,,,,,,,,
1645708294.205351,25.000000,0.000000,4209.358887,4267.436035,4297.051270,4363.717773,4183.589844,4272.692383,4270.384766,4276.794922,4252.820313,4263.333496,4256.410156,4210.512695,4255.641113,4192.820313,3035.000000,4.000000,91.000000,,,,0.000000,4.000000,4.000000,4.000000,4.000000,4.000000,4.000000,4.000000,4.000000,4.000000,4.000000,4.000000,4.000000,4.000000,4.000000,100.000000,,,,,,,,,,,,,,,,
1645708294.209291,26.000000,0.000000,4202.051270,4265.769043,4290.256348,4363.333496,4195.897461,4273.461426,4271.153809,4273.333496,4249.743652,4255.256348,4252.051270,4209.487305,4252.692383,4189.615234,2678.000000,4.000000,91.000000,,,,0.000000,4.000000,4.000000,4.000000,4.000000,4.000000,4.000000,4.000000,4.000000,4.000000,4.000000,4.000000,4.000000,4.000000,4.000000,100.000000,,,,,,,,,,,,,,,,
1645708294.213231,27.000000,0.000000,4201.922852,4268.333496,4290.769043,4362.307617,4214.743652,4275.384766,4272.307617,4275.256348,4250.769043,4253.077148,4250.897461,4212.307617,4252.307617,4190.641113,3419.000000,4.000000,91.000000,,,,0.000000,4.000000,4.000000,4.000000,4.000000,4.000000,4.000000,4.000000,4.000000,4.000000,4.000000,4.000000,4.000000,4.000000,4.000000,100.000000,,,,,,,,,,,,,,,,
1645708294.217171,28.000000,0.000000,4206.538574,4271.282227,4295.512695,4357.179688,4229.358887,4276.922852,4273.333496,4280.128418,4254.102539,4257.307617,4252.563965,4216.666504,4253.846191,4193.846191,3368.000000,4.000000,91.000000,,,,0.000000,4.000000,4.000000,4.000000,4.000000,4.000000,4.000000,4.000000,4.000000,4.000000,4.000000,4.000000,4.000000,4.000000,4.000000,100.000000,,,,,,,,,,,,,,,,
1645708294.221111,29.000000,0.000000,4210.769043,4271.282227,4297.820313,4348.461426,4232.436035,4277.692383,4273.333496,4283.461426,4257.179688,4263.974121,4254.615234,4218.333496,4254.615234,4195.256348,3035.000000,4.000000,91.000000,,,,0.000000,4.000000,4.000000,4.000000,4.000000,4.000000,4.000000,4.000000,4.000000,4.000000,4.000000,4.000000,4.000000,4.000000,4.000000,100.000000,,,,,,,,,,,,,,,,
1645708294.225051,30.000000,0.000000,4210.256348,4267.692383,4293.846191,4338.717773,4222.307617,4277.692383,4271.794922,4281.922852,4257.307617,4266.666504,4254.358887,4215.256348,4252.692383,4192.051270,2678.000000,4.000000,91.000000,,,,0.000000,4.000000,4.000000,4.000000,4.000000,4.000000,4.000000,4.000000,4.000000,4.000000,4.000000,4.000000,4.000000,4.000000,4.000000,100.000000,,,,,,,,,,,,,,,,
1645708294.228992,31.000000,0.000000,4204.615234,4262.051270,4285.641113,4329.358887,4205.128418,4276.538574,4269.615234,4276.153809,4254.358887,4261.410156,4250.000000,4208.461426,4247.436035,4184.230957,3419.000000,4.000000,91.000000,,,,0.000000,4.000000,4.000000,4.000000,4.000000,4.000000,4.000000,4.000000,4.000000,4.000000,4.000000,4.000000,4.000000,4.000000,4.000000,100.000000,,,,,,,,,,,,,,,,
1645708294.232932,32.000000,0.000000,4197.563965,4256.153809,4278.717773,4320.641113,4190.769043,4274.358887,4268.846191,4269.487305,4250.128418,4248.846191,4242.948730,4200.897461,4240.641113,4173.974121,0.000000,4.000000,91.000000,,,,0.000000,4.000000,4.000000,4.000000,4.000000,4.000000,4.000000,4.000000,4.000000,4.000000,4.000000,4.000000,4.000000,4.000000,4.000000,100.000000,,,,,,,,,,,,,,,,
1645708294.236872,33.000000,0.000000,4193.333496,4252.307617,4276.666504,4313.974121,4185.641113,4272.051270,4270.512695,4264.743652,4246.922852,4234.871582,4236.410156,4195.512695,4235.256348,4164.487305,0.000000,4.000000,91.000000,,,,0.000000,4.000000,4.000000,4.000000,4.000000,4.000000,4.000000,4.000000,4.000000,4.000000,4.000000,4.000000,4.000000,4.000000,4.000000,100.000000,,,,,,,,,,,,,,,,
1645708294.240812,34.000000,0.000000,4192.948730,4251.922852,4278.461426,4312.436035,4187.436035,4270.769043,4272.948730,4262.692383,4246.153809,4226.538574,4233.205078,4192.563965,4233.974121,4157.820313,0.000000,4.000000,91.000000,,,,0.000000,4.000000,4.000000,4.000000,4.000000,4.000000,4.000000,4.000000,4.000000,4.000000,4.000000,4.000000,4.000000,4.000000,4.000000,100.000000,,,,,,,,,,,,,,,,
1645708294.244852,35.000000,0.000000,4193.717773,4254.358887,4279.487305,4316.922852,4188.333496,4270.641113,4273.461426,4262.307617,4246.922852,4226.794922,4232.563965,4190.512695,4235.641113,4153.333496,0.000000,4.000000,91.000000,,,,0.000000,4.000000,4.000000,4.000000,4.000000,4.000000,4.000000,4.000000,4.000000,4.000000,4.000000,4.000000,4.000000,4.000000,4.000000,100.000000,,,,,,,,,,,,,,,,
1645708294.248792,36.000000,0.000000,4192.051270,4256.922852,4276.282227,4323.333496,4182.692383,4270.256348,4270.128418,4262.051270,4247.436035,4233.333496,4230.897461,4187.307617,4236.025879,4148.846191,0.000000,4.000000,91.000000,,,,0.000000,4.000000,4.000000,4.000000,4.000000,4.000000,4.000000,4.000000,4.000000,4.000000,4.000000,4.000000,4.000000,4.000000,4.000000,100.000000,,,,,,,,,,,,,,,,
1645708294.252732,37.000000,0.000000,4186.025879,4256.282227,4269.230957,4325.256348,4172.948730,4268.589844,4265.128418,4262.051270,4246.538574,4240.000000,4225.641113,4182.179688,4231.538574,4142.692383,0.000000,4.000000,91.000000,,,,0.000000,4.000000,4.000000,4.000000,4.000000,4.000000,4.000000,4.000000,4.000000,4.000000,4.000000,4.000000,4.000000,4.000000,4.000000,100.000000,,,,,,,,,,,,,,,,
1645708294.256672,38.000000,0.000000,4178.846191,4251.794922,4263.333496,4319.102539,4167.820313,4266.666504,4262.820313,4263.717773,4245.000000,4243.333496,4218.846191,4177.307617,4223.205078,4136.410156,0.000000,4.000000,91.000000,,,,0.000000,4.000000,4.000000,4.000000,4.000000,4.000000,4.000000,4.000000,4.000000,4.000000,4.000000,4.000000,4.000000,4.000000,4.000000,100.000000,,,,,,,,,,,,,,,,
1645708294.260612,39.000000,0.000000,4176.153809,4246.666504,4264.487305,4308.333496,4175.256348,4266.794922,4266.153809,4268.205078,4244.871582,4243.589844,4215.897461,4175.769043,4216.666504,4134.358887,0.000000,4.000000,91.000000,,,,0.000000,4.000000,4.000000,4.000000,4.000000,4.000000,4.000000,4.000000,4.000000,4.000000,4.000000,4.000000,4.000000,4.000000,4.000000,100.000000,,,,,,,,,,,,,,,,
1645708294.264552,40.000000,0.000000,4181.922852,4245.256348,4274.102539,4301.538574,4194.743652,4270.256348,4274.102539,4274.487305,4247.307617,4243.974121,4220.641113,4180.000000,4217.820313,4139.615234,0.000000,4.000000,91.000000,,,,0.000000,4.000000,4.000000,4.000000,4.000000,4.000000,4.000000,4.000000,4.000000,4.000000,4.000000,4.000000,4.000000,4.000000,4.000000,100.000000,,,,,,,,,,,,,,,,
1645708294.268493,41.000000,0.000000,4194.487305,4249.615234,4287.948730,4305.641113,4217.307617,4276.282227,4282.436035,4279.487305,4251.538574,4246.794922,4231.794922,4188.846191,4226.922852,4150.512695,0.000000,4.000000,91.000000,,,,0.000000,4.000000,4.000000,4.000000,4.000000,4.000000,4.000000,4.000000,4.000000,4.000000,4.000000,4.000000,4.000000,4.000000,4.000000,100.000000,,,,,,,,,,,,,,,,
1645708294.272433,42.000000,0.000000,4207.692383,4258.205078,4298.333496,4320.769043,4230.769043,4282.563965,4286.410156,4281.282227,4255.128418,4252.179688,4243.589844,4198.589844,4238.974121,4161.282227,0.000000,4.000000,91.000000,,,,0.000000,4.000000,4.000000,4.000000,4.000000,4.000000,4.000000,4.000000,4.000000,4.000000,4.000000,4.000000,4.000000,4.000000,4.000000,100.000000,,,,,,,,,,,,,,,,
1645708294.276373,43.000000,0.000000,4214.487305,4266.666504,4300.128418,4338.461426,4227.948730,4286.666504,4283.846191,4279.487305,4256.282227,4257.948730,4250.256348,4204.230957,4247.307617,4166.666504,0.000000,4.000000,91.000000,,,,0.000000,4.000000,4.000000,4.000000,4.000000,4.000000,4.000000,4.000000,4.000000,4.000000,4.000000,4.000000,4.000000,4.000000,4.000000,100.000000,,,,,,,,,,,,,,,,
1645708294.280313,44.000000,0.000000,4212.307617,4270.128418,4293.333496,4346.922852,4210.897461,4286.922852,4276.153809,4276.282227,4255.384766,4261.410156,4250.769043,4203.333496,4248.461426,4165.128418,0.000000,4.000000,91.000000,,,,0.000000,4.000000,4.000000,4.000000,4.000000,4.000000,4.000000,4.000000,4.000000,4.000000,4.000000,4.000000,4.000000,4.000000,4.000000,100.000000,,,,,,,,,,,,,,,,
1645708294.284253,45.000000,0.000000,4203.717773,4265.512695,4282.948730,4339.743652,4189.487305,4283.589844,4268.077148,4274.102539,4254.230957,4261.410156,4247.563965,4196.922852,4243.974121,4158.974121,0.000000,4.000000,91.000000,,,,0.000000,4.000000,4.000000,4.000000,4.000000,4.000000,4.000000,4.000000,4.000000,4.000000,4.000000,4.000000,4.000000,4.000000,4.000000,100.000000,,,,,,,,,,,,,,,,
1645708294.288193,46.000000,0.000000,4194.487305,4254.358887,4275.641113,4321.538574,4175.128418,4278.077148,4264.615234,4273.846191,4254.230957,4258.461426,4244.487305,4189.358887,4238.205078,4151.794922,0.000000,4.000000,91.000000,,,,0.000000,4.000000,4.000000,4.000000,4.000000,4.000000,4.000000,4.000000,4.000000,4.000000,4.000000,4.000000,4.000000,4.000000,4.000000,100.000000,,,,,,,,,,,,,,,,
1645708294.292133,47.000000,0.000000,4189.871582,4242.051270,4274.743652,4304.743652,4174.230957,4273.077148,4266.794922,4274.102539,4254.615234,4253.717773,4243.461426,4184.615234,4235.512695,4146.025879,0.000000,4.000000,91.000000,,,,0.000000,4.000000,4.000000,4.000000,4.000000,4.000000,4.000000,4.000000,4.000000,4.000000,4.000000,4.000000,4.000000,4.000000,4.000000,100.000000,,,,,,,,,,,,,,,,
1645708294.296073,48.000000,0.000000,4191.538574,4235.128418,4278.974121,4300.641113,4184.487305,4270.512695,4270.897461,4272.563965,4253.077148,4247.948730,4243.589844,4183.589844,4236.794922,4142.948730,0.000000,4.000000,91.000000,,,,0.000000,4.000000,4.000000,4.000000,4.000000,4.000000,4.000000,4.000000,4.000000,4.000000,4.000000,4.000000,4.000000,4.000000,4.000000,100.000000,,,,,,,,,,,,,,,,
1645708294.300013,49.000000,0.000000,4196.794922,4235.897461,4282.948730,4310.512695,4198.077148,4269.230957,4271.922852,4268.205078,4248.589844,4241.922852,4242.692383,4184.102539,4239.230957,4141.282227,0.000000,4.000000,91.000000,,,,0.000000,4.000000,4.000000,4.000000,4.000000,4.000000,4.000000,4.000000,4.000000,4.000000,4.000000,4.000000,4.000000,4.000000,4.000000,100.000000,,,,,,,,,,,,,,,,
1645708294.303953,50.000000,0.000000,4200.384766,4240.641113,4282.307617,4325.000000,4205.769043,4266.794922,4267.179688,4262.179688,4243.205078,4235.641113,4239.230957,4182.563965,4239.358887,4139.102539,0.000000,4.000000,91.000000,,,,0.000000,4.000000,4.000000,4.000000,4.000000,4.000000,4.000000,4.000000,4.000000,4.000000,4.000000,4.000000,4.000000,4.000000,4.000000,100.000000,,,,,,,,,,,,,,,,
1645708294.307894,51.000000,0.000000,4199.358887,4243.717773,4276.538574,4331.794922,4203.205078,4261.922852,4259.102539,4257.179688,4240.384766,4229.871582,4233.461426,4177.307617,4236.153809,4134.743652,0.000000,4.000000,91.000000,,,,0.000000,4.000000,4.000000,4.000000,4.000000,4.000000,4.000000,4.000000,4.000000,4.000000,4.000000,4.000000,4.000000,4.000000,4.000000,100.000000,,,,,,,,,,,,,,,,
1645708294.311834,52.000000,0.000000,4194.487305,4242.948730,4268.846191,4326.410156,4193.077148,4257.051270,4251.922852,4255.256348,4242.436035,4226.410156,4228.333496,4170.641113,4231.794922,4129.487305,0.000000,4.000000,91.000000,,,,0.000000,4.000000,4.000000,4.000000,4.000000,4.000000,4.000000,4.000000,4.000000,4.000000,4.000000,4.000000,4.000000,4.000000,4.000000,100.000000,,,,,,,,,,,,,,,,
1645708294.315774,53.000000,0.000000,4189.743652,4241.153809,4263.333496,4315.256348,4183.461426,4255.512695,4249.871582,4256.538574,4248.589844,4228.333496,4227.563965,4166.666504,4230.256348,4126.794922,0.000000,4.000000,91.000000,,,,0.000000,4.000000,4.000000,4.000000,4.000000,4.000000,4.000000,4.000000,4.000000,4.000000,4.000000,4.000000,4.000000,4.000000,4.000000,100.000000,,,,,,,,,,,,,,,,
1645708294.319614,54.000000,0.000000,4188.333496,4241.153809,4262.051270,4306.666504,4181.282227,4259.102539,4253.077148,4259.358887,4255.384766,4236.666504,4232.563965,4168.461426,4233.077148,4129.358887,0.000000,4.000000,91.000000,,,,0.000000,4.000000,4.000000,4.000000,4.000000,4.000000,4.000000,4.000000,4.000000,4.000000,4.000000,4.000000,4.000000,4.000000,4.000000,100.000000,,,,,,,,,,,,,,,,
1645708294.323554,55.000000,0.000000,4189.871582,4241.922852,4263.205078,4302.692383,4185.000000,4265.384766,4258.461426,4261.666504,4259.487305,4248.077148,4239.871582,4174.102539,4237.692383,4134.615234,0.000000,4.000000,91.000000,,,,0.000000,4.000000,4.000000,4.000000,4.000000,4.000000,4.000000,4.000000,4.000000,4.000000,4.000000,4.000000,4.000000,4.000000,4.000000,100.000000,,,,,,,,,,,,,,,,
1645708294.327494,56.000000,0.000000,4190.512695,4239.230957,4263.205078,4298.589844,4186.794922,4269.102539,4262.051270,4262.051270,4259.102539,4255.512695,4243.717773,4178.461426,4239.358887,4135.769043,0.000000,4.000000,91.000000,,,,0.000000,4.000000,4.000000,4.000000,4.000000,4.000000,4.000000,4.000000,4.000000,4.000000,4.000000,4.000000,4.000000,4.000000,4.000000,100.000000,,,,,,,,,,,,,,,,
1645708294.331434,57.000000,0.000000,4187.179688,4231.794922,4259.871582,4290.512695,4181.410156,4267.051270,4261.666504,4261.025879,4255.384766,4254.358887,4240.128418,4177.179688,4235.641113,4128.333496,0.000000,4.000000,91.000000,,,,0.000000,4.000000,4.000000,4.000000,4.000000,4.000000,4.000000,4.000000,4.000000,4.000000,4.000000,4.000000,4.000000,4.000000,4.000000,100.000000,,,,,,,,,,,,,,,,
1645708294.335374,58.000000,0.000000,4181.025879,4223.461426,4253.717773,4281.410156,4172.051270,4259.871582,4258.589844,4260.256348,4251.025879,4246.153809,4231.538574,4170.512695,4228.974121,4115.128418,0.000000,4.000000,91.000000,,,,0.000000,4.000000,4.000000,4.000000,4.000000,4.000000,4.000000,4.000000,4.000000,4.000000,4.000000,4.000000,4.000000,4.000000,4.000000,100.000000,,,,,,,,,,,,,,,,
1645708294.339315,59.000000,0.000000,4176.538574,4218.717773,4247.436035,4278.205078,4166.153809,4252.436035,4255.000000,4260.256348,4248.974121,4237.820313,4223.846191,4162.692383,4224.102539,4103.717773,0.000000,4.000000,91.000000,,,,0.000000,4.000000,4.000000,4.000000,4.000000,4.000000,4.000000,4.000000,4.000000,4.000000,4.000000,4.000000,4.000000,4.000000,4.000000,100.000000,,,,,,,,,,,,,,,,
1645708294.343255,60.000000,0.000000,4177.820313,4218.461426,4244.358887,4284.230957,4166.794922,4249.230957,4252.948730,4260.000000,4249.358887,4235.512695,4221.410156,4158.974121,4223.717773,4100.384766,0.000000,4.000000,91.000000,,,,0.000000,4.000000,4.000000,4.000000,4.000000,4.000000,4.000000,4.000000,4.000000,4.000000,4.000000,4.000000,4.000000,4.000000,4.000000,100.000000,,,,,,,,,,,,,,,,
1645708294.347195,61.000000,0.000000,4184.487305,4219.487305,4246.153809,4294.743652,4169.871582,4250.897461,4252.948730,4258.333496,4250.641113,4239.871582,4224.102539,4161.282227,4227.051270,4105.384766,0.000000,4.000000,91.000000,,,,0.000000,4.000000,4.000000,4.000000,4.000000,4.000000,4.000000,4.000000,4.000000,4.000000,4.000000,4.000000,4.000000,4.000000,4.000000,100.000000,,,,,,,,,,,,,,,,
1645708294.351135,62.000000,0.000000,4192.563965,4218.461426,4251.410156,4301.410156,4169.358887,4254.102539,4254.358887,4255.128418,4250.512695,4245.769043,4228.846191,4167.051270,4230.897461,4113.077148,0.000000,4.000000,91.000000,,,,0.000000,4.000000,4.000000,4.000000,4.000000,4.000000,4.000000,4.000000,4.000000,4.000000,4.000000,4.000000,4.000000,4.000000,4.000000,100.000000,,,,,,,,,,,,,,,,
1645708294.355075,63.000000,0.000000,4197.051270,4215.512695,4255.897461,4298.461426,4163.333496,4254.358887,4254.743652,4251.153809,4248.205078,4247.563965,4232.051270,4171.410156,4232.563965,4117.179688,0.000000,4.000000,91.000000,,,,0.000000,4.000000,4.000000,4.000000,4.000000,4.000000,4.000000,4.000000,4.000000,4.000000,4.000000,4.000000,4.000000,4.000000,4.000000,100.000000,,,,,,,,,,,,,,,,
1645708294.359015,64.000000,0.000000,4195.897461,4213.333496,4255.000000,4288.205078,4155.128418,4249.743652,4252.179688,4247.563965,4245.256348,4243.205078,4232.307617,4171.410156,4231.153809,4114.230957,0.000000,4.000000,91.000000,,,,0.000000,4.000000,4.000000,4.000000,4.000000,4.000000,4.000000,4.000000,4.000000,4.000000,4.000000,4.000000,4.000000,4.000000,4.000000,100.000000,,,,,,,,,,,,,,,,
1645708294.362955,65.000000,0.000000,4190.256348,4213.461426,4248.461426,4277.563965,4150.641113,4242.563965,4247.051270,4245.384766,4243.077148,4234.871582,4229.487305,4167.948730,4227.563965,4106.025879,0.000000,4.000000,91.000000,,,,0.000000,4.000000,4.000000,4.000000,4.000000,4.000000,4.000000,4.000000,4.000000,4.000000,4.000000,4.000000,4.000000,4.000000,4.000000,100.000000,,,,,,,,,,,,,,,,
1645708294.366895,66.000000,0.000000,4183.589844,4214.615234,4239.743652,4272.051270,4152.692383,4237.436035,4242.051270,4244.615234,4241.538574,4226.794922,4224.230957,4163.974121,4223.205078,4097.563965,0.000000,4.000000,91.000000,,,,0.000000,4.000000,4.000000,4.000000,4.000000,4.000000,4.000000,4.000000,4.000000,4.000000,4.000000,4.000000,4.000000,4.000000,4.000000,100.000000,,,,,,,,,,,,,,,,
1645708294.370835,67.000000,0.000000,4178.717773,4213.589844,4233.333496,4270.897461,4160.000000,4236.922852,4240.256348,4245.000000,4239.615234,4221.410156,4217.820313,4161.794922,4218.974121,4092.820557,0.000000,4.000000,91.000000,,,,0.000000,4.000000,4.000000,4.000000,4.000000,4.000000,4.000000,4.000000,4.000000,4.000000,4.000000,4.000000,4.000000,4.000000,4.000000,100.000000,,,,,,,,,,,,,,,,
1645708294.374775,68.000000,0.000000,4176.282227,4208.974121,4230.897461,4269.615234,4168.333496,4240.769043,4242.307617,4246.538574,4237.179688,4218.589844,4211.538574,4160.897461,4215.256348,4091.794922,0.000000,4.000000,91.000000,,,,0.000000,4.000000,4.000000,4.000000,4.000000,4.000000,4.000000,4.000000,4.000000,4.000000,4.000000,4.000000,4.000000,4.000000,4.000000,100.000000,,,,,,,,,,,,,,,,
1645708294.378716,69.000000,0.000000,4175.256348,4202.179688,4230.641113,4265.256348,4173.589844,4245.769043,4246.153809,4248.974121,4235.384766,4217.051270,4207.051270,4159.743652,4212.307617,4091.410156,0.000000,4.000000,91.000000,,,,0.000000,4.000000,4.000000,4.000000,4.000000,4.000000,4.000000,4.000000,4.000000,4.000000,4.000000,4.000000,4.000000,4.000000,4.000000,100.000000,,,,,,,,,,,,,,,,
1645708294.382656,70.000000,0.000000,4175.128418,4196.025879,4230.512695,4259.358887,4172.692383,4248.846191,4248.717773,4251.794922,4235.769043,4216.025879,4205.256348,4157.436035,4210.769043,4088.461426,0.000000,4.000000,91.000000,,,,0.000000,4.000000,4.000000,4.000000,4.000000,4.000000,4.000000,4.000000,4.000000,4.000000,4.000000,4.000000,4.000000,4.000000,4.000000,100.000000,,,,,,,,,,,,,,,,
1645708294.386596,71.000000,0.000000,4176.538574,4193.205078,4231.025879,4255.769043,4164.615234,4248.077148,4248.077148,4254.487305,4237.820313,4215.512695,4206.922852,4155.256348,4210.641113,4083.846191,0.000000,4.000000,91.000000,,,,0.000000,4.000000,4.000000,4.000000,4.000000,4.000000,4.000000,4.000000,4.000000,4.000000,4.000000,4.000000,4.000000,4.000000,4.000000,100.000000,,,,,,,,,,,,,,,,
1645708294.390436,72.000000,0.000000,4180.512695,4193.974121,4233.846191,4256.922852,4152.436035,4243.589844,4245.128418,4256.794922,4240.128418,4216.922852,4211.153809,4155.256348,4211.922852,4080.512939,0.000000,4.000000,91.000000,,,,0.000000,4.000000,4.000000,4.000000,4.000000,4.000000,4.000000,4.000000,4.000000,4.000000,4.000000,4.000000,4.000000,4.000000,4.000000,100.000000,,,,,,,,,,,,,,,,
1645708294.394376,73.000000,0.000000,4186.794922,4197.051270,4239.871582,4262.179688,4142.563965,4237.436035,4242.051270,4259.871582,4242.563965,4221.410156,4216.666504,4158.846191,4214.102539,4081.410156,0.000000,4.000000,91.000000,,,,0.000000,4.000000,4.000000,4.000000,4.000000,4.000000,4.000000,4.000000,4.000000,4.000000,4.000000,4.000000,4.000000,4.000000,4.000000,100.000000,,,,,,,,,,,,,,,,
1645708294.398316,74.000000,0.000000,4193.461426,4200.641113,4247.051270,4267.563965,4140.384766,4232.563965,4240.897461,4264.102539,4245.769043,4229.487305,4221.922852,4165.384766,4217.179688,4086.025635,0.000000,4.000000,91.000000,,,,0.000000,4.000000,4.000000,4.000000,4.000000,4.000000,4.000000,4.000000,4.000000,4.000000,4.000000,4.000000,4.000000,4.000000,4.000000,100.000000,,,,,,,,,,,,,,,,
1645708294.402256,75.000000,0.000000,4198.077148,4203.846191,4251.538574,4269.487305,4147.051270,4231.794922,4242.051270,4269.102539,4250.512695,4238.461426,4225.769043,4171.922852,4220.641113,4091.153809,0.000000,4.000000,91.000000,,,,0.000000,4.000000,4.000000,4.000000,4.000000,4.000000,4.000000,4.000000,4.000000,4.000000,4.000000,4.000000,4.000000,4.000000,4.000000,100.000000,,,,,,,,,,,,,,,,
1645708294.406196,76.000000,0.000000,4198.846191,4206.794922,4251.153809,4266.922852,4157.948730,4234.615234,4244.230957,4273.205078,4255.384766,4244.358887,4227.563965,4174.743652,4223.205078,4093.333252,0.000000,4.000000,91.000000,,,,0.000000,4.000000,4.000000,4.000000,4.000000,4.000000,4.000000,4.000000,4.000000,4.000000,4.000000,4.000000,4.000000,4.000000,4.000000,100.000000,,,,,,,,,,,,,,,,
1645708294.410137,77.000000,0.000000,4196.410156,4210.000000,4246.410156,4261.410156,4166.794922,4238.589844,4246.666504,4275.256348,4258.333496,4245.000000,4226.794922,4172.179688,4223.717773,4090.897461,0.000000,4.000000,91.000000,,,,0.000000,4.000000,4.000000,4.000000,4.000000,4.000000,4.000000,4.000000,4.000000,4.000000,4.000000,4.000000,4.000000,4.000000,4.000000,100.000000,,,,,,,,,,,,,,,,
1645708294.414077,78.000000,0.000000,4193.333496,4212.820313,4240.769043,4254.615234,4168.205078,4241.282227,4248.717773,4274.743652,4258.077148,4241.922852,4224.358887,4166.025879,4222.051270,4085.384521,0.000000,4.000000,91.000000,,,,0.000000,4.000000,4.000000,4.000000,4.000000,4.000000,4.000000,4.000000,4.000000,4.000000,4.000000,4.000000,4.000000,4.000000,4.000000,100.000000,,,,,,,,,,,,,,,,
1645708294.418017,79.000000,0.000000,4193.205078,4213.974121,4238.589844,4248.717773,4160.897461,4242.563965,4250.128418,4271.666504,4255.641113,4238.589844,4221.922852,4160.897461,4220.000000,4079.871826,0.000000,4.000000,91.000000,,,,0.000000,4.000000,4.000000,4.000000,4.000000,4.000000,4.000000,4.000000,4.000000,4.000000,4.000000,4.000000,4.000000,4.000000,4.000000,100.000000,,,,,,,,,,,,,,,,
1645708294.421957,80.000000,0.000000,4197.692383,4212.820313,4241.666504,4246.025879,4149.487305,4243.461426,4250.384766,4266.538574,4252.948730,4236.922852,4221.025879,4160.128418,4219.102539,4077.179443,0.000000,4.000000,91.000000,,,,0.000000,4.000000,4.000000,4.000000,4.000000,4.000000,4.000000,4.000000,4.000000,4.000000,4.000000,4.000000,4.000000,4.000000,4.000000,100.000000,,,,,,,,,,,,,,,,
1645708294.425897,81.000000,0.000000,4204.743652,4210.000000,4247.692383,4248.205078,4142.692383,4243.846191,4249.230957,4260.256348,4250.897461,4234.871582,4220.897461,4163.717773,4219.615234,4077.435791,0.000000,4.000000,91.000000,,,,0.000000,4.000000,4.000000,4.000000,4.000000,4.000000,4.000000,4.000000,4.000000,4.000000,4.000000,4.000000,4.000000,4.000000,4.000000,100.000000,,,,,,,,,,,,,,,,
1645708294.429837,82.000000,0.000000,4209.487305,4206.282227,4251.666504,4254.615234,4146.410156,4242.307617,4246.153809,4254.358887,4248.461426,4228.717773,4219.743652,4167.820313,4220.000000,4078.333252,0.000000,4.000000,91.000000,,,,0.000000,4.000000,4.000000,4.000000,4.000000,4.000000,4.000000,4.000000,4.000000,4.000000,4.000000,4.000000,4.000000,4.000000,4.000000,100.000000,1.000000,25.000000,4.000000,4.000000,3.000000,1.000000,1.000000,4.000000,4.000000,4.000000,4.000000,4.000000,4.000000,4.000000,4.000000,1.000000
1645708294.433777,83.000000,0.000000,4208.974121,4202.948730,4249.615234,4262.436035,4157.179688,4238.589844,4241.666504,4249.615234,4245.384766,4217.692383,4215.897461,4168.077148,4217.692383,4077.435791,0.000000,4.000000,91.000000,,,,0.000000,4.000000,4.000000,4.000000,4.000000,4.000000,4.000000,4.000000,4.000000,4.000000,4.000000,4.000000,4.000000,4.000000,4.000000,100.000000,,,,,,,,,,,,,,,,
1645708294.437717,84.000000,0.000000,4204.615234,4200.897461,4242.436035,4268.333496,4166.025879,4234.487305,4237.051270,4246.153809,4242.179688,4205.897461,4209.615234,4163.333496,4212.692383,4073.974365,0.000000,4.000000,91.000000,,,,0.000000,4.000000,4.000000,4.000000,4.000000,4.000000,4.000000,4.000000,4.000000,4.000000,4.000000,4.000000,4.000000,4.000000,4.000000,100.000000,,,,,,,,,,,,,,,,
1645708294.441657,85.000000,0.000000,4201.153809,4201.538574,4235.641113,4270.384766,4166.538574,4232.820313,4234.358887,4243.333496,4240.000000,4199.871582,4203.589844,4156.410156,4207.307617,4069.102539,0.000000,4.000000,91.000000,,,,0.000000,4.000000,4.000000,4.000000,4.000000,4.000000,4.000000,4.000000,4.000000,4.000000,4.000000,4.000000,4.000000,4.000000,4.000000,100.000000,,,,,,,,,,,,,,,,
1645708294.445597,86.000000,0.000000,4202.307617,4204.358887,4234.230957,4268.205078,4160.384766,4235.000000,4235.512695,4241.666504,4239.615234,4203.077148,4200.128418,4152.179688,4204.743652,4065.128174,0.000000,4.000000,91.000000,,,,0.000000,4.000000,4.000000,4.000000,4.000000,4.000000,4.000000,4.000000,4.000000,4.000000,4.000000,4.000000,4.000000,4.000000,4.000000,100.000000,,,,,,,,,,,,,,,,
1645708294.449538,87.000000,0.000000,4207.563965,4207.436035,4239.102539,4262.307617,4155.384766,4239.871582,4240.256348,4242.692383,4241.153809,4213.461426,4200.769043,4153.077148,4206.794922,4063.205078,0.000000,4.000000,91.000000,,,,0.000000,4.000000,4.000000,4.000000,4.000000,4.000000,4.000000,4.000000,4.000000,4.000000,4.000000,4.000000,4.000000,4.000000,4.000000,100.000000,,,,,,,,,,,,,,,,
1645708294.453478,88.000000,0.000000,4213.974121,4208.717773,4246.794922,4254.102539,4158.077148,4245.000000,4246.666504,4247.563965,4244.358887,4225.000000,4205.128418,4158.461426,4211.666504,4063.846191,0.000000,4.000000,91.000000,,,,0.000000,4.000000,4.000000,4.000000,4.000000,4.000000,4.000000,4.000000,4.000000,4.000000,4.000000,4.000000,4.000000,4.000000,4.000000,100.000000,,,,,,,,,,,,,,,,
1645708294.457418,89.000000,0.000000,4218.589844,4208.589844,4252.051270,4247.436035,4168.205078,4248.333496,4251.922852,4254.871582,4248.333496,4232.179688,4211.025879,4164.743652,4215.897461,4066.794922,0.000000,4.000000,91.000000,,,,0.000000,4.000000,4.000000,4.000000,4.000000,4.000000,4.000000,4.000000,4.000000,4.000000,4.000000,4.000000,4.000000,4.000000,4.000000,100.000000,,,,,,,,,,,,,,,,
1645708294.461358,90.000000,0.000000,4220.256348,4209.487305,4251.666504,4246.666504,4177.436035,4248.717773,4253.333496,4261.153809,4251.282227,4233.589844,4215.256348,4168.077148,4216.538574,4070.641113,0.000000,4.000000,91.000000,,,,0.000000,4.000000,4.000000,4.000000,4.000000,4.000000,4.000000,4.000000,4.000000,4.000000,4.000000,4.000000,4.000000,4.000000,4.000000,100.000000,,,,,,,,,,,,,,,,
1645708294.465198,91.000000,0.000000,4219.358887,4212.436035,4245.769043,4251.922852,4175.384766,4246.025879,4251.025879,4263.077148,4251.538574,4230.256348,4214.230957,4166.538574,4212.692383,4072.051270,0.000000,4.000000,91.000000,,,,0.000000,4.000000,4.000000,4.000000,4.000000,4.000000,4.000000,4.000000,4.000000,4.000000,4.000000,4.000000,4.000000,4.000000,4.000000,100.000000,,,,,,,,,,,,,,,,
1645708294.469138,92.000000,0.000000,4216.025879,4215.256348,4237.820313,4257.692383,4158.589844,4241.666504,4247.051270,4260.000000,4249.358887,4224.743652,4207.051270,4160.384766,4206.282227,4068.333252,0.000000,4.000000,91.000000,,,,0.000000,4.000000,4.000000,4.000000,4.000000,4.000000,4.000000,4.000000,4.000000,4.000000,4.000000,4.000000,4.000000,4.000000,4.000000,100.000000,,,,,,,,,,,,,,,,
1645708294.473078,93.000000,0.000000,4211.922852,4213.077148,4231.922852,4257.563965,4135.769043,4237.563965,4243.846191,4254.230957,4246.666504,4219.230957,4197.436035,4152.948730,4200.384766,4059.871826,0.000000,4.000000,91.000000,,,,0.000000,4.000000,4.000000,4.000000,4.000000,4.000000,4.000000,4.000000,4.000000,4.000000,4.000000,4.000000,4.000000,4.000000,4.000000,100.000000,,,,,,,,,,,,,,,,
1645708294.477018,94.000000,0.000000,4209.102539,4204.358887,4230.384766,4250.384766,4121.282227,4235.769043,4242.436035,4249.487305,4245.512695,4215.512695,4191.282227,4147.820313,4197.692383,4050.641113,0.000000,4.000000,91.000000,,,,0.000000,4.000000,4.000000,4.000000,4.000000,4.000000,4.000000,4.000000,4.000000,4.000000,4.000000,4.000000,4.000000,4.000000,4.000000,100.000000,,,,,,,,,,,,,,,,
1645708294.480959,95.000000,0.000000,4208.077148,4192.436035,4231.410156,4240.769043,4123.974121,4236.410156,4242.436035,4247.436035,4246.153809,4214.487305,4191.025879,4146.153809,4197.948730,4044.615479,0.000000,4.000000,91.000000,,,,0.000000,4.000000,4.000000,4.000000,4.000000,4.000000,4.000000,4.000000,4.000000,4.000000,4.000000,4.000000,4.000000,4.000000,4.000000,100.000000,,,,,,,,,,,,,,,,
1645708294.484899,96.000000,0.000000,4207.563965,4183.205078,4231.153809,4235.384766,4139.487305,4237.563965,4242.692383,4247.948730,4247.179688,4215.384766,4194.230957,4146.025879,4199.230957,4042.564209,0.000000,4.000000,91.000000,,,,0.000000,4.000000,4.000000,4.000000,4.000000,4.000000,4.000000,4.000000,4.000000,4.000000,4.000000,4.000000,4.000000,4.000000,4.000000,100.000000,,,,,,,,,,,,,,,,
1645708294.488839,97.000000,0.000000,4206.666504,4181.282227,4228.333496,4237.307617,4154.615234,4237.051270,4243.077148,4250.000000,4247.436035,4216.794922,4196.538574,4146.025879,4200.000000,4042.820557,0.000000,4.000000,91.000000,,,,0.000000,4.000000,4.000000,4.000000,4.000000,4.000000,4.000000,4.000000,4.000000,4.000000,4.000000,4.000000,4.000000,4.000000,4.000000,100.000000,,,,,,,,,,,,,,,,
1645708294.492779,98.000000,0.000000,4206.666504,4186.666504,4226.282227,4245.128418,4159.358887,4235.256348,4245.000000,4252.948730,4247.179688,4218.077148,4196.794922,4146.666504,4200.897461,4044.230713,0.000000,4.000000,91.000000,,,,0.000000,4.000000,4.000000,4.000000,4.000000,4.000000,4.000000,4.000000,4.000000,4.000000,4.000000,4.000000,4.000000,4.000000,4.000000,100.000000,,,,,,,,,,,,,,,,
1645708294.496719,99.000000,0.000000,4209.487305,4194.871582,4229.102539,4252.692383,4154.743652,4234.871582,4248.205078,4255.641113,4247.436035,4219.487305,4196.922852,4149.358887,4203.461426,4047.307617,0.000000,4.000000,91.000000,,,,0.000000,4.000000,4.000000,4.000000,4.000000,4.000000,4.000000,4.000000,4.000000,4.000000,4.000000,4.000000,4.000000,4.000000,4.000000,100.000000,,,,,,,,,,,,,,,,
1645708294.500659,100.000000,0.000000,4215.256348,4200.384766,4235.897461,4253.974121,4149.615234,4237.436035,4251.025879,4256.666504,4247.948730,4220.256348,4199.102539,4153.846191,4207.179688,4051.538574,0.000000,4.000000,91.000000,,,,0.000000,4.000000,4.000000,4.000000,4.000000,4.000000,4.000000,4.000000,4.000000,4.000000,4.000000,4.000000,4.000000,4.000000,4.000000,100.000000,,,,,,,,,,,,,,,,
1645708294.504599,101.000000,0.000000,4220.512695,4200.000000,4241.538574,4246.282227,4150.769043,4242.051270,4251.025879,4255.897461,4248.205078,4219.871582,4202.692383,4157.820313,4209.615234,4054.615479,0.000000,4.000000,91.000000,,,,0.000000,4.000000,4.000000,4.000000,4.000000,4.000000,4.000000,4.000000,4.000000,4.000000,4.000000,4.000000,4.000000,4.000000,4.000000,100.000000,,,,,,,,,,,,,,,,
1645708294.508539,102.000000,0.000000,4221.538574,4195.512695,4241.410156,4233.717773,4156.922852,4245.384766,4248.077148,4254.615234,4247.692383,4218.717773,4204.487305,4158.717773,4208.333496,4053.718018,0.000000,4.000000,91.000000,,,,0.000000,4.000000,4.000000,4.000000,4.000000,4.000000,4.000000,4.000000,4.000000,4.000000,4.000000,4.000000,4.000000,4.000000,4.000000,100.000000,,,,,,,,,,,,,,,,
1645708294.512479,103.000000,0.000000,4217.436035,4190.897461,4235.641113,4224.358887,4160.641113,4244.487305,4243.717773,4253.717773,4247.179688,4218.461426,4202.179688,4155.641113,4203.589844,4048.205078,0.000000,4.000000,91.000000,,,,0.000000,4.000000,4.000000,4.000000,4.000000,4.000000,4.000000,4.000000,4.000000,4.000000,4.000000,4.000000,4.000000,4.000000,4.000000,100.000000,,,,,,,,,,,,,,,,
1645708294.516419,104.000000,0.000000,4211.025879,4188.333496,4228.333496,4223.717773,4156.282227,4240.128418,4240.512695,4253.205078,4246.922852,4220.641113,4196.794922,4150.128418,4198.589844,4040.256348,0.000000,4.000000,91.000000,,,,0.000000,4.000000,4.000000,4.000000,4.000000,4.000000,4.000000,4.000000,4.000000,4.000000,4.000000,4.000000,4.000000,4.000000,4.000000,100.000000,,,,,,,,,,,,,,,,
1645708294.520360,105.000000,0.000000,4206.538574,4187.563965,4224.102539,4230.384766,4145.256348,4236.153809,4240.000000,4252.692383,4246.922852,4224.358887,4191.538574,4144.487305,4196.666504,4033.333252,0.000000,4.000000,91.000000,,,,0.000000,4.000000,4.000000,4.000000,4.000000,4.000000,4.000000,4.000000,4.000000,4.000000,4.000000,4.000000,4.000000,4.000000,4.000000,100.000000,,,,,,,,,,,,,,,,
1645708294.524300,106.000000,0.000000,4205.897461,4186.153809,4224.487305,4237.820313,4134.358887,4236.666504,4242.051270,4252.051270,4247.563965,4226.666504,4189.871582,4140.128418,4198.461426,4028.846191,0.000000,4.000000,91.000000,,,,0.000000,4.000000,4.000000,4.000000,4.000000,4.000000,4.000000,4.000000,4.000000,4.000000,4.000000,4.000000,4.000000,4.000000,4.000000,100.000000,,,,,,,,,,,,,,,,
1645708294.528240,107.000000,0.000000,4207.820313,4182.307617,4226.538574,4239.743652,4129.230957,4241.666504,4245.512695,4251.153809,4248.333496,4224.230957,4191.666504,4137.179688,4201.410156,4026.281982,0.000000,4.000000,91.000000,,,,0.000000,4.000000,4.000000,4.000000,4.000000,4.000000,4.000000,4.000000,4.000000,4.000000,4.000000,4.000000,4.000000,4.000000,4.000000,100.000000,,,,,,,,,,,,,,,,
1645708294.532180,108.000000,0.000000,4209.230957,4176.922852,4226.538574,4235.512695,4130.512695,4248.077148,4248.846191,4250.000000,4248.717773,4216.922852,4194.102539,4135.384766,4201.922852,4023.974365,0.000000,4.000000,91.000000,,,,0.000000,4.000000,4.000000,4.000000,4.000000,4.000000,4.000000,4.000000,4.000000,4.000000,4.000000,4.000000,4.000000,4.000000,4.000000,100.000000,,,,,,,,,,,,,,,,
1645708294.536120,109.000000,0.000000,4208.205078,4172.820313,4222.692383,4230.000000,4136.025879,4251.666504,4251.153809,4248.589844,4247.820313,4208.974121,4193.589844,4134.615234,4198.333496,4021.153809,0.000000,4.000000,91.000000,,,,0.000000,4.000000,4.000000,4.000000,4.000000,4.000000,4.000000,4.000000,4.000000,4.000000,4.000000,4.000000,4.000000,4.000000,4.000000,100.000000,,,,,,,,,,,,,,,,
1645708294.539960,110.000000,0.000000,4205.512695,4172.692383,4216.666504,4228.205078,4143.717773,4250.897461,4251.666504,4247.436035,4246.410156,4205.769043,4190.000000,4135.256348,4193.077148,4018.846191,0.000000,4.000000,91.000000,,,,0.000000,4.000000,4.000000,4.000000,4.000000,4.000000,4.000000,4.000000,4.000000,4.000000,4.000000,4.000000,4.000000,4.000000,4.000000,100.000000,,,,,,,,,,,,,,,,
1645708294.543900,111.000000,0.000000,4203.589844,4176.410156,4212.307617,4231.025879,4153.333496,4247.563965,4250.128418,4246.922852,4245.641113,4209.358887,4186.153809,4137.051270,4190.512695,4018.589844,0.000000,4.000000,91.000000,,,,0.000000,4.000000,4.000000,4.000000,4.000000,4.000000,4.000000,4.000000,4.000000,4.000000,4.000000,4.000000,4.000000,4.000000,4.000000,100.000000,,,,,,,,,,,,,,,,
1645708294.547840,112.000000,0.000000,4204.358887,4180.769043,4212.051270,4235.000000,4162.692383,4244.230957,4247.179688,4246.922852,4246.025879,4216.025879,4185.128418,4139.102539,4192.307617,4019.871826,0.000000,4.000000,91.000000,,,,0.000000,4.000000,4.000000,4.000000,4.000000,4.000000,4.000000,4.000000,4.000000,4.000000,4.000000,4.000000,4.000000,4.000000,4.000000,100.000000,,,,,,,,,,,,,,,,
1645708294.551781,113.000000,0.000000,4207.820313,4182.051270,4215.769043,4235.256348,4166.666504,4242.307617,4244.487305,4247.051270,4246.410156,4219.615234,4187.179688,4140.384766,4196.410156,4020.128174,0.000000,4.000000,91.000000,,,,0.000000,4.000000,4.000000,4.000000,4.000000,4.000000,4.000000,4.000000,4.000000,4.000000,4.000000,4.000000,4.000000,4.000000,4.000000,100.000000,,,,,,,,,,,,,,,,
