title:Alex-tHSv5BsrzPVomLbFf23Lww, start timestamp:1645711736.831667, stop timestamp:1645711763.214513, headset type:EPOCPLUS, headset serial:3B9AEBFF, headset firmware:626, channels:55, sampling rate:eeg_256, samples:6697      , version:2.1, 
Timestamp,EEG.Counter,EEG.Interpolated,EEG.AF3,EEG.F7,EEG.F3,EEG.FC5,EEG.T7,EEG.P7,EEG.O1,EEG.O2,EEG.P8,EEG.T8,EEG.FC6,EEG.F4,EEG.F8,EEG.AF4,EEG.RawCq,EEG.Battery,EEG.BatteryPercent,MarkerIndex,MarkerType,MarkerValueInt,EEG.MarkerHardware,CQ.AF3,CQ.F7,CQ.F3,CQ.FC5,CQ.T7,CQ.P7,CQ.O1,CQ.O2,CQ.P8,CQ.T8,CQ.FC6,CQ.F4,CQ.F8,CQ.AF4,CQ.Overall,EQ.SampleRateQuality,EQ.OVERALL,EQ.AF3,EQ.F7,EQ.F3,EQ.FC5,EQ.T7,EQ.P7,EQ.O1,EQ.O2,EQ.P8,EQ.T8,EQ.FC6,EQ.F4,EQ.F8,EQ.AF4
1645711736.831667,55.000000,0.000000,4235.769043,4241.538574,4258.461426,4250.128418,4261.922852,4253.205078,4258.589844,4244.358887,4240.384766,4248.717773,4255.769043,4212.307617,4247.692383,4253.205078,0.000000,4.000000,82.000000,,,,0.000000,4.000000,4.000000,4.000000,4.000000,4.000000,4.000000,4.000000,4.000000,4.000000,4.000000,4.000000,4.000000,4.000000,4.000000,100.000000,,,,,,,,,,,,,,,,
1645711736.835707,56.000000,0.000000,4239.487305,4241.282227,4259.358887,4249.871582,4253.846191,4251.410156,4259.230957,4245.128418,4241.794922,4249.871582,4252.563965,4210.512695,4246.666504,4256.794922,0.000000,4.000000,82.000000,,,,0.000000,4.000000,4.000000,4.000000,4.000000,4.000000,4.000000,4.000000,4.000000,4.000000,4.000000,4.000000,4.000000,4.000000,4.000000,100.000000,,,,,,,,,,,,,,,,
1645711736.839647,57.000000,0.000000,4243.846191,4241.282227,4259.615234,4245.128418,4244.487305,4248.205078,4258.974121,4243.717773,4240.384766,4248.333496,4245.769043,4207.179688,4242.820313,4256.025879,0.000000,4.000000,82.000000,,,,0.000000,4.000000,4.000000,4.000000,4.000000,4.000000,4.000000,4.000000,4.000000,4.000000,4.000000,4.000000,4.000000,4.000000,4.000000,100.000000,,,,,,,,,,,,,,,,
1645711736.843587,58.000000,0.000000,4241.538574,4244.871582,4262.436035,4243.846191,4245.769043,4250.000000,4261.153809,4243.589844,4239.615234,4249.743652,4244.487305,4205.897461,4241.794922,4250.769043,0.000000,4.000000,82.000000,,,,0.000000,4.000000,4.000000,4.000000,4.000000,4.000000,4.000000,4.000000,4.000000,4.000000,4.000000,4.000000,4.000000,4.000000,4.000000,100.000000,,,,,,,,,,,,,,,,
1645711736.847527,59.000000,0.000000,4234.358887,4250.000000,4266.666504,4248.846191,4257.948730,4256.153809,4264.615234,4245.769043,4240.769043,4253.717773,4250.128418,4206.282227,4244.743652,4244.102539,0.000000,4.000000,82.000000,,,,0.000000,4.000000,4.000000,4.000000,4.000000,4.000000,4.000000,4.000000,4.000000,4.000000,4.000000,4.000000,4.000000,4.000000,4.000000,100.000000,,,,,,,,,,,,,,,,
1645711736.851467,60.000000,0.000000,4231.794922,4249.871582,4268.205078,4254.487305,4268.846191,4259.871582,4265.128418,4247.307617,4242.051270,4253.717773,4255.769043,4204.871582,4246.922852,4240.512695,0.000000,4.000000,82.000000,,,,0.000000,4.000000,4.000000,4.000000,4.000000,4.000000,4.000000,4.000000,4.000000,4.000000,4.000000,4.000000,4.000000,4.000000,4.000000,100.000000,,,,,,,,,,,,,,,,
1645711736.855407,61.000000,0.000000,4237.692383,4242.692383,4265.000000,4254.743652,4268.589844,4256.794922,4261.922852,4246.153809,4241.538574,4246.794922,4255.384766,4200.384766,4244.743652,4242.692383,0.000000,4.000000,82.000000,,,,0.000000,4.000000,4.000000,4.000000,4.000000,4.000000,4.000000,4.000000,4.000000,4.000000,4.000000,4.000000,4.000000,4.000000,4.000000,100.000000,,,,,,,,,,,,,,,,
1645711736.859347,62.000000,0.000000,4245.000000,4234.615234,4260.256348,4251.410156,4261.153809,4251.538574,4258.461426,4244.487305,4240.512695,4240.000000,4251.282227,4196.666504,4240.256348,4248.333496,0.000000,4.000000,82.000000,,,,0.000000,4.000000,4.000000,4.000000,4.000000,4.000000,4.000000,4.000000,4.000000,4.000000,4.000000,4.000000,4.000000,4.000000,4.000000,100.000000,,,,,,,,,,,,,,,,
1645711736.863287,63.000000,0.000000,4244.615234,4234.230957,4258.461426,4250.128418,4257.692383,4251.153809,4258.589844,4245.384766,4241.153809,4242.179688,4250.128418,4198.077148,4239.230957,4252.179688,0.000000,4.000000,82.000000,,,,0.000000,4.000000,4.000000,4.000000,4.000000,4.000000,4.000000,4.000000,4.000000,4.000000,4.000000,4.000000,4.000000,4.000000,4.000000,100.000000,,,,,,,,,,,,,,,,
1645711736.867228,64.000000,0.000000,4237.563965,4241.410156,4259.615234,4251.922852,4262.563965,4256.025879,4261.410156,4248.077148,4242.820313,4252.307617,4252.948730,4203.461426,4243.205078,4250.128418,0.000000,4.000000,82.000000,,,,0.000000,4.000000,4.000000,4.000000,4.000000,4.000000,4.000000,4.000000,4.000000,4.000000,4.000000,4.000000,4.000000,4.000000,4.000000,100.000000,,,,,,,,,,,,,,,,
1645711736.871168,65.000000,0.000000,4232.820313,4247.563965,4260.256348,4250.897461,4268.205078,4259.743652,4262.820313,4248.077148,4242.436035,4259.871582,4253.846191,4206.794922,4247.179688,4243.589844,0.000000,4.000000,82.000000,,,,0.000000,4.000000,4.000000,4.000000,4.000000,4.000000,4.000000,4.000000,4.000000,4.000000,4.000000,4.000000,4.000000,4.000000,4.000000,100.000000,,,,,,,,,,,,,,,,
1645711736.875108,66.000000,0.000000,4235.384766,4244.871582,4257.307617,4243.333496,4266.410156,4257.307617,4260.512695,4242.436035,4238.589844,4256.282227,4248.589844,4203.846191,4245.769043,4237.820313,0.000000,4.000000,82.000000,,,,0.000000,4.000000,4.000000,4.000000,4.000000,4.000000,4.000000,4.000000,4.000000,4.000000,4.000000,4.000000,4.000000,4.000000,4.000000,100.000000,,,,,,,,,,,,,,,,
1645711736.879048,67.000000,0.000000,4239.358887,4235.384766,4252.563965,4233.974121,4259.615234,4252.307617,4256.794922,4234.743652,4233.589844,4244.743652,4241.153809,4196.410156,4239.230957,4236.922852,0.000000,4.000000,82.000000,,,,0.000000,4.000000,4.000000,4.000000,4.000000,4.000000,4.000000,4.000000,4.000000,4.000000,4.000000,4.000000,4.000000,4.000000,4.000000,100.000000,,,,,,,,,,,,,,,,
1645711736.882988,68.000000,0.000000,4236.666504,4228.077148,4249.358887,4231.410156,4256.538574,4251.153809,4254.871582,4231.410156,4232.051270,4235.769043,4238.333496,4190.384766,4232.820313,4240.384766,0.000000,4.000000,82.000000,,,,0.000000,4.000000,4.000000,4.000000,4.000000,4.000000,4.000000,4.000000,4.000000,4.000000,4.000000,4.000000,4.000000,4.000000,4.000000,100.000000,,,,,,,,,,,,,,,,
1645711736.886928,69.000000,0.000000,4228.717773,4228.461426,4248.846191,4237.692383,4261.025879,4254.743652,4254.615234,4234.615234,4234.615234,4235.256348,4241.282227,4188.974121,4230.512695,4243.461426,0.000000,4.000000,82.000000,,,,0.000000,4.000000,4.000000,4.000000,4.000000,4.000000,4.000000,4.000000,4.000000,4.000000,4.000000,4.000000,4.000000,4.000000,4.000000,100.000000,,,,,,,,,,,,,,,,
1645711736.890868,70.000000,0.000000,4225.897461,4233.077148,4249.230957,4246.794922,4267.051270,4257.307617,4253.846191,4240.256348,4237.692383,4238.974121,4244.358887,4191.794922,4232.179688,4243.077148,0.000000,4.000000,82.000000,,,,0.000000,4.000000,4.000000,4.000000,4.000000,4.000000,4.000000,4.000000,4.000000,4.000000,4.000000,4.000000,4.000000,4.000000,4.000000,100.000000,,,,,,,,,,,,,,,,
1645711736.894808,71.000000,0.000000,4233.589844,4235.641113,4249.230957,4251.794922,4268.077148,4254.743652,4251.922852,4242.563965,4237.563965,4241.025879,4242.692383,4196.153809,4235.128418,4240.000000,0.000000,4.000000,82.000000,,,,0.000000,4.000000,4.000000,4.000000,4.000000,4.000000,4.000000,4.000000,4.000000,4.000000,4.000000,4.000000,4.000000,4.000000,4.000000,100.000000,,,,,,,,,,,,,,,,
1645711736.898748,72.000000,0.000000,4243.846191,4235.000000,4250.128418,4252.820313,4266.025879,4250.641113,4251.410156,4241.153809,4235.128418,4241.410156,4240.000000,4201.025879,4238.589844,4237.820313,0.000000,4.000000,82.000000,,,,0.000000,4.000000,4.000000,4.000000,4.000000,4.000000,4.000000,4.000000,4.000000,4.000000,4.000000,4.000000,4.000000,4.000000,4.000000,100.000000,,,,,,,,,,,,,,,,
1645711736.902689,73.000000,0.000000,4245.256348,4235.769043,4253.205078,4254.102539,4267.948730,4251.410156,4254.615234,4239.871582,4234.743652,4245.000000,4243.205078,4205.641113,4242.820313,4237.948730,0.000000,4.000000,82.000000,,,,0.000000,4.000000,4.000000,4.000000,4.000000,4.000000,4.000000,4.000000,4.000000,4.000000,4.000000,4.000000,4.000000,4.000000,4.000000,100.000000,,,,,,,,,,,,,,,,
1645711736.906629,74.000000,0.000000,4236.666504,4241.025879,4257.692383,4257.692383,4275.384766,4257.948730,4259.871582,4241.794922,4238.589844,4252.692383,4252.948730,4208.333496,4247.436035,4239.102539,0.000000,4.000000,82.000000,,,,0.000000,4.000000,4.000000,4.000000,4.000000,4.000000,4.000000,4.000000,4.000000,4.000000,4.000000,4.000000,4.000000,4.000000,4.000000,100.000000,,,,,,,,,,,,,,,,
1645711736.910469,75.000000,0.000000,4228.974121,4248.205078,4260.000000,4260.641113,4281.922852,4263.589844,4263.461426,4245.897461,4243.846191,4258.717773,4261.410156,4207.051270,4250.000000,4239.743652,0.000000,4.000000,82.000000,,,,0.000000,4.000000,4.000000,4.000000,4.000000,4.000000,4.000000,4.000000,4.000000,4.000000,4.000000,4.000000,4.000000,4.000000,4.000000,100.000000,,,,,,,,,,,,,,,,
1645711736.914409,76.000000,0.000000,4231.025879,4252.563965,4258.717773,4260.256348,4281.025879,4263.205078,4263.717773,4249.358887,4246.666504,4257.563965,4261.282227,4202.692383,4248.717773,4240.512695,0.000000,4.000000,82.000000,,,,0.000000,4.000000,4.000000,4.000000,4.000000,4.000000,4.000000,4.000000,4.000000,4.000000,4.000000,4.000000,4.000000,4.000000,4.000000,100.000000,,,,,,,,,,,,,,,,
1645711736.918349,77.000000,0.000000,4239.230957,4252.820313,4255.641113,4258.717773,4275.641113,4259.487305,4263.461426,4251.666504,4246.153809,4251.794922,4255.000000,4199.743652,4245.384766,4242.563965,0.000000,4.000000,82.000000,,,,0.000000,4.000000,4.000000,4.000000,4.000000,4.000000,4.000000,4.000000,4.000000,4.000000,4.000000,4.000000,4.000000,4.000000,4.000000,100.000000,,,,,,,,,,,,,,,,
1645711736.922289,78.000000,0.000000,4242.820313,4251.666504,4253.846191,4259.487305,4273.846191,4259.615234,4265.384766,4254.230957,4245.512695,4249.358887,4251.538574,4201.794922,4243.589844,4243.974121,0.000000,4.000000,82.000000,,,,0.000000,4.000000,4.000000,4.000000,4.000000,4.000000,4.000000,4.000000,4.000000,4.000000,4.000000,4.000000,4.000000,4.000000,4.000000,100.000000,,,,,,,,,,,,,,,,
1645711736.926229,79.000000,0.000000,4238.589844,4251.025879,4253.974121,4261.666504,4278.333496,4264.743652,4268.333496,4257.179688,4246.666504,4253.846191,4255.512695,4207.179688,4244.615234,4242.051270,0.000000,4.000000,82.000000,,,,0.000000,4.000000,4.000000,4.000000,4.000000,4.000000,4.000000,4.000000,4.000000,4.000000,4.000000,4.000000,4.000000,4.000000,4.000000,100.000000,,,,,,,,,,,,,,,,
1645711736.930169,80.000000,0.000000,4234.102539,4249.743652,4253.846191,4260.128418,4283.077148,4268.461426,4268.846191,4257.307617,4248.077148,4259.358887,4262.179688,4210.897461,4245.512695,4237.436035,0.000000,4.000000,82.000000,,,,0.000000,4.000000,4.000000,4.000000,4.000000,4.000000,4.000000,4.000000,4.000000,4.000000,4.000000,4.000000,4.000000,4.000000,4.000000,100.000000,,,,,,,,,,,,,,,,
1645711736.934109,81.000000,0.000000,4236.410156,4247.307617,4252.051270,4252.948730,4281.794922,4265.512695,4265.641113,4252.307617,4246.922852,4258.461426,4264.102539,4209.230957,4244.358887,4234.487305,0.000000,4.000000,82.000000,,,,0.000000,4.000000,4.000000,4.000000,4.000000,4.000000,4.000000,4.000000,4.000000,4.000000,4.000000,4.000000,4.000000,4.000000,4.000000,100.000000,,,,,,,,,,,,,,,,
1645711736.938050,82.000000,0.000000,4242.179688,4246.025879,4250.512695,4245.897461,4276.794922,4258.205078,4261.410156,4244.615234,4243.333496,4251.794922,4259.743652,4204.230957,4243.205078,4237.563965,0.000000,4.000000,82.000000,,,,0.000000,4.000000,4.000000,4.000000,4.000000,4.000000,4.000000,4.000000,4.000000,4.000000,4.000000,4.000000,4.000000,4.000000,4.000000,100.000000,,,,,,,,,,,,,,,,
1645711736.941990,83.000000,0.000000,4242.563965,4248.589844,4251.922852,4247.179688,4275.128418,4254.102539,4259.615234,4239.743652,4240.128418,4246.922852,4254.487305,4200.769043,4245.769043,4245.128418,0.000000,4.000000,82.000000,,,,0.000000,4.000000,4.000000,4.000000,4.000000,4.000000,4.000000,4.000000,4.000000,4.000000,4.000000,4.000000,4.000000,4.000000,4.000000,100.000000,,,,,,,,,,,,,,,,
1645711736.945930,84.000000,0.000000,4235.641113,4253.077148,4255.897461,4257.179688,4279.102539,4255.897461,4260.128418,4240.000000,4238.717773,4248.589844,4252.179688,4200.384766,4251.153809,4251.025879,0.000000,4.000000,82.000000,,,,0.000000,4.000000,4.000000,4.000000,4.000000,4.000000,4.000000,4.000000,4.000000,4.000000,4.000000,4.000000,4.000000,4.000000,4.000000,100.000000,,,,,,,,,,,,,,,,
1645711736.949870,85.000000,0.000000,4230.256348,4253.205078,4258.461426,4266.794922,4282.179688,4258.974121,4259.871582,4241.794922,4237.692383,4252.179688,4250.769043,4200.000000,4253.717773,4250.641113,0.000000,4.000000,82.000000,,,,0.000000,4.000000,4.000000,4.000000,4.000000,4.000000,4.000000,4.000000,4.000000,4.000000,4.000000,4.000000,4.000000,4.000000,4.000000,100.000000,,,,,,,,,,,,,,,,
1645711736.953810,86.000000,0.000000,4234.230957,4246.153809,4257.051270,4267.692383,4277.563965,4257.563965,4256.922852,4240.384766,4235.256348,4250.128418,4246.794922,4196.282227,4249.230957,4246.025879,0.000000,4.000000,82.000000,,,,0.000000,4.000000,4.000000,4.000000,4.000000,4.000000,4.000000,4.000000,4.000000,4.000000,4.000000,4.000000,4.000000,4.000000,4.000000,100.000000,,,,,,,,,,,,,,,,
1645711736.957750,87.000000,0.000000,4243.589844,4236.922852,4252.948730,4261.025879,4268.205078,4252.820313,4253.717773,4235.897461,4231.922852,4241.922852,4242.436035,4190.512695,4240.897461,4243.077148,0.000000,4.000000,82.000000,,,,0.000000,4.000000,4.000000,4.000000,4.000000,4.000000,4.000000,4.000000,4.000000,4.000000,4.000000,4.000000,4.000000,4.000000,4.000000,100.000000,,,,,,,,,,,,,,,,
1645711736.961690,88.000000,0.000000,4247.051270,4233.974121,4250.000000,4255.512695,4263.077148,4250.384766,4253.333496,4232.436035,4231.153809,4234.871582,4243.589844,4187.563965,4235.897461,4244.102539,0.000000,4.000000,82.000000,,,,0.000000,4.000000,4.000000,4.000000,4.000000,4.000000,4.000000,4.000000,4.000000,4.000000,4.000000,4.000000,4.000000,4.000000,4.000000,100.000000,,,,,,,,,,,,,,,,
1645711736.965630,89.000000,0.000000,4240.384766,4239.615234,4249.871582,4255.897461,4266.410156,4252.307617,4255.384766,4233.077148,4234.230957,4234.871582,4251.153809,4189.615234,4237.948730,4246.410156,0.000000,4.000000,82.000000,,,,0.000000,4.000000,4.000000,4.000000,4.000000,4.000000,4.000000,4.000000,4.000000,4.000000,4.000000,4.000000,4.000000,4.000000,4.000000,100.000000,,,,,,,,,,,,,,,,
1645711736.969570,90.000000,0.000000,4231.922852,4247.692383,4250.512695,4258.846191,4271.922852,4254.487305,4256.538574,4235.769043,4238.333496,4238.974121,4257.820313,4193.461426,4243.461426,4245.769043,0.000000,4.000000,82.000000,,,,0.000000,4.000000,4.000000,4.000000,4.000000,4.000000,4.000000,4.000000,4.000000,4.000000,4.000000,4.000000,4.000000,4.000000,4.000000,100.000000,,,,,,,,,,,,,,,,
1645711736.973511,91.000000,0.000000,4231.410156,4250.384766,4250.000000,4258.461426,4271.410156,4252.563965,4255.000000,4237.307617,4239.615234,4240.512695,4256.153809,4195.256348,4245.769043,4242.436035,0.000000,4.000000,82.000000,,,,0.000000,4.000000,4.000000,4.000000,4.000000,4.000000,4.000000,4.000000,4.000000,4.000000,4.000000,4.000000,4.000000,4.000000,4.000000,100.000000,,,,,,,,,,,,,,,,
1645711736.977451,92.000000,0.000000,4238.333496,4247.948730,4250.128418,4254.871582,4265.384766,4248.589844,4253.205078,4237.820313,4238.077148,4239.102539,4248.077148,4195.000000,4243.077148,4240.897461,0.000000,4.000000,82.000000,,,,0.000000,4.000000,4.000000,4.000000,4.000000,4.000000,4.000000,4.000000,4.000000,4.000000,4.000000,4.000000,4.000000,4.000000,4.000000,100.000000,,,,,,,,,,,,,,,,
1645711736.981291,93.000000,0.000000,4243.589844,4247.436035,4254.230957,4254.487305,4262.692383,4248.461426,4254.871582,4240.897461,4238.077148,4241.025879,4243.717773,4196.538574,4240.128418,4243.589844,0.000000,4.000000,82.000000,,,,0.000000,4.000000,4.000000,4.000000,4.000000,4.000000,4.000000,4.000000,4.000000,4.000000,4.000000,4.000000,4.000000,4.000000,4.000000,100.000000,,,,,,,,,,,,,,,,
1645711736.985231,94.000000,0.000000,4242.051270,4252.820313,4261.922852,4260.641113,4268.589844,4253.589844,4258.974121,4246.922852,4241.794922,4249.487305,4248.461426,4201.666504,4241.410156,4247.563965,0.000000,4.000000,82.000000,,,,0.000000,4.000000,4.000000,4.000000,4.000000,4.000000,4.000000,4.000000,4.000000,4.000000,4.000000,4.000000,4.000000,4.000000,4.000000,100.000000,,,,,,,,,,,,,,,,
1645711736.989171,95.000000,0.000000,4238.846191,4259.102539,4268.589844,4268.333496,4276.922852,4257.948730,4261.153809,4251.025879,4246.282227,4257.692383,4256.153809,4206.922852,4245.384766,4248.205078,0.000000,4.000000,82.000000,,,,0.000000,4.000000,4.000000,4.000000,4.000000,4.000000,4.000000,4.000000,4.000000,4.000000,4.000000,4.000000,4.000000,4.000000,4.000000,100.000000,,,,,,,,,,,,,,,,
1645711736.993111,96.000000,0.000000,4241.410156,4258.589844,4268.846191,4269.230957,4278.205078,4255.384766,4258.589844,4248.461426,4246.410156,4256.153809,4256.153809,4207.051270,4247.179688,4243.974121,0.000000,4.000000,82.000000,,,,0.000000,4.000000,4.000000,4.000000,4.000000,4.000000,4.000000,4.000000,4.000000,4.000000,4.000000,4.000000,4.000000,4.000000,4.000000,100.000000,,,,,,,,,,,,,,,,
1645711736.997051,97.000000,0.000000,4247.563965,4250.641113,4263.333496,4262.307617,4270.769043,4247.436035,4253.974121,4240.512695,4241.538574,4245.000000,4246.538574,4201.666504,4244.743652,4237.820313,0.000000,4.000000,82.000000,,,,0.000000,4.000000,4.000000,4.000000,4.000000,4.000000,4.000000,4.000000,4.000000,4.000000,4.000000,4.000000,4.000000,4.000000,4.000000,100.000000,,,,,,,,,,,,,,,,
1645711737.000991,98.000000,0.000000,4248.461426,4242.563965,4256.922852,4255.000000,4263.333496,4242.051270,4252.051270,4234.358887,4236.538574,4236.025879,4236.025879,4195.256348,4241.538574,4234.358887,0.000000,4.000000,82.000000,,,,0.000000,4.000000,4.000000,4.000000,4.000000,4.000000,4.000000,4.000000,4.000000,4.000000,4.000000,4.000000,4.000000,4.000000,4.000000,100.000000,,,,,,,,,,,,,,,,
1645711737.004931,99.000000,0.000000,4241.025879,4241.538574,4254.102539,4254.615234,4262.820313,4243.974121,4253.974121,4235.512695,4236.025879,4237.692383,4234.230957,4192.307617,4241.025879,4235.256348,0.000000,4.000000,82.000000,,,,0.000000,4.000000,4.000000,4.000000,4.000000,4.000000,4.000000,4.000000,4.000000,4.000000,4.000000,4.000000,4.000000,4.000000,4.000000,100.000000,,,,,,,,,,,,,,,,
1645711737.008872,100.000000,0.000000,4233.333496,4246.538574,4255.000000,4259.487305,4266.794922,4248.846191,4255.897461,4241.282227,4239.230957,4245.769043,4240.897461,4192.563965,4242.563965,4239.615234,0.000000,4.000000,82.000000,,,,0.000000,4.000000,4.000000,4.000000,4.000000,4.000000,4.000000,4.000000,4.000000,4.000000,4.000000,4.000000,4.000000,4.000000,4.000000,100.000000,,,,,,,,,,,,,,,,
1645711737.012812,101.000000,0.000000,4234.871582,4251.025879,4257.051270,4262.948730,4267.307617,4249.615234,4254.487305,4244.743652,4241.410156,4248.205078,4247.820313,4193.205078,4243.077148,4244.743652,0.000000,4.000000,82.000000,,,,0.000000,4.000000,4.000000,4.000000,4.000000,4.000000,4.000000,4.000000,4.000000,4.000000,4.000000,4.000000,4.000000,4.000000,4.000000,100.000000,,,,,,,,,,,,,,,,
1645711737.016752,102.000000,0.000000,4244.102539,4251.666504,4258.461426,4261.922852,4262.307617,4245.256348,4251.282227,4241.922852,4239.615234,4240.384766,4249.743652,4193.205078,4241.794922,4248.717773,0.000000,4.000000,82.000000,,,,0.000000,4.000000,4.000000,4.000000,4.000000,4.000000,4.000000,4.000000,4.000000,4.000000,4.000000,4.000000,4.000000,4.000000,4.000000,100.000000,,,,,,,,,,,,,,,,
1645711737.020692,103.000000,0.000000,4249.615234,4251.153809,4260.000000,4259.743652,4258.077148,4242.051270,4250.512695,4235.769043,4235.769043,4230.641113,4249.487305,4194.358887,4241.153809,4249.743652,0.000000,4.000000,82.000000,,,,0.000000,4.000000,4.000000,4.000000,4.000000,4.000000,4.000000,4.000000,4.000000,4.000000,4.000000,4.000000,4.000000,4.000000,4.000000,100.000000,,,,,,,,,,,,,,,,
1645711737.024632,104.000000,0.000000,4245.128418,4252.820313,4261.922852,4260.128418,4260.000000,4244.230957,4253.333496,4231.538574,4233.717773,4229.871582,4251.025879,4197.436035,4243.461426,4246.666504,0.000000,4.000000,82.000000,,,,0.000000,4.000000,4.000000,4.000000,4.000000,4.000000,4.000000,4.000000,4.000000,4.000000,4.000000,4.000000,4.000000,4.000000,4.000000,100.000000,,,,,,,,,,,,,,,,
1645711737.028572,105.000000,0.000000,4236.794922,4254.615234,4262.307617,4261.922852,4264.743652,4248.589844,4256.025879,4231.282227,4234.487305,4238.077148,4253.205078,4200.128418,4246.794922,4240.897461,0.000000,4.000000,82.000000,,,,0.000000,4.000000,4.000000,4.000000,4.000000,4.000000,4.000000,4.000000,4.000000,4.000000,4.000000,4.000000,4.000000,4.000000,4.000000,100.000000,,,,,,,,,,,,,,,,
1645711737.032512,106.000000,0.000000,4235.128418,4251.666504,4259.743652,4261.666504,4264.358887,4248.717773,4254.871582,4232.436035,4235.641113,4246.025879,4251.538574,4199.743652,4247.436035,4236.794922,0.000000,4.000000,82.000000,,,,0.000000,4.000000,4.000000,4.000000,4.000000,4.000000,4.000000,4.000000,4.000000,4.000000,4.000000,4.000000,4.000000,4.000000,4.000000,100.000000,,,,,,,,,,,,,,,,
1645711737.036452,107.000000,0.000000,4241.025879,4244.358887,4255.641113,4259.487305,4257.436035,4243.974121,4250.897461,4233.333496,4235.512695,4247.051270,4246.410156,4197.051270,4244.871582,4238.589844,0.000000,4.000000,82.000000,,,,0.000000,4.000000,4.000000,4.000000,4.000000,4.000000,4.000000,4.000000,4.000000,4.000000,4.000000,4.000000,4.000000,4.000000,4.000000,100.000000,,,,,,,,,,,,,,,,
1645711737.040392,108.000000,0.000000,4245.641113,4239.487305,4253.589844,4259.615234,4251.666504,4240.512695,4248.461426,4234.230957,4235.641113,4244.230957,4243.974121,4196.025879,4242.948730,4245.512695,0.000000,4.000000,82.000000,,,,0.000000,4.000000,4.000000,4.000000,4.000000,4.000000,4.000000,4.000000,4.000000,4.000000,4.000000,4.000000,4.000000,4.000000,4.000000,100.000000,,,,,,,,,,,,,,,,
1645711737.044333,109.000000,0.000000,4242.436035,4242.948730,4255.128418,4263.205078,4253.846191,4243.205078,4249.487305,4235.897461,4237.436035,4244.102539,4248.589844,4198.461426,4244.743652,4251.153809,0.000000,4.000000,82.000000,,,,0.000000,4.000000,4.000000,4.000000,4.000000,4.000000,4.000000,4.000000,4.000000,4.000000,4.000000,4.000000,4.000000,4.000000,4.000000,100.000000,,,,,,,,,,,,,,,,
1645711737.048273,110.000000,0.000000,4236.666504,4251.666504,4257.307617,4266.410156,4260.641113,4248.717773,4251.153809,4237.307617,4240.256348,4247.692383,4256.025879,4202.179688,4248.717773,4249.230957,0.000000,4.000000,82.000000,,,,0.000000,4.000000,4.000000,4.000000,4.000000,4.000000,4.000000,4.000000,4.000000,4.000000,4.000000,4.000000,4.000000,4.000000,4.000000,100.000000,,,,,,,,,,,,,,,,
1645711737.052313,111.000000,0.000000,4237.692383,4257.179688,4256.538574,4263.589844,4263.077148,4249.487305,4250.000000,4236.538574,4240.769043,4250.000000,4257.820313,4203.846191,4250.256348,4240.641113,0.000000,4.000000,82.000000,,,,0.000000,4.000000,4.000000,4.000000,4.000000,4.000000,4.000000,4.000000,4.000000,4.000000,4.000000,4.000000,4.000000,4.000000,4.000000,100.000000,,,,,,,,,,,,,,,,
1645711737.056253,112.000000,0.000000,4245.512695,4255.000000,4252.948730,4255.897461,4257.563965,4243.717773,4246.410156,4234.487305,4238.589844,4248.717773,4252.820313,4203.077148,4248.077148,4233.205078,0.000000,4.000000,82.000000,,,,0.000000,4.000000,4.000000,4.000000,4.000000,4.000000,4.000000,4.000000,4.000000,4.000000,4.000000,4.000000,4.000000,4.000000,4.000000,100.000000,,,,,,,,,,,,,,,,
1645711737.060193,113.000000,0.000000,4249.615234,4249.102539,4250.256348,4250.384766,4251.153809,4237.948730,4244.102539,4234.615234,4236.922852,4247.563965,4248.589844,4203.461426,4245.384766,4233.461426,0.000000,4.000000,82.000000,,,,0.000000,4.000000,4.000000,4.000000,4.000000,4.000000,4.000000,4.000000,4.000000,4.000000,4.000000,4.000000,4.000000,4.000000,4.000000,100.000000,,,,,,,,,,,,,,,,
1645711737.064133,114.000000,0.000000,4242.692383,4245.641113,4251.153809,4251.282227,4251.538574,4239.102539,4245.000000,4238.717773,4238.717773,4250.256348,4251.666504,4206.538574,4246.025879,4241.025879,0.000000,4.000000,82.000000,,,,0.000000,4.000000,4.000000,4.000000,4.000000,4.000000,4.000000,4.000000,4.000000,4.000000,4.000000,4.000000,4.000000,4.000000,4.000000,100.000000,,,,,,,,,,,,,,,,
1645711737.068073,115.000000,0.000000,4230.641113,4245.384766,4253.974121,4253.717773,4257.692383,4245.256348,4246.794922,4243.077148,4242.563965,4253.077148,4258.717773,4209.358887,4249.230957,4249.487305,0.000000,4.000000,82.000000,,,,0.000000,4.000000,4.000000,4.000000,4.000000,4.000000,4.000000,4.000000,4.000000,4.000000,4.000000,4.000000,4.000000,4.000000,4.000000,100.000000,,,,,,,,,,,,,,,,
1645711737.072013,116.000000,0.000000,4226.025879,4244.615234,4254.487305,4250.256348,4261.153809,4249.102539,4245.769043,4242.692383,4244.230957,4248.846191,4259.871582,4207.692383,4251.025879,4253.333496,0.000000,4.000000,82.000000,,,,0.000000,4.000000,4.000000,4.000000,4.000000,4.000000,4.000000,4.000000,4.000000,4.000000,4.000000,4.000000,4.000000,4.000000,4.000000,100.000000,,,,,,,,,,,,,,,,
1645711737.075953,117.000000,0.000000,4232.179688,4241.666504,4251.666504,4240.384766,4258.077148,4246.410156,4242.051270,4236.794922,4241.666504,4237.307617,4251.666504,4201.666504,4249.487305,4251.794922,0.000000,4.000000,82.000000,,,,0.000000,4.000000,4.000000,4.000000,4.000000,4.000000,4.000000,4.000000,4.000000,4.000000,4.000000,4.000000,4.000000,4.000000,4.000000,100.000000,,,,,,,,,,,,,,,,
1645711737.079893,118.000000,0.000000,4239.871582,4239.743652,4248.589844,4232.948730,4253.974121,4241.794922,4239.871582,4230.512695,4238.077148,4228.205078,4242.051270,4196.025879,4246.922852,4247.179688,0.000000,4.000000,82.000000,,,,0.000000,4.000000,4.000000,4.000000,4.000000,4.000000,4.000000,4.000000,4.000000,4.000000,4.000000,4.000000,4.000000,4.000000,4.000000,100.000000,,,,,,,,,,,,,,,,
1645711737.083834,119.000000,0.000000,4239.743652,4242.692383,4248.589844,4235.769043,4256.025879,4241.153809,4241.666504,4230.128418,4237.563965,4231.025879,4241.153809,4195.769043,4246.794922,4241.410156,0.000000,4.000000,82.000000,,,,0.000000,4.000000,4.000000,4.000000,4.000000,4.000000,4.000000,4.000000,4.000000,4.000000,4.000000,4.000000,4.000000,4.000000,4.000000,100.000000,,,,,,,,,,,,,,,,
1645711737.087774,120.000000,0.000000,4234.358887,4248.333496,4251.538574,4246.538574,4262.179688,4244.487305,4245.769043,4235.897461,4240.384766,4243.717773,4249.358887,4200.512695,4248.974121,4236.153809,0.000000,4.000000,82.000000,,,,0.000000,4.000000,4.000000,4.000000,4.000000,4.000000,4.000000,4.000000,4.000000,4.000000,4.000000,4.000000,4.000000,4.000000,4.000000,100.000000,,,,,,,,,,,,,,,,
1645711737.091714,121.000000,0.000000,4233.589844,4250.512695,4254.487305,4255.256348,4263.846191,4246.282227,4247.820313,4242.563965,4242.820313,4254.743652,4257.563965,4205.256348,4250.000000,4234.230957,0.000000,4.000000,82.000000,,,,0.000000,4.000000,4.000000,4.000000,4.000000,4.000000,4.000000,4.000000,4.000000,4.000000,4.000000,4.000000,4.000000,4.000000,4.000000,100.000000,,,,,,,,,,,,,,,,
1645711737.095654,122.000000,0.000000,4240.384766,4246.410156,4255.256348,4255.897461,4256.794922,4243.461426,4246.538574,4245.128418,4242.692383,4255.256348,4258.205078,4205.897461,4247.563965,4237.179688,0.000000,4.000000,82.000000,,,,0.000000,4.000000,4.000000,4.000000,4.000000,4.000000,4.000000,4.000000,4.000000,4.000000,4.000000,4.000000,4.000000,4.000000,4.000000,100.000000,,,,,,,,,,,,,,,,
1645711737.099594,123.000000,0.000000,4246.410156,4240.384766,4254.230957,4251.794922,4247.179688,4239.743652,4244.358887,4243.717773,4241.282227,4248.461426,4253.461426,4202.948730,4243.717773,4243.333496,0.000000,4.000000,82.000000,,,,0.000000,4.000000,4.000000,4.000000,4.000000,4.000000,4.000000,4.000000,4.000000,4.000000,4.000000,4.000000,4.000000,4.000000,4.000000,100.000000,,,,,,,,,,,,,,,,
1645711737.103534,124.000000,0.000000,4242.820313,4239.102539,4253.461426,4249.102539,4244.487305,4240.000000,4243.974121,4241.538574,4241.282227,4243.717773,4249.743652,4199.743652,4241.666504,4247.179688,0.000000,4.000000,82.000000,,,,0.000000,4.000000,4.000000,4.000000,4.000000,4.000000,4.000000,4.000000,4.000000,4.000000,4.000000,4.000000,4.000000,4.000000,4.000000,100.000000,,,,,,,,,,,,,,,,
1645711737.107474,125.000000,0.000000,4232.820313,4242.948730,4252.820313,4249.102539,4249.230957,4242.948730,4244.871582,4239.615234,4242.307617,4244.358887,4249.358887,4198.205078,4241.794922,4245.256348,0.000000,4.000000,82.000000,,,,0.000000,4.000000,4.000000,4.000000,4.000000,4.000000,4.000000,4.000000,4.000000,4.000000,4.000000,4.000000,4.000000,4.000000,4.000000,100.000000,,,,,,,,,,,,,,,,
1645711737.111414,126.000000,0.000000,4228.205078,4246.282227,4251.538574,4248.077148,4253.589844,4243.846191,4244.743652,4237.051270,4241.666504,4245.769043,4249.102539,4197.820313,4241.410156,4240.384766,0.000000,4.000000,82.000000,,,,0.000000,4.000000,4.000000,4.000000,4.000000,4.000000,4.000000,4.000000,4.000000,4.000000,4.000000,4.000000,4.000000,4.000000,4.000000,100.000000,,,,,,,,,,,,,,,,
1645711737.115354,127.000000,0.000000,4234.871582,4245.512695,4250.256348,4243.589844,4252.179688,4240.641113,4243.974121,4233.974121,4238.205078,4243.333496,4247.179688,4198.205078,4239.615234,4239.743652,0.000000,4.000000,82.000000,,,,0.000000,4.000000,4.000000,4.000000,4.000000,4.000000,4.000000,4.000000,4.000000,4.000000,4.000000,4.000000,4.000000,4.000000,4.000000,100.000000,,,,,,,,,,,,,,,,
1645711737.119294,128.000000,0.000000,4245.512695,4244.102539,4251.025879,4239.358887,4249.487305,4238.333496,4245.000000,4233.077148,4235.384766,4240.000000,4247.051270,4200.641113,4238.974121,4246.666504,3300.000000,4.000000,82.000000,,,,0.000000,4.000000,4.000000,4.000000,4.000000,4.000000,4.000000,4.000000,4.000000,4.000000,4.000000,4.000000,4.000000,4.000000,4.000000,100.000000,,,,,,,,,,,,,,,,
1645711737.123235,129.000000,0.000000,4249.102539,4246.922852,4254.743652,4239.358887,4252.692383,4241.538574,4248.205078,4235.897461,4236.538574,4241.538574,4252.307617,4205.769043,4242.307617,4255.384766,3565.000000,4.000000,82.000000,,,,0.000000,4.000000,4.000000,4.000000,4.000000,4.000000,4.000000,4.000000,4.000000,4.000000,4.000000,4.000000,4.000000,4.000000,4.000000,100.000000,,,,,,,,,,,,,,,,
1645711737.127275,130.000000,0.000000,4244.487305,4253.077148,4258.205078,4242.179688,4260.897461,4246.794922,4250.256348,4239.615234,4240.512695,4247.436035,4260.000000,4210.512695,4247.692383,4257.179688,2208.000000,4.000000,82.000000,,,,0.000000,4.000000,4.000000,4.000000,4.000000,4.000000,4.000000,4.000000,4.000000,4.000000,4.000000,4.000000,4.000000,4.000000,4.000000,100.000000,,,,,,,,,,,,,,,,
1645711737.131215,131.000000,0.000000,4240.000000,4256.282227,4258.205078,4242.563965,4264.615234,4246.282227,4247.307617,4239.358887,4242.307617,4249.743652,4262.307617,4210.128418,4249.871582,4249.230957,3452.000000,4.000000,82.000000,,,,0.000000,4.000000,4.000000,4.000000,4.000000,4.000000,4.000000,4.000000,4.000000,4.000000,4.000000,4.000000,4.000000,4.000000,4.000000,100.000000,,,,,,,,,,,,,,,,
1645711737.135155,132.000000,0.000000,4241.282227,4252.692383,4254.230957,4238.461426,4258.333496,4237.948730,4240.897461,4233.974121,4239.230957,4243.717773,4255.897461,4203.974121,4246.410156,4237.820313,3503.000000,4.000000,82.000000,,,,0.000000,4.000000,4.000000,4.000000,4.000000,4.000000,4.000000,4.000000,4.000000,4.000000,4.000000,4.000000,4.000000,4.000000,4.000000,100.000000,,,,,,,,,,,,,,,,
1645711737.139095,133.000000,0.000000,4243.717773,4246.794922,4250.128418,4234.743652,4248.077148,4229.487305,4236.794922,4228.589844,4234.230957,4234.743652,4246.794922,4196.666504,4240.384766,4231.922852,3509.000000,4.000000,82.000000,,,,0.000000,4.000000,4.000000,4.000000,4.000000,4.000000,4.000000,4.000000,4.000000,4.000000,4.000000,4.000000,4.000000,4.000000,4.000000,100.000000,,,,,,,,,,,,,,,,
1645711737.143035,134.000000,0.000000,4240.641113,4245.128418,4249.230957,4237.051270,4245.000000,4230.256348,4239.102539,4229.102539,4232.436035,4231.794922,4242.563965,4193.461426,4237.563965,4234.743652,3151.000000,4.000000,82.000000,,,,0.000000,4.000000,4.000000,4.000000,4.000000,4.000000,4.000000,4.000000,4.000000,4.000000,4.000000,4.000000,4.000000,4.000000,4.000000,100.000000,,,,,,,,,,,,,,,,
1645711737.146875,135.000000,0.000000,4233.461426,4248.333496,4250.512695,4243.589844,4251.538574,4239.615234,4245.641113,4234.743652,4235.512695,4236.538574,4243.974121,4194.615234,4239.102539,4241.025879,2546.000000,4.000000,82.000000,,,,0.000000,4.000000,4.000000,4.000000,4.000000,4.000000,4.000000,4.000000,4.000000,4.000000,4.000000,4.000000,4.000000,4.000000,4.000000,100.000000,,,,,,,,,,,,,,,,
1645711737.150815,136.000000,0.000000,4231.025879,4249.487305,4250.512695,4246.282227,4258.974121,4247.563965,4250.256348,4239.230957,4239.358887,4241.153809,4244.358887,4195.384766,4240.769043,4243.846191,1666.000000,4.000000,82.000000,,,,0.000000,4.000000,4.000000,4.000000,4.000000,4.000000,4.000000,4.000000,4.000000,4.000000,4.000000,4.000000,4.000000,4.000000,4.000000,100.000000,,,,,,,,,,,,,,,,
1645711737.154755,137.000000,0.000000,4237.179688,4243.846191,4247.692383,4240.512695,4257.948730,4246.538574,4249.743652,4237.948730,4240.000000,4239.102539,4239.487305,4192.051270,4238.205078,4240.641113,3128.000000,4.000000,82.000000,,,,0.000000,4.000000,4.000000,4.000000,4.000000,4.000000,4.000000,4.000000,4.000000,4.000000,4.000000,4.000000,4.000000,4.000000,4.000000,100.000000,,,,,,,,,,,,,,,,
1645711737.158696,138.000000,0.000000,4244.615234,4235.256348,4244.743652,4231.794922,4250.256348,4239.102539,4246.538574,4233.461426,4237.692383,4233.589844,4233.717773,4186.410156,4232.692383,4234.230957,2239.000000,4.000000,82.000000,,,,0.000000,4.000000,4.000000,4.000000,4.000000,4.000000,4.000000,4.000000,4.000000,4.000000,4.000000,4.000000,4.000000,4.000000,4.000000,100.000000,,,,,,,,,,,,,,,,
1645711737.162636,139.000000,0.000000,4243.333496,4231.794922,4244.743652,4229.358887,4245.256348,4233.461426,4244.358887,4231.282227,4236.282227,4233.077148,4234.230957,4183.205078,4228.846191,4228.717773,2666.000000,4.000000,82.000000,,,,0.000000,4.000000,4.000000,4.000000,4.000000,4.000000,4.000000,4.000000,4.000000,4.000000,4.000000,4.000000,4.000000,4.000000,4.000000,100.000000,,,,,,,,,,,,,,,,
1645711737.166576,140.000000,0.000000,4234.358887,4236.025879,4247.563965,4235.256348,4247.051270,4232.948730,4243.589844,4233.205078,4237.179688,4238.717773,4240.128418,4184.102539,4228.333496,4226.410156,3215.000000,4.000000,82.000000,,,,0.000000,4.000000,4.000000,4.000000,4.000000,4.000000,4.000000,4.000000,4.000000,4.000000,4.000000,4.000000,4.000000,4.000000,4.000000,100.000000,,,,,,,,,,,,,,,,
1645711737.170516,141.000000,0.000000,4228.077148,4241.922852,4249.102539,4241.410156,4250.000000,4233.974121,4241.794922,4235.000000,4237.692383,4241.794922,4242.948730,4185.512695,4228.717773,4227.692383,3379.000000,4.000000,82.000000,,,,0.000000,4.000000,4.000000,4.000000,4.000000,4.000000,4.000000,4.000000,4.000000,4.000000,4.000000,4.000000,4.000000,4.000000,4.000000,100.000000,,,,,,,,,,,,,,,,
1645711737.174456,142.000000,0.000000,4231.410156,4242.692383,4246.666504,4240.000000,4247.307617,4232.179688,4238.461426,4232.692383,4234.615234,4235.000000,4236.794922,4183.846191,4226.922852,4232.436035,2239.000000,4.000000,82.000000,,,,0.000000,4.000000,4.000000,4.000000,4.000000,4.000000,4.000000,4.000000,4.000000,4.000000,4.000000,4.000000,4.000000,4.000000,4.000000,100.000000,,,,,,,,,,,,,,,,
1645711737.178396,143.000000,0.000000,4238.333496,4238.846191,4242.179688,4232.563965,4241.538574,4229.102539,4236.153809,4227.820313,4229.358887,4222.563965,4226.666504,4180.769043,4224.358887,4238.205078,2666.000000,4.000000,82.000000,,,,0.000000,4.000000,4.000000,4.000000,4.000000,4.000000,4.000000,4.000000,4.000000,4.000000,4.000000,4.000000,4.000000,4.000000,4.000000,100.000000,,,,,,,,,,,,,,,,
1645711737.182336,144.000000,0.000000,4238.974121,4236.282227,4240.000000,4228.077148,4240.512695,4229.358887,4237.179688,4225.512695,4225.769043,4216.410156,4222.820313,4180.897461,4224.743652,4240.897461,3215.000000,4.000000,82.000000,,,,0.000000,4.000000,4.000000,4.000000,4.000000,4.000000,4.000000,4.000000,4.000000,4.000000,4.000000,4.000000,4.000000,4.000000,4.000000,100.000000,,,,,,,,,,,,,,,,
1645711737.186276,145.000000,0.000000,4231.922852,4237.820313,4241.153809,4231.666504,4246.025879,4232.820313,4239.743652,4227.692383,4226.025879,4222.179688,4228.333496,4185.256348,4229.230957,4237.436035,3379.000000,4.000000,82.000000,,,,0.000000,4.000000,4.000000,4.000000,4.000000,4.000000,4.000000,4.000000,4.000000,4.000000,4.000000,4.000000,4.000000,4.000000,4.000000,100.000000,,,,,,,,,,,,,,,,
1645711737.190216,146.000000,0.000000,4226.153809,4240.000000,4242.948730,4238.589844,4250.512695,4233.589844,4239.743652,4230.769043,4227.307617,4231.794922,4235.384766,4189.743652,4233.717773,4229.487305,2239.000000,4.000000,82.000000,1,1,1,0.000000,4.000000,4.000000,4.000000,4.000000,4.000000,4.000000,4.000000,4.000000,4.000000,4.000000,4.000000,4.000000,4.000000,4.000000,100.000000,,,,,,,,,,,,,,,,
1645711737.194156,147.000000,0.000000,4228.974121,4237.948730,4241.922852,4241.282227,4246.025879,4227.692383,4235.897461,4230.256348,4226.025879,4233.974121,4235.256348,4189.358887,4233.333496,4222.563965,2666.000000,4.000000,82.000000,,,,0.000000,4.000000,4.000000,4.000000,4.000000,4.000000,4.000000,4.000000,4.000000,4.000000,4.000000,4.000000,4.000000,4.000000,4.000000,100.000000,,,,,,,,,,,,,,,,
1645711737.198097,148.000000,0.000000,4235.512695,4232.179688,4238.846191,4237.563965,4235.769043,4219.743652,4231.922852,4225.512695,4222.179688,4226.538574,4228.974121,4184.743652,4228.589844,4221.025879,3215.000000,4.000000,82.000000,,,,0.000000,4.000000,4.000000,4.000000,4.000000,4.000000,4.000000,4.000000,4.000000,4.000000,4.000000,4.000000,4.000000,4.000000,4.000000,100.000000,,,,,,,,,,,,,,,,
1645711737.202037,149.000000,0.000000,4235.512695,4227.692383,4236.666504,4232.563965,4230.000000,4217.692383,4231.666504,4220.000000,4219.102539,4218.077148,4224.743652,4180.641113,4224.102539,4223.846191,3379.000000,4.000000,82.000000,,,,0.000000,4.000000,4.000000,4.000000,4.000000,4.000000,4.000000,4.000000,4.000000,4.000000,4.000000,4.000000,4.000000,4.000000,4.000000,100.000000,,,,,,,,,,,,,,,,
1645711737.205977,150.000000,0.000000,4227.436035,4226.794922,4237.051270,4231.153809,4233.974121,4223.846191,4234.358887,4216.282227,4218.846191,4216.282227,4227.692383,4180.256348,4223.589844,4226.538574,2239.000000,4.000000,82.000000,,,,0.000000,4.000000,4.000000,4.000000,4.000000,4.000000,4.000000,4.000000,4.000000,4.000000,4.000000,4.000000,4.000000,4.000000,4.000000,100.000000,,,,,,,,,,,,,,,,
1645711737.210017,151.000000,0.000000,4220.641113,4226.025879,4238.846191,4232.692383,4241.282227,4231.410156,4236.153809,4214.615234,4219.487305,4219.615234,4233.333496,4182.436035,4225.256348,4226.025879,2666.000000,4.000000,82.000000,,,,0.000000,4.000000,4.000000,4.000000,4.000000,4.000000,4.000000,4.000000,4.000000,4.000000,4.000000,4.000000,4.000000,4.000000,4.000000,100.000000,,,,,,,,,,,,,,,,
1645711737.213957,152.000000,0.000000,4223.077148,4222.179688,4239.871582,4232.820313,4242.051270,4233.205078,4234.743652,4213.589844,4218.589844,4220.769043,4234.871582,4183.974121,4225.897461,4224.487305,3215.000000,4.000000,82.000000,,,,0.000000,4.000000,4.000000,4.000000,4.000000,4.000000,4.000000,4.000000,4.000000,4.000000,4.000000,4.000000,4.000000,4.000000,4.000000,100.000000,,,,,,,,,,,,,,,,
1645711737.217897,153.000000,0.000000,4230.256348,4217.820313,4240.128418,4230.769043,4235.769043,4228.974121,4232.436035,4214.230957,4216.025879,4217.948730,4232.692383,4184.871582,4225.256348,4225.256348,3379.000000,4.000000,82.000000,,,,0.000000,4.000000,4.000000,4.000000,4.000000,4.000000,4.000000,4.000000,4.000000,4.000000,4.000000,4.000000,4.000000,4.000000,4.000000,100.000000,,,,,,,,,,,,,,,,
1645711737.221837,154.000000,0.000000,4232.179688,4218.717773,4241.282227,4230.000000,4230.256348,4224.871582,4232.692383,4217.436035,4215.512695,4216.410156,4233.333496,4187.307617,4226.538574,4228.846191,2239.000000,4.000000,82.000000,,,,0.000000,4.000000,4.000000,4.000000,4.000000,4.000000,4.000000,4.000000,4.000000,4.000000,4.000000,4.000000,4.000000,4.000000,4.000000,100.000000,,,,,,,,,,,,,,,,
1645711737.225777,155.000000,0.000000,4226.538574,4226.666504,4243.589844,4232.436035,4230.897461,4224.743652,4235.384766,4222.051270,4218.717773,4220.128418,4239.743652,4191.666504,4230.897461,4231.666504,2666.000000,4.000000,82.000000,,,,0.000000,4.000000,4.000000,4.000000,4.000000,4.000000,4.000000,4.000000,4.000000,4.000000,4.000000,4.000000,4.000000,4.000000,4.000000,100.000000,,,,,,,,,,,,,,,,
1645711737.229717,156.000000,0.000000,4222.179688,4235.128418,4244.871582,4234.358887,4233.974121,4225.897461,4236.410156,4223.974121,4223.333496,4226.025879,4246.282227,4195.000000,4234.871582,4231.153809,3215.000000,4.000000,82.000000,,,,0.000000,4.000000,4.000000,4.000000,4.000000,4.000000,4.000000,4.000000,4.000000,4.000000,4.000000,4.000000,4.000000,4.000000,4.000000,100.000000,,,,,,,,,,,,,,,,
1645711737.233657,157.000000,0.000000,4226.794922,4236.153809,4242.820313,4231.025879,4232.948730,4224.102539,4233.461426,4220.641113,4225.256348,4227.948730,4245.512695,4194.230957,4234.358887,4228.846191,3379.000000,4.000000,82.000000,,,,0.000000,4.000000,4.000000,4.000000,4.000000,4.000000,4.000000,4.000000,4.000000,4.000000,4.000000,4.000000,4.000000,4.000000,4.000000,100.000000,,,,,,,,,,,,,,,,
1645711737.237598,158.000000,0.000000,4235.897461,4229.487305,4238.589844,4223.717773,4228.461426,4220.128418,4228.717773,4215.256348,4223.717773,4226.025879,4238.077148,4190.000000,4230.384766,4228.077148,2239.000000,4.000000,82.000000,,,,0.000000,4.000000,4.000000,4.000000,4.000000,4.000000,4.000000,4.000000,4.000000,4.000000,4.000000,4.000000,4.000000,4.000000,4.000000,100.000000,,,,,,,,,,,,,,,,
1645711737.241538,159.000000,0.000000,4237.948730,4222.051270,4236.025879,4218.589844,4227.436035,4219.102539,4225.897461,4213.846191,4222.307617,4225.641113,4232.563965,4186.538574,4228.077148,4229.230957,2666.000000,4.000000,82.000000,,,,0.000000,4.000000,4.000000,4.000000,4.000000,4.000000,4.000000,4.000000,4.000000,4.000000,4.000000,4.000000,4.000000,4.000000,4.000000,100.000000,,,,,,,,,,,,,,,,
1645711737.245478,160.000000,0.000000,4229.102539,4220.384766,4236.538574,4219.358887,4232.820313,4222.563965,4226.025879,4218.717773,4223.589844,4229.615234,4233.974121,4185.769043,4231.153809,4229.871582,3215.000000,4.000000,82.000000,,,,0.000000,4.000000,4.000000,4.000000,4.000000,4.000000,4.000000,4.000000,4.000000,4.000000,4.000000,4.000000,4.000000,4.000000,4.000000,100.000000,,,,,,,,,,,,,,,,
1645711737.249418,161.000000,0.000000,4218.974121,4222.948730,4238.205078,4223.077148,4238.333496,4226.282227,4227.051270,4225.641113,4225.897461,4232.820313,4238.461426,4185.897461,4236.538574,4227.820313,3379.000000,4.000000,82.000000,,,,0.000000,4.000000,4.000000,4.000000,4.000000,4.000000,4.000000,4.000000,4.000000,4.000000,4.000000,4.000000,4.000000,4.000000,4.000000,100.000000,,,,,,,,,,,,,,,,
1645711737.253358,162.000000,0.000000,4218.974121,4223.717773,4238.077148,4225.512695,4236.922852,4225.128418,4227.563965,4228.974121,4225.256348,4228.846191,4239.102539,4184.615234,4238.717773,4225.128418,2239.000000,4.000000,82.000000,,,,0.000000,4.000000,4.000000,4.000000,4.000000,4.000000,4.000000,4.000000,4.000000,4.000000,4.000000,4.000000,4.000000,4.000000,4.000000,100.000000,,,,,,,,,,,,,,,,
1645711737.257298,163.000000,0.000000,4228.205078,4220.128418,4236.153809,4227.051270,4230.256348,4220.897461,4229.358887,4227.692383,4221.666504,4219.743652,4235.384766,4183.333496,4235.897461,4224.871582,2666.000000,4.000000,82.000000,,,,0.000000,4.000000,4.000000,4.000000,4.000000,4.000000,4.000000,4.000000,4.000000,4.000000,4.000000,4.000000,4.000000,4.000000,4.000000,100.000000,,,,,,,,,,,,,,,,
1645711737.261238,164.000000,0.000000,4234.871582,4215.897461,4234.871582,4231.282227,4227.948730,4220.000000,4234.487305,4226.025879,4219.102539,4215.128418,4234.102539,4184.871582,4231.410156,4227.692383,3215.000000,4.000000,82.000000,,,,0.000000,4.000000,4.000000,4.000000,4.000000,4.000000,4.000000,4.000000,4.000000,4.000000,4.000000,4.000000,4.000000,4.000000,4.000000,100.000000,,,,,,,,,,,,,,,,
1645711737.265178,165.000000,0.000000,4230.897461,4215.128418,4235.512695,4238.333496,4234.615234,4224.743652,4240.769043,4227.692383,4221.282227,4220.641113,4238.846191,4188.846191,4229.615234,4230.641113,3379.000000,4.000000,82.000000,,,,0.000000,4.000000,4.000000,4.000000,4.000000,4.000000,4.000000,4.000000,4.000000,4.000000,4.000000,4.000000,4.000000,4.000000,4.000000,100.000000,,,,,,,,,,,,,,,,
1645711737.269118,166.000000,0.000000,4221.666504,4216.922852,4235.897461,4241.666504,4243.717773,4229.615234,4243.077148,4231.538574,4226.794922,4230.897461,4244.871582,4191.025879,4229.871582,4230.512695,2239.000000,4.000000,82.000000,,,,0.000000,4.000000,4.000000,4.000000,4.000000,4.000000,4.000000,4.000000,4.000000,4.000000,4.000000,4.000000,4.000000,4.000000,4.000000,100.000000,,,,,,,,,,,,,,,,
1645711737.273058,167.000000,0.000000,4217.436035,4217.179688,4233.974121,4235.256348,4245.641113,4228.461426,4238.846191,4233.205078,4230.512695,4235.769043,4243.717773,4188.717773,4228.846191,4227.179688,2666.000000,4.000000,82.000000,,,,0.000000,4.000000,4.000000,4.000000,4.000000,4.000000,4.000000,4.000000,4.000000,4.000000,4.000000,4.000000,4.000000,4.000000,4.000000,100.000000,,,,,,,,,,,,,,,,
1645711737.276999,168.000000,0.000000,4220.897461,4216.153809,4231.025879,4221.538574,4239.102539,4222.563965,4231.794922,4231.025879,4229.615234,4232.692383,4234.871582,4184.487305,4225.897461,4223.974121,3215.000000,4.000000,82.000000,,,,0.000000,4.000000,4.000000,4.000000,4.000000,4.000000,4.000000,4.000000,4.000000,4.000000,4.000000,4.000000,4.000000,4.000000,4.000000,100.000000,,,,,,,,,,,,,,,,
1645711737.280939,169.000000,0.000000,4224.487305,4218.333496,4230.384766,4210.897461,4233.077148,4219.487305,4228.205078,4227.948730,4226.410156,4228.461426,4226.410156,4183.974121,4223.974121,4222.948730,3379.000000,4.000000,82.000000,,,,0.000000,4.000000,4.000000,4.000000,4.000000,4.000000,4.000000,4.000000,4.000000,4.000000,4.000000,4.000000,4.000000,4.000000,4.000000,100.000000,,,,,,,,,,,,,,,,
1645711737.284779,170.000000,0.000000,4222.179688,4225.128418,4232.820313,4210.897461,4234.743652,4223.205078,4230.000000,4227.692383,4223.974121,4229.230957,4225.769043,4188.461426,4225.512695,4223.461426,2239.000000,4.000000,82.000000,,,,0.000000,4.000000,4.000000,4.000000,4.000000,4.000000,4.000000,4.000000,4.000000,4.000000,4.000000,4.000000,4.000000,4.000000,4.000000,100.000000,,,,,,,,,,,,,,,,
1645711737.288719,171.000000,0.000000,4218.077148,4230.769043,4235.641113,4218.846191,4240.128418,4229.102539,4233.717773,4229.615234,4223.333496,4232.563965,4231.153809,4193.077148,4228.846191,4224.487305,2666.000000,4.000000,82.000000,,,,0.000000,4.000000,4.000000,4.000000,4.000000,4.000000,4.000000,4.000000,4.000000,4.000000,4.000000,4.000000,4.000000,4.000000,4.000000,100.000000,,,,,,,,,,,,,,,,
1645711737.292659,172.000000,0.000000,4219.615234,4227.948730,4235.641113,4226.153809,4240.769043,4229.743652,4234.743652,4230.256348,4223.205078,4231.538574,4235.256348,4191.922852,4230.256348,4226.282227,3215.000000,4.000000,82.000000,,,,0.000000,4.000000,4.000000,4.000000,4.000000,4.000000,4.000000,4.000000,4.000000,4.000000,4.000000,4.000000,4.000000,4.000000,4.000000,100.000000,,,,,,,,,,,,,,,,
1645711737.296599,173.000000,0.000000,4226.666504,4217.820313,4233.077148,4228.717773,4235.384766,4224.358887,4233.205078,4227.948730,4222.948730,4225.641113,4235.128418,4185.256348,4229.230957,4229.871582,3379.000000,4.000000,82.000000,,,,0.000000,4.000000,4.000000,4.000000,4.000000,4.000000,4.000000,4.000000,4.000000,4.000000,4.000000,4.000000,4.000000,4.000000,4.000000,100.000000,,,,,,,,,,,,,,,,
1645711737.300539,174.000000,0.000000,4231.025879,4210.000000,4231.538574,4230.000000,4232.307617,4220.512695,4232.820313,4225.384766,4224.230957,4222.563965,4235.000000,4179.230957,4229.230957,4234.743652,2239.000000,4.000000,82.000000,,,,0.000000,4.000000,4.000000,4.000000,4.000000,4.000000,4.000000,4.000000,4.000000,4.000000,4.000000,4.000000,4.000000,4.000000,4.000000,100.000000,,,,,,,,,,,,,,,,
1645711737.304479,175.000000,0.000000,4227.307617,4212.436035,4233.846191,4233.974121,4238.205078,4223.589844,4235.128418,4224.743652,4227.692383,4227.692383,4238.846191,4179.358887,4233.205078,4237.563965,2666.000000,4.000000,82.000000,,,,0.000000,4.000000,4.000000,4.000000,4.000000,4.000000,4.000000,4.000000,4.000000,4.000000,4.000000,4.000000,4.000000,4.000000,4.000000,100.000000,,,,,,,,,,,,,,,,
1645711737.308420,176.000000,0.000000,4221.410156,4221.922852,4237.948730,4237.948730,4248.846191,4229.871582,4237.563965,4225.000000,4230.641113,4236.153809,4243.717773,4184.358887,4239.358887,4236.282227,3215.000000,4.000000,82.000000,,,,0.000000,4.000000,4.000000,4.000000,4.000000,4.000000,4.000000,4.000000,4.000000,4.000000,4.000000,4.000000,4.000000,4.000000,4.000000,100.000000,1.000000,58.333332,1.000000,4.000000,3.000000,4.000000,3.000000,4.000000,4.000000,4.000000,3.000000,3.000000,3.000000,4.000000,3.000000,3.000000
1645711737.312360,177.000000,0.000000,4222.051270,4228.333496,4239.743652,4235.769043,4253.589844,4231.538574,4236.538574,4222.948730,4229.358887,4237.563965,4242.436035,4188.589844,4242.307617,4232.307617,3379.000000,4.000000,82.000000,,,,0.000000,4.000000,4.000000,4.000000,4.000000,4.000000,4.000000,4.000000,4.000000,4.000000,4.000000,4.000000,4.000000,4.000000,4.000000,100.000000,,,,,,,,,,,,,,,,
1645711737.316300,178.000000,0.000000,4228.717773,4226.025879,4237.563965,4227.436035,4248.333496,4226.153809,4232.820313,4218.461426,4224.102539,4229.102539,4233.333496,4188.461426,4239.358887,4228.717773,2239.000000,4.000000,82.000000,,,,0.000000,4.000000,4.000000,4.000000,4.000000,4.000000,4.000000,4.000000,4.000000,4.000000,4.000000,4.000000,4.000000,4.000000,4.000000,100.000000,,,,,,,,,,,,,,,,
1645711737.320240,179.000000,0.000000,4232.179688,4219.358887,4233.846191,4219.871582,4240.128418,4220.256348,4230.256348,4215.384766,4219.743652,4218.717773,4223.974121,4185.000000,4233.077148,4226.922852,2666.000000,4.000000,82.000000,2,1,1,0.000000,4.000000,4.000000,4.000000,4.000000,4.000000,4.000000,4.000000,4.000000,4.000000,4.000000,4.000000,4.000000,4.000000,4.000000,100.000000,,,,,,,,,,,,,,,,
1645711737.324180,180.000000,0.000000,4226.794922,4216.410156,4231.538574,4219.743652,4238.333496,4220.512695,4230.897461,4216.153809,4220.128418,4215.641113,4222.051270,4181.794922,4228.205078,4225.897461,3215.000000,4.000000,82.000000,,,,0.000000,4.000000,4.000000,4.000000,4.000000,4.000000,4.000000,4.000000,4.000000,4.000000,4.000000,4.000000,4.000000,4.000000,4.000000,100.000000,,,,,,,,,,,,,,,,
1645711737.328120,181.000000,0.000000,4219.358887,4219.102539,4230.897461,4224.615234,4242.948730,4225.128418,4232.051270,4218.077148,4223.717773,4219.871582,4227.307617,4180.512695,4227.051270,4224.743652,3379.000000,4.000000,82.000000,,,,0.000000,4.000000,4.000000,4.000000,4.000000,4.000000,4.000000,4.000000,4.000000,4.000000,4.000000,4.000000,4.000000,4.000000,4.000000,100.000000,,,,,,,,,,,,,,,,
1645711737.332060,182.000000,0.000000,4220.384766,4222.692383,4230.128418,4226.538574,4246.282227,4227.307617,4230.897461,4216.794922,4225.897461,4223.974121,4232.692383,4180.000000,4228.205078,4224.487305,2239.000000,4.000000,82.000000,,,,0.000000,4.000000,4.000000,4.000000,4.000000,4.000000,4.000000,4.000000,4.000000,4.000000,4.000000,4.000000,4.000000,4.000000,4.000000,100.000000,,,,,,,,,,,,,,,,
1645711737.336000,183.000000,0.000000,4230.384766,4222.692383,4229.102539,4222.436035,4243.974121,4224.358887,4228.717773,4212.692383,4225.000000,4223.589844,4233.589844,4179.743652,4230.641113,4226.538574,2666.000000,4.000000,82.000000,,,,0.000000,4.000000,4.000000,4.000000,4.000000,4.000000,4.000000,4.000000,4.000000,4.000000,4.000000,4.000000,4.000000,4.000000,4.000000,100.000000,,,,,,,,,,,,,,,,
1645711737.339940,184.000000,0.000000,4237.563965,4220.512695,4228.846191,4217.307617,4240.512695,4221.282227,4229.230957,4211.922852,4223.846191,4223.205078,4233.846191,4180.769043,4234.743652,4230.256348,3215.000000,4.000000,82.000000,,,,0.000000,4.000000,4.000000,4.000000,4.000000,4.000000,4.000000,4.000000,4.000000,4.000000,4.000000,4.000000,4.000000,4.000000,4.000000,100.000000,,,,,,,,,,,,,,,,
1645711737.343880,185.000000,0.000000,4232.820313,4219.358887,4230.128418,4217.436035,4242.179688,4223.589844,4233.461426,4218.717773,4225.769043,4228.846191,4238.461426,4183.077148,4240.512695,4232.692383,3379.000000,4.000000,82.000000,,,,0.000000,4.000000,4.000000,4.000000,4.000000,4.000000,4.000000,4.000000,4.000000,4.000000,4.000000,4.000000,4.000000,4.000000,4.000000,100.000000,,,,,,,,,,,,,,,,
1645711737.347821,186.000000,0.000000,4221.410156,4218.974121,4231.025879,4222.563965,4247.051270,4229.358887,4237.820313,4230.000000,4229.358887,4238.846191,4245.512695,4184.615234,4244.871582,4232.307617,2239.000000,4.000000,82.000000,,,,0.000000,4.000000,4.000000,4.000000,4.000000,4.000000,4.000000,4.000000,4.000000,4.000000,4.000000,4.000000,4.000000,4.000000,4.000000,100.000000,,,,,,,,,,,,,,,,
1645711737.351761,187.000000,0.000000,4216.538574,4216.282227,4229.871582,4227.179688,4247.820313,4232.051270,4237.436035,4237.179688,4230.512695,4244.102539,4247.436035,4182.820313,4244.487305,4230.769043,2666.000000,4.000000,82.000000,,,,0.000000,4.000000,4.000000,4.000000,4.000000,4.000000,4.000000,4.000000,4.000000,4.000000,4.000000,4.000000,4.000000,4.000000,4.000000,100.000000,,,,,,,,,,,,,,,,
1645711737.355701,188.000000,0.000000,4222.820313,4211.922852,4227.563965,4228.077148,4242.051270,4228.717773,4232.820313,4235.256348,4227.179688,4239.743652,4241.666504,4178.974121,4239.871582,4231.025879,3215.000000,4.000000,82.000000,,,,0.000000,4.000000,4.000000,4.000000,4.000000,4.000000,4.000000,4.000000,4.000000,4.000000,4.000000,4.000000,4.000000,4.000000,4.000000,100.000000,,,,,,,,,,,,,,,,
1645711737.359541,189.000000,0.000000,4231.410156,4210.897461,4227.307617,4228.205078,4236.794922,4224.487305,4228.589844,4228.333496,4222.563965,4231.153809,4234.358887,4177.948730,4236.153809,4233.589844,3379.000000,4.000000,82.000000,,,,0.000000,4.000000,4.000000,4.000000,4.000000,4.000000,4.000000,4.000000,4.000000,4.000000,4.000000,4.000000,4.000000,4.000000,4.000000,100.000000,,,,,,,,,,,,,,,,
1645711737.363481,190.000000,0.000000,4232.051270,4216.666504,4230.641113,4230.897461,4239.230957,4225.512695,4228.461426,4224.102539,4221.538574,4227.179688,4234.102539,4182.820313,4237.563965,4234.615234,2239.000000,4.000000,82.000000,,,,0.000000,4.000000,4.000000,4.000000,4.000000,4.000000,4.000000,4.000000,4.000000,4.000000,4.000000,4.000000,4.000000,4.000000,4.000000,100.000000,,,,,,,,,,,,,,,,
1645711737.367421,191.000000,0.000000,4225.512695,4225.000000,4235.128418,4233.461426,4246.538574,4230.769043,4230.897461,4225.897461,4224.615234,4229.358887,4240.256348,4190.384766,4241.282227,4231.282227,2666.000000,4.000000,82.000000,,,,0.000000,4.000000,4.000000,4.000000,4.000000,4.000000,4.000000,4.000000,4.000000,4.000000,4.000000,4.000000,4.000000,4.000000,4.000000,100.000000,,,,,,,,,,,,,,,,
1645711737.371361,192.000000,0.000000,4221.538574,4227.179688,4236.153809,4230.128418,4248.717773,4233.077148,4232.179688,4229.743652,4227.436035,4230.512695,4243.974121,4193.974121,4241.282227,4225.128418,3215.000000,4.000000,82.000000,,,,0.000000,4.000000,4.000000,4.000000,4.000000,4.000000,4.000000,4.000000,4.000000,4.000000,4.000000,4.000000,4.000000,4.000000,4.000000,100.000000,,,,,,,,,,,,,,,,
1645711737.375301,193.000000,0.000000,4224.487305,4219.871582,4232.563965,4220.000000,4240.256348,4228.846191,4230.769043,4229.743652,4226.410156,4225.384766,4238.717773,4190.256348,4235.128418,4221.410156,3379.000000,4.000000,82.000000,,,,0.000000,4.000000,4.000000,4.000000,4.000000,4.000000,4.000000,4.000000,4.000000,4.000000,4.000000,4.000000,4.000000,4.000000,4.000000,100.000000,,,,,,,,,,,,,,,,
1645711737.379242,194.000000,0.000000,4227.179688,4208.461426,4226.922852,4209.615234,4228.333496,4222.436035,4229.230957,4225.128418,4222.307617,4218.333496,4228.461426,4182.179688,4227.563965,4223.333496,2239.000000,4.000000,82.000000,,,,0.000000,4.000000,4.000000,4.000000,4.000000,4.000000,4.000000,4.000000,4.000000,4.000000,4.000000,4.000000,4.000000,4.000000,4.000000,100.000000,,,,,,,,,,,,,,,,
1645711737.383182,195.000000,0.000000,4222.179688,4202.051270,4223.461426,4207.179688,4223.461426,4221.025879,4230.000000,4220.128418,4218.846191,4217.179688,4221.538574,4175.256348,4224.871582,4228.077148,2666.000000,4.000000,82.000000,,,,0.000000,4.000000,4.000000,4.000000,4.000000,4.000000,4.000000,4.000000,4.000000,4.000000,4.000000,4.000000,4.000000,4.000000,4.000000,100.000000,,,,,,,,,,,,,,,,
1645711737.387122,196.000000,0.000000,4212.820313,4203.974121,4223.077148,4213.205078,4227.563965,4225.000000,4231.922852,4218.205078,4218.077148,4222.563965,4221.282227,4172.179688,4227.692383,4229.743652,3215.000000,4.000000,82.000000,,,,0.000000,4.000000,4.000000,4.000000,4.000000,4.000000,4.000000,4.000000,4.000000,4.000000,4.000000,4.000000,4.000000,4.000000,4.000000,100.000000,,,,,,,,,,,,,,,,
1645711737.391062,197.000000,0.000000,4210.769043,4210.256348,4224.358887,4221.794922,4233.205078,4228.205078,4232.692383,4219.615234,4218.589844,4227.051270,4222.948730,4171.282227,4231.538574,4226.410156,3379.000000,4.000000,82.000000,,,,0.000000,4.000000,4.000000,4.000000,4.000000,4.000000,4.000000,4.000000,4.000000,4.000000,4.000000,4.000000,4.000000,4.000000,4.000000,100.000000,,,,,,,,,,,,,,,,
1645711737.395002,198.000000,0.000000,4220.256348,4215.769043,4226.153809,4227.563965,4233.589844,4226.794922,4231.666504,4221.922852,4218.589844,4224.487305,4222.436035,4170.769043,4231.794922,4221.666504,2239.000000,4.000000,82.000000,,,,0.000000,4.000000,4.000000,4.000000,4.000000,4.000000,4.000000,4.000000,4.000000,4.000000,4.000000,4.000000,4.000000,4.000000,4.000000,100.000000,,,,,,,,,,,,,,,,
1645711737.398942,199.000000,0.000000,4232.051270,4219.743652,4228.846191,4230.256348,4230.641113,4223.717773,4231.538574,4224.615234,4218.717773,4218.461426,4221.794922,4171.794922,4229.615234,4220.897461,2666.000000,4.000000,82.000000,,,,0.000000,4.000000,4.000000,4.000000,4.000000,4.000000,4.000000,4.000000,4.000000,4.000000,4.000000,4.000000,4.000000,4.000000,4.000000,100.000000,,,,,,,,,,,,,,,,
1645711737.402882,200.000000,0.000000,4233.461426,4223.589844,4232.692383,4232.051270,4230.512695,4224.358887,4233.205078,4227.820313,4220.384766,4217.179688,4225.384766,4175.769043,4228.846191,4224.615234,3215.000000,4.000000,82.000000,,,,0.000000,4.000000,4.000000,4.000000,4.000000,4.000000,4.000000,4.000000,4.000000,4.000000,4.000000,4.000000,4.000000,4.000000,4.000000,100.000000,,,,,,,,,,,,,,,,
1645711737.406822,201.000000,0.000000,4224.102539,4226.153809,4235.256348,4232.051270,4233.846191,4227.948730,4234.487305,4230.128418,4223.077148,4221.538574,4231.794922,4180.641113,4229.871582,4227.436035,3379.000000,4.000000,82.000000,,,,0.000000,4.000000,4.000000,4.000000,4.000000,4.000000,4.000000,4.000000,4.000000,4.000000,4.000000,4.000000,4.000000,4.000000,4.000000,100.000000,,,,,,,,,,,,,,,,
1645711737.410762,202.000000,0.000000,4215.128418,4223.846191,4233.846191,4228.077148,4234.487305,4228.846191,4232.436035,4229.358887,4223.333496,4224.230957,4233.333496,4181.922852,4229.358887,4224.615234,2239.000000,4.000000,82.000000,,,,0.000000,4.000000,4.000000,4.000000,4.000000,4.000000,4.000000,4.000000,4.000000,4.000000,4.000000,4.000000,4.000000,4.000000,4.000000,100.000000,,,,,,,,,,,,,,,,
1645711737.414702,203.000000,0.000000,4215.769043,4216.282227,4228.974121,4221.025879,4229.358887,4224.487305,4227.820313,4225.128418,4220.256348,4219.615234,4225.897461,4177.820313,4225.000000,4217.436035,2666.000000,4.000000,82.000000,,,,0.000000,4.000000,4.000000,4.000000,4.000000,4.000000,4.000000,4.000000,4.000000,4.000000,4.000000,4.000000,4.000000,4.000000,4.000000,100.000000,,,,,,,,,,,,,,,,
1645711737.418643,204.000000,0.000000,4222.436035,4210.000000,4225.128418,4217.051270,4223.717773,4220.128418,4225.512695,4221.538574,4217.179688,4212.563965,4215.384766,4172.051270,4219.743652,4212.563965,3215.000000,4.000000,82.000000,,,,0.000000,4.000000,4.000000,4.000000,4.000000,4.000000,4.000000,4.000000,4.000000,4.000000,4.000000,4.000000,4.000000,4.000000,4.000000,100.000000,,,,,,,,,,,,,,,,
1645711737.422583,205.000000,0.000000,4225.897461,4211.794922,4226.025879,4220.384766,4225.256348,4221.666504,4228.333496,4223.077148,4219.102539,4213.717773,4212.179688,4170.512695,4219.102539,4214.743652,3379.000000,4.000000,82.000000,,,,0.000000,4.000000,4.000000,4.000000,4.000000,4.000000,4.000000,4.000000,4.000000,4.000000,4.000000,4.000000,4.000000,4.000000,4.000000,100.000000,,,,,,,,,,,,,,,,
1645711737.426523,206.000000,0.000000,4223.589844,4220.769043,4230.384766,4227.948730,4232.436035,4228.589844,4234.230957,4229.358887,4226.025879,4225.641113,4219.102539,4174.358887,4224.102539,4222.692383,2239.000000,4.000000,82.000000,,,,0.000000,4.000000,4.000000,4.000000,4.000000,4.000000,4.000000,4.000000,4.000000,4.000000,4.000000,4.000000,4.000000,4.000000,4.000000,100.000000,,,,,,,,,,,,,,,,
1645711737.430463,207.000000,0.000000,4222.307617,4228.077148,4233.205078,4231.025879,4235.769043,4233.461426,4237.820313,4234.487305,4232.563965,4238.461426,4228.205078,4179.615234,4230.256348,4230.641113,2666.000000,4.000000,82.000000,,,,0.000000,4.000000,4.000000,4.000000,4.000000,4.000000,4.000000,4.000000,4.000000,4.000000,4.000000,4.000000,4.000000,4.000000,4.000000,100.000000,,,,,,,,,,,,,,,,
1645711737.434303,208.000000,0.000000,4226.153809,4226.282227,4230.897461,4225.641113,4229.230957,4231.538574,4236.922852,4234.102539,4233.333496,4240.769043,4232.179688,4181.538574,4232.692383,4234.102539,3215.000000,4.000000,82.000000,,,,0.000000,4.000000,4.000000,4.000000,4.000000,4.000000,4.000000,4.000000,4.000000,4.000000,4.000000,4.000000,4.000000,4.000000,4.000000,100.000000,,,,,,,,,,,,,,,,
1645711737.438243,209.000000,0.000000,4229.487305,4217.563965,4225.256348,4217.563965,4218.461426,4226.666504,4233.717773,4229.487305,4228.846191,4232.179688,4231.794922,4180.000000,4231.922852,4232.436035,3379.000000,4.000000,82.000000,3,1,1,0.000000,4.000000,4.000000,4.000000,4.000000,4.000000,4.000000,4.000000,4.000000,4.000000,4.000000,4.000000,4.000000,4.000000,4.000000,100.000000,,,,,,,,,,,,,,,,
1645711737.442183,210.000000,0.000000,4224.230957,4209.615234,4220.769043,4215.384766,4214.615234,4225.641113,4232.051270,4225.897461,4224.487305,4222.820313,4233.589844,4177.820313,4231.282227,4226.794922,2239.000000,4.000000,82.000000,,,,0.000000,4.000000,4.000000,4.000000,4.000000,4.000000,4.000000,4.000000,4.000000,4.000000,4.000000,4.000000,4.000000,4.000000,4.000000,100.000000,,,,,,,,,,,,,,,,
1645711737.446123,211.000000,0.000000,4212.307617,4206.410156,4219.487305,4220.384766,4220.384766,4229.358887,4232.436035,4226.025879,4224.358887,4221.282227,4238.846191,4176.922852,4232.820313,4220.256348,2666.000000,4.000000,82.000000,,,,0.000000,4.000000,4.000000,4.000000,4.000000,4.000000,4.000000,4.000000,4.000000,4.000000,4.000000,4.000000,4.000000,4.000000,4.000000,100.000000,,,,,,,,,,,,,,,,
1645711737.450064,212.000000,0.000000,4205.897461,4205.512695,4219.743652,4224.871582,4226.666504,4231.538574,4232.436035,4227.948730,4227.051270,4225.897461,4241.538574,4176.410156,4234.358887,4216.410156,3215.000000,4.000000,82.000000,,,,0.000000,4.000000,4.000000,4.000000,4.000000,4.000000,4.000000,4.000000,4.000000,4.000000,4.000000,4.000000,4.000000,4.000000,4.000000,100.000000,,,,,,,,,,,,,,,,
1645711737.454004,213.000000,0.000000,4212.692383,4203.846191,4219.230957,4221.666504,4224.358887,4228.333496,4230.384766,4228.205078,4228.846191,4229.615234,4236.666504,4175.128418,4233.589844,4218.589844,3379.000000,4.000000,82.000000,,,,0.000000,4.000000,4.000000,4.000000,4.000000,4.000000,4.000000,4.000000,4.000000,4.000000,4.000000,4.000000,4.000000,4.000000,4.000000,100.000000,,,,,,,,,,,,,,,,
1645711737.457944,214.000000,0.000000,4226.153809,4203.461426,4218.205078,4214.230957,4215.000000,4223.205078,4227.948730,4226.538574,4228.846191,4229.743652,4227.820313,4173.974121,4231.410156,4226.410156,2239.000000,4.000000,82.000000,,,,0.000000,4.000000,4.000000,4.000000,4.000000,4.000000,4.000000,4.000000,4.000000,4.000000,4.000000,4.000000,4.000000,4.000000,4.000000,100.000000,,,,,,,,,,,,,,,,
1645711737.461884,215.000000,0.000000,4232.307617,4208.205078,4218.974121,4211.666504,4208.717773,4222.563965,4227.307617,4225.512695,4228.974121,4229.102539,4223.461426,4174.230957,4231.153809,4234.230957,2666.000000,4.000000,82.000000,,,,0.000000,4.000000,4.000000,4.000000,4.000000,4.000000,4.000000,4.000000,4.000000,4.000000,4.000000,4.000000,4.000000,4.000000,4.000000,100.000000,,,,,,,,,,,,,,,,
1645711737.465824,216.000000,0.000000,4226.410156,4216.666504,4221.666504,4217.948730,4211.282227,4226.282227,4227.307617,4225.769043,4230.641113,4229.743652,4226.410156,4174.230957,4233.461426,4235.512695,3215.000000,4.000000,82.000000,,,,0.000000,4.000000,4.000000,4.000000,4.000000,4.000000,4.000000,4.000000,4.000000,4.000000,4.000000,4.000000,4.000000,4.000000,4.000000,100.000000,,,,,,,,,,,,,,,,
1645711737.469764,217.000000,0.000000,4217.051270,4221.538574,4223.846191,4226.666504,4217.436035,4227.820313,4225.641113,4224.358887,4231.538574,4228.589844,4230.769043,4171.282227,4235.256348,4228.846191,3379.000000,4.000000,82.000000,,,,0.000000,4.000000,4.000000,4.000000,4.000000,4.000000,4.000000,4.000000,4.000000,4.000000,4.000000,4.000000,4.000000,4.000000,4.000000,100.000000,,,,,,,,,,,,,,,,
1645711737.473704,218.000000,0.000000,4215.000000,4218.077148,4223.077148,4229.102539,4218.974121,4223.077148,4222.436035,4220.000000,4228.846191,4222.692383,4229.871582,4165.256348,4233.077148,4220.384766,2239.000000,4.000000,82.000000,,,,0.000000,4.000000,4.000000,4.000000,4.000000,4.000000,4.000000,4.000000,4.000000,4.000000,4.000000,4.000000,4.000000,4.000000,4.000000,100.000000,,,,,,,,,,,,,,,,
1645711737.477644,219.000000,0.000000,4219.487305,4210.128418,4220.512695,4224.358887,4215.256348,4216.282227,4220.897461,4215.384766,4223.461426,4215.512695,4224.871582,4160.256348,4228.077148,4216.922852,2666.000000,4.000000,82.000000,,,,0.000000,4.000000,4.000000,4.000000,4.000000,4.000000,4.000000,4.000000,4.000000,4.000000,4.000000,4.000000,4.000000,4.000000,4.000000,100.000000,,,,,,,,,,,,,,,,
1645711737.481584,220.000000,0.000000,4222.179688,4206.153809,4219.230957,4219.487305,4212.948730,4215.256348,4223.333496,4215.128418,4219.358887,4214.615234,4222.820313,4160.512695,4224.615234,4220.000000,3215.000000,4.000000,82.000000,,,,0.000000,4.000000,4.000000,4.000000,4.000000,4.000000,4.000000,4.000000,4.000000,4.000000,4.000000,4.000000,4.000000,4.000000,4.000000,100.000000,,,,,,,,,,,,,,,,
1645711737.485524,221.000000,0.000000,4219.102539,4208.974121,4219.615234,4220.128418,4216.153809,4221.282227,4226.922852,4219.487305,4219.230957,4221.922852,4226.025879,4164.487305,4224.743652,4224.871582,3379.000000,4.000000,82.000000,,,,0.000000,4.000000,4.000000,4.000000,4.000000,4.000000,4.000000,4.000000,4.000000,4.000000,4.000000,4.000000,4.000000,4.000000,4.000000,100.000000,,,,,,,,,,,,,,,,
1645711737.489465,222.000000,0.000000,4215.897461,4213.333496,4219.487305,4224.230957,4220.256348,4226.794922,4226.538574,4224.102539,4221.922852,4229.871582,4229.743652,4167.436035,4226.025879,4226.538574,2239.000000,4.000000,82.000000,,,,0.000000,4.000000,4.000000,4.000000,4.000000,4.000000,4.000000,4.000000,4.000000,4.000000,4.000000,4.000000,4.000000,4.000000,4.000000,100.000000,,,,,,,,,,,,,,,,
1645711737.493405,223.000000,0.000000,4218.333496,4213.077148,4217.820313,4226.153809,4218.717773,4224.230957,4220.769043,4224.487305,4224.358887,4230.384766,4228.077148,4166.666504,4225.512695,4225.000000,2666.000000,4.000000,82.000000,,,,0.000000,4.000000,4.000000,4.000000,4.000000,4.000000,4.000000,4.000000,4.000000,4.000000,4.000000,4.000000,4.000000,4.000000,4.000000,100.000000,,,,,,,,,,,,,,,,
1645711737.497345,224.000000,0.000000,4223.846191,4209.871582,4216.922852,4225.512695,4212.948730,4215.384766,4214.102539,4222.051270,4225.897461,4224.615234,4223.589844,4165.769043,4224.230957,4223.077148,3215.000000,4.000000,82.000000,,,,0.000000,4.000000,4.000000,4.000000,4.000000,4.000000,4.000000,4.000000,4.000000,4.000000,4.000000,4.000000,4.000000,4.000000,4.000000,100.000000,,,,,,,,,,,,,,,,
1645711737.501285,225.000000,0.000000,4224.358887,4211.153809,4220.000000,4227.436035,4211.025879,4208.846191,4212.179688,4221.666504,4227.692383,4221.922852,4223.717773,4169.743652,4226.025879,4222.179688,3379.000000,4.000000,82.000000,,,,0.000000,4.000000,4.000000,4.000000,4.000000,4.000000,4.000000,4.000000,4.000000,4.000000,4.000000,4.000000,4.000000,4.000000,4.000000,100.000000,,,,,,,,,,,,,,,,
1645711737.505325,226.000000,0.000000,4218.077148,4219.487305,4226.282227,4234.102539,4215.897461,4209.487305,4215.641113,4224.743652,4230.384766,4226.794922,4230.384766,4177.563965,4232.179688,4220.256348,2239.000000,4.000000,82.000000,,,,0.000000,4.000000,4.000000,4.000000,4.000000,4.000000,4.000000,4.000000,4.000000,4.000000,4.000000,4.000000,4.000000,4.000000,4.000000,100.000000,,,,,,,,,,,,,,,,
1645711737.509265,227.000000,0.000000,4213.205078,4227.820313,4231.153809,4239.743652,4220.769043,4213.589844,4219.358887,4227.436035,4231.794922,4233.333496,4236.410156,4182.307617,4237.948730,4216.922852,2666.000000,4.000000,82.000000,,,,0.000000,4.000000,4.000000,4.000000,4.000000,4.000000,4.000000,4.000000,4.000000,4.000000,4.000000,4.000000,4.000000,4.000000,4.000000,100.000000,,,,,,,,,,,,,,,,
1645711737.513205,228.000000,0.000000,4217.563965,4228.077148,4231.153809,4238.077148,4217.307617,4213.846191,4218.974121,4226.025879,4230.000000,4232.563965,4233.846191,4178.589844,4237.820313,4214.871582,3215.000000,4.000000,82.000000,,,,0.000000,4.000000,4.000000,4.000000,4.000000,4.000000,4.000000,4.000000,4.000000,4.000000,4.000000,4.000000,4.000000,4.000000,4.000000,100.000000,,,,,,,,,,,,,,,,
1645711737.517145,229.000000,0.000000,4227.563965,4220.512695,4227.563965,4230.128418,4207.436035,4209.358887,4215.128418,4222.051270,4226.410156,4224.615234,4224.871582,4169.743652,4232.051270,4218.077148,3379.000000,4.000000,82.000000,,,,0.000000,4.000000,4.000000,4.000000,4.000000,4.000000,4.000000,4.000000,4.000000,4.000000,4.000000,4.000000,4.000000,4.000000,4.000000,100.000000,,,,,,,,,,,,,,,,
1645711737.521085,230.000000,0.000000,4232.307617,4213.717773,4225.512695,4223.974121,4201.922852,4206.025879,4212.563965,4221.025879,4225.000000,4219.615234,4219.743652,4164.358887,4226.538574,4225.512695,2239.000000,4.000000,82.000000,,,,0.000000,4.000000,4.000000,4.000000,4.000000,4.000000,4.000000,4.000000,4.000000,4.000000,4.000000,4.000000,4.000000,4.000000,4.000000,100.000000,,,,,,,,,,,,,,,,
1645711737.525025,231.000000,0.000000,4227.051270,4214.230957,4227.563965,4225.128418,4207.051270,4207.948730,4213.461426,4225.769043,4228.333496,4225.128418,4225.384766,4168.205078,4226.282227,4232.307617,2666.000000,4.000000,82.000000,,,,0.000000,4.000000,4.000000,4.000000,4.000000,4.000000,4.000000,4.000000,4.000000,4.000000,4.000000,4.000000,4.000000,4.000000,4.000000,100.000000,,,,,,,,,,,,,,,,
1645711737.528966,232.000000,0.000000,4219.230957,4220.128418,4231.538574,4230.000000,4217.051270,4212.820313,4216.153809,4232.820313,4233.333496,4236.794922,4236.794922,4178.077148,4230.384766,4233.589844,3215.000000,4.000000,82.000000,,,,0.000000,4.000000,4.000000,4.000000,4.000000,4.000000,4.000000,4.000000,4.000000,4.000000,4.000000,4.000000,4.000000,4.000000,4.000000,100.000000,,,,,,,,,,,,,,,,
1645711737.532906,233.000000,0.000000,4218.974121,4224.102539,4233.205078,4231.666504,4221.025879,4214.871582,4218.077148,4235.897461,4235.128418,4243.589844,4242.948730,4185.641113,4233.846191,4229.743652,3379.000000,4.000000,82.000000,,,,0.000000,4.000000,4.000000,4.000000,4.000000,4.000000,4.000000,4.000000,4.000000,4.000000,4.000000,4.000000,4.000000,4.000000,4.000000,100.000000,,,,,,,,,,,,,,,,
1645711737.536846,234.000000,0.000000,4225.512695,4222.820313,4231.922852,4228.589844,4216.666504,4213.846191,4220.000000,4233.077148,4232.179688,4240.897461,4239.615234,4186.025879,4234.358887,4224.615234,2239.000000,4.000000,82.000000,,,,0.000000,4.000000,4.000000,4.000000,4.000000,4.000000,4.000000,4.000000,4.000000,4.000000,4.000000,4.000000,4.000000,4.000000,4.000000,100.000000,,,,,,,,,,,,,,,,
1645711737.540786,235.000000,0.000000,4229.487305,4219.743652,4230.128418,4226.538574,4212.563965,4214.743652,4224.102539,4228.461426,4228.077148,4235.128418,4232.820313,4181.282227,4233.846191,4221.282227,2666.000000,4.000000,82.000000,,,,0.000000,4.000000,4.000000,4.000000,4.000000,4.000000,4.000000,4.000000,4.000000,4.000000,4.000000,4.000000,4.000000,4.000000,4.000000,100.000000,,,,,,,,,,,,,,,,
1645711737.544726,236.000000,0.000000,4225.512695,4218.461426,4230.000000,4230.128418,4216.025879,4220.897461,4230.256348,4227.307617,4227.563965,4234.358887,4230.128418,4176.538574,4235.512695,4220.000000,3215.000000,4.000000,82.000000,,,,0.000000,4.000000,4.000000,4.000000,4.000000,4.000000,4.000000,4.000000,4.000000,4.000000,4.000000,4.000000,4.000000,4.000000,4.000000,100.000000,,,,,,,,,,,,,,,,
1645711737.548666,237.000000,0.000000,4220.000000,4218.717773,4230.000000,4236.153809,4223.974121,4228.589844,4234.487305,4230.000000,4230.512695,4238.333496,4232.051270,4174.358887,4237.948730,4219.871582,3379.000000,4.000000,82.000000,,,,0.000000,4.000000,4.000000,4.000000,4.000000,4.000000,4.000000,4.000000,4.000000,4.000000,4.000000,4.000000,4.000000,4.000000,4.000000,100.000000,,,,,,,,,,,,,,,,
1645711737.552606,238.000000,0.000000,4221.538574,4217.051270,4228.333496,4237.307617,4226.410156,4231.538574,4233.589844,4232.948730,4233.974121,4239.743652,4232.948730,4173.974121,4238.077148,4221.538574,2239.000000,4.000000,82.000000,,,,0.000000,4.000000,4.000000,4.000000,4.000000,4.000000,4.000000,4.000000,4.000000,4.000000,4.000000,4.000000,4.000000,4.000000,4.000000,100.000000,,,,,,,,,,,,,,,,
1645711737.556546,239.000000,0.000000,4228.846191,4213.589844,4225.769043,4231.922852,4220.000000,4228.846191,4229.230957,4233.461426,4235.641113,4235.769043,4230.512695,4174.102539,4234.743652,4225.641113,2666.000000,4.000000,82.000000,,,,0.000000,4.000000,4.000000,4.000000,4.000000,4.000000,4.000000,4.000000,4.000000,4.000000,4.000000,4.000000,4.000000,4.000000,4.000000,100.000000,,,,,,,,,,,,,,,,
1645711737.560486,240.000000,0.000000,4232.051270,4212.563965,4225.384766,4225.641113,4212.179688,4225.897461,4226.666504,4232.948730,4236.794922,4231.922852,4228.589844,4174.743652,4231.538574,4230.641113,3215.000000,4.000000,82.000000,,,,0.000000,4.000000,4.000000,4.000000,4.000000,4.000000,4.000000,4.000000,4.000000,4.000000,4.000000,4.000000,4.000000,4.000000,4.000000,100.000000,,,,,,,,,,,,,,,,
1645711737.564426,241.000000,0.000000,4226.153809,4216.282227,4228.077148,4224.871582,4210.641113,4227.179688,4227.948730,4233.333496,4238.974121,4234.102539,4231.025879,4175.769043,4231.282227,4232.563965,3379.000000,4.000000,82.000000,,,,0.000000,4.000000,4.000000,4.000000,4.000000,4.000000,4.000000,4.000000,4.000000,4.000000,4.000000,4.000000,4.000000,4.000000,4.000000,100.000000,,,,,,,,,,,,,,,,
1645711737.568367,242.000000,0.000000,4218.205078,4221.025879,4231.025879,4228.461426,4214.615234,4230.128418,4230.256348,4234.358887,4240.769043,4239.871582,4234.358887,4175.128418,4233.205078,4228.589844,2239.000000,4.000000,82.000000,,,,0.000000,4.000000,4.000000,4.000000,4.000000,4.000000,4.000000,4.000000,4.000000,4.000000,4.000000,4.000000,4.000000,4.000000,4.000000,100.000000,,,,,,,,,,,,,,,,
1645711737.572307,243.000000,0.000000,4217.563965,4220.384766,4230.000000,4229.871582,4216.410156,4228.717773,4229.358887,4233.461426,4239.358887,4241.153809,4232.820313,4171.025879,4233.461426,4221.153809,2666.000000,4.000000,82.000000,,,,0.000000,4.000000,4.000000,4.000000,4.000000,4.000000,4.000000,4.000000,4.000000,4.000000,4.000000,4.000000,4.000000,4.000000,4.000000,100.000000,,,,,,,,,,,,,,,,
1645711737.576247,244.000000,0.000000,4224.102539,4213.974121,4225.128418,4226.410156,4212.948730,4222.563965,4226.025879,4229.871582,4234.743652,4235.897461,4226.282227,4165.384766,4231.282227,4215.384766,3215.000000,4.000000,82.000000,,,,0.000000,4.000000,4.000000,4.000000,4.000000,4.000000,4.000000,4.000000,4.000000,4.000000,4.000000,4.000000,4.000000,4.000000,4.000000,100.000000,,,,,,,,,,,,,,,,
1645711737.580087,245.000000,0.000000,4227.563965,4209.102539,4220.384766,4222.051270,4209.487305,4218.717773,4224.358887,4226.538574,4230.897461,4230.384766,4221.410156,4162.948730,4229.871582,4214.358887,3379.000000,4.000000,82.000000,,,,0.000000,4.000000,4.000000,4.000000,4.000000,4.000000,4.000000,4.000000,4.000000,4.000000,4.000000,4.000000,4.000000,4.000000,4.000000,100.000000,,,,,,,,,,,,,,,,
1645711737.584027,246.000000,0.000000,4221.666504,4212.051270,4219.230957,4221.922852,4211.922852,4222.179688,4227.051270,4225.897461,4231.282227,4231.282227,4223.205078,4166.410156,4232.179688,4215.512695,2239.000000,4.000000,82.000000,,,,0.000000,4.000000,4.000000,4.000000,4.000000,4.000000,4.000000,4.000000,4.000000,4.000000,4.000000,4.000000,4.000000,4.000000,4.000000,100.000000,,,,,,,,,,,,,,,,
1645711737.587967,247.000000,0.000000,4212.692383,4219.743652,4221.025879,4224.615234,4217.563965,4229.487305,4231.153809,4227.436035,4234.871582,4236.282227,4227.948730,4172.307617,4235.769043,4215.000000,2666.000000,4.000000,82.000000,,,,0.000000,4.000000,4.000000,4.000000,4.000000,4.000000,4.000000,4.000000,4.000000,4.000000,4.000000,4.000000,4.000000,4.000000,4.000000,100.000000,,,,,,,,,,,,,,,,
1645711737.591907,248.000000,0.000000,4211.025879,4223.333496,4221.794922,4224.487305,4218.717773,4232.307617,4231.922852,4227.563965,4236.794922,4237.307617,4227.179688,4174.871582,4235.128418,4211.666504,3215.000000,4.000000,82.000000,,,,0.000000,4.000000,4.000000,4.000000,4.000000,4.000000,4.000000,4.000000,4.000000,4.000000,4.000000,4.000000,4.000000,4.000000,4.000000,100.000000,,,,,,,,,,,,,,,,
1645711737.595847,249.000000,0.000000,4217.563965,4217.948730,4219.358887,4219.102539,4212.563965,4227.692383,4228.333496,4225.000000,4233.974121,4230.897461,4218.846191,4171.666504,4228.205078,4208.461426,3379.000000,4.000000,82.000000,,,,0.000000,4.000000,4.000000,4.000000,4.000000,4.000000,4.000000,4.000000,4.000000,4.000000,4.000000,4.000000,4.000000,4.000000,4.000000,100.000000,,,,,,,,,,,,,,,,
1645711737.599788,250.000000,0.000000,4222.179688,4208.333496,4215.512695,4213.717773,4205.897461,4220.769043,4223.461426,4221.922852,4228.717773,4222.948730,4210.256348,4165.769043,4218.974121,4208.589844,2239.000000,4.000000,82.000000,,,,0.000000,4.000000,4.000000,4.000000,4.000000,4.000000,4.000000,4.000000,4.000000,4.000000,4.000000,4.000000,4.000000,4.000000,4.000000,100.000000,,,,,,,,,,,,,,,,
1645711737.603728,251.000000,0.000000,4217.179688,4202.948730,4213.333496,4213.846191,4205.128418,4217.820313,4220.384766,4220.384766,4225.000000,4220.256348,4208.974121,4161.666504,4213.717773,4211.538574,2666.000000,4.000000,82.000000,,,,0.000000,4.000000,4.000000,4.000000,4.000000,4.000000,4.000000,4.000000,4.000000,4.000000,4.000000,4.000000,4.000000,4.000000,4.000000,100.000000,,,,,,,,,,,,,,,,
1645711737.607668,252.000000,0.000000,4207.692383,4204.615234,4213.205078,4218.461426,4207.948730,4218.589844,4218.846191,4219.487305,4223.589844,4221.538574,4212.948730,4160.000000,4214.230957,4215.000000,3215.000000,4.000000,82.000000,,,,0.000000,4.000000,4.000000,4.000000,4.000000,4.000000,4.000000,4.000000,4.000000,4.000000,4.000000,4.000000,4.000000,4.000000,4.000000,100.000000,,,,,,,,,,,,,,,,
1645711737.611608,253.000000,0.000000,4204.743652,4207.820313,4213.333496,4220.897461,4206.538574,4217.692383,4217.179688,4216.153809,4221.794922,4219.871582,4213.974121,4158.205078,4216.538574,4216.666504,3379.000000,4.000000,82.000000,,,,0.000000,4.000000,4.000000,4.000000,4.000000,4.000000,4.000000,4.000000,4.000000,4.000000,4.000000,4.000000,4.000000,4.000000,4.000000,100.000000,,,,,,,,,,,,,,,,
1645711737.615548,254.000000,0.000000,4211.025879,4206.922852,4212.436035,4217.436035,4198.205078,4213.589844,4216.025879,4210.384766,4218.333496,4212.948730,4208.461426,4155.512695,4216.538574,4216.282227,2239.000000,4.000000,82.000000,,,,0.000000,4.000000,4.000000,4.000000,4.000000,4.000000,4.000000,4.000000,4.000000,4.000000,4.000000,4.000000,4.000000,4.000000,4.000000,100.000000,,,,,,,,,,,,,,,,
1645711737.619488,255.000000,0.000000,4217.179688,4202.692383,4211.666504,4211.282227,4190.384766,4211.410156,4218.077148,4206.794922,4215.769043,4207.307617,4202.692383,4154.487305,4214.615234,4213.974121,112.000000,4.000000,82.000000,,,,0.000000,4.000000,4.000000,4.000000,4.000000,4.000000,4.000000,4.000000,4.000000,4.000000,4.000000,4.000000,4.000000,4.000000,4.000000,100.000000,,,,,,,,,,,,,,,,
1645711737.623428,0.000000,0.000000,4214.743652,4199.743652,4212.179688,4208.333496,4191.538574,4215.256348,4223.717773,4209.615234,4216.794922,4209.487305,4203.974121,4157.948730,4213.846191,4210.256348,3306.000000,4.000000,82.000000,,,,0.000000,4.000000,4.000000,4.000000,4.000000,4.000000,4.000000,4.000000,4.000000,4.000000,4.000000,4.000000,4.000000,4.000000,4.000000,100.000000,,,,,,,,,,,,,,,,
1645711737.627368,1.000000,0.000000,4207.051270,4199.743652,4213.205078,4209.102539,4200.000000,4222.179688,4229.487305,4217.179688,4220.512695,4217.820313,4211.153809,4164.358887,4215.641113,4206.666504,3195.000000,4.000000,82.000000,,,,0.000000,4.000000,4.000000,4.000000,4.000000,4.000000,4.000000,4.000000,4.000000,4.000000,4.000000,4.000000,4.000000,4.000000,4.000000,100.000000,,,,,,,,,,,,,,,,
1645711737.631308,2.000000,0.000000,4204.358887,4200.128418,4212.563965,4210.128418,4205.897461,4224.743652,4231.410156,4223.846191,4222.179688,4222.948730,4215.769043,4168.846191,4218.333496,4207.179688,2202.000000,4.000000,82.000000,,,,0.000000,4.000000,4.000000,4.000000,4.000000,4.000000,4.000000,4.000000,4.000000,4.000000,4.000000,4.000000,4.000000,4.000000,4.000000,100.000000,,,,,,,,,,,,,,,,
1645711737.635248,3.000000,0.000000,4210.256348,4199.102539,4210.641113,4209.230957,4203.846191,4220.897461,4230.128418,4225.769043,4220.128418,4220.000000,4212.820313,4169.487305,4219.871582,4214.743652,3358.000000,4.000000,82.000000,,,,0.000000,4.000000,4.000000,4.000000,4.000000,4.000000,4.000000,4.000000,4.000000,4.000000,4.000000,4.000000,4.000000,4.000000,4.000000,100.000000,,,,,,,,,,,,,,,,
1645711737.639189,4.000000,0.000000,4215.897461,4199.487305,4210.512695,4209.615234,4198.974121,4216.794922,4229.615234,4224.615234,4217.051270,4213.846191,4207.436035,4168.077148,4221.153809,4226.794922,3515.000000,4.000000,82.000000,,,,0.000000,4.000000,4.000000,4.000000,4.000000,4.000000,4.000000,4.000000,4.000000,4.000000,4.000000,4.000000,4.000000,4.000000,4.000000,100.000000,,,,,,,,,,,,,,,,
1645711737.643129,5.000000,0.000000,4212.692383,4204.358887,4214.102539,4214.358887,4199.871582,4218.461426,4232.179688,4224.615234,4217.563965,4212.820313,4207.563965,4167.563965,4223.333496,4235.641113,3137.000000,4.000000,82.000000,,,,0.000000,4.000000,4.000000,4.000000,4.000000,4.000000,4.000000,4.000000,4.000000,4.000000,4.000000,4.000000,4.000000,4.000000,4.000000,100.000000,,,,,,,,,,,,,,,,
1645711737.647069,6.000000,0.000000,4204.102539,4211.282227,4219.615234,4220.641113,4207.307617,4224.102539,4235.128418,4226.538574,4221.666504,4217.820313,4213.717773,4167.436035,4224.743652,4235.512695,3209.000000,4.000000,82.000000,,,,0.000000,4.000000,4.000000,4.000000,4.000000,4.000000,4.000000,4.000000,4.000000,4.000000,4.000000,4.000000,4.000000,4.000000,4.000000,100.000000,,,,,,,,,,,,,,,,
1645711737.650909,7.000000,0.000000,4202.179688,4213.846191,4223.205078,4222.563965,4213.205078,4226.153809,4234.871582,4228.077148,4225.128418,4221.922852,4218.974121,4165.641113,4222.051270,4228.589844,2337.000000,4.000000,82.000000,,,,0.000000,4.000000,4.000000,4.000000,4.000000,4.000000,4.000000,4.000000,4.000000,4.000000,4.000000,4.000000,4.000000,4.000000,4.000000,100.000000,,,,,,,,,,,,,,,,
1645711737.654849,8.000000,0.000000,4212.051270,4210.384766,4223.717773,4218.077148,4212.307617,4221.666504,4231.666504,4228.717773,4225.256348,4220.256348,4218.461426,4162.307617,4215.256348,4223.846191,1719.000000,4.000000,82.000000,,,,0.000000,4.000000,4.000000,4.000000,4.000000,4.000000,4.000000,4.000000,4.000000,4.000000,4.000000,4.000000,4.000000,4.000000,4.000000,100.000000,,,,,,,,,,,,,,,,
1645711737.658789,9.000000,0.000000,4225.128418,4206.153809,4223.589844,4213.077148,4208.717773,4215.769043,4229.102539,4231.025879,4223.846191,4216.922852,4216.025879,4160.641113,4209.871582,4227.692383,2894.000000,4.000000,82.000000,,,,0.000000,4.000000,4.000000,4.000000,4.000000,4.000000,4.000000,4.000000,4.000000,4.000000,4.000000,4.000000,4.000000,4.000000,4.000000,100.000000,,,,,,,,,,,,,,,,
1645711737.662729,10.000000,0.000000,4229.487305,4207.563965,4225.641113,4214.487305,4210.384766,4215.000000,4229.230957,4237.179688,4224.743652,4219.487305,4218.205078,4162.692383,4211.794922,4238.333496,2287.000000,4.000000,82.000000,,,,0.000000,4.000000,4.000000,4.000000,4.000000,4.000000,4.000000,4.000000,4.000000,4.000000,4.000000,4.000000,4.000000,4.000000,4.000000,100.000000,,,,,,,,,,,,,,,,
1645711737.666669,11.000000,0.000000,4223.333496,4213.589844,4228.461426,4221.538574,4217.820313,4219.230957,4230.384766,4244.743652,4228.717773,4228.846191,4225.000000,4166.794922,4220.512695,4246.538574,2663.000000,4.000000,82.000000,,,,0.000000,4.000000,4.000000,4.000000,4.000000,4.000000,4.000000,4.000000,4.000000,4.000000,4.000000,4.000000,4.000000,4.000000,4.000000,100.000000,,,,,,,,,,,,,,,,
1645711737.670610,12.000000,0.000000,4216.922852,4217.307617,4229.230957,4226.922852,4223.846191,4222.179688,4229.358887,4248.205078,4232.563965,4237.436035,4228.846191,4168.846191,4229.487305,4245.512695,2971.000000,4.000000,82.000000,,,,0.000000,4.000000,4.000000,4.000000,4.000000,4.000000,4.000000,4.000000,4.000000,4.000000,4.000000,4.000000,4.000000,4.000000,4.000000,100.000000,,,,,,,,,,,,,,,,
1645711737.674550,13.000000,0.000000,4218.205078,4214.743652,4226.922852,4225.897461,4223.077148,4220.000000,4227.051270,4245.384766,4233.717773,4238.974121,4225.000000,4167.948730,4233.333496,4237.692383,3249.000000,4.000000,82.000000,,,,0.000000,4.000000,4.000000,4.000000,4.000000,4.000000,4.000000,4.000000,4.000000,4.000000,4.000000,4.000000,4.000000,4.000000,4.000000,100.000000,,,,,,,,,,,,,,,,
1645711737.678490,14.000000,0.000000,4223.974121,4210.256348,4225.128418,4222.307617,4220.000000,4216.794922,4227.179688,4240.384766,4233.461426,4235.769043,4217.692383,4167.436035,4232.692383,4231.410156,2287.000000,4.000000,82.000000,,,,0.000000,4.000000,4.000000,4.000000,4.000000,4.000000,4.000000,4.000000,4.000000,4.000000,4.000000,4.000000,4.000000,4.000000,4.000000,100.000000,,,,,,,,,,,,,,,,
1645711737.682430,15.000000,0.000000,4225.128418,4211.282227,4226.922852,4222.436035,4222.948730,4218.461426,4231.410156,4239.487305,4235.256348,4235.641113,4215.512695,4170.897461,4231.922852,4232.307617,2663.000000,4.000000,82.000000,,,,0.000000,4.000000,4.000000,4.000000,4.000000,4.000000,4.000000,4.000000,4.000000,4.000000,4.000000,4.000000,4.000000,4.000000,4.000000,100.000000,,,,,,,,,,,,,,,,
1645711737.686370,16.000000,0.000000,4220.256348,4217.948730,4230.897461,4226.666504,4232.307617,4224.487305,4236.794922,4243.461426,4239.102539,4240.641113,4220.512695,4176.666504,4232.948730,4238.205078,2971.000000,4.000000,82.000000,,,,0.000000,4.000000,4.000000,4.000000,4.000000,4.000000,4.000000,4.000000,4.000000,4.000000,4.000000,4.000000,4.000000,4.000000,4.000000,100.000000,,,,,,,,,,,,,,,,
1645711737.690310,17.000000,0.000000,4216.410156,4223.333496,4232.051270,4228.717773,4239.230957,4227.692383,4238.461426,4247.179688,4241.538574,4244.487305,4225.769043,4179.487305,4232.692383,4241.922852,3249.000000,4.000000,82.000000,,,,0.000000,4.000000,4.000000,4.000000,4.000000,4.000000,4.000000,4.000000,4.000000,4.000000,4.000000,4.000000,4.000000,4.000000,4.000000,100.000000,,,,,,,,,,,,,,,,
1645711737.694250,18.000000,0.000000,4218.589844,4221.282227,4227.692383,4225.256348,4237.179688,4224.102539,4235.769043,4246.025879,4239.615234,4240.897461,4224.871582,4176.666504,4228.717773,4239.487305,2287.000000,4.000000,82.000000,,,,0.000000,4.000000,4.000000,4.000000,4.000000,4.000000,4.000000,4.000000,4.000000,4.000000,4.000000,4.000000,4.000000,4.000000,4.000000,100.000000,,,,,,,,,,,,,,,,
1645711737.698190,19.000000,0.000000,4222.179688,4214.230957,4221.282227,4220.384766,4230.512695,4217.948730,4232.436035,4241.153809,4235.256348,4232.563965,4219.487305,4171.025879,4222.820313,4232.563965,2663.000000,4.000000,82.000000,,,,0.000000,4.000000,4.000000,4.000000,4.000000,4.000000,4.000000,4.000000,4.000000,4.000000,4.000000,4.000000,4.000000,4.000000,4.000000,100.000000,,,,,,,,,,,,,,,,
1645711737.702130,20.000000,0.000000,4219.230957,4209.615234,4218.589844,4221.153809,4229.102539,4216.922852,4232.563965,4237.436035,4232.948730,4228.589844,4216.922852,4167.563965,4219.230957,4226.410156,2971.000000,4.000000,82.000000,,,,0.000000,4.000000,4.000000,4.000000,4.000000,4.000000,4.000000,4.000000,4.000000,4.000000,4.000000,4.000000,4.000000,4.000000,4.000000,100.000000,,,,,,,,,,,,,,,,
1645711737.706070,21.000000,0.000000,4211.282227,4210.256348,4221.410156,4227.563965,4235.769043,4222.436035,4235.128418,4237.179688,4234.230957,4232.051270,4219.230957,4167.820313,4219.487305,4224.358887,3249.000000,4.000000,82.000000,,,,0.000000,4.000000,4.000000,4.000000,4.000000,4.000000,4.000000,4.000000,4.000000,4.000000,4.000000,4.000000,4.000000,4.000000,4.000000,100.000000,,,,,,,,,,,,,,,,
1645711737.710011,22.000000,0.000000,4208.333496,4213.077148,4226.538574,4231.794922,4243.589844,4227.692383,4236.282227,4237.436035,4236.025879,4236.538574,4221.794922,4169.102539,4220.897461,4226.922852,2287.000000,4.000000,82.000000,,,,0.000000,4.000000,4.000000,4.000000,4.000000,4.000000,4.000000,4.000000,4.000000,4.000000,4.000000,4.000000,4.000000,4.000000,4.000000,100.000000,,,,,,,,,,,,,,,,
1645711737.713951,23.000000,0.000000,4215.897461,4214.615234,4229.743652,4227.307617,4245.000000,4227.436035,4234.102539,4235.384766,4235.128418,4233.846191,4219.230957,4169.102539,4220.256348,4232.436035,2663.000000,4.000000,82.000000,,,,0.000000,4.000000,4.000000,4.000000,4.000000,4.000000,4.000000,4.000000,4.000000,4.000000,4.000000,4.000000,4.000000,4.000000,4.000000,100.000000,,,,,,,,,,,,,,,,
1645711737.717891,24.000000,0.000000,4226.538574,4216.794922,4229.743652,4217.692383,4241.794922,4223.717773,4231.282227,4231.282227,4232.307617,4225.000000,4212.948730,4168.333496,4218.333496,4238.461426,2971.000000,4.000000,82.000000,,,,0.000000,4.000000,4.000000,4.000000,4.000000,4.000000,4.000000,4.000000,4.000000,4.000000,4.000000,4.000000,4.000000,4.000000,4.000000,100.000000,,,,,,,,,,,,,,,,
1645711737.721931,25.000000,0.000000,4228.333496,4222.563965,4227.692383,4212.307617,4241.666504,4223.077148,4231.025879,4228.846191,4230.897461,4219.102539,4209.102539,4169.102539,4217.692383,4241.794922,3249.000000,4.000000,82.000000,,,,0.000000,4.000000,4.000000,4.000000,4.000000,4.000000,4.000000,4.000000,4.000000,4.000000,4.000000,4.000000,4.000000,4.000000,4.000000,100.000000,,,,,,,,,,,,,,,,
1645711737.725871,26.000000,0.000000,4219.615234,4229.615234,4224.615234,4215.641113,4246.025879,4226.794922,4232.692383,4229.358887,4232.307617,4220.641113,4210.000000,4170.897461,4218.205078,4240.000000,2287.000000,4.000000,82.000000,,,,0.000000,4.000000,4.000000,4.000000,4.000000,4.000000,4.000000,4.000000,4.000000,4.000000,4.000000,4.000000,4.000000,4.000000,4.000000,100.000000,,,,,,,,,,,,,,,,
1645711737.729811,27.000000,0.000000,4210.769043,4230.000000,4220.128418,4222.307617,4248.205078,4228.974121,4232.051270,4230.512695,4233.589844,4223.974121,4210.897461,4170.384766,4216.794922,4233.333496,2663.000000,4.000000,82.000000,,,,0.000000,4.000000,4.000000,4.000000,4.000000,4.000000,4.000000,4.000000,4.000000,4.000000,4.000000,4.000000,4.000000,4.000000,4.000000,100.000000,,,,,,,,,,,,,,,,
1645711737.733751,28.000000,0.000000,4210.641113,4219.615234,4215.128418,4224.487305,4241.666504,4224.487305,4227.307617,4228.846191,4231.282227,4221.666504,4207.820313,4166.282227,4211.922852,4226.410156,2971.000000,4.000000,82.000000,,,,0.000000,4.000000,4.000000,4.000000,4.000000,4.000000,4.000000,4.000000,4.000000,4.000000,4.000000,4.000000,4.000000,4.000000,4.000000,100.000000,,,,,,,,,,,,,,,,
1645711737.737691,29.000000,0.000000,4216.538574,4203.974121,4212.307617,4220.897461,4230.897461,4216.538574,4221.538574,4225.000000,4226.666504,4215.384766,4203.205078,4161.410156,4207.563965,4224.487305,3249.000000,4.000000,82.000000,,,,0.000000,4.000000,4.000000,4.000000,4.000000,4.000000,4.000000,4.000000,4.000000,4.000000,4.000000,4.000000,4.000000,4.000000,4.000000,100.000000,,,,,,,,,,,,,,,,
1645711737.741631,30.000000,0.000000,4218.333496,4195.256348,4214.230957,4217.820313,4226.538574,4213.589844,4219.615234,4222.436035,4223.717773,4213.846191,4203.717773,4160.897461,4209.358887,4228.589844,2287.000000,4.000000,82.000000,,,,0.000000,4.000000,4.000000,4.000000,4.000000,4.000000,4.000000,4.000000,4.000000,4.000000,4.000000,4.000000,4.000000,4.000000,4.000000,100.000000,,,,,,,,,,,,,,,,
1645711737.745571,31.000000,0.000000,4213.846191,4199.615234,4219.743652,4219.615234,4232.948730,4218.717773,4222.436035,4222.820313,4224.487305,4220.641113,4211.410156,4165.512695,4217.820313,4234.615234,2663.000000,4.000000,82.000000,,,,0.000000,4.000000,4.000000,4.000000,4.000000,4.000000,4.000000,4.000000,4.000000,4.000000,4.000000,4.000000,4.000000,4.000000,4.000000,100.000000,,,,,,,,,,,,,,,,
1645711737.749512,32.000000,0.000000,4210.641113,4212.436035,4224.615234,4224.102539,4241.666504,4225.897461,4226.282227,4223.333496,4226.153809,4228.205078,4220.000000,4170.769043,4226.666504,4237.948730,0.000000,4.000000,82.000000,,,,0.000000,4.000000,4.000000,4.000000,4.000000,4.000000,4.000000,4.000000,4.000000,4.000000,4.000000,4.000000,4.000000,4.000000,4.000000,100.000000,,,,,,,,,,,,,,,,
1645711737.753452,33.000000,0.000000,4215.769043,4223.205078,4225.384766,4225.897461,4242.307617,4227.563965,4227.820313,4221.025879,4225.000000,4227.051270,4222.436035,4172.051270,4228.717773,4237.948730,0.000000,4.000000,82.000000,,,,0.000000,4.000000,4.000000,4.000000,4.000000,4.000000,4.000000,4.000000,4.000000,4.000000,4.000000,4.000000,4.000000,4.000000,4.000000,100.000000,,,,,,,,,,,,,,,,
1645711737.757392,34.000000,0.000000,4225.000000,4226.794922,4222.948730,4224.102539,4235.128418,4224.102539,4227.563965,4217.307617,4221.025879,4218.205078,4218.974121,4169.230957,4223.846191,4237.436035,0.000000,4.000000,82.000000,,,,0.000000,4.000000,4.000000,4.000000,4.000000,4.000000,4.000000,4.000000,4.000000,4.000000,4.000000,4.000000,4.000000,4.000000,4.000000,100.000000,,,,,,,,,,,,,,,,
1645711737.761332,35.000000,0.000000,4227.563965,4226.025879,4220.897461,4221.794922,4229.871582,4221.794922,4228.077148,4216.922852,4218.717773,4212.307617,4215.769043,4166.666504,4218.589844,4238.461426,0.000000,4.000000,82.000000,,,,0.000000,4.000000,4.000000,4.000000,4.000000,4.000000,4.000000,4.000000,4.000000,4.000000,4.000000,4.000000,4.000000,4.000000,4.000000,100.000000,,,,,,,,,,,,,,,,
1645711737.765272,36.000000,0.000000,4220.769043,4225.256348,4221.282227,4221.025879,4233.077148,4223.717773,4229.358887,4221.410156,4221.025879,4216.922852,4216.666504,4167.179688,4218.461426,4239.871582,0.000000,4.000000,82.000000,,,,0.000000,4.000000,4.000000,4.000000,4.000000,4.000000,4.000000,4.000000,4.000000,4.000000,4.000000,4.000000,4.000000,4.000000,4.000000,100.000000,,,,,,,,,,,,,,,,
1645711737.769212,37.000000,0.000000,4213.974121,4224.871582,4222.436035,4219.615234,4239.230957,4225.769043,4228.717773,4226.538574,4225.897461,4226.666504,4218.717773,4168.846191,4222.307617,4240.641113,0.000000,4.000000,82.000000,,,,0.000000,4.000000,4.000000,4.000000,4.000000,4.000000,4.000000,4.000000,4.000000,4.000000,4.000000,4.000000,4.000000,4.000000,4.000000,100.000000,,,,,,,,,,,,,,,,
1645711737.773152,38.000000,0.000000,4216.282227,4223.077148,4222.436035,4215.512695,4238.846191,4222.563965,4225.128418,4227.051270,4228.717773,4230.769043,4217.563965,4169.102539,4225.641113,4242.179688,0.000000,4.000000,82.000000,,,,0.000000,4.000000,4.000000,4.000000,4.000000,4.000000,4.000000,4.000000,4.000000,4.000000,4.000000,4.000000,4.000000,4.000000,4.000000,100.000000,,,,,,,,,,,,,,,,
1645711737.777092,39.000000,0.000000,4224.871582,4220.641113,4221.794922,4212.307617,4230.256348,4216.025879,4221.410156,4223.077148,4227.436035,4226.025879,4215.256348,4168.717773,4226.025879,4245.256348,0.000000,4.000000,82.000000,,,,0.000000,4.000000,4.000000,4.000000,4.000000,4.000000,4.000000,4.000000,4.000000,4.000000,4.000000,4.000000,4.000000,4.000000,4.000000,100.000000,,,,,,,,,,,,,,,,
1645711737.781032,40.000000,0.000000,4228.333496,4221.538574,4222.820313,4216.025879,4222.051270,4212.948730,4221.410156,4220.000000,4224.871582,4219.615234,4217.692383,4170.897461,4225.641113,4247.820313,0.000000,4.000000,82.000000,,,,0.000000,4.000000,4.000000,4.000000,4.000000,4.000000,4.000000,4.000000,4.000000,4.000000,4.000000,4.000000,4.000000,4.000000,4.000000,100.000000,,,,,,,,,,,,,,,,
1645711737.784972,41.000000,0.000000,4222.179688,4225.897461,4226.153809,4227.307617,4221.794922,4216.282227,4225.000000,4221.410156,4224.358887,4219.230957,4225.897461,4176.666504,4226.922852,4245.897461,0.000000,4.000000,82.000000,,,,0.000000,4.000000,4.000000,4.000000,4.000000,4.000000,4.000000,4.000000,4.000000,4.000000,4.000000,4.000000,4.000000,4.000000,4.000000,100.000000,,,,,,,,,,,,,,,,
1645711737.788913,42.000000,0.000000,4214.102539,4229.102539,4229.615234,4238.461426,4227.179688,4221.153809,4227.692383,4224.358887,4225.769043,4223.461426,4231.794922,4181.410156,4228.461426,4239.487305,0.000000,4.000000,82.000000,,,,0.000000,4.000000,4.000000,4.000000,4.000000,4.000000,4.000000,4.000000,4.000000,4.000000,4.000000,4.000000,4.000000,4.000000,4.000000,100.000000,,,,,,,,,,,,,,,,
1645711737.792953,43.000000,0.000000,4214.487305,4225.897461,4230.769043,4240.641113,4230.512695,4221.153809,4225.897461,4223.461426,4226.025879,4225.384766,4227.692383,4180.128418,4227.307617,4233.461426,0.000000,4.000000,82.000000,,,,0.000000,4.000000,4.000000,4.000000,4.000000,4.000000,4.000000,4.000000,4.000000,4.000000,4.000000,4.000000,4.000000,4.000000,4.000000,100.000000,,,,,,,,,,,,,,,,
1645711737.796893,44.000000,0.000000,4222.436035,4218.589844,4229.230957,4232.948730,4229.102539,4216.666504,4221.538574,4218.205078,4224.230957,4222.692383,4216.410156,4173.205078,4223.077148,4233.589844,0.000000,4.000000,82.000000,,,,0.000000,4.000000,4.000000,4.000000,4.000000,4.000000,4.000000,4.000000,4.000000,4.000000,4.000000,4.000000,4.000000,4.000000,4.000000,100.000000,,,,,,,,,,,,,,,,
1645711737.800833,45.000000,0.000000,4227.692383,4215.897461,4227.948730,4224.102539,4228.461426,4214.615234,4219.743652,4213.717773,4222.563965,4220.512695,4209.358887,4166.282227,4219.102539,4239.102539,0.000000,4.000000,82.000000,,,,0.000000,4.000000,4.000000,4.000000,4.000000,4.000000,4.000000,4.000000,4.000000,4.000000,4.000000,4.000000,4.000000,4.000000,4.000000,100.000000,,,,,,,,,,,,,,,,
1645711737.804773,46.000000,0.000000,4224.487305,4222.948730,4228.717773,4222.051270,4233.461426,4219.230957,4222.563965,4214.871582,4223.589844,4223.333496,4213.205078,4165.000000,4218.589844,4243.974121,0.000000,4.000000,82.000000,,,,0.000000,4.000000,4.000000,4.000000,4.000000,4.000000,4.000000,4.000000,4.000000,4.000000,4.000000,4.000000,4.000000,4.000000,4.000000,100.000000,,,,,,,,,,,,,,,,
1645711737.808713,47.000000,0.000000,4218.974121,4234.871582,4230.512695,4226.282227,4241.282227,4226.666504,4227.051270,4220.512695,4226.538574,4227.563965,4222.436035,4169.102539,4220.384766,4242.948730,0.000000,4.000000,82.000000,,,,0.000000,4.000000,4.000000,4.000000,4.000000,4.000000,4.000000,4.000000,4.000000,4.000000,4.000000,4.000000,4.000000,4.000000,4.000000,100.000000,,,,,,,,,,,,,,,,
1645711737.812653,48.000000,0.000000,4220.128418,4241.922852,4230.769043,4230.512695,4244.743652,4230.769043,4229.871582,4225.384766,4228.717773,4227.051270,4225.512695,4174.102539,4221.666504,4237.692383,0.000000,4.000000,82.000000,,,,0.000000,4.000000,4.000000,4.000000,4.000000,4.000000,4.000000,4.000000,4.000000,4.000000,4.000000,4.000000,4.000000,4.000000,4.000000,100.000000,1.000000,58.333332,1.000000,4.000000,4.000000,4.000000,3.000000,3.000000,3.000000,3.000000,3.000000,3.000000,3.000000,4.000000,3.000000,4.000000
1645711737.816593,49.000000,0.000000,4227.436035,4239.230957,4228.589844,4231.410156,4242.051270,4230.000000,4230.897461,4226.282227,4228.846191,4221.666504,4219.230957,4176.282227,4221.282227,4233.974121,0.000000,4.000000,82.000000,,,,0.000000,4.000000,4.000000,4.000000,4.000000,4.000000,4.000000,4.000000,4.000000,4.000000,4.000000,4.000000,4.000000,4.000000,4.000000,100.000000,,,,,,,,,,,,,,,,
1645711737.820533,50.000000,0.000000,4231.153809,4231.025879,4225.769043,4231.282227,4239.230957,4229.487305,4232.563965,4224.743652,4228.205078,4217.820313,4211.538574,4175.256348,4220.641113,4234.487305,0.000000,4.000000,82.000000,,,,0.000000,4.000000,4.000000,4.000000,4.000000,4.000000,4.000000,4.000000,4.000000,4.000000,4.000000,4.000000,4.000000,4.000000,4.000000,100.000000,,,,,,,,,,,,,,,,
1645711737.824473,51.000000,0.000000,4226.025879,4224.487305,4223.333496,4232.692383,4240.641113,4231.794922,4235.256348,4223.974121,4228.333496,4219.871582,4211.025879,4172.820313,4220.641113,4236.794922,0.000000,4.000000,82.000000,,,,0.000000,4.000000,4.000000,4.000000,4.000000,4.000000,4.000000,4.000000,4.000000,4.000000,4.000000,4.000000,4.000000,4.000000,4.000000,100.000000,,,,,,,,,,,,,,,,
1645711737.828414,52.000000,0.000000,4218.077148,4221.282227,4220.641113,4233.717773,4242.692383,4233.846191,4235.897461,4223.846191,4228.205078,4223.077148,4216.282227,4169.358887,4219.487305,4237.307617,0.000000,4.000000,82.000000,,,,0.000000,4.000000,4.000000,4.000000,4.000000,4.000000,4.000000,4.000000,4.000000,4.000000,4.000000,4.000000,4.000000,4.000000,4.000000,100.000000,,,,,,,,,,,,,,,,
1645711737.832354,53.000000,0.000000,4217.436035,4219.102539,4216.410156,4230.384766,4238.333496,4230.384766,4232.179688,4222.051270,4225.384766,4219.871582,4218.589844,4165.000000,4215.512695,4236.153809,0.000000,4.000000,82.000000,,,,0.000000,4.000000,4.000000,4.000000,4.000000,4.000000,4.000000,4.000000,4.000000,4.000000,4.000000,4.000000,4.000000,4.000000,4.000000,100.000000,,,,,,,,,,,,,,,,
1645711737.836294,54.000000,0.000000,4224.487305,4217.436035,4212.051270,4223.974121,4228.461426,4222.692383,4226.282227,4218.461426,4220.897461,4210.128418,4213.333496,4161.410156,4210.897461,4236.538574,0.000000,4.000000,82.000000,,,,0.000000,4.000000,4.000000,4.000000,4.000000,4.000000,4.000000,4.000000,4.000000,4.000000,4.000000,4.000000,4.000000,4.000000,4.000000,100.000000,,,,,,,,,,,,,,,,
1645711737.840234,55.000000,0.000000,4230.000000,4219.358887,4211.538574,4221.025879,4222.307617,4218.077148,4222.948730,4216.153809,4218.461426,4203.589844,4205.384766,4161.794922,4209.743652,4239.743652,0.000000,4.000000,82.000000,,,,0.000000,4.000000,4.000000,4.000000,4.000000,4.000000,4.000000,4.000000,4.000000,4.000000,4.000000,4.000000,4.000000,4.000000,4.000000,100.000000,,,,,,,,,,,,,,,,
1645711737.844174,56.000000,0.000000,4227.436035,4226.025879,4216.282227,4225.512695,4226.794922,4220.897461,4224.230957,4218.077148,4221.538574,4208.461426,4202.692383,4166.922852,4213.333496,4242.692383,0.000000,4.000000,82.000000,,,,0.000000,4.000000,4.000000,4.000000,4.000000,4.000000,4.000000,4.000000,4.000000,4.000000,4.000000,4.000000,4.000000,4.000000,4.000000,100.000000,,,,,,,,,,,,,,,,
1645711737.848114,57.000000,0.000000,4221.922852,4232.436035,4223.717773,4232.563965,4237.179688,4227.179688,4227.820313,4222.692383,4228.333496,4221.794922,4206.538574,4172.948730,4218.077148,4242.436035,0.000000,4.000000,82.000000,,,,0.000000,4.000000,4.000000,4.000000,4.000000,4.000000,4.000000,4.000000,4.000000,4.000000,4.000000,4.000000,4.000000,4.000000,4.000000,100.000000,,,,,,,,,,,,,,,,
1645711737.852054,58.000000,0.000000,4222.820313,4232.179688,4228.846191,4234.358887,4242.179688,4228.974121,4229.743652,4226.025879,4233.589844,4232.436035,4211.794922,4174.871582,4218.846191,4239.615234,0.000000,4.000000,82.000000,,,,0.000000,4.000000,4.000000,4.000000,4.000000,4.000000,4.000000,4.000000,4.000000,4.000000,4.000000,4.000000,4.000000,4.000000,4.000000,100.000000,,,,,,,,,,,,,,,,
1645711737.855994,59.000000,0.000000,4230.512695,4225.512695,4229.487305,4229.230957,4236.922852,4223.974121,4228.974121,4226.025879,4234.487305,4233.333496,4214.102539,4171.922852,4215.512695,4237.692383,0.000000,4.000000,82.000000,,,,0.000000,4.000000,4.000000,4.000000,4.000000,4.000000,4.000000,4.000000,4.000000,4.000000,4.000000,4.000000,4.000000,4.000000,4.000000,100.000000,,,,,,,,,,,,,,,,
1645711737.859934,60.000000,0.000000,4234.871582,4219.871582,4227.820313,4224.230957,4228.077148,4218.205078,4227.948730,4224.487305,4232.307617,4227.948730,4214.871582,4168.461426,4212.948730,4238.077148,0.000000,4.000000,82.000000,,,,0.000000,4.000000,4.000000,4.000000,4.000000,4.000000,4.000000,4.000000,4.000000,4.000000,4.000000,4.000000,4.000000,4.000000,4.000000,100.000000,,,,,,,,,,,,,,,,
1645711737.863874,61.000000,0.000000,4229.102539,4221.153809,4226.794922,4225.641113,4224.615234,4218.077148,4227.692383,4223.846191,4230.641113,4224.102539,4216.794922,4168.846191,4214.871582,4238.461426,0.000000,4.000000,82.000000,,,,0.000000,4.000000,4.000000,4.000000,4.000000,4.000000,4.000000,4.000000,4.000000,4.000000,4.000000,4.000000,4.000000,4.000000,4.000000,100.000000,,,,,,,,,,,,,,,,
1645711737.867715,62.000000,0.000000,4219.615234,4226.538574,4226.666504,4231.410156,4226.538574,4222.563965,4226.922852,4223.077148,4230.256348,4223.589844,4218.205078,4171.666504,4219.487305,4236.538574,0.000000,4.000000,82.000000,,,,0.000000,4.000000,4.000000,4.000000,4.000000,4.000000,4.000000,4.000000,4.000000,4.000000,4.000000,4.000000,4.000000,4.000000,4.000000,100.000000,,,,,,,,,,,,,,,,
1645711737.871655,63.000000,0.000000,4218.461426,4228.589844,4226.025879,4234.358887,4226.794922,4225.384766,4224.358887,4220.000000,4228.974121,4221.794922,4215.512695,4172.948730,4221.410156,4233.846191,0.000000,4.000000,82.000000,,,,0.000000,4.000000,4.000000,4.000000,4.000000,4.000000,4.000000,4.000000,4.000000,4.000000,4.000000,4.000000,4.000000,4.000000,4.000000,100.000000,,,,,,,,,,,,,,,,
1645711737.875595,64.000000,0.000000,4227.948730,4224.487305,4225.128418,4232.051270,4222.692383,4223.461426,4221.538574,4215.512695,4226.025879,4217.051270,4210.128418,4170.897461,4218.717773,4234.615234,0.000000,4.000000,82.000000,,,,0.000000,4.000000,4.000000,4.000000,4.000000,4.000000,4.000000,4.000000,4.000000,4.000000,4.000000,4.000000,4.000000,4.000000,4.000000,100.000000,,,,,,,,,,,,,,,,
1645711737.879535,65.000000,0.000000,4237.563965,4219.743652,4225.769043,4229.102539,4220.000000,4221.538574,4222.179688,4213.333496,4224.487305,4213.846191,4209.102539,4168.974121,4215.384766,4240.897461,0.000000,4.000000,82.000000,,,,0.000000,4.000000,4.000000,4.000000,4.000000,4.000000,4.000000,4.000000,4.000000,4.000000,4.000000,4.000000,4.000000,4.000000,4.000000,100.000000,,,,,,,,,,,,,,,,
1645711737.883475,66.000000,0.000000,4236.538574,4220.769043,4228.589844,4230.256348,4224.615234,4224.102539,4226.666504,4216.282227,4226.922852,4217.051270,4216.538574,4171.282227,4216.410156,4248.717773,0.000000,4.000000,82.000000,,,,0.000000,4.000000,4.000000,4.000000,4.000000,4.000000,4.000000,4.000000,4.000000,4.000000,4.000000,4.000000,4.000000,4.000000,4.000000,100.000000,,,,,,,,,,,,,,,,
1645711737.887415,67.000000,0.000000,4226.794922,4225.512695,4230.256348,4232.948730,4232.820313,4229.102539,4231.153809,4221.410156,4231.922852,4223.333496,4226.922852,4176.666504,4221.410156,4251.794922,0.000000,4.000000,82.000000,,,,0.000000,4.000000,4.000000,4.000000,4.000000,4.000000,4.000000,4.000000,4.000000,4.000000,4.000000,4.000000,4.000000,4.000000,4.000000,100.000000,,,,,,,,,,,,,,,,
1645711737.891355,68.000000,0.000000,4219.358887,4226.153809,4227.436035,4230.512695,4234.487305,4229.871582,4231.153809,4223.333496,4234.230957,4224.358887,4229.743652,4180.384766,4225.000000,4247.948730,0.000000,4.000000,82.000000,,,,0.000000,4.000000,4.000000,4.000000,4.000000,4.000000,4.000000,4.000000,4.000000,4.000000,4.000000,4.000000,4.000000,4.000000,4.000000,100.000000,,,,,,,,,,,,,,,,
1645711737.895295,69.000000,0.000000,4219.871582,4218.589844,4220.897461,4221.666504,4226.025879,4224.615234,4227.307617,4219.743652,4231.410156,4217.307617,4222.307617,4179.358887,4224.102539,4241.922852,0.000000,4.000000,82.000000,,,,0.000000,4.000000,4.000000,4.000000,4.000000,4.000000,4.000000,4.000000,4.000000,4.000000,4.000000,4.000000,4.000000,4.000000,4.000000,100.000000,,,,,,,,,,,,,,,,
1645711737.899236,70.000000,0.000000,4222.563965,4208.846191,4216.025879,4214.358887,4216.025879,4218.974121,4224.487305,4215.128418,4227.051270,4210.769043,4213.461426,4176.282227,4221.282227,4239.871582,0.000000,4.000000,82.000000,,,,0.000000,4.000000,4.000000,4.000000,4.000000,4.000000,4.000000,4.000000,4.000000,4.000000,4.000000,4.000000,4.000000,4.000000,4.000000,100.000000,,,,,,,,,,,,,,,,
1645711737.903176,71.000000,0.000000,4220.128418,4206.282227,4217.307617,4216.282227,4215.256348,4219.358887,4225.641113,4215.256348,4226.666504,4215.000000,4214.487305,4175.897461,4222.307617,4243.333496,0.000000,4.000000,82.000000,,,,0.000000,4.000000,4.000000,4.000000,4.000000,4.000000,4.000000,4.000000,4.000000,4.000000,4.000000,4.000000,4.000000,4.000000,4.000000,100.000000,,,,,,,,,,,,,,,,
1645711737.907116,72.000000,0.000000,4214.871582,4212.563965,4223.846191,4226.153809,4223.846191,4224.358887,4229.102539,4221.025879,4231.025879,4229.487305,4225.000000,4179.487305,4228.077148,4248.461426,0.000000,4.000000,82.000000,,,,0.000000,4.000000,4.000000,4.000000,4.000000,4.000000,4.000000,4.000000,4.000000,4.000000,4.000000,4.000000,4.000000,4.000000,4.000000,100.000000,,,,,,,,,,,,,,,,
1645711737.911056,73.000000,0.000000,4215.384766,4220.769043,4229.743652,4234.871582,4230.897461,4226.794922,4230.641113,4227.436035,4235.769043,4241.794922,4233.974121,4183.461426,4233.974121,4250.128418,0.000000,4.000000,82.000000,,,,0.000000,4.000000,4.000000,4.000000,4.000000,4.000000,4.000000,4.000000,4.000000,4.000000,4.000000,4.000000,4.000000,4.000000,4.000000,100.000000,,,,,,,,,,,,,,,,
1645711737.914996,74.000000,0.000000,4224.102539,4223.333496,4230.384766,4235.769043,4228.461426,4223.077148,4229.487305,4229.230957,4236.666504,4241.538574,4232.179688,4184.230957,4235.000000,4247.563965,0.000000,4.000000,82.000000,,,,0.000000,4.000000,4.000000,4.000000,4.000000,4.000000,4.000000,4.000000,4.000000,4.000000,4.000000,4.000000,4.000000,4.000000,4.000000,100.000000,,,,,,,,,,,,,,,,
1645711737.918936,75.000000,0.000000,4232.051270,4220.256348,4226.666504,4231.025879,4220.641113,4217.692383,4228.589844,4227.051270,4234.358887,4231.410156,4222.948730,4181.922852,4231.538574,4243.205078,0.000000,4.000000,82.000000,,,,0.000000,4.000000,4.000000,4.000000,4.000000,4.000000,4.000000,4.000000,4.000000,4.000000,4.000000,4.000000,4.000000,4.000000,4.000000,100.000000,,,,,,,,,,,,,,,,
1645711737.922876,76.000000,0.000000,4230.512695,4217.051270,4222.179688,4226.922852,4217.563965,4217.563965,4230.256348,4224.743652,4233.205078,4223.461426,4216.794922,4179.358887,4228.461426,4240.128418,0.000000,4.000000,82.000000,,,,0.000000,4.000000,4.000000,4.000000,4.000000,4.000000,4.000000,4.000000,4.000000,4.000000,4.000000,4.000000,4.000000,4.000000,4.000000,100.000000,,,,,,,,,,,,,,,,
1645711737.926816,77.000000,0.000000,4222.436035,4217.563965,4219.743652,4226.153809,4222.692383,4222.692383,4233.333496,4224.871582,4234.871582,4224.487305,4219.487305,4177.820313,4228.461426,4239.487305,0.000000,4.000000,82.000000,,,,0.000000,4.000000,4.000000,4.000000,4.000000,4.000000,4.000000,4.000000,4.000000,4.000000,4.000000,4.000000,4.000000,4.000000,4.000000,100.000000,,,,,,,,,,,,,,,,
1645711737.930756,78.000000,0.000000,4219.743652,4220.128418,4219.871582,4226.410156,4229.487305,4227.179688,4234.743652,4226.153809,4237.436035,4230.384766,4226.410156,4177.179688,4230.384766,4241.410156,0.000000,4.000000,82.000000,,,,0.000000,4.000000,4.000000,4.000000,4.000000,4.000000,4.000000,4.000000,4.000000,4.000000,4.000000,4.000000,4.000000,4.000000,4.000000,100.000000,,,,,,,,,,,,,,,,
1645711737.934696,79.000000,0.000000,4227.307617,4222.563965,4222.692383,4226.922852,4231.538574,4227.307617,4234.230957,4227.051270,4238.205078,4233.589844,4230.769043,4177.436035,4231.538574,4245.000000,0.000000,4.000000,82.000000,,,,0.000000,4.000000,4.000000,4.000000,4.000000,4.000000,4.000000,4.000000,4.000000,4.000000,4.000000,4.000000,4.000000,4.000000,4.000000,100.000000,,,,,,,,,,,,,,,,
1645711737.938637,80.000000,0.000000,4237.436035,4225.641113,4227.948730,4231.025879,4231.025879,4226.282227,4234.358887,4228.461426,4237.563965,4233.717773,4231.794922,4180.000000,4232.179688,4248.589844,0.000000,4.000000,82.000000,,,,0.000000,4.000000,4.000000,4.000000,4.000000,4.000000,4.000000,4.000000,4.000000,4.000000,4.000000,4.000000,4.000000,4.000000,4.000000,100.000000,,,,,,,,,,,,,,,,
1645711737.942477,81.000000,0.000000,4239.102539,4230.641113,4233.846191,4241.025879,4233.846191,4229.743652,4236.666504,4231.794922,4237.820313,4235.641113,4233.589844,4184.871582,4234.487305,4250.000000,0.000000,4.000000,82.000000,,,,0.000000,4.000000,4.000000,4.000000,4.000000,4.000000,4.000000,4.000000,4.000000,4.000000,4.000000,4.000000,4.000000,4.000000,4.000000,100.000000,,,,,,,,,,,,,,,,
1645711737.946417,82.000000,0.000000,4232.692383,4235.384766,4236.538574,4252.307617,4240.000000,4236.538574,4238.974121,4235.897461,4239.487305,4240.641113,4236.922852,4188.717773,4237.563965,4248.461426,0.000000,4.000000,82.000000,,,,0.000000,4.000000,4.000000,4.000000,4.000000,4.000000,4.000000,4.000000,4.000000,4.000000,4.000000,4.000000,4.000000,4.000000,4.000000,100.000000,,,,,,,,,,,,,,,,
1645711737.950357,83.000000,0.000000,4228.589844,4234.743652,4232.948730,4255.897461,4241.922852,4240.128418,4237.820313,4236.794922,4240.000000,4242.692383,4237.820313,4188.205078,4238.333496,4245.897461,0.000000,4.000000,82.000000,,,,0.000000,4.000000,4.000000,4.000000,4.000000,4.000000,4.000000,4.000000,4.000000,4.000000,4.000000,4.000000,4.000000,4.000000,4.000000,100.000000,,,,,,,,,,,,,,,,
1645711737.954297,84.000000,0.000000,4233.333496,4227.948730,4225.897461,4247.948730,4235.128418,4236.410156,4233.589844,4232.948730,4237.692383,4237.563965,4233.846191,4183.717773,4235.000000,4245.897461,0.000000,4.000000,82.000000,,,,0.000000,4.000000,4.000000,4.000000,4.000000,4.000000,4.000000,4.000000,4.000000,4.000000,4.000000,4.000000,4.000000,4.000000,4.000000,100.000000,,,,,,,,,,,,,,,,
1645711737.958237,85.000000,0.000000,4241.025879,4220.897461,4221.153809,4235.128418,4225.512695,4229.615234,4230.128418,4227.179688,4234.871582,4229.358887,4228.974121,4179.743652,4230.000000,4249.230957,0.000000,4.000000,82.000000,,,,0.000000,4.000000,4.000000,4.000000,4.000000,4.000000,4.000000,4.000000,4.000000,4.000000,4.000000,4.000000,4.000000,4.000000,4.000000,100.000000,,,,,,,,,,,,,,,,
1645711737.962177,86.000000,0.000000,4241.153809,4221.025879,4222.692383,4228.077148,4222.820313,4227.051270,4230.641113,4224.358887,4234.230957,4226.153809,4228.717773,4180.000000,4227.948730,4252.820313,0.000000,4.000000,82.000000,,,,0.000000,4.000000,4.000000,4.000000,4.000000,4.000000,4.000000,4.000000,4.000000,4.000000,4.000000,4.000000,4.000000,4.000000,4.000000,100.000000,,,,,,,,,,,,,,,,
1645711737.966117,87.000000,0.000000,4233.205078,4228.205078,4227.820313,4230.512695,4228.205078,4229.487305,4233.205078,4225.256348,4235.769043,4229.743652,4232.051270,4182.692383,4230.000000,4252.179688,0.000000,4.000000,82.000000,,,,0.000000,4.000000,4.000000,4.000000,4.000000,4.000000,4.000000,4.000000,4.000000,4.000000,4.000000,4.000000,4.000000,4.000000,4.000000,100.000000,,,,,,,,,,,,,,,,
1645711737.970058,88.000000,0.000000,4227.179688,4234.358887,4230.512695,4236.538574,4233.205078,4231.410156,4233.461426,4226.153809,4236.025879,4232.436035,4231.922852,4182.948730,4232.436035,4246.922852,0.000000,4.000000,82.000000,,,,0.000000,4.000000,4.000000,4.000000,4.000000,4.000000,4.000000,4.000000,4.000000,4.000000,4.000000,4.000000,4.000000,4.000000,4.000000,100.000000,,,,,,,,,,,,,,,,
1645711737.973998,89.000000,0.000000,4230.128418,4233.333496,4227.436035,4238.077148,4229.487305,4228.717773,4229.871582,4224.102539,4232.820313,4227.948730,4224.743652,4178.589844,4231.282227,4241.410156,0.000000,4.000000,82.000000,,,,0.000000,4.000000,4.000000,4.000000,4.000000,4.000000,4.000000,4.000000,4.000000,4.000000,4.000000,4.000000,4.000000,4.000000,4.000000,100.000000,,,,,,,,,,,,,,,,
1645711737.977938,90.000000,0.000000,4237.051270,4227.179688,4222.179688,4234.743652,4220.128418,4224.230957,4226.282227,4220.512695,4228.846191,4220.512695,4216.666504,4173.589844,4228.077148,4240.384766,0.000000,4.000000,82.000000,,,,0.000000,4.000000,4.000000,4.000000,4.000000,4.000000,4.000000,4.000000,4.000000,4.000000,4.000000,4.000000,4.000000,4.000000,4.000000,100.000000,,,,,,,,,,,,,,,,
1645711737.981878,91.000000,0.000000,4237.820313,4223.333496,4220.256348,4231.794922,4215.128418,4223.461426,4226.282227,4219.615234,4227.820313,4219.743652,4216.794922,4173.461426,4226.666504,4243.205078,0.000000,4.000000,82.000000,,,,0.000000,4.000000,4.000000,4.000000,4.000000,4.000000,4.000000,4.000000,4.000000,4.000000,4.000000,4.000000,4.000000,4.000000,4.000000,100.000000,,,,,,,,,,,,,,,,
1645711737.985818,92.000000,0.000000,4230.897461,4224.487305,4223.205078,4232.436035,4218.205078,4226.538574,4228.974121,4222.307617,4230.128418,4226.666504,4225.128418,4178.205078,4228.589844,4245.384766,0.000000,4.000000,82.000000,,,,0.000000,4.000000,4.000000,4.000000,4.000000,4.000000,4.000000,4.000000,4.000000,4.000000,4.000000,4.000000,4.000000,4.000000,4.000000,100.000000,,,,,,,,,,,,,,,,
1645711737.989758,93.000000,0.000000,4224.743652,4225.641113,4226.666504,4234.230957,4223.205078,4227.692383,4230.256348,4223.974121,4231.922852,4231.666504,4231.666504,4182.179688,4229.743652,4244.230957,0.000000,4.000000,82.000000,,,,0.000000,4.000000,4.000000,4.000000,4.000000,4.000000,4.000000,4.000000,4.000000,4.000000,4.000000,4.000000,4.000000,4.000000,4.000000,100.000000,,,,,,,,,,,,,,,,
1645711737.993698,94.000000,0.000000,4226.666504,4221.666504,4226.282227,4233.461426,4222.307617,4222.820313,4228.205078,4220.384766,4229.230957,4225.769043,4227.948730,4181.153809,4226.666504,4241.666504,0.000000,4.000000,82.000000,,,,0.000000,4.000000,4.000000,4.000000,4.000000,4.000000,4.000000,4.000000,4.000000,4.000000,4.000000,4.000000,4.000000,4.000000,4.000000,100.000000,,,,,,,,,,,,,,,,
1645711737.997638,95.000000,0.000000,4233.077148,4214.615234,4223.461426,4231.538574,4216.794922,4215.897461,4225.641113,4213.461426,4223.205078,4213.333496,4217.820313,4177.307617,4221.410156,4242.179688,0.000000,4.000000,82.000000,,,,0.000000,4.000000,4.000000,4.000000,4.000000,4.000000,4.000000,4.000000,4.000000,4.000000,4.000000,4.000000,4.000000,4.000000,4.000000,100.000000,,,,,,,,,,,,,,,,
