title:Alex-QZItFtirGAM6oShN_xcljw, start timestamp:1645708197.288057, stop timestamp:1645708222.991906, headset type:EPOCPLUS, headset serial:3B9AEBFF, headset firmware:626, channels:55, sampling rate:eeg_256, samples:6525      , version:2.1, 
Timestamp,EEG.Counter,EEG.Interpolated,EEG.AF3,EEG.F7,EEG.F3,EEG.FC5,EEG.T7,EEG.P7,EEG.O1,EEG.O2,EEG.P8,EEG.T8,EEG.FC6,EEG.F4,EEG.F8,EEG.AF4,EEG.RawCq,EEG.Battery,EEG.BatteryPercent,MarkerIndex,MarkerType,MarkerValueInt,EEG.MarkerHardware,CQ.AF3,CQ.F7,CQ.F3,CQ.FC5,CQ.T7,CQ.P7,CQ.O1,CQ.O2,CQ.P8,CQ.T8,CQ.FC6,CQ.F4,CQ.F8,CQ.AF4,CQ.Overall,EQ.SampleRateQuality,EQ.OVERALL,EQ.AF3,EQ.F7,EQ.F3,EQ.FC5,EQ.T7,EQ.P7,EQ.O1,EQ.O2,EQ.P8,EQ.T8,EQ.FC6,EQ.F4,EQ.F8,EQ.AF4
1645708197.288057,5.000000,0.000000,4203.717773,4204.102539,4203.846191,4214.743652,4205.384766,4212.436035,4209.230957,4216.922852,4209.358887,4210.000000,4195.512695,4182.563965,4217.948730,4216.410156,3401.000000,4.000000,91.000000,,,,0.000000,4.000000,4.000000,4.000000,4.000000,4.000000,4.000000,4.000000,4.000000,4.000000,4.000000,4.000000,4.000000,4.000000,4.000000,100.000000,,,,,,,,,,,,,,,,
1645708197.291897,6.000000,0.000000,4203.205078,4201.794922,4198.846191,4208.717773,4204.615234,4209.487305,4209.358887,4215.000000,4205.897461,4206.794922,4192.692383,4180.384766,4211.538574,4215.000000,3223.000000,4.000000,91.000000,,,,0.000000,4.000000,4.000000,4.000000,4.000000,4.000000,4.000000,4.000000,4.000000,4.000000,4.000000,4.000000,4.000000,4.000000,4.000000,100.000000,,,,,,,,,,,,,,,,
1645708197.295837,7.000000,0.000000,4202.820313,4203.205078,4197.820313,4203.846191,4204.358887,4209.871582,4211.282227,4214.487305,4204.743652,4204.743652,4192.179688,4180.256348,4203.077148,4216.025879,2756.000000,4.000000,91.000000,,,,0.000000,4.000000,4.000000,4.000000,4.000000,4.000000,4.000000,4.000000,4.000000,4.000000,4.000000,4.000000,4.000000,4.000000,4.000000,100.000000,,,,,,,,,,,,,,,,
1645708197.299777,8.000000,0.000000,4201.794922,4206.410156,4201.153809,4202.436035,4204.743652,4212.436035,4214.230957,4216.410156,4206.922852,4204.743652,4193.974121,4182.948730,4196.538574,4217.051270,1446.000000,4.000000,91.000000,,,,0.000000,4.000000,4.000000,4.000000,4.000000,4.000000,4.000000,4.000000,4.000000,4.000000,4.000000,4.000000,4.000000,4.000000,4.000000,100.000000,,,,,,,,,,,,,,,,
1645708197.303717,9.000000,0.000000,4200.384766,4208.717773,4205.897461,4205.512695,4205.512695,4213.974121,4216.794922,4219.615234,4211.153809,4206.025879,4196.794922,4186.538574,4194.615234,4216.282227,3305.000000,4.000000,91.000000,,,,0.000000,4.000000,4.000000,4.000000,4.000000,4.000000,4.000000,4.000000,4.000000,4.000000,4.000000,4.000000,4.000000,4.000000,4.000000,100.000000,,,,,,,,,,,,,,,,
1645708197.307658,10.000000,0.000000,4199.358887,4208.461426,4208.205078,4211.282227,4206.282227,4212.948730,4217.563965,4221.538574,4214.615234,4207.436035,4199.102539,4187.820313,4197.820313,4213.333496,2624.000000,4.000000,91.000000,,,,0.000000,4.000000,4.000000,4.000000,4.000000,4.000000,4.000000,4.000000,4.000000,4.000000,4.000000,4.000000,4.000000,4.000000,4.000000,100.000000,,,,,,,,,,,,,,,,
1645708197.311598,11.000000,0.000000,4198.461426,4206.538574,4206.282227,4216.282227,4206.666504,4210.000000,4215.641113,4221.153809,4215.384766,4208.589844,4199.871582,4185.256348,4203.589844,4209.871582,3435.000000,4.000000,91.000000,,,,0.000000,4.000000,4.000000,4.000000,4.000000,4.000000,4.000000,4.000000,4.000000,4.000000,4.000000,4.000000,4.000000,4.000000,4.000000,100.000000,,,,,,,,,,,,,,,,
1645708197.315538,12.000000,0.000000,4197.179688,4204.487305,4201.794922,4218.461426,4206.410156,4208.205078,4212.051270,4218.974121,4213.461426,4209.487305,4198.589844,4180.000000,4208.846191,4207.820313,3526.000000,4.000000,91.000000,,,,0.000000,4.000000,4.000000,4.000000,4.000000,4.000000,4.000000,4.000000,4.000000,4.000000,4.000000,4.000000,4.000000,4.000000,4.000000,100.000000,,,,,,,,,,,,,,,,
1645708197.319478,13.000000,0.000000,4195.897461,4203.717773,4198.461426,4217.820313,4205.769043,4208.974121,4208.717773,4216.666504,4210.897461,4210.256348,4196.538574,4175.128418,4211.153809,4208.589844,3300.000000,4.000000,91.000000,,,,0.000000,4.000000,4.000000,4.000000,4.000000,4.000000,4.000000,4.000000,4.000000,4.000000,4.000000,4.000000,4.000000,4.000000,4.000000,100.000000,,,,,,,,,,,,,,,,
1645708197.323418,14.000000,0.000000,4195.512695,4205.128418,4198.846191,4216.666504,4205.384766,4211.025879,4208.333496,4215.897461,4209.743652,4210.897461,4195.512695,4173.974121,4211.410156,4212.563965,2624.000000,4.000000,91.000000,,,,0.000000,4.000000,4.000000,4.000000,4.000000,4.000000,4.000000,4.000000,4.000000,4.000000,4.000000,4.000000,4.000000,4.000000,4.000000,100.000000,,,,,,,,,,,,,,,,
1645708197.327358,15.000000,0.000000,4197.436035,4207.692383,4202.692383,4216.794922,4205.512695,4212.307617,4211.025879,4216.794922,4210.769043,4211.538574,4197.051270,4177.436035,4212.051270,4218.077148,3435.000000,4.000000,91.000000,,,,0.000000,4.000000,4.000000,4.000000,4.000000,4.000000,4.000000,4.000000,4.000000,4.000000,4.000000,4.000000,4.000000,4.000000,4.000000,100.000000,,,,,,,,,,,,,,,,
1645708197.331298,16.000000,0.000000,4201.153809,4209.487305,4207.179688,4217.948730,4205.769043,4212.051270,4214.615234,4218.333496,4213.717773,4212.051270,4200.897461,4183.974121,4215.000000,4222.436035,3526.000000,4.000000,91.000000,,,,0.000000,4.000000,4.000000,4.000000,4.000000,4.000000,4.000000,4.000000,4.000000,4.000000,4.000000,4.000000,4.000000,4.000000,4.000000,100.000000,,,,,,,,,,,,,,,,
1645708197.335238,17.000000,0.000000,4203.846191,4208.974121,4208.717773,4218.077148,4205.512695,4211.153809,4216.153809,4219.102539,4216.922852,4212.307617,4205.000000,4189.358887,4218.974121,4222.948730,3300.000000,4.000000,91.000000,,,,0.000000,4.000000,4.000000,4.000000,4.000000,4.000000,4.000000,4.000000,4.000000,4.000000,4.000000,4.000000,4.000000,4.000000,4.000000,100.000000,,,,,,,,,,,,,,,,
1645708197.339178,18.000000,0.000000,4202.692383,4206.025879,4206.538574,4215.897461,4205.256348,4210.641113,4214.487305,4218.205078,4218.333496,4210.897461,4206.153809,4190.256348,4220.512695,4219.487305,2624.000000,4.000000,91.000000,,,,0.000000,4.000000,4.000000,4.000000,4.000000,4.000000,4.000000,4.000000,4.000000,4.000000,4.000000,4.000000,4.000000,4.000000,4.000000,100.000000,,,,,,,,,,,,,,,,
1645708197.343118,19.000000,0.000000,4197.948730,4202.307617,4202.179688,4212.307617,4205.897461,4210.897461,4210.769043,4215.769043,4217.179688,4207.820313,4202.692383,4186.410156,4217.179688,4214.743652,3435.000000,4.000000,91.000000,,,,0.000000,4.000000,4.000000,4.000000,4.000000,4.000000,4.000000,4.000000,4.000000,4.000000,4.000000,4.000000,4.000000,4.000000,4.000000,100.000000,,,,,,,,,,,,,,,,
1645708197.347059,20.000000,0.000000,4192.179688,4200.256348,4198.205078,4210.256348,4207.820313,4211.794922,4207.436035,4212.820313,4214.230957,4204.487305,4196.666504,4180.769043,4210.000000,4212.051270,3526.000000,4.000000,91.000000,,,,0.000000,4.000000,4.000000,4.000000,4.000000,4.000000,4.000000,4.000000,4.000000,4.000000,4.000000,4.000000,4.000000,4.000000,4.000000,100.000000,,,,,,,,,,,,,,,,
1645708197.350999,21.000000,0.000000,4188.846191,4200.897461,4196.025879,4211.922852,4210.512695,4212.563965,4206.666504,4210.641113,4211.410156,4202.563965,4191.794922,4177.307617,4203.717773,4212.307617,3300.000000,4.000000,91.000000,,,,0.000000,4.000000,4.000000,4.000000,4.000000,4.000000,4.000000,4.000000,4.000000,4.000000,4.000000,4.000000,4.000000,4.000000,4.000000,100.000000,,,,,,,,,,,,,,,,
1645708197.354939,22.000000,0.000000,4189.487305,4203.077148,4196.282227,4216.025879,4212.179688,4212.179688,4208.974121,4210.384766,4209.743652,4202.436035,4191.794922,4177.820313,4202.820313,4213.589844,2624.000000,4.000000,91.000000,,,,0.000000,4.000000,4.000000,4.000000,4.000000,4.000000,4.000000,4.000000,4.000000,4.000000,4.000000,4.000000,4.000000,4.000000,4.000000,100.000000,,,,,,,,,,,,,,,,
1645708197.358879,23.000000,0.000000,4193.205078,4204.358887,4198.589844,4219.358887,4211.666504,4211.025879,4213.333496,4211.922852,4209.743652,4203.333496,4196.794922,4181.153809,4208.077148,4214.487305,3435.000000,4.000000,91.000000,,,,0.000000,4.000000,4.000000,4.000000,4.000000,4.000000,4.000000,4.000000,4.000000,4.000000,4.000000,4.000000,4.000000,4.000000,4.000000,100.000000,,,,,,,,,,,,,,,,
1645708197.362719,24.000000,0.000000,4197.307617,4204.102539,4202.436035,4219.615234,4209.615234,4210.256348,4217.179688,4215.000000,4211.410156,4204.743652,4204.102539,4184.615234,4216.538574,4215.256348,3526.000000,4.000000,91.000000,,,,0.000000,4.000000,4.000000,4.000000,4.000000,4.000000,4.000000,4.000000,4.000000,4.000000,4.000000,4.000000,4.000000,4.000000,4.000000,100.000000,,,,,,,,,,,,,,,,
1645708197.366659,25.000000,0.000000,4200.128418,4203.974121,4206.025879,4217.563965,4208.077148,4211.153809,4218.461426,4218.205078,4213.974121,4207.051270,4210.000000,4186.666504,4223.589844,4216.538574,3300.000000,4.000000,91.000000,,,,0.000000,4.000000,4.000000,4.000000,4.000000,4.000000,4.000000,4.000000,4.000000,4.000000,4.000000,4.000000,4.000000,4.000000,4.000000,100.000000,,,,,,,,,,,,,,,,
1645708197.370599,26.000000,0.000000,4201.538574,4205.897461,4207.563965,4216.282227,4208.461426,4213.205078,4217.307617,4219.615234,4216.410156,4210.000000,4211.922852,4187.820313,4225.897461,4218.077148,2624.000000,4.000000,91.000000,,,,0.000000,4.000000,4.000000,4.000000,4.000000,4.000000,4.000000,4.000000,4.000000,4.000000,4.000000,4.000000,4.000000,4.000000,4.000000,100.000000,,,,,,,,,,,,,,,,
1645708197.374539,27.000000,0.000000,4202.563965,4209.487305,4206.410156,4216.922852,4210.128418,4214.743652,4214.871582,4218.077148,4217.436035,4212.563965,4210.384766,4189.102539,4223.589844,4218.461426,3435.000000,4.000000,91.000000,,,,0.000000,4.000000,4.000000,4.000000,4.000000,4.000000,4.000000,4.000000,4.000000,4.000000,4.000000,4.000000,4.000000,4.000000,4.000000,100.000000,,,,,,,,,,,,,,,,
1645708197.378480,28.000000,0.000000,4203.717773,4212.563965,4204.102539,4217.820313,4210.897461,4214.487305,4213.333496,4214.743652,4216.282227,4213.461426,4207.051270,4190.897461,4219.230957,4217.436035,3526.000000,4.000000,91.000000,,,,0.000000,4.000000,4.000000,4.000000,4.000000,4.000000,4.000000,4.000000,4.000000,4.000000,4.000000,4.000000,4.000000,4.000000,4.000000,100.000000,,,,,,,,,,,,,,,,
1645708197.382420,29.000000,0.000000,4204.487305,4212.436035,4203.077148,4217.051270,4210.256348,4213.205078,4213.717773,4213.333496,4214.358887,4212.563965,4203.717773,4193.077148,4215.769043,4216.410156,3300.000000,4.000000,91.000000,,,,0.000000,4.000000,4.000000,4.000000,4.000000,4.000000,4.000000,4.000000,4.000000,4.000000,4.000000,4.000000,4.000000,4.000000,4.000000,100.000000,,,,,,,,,,,,,,,,
1645708197.386360,30.000000,0.000000,4204.102539,4208.717773,4205.128418,4214.358887,4209.487305,4213.077148,4215.512695,4217.051270,4213.589844,4211.282227,4201.666504,4194.487305,4215.000000,4216.410156,2624.000000,4.000000,91.000000,,,,0.000000,4.000000,4.000000,4.000000,4.000000,4.000000,4.000000,4.000000,4.000000,4.000000,4.000000,4.000000,4.000000,4.000000,4.000000,100.000000,,,,,,,,,,,,,,,,
1645708197.390300,31.000000,0.000000,4202.563965,4203.846191,4209.102539,4212.307617,4210.128418,4215.000000,4217.051270,4224.487305,4214.743652,4212.051270,4201.666504,4194.230957,4216.538574,4217.436035,3435.000000,4.000000,91.000000,,,,0.000000,4.000000,4.000000,4.000000,4.000000,4.000000,4.000000,4.000000,4.000000,4.000000,4.000000,4.000000,4.000000,4.000000,4.000000,100.000000,,,,,,,,,,,,,,,,
1645708197.394240,32.000000,0.000000,4201.538574,4201.538574,4212.307617,4213.461426,4211.410156,4217.820313,4217.436035,4231.025879,4216.794922,4215.769043,4203.461426,4192.051270,4219.102539,4218.589844,0.000000,4.000000,91.000000,,,,0.000000,4.000000,4.000000,4.000000,4.000000,4.000000,4.000000,4.000000,4.000000,4.000000,4.000000,4.000000,4.000000,4.000000,4.000000,100.000000,,,,,,,,,,,,,,,,
1645708197.398180,33.000000,0.000000,4202.179688,4203.461426,4212.820313,4217.436035,4211.538574,4218.846191,4216.666504,4232.307617,4217.948730,4220.512695,4206.025879,4188.846191,4220.641113,4219.230957,0.000000,4.000000,91.000000,,,,0.000000,4.000000,4.000000,4.000000,4.000000,4.000000,4.000000,4.000000,4.000000,4.000000,4.000000,4.000000,4.000000,4.000000,4.000000,100.000000,,,,,,,,,,,,,,,,
1645708197.402120,34.000000,0.000000,4204.102539,4208.205078,4210.384766,4221.153809,4209.743652,4216.538574,4216.025879,4228.333496,4217.692383,4223.333496,4207.307617,4185.897461,4219.487305,4219.230957,0.000000,4.000000,91.000000,,,,0.000000,4.000000,4.000000,4.000000,4.000000,4.000000,4.000000,4.000000,4.000000,4.000000,4.000000,4.000000,4.000000,4.000000,4.000000,100.000000,,,,,,,,,,,,,,,,
1645708197.406060,35.000000,0.000000,4205.897461,4211.153809,4206.153809,4221.410156,4206.538574,4211.666504,4216.153809,4222.820313,4216.666504,4222.307617,4205.897461,4183.974121,4215.897461,4218.461426,0.000000,4.000000,91.000000,,,,0.000000,4.000000,4.000000,4.000000,4.000000,4.000000,4.000000,4.000000,4.000000,4.000000,4.000000,4.000000,4.000000,4.000000,4.000000,100.000000,,,,,,,,,,,,,,,,
1645708197.410000,36.000000,0.000000,4205.128418,4208.589844,4201.282227,4216.794922,4203.461426,4207.179688,4216.153809,4219.615234,4215.769043,4218.205078,4201.794922,4182.563965,4211.410156,4216.922852,0.000000,4.000000,91.000000,,,,0.000000,4.000000,4.000000,4.000000,4.000000,4.000000,4.000000,4.000000,4.000000,4.000000,4.000000,4.000000,4.000000,4.000000,4.000000,100.000000,,,,,,,,,,,,,,,,
1645708197.413940,37.000000,0.000000,4201.153809,4200.128418,4197.436035,4209.102539,4200.897461,4205.000000,4214.743652,4219.743652,4215.512695,4212.948730,4196.282227,4181.153809,4208.077148,4214.743652,0.000000,4.000000,91.000000,,,,0.000000,4.000000,4.000000,4.000000,4.000000,4.000000,4.000000,4.000000,4.000000,4.000000,4.000000,4.000000,4.000000,4.000000,4.000000,100.000000,,,,,,,,,,,,,,,,
1645708197.417881,38.000000,0.000000,4195.512695,4190.128418,4196.025879,4201.025879,4198.717773,4204.871582,4211.282227,4221.153809,4215.256348,4208.461426,4191.282227,4178.846191,4206.666504,4211.794922,0.000000,4.000000,91.000000,,,,0.000000,4.000000,4.000000,4.000000,4.000000,4.000000,4.000000,4.000000,4.000000,4.000000,4.000000,4.000000,4.000000,4.000000,4.000000,100.000000,,,,,,,,,,,,,,,,
1645708197.421821,39.000000,0.000000,4191.025879,4184.615234,4198.077148,4195.128418,4196.666504,4205.128418,4206.922852,4221.282227,4214.358887,4205.512695,4188.717773,4176.410156,4207.179688,4208.205078,0.000000,4.000000,91.000000,,,,0.000000,4.000000,4.000000,4.000000,4.000000,4.000000,4.000000,4.000000,4.000000,4.000000,4.000000,4.000000,4.000000,4.000000,4.000000,100.000000,,,,,,,,,,,,,,,,
1645708197.425761,40.000000,0.000000,4190.641113,4186.922852,4202.563965,4193.205078,4196.410156,4204.871582,4203.333496,4219.358887,4213.205078,4204.102539,4190.256348,4175.641113,4208.461426,4205.000000,0.000000,4.000000,91.000000,,,,0.000000,4.000000,4.000000,4.000000,4.000000,4.000000,4.000000,4.000000,4.000000,4.000000,4.000000,4.000000,4.000000,4.000000,4.000000,100.000000,,,,,,,,,,,,,,,,
1645708197.429701,41.000000,0.000000,4194.230957,4195.641113,4207.179688,4195.897461,4199.230957,4203.846191,4202.051270,4216.666504,4212.948730,4204.487305,4195.512695,4177.692383,4209.871582,4204.230957,0.000000,4.000000,91.000000,,,,0.000000,4.000000,4.000000,4.000000,4.000000,4.000000,4.000000,4.000000,4.000000,4.000000,4.000000,4.000000,4.000000,4.000000,4.000000,100.000000,,,,,,,,,,,,,,,,
1645708197.433641,42.000000,0.000000,4200.000000,4204.487305,4210.128418,4203.205078,4204.615234,4203.077148,4203.333496,4215.512695,4214.102539,4206.538574,4201.922852,4182.179688,4210.769043,4207.692383,0.000000,4.000000,91.000000,,,,0.000000,4.000000,4.000000,4.000000,4.000000,4.000000,4.000000,4.000000,4.000000,4.000000,4.000000,4.000000,4.000000,4.000000,4.000000,100.000000,,,,,,,,,,,,,,,,
1645708197.437481,43.000000,0.000000,4204.487305,4207.307617,4210.897461,4212.820313,4210.000000,4203.077148,4206.153809,4217.051270,4216.410156,4209.743652,4206.282227,4187.692383,4211.410156,4214.871582,0.000000,4.000000,91.000000,,,,0.000000,4.000000,4.000000,4.000000,4.000000,4.000000,4.000000,4.000000,4.000000,4.000000,4.000000,4.000000,4.000000,4.000000,4.000000,100.000000,,,,,,,,,,,,,,,,
1645708197.441421,44.000000,0.000000,4205.512695,4203.077148,4210.512695,4221.153809,4212.307617,4203.974121,4208.333496,4220.512695,4218.205078,4213.205078,4207.820313,4192.948730,4212.563965,4222.563965,0.000000,4.000000,91.000000,,,,0.000000,4.000000,4.000000,4.000000,4.000000,4.000000,4.000000,4.000000,4.000000,4.000000,4.000000,4.000000,4.000000,4.000000,4.000000,100.000000,,,,,,,,,,,,,,,,
1645708197.445361,45.000000,0.000000,4204.102539,4196.410156,4210.641113,4224.871582,4210.512695,4204.871582,4208.333496,4223.717773,4218.461426,4216.025879,4207.948730,4197.307617,4214.615234,4227.436035,0.000000,4.000000,91.000000,,,,0.000000,4.000000,4.000000,4.000000,4.000000,4.000000,4.000000,4.000000,4.000000,4.000000,4.000000,4.000000,4.000000,4.000000,4.000000,100.000000,,,,,,,,,,,,,,,,
1645708197.449302,46.000000,0.000000,4203.333496,4193.333496,4211.666504,4223.205078,4206.794922,4205.512695,4206.153809,4223.717773,4216.666504,4217.179688,4207.820313,4201.025879,4217.307617,4228.333496,0.000000,4.000000,91.000000,,,,0.000000,4.000000,4.000000,4.000000,4.000000,4.000000,4.000000,4.000000,4.000000,4.000000,4.000000,4.000000,4.000000,4.000000,4.000000,100.000000,,,,,,,,,,,,,,,,
1645708197.453242,47.000000,0.000000,4205.128418,4195.641113,4213.205078,4219.102539,4204.230957,4205.256348,4202.820313,4220.000000,4213.846191,4216.282227,4207.436035,4203.461426,4218.974121,4226.794922,0.000000,4.000000,91.000000,,,,0.000000,4.000000,4.000000,4.000000,4.000000,4.000000,4.000000,4.000000,4.000000,4.000000,4.000000,4.000000,4.000000,4.000000,4.000000,100.000000,,,,,,,,,,,,,,,,
1645708197.457182,48.000000,0.000000,4208.846191,4200.641113,4214.358887,4216.153809,4203.846191,4203.717773,4200.000000,4214.358887,4211.410156,4212.820313,4205.512695,4203.717773,4218.717773,4224.871582,0.000000,4.000000,91.000000,,,,0.000000,4.000000,4.000000,4.000000,4.000000,4.000000,4.000000,4.000000,4.000000,4.000000,4.000000,4.000000,4.000000,4.000000,4.000000,100.000000,,,,,,,,,,,,,,,,
1645708197.461122,49.000000,0.000000,4211.666504,4203.589844,4214.230957,4215.384766,4203.461426,4200.897461,4199.102539,4210.256348,4210.256348,4207.436035,4201.794922,4200.641113,4216.410156,4223.333496,0.000000,4.000000,91.000000,,,,0.000000,4.000000,4.000000,4.000000,4.000000,4.000000,4.000000,4.000000,4.000000,4.000000,4.000000,4.000000,4.000000,4.000000,4.000000,100.000000,,,,,,,,,,,,,,,,
1645708197.465062,50.000000,0.000000,4211.538574,4202.692383,4213.077148,4215.128418,4201.025879,4197.692383,4199.871582,4209.358887,4210.512695,4202.051270,4198.461426,4194.743652,4213.717773,4221.666504,0.000000,4.000000,91.000000,,,,0.000000,4.000000,4.000000,4.000000,4.000000,4.000000,4.000000,4.000000,4.000000,4.000000,4.000000,4.000000,4.000000,4.000000,4.000000,100.000000,,,,,,,,,,,,,,,,
1645708197.469002,51.000000,0.000000,4208.717773,4199.615234,4211.282227,4212.307617,4196.538574,4195.897461,4201.153809,4211.410156,4211.922852,4199.871582,4198.333496,4188.589844,4212.820313,4220.000000,0.000000,4.000000,91.000000,,,,0.000000,4.000000,4.000000,4.000000,4.000000,4.000000,4.000000,4.000000,4.000000,4.000000,4.000000,4.000000,4.000000,4.000000,4.000000,100.000000,,,,,,,,,,,,,,,,
1645708197.472942,52.000000,0.000000,4204.615234,4197.307617,4209.487305,4206.794922,4192.436035,4195.641113,4201.794922,4215.000000,4214.358887,4202.179688,4202.179688,4185.512695,4214.487305,4218.846191,0.000000,4.000000,91.000000,,,,0.000000,4.000000,4.000000,4.000000,4.000000,4.000000,4.000000,4.000000,4.000000,4.000000,4.000000,4.000000,4.000000,4.000000,4.000000,100.000000,,,,,,,,,,,,,,,,
1645708197.476882,53.000000,0.000000,4201.025879,4196.922852,4208.461426,4201.538574,4191.666504,4196.282227,4201.282227,4218.461426,4217.179688,4207.051270,4207.307617,4186.922852,4217.436035,4218.974121,0.000000,4.000000,91.000000,,,,0.000000,4.000000,4.000000,4.000000,4.000000,4.000000,4.000000,4.000000,4.000000,4.000000,4.000000,4.000000,4.000000,4.000000,4.000000,100.000000,,,,,,,,,,,,,,,,
1645708197.480822,54.000000,0.000000,4198.589844,4197.692383,4207.948730,4200.128418,4195.128418,4196.922852,4200.256348,4220.384766,4218.461426,4210.769043,4209.487305,4191.153809,4219.230957,4219.487305,0.000000,4.000000,91.000000,,,,0.000000,4.000000,4.000000,4.000000,4.000000,4.000000,4.000000,4.000000,4.000000,4.000000,4.000000,4.000000,4.000000,4.000000,4.000000,100.000000,,,,,,,,,,,,,,,,
1645708197.484762,55.000000,0.000000,4197.820313,4198.205078,4207.436035,4203.717773,4200.641113,4197.051270,4199.743652,4219.615234,4216.538574,4211.282227,4207.436035,4194.871582,4218.589844,4220.000000,0.000000,4.000000,91.000000,,,,0.000000,4.000000,4.000000,4.000000,4.000000,4.000000,4.000000,4.000000,4.000000,4.000000,4.000000,4.000000,4.000000,4.000000,4.000000,100.000000,,,,,,,,,,,,,,,,
1645708197.488703,56.000000,0.000000,4198.333496,4197.563965,4206.538574,4210.256348,4204.487305,4197.179688,4199.871582,4216.410156,4212.179688,4209.102539,4203.717773,4195.769043,4216.025879,4220.256348,0.000000,4.000000,91.000000,,,,0.000000,4.000000,4.000000,4.000000,4.000000,4.000000,4.000000,4.000000,4.000000,4.000000,4.000000,4.000000,4.000000,4.000000,4.000000,100.000000,,,,,,,,,,,,,,,,
1645708197.492643,57.000000,0.000000,4199.743652,4196.153809,4205.769043,4216.666504,4204.615234,4197.563965,4200.641113,4212.820313,4208.589844,4206.153809,4202.307617,4193.589844,4213.461426,4220.384766,0.000000,4.000000,91.000000,,,,0.000000,4.000000,4.000000,4.000000,4.000000,4.000000,4.000000,4.000000,4.000000,4.000000,4.000000,4.000000,4.000000,4.000000,4.000000,100.000000,,,,,,,,,,,,,,,,
1645708197.496683,58.000000,0.000000,4201.025879,4195.512695,4205.897461,4220.769043,4201.538574,4197.820313,4201.666504,4211.282227,4208.205078,4204.487305,4204.358887,4190.128418,4211.922852,4220.256348,0.000000,4.000000,91.000000,,,,0.000000,4.000000,4.000000,4.000000,4.000000,4.000000,4.000000,4.000000,4.000000,4.000000,4.000000,4.000000,4.000000,4.000000,4.000000,100.000000,,,,,,,,,,,,,,,,
1645708197.500623,59.000000,0.000000,4201.153809,4196.666504,4206.410156,4221.666504,4197.436035,4197.820313,4202.692383,4212.692383,4210.769043,4205.512695,4207.948730,4187.179688,4212.179688,4218.974121,0.000000,4.000000,91.000000,,,,0.000000,4.000000,4.000000,4.000000,4.000000,4.000000,4.000000,4.000000,4.000000,4.000000,4.000000,4.000000,4.000000,4.000000,4.000000,100.000000,,,,,,,,,,,,,,,,
1645708197.504563,60.000000,0.000000,4199.615234,4199.871582,4206.025879,4219.615234,4195.000000,4198.077148,4203.461426,4215.512695,4213.717773,4208.846191,4209.871582,4185.897461,4213.846191,4216.538574,0.000000,4.000000,91.000000,,,,0.000000,4.000000,4.000000,4.000000,4.000000,4.000000,4.000000,4.000000,4.000000,4.000000,4.000000,4.000000,4.000000,4.000000,4.000000,100.000000,,,,,,,,,,,,,,,,
1645708197.508503,61.000000,0.000000,4196.922852,4203.846191,4204.487305,4214.871582,4196.025879,4199.871582,4204.102539,4217.563965,4214.871582,4212.307617,4208.077148,4185.512695,4215.000000,4213.974121,0.000000,4.000000,91.000000,,,,0.000000,4.000000,4.000000,4.000000,4.000000,4.000000,4.000000,4.000000,4.000000,4.000000,4.000000,4.000000,4.000000,4.000000,4.000000,100.000000,,,,,,,,,,,,,,,,
1645708197.512443,62.000000,0.000000,4193.974121,4206.794922,4202.307617,4208.717773,4200.384766,4203.717773,4204.358887,4217.820313,4213.974121,4212.692383,4203.205078,4184.230957,4213.205078,4211.666504,0.000000,4.000000,91.000000,,,,0.000000,4.000000,4.000000,4.000000,4.000000,4.000000,4.000000,4.000000,4.000000,4.000000,4.000000,4.000000,4.000000,4.000000,4.000000,100.000000,,,,,,,,,,,,,,,,
1645708197.516383,63.000000,0.000000,4191.666504,4206.794922,4200.512695,4203.589844,4206.025879,4207.563965,4204.102539,4216.794922,4212.051270,4208.205078,4197.051270,4180.641113,4207.948730,4209.487305,0.000000,4.000000,91.000000,,,,0.000000,4.000000,4.000000,4.000000,4.000000,4.000000,4.000000,4.000000,4.000000,4.000000,4.000000,4.000000,4.000000,4.000000,4.000000,100.000000,,,,,,,,,,,,,,,,
1645708197.520323,64.000000,0.000000,4190.769043,4203.974121,4199.743652,4201.922852,4209.230957,4209.102539,4202.948730,4215.769043,4209.871582,4200.769043,4192.307617,4175.384766,4201.025879,4207.948730,0.000000,4.000000,91.000000,,,,0.000000,4.000000,4.000000,4.000000,4.000000,4.000000,4.000000,4.000000,4.000000,4.000000,4.000000,4.000000,4.000000,4.000000,4.000000,100.000000,,,,,,,,,,,,,,,,
1645708197.524263,65.000000,0.000000,4192.051270,4199.743652,4199.871582,4204.615234,4208.846191,4207.051270,4201.794922,4215.256348,4207.436035,4194.743652,4190.897461,4170.897461,4196.538574,4208.589844,0.000000,4.000000,91.000000,,,,0.000000,4.000000,4.000000,4.000000,4.000000,4.000000,4.000000,4.000000,4.000000,4.000000,4.000000,4.000000,4.000000,4.000000,4.000000,100.000000,,,,,,,,,,,,,,,,
1645708197.528204,66.000000,0.000000,4195.128418,4196.666504,4200.256348,4210.128418,4206.153809,4203.205078,4201.666504,4215.000000,4205.641113,4194.102539,4192.948730,4169.615234,4196.794922,4212.179688,0.000000,4.000000,91.000000,,,,0.000000,4.000000,4.000000,4.000000,4.000000,4.000000,4.000000,4.000000,4.000000,4.000000,4.000000,4.000000,4.000000,4.000000,4.000000,100.000000,,,,,,,,,,,,,,,,
1645708197.532144,67.000000,0.000000,4198.846191,4196.153809,4200.256348,4216.025879,4203.717773,4200.256348,4203.077148,4214.358887,4205.384766,4198.589844,4196.666504,4172.307617,4201.410156,4217.179688,0.000000,4.000000,91.000000,,,,0.000000,4.000000,4.000000,4.000000,4.000000,4.000000,4.000000,4.000000,4.000000,4.000000,4.000000,4.000000,4.000000,4.000000,4.000000,100.000000,,,,,,,,,,,,,,,,
1645708197.536084,68.000000,0.000000,4201.410156,4197.948730,4199.487305,4219.358887,4203.205078,4200.128418,4205.000000,4213.717773,4207.051270,4204.358887,4198.846191,4177.563965,4206.410156,4220.256348,0.000000,4.000000,91.000000,,,,0.000000,4.000000,4.000000,4.000000,4.000000,4.000000,4.000000,4.000000,4.000000,4.000000,4.000000,4.000000,4.000000,4.000000,4.000000,100.000000,,,,,,,,,,,,,,,,
1645708197.540024,69.000000,0.000000,4201.794922,4200.128418,4198.205078,4219.487305,4203.846191,4202.948730,4206.410156,4213.461426,4209.743652,4207.307617,4197.051270,4181.922852,4207.563965,4219.102539,0.000000,4.000000,91.000000,,,,0.000000,4.000000,4.000000,4.000000,4.000000,4.000000,4.000000,4.000000,4.000000,4.000000,4.000000,4.000000,4.000000,4.000000,4.000000,100.000000,,,,,,,,,,,,,,,,
1645708197.543964,70.000000,0.000000,4199.743652,4200.384766,4196.794922,4217.692383,4204.102539,4207.179688,4206.666504,4213.589844,4211.282227,4206.282227,4192.179688,4182.948730,4203.717773,4215.000000,0.000000,4.000000,91.000000,,,,0.000000,4.000000,4.000000,4.000000,4.000000,4.000000,4.000000,4.000000,4.000000,4.000000,4.000000,4.000000,4.000000,4.000000,4.000000,100.000000,,,,,,,,,,,,,,,,
1645708197.547904,71.000000,0.000000,4196.282227,4198.077148,4195.897461,4215.769043,4202.436035,4210.000000,4205.769043,4213.717773,4210.641113,4203.461426,4187.563965,4180.384766,4198.333496,4211.794922,0.000000,4.000000,91.000000,,,,0.000000,4.000000,4.000000,4.000000,4.000000,4.000000,4.000000,4.000000,4.000000,4.000000,4.000000,4.000000,4.000000,4.000000,4.000000,100.000000,,,,,,,,,,,,,,,,
1645708197.551844,72.000000,0.000000,4192.820313,4194.743652,4195.897461,4214.358887,4198.589844,4209.358887,4204.102539,4213.846191,4208.333496,4201.666504,4186.538574,4176.153809,4196.666504,4212.436035,0.000000,4.000000,91.000000,,,,0.000000,4.000000,4.000000,4.000000,4.000000,4.000000,4.000000,4.000000,4.000000,4.000000,4.000000,4.000000,4.000000,4.000000,4.000000,100.000000,,,,,,,,,,,,,,,,
1645708197.555784,73.000000,0.000000,4190.897461,4192.051270,4196.922852,4211.794922,4193.589844,4205.641113,4202.820313,4213.846191,4206.025879,4202.051270,4190.000000,4173.077148,4201.025879,4216.538574,0.000000,4.000000,91.000000,,,,0.000000,4.000000,4.000000,4.000000,4.000000,4.000000,4.000000,4.000000,4.000000,4.000000,4.000000,4.000000,4.000000,4.000000,4.000000,100.000000,,,,,,,,,,,,,,,,
1645708197.559724,74.000000,0.000000,4190.769043,4190.897461,4198.205078,4207.051270,4190.000000,4200.897461,4202.051270,4213.846191,4204.615234,4203.461426,4195.256348,4173.205078,4208.333496,4221.153809,0.000000,4.000000,91.000000,1,1,0,0.000000,4.000000,4.000000,4.000000,4.000000,4.000000,4.000000,4.000000,4.000000,4.000000,4.000000,4.000000,4.000000,4.000000,4.000000,100.000000,,,,,,,,,,,,,,,,
1645708197.563664,75.000000,0.000000,4192.179688,4191.794922,4198.077148,4202.051270,4190.128418,4197.436035,4201.922852,4214.230957,4204.487305,4204.102539,4199.230957,4176.025879,4213.333496,4222.820313,0.000000,4.000000,91.000000,,,,0.000000,4.000000,4.000000,4.000000,4.000000,4.000000,4.000000,4.000000,4.000000,4.000000,4.000000,4.000000,4.000000,4.000000,4.000000,100.000000,,,,,,,,,,,,,,,,
1645708197.567704,76.000000,0.000000,4194.871582,4194.230957,4195.769043,4200.000000,4194.615234,4196.410156,4201.794922,4215.256348,4205.641113,4203.717773,4200.256348,4179.615234,4213.461426,4221.410156,0.000000,4.000000,91.000000,,,,0.000000,4.000000,4.000000,4.000000,4.000000,4.000000,4.000000,4.000000,4.000000,4.000000,4.000000,4.000000,4.000000,4.000000,4.000000,100.000000,,,,,,,,,,,,,,,,
1645708197.571645,77.000000,0.000000,4198.461426,4197.563965,4192.307617,4202.692383,4201.538574,4197.820313,4201.153809,4217.051270,4207.948730,4203.205078,4199.487305,4181.538574,4210.384766,4219.230957,0.000000,4.000000,91.000000,,,,0.000000,4.000000,4.000000,4.000000,4.000000,4.000000,4.000000,4.000000,4.000000,4.000000,4.000000,4.000000,4.000000,4.000000,4.000000,100.000000,,,,,,,,,,,,,,,,
1645708197.575585,78.000000,0.000000,4201.153809,4200.384766,4189.615234,4207.692383,4206.666504,4200.897461,4200.512695,4218.717773,4210.128418,4204.102539,4198.589844,4180.512695,4207.948730,4218.589844,0.000000,4.000000,91.000000,,,,0.000000,4.000000,4.000000,4.000000,4.000000,4.000000,4.000000,4.000000,4.000000,4.000000,4.000000,4.000000,4.000000,4.000000,4.000000,100.000000,,,,,,,,,,,,,,,,
1645708197.579525,79.000000,0.000000,4200.897461,4200.641113,4188.461426,4210.384766,4206.410156,4203.974121,4200.769043,4218.974121,4211.282227,4206.153809,4198.717773,4177.051270,4208.077148,4218.717773,0.000000,4.000000,91.000000,,,,0.000000,4.000000,4.000000,4.000000,4.000000,4.000000,4.000000,4.000000,4.000000,4.000000,4.000000,4.000000,4.000000,4.000000,4.000000,100.000000,,,,,,,,,,,,,,,,
1645708197.583465,80.000000,0.000000,4197.051270,4197.179688,4188.461426,4208.589844,4201.282227,4205.769043,4202.948730,4217.692383,4211.153809,4207.948730,4199.230957,4173.077148,4209.743652,4217.563965,0.000000,4.000000,91.000000,,,,0.000000,4.000000,4.000000,4.000000,4.000000,4.000000,4.000000,4.000000,4.000000,4.000000,4.000000,4.000000,4.000000,4.000000,4.000000,100.000000,,,,,,,,,,,,,,,,
1645708197.587405,81.000000,0.000000,4191.282227,4191.153809,4188.205078,4204.230957,4195.512695,4206.153809,4205.897461,4215.641113,4210.512695,4207.563965,4198.846191,4170.641113,4210.384766,4214.358887,0.000000,4.000000,91.000000,,,,0.000000,4.000000,4.000000,4.000000,4.000000,4.000000,4.000000,4.000000,4.000000,4.000000,4.000000,4.000000,4.000000,4.000000,4.000000,100.000000,,,,,,,,,,,,,,,,
1645708197.591345,82.000000,0.000000,4186.794922,4186.025879,4186.666504,4200.897461,4193.589844,4205.641113,4207.948730,4214.230957,4209.743652,4205.256348,4197.179688,4170.512695,4208.974121,4209.743652,0.000000,4.000000,91.000000,,,,0.000000,4.000000,4.000000,4.000000,4.000000,4.000000,4.000000,4.000000,4.000000,4.000000,4.000000,4.000000,4.000000,4.000000,4.000000,100.000000,,,,,,,,,,,,,,,,
1645708197.595285,83.000000,0.000000,4185.256348,4184.743652,4184.743652,4200.128418,4196.025879,4205.000000,4207.948730,4214.230957,4208.717773,4202.436035,4194.871582,4171.922852,4206.410156,4205.769043,0.000000,4.000000,91.000000,,,,0.000000,4.000000,4.000000,4.000000,4.000000,4.000000,4.000000,4.000000,4.000000,4.000000,4.000000,4.000000,4.000000,4.000000,4.000000,100.000000,,,,,,,,,,,,,,,,
1645708197.599225,84.000000,0.000000,4186.794922,4187.179688,4184.230957,4200.256348,4200.128418,4205.256348,4206.410156,4215.512695,4207.307617,4200.512695,4193.205078,4173.461426,4205.000000,4204.102539,0.000000,4.000000,91.000000,,,,0.000000,4.000000,4.000000,4.000000,4.000000,4.000000,4.000000,4.000000,4.000000,4.000000,4.000000,4.000000,4.000000,4.000000,4.000000,100.000000,,,,,,,,,,,,,,,,
1645708197.603165,85.000000,0.000000,4189.102539,4191.282227,4186.794922,4199.358887,4202.948730,4206.666504,4204.871582,4217.051270,4206.025879,4200.128418,4192.820313,4173.974121,4205.128418,4204.615234,0.000000,4.000000,91.000000,,,,0.000000,4.000000,4.000000,4.000000,4.000000,4.000000,4.000000,4.000000,4.000000,4.000000,4.000000,4.000000,4.000000,4.000000,4.000000,100.000000,,,,,,,,,,,,,,,,
1645708197.607106,86.000000,0.000000,4189.615234,4194.743652,4190.769043,4198.205078,4203.461426,4208.717773,4203.589844,4217.692383,4205.641113,4200.256348,4193.717773,4173.205078,4205.512695,4205.769043,0.000000,4.000000,91.000000,,,,0.000000,4.000000,4.000000,4.000000,4.000000,4.000000,4.000000,4.000000,4.000000,4.000000,4.000000,4.000000,4.000000,4.000000,4.000000,100.000000,,,,,,,,,,,,,,,,
1645708197.611046,87.000000,0.000000,4187.307617,4196.410156,4193.077148,4199.615234,4202.051270,4209.743652,4202.307617,4216.794922,4205.897461,4200.000000,4194.487305,4171.538574,4204.615234,4205.897461,0.000000,4.000000,91.000000,,,,0.000000,4.000000,4.000000,4.000000,4.000000,4.000000,4.000000,4.000000,4.000000,4.000000,4.000000,4.000000,4.000000,4.000000,4.000000,100.000000,,,,,,,,,,,,,,,,
1645708197.614986,88.000000,0.000000,4183.077148,4195.769043,4192.051270,4205.128418,4200.000000,4208.077148,4200.897461,4214.487305,4205.769043,4198.717773,4194.230957,4170.000000,4202.948730,4204.230957,0.000000,4.000000,91.000000,,,,0.000000,4.000000,4.000000,4.000000,4.000000,4.000000,4.000000,4.000000,4.000000,4.000000,4.000000,4.000000,4.000000,4.000000,4.000000,100.000000,,,,,,,,,,,,,,,,
1645708197.618926,89.000000,0.000000,4178.717773,4193.333496,4189.102539,4212.563965,4198.205078,4203.717773,4200.000000,4211.922852,4205.000000,4197.051270,4192.820313,4170.000000,4202.179688,4201.410156,0.000000,4.000000,91.000000,,,,0.000000,4.000000,4.000000,4.000000,4.000000,4.000000,4.000000,4.000000,4.000000,4.000000,4.000000,4.000000,4.000000,4.000000,4.000000,100.000000,,,,,,,,,,,,,,,,
1645708197.622866,90.000000,0.000000,4176.922852,4190.256348,4187.179688,4217.820313,4197.820313,4198.717773,4200.256348,4211.025879,4204.871582,4195.897461,4191.153809,4171.666504,4203.589844,4198.974121,0.000000,4.000000,91.000000,,,,0.000000,4.000000,4.000000,4.000000,4.000000,4.000000,4.000000,4.000000,4.000000,4.000000,4.000000,4.000000,4.000000,4.000000,4.000000,100.000000,,,,,,,,,,,,,,,,
1645708197.626806,91.000000,0.000000,4179.487305,4188.974121,4187.948730,4217.948730,4199.102539,4196.025879,4201.410156,4212.179688,4206.794922,4196.282227,4190.769043,4173.846191,4206.922852,4198.205078,0.000000,4.000000,91.000000,,,,0.000000,4.000000,4.000000,4.000000,4.000000,4.000000,4.000000,4.000000,4.000000,4.000000,4.000000,4.000000,4.000000,4.000000,4.000000,100.000000,,,,,,,,,,,,,,,,
1645708197.630746,92.000000,0.000000,4185.641113,4190.769043,4190.512695,4213.717773,4201.282227,4197.692383,4202.179688,4214.487305,4210.897461,4199.102539,4192.307617,4175.256348,4210.384766,4199.871582,0.000000,4.000000,91.000000,,,,0.000000,4.000000,4.000000,4.000000,4.000000,4.000000,4.000000,4.000000,4.000000,4.000000,4.000000,4.000000,4.000000,4.000000,4.000000,100.000000,,,,,,,,,,,,,,,,
1645708197.634686,93.000000,0.000000,4191.666504,4193.846191,4193.333496,4208.077148,4202.692383,4202.948730,4201.922852,4216.410156,4214.871582,4203.717773,4195.256348,4175.000000,4211.922852,4203.589844,0.000000,4.000000,91.000000,,,,0.000000,4.000000,4.000000,4.000000,4.000000,4.000000,4.000000,4.000000,4.000000,4.000000,4.000000,4.000000,4.000000,4.000000,4.000000,100.000000,,,,,,,,,,,,,,,,
1645708197.638726,94.000000,0.000000,4193.846191,4195.384766,4194.615234,4204.230957,4202.563965,4207.948730,4201.025879,4217.563965,4216.794922,4207.820313,4197.179688,4173.589844,4210.897461,4207.948730,0.000000,4.000000,91.000000,,,,0.000000,4.000000,4.000000,4.000000,4.000000,4.000000,4.000000,4.000000,4.000000,4.000000,4.000000,4.000000,4.000000,4.000000,4.000000,100.000000,,,,,,,,,,,,,,,,
1645708197.642666,95.000000,0.000000,4191.538574,4194.102539,4194.487305,4202.820313,4201.794922,4209.743652,4201.538574,4218.461426,4216.282227,4209.615234,4196.538574,4172.563965,4208.974121,4211.538574,0.000000,4.000000,91.000000,,,,0.000000,4.000000,4.000000,4.000000,4.000000,4.000000,4.000000,4.000000,4.000000,4.000000,4.000000,4.000000,4.000000,4.000000,4.000000,100.000000,,,,,,,,,,,,,,,,
1645708197.646606,96.000000,0.000000,4188.077148,4191.538574,4194.230957,4202.179688,4201.538574,4208.077148,4204.743652,4220.128418,4215.000000,4209.358887,4194.102539,4172.820313,4209.102539,4213.077148,0.000000,4.000000,91.000000,2,1,0,0.000000,4.000000,4.000000,4.000000,4.000000,4.000000,4.000000,4.000000,4.000000,4.000000,4.000000,4.000000,4.000000,4.000000,4.000000,100.000000,,,,,,,,,,,,,,,,
1645708197.650547,97.000000,0.000000,4187.307617,4190.641113,4195.128418,4201.153809,4202.563965,4206.282227,4209.743652,4222.692383,4215.256348,4209.871582,4193.077148,4174.871582,4212.563965,4213.077148,0.000000,4.000000,91.000000,,,,0.000000,4.000000,4.000000,4.000000,4.000000,4.000000,4.000000,4.000000,4.000000,4.000000,4.000000,4.000000,4.000000,4.000000,4.000000,100.000000,,,,,,,,,,,,,,,,
1645708197.654487,98.000000,0.000000,4190.128418,4192.820313,4197.692383,4200.641113,4203.846191,4206.538574,4213.717773,4225.256348,4217.307617,4212.436035,4195.000000,4177.692383,4217.436035,4212.179688,0.000000,4.000000,91.000000,,,,0.000000,4.000000,4.000000,4.000000,4.000000,4.000000,4.000000,4.000000,4.000000,4.000000,4.000000,4.000000,4.000000,4.000000,4.000000,100.000000,,,,,,,,,,,,,,,,
1645708197.658427,99.000000,0.000000,4193.846191,4196.153809,4199.743652,4202.307617,4203.846191,4208.589844,4214.487305,4226.666504,4219.358887,4214.871582,4197.563965,4179.230957,4220.128418,4210.384766,0.000000,4.000000,91.000000,,,,0.000000,4.000000,4.000000,4.000000,4.000000,4.000000,4.000000,4.000000,4.000000,4.000000,4.000000,4.000000,4.000000,4.000000,4.000000,100.000000,,,,,,,,,,,,,,,,
1645708197.662367,100.000000,0.000000,4193.974121,4197.179688,4198.589844,4205.641113,4202.307617,4210.128418,4212.307617,4226.025879,4218.974121,4213.333496,4197.307617,4177.948730,4217.948730,4206.282227,0.000000,4.000000,91.000000,,,,0.000000,4.000000,4.000000,4.000000,4.000000,4.000000,4.000000,4.000000,4.000000,4.000000,4.000000,4.000000,4.000000,4.000000,4.000000,100.000000,,,,,,,,,,,,,,,,
1645708197.666307,101.000000,0.000000,4188.717773,4193.846191,4193.205078,4207.563965,4200.512695,4209.743652,4209.102539,4222.563965,4215.512695,4206.410156,4192.436035,4173.717773,4211.538574,4199.743652,0.000000,4.000000,91.000000,,,,0.000000,4.000000,4.000000,4.000000,4.000000,4.000000,4.000000,4.000000,4.000000,4.000000,4.000000,4.000000,4.000000,4.000000,4.000000,100.000000,,,,,,,,,,,,,,,,
1645708197.670247,102.000000,0.000000,4181.025879,4187.179688,4186.538574,4205.641113,4200.128418,4207.948730,4206.666504,4217.436035,4210.128418,4196.922852,4185.769043,4168.846191,4204.487305,4192.436035,0.000000,4.000000,91.000000,,,,0.000000,4.000000,4.000000,4.000000,4.000000,4.000000,4.000000,4.000000,4.000000,4.000000,4.000000,4.000000,4.000000,4.000000,4.000000,100.000000,,,,,,,,,,,,,,,,
1645708197.674187,103.000000,0.000000,4176.282227,4181.153809,4183.205078,4200.128418,4201.153809,4205.897461,4205.512695,4212.563965,4205.384766,4190.384766,4181.666504,4166.282227,4200.641113,4188.333496,0.000000,4.000000,91.000000,,,,0.000000,4.000000,4.000000,4.000000,4.000000,4.000000,4.000000,4.000000,4.000000,4.000000,4.000000,4.000000,4.000000,4.000000,4.000000,100.000000,,,,,,,,,,,,,,,,
1645708197.678127,104.000000,0.000000,4178.333496,4178.974121,4185.512695,4194.230957,4202.051270,4204.487305,4204.743652,4209.871582,4203.461426,4190.256348,4182.179688,4167.436035,4200.897461,4190.128418,0.000000,4.000000,91.000000,,,,0.000000,4.000000,4.000000,4.000000,4.000000,4.000000,4.000000,4.000000,4.000000,4.000000,4.000000,4.000000,4.000000,4.000000,4.000000,100.000000,,,,,,,,,,,,,,,,
1645708197.682067,105.000000,0.000000,4185.769043,4181.922852,4191.794922,4191.538574,4201.794922,4203.717773,4203.589844,4210.256348,4205.128418,4195.769043,4186.282227,4171.538574,4203.589844,4196.922852,0.000000,4.000000,91.000000,,,,0.000000,4.000000,4.000000,4.000000,4.000000,4.000000,4.000000,4.000000,4.000000,4.000000,4.000000,4.000000,4.000000,4.000000,4.000000,100.000000,,,,,,,,,,,,,,,,
1645708197.686008,106.000000,0.000000,4194.102539,4188.333496,4197.948730,4193.589844,4201.282227,4203.974121,4202.692383,4212.563965,4209.487305,4202.563965,4191.153809,4176.410156,4206.410156,4205.128418,0.000000,4.000000,91.000000,,,,0.000000,4.000000,4.000000,4.000000,4.000000,4.000000,4.000000,4.000000,4.000000,4.000000,4.000000,4.000000,4.000000,4.000000,4.000000,100.000000,,,,,,,,,,,,,,,,
1645708197.689948,107.000000,0.000000,4198.589844,4195.384766,4201.153809,4199.102539,4202.307617,4206.025879,4203.333496,4214.871582,4214.102539,4206.794922,4195.384766,4180.769043,4208.333496,4210.897461,0.000000,4.000000,91.000000,,,,0.000000,4.000000,4.000000,4.000000,4.000000,4.000000,4.000000,4.000000,4.000000,4.000000,4.000000,4.000000,4.000000,4.000000,4.000000,100.000000,,,,,,,,,,,,,,,,
1645708197.693888,108.000000,0.000000,4198.589844,4200.256348,4202.051270,4204.871582,4206.025879,4210.512695,4206.410156,4216.410156,4216.538574,4207.692383,4199.358887,4184.230957,4209.871582,4213.589844,0.000000,4.000000,91.000000,,,,0.000000,4.000000,4.000000,4.000000,4.000000,4.000000,4.000000,4.000000,4.000000,4.000000,4.000000,4.000000,4.000000,4.000000,4.000000,100.000000,,,,,,,,,,,,,,,,
1645708197.697828,109.000000,0.000000,4196.794922,4201.794922,4203.846191,4207.948730,4210.384766,4215.897461,4211.538574,4217.307617,4216.538574,4207.436035,4203.846191,4186.794922,4211.282227,4215.128418,0.000000,4.000000,91.000000,,,,0.000000,4.000000,4.000000,4.000000,4.000000,4.000000,4.000000,4.000000,4.000000,4.000000,4.000000,4.000000,4.000000,4.000000,4.000000,100.000000,,,,,,,,,,,,,,,,
1645708197.701768,110.000000,0.000000,4196.410156,4200.641113,4207.948730,4208.333496,4212.563965,4220.128418,4216.410156,4218.589844,4216.153809,4208.589844,4208.589844,4188.589844,4212.820313,4217.307617,0.000000,4.000000,91.000000,,,,0.000000,4.000000,4.000000,4.000000,4.000000,4.000000,4.000000,4.000000,4.000000,4.000000,4.000000,4.000000,4.000000,4.000000,4.000000,100.000000,,,,,,,,,,,,,,,,
1645708197.705808,111.000000,0.000000,4198.589844,4199.230957,4213.205078,4208.974121,4212.179688,4222.436035,4218.589844,4219.871582,4217.051270,4212.436035,4212.692383,4189.487305,4214.487305,4220.384766,0.000000,4.000000,91.000000,,,,0.000000,4.000000,4.000000,4.000000,4.000000,4.000000,4.000000,4.000000,4.000000,4.000000,4.000000,4.000000,4.000000,4.000000,4.000000,100.000000,,,,,,,,,,,,,,,,
1645708197.709748,112.000000,0.000000,4202.436035,4199.743652,4217.307617,4213.077148,4212.051270,4223.333496,4217.563965,4220.000000,4218.717773,4217.820313,4215.256348,4189.743652,4216.538574,4222.820313,0.000000,4.000000,91.000000,,,,0.000000,4.000000,4.000000,4.000000,4.000000,4.000000,4.000000,4.000000,4.000000,4.000000,4.000000,4.000000,4.000000,4.000000,4.000000,100.000000,,,,,,,,,,,,,,,,
1645708197.713688,113.000000,0.000000,4206.025879,4203.077148,4218.974121,4220.897461,4215.128418,4224.230957,4215.000000,4218.077148,4219.871582,4221.666504,4215.769043,4189.615234,4218.974121,4223.077148,0.000000,4.000000,91.000000,,,,0.000000,4.000000,4.000000,4.000000,4.000000,4.000000,4.000000,4.000000,4.000000,4.000000,4.000000,4.000000,4.000000,4.000000,4.000000,100.000000,,,,,,,,,,,,,,,,
1645708197.717628,114.000000,0.000000,4208.461426,4207.820313,4219.102539,4229.230957,4221.794922,4225.000000,4213.077148,4215.769043,4219.230957,4221.922852,4214.487305,4188.846191,4221.922852,4221.538574,0.000000,4.000000,91.000000,,,,0.000000,4.000000,4.000000,4.000000,4.000000,4.000000,4.000000,4.000000,4.000000,4.000000,4.000000,4.000000,4.000000,4.000000,4.000000,100.000000,,,,,,,,,,,,,,,,
1645708197.721568,115.000000,0.000000,4209.871582,4212.307617,4219.102539,4233.077148,4227.563965,4224.871582,4213.461426,4215.256348,4217.820313,4219.230957,4212.179688,4187.563965,4225.256348,4220.000000,0.000000,4.000000,91.000000,,,,0.000000,4.000000,4.000000,4.000000,4.000000,4.000000,4.000000,4.000000,4.000000,4.000000,4.000000,4.000000,4.000000,4.000000,4.000000,100.000000,,,,,,,,,,,,,,,,
1645708197.725509,116.000000,0.000000,4210.769043,4215.384766,4219.487305,4231.025879,4227.820313,4223.333496,4215.512695,4217.948730,4217.436035,4217.179688,4210.769043,4185.641113,4228.333496,4220.512695,0.000000,4.000000,91.000000,,,,0.000000,4.000000,4.000000,4.000000,4.000000,4.000000,4.000000,4.000000,4.000000,4.000000,4.000000,4.000000,4.000000,4.000000,4.000000,100.000000,,,,,,,,,,,,,,,,
1645708197.729449,117.000000,0.000000,4211.538574,4217.051270,4219.102539,4225.897461,4222.051270,4220.128418,4217.436035,4222.820313,4218.846191,4218.461426,4210.897461,4183.461426,4230.000000,4223.077148,0.000000,4.000000,91.000000,,,,0.000000,4.000000,4.000000,4.000000,4.000000,4.000000,4.000000,4.000000,4.000000,4.000000,4.000000,4.000000,4.000000,4.000000,4.000000,100.000000,,,,,,,,,,,,,,,,
1645708197.733389,118.000000,0.000000,4211.666504,4217.307617,4217.307617,4221.794922,4214.358887,4216.153809,4217.692383,4227.051270,4221.025879,4221.538574,4212.179688,4181.410156,4228.717773,4225.769043,0.000000,4.000000,91.000000,,,,0.000000,4.000000,4.000000,4.000000,4.000000,4.000000,4.000000,4.000000,4.000000,4.000000,4.000000,4.000000,4.000000,4.000000,4.000000,100.000000,1.000000,100.000000,4.000000,4.000000,4.000000,4.000000,4.000000,4.000000,4.000000,4.000000,4.000000,4.000000,4.000000,4.000000,4.000000,4.000000
1645708197.737329,119.000000,0.000000,4210.512695,4215.384766,4213.461426,4220.256348,4209.358887,4213.077148,4216.666504,4228.077148,4221.538574,4222.692383,4212.820313,4179.102539,4224.230957,4225.641113,0.000000,4.000000,91.000000,,,,0.000000,4.000000,4.000000,4.000000,4.000000,4.000000,4.000000,4.000000,4.000000,4.000000,4.000000,4.000000,4.000000,4.000000,4.000000,100.000000,,,,,,,,,,,,,,,,
1645708197.741269,120.000000,0.000000,4207.051270,4211.025879,4208.461426,4218.589844,4208.461426,4212.179688,4215.641113,4225.128418,4219.230957,4219.358887,4211.410156,4176.153809,4218.333496,4221.282227,0.000000,4.000000,91.000000,,,,0.000000,4.000000,4.000000,4.000000,4.000000,4.000000,4.000000,4.000000,4.000000,4.000000,4.000000,4.000000,4.000000,4.000000,4.000000,100.000000,,,,,,,,,,,,,,,,
1645708197.745209,121.000000,0.000000,4201.666504,4205.769043,4203.846191,4214.615234,4209.871582,4214.230957,4215.256348,4220.000000,4215.769043,4212.820313,4208.205078,4172.820313,4214.487305,4214.102539,0.000000,4.000000,91.000000,,,,0.000000,4.000000,4.000000,4.000000,4.000000,4.000000,4.000000,4.000000,4.000000,4.000000,4.000000,4.000000,4.000000,4.000000,4.000000,100.000000,,,,,,,,,,,,,,,,
1645708197.749149,122.000000,0.000000,4195.897461,4202.307617,4200.769043,4209.230957,4211.025879,4217.692383,4215.000000,4215.897461,4213.717773,4207.436035,4203.974121,4170.128418,4214.487305,4207.563965,0.000000,4.000000,91.000000,,,,0.000000,4.000000,4.000000,4.000000,4.000000,4.000000,4.000000,4.000000,4.000000,4.000000,4.000000,4.000000,4.000000,4.000000,4.000000,100.000000,,,,,,,,,,,,,,,,
1645708197.753089,123.000000,0.000000,4192.436035,4202.307617,4199.487305,4206.025879,4210.897461,4219.743652,4213.846191,4214.743652,4214.230957,4206.282227,4200.000000,4168.974121,4217.179688,4204.743652,0.000000,4.000000,91.000000,,,,0.000000,4.000000,4.000000,4.000000,4.000000,4.000000,4.000000,4.000000,4.000000,4.000000,4.000000,4.000000,4.000000,4.000000,4.000000,100.000000,,,,,,,,,,,,,,,,
1645708197.757029,124.000000,0.000000,4192.307617,4205.000000,4199.743652,4206.922852,4210.000000,4218.846191,4212.179688,4216.794922,4216.153809,4209.230957,4196.922852,4168.974121,4219.102539,4205.641113,0.000000,4.000000,91.000000,,,,0.000000,4.000000,4.000000,4.000000,4.000000,4.000000,4.000000,4.000000,4.000000,4.000000,4.000000,4.000000,4.000000,4.000000,4.000000,100.000000,,,,,,,,,,,,,,,,
1645708197.760969,125.000000,0.000000,4194.358887,4207.307617,4200.769043,4210.641113,4209.358887,4215.641113,4211.410156,4220.000000,4217.692383,4213.717773,4196.025879,4168.974121,4218.333496,4208.589844,0.000000,4.000000,91.000000,,,,0.000000,4.000000,4.000000,4.000000,4.000000,4.000000,4.000000,4.000000,4.000000,4.000000,4.000000,4.000000,4.000000,4.000000,4.000000,100.000000,,,,,,,,,,,,,,,,
1645708197.764910,126.000000,0.000000,4196.922852,4206.410156,4201.922852,4214.487305,4209.615234,4212.436035,4212.179688,4222.563965,4217.948730,4216.538574,4197.820313,4168.333496,4216.025879,4211.922852,0.000000,4.000000,91.000000,,,,0.000000,4.000000,4.000000,4.000000,4.000000,4.000000,4.000000,4.000000,4.000000,4.000000,4.000000,4.000000,4.000000,4.000000,4.000000,100.000000,,,,,,,,,,,,,,,,
1645708197.768850,127.000000,0.000000,4197.563965,4202.563965,4201.794922,4216.794922,4210.512695,4211.025879,4213.717773,4223.333496,4217.051270,4216.282227,4202.179688,4167.692383,4214.743652,4214.615234,0.000000,4.000000,91.000000,,,,0.000000,4.000000,4.000000,4.000000,4.000000,4.000000,4.000000,4.000000,4.000000,4.000000,4.000000,4.000000,4.000000,4.000000,4.000000,100.000000,,,,,,,,,,,,,,,,
1645708197.772790,128.000000,0.000000,4195.641113,4198.461426,4199.487305,4216.922852,4210.769043,4211.410156,4214.487305,4221.538574,4215.897461,4213.589844,4206.282227,4167.436035,4215.641113,4215.897461,3235.000000,4.000000,91.000000,,,,0.000000,4.000000,4.000000,4.000000,4.000000,4.000000,4.000000,4.000000,4.000000,4.000000,4.000000,4.000000,4.000000,4.000000,4.000000,100.000000,,,,,,,,,,,,,,,,
1645708197.776730,129.000000,0.000000,4191.666504,4197.179688,4195.641113,4214.615234,4209.615234,4212.051270,4213.205078,4218.333496,4215.512695,4209.871582,4207.307617,4167.307617,4217.436035,4215.000000,3421.000000,4.000000,91.000000,,,,0.000000,4.000000,4.000000,4.000000,4.000000,4.000000,4.000000,4.000000,4.000000,4.000000,4.000000,4.000000,4.000000,4.000000,4.000000,100.000000,,,,,,,,,,,,,,,,
1645708197.780570,130.000000,0.000000,4188.333496,4199.102539,4192.820313,4210.769043,4207.692383,4212.051270,4210.384766,4215.897461,4215.897461,4207.307617,4203.846191,4166.153809,4217.820313,4212.307617,3352.000000,4.000000,91.000000,,,,0.000000,4.000000,4.000000,4.000000,4.000000,4.000000,4.000000,4.000000,4.000000,4.000000,4.000000,4.000000,4.000000,4.000000,4.000000,100.000000,,,,,,,,,,,,,,,,
1645708197.784510,131.000000,0.000000,4188.077148,4202.563965,4193.589844,4206.410156,4207.307617,4211.153809,4207.051270,4215.897461,4216.153809,4207.563965,4198.589844,4163.846191,4215.769043,4209.871582,3472.000000,4.000000,91.000000,,,,0.000000,4.000000,4.000000,4.000000,4.000000,4.000000,4.000000,4.000000,4.000000,4.000000,4.000000,4.000000,4.000000,4.000000,4.000000,100.000000,,,,,,,,,,,,,,,,
1645708197.788450,132.000000,0.000000,4191.410156,4204.871582,4197.820313,4203.333496,4209.230957,4209.743652,4204.358887,4217.948730,4215.641113,4210.512695,4194.871582,4161.410156,4212.436035,4209.487305,3536.000000,4.000000,91.000000,,,,0.000000,4.000000,4.000000,4.000000,4.000000,4.000000,4.000000,4.000000,4.000000,4.000000,4.000000,4.000000,4.000000,4.000000,4.000000,100.000000,,,,,,,,,,,,,,,,
1645708197.792390,133.000000,0.000000,4195.512695,4203.846191,4202.051270,4202.948730,4210.897461,4207.820313,4202.436035,4220.128418,4213.846191,4213.846191,4194.230957,4160.384766,4209.487305,4210.000000,3457.000000,4.000000,91.000000,,,,0.000000,4.000000,4.000000,4.000000,4.000000,4.000000,4.000000,4.000000,4.000000,4.000000,4.000000,4.000000,4.000000,4.000000,4.000000,100.000000,,,,,,,,,,,,,,,,
1645708197.796331,134.000000,0.000000,4195.769043,4199.358887,4202.307617,4205.641113,4209.358887,4205.000000,4200.512695,4220.128418,4210.769043,4213.846191,4195.128418,4161.410156,4207.051270,4208.461426,3128.000000,4.000000,91.000000,,,,0.000000,4.000000,4.000000,4.000000,4.000000,4.000000,4.000000,4.000000,4.000000,4.000000,4.000000,4.000000,4.000000,4.000000,4.000000,100.000000,,,,,,,,,,,,,,,,
1645708197.800271,135.000000,0.000000,4190.256348,4193.205078,4197.179688,4210.128418,4203.974121,4201.794922,4198.846191,4217.307617,4206.410156,4208.717773,4194.615234,4163.333496,4203.974121,4203.077148,2625.000000,4.000000,91.000000,,,,0.000000,4.000000,4.000000,4.000000,4.000000,4.000000,4.000000,4.000000,4.000000,4.000000,4.000000,4.000000,4.000000,4.000000,4.000000,100.000000,,,,,,,,,,,,,,,,
1645708197.804211,136.000000,0.000000,4182.051270,4188.717773,4189.871582,4213.589844,4198.461426,4199.358887,4198.589844,4212.820313,4201.666504,4200.256348,4191.666504,4164.743652,4200.256348,4195.897461,1314.000000,4.000000,91.000000,,,,0.000000,4.000000,4.000000,4.000000,4.000000,4.000000,4.000000,4.000000,4.000000,4.000000,4.000000,4.000000,4.000000,4.000000,4.000000,100.000000,,,,,,,,,,,,,,,,
1645708197.808151,137.000000,0.000000,4177.307617,4188.077148,4186.025879,4213.589844,4197.051270,4199.102539,4200.897461,4209.230957,4198.717773,4193.333496,4188.333496,4165.256348,4197.692383,4192.051270,3301.000000,4.000000,91.000000,,,,0.000000,4.000000,4.000000,4.000000,4.000000,4.000000,4.000000,4.000000,4.000000,4.000000,4.000000,4.000000,4.000000,4.000000,4.000000,100.000000,,,,,,,,,,,,,,,,
1645708197.812091,138.000000,0.000000,4180.512695,4191.410156,4189.358887,4209.102539,4201.410156,4201.538574,4204.743652,4208.974121,4199.487305,4192.307617,4187.307617,4166.153809,4198.717773,4195.512695,2627.000000,4.000000,91.000000,,,,0.000000,4.000000,4.000000,4.000000,4.000000,4.000000,4.000000,4.000000,4.000000,4.000000,4.000000,4.000000,4.000000,4.000000,4.000000,100.000000,,,,,,,,,,,,,,,,
1645708197.816031,139.000000,0.000000,4190.000000,4196.666504,4199.358887,4202.692383,4208.717773,4205.641113,4207.948730,4212.692383,4204.358887,4198.461426,4190.000000,4169.487305,4203.717773,4205.128418,3520.000000,4.000000,91.000000,,,,0.000000,4.000000,4.000000,4.000000,4.000000,4.000000,4.000000,4.000000,4.000000,4.000000,4.000000,4.000000,4.000000,4.000000,4.000000,100.000000,,,,,,,,,,,,,,,,
1645708197.819971,140.000000,0.000000,4199.487305,4201.538574,4211.153809,4199.487305,4214.743652,4208.846191,4209.358887,4218.974121,4210.641113,4207.820313,4195.384766,4175.256348,4210.512695,4215.641113,3281.000000,4.000000,91.000000,,,,0.000000,4.000000,4.000000,4.000000,4.000000,4.000000,4.000000,4.000000,4.000000,4.000000,4.000000,4.000000,4.000000,4.000000,4.000000,100.000000,,,,,,,,,,,,,,,,
1645708197.823911,141.000000,0.000000,4202.820313,4204.230957,4218.974121,4203.205078,4216.410156,4209.615234,4208.974121,4224.487305,4215.128418,4214.871582,4200.897461,4181.538574,4215.128418,4220.897461,3296.000000,4.000000,91.000000,,,,0.000000,4.000000,4.000000,4.000000,4.000000,4.000000,4.000000,4.000000,4.000000,4.000000,4.000000,4.000000,4.000000,4.000000,4.000000,100.000000,,,,,,,,,,,,,,,,
1645708197.827851,142.000000,0.000000,4198.333496,4204.358887,4219.487305,4212.563965,4213.974121,4208.589844,4207.692383,4225.897461,4215.000000,4215.256348,4203.461426,4185.128418,4214.871582,4219.230957,2627.000000,4.000000,91.000000,,,,0.000000,4.000000,4.000000,4.000000,4.000000,4.000000,4.000000,4.000000,4.000000,4.000000,4.000000,4.000000,4.000000,4.000000,4.000000,100.000000,,,,,,,,,,,,,,,,
1645708197.831791,143.000000,0.000000,4189.230957,4202.179688,4213.974121,4219.871582,4209.871582,4207.820313,4206.794922,4221.794922,4210.512695,4209.102539,4201.025879,4183.717773,4209.871582,4213.205078,3520.000000,4.000000,91.000000,,,,0.000000,4.000000,4.000000,4.000000,4.000000,4.000000,4.000000,4.000000,4.000000,4.000000,4.000000,4.000000,4.000000,4.000000,4.000000,100.000000,,,,,,,,,,,,,,,,
1645708197.835732,144.000000,0.000000,4180.384766,4198.589844,4206.538574,4218.077148,4206.282227,4208.589844,4207.051270,4214.487305,4203.974121,4198.846191,4194.230957,4178.077148,4203.205078,4206.922852,3281.000000,4.000000,91.000000,,,,0.000000,4.000000,4.000000,4.000000,4.000000,4.000000,4.000000,4.000000,4.000000,4.000000,4.000000,4.000000,4.000000,4.000000,4.000000,100.000000,,,,,,,,,,,,,,,,
1645708197.839672,145.000000,0.000000,4175.128418,4194.358887,4201.282227,4206.153809,4203.717773,4209.358887,4207.563965,4208.077148,4198.717773,4188.461426,4185.641113,4171.282227,4198.077148,4202.307617,3296.000000,4.000000,91.000000,,,,0.000000,4.000000,4.000000,4.000000,4.000000,4.000000,4.000000,4.000000,4.000000,4.000000,4.000000,4.000000,4.000000,4.000000,4.000000,100.000000,,,,,,,,,,,,,,,,
1645708197.843612,146.000000,0.000000,4174.230957,4190.769043,4200.128418,4191.794922,4201.538574,4208.846191,4207.051270,4206.025879,4196.538574,4181.666504,4179.230957,4166.666504,4196.410156,4198.974121,2627.000000,4.000000,91.000000,,,,0.000000,4.000000,4.000000,4.000000,4.000000,4.000000,4.000000,4.000000,4.000000,4.000000,4.000000,4.000000,4.000000,4.000000,4.000000,100.000000,,,,,,,,,,,,,,,,
1645708197.847452,147.000000,0.000000,4176.410156,4189.358887,4201.410156,4184.743652,4199.358887,4206.538574,4204.615234,4208.846191,4197.820313,4180.641113,4177.692383,4165.641113,4197.820313,4195.897461,3520.000000,4.000000,91.000000,,,,0.000000,4.000000,4.000000,4.000000,4.000000,4.000000,4.000000,4.000000,4.000000,4.000000,4.000000,4.000000,4.000000,4.000000,4.000000,100.000000,,,,,,,,,,,,,,,,
1645708197.851392,148.000000,0.000000,4179.358887,4190.897461,4202.948730,4189.230957,4197.436035,4204.102539,4201.410156,4213.974121,4200.897461,4185.641113,4181.410156,4167.436035,4200.769043,4192.563965,3281.000000,4.000000,91.000000,,,,0.000000,4.000000,4.000000,4.000000,4.000000,4.000000,4.000000,4.000000,4.000000,4.000000,4.000000,4.000000,4.000000,4.000000,4.000000,100.000000,,,,,,,,,,,,,,,,
1645708197.855332,149.000000,0.000000,4180.769043,4193.461426,4203.077148,4200.512695,4197.307617,4203.205078,4199.102539,4217.820313,4203.461426,4193.846191,4187.307617,4170.384766,4203.589844,4189.743652,3296.000000,4.000000,91.000000,,,,0.000000,4.000000,4.000000,4.000000,4.000000,4.000000,4.000000,4.000000,4.000000,4.000000,4.000000,4.000000,4.000000,4.000000,4.000000,100.000000,,,,,,,,,,,,,,,,
1645708197.859272,150.000000,0.000000,4180.128418,4194.615234,4202.563965,4208.974121,4199.615234,4204.230957,4199.102539,4218.846191,4204.358887,4201.282227,4191.666504,4173.589844,4204.743652,4188.717773,2627.000000,4.000000,91.000000,,,,0.000000,4.000000,4.000000,4.000000,4.000000,4.000000,4.000000,4.000000,4.000000,4.000000,4.000000,4.000000,4.000000,4.000000,4.000000,100.000000,,,,,,,,,,,,,,,,
1645708197.863212,151.000000,0.000000,4178.974121,4193.461426,4202.692383,4208.205078,4203.846191,4206.025879,4201.538574,4217.820313,4203.589844,4205.384766,4192.307617,4176.410156,4204.358887,4190.128418,3520.000000,4.000000,91.000000,,,,0.000000,4.000000,4.000000,4.000000,4.000000,4.000000,4.000000,4.000000,4.000000,4.000000,4.000000,4.000000,4.000000,4.000000,4.000000,100.000000,,,,,,,,,,,,,,,,
1645708197.867153,152.000000,0.000000,4178.974121,4191.794922,4203.974121,4200.128418,4207.692383,4207.307617,4204.487305,4216.282227,4202.820313,4206.153809,4190.641113,4178.974121,4203.846191,4193.717773,3281.000000,4.000000,91.000000,,,,0.000000,4.000000,4.000000,4.000000,4.000000,4.000000,4.000000,4.000000,4.000000,4.000000,4.000000,4.000000,4.000000,4.000000,4.000000,100.000000,,,,,,,,,,,,,,,,
1645708197.871093,153.000000,0.000000,4180.512695,4191.922852,4205.256348,4191.666504,4209.487305,4207.436035,4205.641113,4215.769043,4203.333496,4205.384766,4189.230957,4180.512695,4204.230957,4197.820313,3296.000000,4.000000,91.000000,,,,0.000000,4.000000,4.000000,4.000000,4.000000,4.000000,4.000000,4.000000,4.000000,4.000000,4.000000,4.000000,4.000000,4.000000,4.000000,100.000000,,,,,,,,,,,,,,,,
1645708197.875033,154.000000,0.000000,4182.051270,4194.102539,4205.769043,4188.717773,4208.589844,4206.666504,4204.358887,4216.666504,4205.000000,4204.230957,4189.487305,4180.384766,4205.512695,4199.743652,2627.000000,4.000000,91.000000,,,,0.000000,4.000000,4.000000,4.000000,4.000000,4.000000,4.000000,4.000000,4.000000,4.000000,4.000000,4.000000,4.000000,4.000000,4.000000,100.000000,,,,,,,,,,,,,,,,
1645708197.878973,155.000000,0.000000,4181.153809,4196.025879,4205.384766,4191.410156,4205.256348,4205.000000,4201.410156,4217.307617,4206.282227,4202.307617,4190.128418,4178.077148,4205.384766,4197.179688,3520.000000,4.000000,91.000000,,,,0.000000,4.000000,4.000000,4.000000,4.000000,4.000000,4.000000,4.000000,4.000000,4.000000,4.000000,4.000000,4.000000,4.000000,4.000000,100.000000,,,,,,,,,,,,,,,,
1645708197.882913,156.000000,0.000000,4177.436035,4195.897461,4203.974121,4195.769043,4200.641113,4203.077148,4199.358887,4216.666504,4205.897461,4199.102539,4189.615234,4173.974121,4202.179688,4190.128418,3281.000000,4.000000,91.000000,,,,0.000000,4.000000,4.000000,4.000000,4.000000,4.000000,4.000000,4.000000,4.000000,4.000000,4.000000,4.000000,4.000000,4.000000,4.000000,100.000000,,,,,,,,,,,,,,,,
1645708197.886853,157.000000,0.000000,4172.820313,4193.846191,4201.666504,4197.692383,4196.794922,4202.692383,4199.102539,4214.615234,4203.717773,4195.384766,4187.820313,4169.871582,4196.666504,4181.666504,3296.000000,4.000000,91.000000,,,,0.000000,4.000000,4.000000,4.000000,4.000000,4.000000,4.000000,4.000000,4.000000,4.000000,4.000000,4.000000,4.000000,4.000000,4.000000,100.000000,,,,,,,,,,,,,,,,
1645708197.890793,158.000000,0.000000,4169.487305,4191.794922,4198.846191,4197.051270,4195.897461,4204.358887,4200.128418,4212.307617,4201.666504,4193.077148,4186.794922,4167.436035,4192.179688,4176.538574,2627.000000,4.000000,91.000000,,,,0.000000,4.000000,4.000000,4.000000,4.000000,4.000000,4.000000,4.000000,4.000000,4.000000,4.000000,4.000000,4.000000,4.000000,4.000000,100.000000,,,,,,,,,,,,,,,,
1645708197.894733,159.000000,0.000000,4168.461426,4191.153809,4196.282227,4195.897461,4198.461426,4207.051270,4200.897461,4210.897461,4201.410156,4193.461426,4187.563965,4167.948730,4191.538574,4176.922852,3520.000000,4.000000,91.000000,,,,0.000000,4.000000,4.000000,4.000000,4.000000,4.000000,4.000000,4.000000,4.000000,4.000000,4.000000,4.000000,4.000000,4.000000,4.000000,100.000000,,,,,,,,,,,,,,,,
1645708197.898673,160.000000,0.000000,4168.846191,4190.769043,4194.615234,4196.410156,4202.307617,4208.589844,4201.538574,4211.025879,4203.077148,4195.512695,4189.615234,4171.282227,4194.615234,4181.153809,3281.000000,4.000000,91.000000,,,,0.000000,4.000000,4.000000,4.000000,4.000000,4.000000,4.000000,4.000000,4.000000,4.000000,4.000000,4.000000,4.000000,4.000000,4.000000,100.000000,,,,,,,,,,,,,,,,
1645708197.902613,161.000000,0.000000,4168.974121,4189.230957,4194.358887,4198.333496,4204.743652,4208.589844,4202.820313,4212.948730,4205.000000,4198.077148,4190.769043,4175.641113,4198.205078,4184.871582,3296.000000,4.000000,91.000000,,,,0.000000,4.000000,4.000000,4.000000,4.000000,4.000000,4.000000,4.000000,4.000000,4.000000,4.000000,4.000000,4.000000,4.000000,4.000000,100.000000,,,,,,,,,,,,,,,,
1645708197.906554,162.000000,0.000000,4168.205078,4186.025879,4195.256348,4199.871582,4205.256348,4208.461426,4205.384766,4216.794922,4206.282227,4200.384766,4190.256348,4179.230957,4198.846191,4185.641113,2627.000000,4.000000,91.000000,,,,0.000000,4.000000,4.000000,4.000000,4.000000,4.000000,4.000000,4.000000,4.000000,4.000000,4.000000,4.000000,4.000000,4.000000,4.000000,100.000000,,,,,,,,,,,,,,,,
1645708197.910494,163.000000,0.000000,4167.820313,4182.692383,4196.922852,4199.615234,4205.256348,4209.230957,4208.205078,4221.922852,4207.563965,4203.589844,4189.358887,4180.897461,4196.794922,4184.358887,3520.000000,4.000000,91.000000,,,,0.000000,4.000000,4.000000,4.000000,4.000000,4.000000,4.000000,4.000000,4.000000,4.000000,4.000000,4.000000,4.000000,4.000000,4.000000,100.000000,,,,,,,,,,,,,,,,
1645708197.914434,164.000000,0.000000,4168.974121,4181.282227,4199.487305,4198.077148,4206.282227,4210.897461,4209.743652,4226.666504,4209.615234,4207.563965,4190.000000,4181.282227,4194.871582,4183.974121,3281.000000,4.000000,91.000000,,,,0.000000,4.000000,4.000000,4.000000,4.000000,4.000000,4.000000,4.000000,4.000000,4.000000,4.000000,4.000000,4.000000,4.000000,4.000000,100.000000,,,,,,,,,,,,,,,,
1645708197.918274,165.000000,0.000000,4172.948730,4183.205078,4203.333496,4197.051270,4207.563965,4212.436035,4209.487305,4229.615234,4212.307617,4210.641113,4193.205078,4181.666504,4196.282227,4186.922852,3296.000000,4.000000,91.000000,,,,0.000000,4.000000,4.000000,4.000000,4.000000,4.000000,4.000000,4.000000,4.000000,4.000000,4.000000,4.000000,4.000000,4.000000,4.000000,100.000000,,,,,,,,,,,,,,,,
1645708197.922214,166.000000,0.000000,4179.230957,4188.717773,4208.077148,4198.205078,4207.436035,4213.846191,4208.077148,4229.230957,4214.102539,4211.282227,4197.820313,4183.077148,4201.538574,4193.589844,2627.000000,4.000000,91.000000,,,,0.000000,4.000000,4.000000,4.000000,4.000000,4.000000,4.000000,4.000000,4.000000,4.000000,4.000000,4.000000,4.000000,4.000000,4.000000,100.000000,,,,,,,,,,,,,,,,
1645708197.926154,167.000000,0.000000,4187.051270,4196.410156,4212.307617,4202.179688,4205.897461,4215.000000,4206.922852,4226.025879,4213.333496,4209.615234,4202.820313,4186.282227,4208.846191,4202.948730,3520.000000,4.000000,91.000000,,,,0.000000,4.000000,4.000000,4.000000,4.000000,4.000000,4.000000,4.000000,4.000000,4.000000,4.000000,4.000000,4.000000,4.000000,4.000000,100.000000,,,,,,,,,,,,,,,,
1645708197.930094,168.000000,0.000000,4195.128418,4203.205078,4214.871582,4207.436035,4204.871582,4215.769043,4206.666504,4222.051270,4210.384766,4207.820313,4207.948730,4191.666504,4215.384766,4213.461426,3281.000000,4.000000,91.000000,,,,0.000000,4.000000,4.000000,4.000000,4.000000,4.000000,4.000000,4.000000,4.000000,4.000000,4.000000,4.000000,4.000000,4.000000,4.000000,100.000000,,,,,,,,,,,,,,,,
1645708197.934034,169.000000,0.000000,4202.179688,4206.153809,4216.025879,4210.769043,4205.384766,4215.512695,4207.307617,4220.000000,4207.179688,4208.205078,4212.948730,4198.333496,4219.871582,4222.436035,3296.000000,4.000000,91.000000,,,,0.000000,4.000000,4.000000,4.000000,4.000000,4.000000,4.000000,4.000000,4.000000,4.000000,4.000000,4.000000,4.000000,4.000000,4.000000,100.000000,,,,,,,,,,,,,,,,
1645708197.937975,170.000000,0.000000,4207.436035,4204.230957,4217.436035,4209.871582,4206.794922,4213.717773,4208.461426,4221.025879,4206.153809,4211.282227,4217.820313,4203.717773,4222.820313,4227.820313,2627.000000,4.000000,91.000000,,,,0.000000,4.000000,4.000000,4.000000,4.000000,4.000000,4.000000,4.000000,4.000000,4.000000,4.000000,4.000000,4.000000,4.000000,4.000000,100.000000,,,,,,,,,,,,,,,,
1645708197.941915,171.000000,0.000000,4210.769043,4200.128418,4220.641113,4205.769043,4207.179688,4211.794922,4209.487305,4224.487305,4208.333496,4215.769043,4222.051270,4205.897461,4226.153809,4229.487305,3520.000000,4.000000,91.000000,,,,0.000000,4.000000,4.000000,4.000000,4.000000,4.000000,4.000000,4.000000,4.000000,4.000000,4.000000,4.000000,4.000000,4.000000,4.000000,100.000000,,,,,,,,,,,,,,,,
1645708197.945855,172.000000,0.000000,4212.948730,4197.692383,4225.000000,4201.922852,4206.153809,4211.282227,4210.000000,4227.948730,4212.307617,4219.743652,4225.512695,4204.615234,4230.128418,4229.487305,3281.000000,4.000000,91.000000,,,,0.000000,4.000000,4.000000,4.000000,4.000000,4.000000,4.000000,4.000000,4.000000,4.000000,4.000000,4.000000,4.000000,4.000000,4.000000,100.000000,,,,,,,,,,,,,,,,
1645708197.949795,173.000000,0.000000,4214.230957,4198.589844,4228.333496,4201.282227,4205.128418,4212.948730,4210.256348,4229.487305,4215.512695,4222.179688,4227.307617,4201.666504,4232.820313,4229.871582,3296.000000,4.000000,91.000000,,,,0.000000,4.000000,4.000000,4.000000,4.000000,4.000000,4.000000,4.000000,4.000000,4.000000,4.000000,4.000000,4.000000,4.000000,4.000000,100.000000,,,,,,,,,,,,,,,,
1645708197.953735,174.000000,0.000000,4214.358887,4201.410156,4227.820313,4203.461426,4205.769043,4215.384766,4210.897461,4229.487305,4216.538574,4223.077148,4226.538574,4198.717773,4231.922852,4230.769043,2627.000000,4.000000,91.000000,,,,0.000000,4.000000,4.000000,4.000000,4.000000,4.000000,4.000000,4.000000,4.000000,4.000000,4.000000,4.000000,4.000000,4.000000,4.000000,100.000000,,,,,,,,,,,,,,,,
1645708197.957675,175.000000,0.000000,4212.948730,4202.563965,4223.077148,4205.641113,4208.333496,4216.794922,4212.692383,4229.358887,4215.384766,4223.077148,4222.820313,4196.538574,4227.179688,4231.153809,3520.000000,4.000000,91.000000,,,,0.000000,4.000000,4.000000,4.000000,4.000000,4.000000,4.000000,4.000000,4.000000,4.000000,4.000000,4.000000,4.000000,4.000000,4.000000,100.000000,,,,,,,,,,,,,,,,
1645708197.961615,176.000000,0.000000,4210.641113,4200.384766,4216.282227,4204.743652,4211.153809,4216.282227,4215.256348,4230.256348,4214.102539,4222.179688,4218.077148,4195.384766,4220.897461,4229.871582,3281.000000,4.000000,91.000000,,,,0.000000,4.000000,4.000000,4.000000,4.000000,4.000000,4.000000,4.000000,4.000000,4.000000,4.000000,4.000000,4.000000,4.000000,4.000000,100.000000,,,,,,,,,,,,,,,,
1645708197.965555,177.000000,0.000000,4207.820313,4195.769043,4210.897461,4200.384766,4212.436035,4215.000000,4217.179688,4231.410156,4214.358887,4221.025879,4215.000000,4195.128418,4216.282227,4227.436035,3296.000000,4.000000,91.000000,,,,0.000000,4.000000,4.000000,4.000000,4.000000,4.000000,4.000000,4.000000,4.000000,4.000000,4.000000,4.000000,4.000000,4.000000,4.000000,100.000000,,,,,,,,,,,,,,,,
1645708197.969495,178.000000,0.000000,4205.384766,4191.922852,4209.487305,4195.641113,4211.410156,4214.487305,4217.051270,4231.794922,4216.666504,4220.641113,4215.000000,4195.384766,4214.743652,4224.615234,2627.000000,4.000000,91.000000,,,,0.000000,4.000000,4.000000,4.000000,4.000000,4.000000,4.000000,4.000000,4.000000,4.000000,4.000000,4.000000,4.000000,4.000000,4.000000,100.000000,,,,,,,,,,,,,,,,
1645708197.973435,179.000000,0.000000,4203.589844,4190.256348,4211.794922,4193.717773,4208.461426,4215.384766,4214.871582,4230.897461,4219.615234,4221.794922,4216.922852,4195.000000,4215.256348,4221.794922,3520.000000,4.000000,91.000000,,,,0.000000,4.000000,4.000000,4.000000,4.000000,4.000000,4.000000,4.000000,4.000000,4.000000,4.000000,4.000000,4.000000,4.000000,4.000000,100.000000,,,,,,,,,,,,,,,,
1645708197.977376,180.000000,0.000000,4202.179688,4190.256348,4215.000000,4195.384766,4205.128418,4216.922852,4212.820313,4229.871582,4221.153809,4223.717773,4217.948730,4192.820313,4215.769043,4219.230957,3281.000000,4.000000,91.000000,,,,0.000000,4.000000,4.000000,4.000000,4.000000,4.000000,4.000000,4.000000,4.000000,4.000000,4.000000,4.000000,4.000000,4.000000,4.000000,100.000000,,,,,,,,,,,,,,,,
1645708197.981316,181.000000,0.000000,4199.871582,4190.000000,4216.410156,4198.077148,4203.205078,4218.589844,4212.563965,4230.256348,4220.384766,4224.743652,4216.538574,4189.230957,4215.000000,4216.538574,3296.000000,4.000000,91.000000,,,,0.000000,4.000000,4.000000,4.000000,4.000000,4.000000,4.000000,4.000000,4.000000,4.000000,4.000000,4.000000,4.000000,4.000000,4.000000,100.000000,,,,,,,,,,,,,,,,
1645708197.985256,182.000000,0.000000,4196.538574,4188.205078,4214.743652,4198.846191,4203.333496,4220.000000,4214.230957,4231.922852,4218.205078,4223.846191,4213.333496,4185.897461,4212.820313,4214.102539,2627.000000,4.000000,91.000000,,,,0.000000,4.000000,4.000000,4.000000,4.000000,4.000000,4.000000,4.000000,4.000000,4.000000,4.000000,4.000000,4.000000,4.000000,4.000000,100.000000,,,,,,,,,,,,,,,,
1645708197.989196,183.000000,0.000000,4192.948730,4185.000000,4210.897461,4196.794922,4203.717773,4221.025879,4216.025879,4233.205078,4216.794922,4221.282227,4210.000000,4184.230957,4210.256348,4212.307617,3520.000000,4.000000,91.000000,,,,0.000000,4.000000,4.000000,4.000000,4.000000,4.000000,4.000000,4.000000,4.000000,4.000000,4.000000,4.000000,4.000000,4.000000,4.000000,100.000000,,,,,,,,,,,,,,,,
1645708197.993036,184.000000,0.000000,4189.871582,4181.538574,4206.410156,4193.717773,4202.436035,4221.538574,4216.025879,4232.307617,4217.179688,4217.307617,4207.307617,4184.230957,4208.333496,4210.897461,3281.000000,4.000000,91.000000,,,,0.000000,4.000000,4.000000,4.000000,4.000000,4.000000,4.000000,4.000000,4.000000,4.000000,4.000000,4.000000,4.000000,4.000000,4.000000,100.000000,,,,,,,,,,,,,,,,
1645708197.996976,185.000000,0.000000,4187.692383,4179.230957,4202.692383,4191.794922,4199.102539,4220.512695,4213.846191,4228.974121,4218.205078,4212.692383,4204.743652,4184.615234,4206.794922,4209.230957,3296.000000,4.000000,91.000000,,,,0.000000,4.000000,4.000000,4.000000,4.000000,4.000000,4.000000,4.000000,4.000000,4.000000,4.000000,4.000000,4.000000,4.000000,4.000000,100.000000,,,,,,,,,,,,,,,,
1645708198.000916,186.000000,0.000000,4186.410156,4178.589844,4200.769043,4191.666504,4195.512695,4217.051270,4210.384766,4224.615234,4217.948730,4207.820313,4201.922852,4184.230957,4205.641113,4206.922852,2627.000000,4.000000,91.000000,,,,0.000000,4.000000,4.000000,4.000000,4.000000,4.000000,4.000000,4.000000,4.000000,4.000000,4.000000,4.000000,4.000000,4.000000,4.000000,100.000000,,,,,,,,,,,,,,,,
1645708198.004856,187.000000,0.000000,4186.282227,4179.230957,4201.025879,4191.794922,4194.230957,4211.538574,4206.410156,4220.512695,4214.871582,4203.846191,4199.871582,4183.205078,4204.615234,4205.000000,3520.000000,4.000000,91.000000,,,,0.000000,4.000000,4.000000,4.000000,4.000000,4.000000,4.000000,4.000000,4.000000,4.000000,4.000000,4.000000,4.000000,4.000000,4.000000,100.000000,,,,,,,,,,,,,,,,
1645708198.008797,188.000000,0.000000,4187.692383,4180.000000,4203.205078,4190.512695,4196.025879,4206.282227,4202.692383,4216.922852,4210.256348,4202.051270,4200.000000,4182.436035,4205.128418,4204.871582,3281.000000,4.000000,91.000000,,,,0.000000,4.000000,4.000000,4.000000,4.000000,4.000000,4.000000,4.000000,4.000000,4.000000,4.000000,4.000000,4.000000,4.000000,4.000000,100.000000,,,,,,,,,,,,,,,,
1645708198.012737,189.000000,0.000000,4190.000000,4180.512695,4206.666504,4187.563965,4199.230957,4203.846191,4200.000000,4214.230957,4206.153809,4202.563965,4202.948730,4182.563965,4207.563965,4206.153809,3296.000000,4.000000,91.000000,,,,0.000000,4.000000,4.000000,4.000000,4.000000,4.000000,4.000000,4.000000,4.000000,4.000000,4.000000,4.000000,4.000000,4.000000,4.000000,100.000000,,,,,,,,,,,,,,,,
1645708198.016677,190.000000,0.000000,4192.436035,4180.512695,4209.743652,4185.384766,4201.025879,4205.256348,4198.589844,4212.820313,4204.615234,4204.871582,4206.666504,4183.205078,4211.153809,4207.436035,2627.000000,4.000000,91.000000,,,,0.000000,4.000000,4.000000,4.000000,4.000000,4.000000,4.000000,4.000000,4.000000,4.000000,4.000000,4.000000,4.000000,4.000000,4.000000,100.000000,,,,,,,,,,,,,,,,
1645708198.020617,191.000000,0.000000,4194.230957,4180.512695,4211.025879,4186.410156,4200.000000,4209.358887,4198.974121,4212.948730,4205.769043,4207.563965,4208.077148,4184.230957,4213.589844,4207.307617,3520.000000,4.000000,91.000000,,,,0.000000,4.000000,4.000000,4.000000,4.000000,4.000000,4.000000,4.000000,4.000000,4.000000,4.000000,4.000000,4.000000,4.000000,4.000000,100.000000,,,,,,,,,,,,,,,,
1645708198.024557,192.000000,0.000000,4195.641113,4180.897461,4210.384766,4191.282227,4198.077148,4213.333496,4201.922852,4214.871582,4208.205078,4209.487305,4206.153809,4185.512695,4212.692383,4206.153809,3281.000000,4.000000,91.000000,,,,0.000000,4.000000,4.000000,4.000000,4.000000,4.000000,4.000000,4.000000,4.000000,4.000000,4.000000,4.000000,4.000000,4.000000,4.000000,100.000000,,,,,,,,,,,,,,,,
1645708198.028497,193.000000,0.000000,4197.179688,4182.307617,4209.230957,4198.461426,4198.846191,4215.384766,4207.179688,4218.077148,4210.256348,4210.128418,4202.820313,4186.538574,4209.358887,4205.256348,3296.000000,4.000000,91.000000,,,,0.000000,4.000000,4.000000,4.000000,4.000000,4.000000,4.000000,4.000000,4.000000,4.000000,4.000000,4.000000,4.000000,4.000000,4.000000,100.000000,,,,,,,,,,,,,,,,
1645708198.032437,194.000000,0.000000,4199.615234,4184.743652,4209.487305,4204.230957,4203.974121,4215.897461,4212.948730,4221.794922,4211.666504,4209.102539,4200.641113,4187.051270,4206.153809,4205.897461,2627.000000,4.000000,91.000000,,,,0.000000,4.000000,4.000000,4.000000,4.000000,4.000000,4.000000,4.000000,4.000000,4.000000,4.000000,4.000000,4.000000,4.000000,4.000000,100.000000,,,,,,,,,,,,,,,,
1645708198.036377,195.000000,0.000000,4202.051270,4187.563965,4211.538574,4205.641113,4211.025879,4215.897461,4216.794922,4225.512695,4212.820313,4206.922852,4201.282227,4186.538574,4205.000000,4208.077148,3520.000000,4.000000,91.000000,,,,0.000000,4.000000,4.000000,4.000000,4.000000,4.000000,4.000000,4.000000,4.000000,4.000000,4.000000,4.000000,4.000000,4.000000,4.000000,100.000000,,,,,,,,,,,,,,,,
1645708198.040317,196.000000,0.000000,4203.205078,4189.743652,4214.358887,4203.205078,4215.128418,4216.025879,4217.436035,4228.589844,4213.717773,4204.615234,4203.717773,4184.871582,4206.282227,4211.025879,3281.000000,4.000000,91.000000,,,,0.000000,4.000000,4.000000,4.000000,4.000000,4.000000,4.000000,4.000000,4.000000,4.000000,4.000000,4.000000,4.000000,4.000000,4.000000,100.000000,,,,,,,,,,,,,,,,
1645708198.044257,197.000000,0.000000,4201.922852,4190.512695,4216.282227,4200.512695,4212.948730,4216.410156,4215.512695,4230.512695,4213.717773,4204.102539,4205.769043,4182.692383,4208.846191,4213.077148,3296.000000,4.000000,91.000000,,,,0.000000,4.000000,4.000000,4.000000,4.000000,4.000000,4.000000,4.000000,4.000000,4.000000,4.000000,4.000000,4.000000,4.000000,4.000000,100.000000,,,,,,,,,,,,,,,,
1645708198.048198,198.000000,0.000000,4198.846191,4189.487305,4216.282227,4201.666504,4205.769043,4216.538574,4213.205078,4230.641113,4212.820313,4206.410156,4206.025879,4181.025879,4210.641113,4212.820313,2627.000000,4.000000,91.000000,,,,0.000000,4.000000,4.000000,4.000000,4.000000,4.000000,4.000000,4.000000,4.000000,4.000000,4.000000,4.000000,4.000000,4.000000,4.000000,100.000000,,,,,,,,,,,,,,,,
1645708198.052138,199.000000,0.000000,4196.025879,4186.666504,4214.743652,4206.666504,4198.461426,4215.641113,4212.307617,4228.717773,4211.666504,4209.743652,4204.743652,4181.025879,4209.358887,4210.512695,3520.000000,4.000000,91.000000,,,,0.000000,4.000000,4.000000,4.000000,4.000000,4.000000,4.000000,4.000000,4.000000,4.000000,4.000000,4.000000,4.000000,4.000000,4.000000,100.000000,,,,,,,,,,,,,,,,
1645708198.056078,200.000000,0.000000,4194.743652,4183.205078,4213.333496,4211.410156,4194.615234,4213.461426,4212.820313,4224.743652,4210.512695,4210.641113,4202.948730,4182.179688,4203.333496,4206.794922,3281.000000,4.000000,91.000000,,,,0.000000,4.000000,4.000000,4.000000,4.000000,4.000000,4.000000,4.000000,4.000000,4.000000,4.000000,4.000000,4.000000,4.000000,4.000000,100.000000,,,,,,,,,,,,,,,,
1645708198.060018,201.000000,0.000000,4194.743652,4180.769043,4212.563965,4210.641113,4194.871582,4210.128418,4212.948730,4220.384766,4209.615234,4206.282227,4200.384766,4182.563965,4193.333496,4202.948730,3296.000000,4.000000,91.000000,,,,0.000000,4.000000,4.000000,4.000000,4.000000,4.000000,4.000000,4.000000,4.000000,4.000000,4.000000,4.000000,4.000000,4.000000,4.000000,100.000000,,,,,,,,,,,,,,,,
1645708198.063858,202.000000,0.000000,4194.615234,4181.410156,4211.794922,4203.333496,4196.666504,4206.666504,4211.025879,4217.948730,4209.358887,4198.717773,4197.179688,4180.769043,4183.205078,4199.743652,2627.000000,4.000000,91.000000,,,,0.000000,4.000000,4.000000,4.000000,4.000000,4.000000,4.000000,4.000000,4.000000,4.000000,4.000000,4.000000,4.000000,4.000000,4.000000,100.000000,,,,,,,,,,,,,,,,
1645708198.067798,203.000000,0.000000,4193.589844,4184.615234,4209.487305,4194.230957,4197.820313,4204.358887,4207.051270,4218.461426,4210.256348,4192.820313,4194.102539,4177.179688,4178.077148,4197.820313,3520.000000,4.000000,91.000000,,,,0.000000,4.000000,4.000000,4.000000,4.000000,4.000000,4.000000,4.000000,4.000000,4.000000,4.000000,4.000000,4.000000,4.000000,4.000000,100.000000,,,,,,,,,,,,,,,,
1645708198.071738,204.000000,0.000000,4191.666504,4188.077148,4205.641113,4189.743652,4197.692383,4203.589844,4202.692383,4221.153809,4212.179688,4192.563965,4193.077148,4174.487305,4180.769043,4196.666504,3281.000000,4.000000,91.000000,,,,0.000000,4.000000,4.000000,4.000000,4.000000,4.000000,4.000000,4.000000,4.000000,4.000000,4.000000,4.000000,4.000000,4.000000,4.000000,100.000000,,,,,,,,,,,,,,,,
1645708198.075678,205.000000,0.000000,4189.358887,4188.333496,4202.179688,4193.333496,4196.538574,4203.846191,4200.256348,4223.974121,4213.717773,4197.948730,4194.871582,4175.256348,4188.717773,4196.153809,3296.000000,4.000000,91.000000,,,,0.000000,4.000000,4.000000,4.000000,4.000000,4.000000,4.000000,4.000000,4.000000,4.000000,4.000000,4.000000,4.000000,4.000000,4.000000,100.000000,,,,,,,,,,,,,,,,
1645708198.079619,206.000000,0.000000,4188.333496,4185.000000,4201.282227,4202.948730,4195.384766,4203.717773,4200.512695,4225.000000,4213.974121,4205.512695,4198.974121,4179.487305,4196.794922,4196.666504,2627.000000,4.000000,91.000000,,,,0.000000,4.000000,4.000000,4.000000,4.000000,4.000000,4.000000,4.000000,4.000000,4.000000,4.000000,4.000000,4.000000,4.000000,4.000000,100.000000,,,,,,,,,,,,,,,,
1645708198.083559,207.000000,0.000000,4189.487305,4180.897461,4203.589844,4212.692383,4195.256348,4202.948730,4202.179688,4223.717773,4212.692383,4211.282227,4203.589844,4184.615234,4201.153809,4198.717773,3520.000000,4.000000,91.000000,,,,0.000000,4.000000,4.000000,4.000000,4.000000,4.000000,4.000000,4.000000,4.000000,4.000000,4.000000,4.000000,4.000000,4.000000,4.000000,100.000000,,,,,,,,,,,,,,,,
1645708198.087599,208.000000,0.000000,4192.179688,4179.743652,4206.666504,4217.436035,4197.307617,4201.794922,4203.077148,4220.769043,4210.769043,4213.205078,4206.538574,4187.436035,4201.794922,4201.922852,3281.000000,4.000000,91.000000,,,,0.000000,4.000000,4.000000,4.000000,4.000000,4.000000,4.000000,4.000000,4.000000,4.000000,4.000000,4.000000,4.000000,4.000000,4.000000,100.000000,,,,,,,,,,,,,,,,
1645708198.091539,209.000000,0.000000,4194.102539,4182.820313,4207.948730,4215.128418,4200.256348,4200.769043,4201.666504,4216.922852,4208.333496,4211.410156,4205.384766,4185.769043,4200.897461,4204.102539,3296.000000,4.000000,91.000000,,,,0.000000,4.000000,4.000000,4.000000,4.000000,4.000000,4.000000,4.000000,4.000000,4.000000,4.000000,4.000000,4.000000,4.000000,4.000000,100.000000,,,,,,,,,,,,,,,,
1645708198.095479,210.000000,0.000000,4193.333496,4187.436035,4206.538574,4207.820313,4201.410156,4199.871582,4198.846191,4212.948730,4204.871582,4206.282227,4198.717773,4179.871582,4200.128418,4203.205078,2627.000000,4.000000,91.000000,,,,0.000000,4.000000,4.000000,4.000000,4.000000,4.000000,4.000000,4.000000,4.000000,4.000000,4.000000,4.000000,4.000000,4.000000,4.000000,100.000000,,,,,,,,,,,,,,,,
1645708198.099519,211.000000,0.000000,4189.487305,4189.358887,4203.717773,4200.000000,4198.717773,4198.974121,4196.794922,4209.487305,4201.153809,4199.230957,4188.461426,4172.307617,4198.974121,4199.358887,3520.000000,4.000000,91.000000,,,,0.000000,4.000000,4.000000,4.000000,4.000000,4.000000,4.000000,4.000000,4.000000,4.000000,4.000000,4.000000,4.000000,4.000000,4.000000,100.000000,,,,,,,,,,,,,,,,
1645708198.103459,212.000000,0.000000,4184.615234,4186.794922,4201.538574,4195.000000,4193.589844,4198.077148,4196.922852,4207.179688,4198.717773,4192.051270,4179.230957,4166.153809,4196.922852,4195.384766,3281.000000,4.000000,91.000000,,,,0.000000,4.000000,4.000000,4.000000,4.000000,4.000000,4.000000,4.000000,4.000000,4.000000,4.000000,4.000000,4.000000,4.000000,4.000000,100.000000,,,,,,,,,,,,,,,,
1645708198.107399,213.000000,0.000000,4181.666504,4182.051270,4200.256348,4194.102539,4190.000000,4197.436035,4198.717773,4206.666504,4198.717773,4187.692383,4176.153809,4163.717773,4194.358887,4194.230957,3296.000000,4.000000,91.000000,,,,0.000000,4.000000,4.000000,4.000000,4.000000,4.000000,4.000000,4.000000,4.000000,4.000000,4.000000,4.000000,4.000000,4.000000,4.000000,100.000000,,,,,,,,,,,,,,,,
1645708198.111339,214.000000,0.000000,4182.179688,4179.230957,4198.717773,4196.025879,4190.897461,4197.563965,4200.641113,4208.589844,4200.512695,4187.563965,4180.512695,4165.641113,4193.077148,4196.794922,2627.000000,4.000000,91.000000,,,,0.000000,4.000000,4.000000,4.000000,4.000000,4.000000,4.000000,4.000000,4.000000,4.000000,4.000000,4.000000,4.000000,4.000000,4.000000,100.000000,,,,,,,,,,,,,,,,
1645708198.115279,215.000000,0.000000,4185.641113,4180.128418,4196.025879,4198.461426,4195.128418,4198.333496,4201.538574,4212.563965,4202.563965,4191.025879,4189.487305,4170.512695,4194.230957,4201.153809,3520.000000,4.000000,91.000000,,,,0.000000,4.000000,4.000000,4.000000,4.000000,4.000000,4.000000,4.000000,4.000000,4.000000,4.000000,4.000000,4.000000,4.000000,4.000000,100.000000,,,,,,,,,,,,,,,,
1645708198.119219,216.000000,0.000000,4189.615234,4183.461426,4193.205078,4199.358887,4198.846191,4198.717773,4201.794922,4216.922852,4203.333496,4195.384766,4197.179688,4175.000000,4197.179688,4203.974121,3281.000000,4.000000,91.000000,,,,0.000000,4.000000,4.000000,4.000000,4.000000,4.000000,4.000000,4.000000,4.000000,4.000000,4.000000,4.000000,4.000000,4.000000,4.000000,100.000000,,,,,,,,,,,,,,,,
1645708198.123159,217.000000,0.000000,4192.307617,4185.897461,4191.794922,4197.948730,4198.974121,4198.589844,4202.051270,4219.230957,4202.307617,4197.307617,4199.230957,4176.794922,4200.000000,4203.205078,3296.000000,4.000000,91.000000,,,,0.000000,4.000000,4.000000,4.000000,4.000000,4.000000,4.000000,4.000000,4.000000,4.000000,4.000000,4.000000,4.000000,4.000000,4.000000,100.000000,,,,,,,,,,,,,,,,
1645708198.127000,218.000000,0.000000,4193.333496,4184.615234,4191.922852,4195.128418,4195.897461,4198.333496,4202.307617,4218.077148,4200.384766,4196.282227,4195.128418,4175.897461,4200.769043,4199.487305,2627.000000,4.000000,91.000000,,,,0.000000,4.000000,4.000000,4.000000,4.000000,4.000000,4.000000,4.000000,4.000000,4.000000,4.000000,4.000000,4.000000,4.000000,4.000000,100.000000,,,,,,,,,,,,,,,,
1645708198.130940,219.000000,0.000000,4192.692383,4179.743652,4192.179688,4192.563965,4191.794922,4198.205078,4202.051270,4214.487305,4199.615234,4194.102539,4188.333496,4173.461426,4198.974121,4195.769043,3520.000000,4.000000,91.000000,,,,0.000000,4.000000,4.000000,4.000000,4.000000,4.000000,4.000000,4.000000,4.000000,4.000000,4.000000,4.000000,4.000000,4.000000,4.000000,100.000000,,,,,,,,,,,,,,,,
1645708198.134880,220.000000,0.000000,4190.000000,4173.461426,4191.153809,4191.410156,4188.974121,4197.948730,4201.153809,4212.307617,4201.025879,4193.077148,4182.820313,4170.769043,4195.897461,4194.102539,3281.000000,4.000000,91.000000,,,,0.000000,4.000000,4.000000,4.000000,4.000000,4.000000,4.000000,4.000000,4.000000,4.000000,4.000000,4.000000,4.000000,4.000000,4.000000,100.000000,,,,,,,,,,,,,,,,
1645708198.138820,221.000000,0.000000,4185.384766,4168.974121,4188.717773,4191.410156,4187.692383,4197.051270,4200.256348,4215.256348,4204.102539,4194.102539,4180.897461,4168.589844,4193.589844,4193.717773,3296.000000,4.000000,91.000000,,,,0.000000,4.000000,4.000000,4.000000,4.000000,4.000000,4.000000,4.000000,4.000000,4.000000,4.000000,4.000000,4.000000,4.000000,4.000000,100.000000,,,,,,,,,,,,,,,,
1645708198.142760,222.000000,0.000000,4181.410156,4168.846191,4186.794922,4191.153809,4187.948730,4195.769043,4199.871582,4222.307617,4207.948730,4196.538574,4182.692383,4167.179688,4193.589844,4192.820313,2627.000000,4.000000,91.000000,,,,0.000000,4.000000,4.000000,4.000000,4.000000,4.000000,4.000000,4.000000,4.000000,4.000000,4.000000,4.000000,4.000000,4.000000,4.000000,100.000000,,,,,,,,,,,,,,,,
1645708198.146700,223.000000,0.000000,4181.282227,4173.461426,4187.307617,4189.743652,4189.358887,4194.743652,4200.128418,4227.051270,4211.153809,4199.487305,4186.922852,4167.179688,4196.410156,4191.538574,3520.000000,4.000000,91.000000,,,,0.000000,4.000000,4.000000,4.000000,4.000000,4.000000,4.000000,4.000000,4.000000,4.000000,4.000000,4.000000,4.000000,4.000000,4.000000,100.000000,,,,,,,,,,,,,,,,
1645708198.150640,224.000000,0.000000,4186.025879,4180.897461,4190.769043,4187.948730,4191.153809,4193.974121,4200.512695,4223.717773,4212.307617,4202.307617,4191.282227,4168.717773,4200.769043,4192.563965,3281.000000,4.000000,91.000000,,,,0.000000,4.000000,4.000000,4.000000,4.000000,4.000000,4.000000,4.000000,4.000000,4.000000,4.000000,4.000000,4.000000,4.000000,4.000000,100.000000,,,,,,,,,,,,,,,,
1645708198.154580,225.000000,0.000000,4193.333496,4187.948730,4196.025879,4187.563965,4191.666504,4193.589844,4200.641113,4214.487305,4211.282227,4204.358887,4193.846191,4171.282227,4205.128418,4197.820313,3296.000000,4.000000,91.000000,,,,0.000000,4.000000,4.000000,4.000000,4.000000,4.000000,4.000000,4.000000,4.000000,4.000000,4.000000,4.000000,4.000000,4.000000,4.000000,100.000000,,,,,,,,,,,,,,,,
1645708198.158521,226.000000,0.000000,4198.974121,4191.282227,4200.897461,4190.000000,4190.256348,4193.846191,4200.769043,4209.487305,4208.974121,4205.000000,4194.358887,4173.974121,4208.205078,4206.025879,2627.000000,4.000000,91.000000,,,,0.000000,4.000000,4.000000,4.000000,4.000000,4.000000,4.000000,4.000000,4.000000,4.000000,4.000000,4.000000,4.000000,4.000000,4.000000,100.000000,,,,,,,,,,,,,,,,
1645708198.162461,227.000000,0.000000,4200.128418,4190.384766,4203.589844,4194.102539,4187.692383,4195.512695,4201.282227,4218.333496,4206.922852,4204.358887,4193.717773,4175.512695,4208.846191,4212.051270,3520.000000,4.000000,91.000000,,,,0.000000,4.000000,4.000000,4.000000,4.000000,4.000000,4.000000,4.000000,4.000000,4.000000,4.000000,4.000000,4.000000,4.000000,4.000000,100.000000,,,,,,,,,,,,,,,,
1645708198.166401,228.000000,0.000000,4196.922852,4187.051270,4203.205078,4196.794922,4186.538574,4198.846191,4202.179688,4240.384766,4206.025879,4202.692383,4192.820313,4174.615234,4207.179688,4211.666504,3281.000000,4.000000,91.000000,,,,0.000000,4.000000,4.000000,4.000000,4.000000,4.000000,4.000000,4.000000,4.000000,4.000000,4.000000,4.000000,4.000000,4.000000,4.000000,100.000000,,,,,,,,,,,,,,,,
1645708198.170341,229.000000,0.000000,4191.794922,4184.615234,4200.256348,4195.512695,4188.589844,4202.692383,4202.563965,4263.077148,4205.512695,4200.000000,4191.922852,4170.769043,4204.743652,4204.358887,3296.000000,4.000000,91.000000,,,,0.000000,4.000000,4.000000,4.000000,4.000000,4.000000,4.000000,4.000000,4.000000,4.000000,4.000000,4.000000,4.000000,4.000000,4.000000,100.000000,,,,,,,,,,,,,,,,
1645708198.174281,230.000000,0.000000,4187.563965,4184.487305,4196.153809,4190.897461,4192.948730,4204.615234,4201.538574,4271.922852,4203.974121,4196.922852,4190.128418,4165.000000,4202.820313,4194.230957,2627.000000,4.000000,91.000000,,,,0.000000,4.000000,4.000000,4.000000,4.000000,4.000000,4.000000,4.000000,4.000000,4.000000,4.000000,4.000000,4.000000,4.000000,4.000000,100.000000,,,,,,,,,,,,,,,,
1645708198.178221,231.000000,0.000000,4185.512695,4185.384766,4192.436035,4186.794922,4197.179688,4203.205078,4199.487305,4261.538574,4201.282227,4194.230957,4187.563965,4159.615234,4202.051270,4187.051270,3520.000000,4.000000,91.000000,,,,0.000000,4.000000,4.000000,4.000000,4.000000,4.000000,4.000000,4.000000,4.000000,4.000000,4.000000,4.000000,4.000000,4.000000,4.000000,100.000000,,,,,,,,,,,,,,,,
1645708198.182161,232.000000,0.000000,4185.256348,4185.384766,4190.256348,4186.538574,4198.589844,4199.358887,4197.948730,4239.487305,4198.717773,4193.333496,4184.871582,4157.179688,4202.307617,4186.153809,3281.000000,4.000000,91.000000,,,,0.000000,4.000000,4.000000,4.000000,4.000000,4.000000,4.000000,4.000000,4.000000,4.000000,4.000000,4.000000,4.000000,4.000000,4.000000,100.000000,,,,,,,,,,,,,,,,
1645708198.186101,233.000000,0.000000,4185.897461,4183.846191,4189.871582,4189.743652,4196.794922,4196.538574,4198.717773,4219.743652,4198.205078,4195.000000,4183.589844,4159.102539,4203.461426,4191.025879,3296.000000,4.000000,91.000000,,,,0.000000,4.000000,4.000000,4.000000,4.000000,4.000000,4.000000,4.000000,4.000000,4.000000,4.000000,4.000000,4.000000,4.000000,4.000000,100.000000,,,,,,,,,,,,,,,,
1645708198.190041,234.000000,0.000000,4186.794922,4182.051270,4191.538574,4192.563965,4193.589844,4197.820313,4202.179688,4213.077148,4201.410156,4198.846191,4185.128418,4163.846191,4205.000000,4197.948730,2627.000000,4.000000,91.000000,,,,0.000000,4.000000,4.000000,4.000000,4.000000,4.000000,4.000000,4.000000,4.000000,4.000000,4.000000,4.000000,4.000000,4.000000,4.000000,100.000000,,,,,,,,,,,,,,,,
1645708198.193981,235.000000,0.000000,4187.948730,4181.922852,4195.256348,4192.307617,4191.666504,4203.333496,4206.538574,4219.358887,4207.820313,4203.461426,4189.358887,4168.589844,4206.282227,4203.589844,3520.000000,4.000000,91.000000,,,,0.000000,4.000000,4.000000,4.000000,4.000000,4.000000,4.000000,4.000000,4.000000,4.000000,4.000000,4.000000,4.000000,4.000000,4.000000,100.000000,,,,,,,,,,,,,,,,
1645708198.197822,236.000000,0.000000,4189.487305,4183.846191,4199.743652,4189.102539,4192.179688,4209.743652,4209.358887,4229.743652,4214.743652,4206.538574,4194.487305,4171.025879,4206.666504,4205.512695,3281.000000,4.000000,91.000000,,,,0.000000,4.000000,4.000000,4.000000,4.000000,4.000000,4.000000,4.000000,4.000000,4.000000,4.000000,4.000000,4.000000,4.000000,4.000000,100.000000,,,,,,,,,,,,,,,,
1645708198.201762,237.000000,0.000000,4190.897461,4186.025879,4202.179688,4186.153809,4193.974121,4212.820313,4209.230957,4234.871582,4218.333496,4206.666504,4197.563965,4170.512695,4206.153809,4203.205078,3296.000000,4.000000,91.000000,,,,0.000000,4.000000,4.000000,4.000000,4.000000,4.000000,4.000000,4.000000,4.000000,4.000000,4.000000,4.000000,4.000000,4.000000,4.000000,100.000000,,,,,,,,,,,,,,,,
1645708198.205702,238.000000,0.000000,4191.538574,4186.538574,4200.128418,4187.051270,4194.743652,4210.769043,4206.282227,4231.410156,4217.051270,4204.102539,4197.307617,4168.333496,4205.000000,4198.461426,2627.000000,4.000000,91.000000,,,,0.000000,4.000000,4.000000,4.000000,4.000000,4.000000,4.000000,4.000000,4.000000,4.000000,4.000000,4.000000,4.000000,4.000000,4.000000,100.000000,,,,,,,,,,,,,,,,
1645708198.209642,239.000000,0.000000,4190.641113,4184.487305,4194.230957,4191.794922,4192.820313,4205.769043,4202.307617,4224.230957,4212.692383,4200.769043,4194.743652,4166.538574,4203.846191,4193.846191,3520.000000,4.000000,91.000000,,,,0.000000,4.000000,4.000000,4.000000,4.000000,4.000000,4.000000,4.000000,4.000000,4.000000,4.000000,4.000000,4.000000,4.000000,4.000000,100.000000,,,,,,,,,,,,,,,,
1645708198.213582,240.000000,0.000000,4188.333496,4181.282227,4188.205078,4197.051270,4188.846191,4201.410156,4199.230957,4219.615234,4208.333496,4198.846191,4192.307617,4166.666504,4202.948730,4191.410156,3281.000000,4.000000,91.000000,,,,0.000000,4.000000,4.000000,4.000000,4.000000,4.000000,4.000000,4.000000,4.000000,4.000000,4.000000,4.000000,4.000000,4.000000,4.000000,100.000000,,,,,,,,,,,,,,,,
1645708198.217522,241.000000,0.000000,4185.641113,4178.846191,4186.282227,4198.205078,4184.358887,4199.743652,4198.717773,4220.256348,4206.666504,4198.589844,4191.538574,4168.205078,4202.307617,4191.410156,3296.000000,4.000000,91.000000,,,,0.000000,4.000000,4.000000,4.000000,4.000000,4.000000,4.000000,4.000000,4.000000,4.000000,4.000000,4.000000,4.000000,4.000000,4.000000,100.000000,,,,,,,,,,,,,,,,
1645708198.221462,242.000000,0.000000,4184.102539,4178.717773,4189.487305,4194.230957,4180.897461,4199.743652,4200.769043,4222.948730,4208.077148,4199.230957,4192.051270,4169.230957,4201.666504,4192.179688,2627.000000,4.000000,91.000000,,,,0.000000,4.000000,4.000000,4.000000,4.000000,4.000000,4.000000,4.000000,4.000000,4.000000,4.000000,4.000000,4.000000,4.000000,4.000000,100.000000,,,,,,,,,,,,,,,,
1645708198.225402,243.000000,0.000000,4184.358887,4180.128418,4195.384766,4188.717773,4179.230957,4199.230957,4204.102539,4223.589844,4211.410156,4200.000000,4192.692383,4168.333496,4202.179688,4192.820313,3520.000000,4.000000,91.000000,,,,0.000000,4.000000,4.000000,4.000000,4.000000,4.000000,4.000000,4.000000,4.000000,4.000000,4.000000,4.000000,4.000000,4.000000,4.000000,100.000000,,,,,,,,,,,,,,,,
1645708198.229343,244.000000,0.000000,4185.512695,4180.897461,4199.743652,4186.153809,4179.615234,4197.307617,4206.666504,4221.794922,4214.615234,4201.282227,4192.563965,4165.769043,4204.358887,4192.948730,3281.000000,4.000000,91.000000,,,,0.000000,4.000000,4.000000,4.000000,4.000000,4.000000,4.000000,4.000000,4.000000,4.000000,4.000000,4.000000,4.000000,4.000000,4.000000,100.000000,,,,,,,,,,,,,,,,
1645708198.233283,245.000000,0.000000,4186.410156,4178.846191,4200.641113,4187.307617,4181.025879,4195.000000,4207.179688,4220.769043,4216.538574,4203.589844,4192.692383,4163.461426,4207.948730,4192.692383,3296.000000,4.000000,91.000000,,,,0.000000,4.000000,4.000000,4.000000,4.000000,4.000000,4.000000,4.000000,4.000000,4.000000,4.000000,4.000000,4.000000,4.000000,4.000000,100.000000,,,,,,,,,,,,,,,,
1645708198.237223,246.000000,0.000000,4186.282227,4173.717773,4198.717773,4189.358887,4181.666504,4193.717773,4205.641113,4222.948730,4216.922852,4206.538574,4193.461426,4163.077148,4210.769043,4192.436035,2627.000000,4.000000,91.000000,,,,0.000000,4.000000,4.000000,4.000000,4.000000,4.000000,4.000000,4.000000,4.000000,4.000000,4.000000,4.000000,4.000000,4.000000,4.000000,100.000000,1.000000,100.000000,4.000000,4.000000,4.000000,4.000000,4.000000,4.000000,4.000000,4.000000,4.000000,4.000000,4.000000,4.000000,4.000000,4.000000
1645708198.241163,247.000000,0.000000,4184.871582,4167.820313,4196.410156,4188.717773,4179.871582,4193.717773,4203.461426,4227.179688,4216.282227,4208.589844,4194.487305,4164.230957,4211.153809,4192.179688,3520.000000,4.000000,91.000000,,,,0.000000,4.000000,4.000000,4.000000,4.000000,4.000000,4.000000,4.000000,4.000000,4.000000,4.000000,4.000000,4.000000,4.000000,4.000000,100.000000,,,,,,,,,,,,,,,,
1645708198.245103,248.000000,0.000000,4182.820313,4164.102539,4195.384766,4185.769043,4176.410156,4194.230957,4202.179688,4228.846191,4215.128418,4208.077148,4194.358887,4165.897461,4208.717773,4192.307617,3281.000000,4.000000,91.000000,,,,0.000000,4.000000,4.000000,4.000000,4.000000,4.000000,4.000000,4.000000,4.000000,4.000000,4.000000,4.000000,4.000000,4.000000,4.000000,100.000000,,,,,,,,,,,,,,,,
1645708198.249043,249.000000,0.000000,4181.666504,4164.615234,4196.282227,4184.230957,4173.974121,4194.871582,4202.179688,4225.256348,4213.205078,4204.743652,4192.820313,4167.051270,4205.000000,4193.333496,3296.000000,4.000000,91.000000,,,,0.000000,4.000000,4.000000,4.000000,4.000000,4.000000,4.000000,4.000000,4.000000,4.000000,4.000000,4.000000,4.000000,4.000000,4.000000,100.000000,,,,,,,,,,,,,,,,
1645708198.252983,250.000000,0.000000,4182.436035,4168.974121,4198.205078,4187.307617,4175.384766,4195.256348,4202.692383,4217.307617,4210.384766,4200.256348,4191.282227,4168.205078,4202.179688,4194.871582,2627.000000,4.000000,91.000000,,,,0.000000,4.000000,4.000000,4.000000,4.000000,4.000000,4.000000,4.000000,4.000000,4.000000,4.000000,4.000000,4.000000,4.000000,4.000000,100.000000,,,,,,,,,,,,,,,,
1645708198.256923,251.000000,0.000000,4184.743652,4174.358887,4199.871582,4194.743652,4179.871582,4195.128418,4202.436035,4208.717773,4207.307617,4196.666504,4191.410156,4170.128418,4201.666504,4196.538574,3520.000000,4.000000,91.000000,,,,0.000000,4.000000,4.000000,4.000000,4.000000,4.000000,4.000000,4.000000,4.000000,4.000000,4.000000,4.000000,4.000000,4.000000,4.000000,100.000000,,,,,,,,,,,,,,,,
1645708198.260863,252.000000,0.000000,4187.563965,4178.205078,4200.512695,4202.307617,4183.974121,4193.846191,4201.153809,4202.692383,4204.358887,4195.256348,4194.102539,4173.974121,4204.230957,4198.205078,3281.000000,4.000000,91.000000,,,,0.000000,4.000000,4.000000,4.000000,4.000000,4.000000,4.000000,4.000000,4.000000,4.000000,4.000000,4.000000,4.000000,4.000000,4.000000,100.000000,,,,,,,,,,,,,,,,
1645708198.264803,253.000000,0.000000,4190.897461,4180.128418,4200.769043,4206.025879,4184.871582,4192.051270,4199.102539,4200.641113,4202.563965,4197.051270,4198.846191,4179.615234,4209.102539,4200.641113,3296.000000,4.000000,91.000000,,,,0.000000,4.000000,4.000000,4.000000,4.000000,4.000000,4.000000,4.000000,4.000000,4.000000,4.000000,4.000000,4.000000,4.000000,4.000000,100.000000,,,,,,,,,,,,,,,,
1645708198.268644,254.000000,0.000000,4195.512695,4182.307617,4202.179688,4205.641113,4183.205078,4191.282227,4196.922852,4201.538574,4202.692383,4201.410156,4204.230957,4185.384766,4214.487305,4204.487305,2627.000000,4.000000,91.000000,,,,0.000000,4.000000,4.000000,4.000000,4.000000,4.000000,4.000000,4.000000,4.000000,4.000000,4.000000,4.000000,4.000000,4.000000,4.000000,100.000000,,,,,,,,,,,,,,,,
1645708198.272584,255.000000,0.000000,4201.666504,4186.153809,4206.153809,4202.948730,4182.179688,4192.436035,4195.769043,4203.974121,4204.230957,4206.666504,4208.461426,4189.102539,4218.717773,4209.358887,114.000000,4.000000,91.000000,,,,0.000000,4.000000,4.000000,4.000000,4.000000,4.000000,4.000000,4.000000,4.000000,4.000000,4.000000,4.000000,4.000000,4.000000,4.000000,100.000000,,,,,,,,,,,,,,,,
1645708198.276524,0.000000,0.000000,4208.077148,4191.282227,4212.051270,4199.615234,4183.974121,4194.871582,4196.025879,4205.897461,4205.512695,4209.487305,4210.384766,4189.487305,4220.000000,4213.333496,3245.000000,4.000000,91.000000,,,,0.000000,4.000000,4.000000,4.000000,4.000000,4.000000,4.000000,4.000000,4.000000,4.000000,4.000000,4.000000,4.000000,4.000000,4.000000,100.000000,,,,,,,,,,,,,,,,
1645708198.280464,1.000000,0.000000,4212.179688,4195.384766,4217.051270,4196.538574,4188.461426,4197.051270,4197.692383,4205.769043,4204.743652,4207.948730,4210.384766,4187.307617,4218.589844,4215.769043,3402.000000,4.000000,91.000000,,,,0.000000,4.000000,4.000000,4.000000,4.000000,4.000000,4.000000,4.000000,4.000000,4.000000,4.000000,4.000000,4.000000,4.000000,4.000000,100.000000,,,,,,,,,,,,,,,,
1645708198.284404,2.000000,0.000000,4212.563965,4196.153809,4218.333496,4194.743652,4193.333496,4197.820313,4199.743652,4203.333496,4202.179688,4203.846191,4209.871582,4185.128418,4215.512695,4217.563965,3455.000000,4.000000,91.000000,,,,0.000000,4.000000,4.000000,4.000000,4.000000,4.000000,4.000000,4.000000,4.000000,4.000000,4.000000,4.000000,4.000000,4.000000,4.000000,100.000000,,,,,,,,,,,,,,,,
1645708198.288344,3.000000,0.000000,4210.384766,4193.589844,4215.384766,4195.000000,4196.538574,4197.436035,4201.282227,4200.641113,4200.384766,4200.897461,4209.871582,4184.615234,4212.820313,4220.384766,3590.000000,4.000000,91.000000,,,,0.000000,4.000000,4.000000,4.000000,4.000000,4.000000,4.000000,4.000000,4.000000,4.000000,4.000000,4.000000,4.000000,4.000000,4.000000,100.000000,,,,,,,,,,,,,,,,
1645708198.292284,4.000000,0.000000,4207.436035,4189.487305,4209.743652,4196.666504,4196.538574,4196.922852,4201.922852,4199.487305,4201.794922,4201.410156,4209.871582,4185.384766,4211.410156,4223.205078,3349.000000,4.000000,91.000000,,,,0.000000,4.000000,4.000000,4.000000,4.000000,4.000000,4.000000,4.000000,4.000000,4.000000,4.000000,4.000000,4.000000,4.000000,4.000000,100.000000,,,,,,,,,,,,,,,,
1645708198.296224,5.000000,0.000000,4205.000000,4186.025879,4203.717773,4197.307617,4194.102539,4196.922852,4201.794922,4200.384766,4206.153809,4203.974121,4208.974121,4184.743652,4210.769043,4222.563965,3537.000000,4.000000,91.000000,,,,0.000000,4.000000,4.000000,4.000000,4.000000,4.000000,4.000000,4.000000,4.000000,4.000000,4.000000,4.000000,4.000000,4.000000,4.000000,100.000000,,,,,,,,,,,,,,,,
1645708198.300165,6.000000,0.000000,4202.436035,4184.487305,4200.000000,4195.897461,4191.794922,4197.179688,4201.282227,4201.922852,4210.769043,4205.000000,4206.794922,4181.025879,4209.743652,4217.051270,3230.000000,4.000000,91.000000,,,,0.000000,4.000000,4.000000,4.000000,4.000000,4.000000,4.000000,4.000000,4.000000,4.000000,4.000000,4.000000,4.000000,4.000000,4.000000,100.000000,,,,,,,,,,,,,,,,
1645708198.304105,7.000000,0.000000,4199.871582,4184.487305,4199.615234,4193.333496,4192.436035,4197.563965,4200.000000,4202.563965,4212.692383,4203.077148,4204.743652,4175.384766,4207.948730,4209.615234,2624.000000,4.000000,91.000000,,,,0.000000,4.000000,4.000000,4.000000,4.000000,4.000000,4.000000,4.000000,4.000000,4.000000,4.000000,4.000000,4.000000,4.000000,4.000000,100.000000,,,,,,,,,,,,,,,,
1645708198.308045,8.000000,0.000000,4197.948730,4184.615234,4201.410156,4191.153809,4195.512695,4198.333496,4198.333496,4201.282227,4211.538574,4199.487305,4204.358887,4170.641113,4206.410156,4204.743652,1431.000000,4.000000,91.000000,,,,0.000000,4.000000,4.000000,4.000000,4.000000,4.000000,4.000000,4.000000,4.000000,4.000000,4.000000,4.000000,4.000000,4.000000,4.000000,100.000000,,,,,,,,,,,,,,,,
1645708198.311985,9.000000,0.000000,4196.410156,4183.846191,4202.436035,4189.358887,4196.794922,4198.974121,4197.179688,4199.102539,4209.358887,4197.051270,4204.487305,4168.461426,4205.512695,4204.230957,3403.000000,4.000000,91.000000,,,,0.000000,4.000000,4.000000,4.000000,4.000000,4.000000,4.000000,4.000000,4.000000,4.000000,4.000000,4.000000,4.000000,4.000000,4.000000,100.000000,,,,,,,,,,,,,,,,
1645708198.315925,10.000000,0.000000,4194.358887,4181.794922,4200.512695,4186.538574,4192.692383,4199.230957,4197.436035,4197.948730,4208.205078,4196.794922,4203.077148,4168.205078,4205.384766,4206.025879,2627.000000,4.000000,91.000000,,,,0.000000,4.000000,4.000000,4.000000,4.000000,4.000000,4.000000,4.000000,4.000000,4.000000,4.000000,4.000000,4.000000,4.000000,4.000000,100.000000,,,,,,,,,,,,,,,,
1645708198.319865,11.000000,0.000000,4191.025879,4179.102539,4196.153809,4181.794922,4184.358887,4199.102539,4199.230957,4198.589844,4208.589844,4197.692383,4199.487305,4167.692383,4205.769043,4207.051270,3323.000000,4.000000,91.000000,,,,0.000000,4.000000,4.000000,4.000000,4.000000,4.000000,4.000000,4.000000,4.000000,4.000000,4.000000,4.000000,4.000000,4.000000,4.000000,100.000000,,,,,,,,,,,,,,,,
1645708198.323805,12.000000,0.000000,4187.563965,4177.692383,4192.051270,4177.820313,4178.077148,4198.974121,4202.307617,4200.769043,4210.256348,4198.717773,4196.153809,4166.410156,4206.410156,4206.153809,3386.000000,4.000000,91.000000,,,,0.000000,4.000000,4.000000,4.000000,4.000000,4.000000,4.000000,4.000000,4.000000,4.000000,4.000000,4.000000,4.000000,4.000000,4.000000,100.000000,,,,,,,,,,,,,,,,
1645708198.327845,13.000000,0.000000,4186.282227,4179.230957,4190.641113,4178.333496,4179.487305,4199.230957,4204.871582,4202.692383,4212.436035,4199.102539,4196.410156,4165.256348,4206.922852,4204.230957,3086.000000,4.000000,91.000000,,,,0.000000,4.000000,4.000000,4.000000,4.000000,4.000000,4.000000,4.000000,4.000000,4.000000,4.000000,4.000000,4.000000,4.000000,4.000000,100.000000,,,,,,,,,,,,,,,,
1645708198.331785,14.000000,0.000000,4189.102539,4183.974121,4192.179688,4185.000000,4188.205078,4199.487305,4204.871582,4202.820313,4214.230957,4198.461426,4200.897461,4165.769043,4207.051270,4202.948730,2627.000000,4.000000,91.000000,,,,0.000000,4.000000,4.000000,4.000000,4.000000,4.000000,4.000000,4.000000,4.000000,4.000000,4.000000,4.000000,4.000000,4.000000,4.000000,100.000000,,,,,,,,,,,,,,,,
1645708198.335725,15.000000,0.000000,4194.743652,4189.487305,4195.128418,4194.102539,4198.589844,4198.589844,4201.922852,4200.256348,4214.615234,4196.922852,4206.153809,4167.436035,4206.922852,4202.820313,3323.000000,4.000000,91.000000,,,,0.000000,4.000000,4.000000,4.000000,4.000000,4.000000,4.000000,4.000000,4.000000,4.000000,4.000000,4.000000,4.000000,4.000000,4.000000,100.000000,,,,,,,,,,,,,,,,
1645708198.339665,16.000000,0.000000,4199.743652,4192.563965,4198.077148,4199.743652,4204.358887,4196.538574,4197.563965,4196.025879,4213.461426,4195.512695,4207.436035,4168.205078,4205.897461,4202.820313,3386.000000,4.000000,91.000000,,,,0.000000,4.000000,4.000000,4.000000,4.000000,4.000000,4.000000,4.000000,4.000000,4.000000,4.000000,4.000000,4.000000,4.000000,4.000000,100.000000,,,,,,,,,,,,,,,,
1645708198.343606,17.000000,0.000000,4201.025879,4191.538574,4199.615234,4197.948730,4203.461426,4194.102539,4194.487305,4191.794922,4211.153809,4195.128418,4203.077148,4166.153809,4203.589844,4202.307617,3086.000000,4.000000,91.000000,,,,0.000000,4.000000,4.000000,4.000000,4.000000,4.000000,4.000000,4.000000,4.000000,4.000000,4.000000,4.000000,4.000000,4.000000,4.000000,100.000000,,,,,,,,,,,,,,,,
1645708198.347546,18.000000,0.000000,4198.589844,4188.205078,4199.743652,4191.153809,4198.717773,4193.205078,4194.102539,4188.717773,4208.333496,4195.641113,4195.641113,4160.897461,4200.384766,4201.153809,2627.000000,4.000000,91.000000,,,,0.000000,4.000000,4.000000,4.000000,4.000000,4.000000,4.000000,4.000000,4.000000,4.000000,4.000000,4.000000,4.000000,4.000000,4.000000,100.000000,,,,,,,,,,,,,,,,
1645708198.351386,19.000000,0.000000,4194.743652,4185.641113,4198.846191,4185.769043,4194.487305,4194.102539,4196.153809,4186.666504,4206.025879,4195.128418,4189.871582,4154.487305,4197.563965,4200.256348,3323.000000,4.000000,91.000000,,,,0.000000,4.000000,4.000000,4.000000,4.000000,4.000000,4.000000,4.000000,4.000000,4.000000,4.000000,4.000000,4.000000,4.000000,4.000000,100.000000,,,,,,,,,,,,,,,,
1645708198.355326,20.000000,0.000000,4192.307617,4186.282227,4197.436035,4186.025879,4193.717773,4195.641113,4198.205078,4184.615234,4204.102539,4191.538574,4188.333496,4150.256348,4196.282227,4200.641113,3386.000000,4.000000,91.000000,,,,0.000000,4.000000,4.000000,4.000000,4.000000,4.000000,4.000000,4.000000,4.000000,4.000000,4.000000,4.000000,4.000000,4.000000,4.000000,100.000000,,,,,,,,,,,,,,,,
1645708198.359266,21.000000,0.000000,4192.436035,4189.487305,4196.153809,4191.538574,4195.769043,4196.282227,4197.948730,4181.794922,4202.436035,4185.384766,4190.128418,4150.000000,4195.897461,4202.436035,3086.000000,4.000000,91.000000,,,,0.000000,4.000000,4.000000,4.000000,4.000000,4.000000,4.000000,4.000000,4.000000,4.000000,4.000000,4.000000,4.000000,4.000000,4.000000,100.000000,,,,,,,,,,,,,,,,
1645708198.363206,22.000000,0.000000,4194.487305,4192.948730,4195.384766,4197.307617,4197.436035,4195.769043,4194.743652,4178.846191,4200.641113,4179.743652,4191.922852,4152.692383,4195.256348,4204.743652,2627.000000,4.000000,91.000000,,,,0.000000,4.000000,4.000000,4.000000,4.000000,4.000000,4.000000,4.000000,4.000000,4.000000,4.000000,4.000000,4.000000,4.000000,4.000000,100.000000,,,,,,,,,,,,,,,,
1645708198.367146,23.000000,0.000000,4196.282227,4194.743652,4195.384766,4197.948730,4196.153809,4194.871582,4190.641113,4177.436035,4199.615234,4178.205078,4191.794922,4155.128418,4194.743652,4205.897461,3323.000000,4.000000,91.000000,,,,0.000000,4.000000,4.000000,4.000000,4.000000,4.000000,4.000000,4.000000,4.000000,4.000000,4.000000,4.000000,4.000000,4.000000,4.000000,100.000000,,,,,,,,,,,,,,,,
1645708198.371086,24.000000,0.000000,4195.897461,4193.589844,4196.153809,4192.820313,4192.179688,4194.230957,4188.077148,4178.205078,4200.256348,4182.307617,4190.000000,4155.128418,4195.384766,4205.384766,3386.000000,4.000000,91.000000,,,,0.000000,4.000000,4.000000,4.000000,4.000000,4.000000,4.000000,4.000000,4.000000,4.000000,4.000000,4.000000,4.000000,4.000000,4.000000,100.000000,,,,,,,,,,,,,,,,
1645708198.374927,25.000000,0.000000,4193.717773,4190.256348,4197.436035,4186.666504,4188.205078,4193.717773,4189.102539,4181.025879,4202.436035,4190.000000,4188.461426,4152.563965,4197.948730,4203.717773,3086.000000,4.000000,91.000000,,,,0.000000,4.000000,4.000000,4.000000,4.000000,4.000000,4.000000,4.000000,4.000000,4.000000,4.000000,4.000000,4.000000,4.000000,4.000000,100.000000,,,,,,,,,,,,,,,,
1645708198.378867,26.000000,0.000000,4192.051270,4186.666504,4199.102539,4186.153809,4187.436035,4193.589844,4193.461426,4184.615234,4205.512695,4197.692383,4189.230957,4149.615234,4201.538574,4202.436035,2627.000000,4.000000,91.000000,,,,0.000000,4.000000,4.000000,4.000000,4.000000,4.000000,4.000000,4.000000,4.000000,4.000000,4.000000,4.000000,4.000000,4.000000,4.000000,100.000000,,,,,,,,,,,,,,,,
1645708198.382807,27.000000,0.000000,4193.461426,4185.512695,4200.641113,4192.820313,4190.897461,4194.487305,4198.974121,4187.563965,4208.589844,4202.563965,4192.436035,4148.974121,4204.743652,4202.307617,3323.000000,4.000000,91.000000,,,,0.000000,4.000000,4.000000,4.000000,4.000000,4.000000,4.000000,4.000000,4.000000,4.000000,4.000000,4.000000,4.000000,4.000000,4.000000,100.000000,,,,,,,,,,,,,,,,
1645708198.386747,28.000000,0.000000,4198.077148,4187.179688,4201.153809,4201.794922,4196.666504,4196.922852,4202.563965,4188.717773,4210.897461,4204.487305,4196.666504,4151.153809,4206.922852,4202.948730,3386.000000,4.000000,91.000000,,,,0.000000,4.000000,4.000000,4.000000,4.000000,4.000000,4.000000,4.000000,4.000000,4.000000,4.000000,4.000000,4.000000,4.000000,4.000000,100.000000,,,,,,,,,,,,,,,,
1645708198.390687,29.000000,0.000000,4203.205078,4189.871582,4201.153809,4205.769043,4201.410156,4200.384766,4203.077148,4187.948730,4211.922852,4204.871582,4200.000000,4155.128418,4208.461426,4204.358887,3086.000000,4.000000,91.000000,,,,0.000000,4.000000,4.000000,4.000000,4.000000,4.000000,4.000000,4.000000,4.000000,4.000000,4.000000,4.000000,4.000000,4.000000,4.000000,100.000000,,,,,,,,,,,,,,,,
1645708198.394527,30.000000,0.000000,4205.897461,4191.025879,4201.410156,4201.282227,4202.692383,4203.205078,4201.538574,4186.025879,4211.794922,4205.641113,4201.025879,4158.461426,4210.000000,4206.666504,2627.000000,4.000000,91.000000,,,,0.000000,4.000000,4.000000,4.000000,4.000000,4.000000,4.000000,4.000000,4.000000,4.000000,4.000000,4.000000,4.000000,4.000000,4.000000,100.000000,,,,,,,,,,,,,,,,
1645708198.398467,31.000000,0.000000,4205.000000,4189.102539,4202.051270,4191.666504,4200.256348,4203.717773,4200.128418,4185.000000,4211.410156,4206.794922,4199.871582,4159.102539,4211.282227,4209.487305,3323.000000,4.000000,91.000000,,,,0.000000,4.000000,4.000000,4.000000,4.000000,4.000000,4.000000,4.000000,4.000000,4.000000,4.000000,4.000000,4.000000,4.000000,4.000000,100.000000,,,,,,,,,,,,,,,,
1645708198.402407,32.000000,0.000000,4201.666504,4185.128418,4201.922852,4183.974121,4195.384766,4201.794922,4200.384766,4186.538574,4211.922852,4207.692383,4197.948730,4156.922852,4211.538574,4211.282227,0.000000,4.000000,91.000000,,,,0.000000,4.000000,4.000000,4.000000,4.000000,4.000000,4.000000,4.000000,4.000000,4.000000,4.000000,4.000000,4.000000,4.000000,4.000000,100.000000,,,,,,,,,,,,,,,,
1645708198.406348,33.000000,0.000000,4198.717773,4182.563965,4200.384766,4183.717773,4191.410156,4198.974121,4202.179688,4190.641113,4214.102539,4207.563965,4197.436035,4153.333496,4210.641113,4211.025879,0.000000,4.000000,91.000000,,,,0.000000,4.000000,4.000000,4.000000,4.000000,4.000000,4.000000,4.000000,4.000000,4.000000,4.000000,4.000000,4.000000,4.000000,4.000000,100.000000,,,,,,,,,,,,,,,,
1645708198.410288,34.000000,0.000000,4198.846191,4183.333496,4198.205078,4190.641113,4191.153809,4197.179688,4203.205078,4194.743652,4216.922852,4207.051270,4200.000000,4151.153809,4209.615234,4209.487305,0.000000,4.000000,91.000000,,,,0.000000,4.000000,4.000000,4.000000,4.000000,4.000000,4.000000,4.000000,4.000000,4.000000,4.000000,4.000000,4.000000,4.000000,4.000000,100.000000,,,,,,,,,,,,,,,,
1645708198.414228,35.000000,0.000000,4202.563965,4187.051270,4197.563965,4199.743652,4194.487305,4197.179688,4202.692383,4196.410156,4218.461426,4207.179688,4204.615234,4152.692383,4209.615234,4209.102539,0.000000,4.000000,91.000000,,,,0.000000,4.000000,4.000000,4.000000,4.000000,4.000000,4.000000,4.000000,4.000000,4.000000,4.000000,4.000000,4.000000,4.000000,4.000000,100.000000,,,,,,,,,,,,,,,,
1645708198.418168,36.000000,0.000000,4207.307617,4191.025879,4199.487305,4204.871582,4198.077148,4198.589844,4201.153809,4195.000000,4217.563965,4208.077148,4208.461426,4158.205078,4210.769043,4211.794922,0.000000,4.000000,91.000000,,,,0.000000,4.000000,4.000000,4.000000,4.000000,4.000000,4.000000,4.000000,4.000000,4.000000,4.000000,4.000000,4.000000,4.000000,4.000000,100.000000,,,,,,,,,,,,,,,,
1645708198.422108,37.000000,0.000000,4210.128418,4193.077148,4202.820313,4203.589844,4198.461426,4200.512695,4200.256348,4191.410156,4214.487305,4208.846191,4209.487305,4165.512695,4212.692383,4217.436035,0.000000,4.000000,91.000000,,,,0.000000,4.000000,4.000000,4.000000,4.000000,4.000000,4.000000,4.000000,4.000000,4.000000,4.000000,4.000000,4.000000,4.000000,4.000000,100.000000,,,,,,,,,,,,,,,,
1645708198.426048,38.000000,0.000000,4210.384766,4193.205078,4205.000000,4198.717773,4195.769043,4201.922852,4200.512695,4187.436035,4210.256348,4208.717773,4207.692383,4170.897461,4214.743652,4223.077148,0.000000,4.000000,91.000000,,,,0.000000,4.000000,4.000000,4.000000,4.000000,4.000000,4.000000,4.000000,4.000000,4.000000,4.000000,4.000000,4.000000,4.000000,4.000000,100.000000,,,,,,,,,,,,,,,,
1645708198.429988,39.000000,0.000000,4209.615234,4192.820313,4204.615234,4194.743652,4193.077148,4202.051270,4200.769043,4183.974121,4206.538574,4207.051270,4204.358887,4171.922852,4215.897461,4225.256348,0.000000,4.000000,91.000000,,,,0.000000,4.000000,4.000000,4.000000,4.000000,4.000000,4.000000,4.000000,4.000000,4.000000,4.000000,4.000000,4.000000,4.000000,4.000000,100.000000,,,,,,,,,,,,,,,,
1645708198.433928,40.000000,0.000000,4209.230957,4192.948730,4202.307617,4193.846191,4193.077148,4200.256348,4200.512695,4181.922852,4204.487305,4204.358887,4199.743652,4168.205078,4214.358887,4221.922852,0.000000,4.000000,91.000000,,,,0.000000,4.000000,4.000000,4.000000,4.000000,4.000000,4.000000,4.000000,4.000000,4.000000,4.000000,4.000000,4.000000,4.000000,4.000000,100.000000,,,,,,,,,,,,,,,,
1645708198.437868,41.000000,0.000000,4209.487305,4193.333496,4200.128418,4195.384766,4195.384766,4197.563965,4199.743652,4180.897461,4203.589844,4200.641113,4193.461426,4161.410156,4209.102539,4213.846191,0.000000,4.000000,91.000000,,,,0.000000,4.000000,4.000000,4.000000,4.000000,4.000000,4.000000,4.000000,4.000000,4.000000,4.000000,4.000000,4.000000,4.000000,4.000000,100.000000,,,,,,,,,,,,,,,,
1645708198.441809,42.000000,0.000000,4209.358887,4193.205078,4199.230957,4196.538574,4197.820313,4196.153809,4199.615234,4180.512695,4202.820313,4196.410156,4186.025879,4154.358887,4201.153809,4204.102539,0.000000,4.000000,91.000000,,,,0.000000,4.000000,4.000000,4.000000,4.000000,4.000000,4.000000,4.000000,4.000000,4.000000,4.000000,4.000000,4.000000,4.000000,4.000000,100.000000,,,,,,,,,,,,,,,,
1645708198.445649,43.000000,0.000000,4208.077148,4192.307617,4199.358887,4196.025879,4198.717773,4197.307617,4200.897461,4180.512695,4202.051270,4192.307617,4180.384766,4150.256348,4193.974121,4196.538574,0.000000,4.000000,91.000000,,,,0.000000,4.000000,4.000000,4.000000,4.000000,4.000000,4.000000,4.000000,4.000000,4.000000,4.000000,4.000000,4.000000,4.000000,4.000000,100.000000,,,,,,,,,,,,,,,,
1645708198.449589,44.000000,0.000000,4205.897461,4190.512695,4199.743652,4194.743652,4197.179688,4200.256348,4202.692383,4180.769043,4202.436035,4189.358887,4179.487305,4150.897461,4190.897461,4194.487305,0.000000,4.000000,91.000000,,,,0.000000,4.000000,4.000000,4.000000,4.000000,4.000000,4.000000,4.000000,4.000000,4.000000,4.000000,4.000000,4.000000,4.000000,4.000000,100.000000,,,,,,,,,,,,,,,,
1645708198.453529,45.000000,0.000000,4204.743652,4188.077148,4200.128418,4194.871582,4193.333496,4202.436035,4203.461426,4181.666504,4204.487305,4187.948730,4184.230957,4155.512695,4193.077148,4198.077148,0.000000,4.000000,91.000000,,,,0.000000,4.000000,4.000000,4.000000,4.000000,4.000000,4.000000,4.000000,4.000000,4.000000,4.000000,4.000000,4.000000,4.000000,4.000000,100.000000,,,,,,,,,,,,,,,,
