title:Alex-LUrscB_y-hk6hoFTD2kNIg, start timestamp:1645711887.659850, stop timestamp:1645711914.228081, headset type:EPOCPLUS, headset serial:3B9AEBFF, headset firmware:626, channels:55, sampling rate:eeg_256, samples:6744      , version:2.1, 
Timestamp,EEG.Counter,EEG.Interpolated,EEG.AF3,EEG.F7,EEG.F3,EEG.FC5,EEG.T7,EEG.P7,EEG.O1,EEG.O2,EEG.P8,EEG.T8,EEG.FC6,EEG.F4,EEG.F8,EEG.AF4,EEG.RawCq,EEG.Battery,EEG.BatteryPercent,MarkerIndex,MarkerType,MarkerValueInt,EEG.MarkerHardware,CQ.AF3,CQ.F7,CQ.F3,CQ.FC5,CQ.T7,CQ.P7,CQ.O1,CQ.O2,CQ.P8,CQ.T8,CQ.FC6,CQ.F4,CQ.F8,CQ.AF4,CQ.Overall,EQ.SampleRateQuality,EQ.OVERALL,EQ.AF3,EQ.F7,EQ.F3,EQ.FC5,EQ.T7,EQ.P7,EQ.O1,EQ.O2,EQ.P8,EQ.T8,EQ.FC6,EQ.F4,EQ.F8,EQ.AF4
1645711887.659850,191.000000,0.000000,4201.538574,4206.282227,4180.000000,4191.153809,4228.974121,4187.051270,4186.153809,4195.769043,4202.948730,4205.512695,4189.230957,4127.051270,4203.333496,4193.461426,2674.000000,4.000000,82.000000,,,,0.000000,4.000000,4.000000,4.000000,4.000000,4.000000,4.000000,4.000000,4.000000,4.000000,4.000000,4.000000,4.000000,4.000000,4.000000,100.000000,,,,,,,,,,,,,,,,
1645711887.663890,192.000000,0.000000,4215.384766,4198.461426,4181.666504,4186.153809,4215.256348,4176.794922,4182.307617,4189.487305,4197.820313,4191.282227,4181.538574,4126.794922,4201.794922,4204.358887,3234.000000,4.000000,82.000000,,,,0.000000,4.000000,4.000000,4.000000,4.000000,4.000000,4.000000,4.000000,4.000000,4.000000,4.000000,4.000000,4.000000,4.000000,4.000000,100.000000,,,,,,,,,,,,,,,,
1645711887.667830,193.000000,0.000000,4206.410156,4199.871582,4186.410156,4195.256348,4214.102539,4179.358887,4184.743652,4189.615234,4196.410156,4188.717773,4185.897461,4131.282227,4205.769043,4212.948730,3179.000000,4.000000,82.000000,,,,0.000000,4.000000,4.000000,4.000000,4.000000,4.000000,4.000000,4.000000,4.000000,4.000000,4.000000,4.000000,4.000000,4.000000,4.000000,100.000000,,,,,,,,,,,,,,,,
1645711887.671770,194.000000,0.000000,4185.641113,4209.487305,4190.512695,4209.871582,4223.717773,4191.025879,4188.846191,4195.000000,4198.974121,4199.102539,4199.230957,4136.666504,4212.179688,4212.563965,2308.000000,4.000000,82.000000,,,,0.000000,4.000000,4.000000,4.000000,4.000000,4.000000,4.000000,4.000000,4.000000,4.000000,4.000000,4.000000,4.000000,4.000000,4.000000,100.000000,,,,,,,,,,,,,,,,
1645711887.675710,195.000000,0.000000,4181.794922,4216.153809,4190.000000,4213.461426,4228.077148,4196.666504,4188.205078,4197.179688,4199.615234,4207.820313,4205.897461,4137.051270,4213.974121,4208.077148,2674.000000,4.000000,82.000000,,,,0.000000,4.000000,4.000000,4.000000,4.000000,4.000000,4.000000,4.000000,4.000000,4.000000,4.000000,4.000000,4.000000,4.000000,4.000000,100.000000,,,,,,,,,,,,,,,,
1645711887.679650,196.000000,0.000000,4202.820313,4213.077148,4185.769043,4201.794922,4219.230957,4190.384766,4184.487305,4192.307617,4195.641113,4205.897461,4198.333496,4133.077148,4209.615234,4209.358887,3234.000000,4.000000,82.000000,,,,0.000000,4.000000,4.000000,4.000000,4.000000,4.000000,4.000000,4.000000,4.000000,4.000000,4.000000,4.000000,4.000000,4.000000,4.000000,100.000000,,,,,,,,,,,,,,,,
1645711887.683590,197.000000,0.000000,4224.358887,4206.025879,4183.077148,4188.974121,4208.589844,4182.179688,4185.000000,4186.666504,4191.794922,4200.897461,4187.051270,4131.666504,4205.897461,4217.563965,3179.000000,4.000000,82.000000,,,,0.000000,4.000000,4.000000,4.000000,4.000000,4.000000,4.000000,4.000000,4.000000,4.000000,4.000000,4.000000,4.000000,4.000000,4.000000,100.000000,,,,,,,,,,,,,,,,
1645711887.687531,198.000000,0.000000,4221.025879,4204.102539,4185.256348,4190.384766,4211.538574,4184.358887,4192.820313,4187.948730,4193.974121,4203.846191,4186.025879,4137.051270,4209.230957,4223.717773,2308.000000,4.000000,82.000000,,,,0.000000,4.000000,4.000000,4.000000,4.000000,4.000000,4.000000,4.000000,4.000000,4.000000,4.000000,4.000000,4.000000,4.000000,4.000000,100.000000,,,,,,,,,,,,,,,,
1645711887.691471,199.000000,0.000000,4199.102539,4207.051270,4188.846191,4204.358887,4225.641113,4194.230957,4200.897461,4194.102539,4201.025879,4211.794922,4194.871582,4143.974121,4217.051270,4220.128418,2674.000000,4.000000,82.000000,,,,0.000000,4.000000,4.000000,4.000000,4.000000,4.000000,4.000000,4.000000,4.000000,4.000000,4.000000,4.000000,4.000000,4.000000,4.000000,100.000000,,,,,,,,,,,,,,,,
1645711887.695411,200.000000,0.000000,4186.794922,4206.666504,4188.333496,4215.000000,4233.077148,4198.461426,4200.769043,4196.025879,4204.358887,4210.641113,4199.871582,4143.461426,4219.871582,4210.769043,3234.000000,4.000000,82.000000,,,,0.000000,4.000000,4.000000,4.000000,4.000000,4.000000,4.000000,4.000000,4.000000,4.000000,4.000000,4.000000,4.000000,4.000000,4.000000,100.000000,,,,,,,,,,,,,,,,
1645711887.699351,201.000000,0.000000,4197.436035,4199.615234,4183.077148,4211.794922,4223.974121,4191.282227,4193.077148,4189.230957,4199.102539,4196.025879,4193.846191,4134.102539,4213.205078,4206.153809,3179.000000,4.000000,82.000000,,,,0.000000,4.000000,4.000000,4.000000,4.000000,4.000000,4.000000,4.000000,4.000000,4.000000,4.000000,4.000000,4.000000,4.000000,4.000000,100.000000,,,,,,,,,,,,,,,,
1645711887.703291,202.000000,0.000000,4212.179688,4193.974121,4179.102539,4201.794922,4210.384766,4183.077148,4187.436035,4181.538574,4190.641113,4183.333496,4186.153809,4125.384766,4203.717773,4209.358887,2308.000000,4.000000,82.000000,,,,0.000000,4.000000,4.000000,4.000000,4.000000,4.000000,4.000000,4.000000,4.000000,4.000000,4.000000,4.000000,4.000000,4.000000,4.000000,100.000000,,,,,,,,,,,,,,,,
1645711887.707231,203.000000,0.000000,4207.307617,4198.205078,4181.282227,4199.230957,4211.410156,4186.794922,4190.512695,4182.820313,4188.717773,4190.769043,4190.000000,4126.025879,4201.794922,4212.948730,2674.000000,4.000000,82.000000,,,,0.000000,4.000000,4.000000,4.000000,4.000000,4.000000,4.000000,4.000000,4.000000,4.000000,4.000000,4.000000,4.000000,4.000000,4.000000,100.000000,,,,,,,,,,,,,,,,
1645711887.711171,204.000000,0.000000,4187.051270,4209.102539,4187.948730,4206.410156,4227.563965,4199.743652,4197.692383,4193.077148,4195.641113,4214.615234,4203.333496,4134.743652,4209.743652,4209.358887,3234.000000,4.000000,82.000000,,,,0.000000,4.000000,4.000000,4.000000,4.000000,4.000000,4.000000,4.000000,4.000000,4.000000,4.000000,4.000000,4.000000,4.000000,4.000000,100.000000,,,,,,,,,,,,,,,,
1645711887.715111,205.000000,0.000000,4178.077148,4213.461426,4192.179688,4211.922852,4238.974121,4206.538574,4199.743652,4201.538574,4203.589844,4230.641113,4210.000000,4141.025879,4218.717773,4201.666504,3179.000000,4.000000,82.000000,,,,0.000000,4.000000,4.000000,4.000000,4.000000,4.000000,4.000000,4.000000,4.000000,4.000000,4.000000,4.000000,4.000000,4.000000,4.000000,100.000000,,,,,,,,,,,,,,,,
1645711887.719051,206.000000,0.000000,4192.820313,4204.615234,4190.128418,4206.538574,4229.743652,4198.589844,4194.358887,4200.256348,4204.743652,4222.051270,4200.641113,4137.692383,4219.102539,4200.256348,2308.000000,4.000000,82.000000,,,,0.000000,4.000000,4.000000,4.000000,4.000000,4.000000,4.000000,4.000000,4.000000,4.000000,4.000000,4.000000,4.000000,4.000000,4.000000,100.000000,,,,,,,,,,,,,,,,
1645711887.722992,207.000000,0.000000,4212.179688,4191.153809,4184.743652,4195.384766,4207.820313,4185.128418,4188.717773,4193.461426,4200.000000,4198.974121,4185.128418,4127.820313,4211.794922,4208.077148,2674.000000,4.000000,82.000000,,,,0.000000,4.000000,4.000000,4.000000,4.000000,4.000000,4.000000,4.000000,4.000000,4.000000,4.000000,4.000000,4.000000,4.000000,4.000000,100.000000,,,,,,,,,,,,,,,,
1645711887.726932,208.000000,0.000000,4210.512695,4186.922852,4181.282227,4190.000000,4193.589844,4181.410156,4189.230957,4191.538574,4196.282227,4186.025879,4180.512695,4120.256348,4204.615234,4215.512695,3234.000000,4.000000,82.000000,,,,0.000000,4.000000,4.000000,4.000000,4.000000,4.000000,4.000000,4.000000,4.000000,4.000000,4.000000,4.000000,4.000000,4.000000,4.000000,100.000000,,,,,,,,,,,,,,,,
1645711887.730872,209.000000,0.000000,4189.743652,4194.487305,4181.282227,4193.077148,4195.256348,4189.102539,4193.589844,4196.794922,4197.051270,4192.436035,4188.846191,4118.589844,4202.820313,4211.794922,3179.000000,4.000000,82.000000,,,,0.000000,4.000000,4.000000,4.000000,4.000000,4.000000,4.000000,4.000000,4.000000,4.000000,4.000000,4.000000,4.000000,4.000000,4.000000,100.000000,,,,,,,,,,,,,,,,
1645711887.734812,210.000000,0.000000,4177.051270,4202.692383,4181.538574,4195.769043,4201.666504,4195.897461,4194.615234,4200.897461,4198.461426,4203.461426,4195.512695,4119.487305,4203.589844,4199.102539,2308.000000,4.000000,82.000000,,,,0.000000,4.000000,4.000000,4.000000,4.000000,4.000000,4.000000,4.000000,4.000000,4.000000,4.000000,4.000000,4.000000,4.000000,4.000000,100.000000,,,,,,,,,,,,,,,,
1645711887.738852,211.000000,0.000000,4188.077148,4201.922852,4180.000000,4192.051270,4201.538574,4192.948730,4190.641113,4196.666504,4196.153809,4201.153809,4188.974121,4118.974121,4202.563965,4189.743652,2674.000000,4.000000,82.000000,,,,0.000000,4.000000,4.000000,4.000000,4.000000,4.000000,4.000000,4.000000,4.000000,4.000000,4.000000,4.000000,4.000000,4.000000,4.000000,100.000000,,,,,,,,,,,,,,,,
1645711887.742792,212.000000,0.000000,4205.897461,4195.769043,4178.077148,4188.205078,4199.102539,4186.538574,4187.436035,4187.692383,4192.307617,4186.922852,4175.897461,4118.589844,4200.384766,4192.436035,3234.000000,4.000000,82.000000,,,,0.000000,4.000000,4.000000,4.000000,4.000000,4.000000,4.000000,4.000000,4.000000,4.000000,4.000000,4.000000,4.000000,4.000000,4.000000,100.000000,,,,,,,,,,,,,,,,
1645711887.746732,213.000000,0.000000,4204.358887,4195.384766,4178.846191,4194.230957,4206.153809,4188.717773,4190.128418,4183.974121,4192.820313,4178.461426,4172.179688,4122.051270,4201.410156,4202.436035,3179.000000,4.000000,82.000000,,,,0.000000,4.000000,4.000000,4.000000,4.000000,4.000000,4.000000,4.000000,4.000000,4.000000,4.000000,4.000000,4.000000,4.000000,4.000000,100.000000,,,,,,,,,,,,,,,,
1645711887.750672,214.000000,0.000000,4184.230957,4203.333496,4182.051270,4208.974121,4222.179688,4199.871582,4196.410156,4188.461426,4198.589844,4185.512695,4182.051270,4128.589844,4206.410156,4209.358887,2308.000000,4.000000,82.000000,,,,0.000000,4.000000,4.000000,4.000000,4.000000,4.000000,4.000000,4.000000,4.000000,4.000000,4.000000,4.000000,4.000000,4.000000,4.000000,100.000000,,,,,,,,,,,,,,,,
1645711887.754612,215.000000,0.000000,4172.948730,4210.384766,4184.487305,4218.461426,4231.794922,4207.179688,4198.717773,4193.461426,4203.205078,4198.461426,4192.948730,4132.948730,4210.641113,4210.769043,2674.000000,4.000000,82.000000,,,,0.000000,4.000000,4.000000,4.000000,4.000000,4.000000,4.000000,4.000000,4.000000,4.000000,4.000000,4.000000,4.000000,4.000000,4.000000,100.000000,,,,,,,,,,,,,,,,
1645711887.758552,216.000000,0.000000,4188.205078,4207.820313,4185.000000,4212.820313,4223.974121,4202.051270,4194.743652,4191.410156,4201.153809,4202.820313,4193.077148,4132.179688,4210.384766,4212.051270,3234.000000,4.000000,82.000000,,,,0.000000,4.000000,4.000000,4.000000,4.000000,4.000000,4.000000,4.000000,4.000000,4.000000,4.000000,4.000000,4.000000,4.000000,4.000000,100.000000,,,,,,,,,,,,,,,,
1645711887.762492,217.000000,0.000000,4213.846191,4199.487305,4185.769043,4199.230957,4208.974121,4191.282227,4190.256348,4185.000000,4195.128418,4197.948730,4186.153809,4130.256348,4208.589844,4216.410156,3179.000000,4.000000,82.000000,,,,0.000000,4.000000,4.000000,4.000000,4.000000,4.000000,4.000000,4.000000,4.000000,4.000000,4.000000,4.000000,4.000000,4.000000,4.000000,100.000000,,,,,,,,,,,,,,,,
1645711887.766433,218.000000,0.000000,4219.487305,4196.922852,4189.230957,4193.333496,4206.025879,4189.230957,4191.410156,4183.461426,4192.948730,4196.025879,4185.384766,4132.436035,4210.512695,4217.948730,2308.000000,4.000000,82.000000,,,,0.000000,4.000000,4.000000,4.000000,4.000000,4.000000,4.000000,4.000000,4.000000,4.000000,4.000000,4.000000,4.000000,4.000000,4.000000,100.000000,,,,,,,,,,,,,,,,
1645711887.770373,219.000000,0.000000,4199.615234,4203.461426,4192.820313,4199.871582,4218.974121,4198.461426,4196.794922,4189.615234,4196.794922,4202.692383,4194.487305,4137.307617,4216.282227,4210.512695,2674.000000,4.000000,82.000000,,,,0.000000,4.000000,4.000000,4.000000,4.000000,4.000000,4.000000,4.000000,4.000000,4.000000,4.000000,4.000000,4.000000,4.000000,4.000000,100.000000,,,,,,,,,,,,,,,,
1645711887.774313,220.000000,0.000000,4179.487305,4209.615234,4192.051270,4207.563965,4230.769043,4206.794922,4199.487305,4195.897461,4201.025879,4208.589844,4201.666504,4138.205078,4218.974121,4198.846191,3234.000000,4.000000,82.000000,,,,0.000000,4.000000,4.000000,4.000000,4.000000,4.000000,4.000000,4.000000,4.000000,4.000000,4.000000,4.000000,4.000000,4.000000,4.000000,100.000000,,,,,,,,,,,,,,,,
1645711887.778253,221.000000,0.000000,4182.307617,4206.922852,4185.897461,4203.974121,4225.769043,4203.717773,4196.538574,4194.487305,4199.230957,4203.205078,4195.897461,4131.410156,4213.205078,4195.641113,3179.000000,4.000000,82.000000,,,,0.000000,4.000000,4.000000,4.000000,4.000000,4.000000,4.000000,4.000000,4.000000,4.000000,4.000000,4.000000,4.000000,4.000000,4.000000,100.000000,,,,,,,,,,,,,,,,
1645711887.782193,222.000000,0.000000,4199.743652,4199.230957,4179.358887,4193.461426,4210.256348,4194.358887,4193.205078,4188.077148,4193.974121,4191.922852,4182.692383,4122.179688,4202.436035,4205.512695,2308.000000,4.000000,82.000000,,,,0.000000,4.000000,4.000000,4.000000,4.000000,4.000000,4.000000,4.000000,4.000000,4.000000,4.000000,4.000000,4.000000,4.000000,4.000000,100.000000,,,,,,,,,,,,,,,,
1645711887.786133,223.000000,0.000000,4206.153809,4198.717773,4177.948730,4190.641113,4204.230957,4191.922852,4195.641113,4186.794922,4193.077148,4190.128418,4177.563965,4119.358887,4196.410156,4217.820313,2674.000000,4.000000,82.000000,,,,0.000000,4.000000,4.000000,4.000000,4.000000,4.000000,4.000000,4.000000,4.000000,4.000000,4.000000,4.000000,4.000000,4.000000,4.000000,100.000000,,,,,,,,,,,,,,,,
1645711887.790073,224.000000,0.000000,4193.974121,4208.589844,4181.538574,4201.410156,4214.743652,4199.871582,4201.922852,4194.358887,4199.487305,4202.436035,4185.769043,4124.871582,4198.846191,4217.820313,3234.000000,4.000000,82.000000,,,,0.000000,4.000000,4.000000,4.000000,4.000000,4.000000,4.000000,4.000000,4.000000,4.000000,4.000000,4.000000,4.000000,4.000000,4.000000,100.000000,,,,,,,,,,,,,,,,
1645711887.794013,225.000000,0.000000,4183.333496,4217.563965,4184.615234,4214.358887,4226.794922,4207.051270,4204.615234,4202.436035,4206.282227,4213.333496,4195.000000,4132.051270,4204.487305,4203.846191,3179.000000,4.000000,82.000000,,,,0.000000,4.000000,4.000000,4.000000,4.000000,4.000000,4.000000,4.000000,4.000000,4.000000,4.000000,4.000000,4.000000,4.000000,4.000000,100.000000,,,,,,,,,,,,,,,,
1645711887.797953,226.000000,0.000000,4192.179688,4214.358887,4183.077148,4215.000000,4222.563965,4202.563965,4199.615234,4202.179688,4205.128418,4207.051270,4192.051270,4133.589844,4206.025879,4190.128418,2308.000000,4.000000,82.000000,,,,0.000000,4.000000,4.000000,4.000000,4.000000,4.000000,4.000000,4.000000,4.000000,4.000000,4.000000,4.000000,4.000000,4.000000,4.000000,100.000000,,,,,,,,,,,,,,,,
1645711887.801894,227.000000,0.000000,4210.256348,4202.563965,4179.615234,4204.487305,4205.128418,4191.794922,4192.436035,4195.256348,4197.436035,4188.333496,4181.410156,4130.641113,4204.230957,4190.256348,2674.000000,4.000000,82.000000,,,,0.000000,4.000000,4.000000,4.000000,4.000000,4.000000,4.000000,4.000000,4.000000,4.000000,4.000000,4.000000,4.000000,4.000000,4.000000,100.000000,,,,,,,,,,,,,,,,
1645711887.805834,228.000000,0.000000,4211.538574,4197.307617,4180.128418,4197.436035,4194.487305,4188.589844,4191.282227,4192.948730,4192.948730,4179.487305,4179.615234,4129.871582,4205.384766,4203.205078,3234.000000,4.000000,82.000000,,,,0.000000,4.000000,4.000000,4.000000,4.000000,4.000000,4.000000,4.000000,4.000000,4.000000,4.000000,4.000000,4.000000,4.000000,4.000000,100.000000,,,,,,,,,,,,,,,,
1645711887.809774,229.000000,0.000000,4191.410156,4206.025879,4186.153809,4203.077148,4201.410156,4197.563965,4196.666504,4200.512695,4198.333496,4192.563965,4193.333496,4134.615234,4212.051270,4216.666504,3179.000000,4.000000,82.000000,,,,0.000000,4.000000,4.000000,4.000000,4.000000,4.000000,4.000000,4.000000,4.000000,4.000000,4.000000,4.000000,4.000000,4.000000,4.000000,100.000000,,,,,,,,,,,,,,,,
1645711887.813814,230.000000,0.000000,4174.871582,4220.000000,4193.461426,4213.717773,4215.384766,4206.794922,4201.666504,4211.025879,4209.230957,4215.128418,4209.487305,4140.641113,4218.589844,4222.436035,2308.000000,4.000000,82.000000,,,,0.000000,4.000000,4.000000,4.000000,4.000000,4.000000,4.000000,4.000000,4.000000,4.000000,4.000000,4.000000,4.000000,4.000000,4.000000,100.000000,,,,,,,,,,,,,,,,
1645711887.817754,231.000000,0.000000,4185.512695,4225.641113,4196.666504,4216.153809,4219.230957,4204.230957,4200.384766,4213.717773,4216.025879,4225.128418,4211.282227,4142.179688,4217.948730,4223.077148,2674.000000,4.000000,82.000000,,,,0.000000,4.000000,4.000000,4.000000,4.000000,4.000000,4.000000,4.000000,4.000000,4.000000,4.000000,4.000000,4.000000,4.000000,4.000000,100.000000,,,,,,,,,,,,,,,,
1645711887.821694,232.000000,0.000000,4213.333496,4220.384766,4195.256348,4209.102539,4212.307617,4192.820313,4195.897461,4207.948730,4213.974121,4217.307617,4199.358887,4139.743652,4211.410156,4223.974121,3234.000000,4.000000,82.000000,,,,0.000000,4.000000,4.000000,4.000000,4.000000,4.000000,4.000000,4.000000,4.000000,4.000000,4.000000,4.000000,4.000000,4.000000,4.000000,100.000000,,,,,,,,,,,,,,,,
1645711887.825634,233.000000,0.000000,4226.153809,4214.230957,4193.077148,4203.333496,4209.358887,4186.922852,4195.128418,4202.436035,4207.948730,4206.410156,4190.384766,4138.205078,4207.179688,4223.333496,3179.000000,4.000000,82.000000,,,,0.000000,4.000000,4.000000,4.000000,4.000000,4.000000,4.000000,4.000000,4.000000,4.000000,4.000000,4.000000,4.000000,4.000000,4.000000,100.000000,,,,,,,,,,,,,,,,
1645711887.829574,234.000000,0.000000,4210.641113,4214.358887,4191.922852,4206.025879,4218.077148,4193.333496,4199.487305,4202.692383,4204.102539,4206.538574,4195.512695,4139.102539,4210.769043,4215.641113,2308.000000,4.000000,82.000000,,,,0.000000,4.000000,4.000000,4.000000,4.000000,4.000000,4.000000,4.000000,4.000000,4.000000,4.000000,4.000000,4.000000,4.000000,4.000000,100.000000,1.000000,0.000000,0.000000,1.000000,1.000000,0.000000,0.000000,0.000000,1.000000,1.000000,3.000000,0.000000,0.000000,1.000000,1.000000,1.000000
1645711887.833514,235.000000,0.000000,4188.077148,4215.769043,4190.128418,4211.153809,4227.563965,4202.563965,4202.563965,4204.487305,4202.820313,4213.333496,4205.769043,4138.974121,4218.333496,4203.717773,2674.000000,4.000000,82.000000,,,,0.000000,4.000000,4.000000,4.000000,4.000000,4.000000,4.000000,4.000000,4.000000,4.000000,4.000000,4.000000,4.000000,4.000000,4.000000,100.000000,,,,,,,,,,,,,,,,
1645711887.837454,236.000000,0.000000,4186.538574,4210.384766,4187.051270,4209.358887,4222.820313,4202.051270,4199.743652,4200.641113,4200.512695,4212.179688,4205.384766,4134.487305,4221.666504,4198.589844,3234.000000,4.000000,82.000000,,,,0.000000,4.000000,4.000000,4.000000,4.000000,4.000000,4.000000,4.000000,4.000000,4.000000,4.000000,4.000000,4.000000,4.000000,4.000000,100.000000,,,,,,,,,,,,,,,,
1645711887.841394,237.000000,0.000000,4204.487305,4200.512695,4185.256348,4202.051270,4206.794922,4193.205078,4194.615234,4192.051270,4196.538574,4200.128418,4192.436035,4129.230957,4218.077148,4207.051270,3179.000000,4.000000,82.000000,,,,0.000000,4.000000,4.000000,4.000000,4.000000,4.000000,4.000000,4.000000,4.000000,4.000000,4.000000,4.000000,4.000000,4.000000,4.000000,100.000000,,,,,,,,,,,,,,,,
1645711887.845335,238.000000,0.000000,4214.871582,4197.179688,4188.077148,4200.384766,4198.846191,4189.358887,4194.358887,4187.692383,4195.512695,4190.128418,4181.538574,4129.743652,4212.563965,4221.282227,2308.000000,4.000000,82.000000,,,,0.000000,4.000000,4.000000,4.000000,4.000000,4.000000,4.000000,4.000000,4.000000,4.000000,4.000000,4.000000,4.000000,4.000000,4.000000,100.000000,,,,,,,,,,,,,,,,
1645711887.849275,239.000000,0.000000,4202.948730,4205.769043,4194.102539,4208.077148,4209.743652,4196.922852,4199.615234,4192.179688,4199.230957,4193.205078,4184.358887,4136.922852,4210.512695,4226.410156,2674.000000,4.000000,82.000000,,,,0.000000,4.000000,4.000000,4.000000,4.000000,4.000000,4.000000,4.000000,4.000000,4.000000,4.000000,4.000000,4.000000,4.000000,4.000000,100.000000,,,,,,,,,,,,,,,,
1645711887.853215,240.000000,0.000000,4185.512695,4216.922852,4196.922852,4215.128418,4226.410156,4206.153809,4203.077148,4199.230957,4203.077148,4203.333496,4194.358887,4143.333496,4210.512695,4216.922852,3234.000000,4.000000,82.000000,,,,0.000000,4.000000,4.000000,4.000000,4.000000,4.000000,4.000000,4.000000,4.000000,4.000000,4.000000,4.000000,4.000000,4.000000,4.000000,100.000000,,,,,,,,,,,,,,,,
1645711887.857155,241.000000,0.000000,4187.948730,4217.692383,4192.692383,4210.256348,4227.179688,4203.589844,4199.102539,4198.846191,4200.384766,4205.384766,4196.153809,4142.051270,4207.820313,4204.102539,3179.000000,4.000000,82.000000,,,,0.000000,4.000000,4.000000,4.000000,4.000000,4.000000,4.000000,4.000000,4.000000,4.000000,4.000000,4.000000,4.000000,4.000000,4.000000,100.000000,,,,,,,,,,,,,,,,
1645711887.861095,242.000000,0.000000,4208.205078,4207.307617,4184.871582,4197.051270,4208.846191,4190.512695,4191.282227,4190.641113,4192.179688,4195.384766,4186.794922,4134.358887,4202.051270,4201.666504,2308.000000,4.000000,82.000000,,,,0.000000,4.000000,4.000000,4.000000,4.000000,4.000000,4.000000,4.000000,4.000000,4.000000,4.000000,4.000000,4.000000,4.000000,4.000000,100.000000,,,,,,,,,,,,,,,,
1645711887.865035,243.000000,0.000000,4218.077148,4197.948730,4180.641113,4191.025879,4190.512695,4181.794922,4188.589844,4184.358887,4186.538574,4185.512695,4179.743652,4128.717773,4199.102539,4209.871582,2674.000000,4.000000,82.000000,,,,0.000000,4.000000,4.000000,4.000000,4.000000,4.000000,4.000000,4.000000,4.000000,4.000000,4.000000,4.000000,4.000000,4.000000,4.000000,100.000000,,,,,,,,,,,,,,,,
1645711887.868975,244.000000,0.000000,4201.538574,4199.230957,4182.820313,4199.871582,4190.128418,4186.922852,4193.077148,4186.666504,4189.102539,4186.538574,4185.897461,4129.487305,4202.563965,4216.538574,3234.000000,4.000000,82.000000,,,,0.000000,4.000000,4.000000,4.000000,4.000000,4.000000,4.000000,4.000000,4.000000,4.000000,4.000000,4.000000,4.000000,4.000000,4.000000,100.000000,,,,,,,,,,,,,,,,
1645711887.872915,245.000000,0.000000,4176.794922,4206.538574,4186.666504,4213.205078,4203.461426,4197.948730,4197.820313,4192.563965,4195.769043,4192.563965,4198.205078,4132.436035,4208.333496,4213.205078,3179.000000,4.000000,82.000000,,,,0.000000,4.000000,4.000000,4.000000,4.000000,4.000000,4.000000,4.000000,4.000000,4.000000,4.000000,4.000000,4.000000,4.000000,4.000000,100.000000,,,,,,,,,,,,,,,,
1645711887.876855,246.000000,0.000000,4173.717773,4208.461426,4186.666504,4215.641113,4211.666504,4200.256348,4195.897461,4192.692383,4198.077148,4190.769043,4200.641113,4130.512695,4209.102539,4205.000000,2308.000000,4.000000,82.000000,,,,0.000000,4.000000,4.000000,4.000000,4.000000,4.000000,4.000000,4.000000,4.000000,4.000000,4.000000,4.000000,4.000000,4.000000,4.000000,100.000000,,,,,,,,,,,,,,,,
1645711887.880796,247.000000,0.000000,4195.512695,4203.077148,4183.205078,4206.153809,4206.538574,4192.051270,4189.230957,4186.282227,4194.102539,4180.897461,4189.743652,4123.974121,4204.102539,4202.051270,2674.000000,4.000000,82.000000,,,,0.000000,4.000000,4.000000,4.000000,4.000000,4.000000,4.000000,4.000000,4.000000,4.000000,4.000000,4.000000,4.000000,4.000000,4.000000,100.000000,,,,,,,,,,,,,,,,
1645711887.884736,248.000000,0.000000,4214.871582,4199.615234,4182.051270,4199.487305,4198.974121,4186.025879,4186.922852,4183.077148,4191.538574,4178.205078,4178.974121,4120.512695,4200.769043,4206.282227,3234.000000,4.000000,82.000000,,,,0.000000,4.000000,4.000000,4.000000,4.000000,4.000000,4.000000,4.000000,4.000000,4.000000,4.000000,4.000000,4.000000,4.000000,4.000000,100.000000,,,,,,,,,,,,,,,,
1645711887.888776,249.000000,0.000000,4210.128418,4205.384766,4186.025879,4206.410156,4201.666504,4192.436035,4192.436035,4190.384766,4197.051270,4192.820313,4180.641113,4125.384766,4205.256348,4209.871582,3179.000000,4.000000,82.000000,,,,0.000000,4.000000,4.000000,4.000000,4.000000,4.000000,4.000000,4.000000,4.000000,4.000000,4.000000,4.000000,4.000000,4.000000,4.000000,100.000000,,,,,,,,,,,,,,,,
1645711887.892716,250.000000,0.000000,4192.051270,4214.358887,4190.897461,4219.358887,4210.384766,4204.743652,4199.487305,4202.692383,4206.794922,4213.461426,4190.000000,4135.128418,4214.487305,4206.922852,2308.000000,4.000000,82.000000,,,,0.000000,4.000000,4.000000,4.000000,4.000000,4.000000,4.000000,4.000000,4.000000,4.000000,4.000000,4.000000,4.000000,4.000000,4.000000,100.000000,,,,,,,,,,,,,,,,
1645711887.896656,251.000000,0.000000,4186.410156,4214.487305,4191.025879,4222.436035,4211.025879,4207.948730,4199.487305,4207.948730,4210.641113,4218.717773,4192.307617,4140.897461,4219.871582,4201.922852,2674.000000,4.000000,82.000000,,,,0.000000,4.000000,4.000000,4.000000,4.000000,4.000000,4.000000,4.000000,4.000000,4.000000,4.000000,4.000000,4.000000,4.000000,4.000000,100.000000,,,,,,,,,,,,,,,,
1645711887.900596,252.000000,0.000000,4198.333496,4203.846191,4186.282227,4212.692383,4201.153809,4198.333496,4192.820313,4201.922852,4203.846191,4203.461426,4183.974121,4139.358887,4217.307617,4202.948730,3234.000000,4.000000,82.000000,,,,0.000000,4.000000,4.000000,4.000000,4.000000,4.000000,4.000000,4.000000,4.000000,4.000000,4.000000,4.000000,4.000000,4.000000,4.000000,100.000000,,,,,,,,,,,,,,,,
1645711887.904536,253.000000,0.000000,4206.410156,4194.230957,4181.794922,4203.205078,4195.256348,4188.461426,4187.948730,4193.205078,4193.717773,4185.897461,4177.820313,4134.358887,4211.794922,4209.102539,3179.000000,4.000000,82.000000,,,,0.000000,4.000000,4.000000,4.000000,4.000000,4.000000,4.000000,4.000000,4.000000,4.000000,4.000000,4.000000,4.000000,4.000000,4.000000,100.000000,,,,,,,,,,,,,,,,
1645711887.908476,254.000000,0.000000,4194.358887,4196.794922,4181.666504,4205.641113,4205.256348,4190.128418,4189.102539,4191.538574,4190.128418,4185.769043,4185.512695,4131.282227,4210.128418,4211.282227,2308.000000,4.000000,82.000000,,,,0.000000,4.000000,4.000000,4.000000,4.000000,4.000000,4.000000,4.000000,4.000000,4.000000,4.000000,4.000000,4.000000,4.000000,4.000000,100.000000,,,,,,,,,,,,,,,,
1645711887.912416,255.000000,0.000000,4175.512695,4207.436035,4183.974121,4214.615234,4221.538574,4198.717773,4192.436035,4195.897461,4194.230957,4200.384766,4200.897461,4130.128418,4211.922852,4204.102539,112.000000,4.000000,82.000000,,,,0.000000,4.000000,4.000000,4.000000,4.000000,4.000000,4.000000,4.000000,4.000000,4.000000,4.000000,4.000000,4.000000,4.000000,4.000000,100.000000,,,,,,,,,,,,,,,,
1645711887.916356,0.000000,0.000000,4176.282227,4212.051270,4184.358887,4215.000000,4223.461426,4199.871582,4191.153809,4197.436035,4198.717773,4209.487305,4206.666504,4127.563965,4211.666504,4194.230957,3291.000000,4.000000,82.000000,,,,0.000000,4.000000,4.000000,4.000000,4.000000,4.000000,4.000000,4.000000,4.000000,4.000000,4.000000,4.000000,4.000000,4.000000,4.000000,100.000000,,,,,,,,,,,,,,,,
1645711887.920296,1.000000,0.000000,4199.615234,4204.743652,4182.179688,4202.307617,4205.512695,4189.102539,4186.282227,4192.179688,4197.692383,4201.282227,4196.794922,4123.717773,4207.051270,4192.820313,3468.000000,4.000000,82.000000,,,,0.000000,4.000000,4.000000,4.000000,4.000000,4.000000,4.000000,4.000000,4.000000,4.000000,4.000000,4.000000,4.000000,4.000000,4.000000,100.000000,,,,,,,,,,,,,,,,
1645711887.924237,2.000000,0.000000,4218.461426,4195.128418,4181.538574,4189.871582,4186.410156,4178.461426,4184.615234,4186.922852,4193.974121,4186.794922,4184.487305,4123.461426,4203.589844,4201.282227,2142.000000,4.000000,82.000000,,,,0.000000,4.000000,4.000000,4.000000,4.000000,4.000000,4.000000,4.000000,4.000000,4.000000,4.000000,4.000000,4.000000,4.000000,4.000000,100.000000,,,,,,,,,,,,,,,,
1645711887.928177,3.000000,0.000000,4210.384766,4195.256348,4185.512695,4192.563965,4186.538574,4180.512695,4188.974121,4189.230957,4193.846191,4184.871582,4184.487305,4128.717773,4206.922852,4209.358887,3294.000000,4.000000,82.000000,,,,0.000000,4.000000,4.000000,4.000000,4.000000,4.000000,4.000000,4.000000,4.000000,4.000000,4.000000,4.000000,4.000000,4.000000,4.000000,100.000000,,,,,,,,,,,,,,,,
1645711887.932117,4.000000,0.000000,4186.282227,4204.615234,4191.794922,4208.717773,4202.692383,4191.922852,4194.615234,4196.538574,4197.948730,4197.179688,4193.846191,4135.000000,4214.230957,4207.948730,3517.000000,4.000000,82.000000,,,,0.000000,4.000000,4.000000,4.000000,4.000000,4.000000,4.000000,4.000000,4.000000,4.000000,4.000000,4.000000,4.000000,4.000000,4.000000,100.000000,,,,,,,,,,,,,,,,
1645711887.936057,5.000000,0.000000,4177.179688,4210.897461,4195.641113,4221.794922,4213.333496,4198.205078,4194.871582,4199.102539,4200.384766,4207.307617,4196.410156,4135.000000,4216.794922,4200.384766,3114.000000,4.000000,82.000000,,,,0.000000,4.000000,4.000000,4.000000,4.000000,4.000000,4.000000,4.000000,4.000000,4.000000,4.000000,4.000000,4.000000,4.000000,4.000000,100.000000,,,,,,,,,,,,,,,,
1645711887.939997,6.000000,0.000000,4193.589844,4207.179688,4195.769043,4220.000000,4206.410156,4192.948730,4191.153809,4192.820313,4197.948730,4203.333496,4184.871582,4128.974121,4210.769043,4197.307617,3119.000000,4.000000,82.000000,,,,0.000000,4.000000,4.000000,4.000000,4.000000,4.000000,4.000000,4.000000,4.000000,4.000000,4.000000,4.000000,4.000000,4.000000,4.000000,100.000000,,,,,,,,,,,,,,,,
1645711887.943937,7.000000,0.000000,4213.589844,4200.256348,4195.384766,4208.974121,4194.230957,4185.897461,4190.512695,4185.897461,4194.487305,4193.077148,4171.666504,4125.000000,4202.051270,4201.922852,2862.000000,4.000000,82.000000,,,,0.000000,4.000000,4.000000,4.000000,4.000000,4.000000,4.000000,4.000000,4.000000,4.000000,4.000000,4.000000,4.000000,4.000000,4.000000,100.000000,,,,,,,,,,,,,,,,
1645711887.947877,8.000000,0.000000,4212.051270,4201.025879,4197.692383,4203.589844,4195.897461,4188.717773,4195.641113,4187.820313,4196.025879,4192.436035,4173.205078,4129.871582,4199.487305,4207.179688,1719.000000,4.000000,82.000000,1,1,1,0.000000,4.000000,4.000000,4.000000,4.000000,4.000000,4.000000,4.000000,4.000000,4.000000,4.000000,4.000000,4.000000,4.000000,4.000000,100.000000,,,,,,,,,,,,,,,,
1645711887.951917,9.000000,0.000000,4194.358887,4208.846191,4201.282227,4208.461426,4211.538574,4198.461426,4200.128418,4196.666504,4201.666504,4203.077148,4188.846191,4139.743652,4204.358887,4205.897461,3213.000000,4.000000,82.000000,,,,0.000000,4.000000,4.000000,4.000000,4.000000,4.000000,4.000000,4.000000,4.000000,4.000000,4.000000,4.000000,4.000000,4.000000,4.000000,100.000000,,,,,,,,,,,,,,,,
1645711887.955857,10.000000,0.000000,4187.051270,4213.717773,4203.077148,4214.615234,4221.410156,4201.282227,4196.666504,4201.410156,4204.358887,4210.256348,4201.666504,4144.487305,4209.615234,4201.922852,2318.000000,4.000000,82.000000,,,,0.000000,4.000000,4.000000,4.000000,4.000000,4.000000,4.000000,4.000000,4.000000,4.000000,4.000000,4.000000,4.000000,4.000000,4.000000,100.000000,,,,,,,,,,,,,,,,
1645711887.959797,11.000000,0.000000,4201.410156,4209.743652,4202.948730,4213.077148,4211.666504,4191.410156,4187.179688,4196.410156,4199.871582,4203.333496,4200.256348,4139.871582,4210.000000,4204.358887,2504.000000,4.000000,82.000000,,,,0.000000,4.000000,4.000000,4.000000,4.000000,4.000000,4.000000,4.000000,4.000000,4.000000,4.000000,4.000000,4.000000,4.000000,4.000000,100.000000,,,,,,,,,,,,,,,,
1645711887.963738,12.000000,0.000000,4217.563965,4204.102539,4204.615234,4207.179688,4192.692383,4180.256348,4182.563965,4188.846191,4192.948730,4190.641113,4192.436035,4132.563965,4208.333496,4214.871582,3246.000000,4.000000,82.000000,,,,0.000000,4.000000,4.000000,4.000000,4.000000,4.000000,4.000000,4.000000,4.000000,4.000000,4.000000,4.000000,4.000000,4.000000,4.000000,100.000000,,,,,,,,,,,,,,,,
1645711887.967678,13.000000,0.000000,4212.051270,4207.563965,4209.743652,4205.897461,4186.410156,4181.794922,4188.717773,4189.615234,4191.410156,4188.717773,4193.205078,4131.922852,4211.025879,4223.717773,3307.000000,4.000000,82.000000,,,,0.000000,4.000000,4.000000,4.000000,4.000000,4.000000,4.000000,4.000000,4.000000,4.000000,4.000000,4.000000,4.000000,4.000000,4.000000,100.000000,,,,,,,,,,,,,,,,
1645711887.971618,14.000000,0.000000,4190.000000,4219.358887,4214.230957,4210.769043,4198.846191,4195.128418,4199.230957,4199.487305,4196.922852,4200.641113,4204.358887,4138.974121,4218.205078,4221.922852,2318.000000,4.000000,82.000000,,,,0.000000,4.000000,4.000000,4.000000,4.000000,4.000000,4.000000,4.000000,4.000000,4.000000,4.000000,4.000000,4.000000,4.000000,4.000000,100.000000,,,,,,,,,,,,,,,,
1645711887.975558,15.000000,0.000000,4180.256348,4227.179688,4212.948730,4214.102539,4214.871582,4205.384766,4203.333496,4208.077148,4202.820313,4211.922852,4211.794922,4145.641113,4222.051270,4212.820313,2504.000000,4.000000,82.000000,,,,0.000000,4.000000,4.000000,4.000000,4.000000,4.000000,4.000000,4.000000,4.000000,4.000000,4.000000,4.000000,4.000000,4.000000,4.000000,100.000000,,,,,,,,,,,,,,,,
1645711887.979498,16.000000,0.000000,4197.436035,4222.692383,4206.282227,4211.282227,4218.717773,4203.589844,4198.846191,4207.307617,4203.589844,4210.512695,4204.487305,4145.384766,4217.179688,4207.436035,3246.000000,4.000000,82.000000,,,,0.000000,4.000000,4.000000,4.000000,4.000000,4.000000,4.000000,4.000000,4.000000,4.000000,4.000000,4.000000,4.000000,4.000000,4.000000,100.000000,,,,,,,,,,,,,,,,
1645711887.983438,17.000000,0.000000,4221.282227,4212.179688,4199.871582,4207.820313,4213.461426,4197.692383,4194.615234,4201.025879,4201.282227,4202.436035,4189.487305,4139.871582,4207.948730,4210.000000,3307.000000,4.000000,82.000000,,,,0.000000,4.000000,4.000000,4.000000,4.000000,4.000000,4.000000,4.000000,4.000000,4.000000,4.000000,4.000000,4.000000,4.000000,4.000000,100.000000,,,,,,,,,,,,,,,,
1645711887.987378,18.000000,0.000000,4222.948730,4208.077148,4198.333496,4210.641113,4211.538574,4199.615234,4197.820313,4199.102539,4201.922852,4202.307617,4182.307617,4135.384766,4204.102539,4212.307617,2318.000000,4.000000,82.000000,,,,0.000000,4.000000,4.000000,4.000000,4.000000,4.000000,4.000000,4.000000,4.000000,4.000000,4.000000,4.000000,4.000000,4.000000,4.000000,100.000000,,,,,,,,,,,,,,,,
1645711887.991318,19.000000,0.000000,4202.179688,4212.179688,4199.615234,4216.410156,4215.384766,4208.717773,4205.384766,4203.589844,4206.282227,4211.794922,4186.922852,4133.717773,4208.461426,4205.641113,2504.000000,4.000000,82.000000,,,,0.000000,4.000000,4.000000,4.000000,4.000000,4.000000,4.000000,4.000000,4.000000,4.000000,4.000000,4.000000,4.000000,4.000000,4.000000,100.000000,,,,,,,,,,,,,,,,
1645711887.995258,20.000000,0.000000,4186.153809,4214.615234,4198.461426,4214.230957,4213.589844,4211.538574,4207.436035,4206.794922,4208.333496,4216.282227,4192.179688,4130.512695,4213.974121,4193.077148,3246.000000,4.000000,82.000000,,,,0.000000,4.000000,4.000000,4.000000,4.000000,4.000000,4.000000,4.000000,4.000000,4.000000,4.000000,4.000000,4.000000,4.000000,4.000000,100.000000,,,,,,,,,,,,,,,,
1645711887.999198,21.000000,0.000000,4193.974121,4208.205078,4193.077148,4200.641113,4199.871582,4201.922852,4201.153809,4202.051270,4203.589844,4204.487305,4188.717773,4123.333496,4212.692383,4186.922852,3307.000000,4.000000,82.000000,,,,0.000000,4.000000,4.000000,4.000000,4.000000,4.000000,4.000000,4.000000,4.000000,4.000000,4.000000,4.000000,4.000000,4.000000,4.000000,100.000000,,,,,,,,,,,,,,,,
1645711888.003139,22.000000,0.000000,4211.282227,4199.230957,4187.692383,4187.307617,4186.282227,4190.512695,4193.846191,4193.846191,4196.025879,4186.538574,4182.051270,4115.769043,4205.641113,4192.820313,2318.000000,4.000000,82.000000,,,,0.000000,4.000000,4.000000,4.000000,4.000000,4.000000,4.000000,4.000000,4.000000,4.000000,4.000000,4.000000,4.000000,4.000000,4.000000,100.000000,,,,,,,,,,,,,,,,
1645711888.007079,23.000000,0.000000,4211.794922,4199.487305,4187.179688,4188.589844,4189.230957,4192.051270,4193.846191,4191.282227,4194.102539,4182.692383,4184.871582,4113.974121,4200.769043,4202.436035,2504.000000,4.000000,82.000000,,,,0.000000,4.000000,4.000000,4.000000,4.000000,4.000000,4.000000,4.000000,4.000000,4.000000,4.000000,4.000000,4.000000,4.000000,4.000000,100.000000,,,,,,,,,,,,,,,,
1645711888.011019,24.000000,0.000000,4193.205078,4210.128418,4190.897461,4203.333496,4207.692383,4205.769043,4199.871582,4196.794922,4200.000000,4197.948730,4197.307617,4118.333496,4202.436035,4204.487305,3246.000000,4.000000,82.000000,,,,0.000000,4.000000,4.000000,4.000000,4.000000,4.000000,4.000000,4.000000,4.000000,4.000000,4.000000,4.000000,4.000000,4.000000,4.000000,100.000000,,,,,,,,,,,,,,,,
1645711888.014959,25.000000,0.000000,4181.025879,4219.615234,4193.589844,4215.256348,4221.282227,4215.256348,4203.077148,4202.563965,4206.794922,4214.615234,4205.256348,4123.846191,4207.179688,4199.487305,3307.000000,4.000000,82.000000,,,,0.000000,4.000000,4.000000,4.000000,4.000000,4.000000,4.000000,4.000000,4.000000,4.000000,4.000000,4.000000,4.000000,4.000000,4.000000,100.000000,,,,,,,,,,,,,,,,
1645711888.018899,26.000000,0.000000,4193.077148,4218.333496,4192.436035,4212.307617,4214.743652,4208.717773,4199.230957,4201.153809,4207.051270,4213.974121,4198.077148,4126.922852,4209.230957,4197.307617,2318.000000,4.000000,82.000000,,,,0.000000,4.000000,4.000000,4.000000,4.000000,4.000000,4.000000,4.000000,4.000000,4.000000,4.000000,4.000000,4.000000,4.000000,4.000000,100.000000,,,,,,,,,,,,,,,,
1645711888.022939,27.000000,0.000000,4214.615234,4211.025879,4190.128418,4201.794922,4196.922852,4193.589844,4193.077148,4195.384766,4201.922852,4199.230957,4184.102539,4129.230957,4208.461426,4203.333496,2504.000000,4.000000,82.000000,,,,0.000000,4.000000,4.000000,4.000000,4.000000,4.000000,4.000000,4.000000,4.000000,4.000000,4.000000,4.000000,4.000000,4.000000,4.000000,100.000000,,,,,,,,,,,,,,,,
1645711888.026879,28.000000,0.000000,4217.692383,4210.256348,4190.897461,4200.641113,4189.358887,4186.922852,4191.025879,4193.589844,4198.846191,4190.256348,4180.641113,4133.717773,4209.102539,4210.384766,3246.000000,4.000000,82.000000,,,,0.000000,4.000000,4.000000,4.000000,4.000000,4.000000,4.000000,4.000000,4.000000,4.000000,4.000000,4.000000,4.000000,4.000000,4.000000,100.000000,,,,,,,,,,,,,,,,
1645711888.030819,29.000000,0.000000,4198.205078,4219.102539,4194.871582,4212.820313,4199.230957,4194.358887,4192.820313,4198.205078,4201.666504,4197.563965,4192.179688,4138.333496,4212.563965,4208.589844,3307.000000,4.000000,82.000000,,,,0.000000,4.000000,4.000000,4.000000,4.000000,4.000000,4.000000,4.000000,4.000000,4.000000,4.000000,4.000000,4.000000,4.000000,4.000000,100.000000,,,,,,,,,,,,,,,,
1645711888.034759,30.000000,0.000000,4182.051270,4226.922852,4197.820313,4223.717773,4210.769043,4203.846191,4192.563965,4201.666504,4205.769043,4209.358887,4204.102539,4137.820313,4214.358887,4199.615234,2318.000000,4.000000,82.000000,,,,0.000000,4.000000,4.000000,4.000000,4.000000,4.000000,4.000000,4.000000,4.000000,4.000000,4.000000,4.000000,4.000000,4.000000,4.000000,100.000000,,,,,,,,,,,,,,,,
1645711888.038699,31.000000,0.000000,4190.769043,4223.205078,4197.051270,4218.589844,4205.897461,4202.820313,4187.948730,4197.563965,4204.743652,4208.846191,4201.410156,4131.922852,4210.641113,4195.128418,2504.000000,4.000000,82.000000,,,,0.000000,4.000000,4.000000,4.000000,4.000000,4.000000,4.000000,4.000000,4.000000,4.000000,4.000000,4.000000,4.000000,4.000000,4.000000,100.000000,,,,,,,,,,,,,,,,
1645711888.042640,32.000000,0.000000,4212.692383,4211.025879,4195.384766,4201.153809,4187.820313,4193.461426,4184.615234,4189.102539,4199.487305,4196.538574,4188.589844,4127.436035,4204.743652,4201.794922,0.000000,4.000000,82.000000,,,,0.000000,4.000000,4.000000,4.000000,4.000000,4.000000,4.000000,4.000000,4.000000,4.000000,4.000000,4.000000,4.000000,4.000000,4.000000,100.000000,,,,,,,,,,,,,,,,
1645711888.046580,33.000000,0.000000,4219.487305,4203.846191,4197.436035,4189.102539,4176.922852,4189.230957,4188.077148,4186.153809,4197.051270,4189.102539,4183.205078,4131.666504,4204.487305,4211.922852,0.000000,4.000000,82.000000,,,,0.000000,4.000000,4.000000,4.000000,4.000000,4.000000,4.000000,4.000000,4.000000,4.000000,4.000000,4.000000,4.000000,4.000000,4.000000,100.000000,,,,,,,,,,,,,,,,
1645711888.050520,34.000000,0.000000,4203.461426,4207.692383,4202.820313,4192.436035,4183.589844,4195.256348,4195.512695,4192.179688,4200.512695,4196.410156,4192.820313,4141.922852,4211.666504,4212.820313,0.000000,4.000000,82.000000,,,,0.000000,4.000000,4.000000,4.000000,4.000000,4.000000,4.000000,4.000000,4.000000,4.000000,4.000000,4.000000,4.000000,4.000000,4.000000,100.000000,,,,,,,,,,,,,,,,
1645711888.054460,35.000000,0.000000,4187.692383,4215.256348,4206.794922,4203.717773,4196.410156,4201.922852,4198.461426,4199.615234,4204.358887,4208.077148,4205.512695,4147.948730,4218.077148,4202.692383,0.000000,4.000000,82.000000,,,,0.000000,4.000000,4.000000,4.000000,4.000000,4.000000,4.000000,4.000000,4.000000,4.000000,4.000000,4.000000,4.000000,4.000000,4.000000,100.000000,,,,,,,,,,,,,,,,
1645711888.058400,36.000000,0.000000,4193.846191,4215.897461,4205.512695,4209.230957,4198.589844,4198.717773,4192.948730,4199.358887,4202.179688,4208.205078,4205.384766,4143.333496,4215.769043,4193.205078,0.000000,4.000000,82.000000,,,,0.000000,4.000000,4.000000,4.000000,4.000000,4.000000,4.000000,4.000000,4.000000,4.000000,4.000000,4.000000,4.000000,4.000000,4.000000,100.000000,,,,,,,,,,,,,,,,
1645711888.062340,37.000000,0.000000,4212.436035,4210.769043,4201.025879,4206.666504,4190.512695,4189.358887,4185.769043,4192.563965,4195.384766,4196.922852,4193.333496,4133.461426,4207.179688,4194.102539,0.000000,4.000000,82.000000,,,,0.000000,4.000000,4.000000,4.000000,4.000000,4.000000,4.000000,4.000000,4.000000,4.000000,4.000000,4.000000,4.000000,4.000000,4.000000,100.000000,,,,,,,,,,,,,,,,
1645711888.066280,38.000000,0.000000,4215.769043,4210.000000,4198.205078,4205.000000,4188.589844,4187.692383,4185.256348,4188.717773,4192.051270,4189.871582,4186.282227,4129.102539,4201.922852,4201.666504,0.000000,4.000000,82.000000,,,,0.000000,4.000000,4.000000,4.000000,4.000000,4.000000,4.000000,4.000000,4.000000,4.000000,4.000000,4.000000,4.000000,4.000000,4.000000,100.000000,,,,,,,,,,,,,,,,
1645711888.070220,39.000000,0.000000,4196.025879,4218.205078,4199.102539,4209.230957,4200.897461,4198.077148,4191.282227,4192.948730,4196.538574,4197.051270,4194.102539,4134.102539,4205.256348,4204.615234,0.000000,4.000000,82.000000,,,,0.000000,4.000000,4.000000,4.000000,4.000000,4.000000,4.000000,4.000000,4.000000,4.000000,4.000000,4.000000,4.000000,4.000000,4.000000,100.000000,,,,,,,,,,,,,,,,
1645711888.074160,40.000000,0.000000,4177.307617,4226.794922,4200.512695,4213.589844,4214.871582,4209.230957,4195.641113,4199.230957,4203.717773,4209.358887,4207.179688,4141.410156,4211.282227,4199.743652,0.000000,4.000000,82.000000,,,,0.000000,4.000000,4.000000,4.000000,4.000000,4.000000,4.000000,4.000000,4.000000,4.000000,4.000000,4.000000,4.000000,4.000000,4.000000,100.000000,,,,,,,,,,,,,,,,
1645711888.078100,41.000000,0.000000,4183.974121,4225.512695,4199.487305,4209.487305,4213.205078,4207.692383,4192.692383,4198.846191,4205.256348,4211.025879,4209.358887,4142.436035,4211.410156,4195.384766,0.000000,4.000000,82.000000,,,,0.000000,4.000000,4.000000,4.000000,4.000000,4.000000,4.000000,4.000000,4.000000,4.000000,4.000000,4.000000,4.000000,4.000000,4.000000,100.000000,,,,,,,,,,,,,,,,
1645711888.082041,42.000000,0.000000,4207.948730,4215.641113,4196.794922,4199.743652,4196.025879,4195.512695,4186.922852,4192.051270,4200.000000,4201.025879,4199.230957,4137.307617,4204.871582,4199.615234,0.000000,4.000000,82.000000,,,,0.000000,4.000000,4.000000,4.000000,4.000000,4.000000,4.000000,4.000000,4.000000,4.000000,4.000000,4.000000,4.000000,4.000000,4.000000,100.000000,,,,,,,,,,,,,,,,
1645711888.085981,43.000000,0.000000,4219.102539,4208.974121,4196.666504,4195.769043,4181.282227,4187.307617,4185.769043,4187.948730,4195.384766,4193.589844,4190.512695,4133.974121,4199.102539,4208.589844,0.000000,4.000000,82.000000,,,,0.000000,4.000000,4.000000,4.000000,4.000000,4.000000,4.000000,4.000000,4.000000,4.000000,4.000000,4.000000,4.000000,4.000000,4.000000,100.000000,,,,,,,,,,,,,,,,
1645711888.090021,44.000000,0.000000,4204.615234,4212.307617,4199.871582,4202.563965,4181.410156,4190.641113,4189.871582,4191.922852,4197.563965,4198.205078,4193.589844,4137.051270,4200.000000,4211.025879,0.000000,4.000000,82.000000,,,,0.000000,4.000000,4.000000,4.000000,4.000000,4.000000,4.000000,4.000000,4.000000,4.000000,4.000000,4.000000,4.000000,4.000000,4.000000,100.000000,,,,,,,,,,,,,,,,
1645711888.093961,45.000000,0.000000,4184.871582,4218.589844,4202.692383,4210.641113,4187.820313,4197.692383,4192.307617,4198.205078,4203.205078,4205.641113,4200.769043,4142.179688,4204.615234,4202.948730,0.000000,4.000000,82.000000,,,,0.000000,4.000000,4.000000,4.000000,4.000000,4.000000,4.000000,4.000000,4.000000,4.000000,4.000000,4.000000,4.000000,4.000000,4.000000,100.000000,,,,,,,,,,,,,,,,
1645711888.097901,46.000000,0.000000,4185.512695,4216.794922,4200.641113,4208.205078,4184.871582,4196.153809,4188.589844,4196.922852,4204.102539,4200.000000,4197.179688,4140.897461,4205.256348,4192.563965,0.000000,4.000000,82.000000,,,,0.000000,4.000000,4.000000,4.000000,4.000000,4.000000,4.000000,4.000000,4.000000,4.000000,4.000000,4.000000,4.000000,4.000000,4.000000,100.000000,,,,,,,,,,,,,,,,
1645711888.101841,47.000000,0.000000,4202.820313,4207.179688,4194.743652,4197.436035,4172.820313,4187.307617,4183.461426,4187.820313,4197.948730,4181.410156,4181.153809,4131.794922,4199.743652,4189.871582,0.000000,4.000000,82.000000,,,,0.000000,4.000000,4.000000,4.000000,4.000000,4.000000,4.000000,4.000000,4.000000,4.000000,4.000000,4.000000,4.000000,4.000000,4.000000,100.000000,,,,,,,,,,,,,,,,
1645711888.105781,48.000000,0.000000,4209.230957,4201.153809,4189.615234,4191.922852,4168.205078,4184.358887,4185.128418,4180.512695,4191.410156,4167.307617,4167.692383,4121.538574,4194.358887,4192.948730,0.000000,4.000000,82.000000,,,,0.000000,4.000000,4.000000,4.000000,4.000000,4.000000,4.000000,4.000000,4.000000,4.000000,4.000000,4.000000,4.000000,4.000000,4.000000,100.000000,,,,,,,,,,,,,,,,
1645711888.109821,49.000000,0.000000,4191.538574,4205.897461,4187.820313,4198.846191,4180.769043,4193.846191,4194.487305,4182.436035,4191.153809,4170.512695,4168.333496,4116.153809,4193.974121,4192.307617,0.000000,4.000000,82.000000,,,,0.000000,4.000000,4.000000,4.000000,4.000000,4.000000,4.000000,4.000000,4.000000,4.000000,4.000000,4.000000,4.000000,4.000000,4.000000,100.000000,,,,,,,,,,,,,,,,
1645711888.113761,50.000000,0.000000,4169.615234,4214.358887,4187.436035,4208.333496,4198.205078,4206.153809,4202.820313,4188.974121,4195.000000,4182.820313,4177.692383,4114.871582,4196.025879,4184.487305,0.000000,4.000000,82.000000,,,,0.000000,4.000000,4.000000,4.000000,4.000000,4.000000,4.000000,4.000000,4.000000,4.000000,4.000000,4.000000,4.000000,4.000000,4.000000,100.000000,,,,,,,,,,,,,,,,
1645711888.117701,51.000000,0.000000,4171.025879,4214.358887,4185.641113,4206.282227,4200.128418,4206.922852,4202.820313,4190.256348,4196.282227,4186.153809,4181.666504,4113.846191,4194.358887,4177.820313,0.000000,4.000000,82.000000,,,,0.000000,4.000000,4.000000,4.000000,4.000000,4.000000,4.000000,4.000000,4.000000,4.000000,4.000000,4.000000,4.000000,4.000000,4.000000,100.000000,,,,,,,,,,,,,,,,
1645711888.121641,52.000000,0.000000,4194.358887,4205.000000,4183.717773,4193.205078,4184.358887,4196.153809,4196.282227,4184.743652,4192.436035,4177.307617,4177.051270,4112.948730,4188.717773,4181.410156,0.000000,4.000000,82.000000,,,,0.000000,4.000000,4.000000,4.000000,4.000000,4.000000,4.000000,4.000000,4.000000,4.000000,4.000000,4.000000,4.000000,4.000000,4.000000,100.000000,,,,,,,,,,,,,,,,
1645711888.125582,53.000000,0.000000,4210.256348,4198.461426,4184.743652,4184.615234,4169.487305,4187.948730,4191.538574,4180.641113,4189.487305,4171.922852,4175.769043,4116.025879,4186.410156,4192.563965,0.000000,4.000000,82.000000,,,,0.000000,4.000000,4.000000,4.000000,4.000000,4.000000,4.000000,4.000000,4.000000,4.000000,4.000000,4.000000,4.000000,4.000000,4.000000,100.000000,,,,,,,,,,,,,,,,
1645711888.129522,54.000000,0.000000,4199.871582,4204.102539,4188.846191,4191.410156,4170.256348,4191.410156,4192.179688,4184.743652,4192.563965,4182.948730,4185.769043,4123.333496,4192.307617,4200.000000,0.000000,4.000000,82.000000,,,,0.000000,4.000000,4.000000,4.000000,4.000000,4.000000,4.000000,4.000000,4.000000,4.000000,4.000000,4.000000,4.000000,4.000000,4.000000,100.000000,,,,,,,,,,,,,,,,
1645711888.133462,55.000000,0.000000,4178.589844,4215.769043,4191.538574,4204.615234,4179.871582,4199.358887,4193.205078,4191.538574,4198.846191,4202.436035,4198.846191,4128.717773,4202.179688,4198.205078,0.000000,4.000000,82.000000,,,,0.000000,4.000000,4.000000,4.000000,4.000000,4.000000,4.000000,4.000000,4.000000,4.000000,4.000000,4.000000,4.000000,4.000000,4.000000,100.000000,,,,,,,,,,,,,,,,
1645711888.137402,56.000000,0.000000,4175.384766,4219.743652,4189.487305,4206.794922,4180.641113,4198.974121,4189.615234,4191.153809,4201.025879,4210.641113,4200.256348,4126.153809,4207.563965,4194.230957,0.000000,4.000000,82.000000,,,,0.000000,4.000000,4.000000,4.000000,4.000000,4.000000,4.000000,4.000000,4.000000,4.000000,4.000000,4.000000,4.000000,4.000000,4.000000,100.000000,,,,,,,,,,,,,,,,
1645711888.141342,57.000000,0.000000,4194.743652,4212.692383,4185.128418,4193.589844,4169.358887,4190.256348,4184.871582,4183.205078,4196.538574,4201.538574,4189.615234,4118.717773,4205.769043,4197.692383,0.000000,4.000000,82.000000,,,,0.000000,4.000000,4.000000,4.000000,4.000000,4.000000,4.000000,4.000000,4.000000,4.000000,4.000000,4.000000,4.000000,4.000000,4.000000,100.000000,,,,,,,,,,,,,,,,
1645711888.145282,58.000000,0.000000,4211.922852,4205.256348,4184.230957,4180.128418,4162.692383,4186.538574,4186.666504,4178.589844,4192.051270,4190.512695,4183.077148,4115.769043,4202.948730,4207.179688,0.000000,4.000000,82.000000,2,1,1,0.000000,4.000000,4.000000,4.000000,4.000000,4.000000,4.000000,4.000000,4.000000,4.000000,4.000000,4.000000,4.000000,4.000000,4.000000,100.000000,,,,,,,,,,,,,,,,
1645711888.149222,59.000000,0.000000,4207.179688,4208.077148,4188.589844,4182.307617,4173.205078,4195.897461,4196.282227,4185.256348,4194.102539,4193.974121,4192.436035,4121.666504,4204.743652,4211.794922,0.000000,4.000000,82.000000,,,,0.000000,4.000000,4.000000,4.000000,4.000000,4.000000,4.000000,4.000000,4.000000,4.000000,4.000000,4.000000,4.000000,4.000000,4.000000,100.000000,,,,,,,,,,,,,,,,
1645711888.153162,60.000000,0.000000,4191.538574,4217.692383,4193.974121,4196.922852,4191.538574,4208.846191,4205.000000,4197.948730,4200.641113,4207.948730,4208.461426,4130.512695,4208.974121,4205.256348,0.000000,4.000000,82.000000,,,,0.000000,4.000000,4.000000,4.000000,4.000000,4.000000,4.000000,4.000000,4.000000,4.000000,4.000000,4.000000,4.000000,4.000000,4.000000,100.000000,,,,,,,,,,,,,,,,
1645711888.157102,61.000000,0.000000,4190.000000,4221.538574,4195.000000,4207.179688,4196.282227,4210.000000,4204.487305,4203.205078,4203.205078,4213.589844,4212.179688,4132.692383,4208.974121,4194.487305,0.000000,4.000000,82.000000,,,,0.000000,4.000000,4.000000,4.000000,4.000000,4.000000,4.000000,4.000000,4.000000,4.000000,4.000000,4.000000,4.000000,4.000000,4.000000,100.000000,,,,,,,,,,,,,,,,
1645711888.161043,62.000000,0.000000,4205.897461,4215.128418,4191.922852,4203.077148,4182.563965,4197.692383,4196.794922,4196.410156,4198.589844,4202.948730,4198.333496,4126.282227,4203.077148,4190.769043,0.000000,4.000000,82.000000,,,,0.000000,4.000000,4.000000,4.000000,4.000000,4.000000,4.000000,4.000000,4.000000,4.000000,4.000000,4.000000,4.000000,4.000000,4.000000,100.000000,,,,,,,,,,,,,,,,
1645711888.164983,63.000000,0.000000,4215.256348,4207.948730,4189.230957,4192.436035,4167.820313,4187.179688,4191.410156,4186.538574,4192.563965,4189.487305,4181.666504,4119.358887,4197.692383,4195.256348,0.000000,4.000000,82.000000,,,,0.000000,4.000000,4.000000,4.000000,4.000000,4.000000,4.000000,4.000000,4.000000,4.000000,4.000000,4.000000,4.000000,4.000000,4.000000,100.000000,,,,,,,,,,,,,,,,
1645711888.169023,64.000000,0.000000,4200.384766,4209.358887,4189.871582,4188.205078,4170.256348,4191.282227,4193.589844,4184.743652,4192.436035,4189.743652,4178.846191,4118.717773,4199.358887,4198.077148,0.000000,4.000000,82.000000,,,,0.000000,4.000000,4.000000,4.000000,4.000000,4.000000,4.000000,4.000000,4.000000,4.000000,4.000000,4.000000,4.000000,4.000000,4.000000,100.000000,,,,,,,,,,,,,,,,
1645711888.172963,65.000000,0.000000,4175.897461,4215.897461,4191.410156,4191.410156,4184.871582,4204.230957,4198.846191,4190.512695,4197.692383,4201.922852,4187.948730,4122.948730,4206.538574,4193.205078,0.000000,4.000000,82.000000,,,,0.000000,4.000000,4.000000,4.000000,4.000000,4.000000,4.000000,4.000000,4.000000,4.000000,4.000000,4.000000,4.000000,4.000000,4.000000,100.000000,,,,,,,,,,,,,,,,
1645711888.176903,66.000000,0.000000,4172.307617,4216.153809,4190.256348,4192.948730,4191.794922,4210.128418,4199.615234,4194.358887,4201.153809,4208.589844,4194.230957,4124.743652,4211.538574,4186.922852,0.000000,4.000000,82.000000,,,,0.000000,4.000000,4.000000,4.000000,4.000000,4.000000,4.000000,4.000000,4.000000,4.000000,4.000000,4.000000,4.000000,4.000000,4.000000,100.000000,,,,,,,,,,,,,,,,
1645711888.180843,67.000000,0.000000,4195.641113,4207.179688,4187.307617,4189.615234,4181.282227,4203.205078,4196.153809,4192.051270,4199.358887,4201.794922,4191.025879,4121.922852,4210.897461,4191.025879,0.000000,4.000000,82.000000,,,,0.000000,4.000000,4.000000,4.000000,4.000000,4.000000,4.000000,4.000000,4.000000,4.000000,4.000000,4.000000,4.000000,4.000000,4.000000,100.000000,,,,,,,,,,,,,,,,
1645711888.184883,68.000000,0.000000,4218.717773,4200.128418,4187.563965,4189.487305,4167.179688,4194.743652,4195.128418,4189.871582,4197.436035,4193.974121,4188.589844,4120.512695,4209.615234,4205.512695,0.000000,4.000000,82.000000,,,,0.000000,4.000000,4.000000,4.000000,4.000000,4.000000,4.000000,4.000000,4.000000,4.000000,4.000000,4.000000,4.000000,4.000000,4.000000,100.000000,,,,,,,,,,,,,,,,
1645711888.188823,69.000000,0.000000,4214.487305,4206.025879,4193.333496,4199.871582,4167.948730,4196.794922,4199.743652,4195.384766,4201.538574,4201.666504,4199.102539,4126.153809,4214.487305,4218.205078,0.000000,4.000000,82.000000,,,,0.000000,4.000000,4.000000,4.000000,4.000000,4.000000,4.000000,4.000000,4.000000,4.000000,4.000000,4.000000,4.000000,4.000000,4.000000,100.000000,,,,,,,,,,,,,,,,
1645711888.192763,70.000000,0.000000,4190.000000,4220.769043,4200.897461,4214.102539,4183.589844,4206.410156,4205.000000,4205.897461,4209.743652,4222.307617,4218.205078,4136.153809,4223.461426,4217.820313,0.000000,4.000000,82.000000,,,,0.000000,4.000000,4.000000,4.000000,4.000000,4.000000,4.000000,4.000000,4.000000,4.000000,4.000000,4.000000,4.000000,4.000000,4.000000,100.000000,,,,,,,,,,,,,,,,
1645711888.196703,71.000000,0.000000,4177.563965,4229.102539,4203.846191,4217.563965,4194.743652,4208.974121,4203.077148,4210.769043,4213.461426,4235.000000,4227.692383,4142.436035,4227.948730,4207.692383,0.000000,4.000000,82.000000,,,,0.000000,4.000000,4.000000,4.000000,4.000000,4.000000,4.000000,4.000000,4.000000,4.000000,4.000000,4.000000,4.000000,4.000000,4.000000,100.000000,,,,,,,,,,,,,,,,
1645711888.200643,72.000000,0.000000,4194.102539,4222.051270,4200.384766,4205.128418,4186.666504,4197.563965,4193.974121,4204.358887,4207.820313,4225.641113,4216.794922,4140.128418,4222.307617,4201.153809,0.000000,4.000000,82.000000,3,1,1,0.000000,4.000000,4.000000,4.000000,4.000000,4.000000,4.000000,4.000000,4.000000,4.000000,4.000000,4.000000,4.000000,4.000000,4.000000,100.000000,,,,,,,,,,,,,,,,
1645711888.204583,73.000000,0.000000,4219.102539,4207.948730,4195.897461,4188.717773,4167.436035,4183.205078,4186.794922,4193.717773,4198.461426,4204.487305,4195.897461,4133.717773,4211.025879,4205.000000,0.000000,4.000000,82.000000,,,,0.000000,4.000000,4.000000,4.000000,4.000000,4.000000,4.000000,4.000000,4.000000,4.000000,4.000000,4.000000,4.000000,4.000000,4.000000,100.000000,,,,,,,,,,,,,,,,
1645711888.208524,74.000000,0.000000,4219.871582,4202.563965,4195.384766,4184.871582,4157.948730,4182.179688,4189.102539,4190.128418,4195.256348,4194.743652,4185.000000,4130.641113,4203.589844,4211.922852,0.000000,4.000000,82.000000,,,,0.000000,4.000000,4.000000,4.000000,4.000000,4.000000,4.000000,4.000000,4.000000,4.000000,4.000000,4.000000,4.000000,4.000000,4.000000,100.000000,,,,,,,,,,,,,,,,
1645711888.212464,75.000000,0.000000,4190.769043,4211.794922,4198.846191,4196.025879,4167.307617,4197.051270,4198.205078,4196.282227,4201.410156,4205.384766,4191.922852,4132.820313,4204.487305,4209.487305,0.000000,4.000000,82.000000,,,,0.000000,4.000000,4.000000,4.000000,4.000000,4.000000,4.000000,4.000000,4.000000,4.000000,4.000000,4.000000,4.000000,4.000000,4.000000,100.000000,,,,,,,,,,,,,,,,
1645711888.216404,76.000000,0.000000,4162.436035,4225.384766,4201.282227,4208.333496,4182.692383,4212.948730,4204.230957,4203.205078,4209.487305,4221.794922,4204.487305,4135.384766,4209.358887,4196.538574,0.000000,4.000000,82.000000,,,,0.000000,4.000000,4.000000,4.000000,4.000000,4.000000,4.000000,4.000000,4.000000,4.000000,4.000000,4.000000,4.000000,4.000000,4.000000,100.000000,,,,,,,,,,,,,,,,
1645711888.220344,77.000000,0.000000,4168.333496,4229.358887,4199.871582,4207.563965,4185.256348,4213.974121,4201.538574,4200.512695,4209.487305,4222.051270,4206.410156,4133.205078,4211.410156,4186.153809,0.000000,4.000000,82.000000,,,,0.000000,4.000000,4.000000,4.000000,4.000000,4.000000,4.000000,4.000000,4.000000,4.000000,4.000000,4.000000,4.000000,4.000000,4.000000,100.000000,,,,,,,,,,,,,,,,
1645711888.224284,78.000000,0.000000,4209.615234,4220.512695,4197.307617,4193.974121,4171.538574,4199.615234,4193.589844,4188.333496,4199.487305,4200.897461,4194.358887,4127.307617,4208.846191,4192.307617,0.000000,4.000000,82.000000,,,,0.000000,4.000000,4.000000,4.000000,4.000000,4.000000,4.000000,4.000000,4.000000,4.000000,4.000000,4.000000,4.000000,4.000000,4.000000,100.000000,,,,,,,,,,,,,,,,
1645711888.228224,79.000000,0.000000,4257.051270,4206.794922,4197.820313,4179.615234,4154.358887,4182.948730,4188.205078,4176.282227,4186.666504,4172.820313,4178.974121,4122.179688,4205.384766,4215.256348,0.000000,4.000000,82.000000,,,,0.000000,4.000000,4.000000,4.000000,4.000000,4.000000,4.000000,4.000000,4.000000,4.000000,4.000000,4.000000,4.000000,4.000000,4.000000,100.000000,,,,,,,,,,,,,,,,
1645711888.232164,80.000000,0.000000,4282.179688,4196.922852,4201.410156,4172.948730,4145.384766,4174.743652,4188.589844,4172.436035,4178.589844,4155.641113,4170.256348,4119.743652,4203.461426,4241.666504,0.000000,4.000000,82.000000,,,,0.000000,4.000000,4.000000,4.000000,4.000000,4.000000,4.000000,4.000000,4.000000,4.000000,4.000000,4.000000,4.000000,4.000000,4.000000,100.000000,,,,,,,,,,,,,,,,
1645711888.236104,81.000000,0.000000,4279.358887,4192.436035,4203.846191,4172.820313,4144.743652,4175.000000,4191.794922,4176.153809,4177.307617,4154.615234,4168.846191,4118.205078,4201.666504,4256.538574,0.000000,4.000000,82.000000,,,,0.000000,4.000000,4.000000,4.000000,4.000000,4.000000,4.000000,4.000000,4.000000,4.000000,4.000000,4.000000,4.000000,4.000000,4.000000,100.000000,,,,,,,,,,,,,,,,
1645711888.240044,82.000000,0.000000,4258.974121,4191.282227,4202.307617,4173.846191,4146.410156,4177.820313,4194.358887,4182.051270,4180.000000,4164.102539,4170.000000,4116.410156,4197.563965,4254.871582,0.000000,4.000000,82.000000,,,,0.000000,4.000000,4.000000,4.000000,4.000000,4.000000,4.000000,4.000000,4.000000,4.000000,4.000000,4.000000,4.000000,4.000000,4.000000,100.000000,,,,,,,,,,,,,,,,
1645711888.243985,83.000000,0.000000,4231.922852,4193.846191,4197.948730,4175.641113,4149.358887,4181.282227,4195.769043,4186.538574,4184.358887,4177.051270,4172.307617,4116.025879,4192.436035,4240.769043,0.000000,4.000000,82.000000,,,,0.000000,4.000000,4.000000,4.000000,4.000000,4.000000,4.000000,4.000000,4.000000,4.000000,4.000000,4.000000,4.000000,4.000000,4.000000,100.000000,,,,,,,,,,,,,,,,
1645711888.248025,84.000000,0.000000,4208.589844,4200.256348,4194.230957,4179.615234,4154.615234,4185.256348,4196.025879,4188.717773,4188.717773,4187.051270,4176.538574,4117.948730,4189.871582,4223.333496,0.000000,4.000000,82.000000,,,,0.000000,4.000000,4.000000,4.000000,4.000000,4.000000,4.000000,4.000000,4.000000,4.000000,4.000000,4.000000,4.000000,4.000000,4.000000,100.000000,,,,,,,,,,,,,,,,
1645711888.251965,85.000000,0.000000,4202.436035,4205.128418,4191.410156,4182.307617,4157.307617,4186.025879,4192.948730,4186.666504,4190.256348,4186.410156,4178.333496,4119.487305,4190.000000,4212.692383,0.000000,4.000000,82.000000,,,,0.000000,4.000000,4.000000,4.000000,4.000000,4.000000,4.000000,4.000000,4.000000,4.000000,4.000000,4.000000,4.000000,4.000000,4.000000,100.000000,,,,,,,,,,,,,,,,
1645711888.255905,86.000000,0.000000,4220.256348,4201.410156,4188.077148,4177.436035,4149.615234,4178.974121,4185.769043,4179.230957,4186.153809,4170.384766,4171.538574,4116.794922,4189.615234,4215.897461,0.000000,4.000000,82.000000,,,,0.000000,4.000000,4.000000,4.000000,4.000000,4.000000,4.000000,4.000000,4.000000,4.000000,4.000000,4.000000,4.000000,4.000000,4.000000,100.000000,,,,,,,,,,,,,,,,
1645711888.259845,87.000000,0.000000,4245.512695,4190.641113,4184.230957,4166.153809,4135.512695,4168.205078,4179.358887,4170.128418,4178.589844,4148.077148,4158.205078,4110.769043,4187.436035,4230.769043,0.000000,4.000000,82.000000,,,,0.000000,4.000000,4.000000,4.000000,4.000000,4.000000,4.000000,4.000000,4.000000,4.000000,4.000000,4.000000,4.000000,4.000000,4.000000,100.000000,,,,,,,,,,,,,,,,
1645711888.263785,88.000000,0.000000,4242.820313,4186.666504,4184.102539,4161.538574,4133.717773,4168.333496,4181.922852,4169.487305,4176.153809,4142.563965,4153.717773,4108.205078,4187.436035,4242.692383,0.000000,4.000000,82.000000,,,,0.000000,4.000000,4.000000,4.000000,4.000000,4.000000,4.000000,4.000000,4.000000,4.000000,4.000000,4.000000,4.000000,4.000000,4.000000,100.000000,,,,,,,,,,,,,,,,
1645711888.267725,89.000000,0.000000,4193.589844,4201.025879,4189.871582,4175.128418,4160.256348,4189.102539,4195.769043,4183.846191,4186.282227,4169.871582,4171.025879,4114.871582,4194.102539,4233.589844,0.000000,4.000000,82.000000,,,,0.000000,4.000000,4.000000,4.000000,4.000000,4.000000,4.000000,4.000000,4.000000,4.000000,4.000000,4.000000,4.000000,4.000000,4.000000,100.000000,,,,,,,,,,,,,,,,
1645711888.271665,90.000000,0.000000,4123.717773,4227.692383,4198.077148,4202.179688,4205.128418,4221.025879,4211.666504,4207.179688,4205.256348,4218.205078,4203.589844,4127.307617,4204.871582,4199.615234,0.000000,4.000000,82.000000,,,,0.000000,4.000000,4.000000,4.000000,4.000000,4.000000,4.000000,4.000000,4.000000,4.000000,4.000000,4.000000,4.000000,4.000000,4.000000,100.000000,,,,,,,,,,,,,,,,
1645711888.275605,91.000000,0.000000,4086.666748,4245.769043,4201.538574,4221.922852,4235.128418,4240.128418,4217.051270,4223.077148,4219.487305,4252.563965,4226.794922,4136.153809,4211.025879,4159.102539,0.000000,4.000000,82.000000,,,,0.000000,4.000000,4.000000,4.000000,4.000000,4.000000,4.000000,4.000000,4.000000,4.000000,4.000000,4.000000,4.000000,4.000000,4.000000,100.000000,,,,,,,,,,,,,,,,
1645711888.279545,92.000000,0.000000,4111.410156,4240.000000,4197.307617,4218.205078,4225.512695,4231.666504,4208.077148,4220.384766,4217.563965,4247.051270,4222.820313,4135.000000,4206.922852,4139.358887,0.000000,4.000000,82.000000,,,,0.000000,4.000000,4.000000,4.000000,4.000000,4.000000,4.000000,4.000000,4.000000,4.000000,4.000000,4.000000,4.000000,4.000000,4.000000,100.000000,,,,,,,,,,,,,,,,
1645711888.283485,93.000000,0.000000,4172.820313,4216.666504,4190.256348,4195.769043,4185.512695,4205.384766,4194.102539,4203.846191,4201.922852,4210.256348,4199.102539,4127.820313,4197.436035,4152.179688,0.000000,4.000000,82.000000,,,,0.000000,4.000000,4.000000,4.000000,4.000000,4.000000,4.000000,4.000000,4.000000,4.000000,4.000000,4.000000,4.000000,4.000000,4.000000,100.000000,,,,,,,,,,,,,,,,
1645711888.287426,94.000000,0.000000,4219.102539,4196.794922,4187.563965,4174.358887,4148.589844,4184.615234,4186.538574,4188.974121,4186.025879,4175.512695,4179.743652,4122.820313,4192.179688,4183.846191,0.000000,4.000000,82.000000,,,,0.000000,4.000000,4.000000,4.000000,4.000000,4.000000,4.000000,4.000000,4.000000,4.000000,4.000000,4.000000,4.000000,4.000000,4.000000,100.000000,,,,,,,,,,,,,,,,
1645711888.291366,95.000000,0.000000,4226.025879,4193.205078,4190.897461,4166.794922,4136.538574,4180.384766,4187.179688,4184.358887,4180.256348,4165.641113,4178.077148,4123.205078,4195.128418,4210.128418,0.000000,4.000000,82.000000,,,,0.000000,4.000000,4.000000,4.000000,4.000000,4.000000,4.000000,4.000000,4.000000,4.000000,4.000000,4.000000,4.000000,4.000000,4.000000,100.000000,,,,,,,,,,,,,,,,
1645711888.295306,96.000000,0.000000,4214.358887,4199.487305,4195.512695,4168.974121,4141.922852,4184.358887,4188.846191,4185.384766,4183.333496,4173.974121,4185.256348,4124.230957,4200.000000,4219.871582,0.000000,4.000000,82.000000,,,,0.000000,4.000000,4.000000,4.000000,4.000000,4.000000,4.000000,4.000000,4.000000,4.000000,4.000000,4.000000,4.000000,4.000000,4.000000,100.000000,,,,,,,,,,,,,,,,
1645711888.299246,97.000000,0.000000,4212.179688,4202.948730,4196.794922,4171.025879,4146.282227,4184.615234,4186.794922,4184.102539,4187.307617,4180.384766,4186.410156,4122.436035,4199.487305,4219.871582,0.000000,4.000000,82.000000,,,,0.000000,4.000000,4.000000,4.000000,4.000000,4.000000,4.000000,4.000000,4.000000,4.000000,4.000000,4.000000,4.000000,4.000000,4.000000,100.000000,,,,,,,,,,,,,,,,
1645711888.303186,98.000000,0.000000,4216.922852,4201.025879,4196.025879,4172.948730,4146.794922,4183.333496,4185.769043,4181.922852,4189.487305,4180.000000,4182.436035,4121.153809,4195.256348,4220.256348,0.000000,4.000000,82.000000,,,,0.000000,4.000000,4.000000,4.000000,4.000000,4.000000,4.000000,4.000000,4.000000,4.000000,4.000000,4.000000,4.000000,4.000000,4.000000,100.000000,,,,,,,,,,,,,,,,
1645711888.307226,99.000000,0.000000,4204.102539,4202.692383,4197.051270,4182.692383,4155.897461,4191.538574,4192.179688,4187.179688,4193.717773,4186.538574,4187.563965,4127.051270,4195.641113,4218.846191,0.000000,4.000000,82.000000,,,,0.000000,4.000000,4.000000,4.000000,4.000000,4.000000,4.000000,4.000000,4.000000,4.000000,4.000000,4.000000,4.000000,4.000000,4.000000,100.000000,,,,,,,,,,,,,,,,
1645711888.311166,100.000000,0.000000,4169.102539,4212.051270,4200.769043,4199.615234,4176.666504,4209.487305,4203.077148,4201.282227,4202.179688,4208.077148,4206.794922,4139.230957,4204.102539,4207.820313,0.000000,4.000000,82.000000,,,,0.000000,4.000000,4.000000,4.000000,4.000000,4.000000,4.000000,4.000000,4.000000,4.000000,4.000000,4.000000,4.000000,4.000000,4.000000,100.000000,,,,,,,,,,,,,,,,
1645711888.315106,101.000000,0.000000,4141.153809,4219.871582,4203.077148,4209.871582,4191.666504,4221.666504,4207.948730,4212.692383,4209.358887,4230.769043,4225.000000,4148.333496,4212.948730,4188.717773,0.000000,4.000000,82.000000,,,,0.000000,4.000000,4.000000,4.000000,4.000000,4.000000,4.000000,4.000000,4.000000,4.000000,4.000000,4.000000,4.000000,4.000000,4.000000,100.000000,,,,,,,,,,,,,,,,
1645711888.319046,102.000000,0.000000,4149.102539,4215.256348,4201.025879,4202.179688,4183.333496,4214.615234,4201.410156,4209.871582,4208.077148,4233.461426,4223.333496,4145.897461,4211.922852,4175.897461,0.000000,4.000000,82.000000,,,,0.000000,4.000000,4.000000,4.000000,4.000000,4.000000,4.000000,4.000000,4.000000,4.000000,4.000000,4.000000,4.000000,4.000000,4.000000,100.000000,,,,,,,,,,,,,,,,
1645711888.322986,103.000000,0.000000,4184.487305,4201.282227,4196.410156,4183.333496,4157.692383,4195.641113,4190.769043,4195.128418,4198.974121,4214.487305,4202.948730,4134.102539,4200.384766,4180.128418,0.000000,4.000000,82.000000,,,,0.000000,4.000000,4.000000,4.000000,4.000000,4.000000,4.000000,4.000000,4.000000,4.000000,4.000000,4.000000,4.000000,4.000000,4.000000,100.000000,,,,,,,,,,,,,,,,
1645711888.326927,104.000000,0.000000,4212.051270,4191.282227,4193.717773,4171.794922,4139.230957,4184.230957,4187.051270,4182.179688,4190.769043,4192.436035,4183.333496,4123.717773,4188.077148,4195.769043,0.000000,4.000000,82.000000,,,,0.000000,4.000000,4.000000,4.000000,4.000000,4.000000,4.000000,4.000000,4.000000,4.000000,4.000000,4.000000,4.000000,4.000000,4.000000,100.000000,,,,,,,,,,,,,,,,
1645711888.330867,105.000000,0.000000,4213.461426,4192.692383,4193.717773,4174.871582,4140.897461,4188.717773,4192.820313,4180.897461,4189.230957,4183.846191,4178.205078,4121.410156,4183.461426,4207.563965,0.000000,4.000000,82.000000,,,,0.000000,4.000000,4.000000,4.000000,4.000000,4.000000,4.000000,4.000000,4.000000,4.000000,4.000000,4.000000,4.000000,4.000000,4.000000,100.000000,,,,,,,,,,,,,,,,
1645711888.334807,106.000000,0.000000,4204.102539,4197.563965,4192.820313,4181.153809,4151.025879,4196.922852,4200.000000,4186.410156,4191.410156,4184.871582,4181.153809,4124.102539,4185.000000,4207.948730,0.000000,4.000000,82.000000,,,,0.000000,4.000000,4.000000,4.000000,4.000000,4.000000,4.000000,4.000000,4.000000,4.000000,4.000000,4.000000,4.000000,4.000000,4.000000,100.000000,1.000000,0.000000,0.000000,1.000000,1.000000,0.000000,0.000000,0.000000,1.000000,1.000000,1.000000,0.000000,0.000000,1.000000,1.000000,0.000000
1645711888.338847,107.000000,0.000000,4206.282227,4195.000000,4188.974121,4177.436035,4150.769043,4194.230957,4200.769043,4187.692383,4190.512695,4181.666504,4178.077148,4124.487305,4186.025879,4203.589844,0.000000,4.000000,82.000000,,,,0.000000,4.000000,4.000000,4.000000,4.000000,4.000000,4.000000,4.000000,4.000000,4.000000,4.000000,4.000000,4.000000,4.000000,4.000000,100.000000,,,,,,,,,,,,,,,,
1645711888.342787,108.000000,0.000000,4214.230957,4186.666504,4184.743652,4167.179688,4141.153809,4183.333496,4197.179688,4183.461426,4185.897461,4173.461426,4169.230957,4121.153809,4184.743652,4203.333496,0.000000,4.000000,82.000000,,,,0.000000,4.000000,4.000000,4.000000,4.000000,4.000000,4.000000,4.000000,4.000000,4.000000,4.000000,4.000000,4.000000,4.000000,4.000000,100.000000,,,,,,,,,,,,,,,,
1645711888.346727,109.000000,0.000000,4200.769043,4186.153809,4185.256348,4167.692383,4141.794922,4181.153809,4196.666504,4183.077148,4185.256348,4174.487305,4169.102539,4119.743652,4186.025879,4205.128418,0.000000,4.000000,82.000000,,,,0.000000,4.000000,4.000000,4.000000,4.000000,4.000000,4.000000,4.000000,4.000000,4.000000,4.000000,4.000000,4.000000,4.000000,4.000000,100.000000,,,,,,,,,,,,,,,,
1645711888.350667,110.000000,0.000000,4157.179688,4201.282227,4191.025879,4186.794922,4163.205078,4196.794922,4201.794922,4193.333496,4193.589844,4193.717773,4185.769043,4123.846191,4192.820313,4198.205078,0.000000,4.000000,82.000000,,,,0.000000,4.000000,4.000000,4.000000,4.000000,4.000000,4.000000,4.000000,4.000000,4.000000,4.000000,4.000000,4.000000,4.000000,4.000000,100.000000,,,,,,,,,,,,,,,,
1645711888.354607,111.000000,0.000000,4113.717773,4222.179688,4196.922852,4210.256348,4189.743652,4217.436035,4206.282227,4207.179688,4205.769043,4217.820313,4206.666504,4129.102539,4199.871582,4178.846191,0.000000,4.000000,82.000000,,,,0.000000,4.000000,4.000000,4.000000,4.000000,4.000000,4.000000,4.000000,4.000000,4.000000,4.000000,4.000000,4.000000,4.000000,4.000000,100.000000,,,,,,,,,,,,,,,,
1645711888.358547,112.000000,0.000000,4110.000000,4231.025879,4198.333496,4215.897461,4195.384766,4222.692383,4204.102539,4210.897461,4210.512695,4224.487305,4211.538574,4128.717773,4200.000000,4159.358887,0.000000,4.000000,82.000000,,,,0.000000,4.000000,4.000000,4.000000,4.000000,4.000000,4.000000,4.000000,4.000000,4.000000,4.000000,4.000000,4.000000,4.000000,4.000000,100.000000,,,,,,,,,,,,,,,,
1645711888.362487,113.000000,0.000000,4150.897461,4222.051270,4195.897461,4199.487305,4174.358887,4207.948730,4197.051270,4201.025879,4203.717773,4207.436035,4195.897461,4122.692383,4193.077148,4156.538574,0.000000,4.000000,82.000000,,,,0.000000,4.000000,4.000000,4.000000,4.000000,4.000000,4.000000,4.000000,4.000000,4.000000,4.000000,4.000000,4.000000,4.000000,4.000000,100.000000,,,,,,,,,,,,,,,,
1645711888.366427,114.000000,0.000000,4203.461426,4205.641113,4194.615234,4177.692383,4146.666504,4187.436035,4192.436035,4187.051270,4192.307617,4183.974121,4175.256348,4117.820313,4186.666504,4174.358887,0.000000,4.000000,82.000000,,,,0.000000,4.000000,4.000000,4.000000,4.000000,4.000000,4.000000,4.000000,4.000000,4.000000,4.000000,4.000000,4.000000,4.000000,4.000000,100.000000,,,,,,,,,,,,,,,,
1645711888.370368,115.000000,0.000000,4235.384766,4195.128418,4195.897461,4167.820313,4132.948730,4175.897461,4192.563965,4179.871582,4184.871582,4172.563965,4164.743652,4119.102539,4186.410156,4201.153809,0.000000,4.000000,82.000000,,,,0.000000,4.000000,4.000000,4.000000,4.000000,4.000000,4.000000,4.000000,4.000000,4.000000,4.000000,4.000000,4.000000,4.000000,4.000000,100.000000,,,,,,,,,,,,,,,,
1645711888.374308,116.000000,0.000000,4245.000000,4191.794922,4196.666504,4168.846191,4132.692383,4173.333496,4192.692383,4179.743652,4183.333496,4173.333496,4163.205078,4122.948730,4189.358887,4222.436035,0.000000,4.000000,82.000000,,,,0.000000,4.000000,4.000000,4.000000,4.000000,4.000000,4.000000,4.000000,4.000000,4.000000,4.000000,4.000000,4.000000,4.000000,4.000000,100.000000,,,,,,,,,,,,,,,,
1645711888.378248,117.000000,0.000000,4247.692383,4189.230957,4193.589844,4168.717773,4132.179688,4171.025879,4188.846191,4179.487305,4183.333496,4173.461426,4160.384766,4123.846191,4188.717773,4232.051270,0.000000,4.000000,82.000000,,,,0.000000,4.000000,4.000000,4.000000,4.000000,4.000000,4.000000,4.000000,4.000000,4.000000,4.000000,4.000000,4.000000,4.000000,4.000000,100.000000,,,,,,,,,,,,,,,,
1645711888.382188,118.000000,0.000000,4244.358887,4187.179688,4189.230957,4164.487305,4128.589844,4168.846191,4185.000000,4177.307617,4183.333496,4169.615234,4155.897461,4122.051270,4184.358887,4231.666504,0.000000,4.000000,82.000000,,,,0.000000,4.000000,4.000000,4.000000,4.000000,4.000000,4.000000,4.000000,4.000000,4.000000,4.000000,4.000000,4.000000,4.000000,4.000000,100.000000,,,,,,,,,,,,,,,,
1645711888.386128,119.000000,0.000000,4217.436035,4194.230957,4189.615234,4167.820313,4136.153809,4177.051270,4189.102539,4179.871582,4187.948730,4175.000000,4162.563965,4123.717773,4183.846191,4221.666504,0.000000,4.000000,82.000000,,,,0.000000,4.000000,4.000000,4.000000,4.000000,4.000000,4.000000,4.000000,4.000000,4.000000,4.000000,4.000000,4.000000,4.000000,4.000000,100.000000,,,,,,,,,,,,,,,,
1645711888.390068,120.000000,0.000000,4162.563965,4214.358887,4196.153809,4188.077148,4164.487305,4200.128418,4201.282227,4192.692383,4200.256348,4199.743652,4187.692383,4131.922852,4193.205078,4200.256348,0.000000,4.000000,82.000000,,,,0.000000,4.000000,4.000000,4.000000,4.000000,4.000000,4.000000,4.000000,4.000000,4.000000,4.000000,4.000000,4.000000,4.000000,4.000000,100.000000,,,,,,,,,,,,,,,,
1645711888.394008,121.000000,0.000000,4110.128418,4235.000000,4202.948730,4215.641113,4199.102539,4224.743652,4211.794922,4208.846191,4214.358887,4231.666504,4218.077148,4141.153809,4207.307617,4172.948730,0.000000,4.000000,82.000000,,,,0.000000,4.000000,4.000000,4.000000,4.000000,4.000000,4.000000,4.000000,4.000000,4.000000,4.000000,4.000000,4.000000,4.000000,4.000000,100.000000,,,,,,,,,,,,,,,,
1645711888.397948,122.000000,0.000000,4101.538574,4237.436035,4202.051270,4228.589844,4212.051270,4230.256348,4210.512695,4214.487305,4219.102539,4244.102539,4229.230957,4143.205078,4214.358887,4155.000000,0.000000,4.000000,82.000000,,,,0.000000,4.000000,4.000000,4.000000,4.000000,4.000000,4.000000,4.000000,4.000000,4.000000,4.000000,4.000000,4.000000,4.000000,4.000000,100.000000,,,,,,,,,,,,,,,,
1645711888.401888,123.000000,0.000000,4144.487305,4216.922852,4192.948730,4216.153809,4191.666504,4211.794922,4198.846191,4203.974121,4210.000000,4224.615234,4212.051270,4136.922852,4208.461426,4160.000000,0.000000,4.000000,82.000000,,,,0.000000,4.000000,4.000000,4.000000,4.000000,4.000000,4.000000,4.000000,4.000000,4.000000,4.000000,4.000000,4.000000,4.000000,4.000000,100.000000,,,,,,,,,,,,,,,,
1645711888.405829,124.000000,0.000000,4204.743652,4188.205078,4182.563965,4189.230957,4154.743652,4185.256348,4187.179688,4185.641113,4194.743652,4189.358887,4181.922852,4128.717773,4195.897461,4185.769043,0.000000,4.000000,82.000000,,,,0.000000,4.000000,4.000000,4.000000,4.000000,4.000000,4.000000,4.000000,4.000000,4.000000,4.000000,4.000000,4.000000,4.000000,4.000000,100.000000,,,,,,,,,,,,,,,,
1645711888.409769,125.000000,0.000000,4243.077148,4169.615234,4177.307617,4166.794922,4127.179688,4169.487305,4183.589844,4172.179688,4183.974121,4163.589844,4160.128418,4124.615234,4186.794922,4215.000000,0.000000,4.000000,82.000000,,,,0.000000,4.000000,4.000000,4.000000,4.000000,4.000000,4.000000,4.000000,4.000000,4.000000,4.000000,4.000000,4.000000,4.000000,4.000000,100.000000,,,,,,,,,,,,,,,,
1645711888.413809,126.000000,0.000000,4251.922852,4165.769043,4177.948730,4157.692383,4118.717773,4167.820313,4186.410156,4167.179688,4180.769043,4156.794922,4152.820313,4124.230957,4184.871582,4231.922852,0.000000,4.000000,82.000000,,,,0.000000,4.000000,4.000000,4.000000,4.000000,4.000000,4.000000,4.000000,4.000000,4.000000,4.000000,4.000000,4.000000,4.000000,4.000000,100.000000,,,,,,,,,,,,,,,,
1645711888.417749,127.000000,0.000000,4248.077148,4168.846191,4181.282227,4157.948730,4121.025879,4170.256348,4189.871582,4166.410156,4180.512695,4159.230957,4152.051270,4124.102539,4185.897461,4235.384766,0.000000,4.000000,82.000000,,,,0.000000,4.000000,4.000000,4.000000,4.000000,4.000000,4.000000,4.000000,4.000000,4.000000,4.000000,4.000000,4.000000,4.000000,4.000000,100.000000,,,,,,,,,,,,,,,,
1645711888.421689,128.000000,0.000000,4239.102539,4173.974121,4186.025879,4163.589844,4127.436035,4172.563965,4192.948730,4168.077148,4180.641113,4162.948730,4153.205078,4125.512695,4186.153809,4233.333496,3323.000000,4.000000,82.000000,,,,0.000000,4.000000,4.000000,4.000000,4.000000,4.000000,4.000000,4.000000,4.000000,4.000000,4.000000,4.000000,4.000000,4.000000,4.000000,100.000000,,,,,,,,,,,,,,,,
1645711888.425629,129.000000,0.000000,4211.666504,4186.025879,4193.846191,4177.563965,4143.974121,4182.436035,4200.128418,4176.922852,4185.512695,4174.487305,4163.846191,4133.205078,4188.589844,4228.333496,3402.000000,4.000000,82.000000,,,,0.000000,4.000000,4.000000,4.000000,4.000000,4.000000,4.000000,4.000000,4.000000,4.000000,4.000000,4.000000,4.000000,4.000000,4.000000,100.000000,,,,,,,,,,,,,,,,
1645711888.429569,130.000000,0.000000,4158.974121,4209.102539,4204.743652,4201.538574,4175.384766,4205.897461,4212.307617,4195.512695,4198.846191,4202.436035,4190.256348,4147.820313,4197.436035,4213.589844,2142.000000,4.000000,82.000000,,,,0.000000,4.000000,4.000000,4.000000,4.000000,4.000000,4.000000,4.000000,4.000000,4.000000,4.000000,4.000000,4.000000,4.000000,4.000000,100.000000,,,,,,,,,,,,,,,,
1645711888.433509,131.000000,0.000000,4107.179688,4234.102539,4213.077148,4225.000000,4208.974121,4232.051270,4221.794922,4215.769043,4215.641113,4237.948730,4221.794922,4161.410156,4210.128418,4186.153809,3560.000000,4.000000,82.000000,,,,0.000000,4.000000,4.000000,4.000000,4.000000,4.000000,4.000000,4.000000,4.000000,4.000000,4.000000,4.000000,4.000000,4.000000,4.000000,100.000000,,,,,,,,,,,,,,,,
1645711888.437449,132.000000,0.000000,4098.461426,4243.461426,4213.589844,4231.025879,4220.128418,4240.128418,4219.230957,4223.077148,4223.461426,4256.282227,4236.282227,4163.974121,4217.692383,4158.846191,3549.000000,4.000000,82.000000,,,,0.000000,4.000000,4.000000,4.000000,4.000000,4.000000,4.000000,4.000000,4.000000,4.000000,4.000000,4.000000,4.000000,4.000000,4.000000,100.000000,,,,,,,,,,,,,,,,
1645711888.441389,133.000000,0.000000,4145.641113,4229.871582,4206.666504,4214.615234,4197.948730,4221.153809,4204.615234,4212.051270,4215.512695,4242.179688,4223.461426,4155.256348,4214.230957,4152.051270,3250.000000,4.000000,82.000000,,,,0.000000,4.000000,4.000000,4.000000,4.000000,4.000000,4.000000,4.000000,4.000000,4.000000,4.000000,4.000000,4.000000,4.000000,4.000000,100.000000,,,,,,,,,,,,,,,,
1645711888.445329,134.000000,0.000000,4215.256348,4205.384766,4199.487305,4188.717773,4158.461426,4188.717773,4188.205078,4192.179688,4198.077148,4206.666504,4196.153809,4144.102539,4203.333496,4173.077148,3124.000000,4.000000,82.000000,,,,0.000000,4.000000,4.000000,4.000000,4.000000,4.000000,4.000000,4.000000,4.000000,4.000000,4.000000,4.000000,4.000000,4.000000,4.000000,100.000000,,,,,,,,,,,,,,,,
1645711888.449270,135.000000,0.000000,4260.000000,4187.948730,4197.436035,4171.538574,4128.077148,4164.358887,4179.230957,4177.820313,4183.717773,4175.128418,4175.897461,4139.102539,4193.461426,4208.205078,2953.000000,4.000000,82.000000,,,,0.000000,4.000000,4.000000,4.000000,4.000000,4.000000,4.000000,4.000000,4.000000,4.000000,4.000000,4.000000,4.000000,4.000000,4.000000,100.000000,,,,,,,,,,,,,,,,
1645711888.453210,136.000000,0.000000,4262.948730,4184.615234,4199.743652,4168.717773,4118.461426,4157.436035,4178.077148,4174.358887,4179.358887,4162.436035,4170.897461,4140.256348,4189.358887,4235.897461,1709.000000,4.000000,82.000000,,,,0.000000,4.000000,4.000000,4.000000,4.000000,4.000000,4.000000,4.000000,4.000000,4.000000,4.000000,4.000000,4.000000,4.000000,4.000000,100.000000,,,,,,,,,,,,,,,,
1645711888.457150,137.000000,0.000000,4242.307617,4188.333496,4201.666504,4173.205078,4122.436035,4161.666504,4180.128418,4176.410156,4181.794922,4164.230957,4172.692383,4142.307617,4188.717773,4245.384766,3125.000000,4.000000,82.000000,,,,0.000000,4.000000,4.000000,4.000000,4.000000,4.000000,4.000000,4.000000,4.000000,4.000000,4.000000,4.000000,4.000000,4.000000,4.000000,100.000000,,,,,,,,,,,,,,,,
1645711888.461090,138.000000,0.000000,4219.358887,4191.794922,4201.153809,4178.589844,4130.641113,4169.358887,4183.589844,4178.974121,4185.512695,4171.025879,4172.948730,4143.333496,4188.589844,4240.128418,2315.000000,4.000000,82.000000,,,,0.000000,4.000000,4.000000,4.000000,4.000000,4.000000,4.000000,4.000000,4.000000,4.000000,4.000000,4.000000,4.000000,4.000000,4.000000,100.000000,,,,,,,,,,,,,,,,
1645711888.465030,139.000000,0.000000,4197.051270,4197.307617,4201.153809,4187.692383,4145.128418,4180.641113,4191.282227,4184.230957,4189.358887,4182.820313,4176.153809,4147.051270,4190.641113,4227.436035,2652.000000,4.000000,82.000000,,,,0.000000,4.000000,4.000000,4.000000,4.000000,4.000000,4.000000,4.000000,4.000000,4.000000,4.000000,4.000000,4.000000,4.000000,4.000000,100.000000,,,,,,,,,,,,,,,,
1645711888.468970,140.000000,0.000000,4171.282227,4209.487305,4204.102539,4203.589844,4169.615234,4197.179688,4202.692383,4195.769043,4195.641113,4202.820313,4189.871582,4155.897461,4197.563965,4210.897461,3390.000000,4.000000,82.000000,,,,0.000000,4.000000,4.000000,4.000000,4.000000,4.000000,4.000000,4.000000,4.000000,4.000000,4.000000,4.000000,4.000000,4.000000,4.000000,100.000000,,,,,,,,,,,,,,,,
1645711888.472910,141.000000,0.000000,4153.077148,4223.589844,4207.692383,4218.589844,4193.846191,4211.282227,4210.769043,4209.615234,4202.692383,4223.717773,4209.102539,4164.615234,4207.436035,4194.230957,3266.000000,4.000000,82.000000,,,,0.000000,4.000000,4.000000,4.000000,4.000000,4.000000,4.000000,4.000000,4.000000,4.000000,4.000000,4.000000,4.000000,4.000000,4.000000,100.000000,,,,,,,,,,,,,,,,
1645711888.476850,142.000000,0.000000,4161.025879,4228.077148,4206.922852,4219.743652,4198.589844,4211.282227,4208.717773,4215.512695,4205.384766,4229.743652,4217.820313,4164.743652,4213.077148,4185.512695,2315.000000,4.000000,82.000000,,,,0.000000,4.000000,4.000000,4.000000,4.000000,4.000000,4.000000,4.000000,4.000000,4.000000,4.000000,4.000000,4.000000,4.000000,4.000000,100.000000,,,,,,,,,,,,,,,,
1645711888.480790,143.000000,0.000000,4192.436035,4219.358887,4201.282227,4204.743652,4179.615234,4197.179688,4199.871582,4210.000000,4201.794922,4216.282227,4209.102539,4154.615234,4211.538574,4192.051270,2652.000000,4.000000,82.000000,,,,0.000000,4.000000,4.000000,4.000000,4.000000,4.000000,4.000000,4.000000,4.000000,4.000000,4.000000,4.000000,4.000000,4.000000,4.000000,100.000000,,,,,,,,,,,,,,,,
1645711888.484731,144.000000,0.000000,4216.922852,4208.333496,4195.897461,4188.717773,4157.563965,4185.128418,4195.256348,4203.077148,4198.461426,4200.000000,4195.641113,4143.333496,4207.948730,4208.974121,3390.000000,4.000000,82.000000,,,,0.000000,4.000000,4.000000,4.000000,4.000000,4.000000,4.000000,4.000000,4.000000,4.000000,4.000000,4.000000,4.000000,4.000000,4.000000,100.000000,,,,,,,,,,,,,,,,
1645711888.488771,145.000000,0.000000,4208.846191,4208.974121,4195.641113,4188.333496,4157.051270,4190.384766,4201.666504,4206.410156,4202.692383,4201.538574,4195.128418,4141.153809,4209.102539,4220.769043,3266.000000,4.000000,82.000000,,,,0.000000,4.000000,4.000000,4.000000,4.000000,4.000000,4.000000,4.000000,4.000000,4.000000,4.000000,4.000000,4.000000,4.000000,4.000000,100.000000,,,,,,,,,,,,,,,,
1645711888.492711,146.000000,0.000000,4178.846191,4220.897461,4199.102539,4202.436035,4178.333496,4208.333496,4213.717773,4219.615234,4212.820313,4221.025879,4208.205078,4147.948730,4214.487305,4216.794922,2315.000000,4.000000,82.000000,,,,0.000000,4.000000,4.000000,4.000000,4.000000,4.000000,4.000000,4.000000,4.000000,4.000000,4.000000,4.000000,4.000000,4.000000,4.000000,100.000000,,,,,,,,,,,,,,,,
1645711888.496651,147.000000,0.000000,4162.820313,4230.384766,4200.769043,4213.205078,4196.794922,4219.743652,4219.615234,4229.871582,4218.846191,4236.922852,4216.922852,4154.615234,4215.769043,4202.307617,2652.000000,4.000000,82.000000,,,,0.000000,4.000000,4.000000,4.000000,4.000000,4.000000,4.000000,4.000000,4.000000,4.000000,4.000000,4.000000,4.000000,4.000000,4.000000,100.000000,,,,,,,,,,,,,,,,
1645711888.500591,148.000000,0.000000,4179.102539,4226.153809,4197.436035,4208.077148,4192.436035,4212.692383,4214.871582,4227.051270,4213.846191,4231.153809,4207.948730,4153.205078,4208.461426,4192.948730,3390.000000,4.000000,82.000000,,,,0.000000,4.000000,4.000000,4.000000,4.000000,4.000000,4.000000,4.000000,4.000000,4.000000,4.000000,4.000000,4.000000,4.000000,4.000000,100.000000,,,,,,,,,,,,,,,,
1645711888.504531,149.000000,0.000000,4206.153809,4213.974121,4192.051270,4193.717773,4172.948730,4196.538574,4206.538574,4215.512695,4202.948730,4210.769043,4188.974121,4145.641113,4198.461426,4195.769043,3266.000000,4.000000,82.000000,,,,0.000000,4.000000,4.000000,4.000000,4.000000,4.000000,4.000000,4.000000,4.000000,4.000000,4.000000,4.000000,4.000000,4.000000,4.000000,100.000000,,,,,,,,,,,,,,,,
1645711888.508471,150.000000,0.000000,4209.871582,4208.205078,4189.102539,4187.307617,4162.051270,4189.487305,4203.461426,4208.077148,4197.563965,4197.820313,4179.615234,4140.641113,4195.512695,4202.820313,2315.000000,4.000000,82.000000,,,,0.000000,4.000000,4.000000,4.000000,4.000000,4.000000,4.000000,4.000000,4.000000,4.000000,4.000000,4.000000,4.000000,4.000000,4.000000,100.000000,,,,,,,,,,,,,,,,
1645711888.512411,151.000000,0.000000,4187.307617,4213.589844,4189.230957,4194.102539,4169.871582,4196.666504,4206.153809,4210.000000,4202.307617,4201.922852,4187.307617,4141.538574,4201.666504,4202.820313,2652.000000,4.000000,82.000000,,,,0.000000,4.000000,4.000000,4.000000,4.000000,4.000000,4.000000,4.000000,4.000000,4.000000,4.000000,4.000000,4.000000,4.000000,4.000000,100.000000,,,,,,,,,,,,,,,,
1645711888.516351,152.000000,0.000000,4168.461426,4220.384766,4188.846191,4202.179688,4182.051270,4205.512695,4208.077148,4213.974121,4210.128418,4210.384766,4199.102539,4143.589844,4208.077148,4196.794922,3390.000000,4.000000,82.000000,,,,0.000000,4.000000,4.000000,4.000000,4.000000,4.000000,4.000000,4.000000,4.000000,4.000000,4.000000,4.000000,4.000000,4.000000,4.000000,100.000000,,,,,,,,,,,,,,,,
1645711888.520291,153.000000,0.000000,4177.051270,4217.820313,4185.897461,4198.846191,4181.410156,4204.230957,4206.410156,4211.666504,4212.307617,4207.307617,4199.487305,4141.153809,4206.282227,4195.384766,3266.000000,4.000000,82.000000,,,,0.000000,4.000000,4.000000,4.000000,4.000000,4.000000,4.000000,4.000000,4.000000,4.000000,4.000000,4.000000,4.000000,4.000000,4.000000,100.000000,,,,,,,,,,,,,,,,
1645711888.524231,154.000000,0.000000,4199.743652,4208.461426,4182.692383,4187.948730,4170.384766,4197.051270,4205.641113,4205.000000,4208.974121,4195.256348,4189.230957,4135.769043,4197.820313,4202.692383,2315.000000,4.000000,82.000000,,,,0.000000,4.000000,4.000000,4.000000,4.000000,4.000000,4.000000,4.000000,4.000000,4.000000,4.000000,4.000000,4.000000,4.000000,4.000000,100.000000,,,,,,,,,,,,,,,,
1645711888.528172,155.000000,0.000000,4205.897461,4203.589844,4182.307617,4182.948730,4166.282227,4196.282227,4210.641113,4202.563965,4207.307617,4191.153809,4182.051270,4133.205078,4191.922852,4208.846191,2652.000000,4.000000,82.000000,,,,0.000000,4.000000,4.000000,4.000000,4.000000,4.000000,4.000000,4.000000,4.000000,4.000000,4.000000,4.000000,4.000000,4.000000,4.000000,100.000000,,,,,,,,,,,,,,,,
1645711888.532112,156.000000,0.000000,4189.358887,4207.563965,4184.615234,4189.230957,4176.410156,4204.743652,4218.333496,4207.436035,4211.282227,4202.179688,4185.256348,4135.384766,4193.717773,4202.692383,3390.000000,4.000000,82.000000,,,,0.000000,4.000000,4.000000,4.000000,4.000000,4.000000,4.000000,4.000000,4.000000,4.000000,4.000000,4.000000,4.000000,4.000000,4.000000,100.000000,,,,,,,,,,,,,,,,
1645711888.536052,157.000000,0.000000,4175.897461,4212.948730,4185.641113,4196.922852,4188.205078,4211.153809,4220.641113,4212.307617,4216.025879,4215.641113,4190.384766,4138.205078,4198.461426,4188.333496,3266.000000,4.000000,82.000000,,,,0.000000,4.000000,4.000000,4.000000,4.000000,4.000000,4.000000,4.000000,4.000000,4.000000,4.000000,4.000000,4.000000,4.000000,4.000000,100.000000,,,,,,,,,,,,,,,,
1645711888.539992,158.000000,0.000000,4186.794922,4211.282227,4184.102539,4194.871582,4186.282227,4206.282227,4215.256348,4210.000000,4215.000000,4216.025879,4187.563965,4137.563965,4199.615234,4181.922852,2315.000000,4.000000,82.000000,,,,0.000000,4.000000,4.000000,4.000000,4.000000,4.000000,4.000000,4.000000,4.000000,4.000000,4.000000,4.000000,4.000000,4.000000,4.000000,100.000000,,,,,,,,,,,,,,,,
1645711888.543932,159.000000,0.000000,4208.974121,4206.025879,4183.077148,4186.282227,4175.512695,4197.051270,4209.102539,4203.461426,4209.358887,4205.641113,4180.769043,4135.384766,4197.692383,4192.436035,2652.000000,4.000000,82.000000,,,,0.000000,4.000000,4.000000,4.000000,4.000000,4.000000,4.000000,4.000000,4.000000,4.000000,4.000000,4.000000,4.000000,4.000000,4.000000,100.000000,,,,,,,,,,,,,,,,
1645711888.547872,160.000000,0.000000,4210.897461,4207.179688,4185.641113,4183.717773,4174.487305,4197.563965,4210.000000,4202.179688,4207.179688,4200.897461,4183.077148,4136.282227,4198.846191,4209.230957,3390.000000,4.000000,82.000000,,,,0.000000,4.000000,4.000000,4.000000,4.000000,4.000000,4.000000,4.000000,4.000000,4.000000,4.000000,4.000000,4.000000,4.000000,4.000000,100.000000,,,,,,,,,,,,,,,,
1645711888.551812,161.000000,0.000000,4185.512695,4216.282227,4190.384766,4191.794922,4190.384766,4210.384766,4215.769043,4208.717773,4211.410156,4209.358887,4196.410156,4140.641113,4204.871582,4213.846191,3266.000000,4.000000,82.000000,,,,0.000000,4.000000,4.000000,4.000000,4.000000,4.000000,4.000000,4.000000,4.000000,4.000000,4.000000,4.000000,4.000000,4.000000,4.000000,100.000000,,,,,,,,,,,,,,,,
1645711888.555752,162.000000,0.000000,4161.538574,4222.820313,4192.179688,4200.641113,4206.666504,4221.153809,4217.307617,4214.487305,4216.153809,4218.717773,4206.666504,4142.692383,4209.743652,4201.410156,2315.000000,4.000000,82.000000,,,,0.000000,4.000000,4.000000,4.000000,4.000000,4.000000,4.000000,4.000000,4.000000,4.000000,4.000000,4.000000,4.000000,4.000000,4.000000,100.000000,,,,,,,,,,,,,,,,
1645711888.559792,163.000000,0.000000,4167.820313,4218.077148,4189.230957,4199.102539,4203.205078,4216.666504,4210.769043,4211.025879,4213.461426,4213.846191,4199.871582,4139.230957,4206.538574,4185.769043,2652.000000,4.000000,82.000000,,,,0.000000,4.000000,4.000000,4.000000,4.000000,4.000000,4.000000,4.000000,4.000000,4.000000,4.000000,4.000000,4.000000,4.000000,4.000000,100.000000,,,,,,,,,,,,,,,,
1645711888.563732,164.000000,0.000000,4196.153809,4206.922852,4185.641113,4189.871582,4181.922852,4202.051270,4203.205078,4202.179688,4204.871582,4198.205078,4181.538574,4134.102539,4197.179688,4183.333496,3390.000000,4.000000,82.000000,,,,0.000000,4.000000,4.000000,4.000000,4.000000,4.000000,4.000000,4.000000,4.000000,4.000000,4.000000,4.000000,4.000000,4.000000,4.000000,100.000000,,,,,,,,,,,,,,,,
1645711888.567673,165.000000,0.000000,4212.563965,4202.179688,4186.794922,4185.512695,4164.230957,4194.358887,4203.717773,4199.102539,4198.974121,4190.256348,4171.666504,4134.487305,4191.025879,4193.846191,3266.000000,4.000000,82.000000,,,,0.000000,4.000000,4.000000,4.000000,4.000000,4.000000,4.000000,4.000000,4.000000,4.000000,4.000000,4.000000,4.000000,4.000000,4.000000,100.000000,,,,,,,,,,,,,,,,
1645711888.571613,166.000000,0.000000,4201.282227,4207.692383,4191.922852,4191.282227,4164.871582,4200.384766,4211.282227,4205.769043,4201.282227,4199.102539,4179.743652,4141.025879,4193.333496,4203.717773,2315.000000,4.000000,82.000000,,,,0.000000,4.000000,4.000000,4.000000,4.000000,4.000000,4.000000,4.000000,4.000000,4.000000,4.000000,4.000000,4.000000,4.000000,4.000000,100.000000,,,,,,,,,,,,,,,,
1645711888.575553,167.000000,0.000000,4182.307617,4213.589844,4195.384766,4197.820313,4175.641113,4209.487305,4216.538574,4213.333496,4206.922852,4211.922852,4194.102539,4146.282227,4199.487305,4203.333496,2652.000000,4.000000,82.000000,,,,0.000000,4.000000,4.000000,4.000000,4.000000,4.000000,4.000000,4.000000,4.000000,4.000000,4.000000,4.000000,4.000000,4.000000,4.000000,100.000000,,,,,,,,,,,,,,,,
1645711888.579493,168.000000,0.000000,4182.179688,4209.871582,4193.333496,4195.384766,4180.384766,4208.717773,4213.461426,4211.922852,4208.077148,4211.666504,4197.179688,4143.974121,4201.794922,4196.538574,3390.000000,4.000000,82.000000,,,,0.000000,4.000000,4.000000,4.000000,4.000000,4.000000,4.000000,4.000000,4.000000,4.000000,4.000000,4.000000,4.000000,4.000000,4.000000,100.000000,,,,,,,,,,,,,,,,
1645711888.583433,169.000000,0.000000,4197.820313,4201.410156,4189.487305,4188.461426,4178.589844,4201.153809,4208.205078,4203.589844,4204.743652,4200.641113,4188.461426,4137.051270,4199.358887,4192.307617,3266.000000,4.000000,82.000000,,,,0.000000,4.000000,4.000000,4.000000,4.000000,4.000000,4.000000,4.000000,4.000000,4.000000,4.000000,4.000000,4.000000,4.000000,4.000000,100.000000,,,,,,,,,,,,,,,,
1645711888.587373,170.000000,0.000000,4202.436035,4202.948730,4190.512695,4191.153809,4184.487305,4202.051270,4210.512695,4200.384766,4204.358887,4198.717773,4183.974121,4134.230957,4198.846191,4192.307617,2315.000000,4.000000,82.000000,,,,0.000000,4.000000,4.000000,4.000000,4.000000,4.000000,4.000000,4.000000,4.000000,4.000000,4.000000,4.000000,4.000000,4.000000,4.000000,100.000000,,,,,,,,,,,,,,,,
1645711888.591313,171.000000,0.000000,4185.256348,4219.230957,4197.692383,4207.051270,4204.230957,4216.794922,4221.153809,4208.461426,4211.410156,4216.538574,4194.102539,4139.230957,4204.487305,4191.794922,2652.000000,4.000000,82.000000,,,,0.000000,4.000000,4.000000,4.000000,4.000000,4.000000,4.000000,4.000000,4.000000,4.000000,4.000000,4.000000,4.000000,4.000000,4.000000,100.000000,,,,,,,,,,,,,,,,
1645711888.595253,172.000000,0.000000,4168.589844,4236.922852,4205.000000,4221.922852,4222.179688,4231.410156,4229.743652,4220.128418,4220.897461,4239.230957,4209.230957,4146.538574,4212.179688,4189.743652,3390.000000,4.000000,82.000000,,,,0.000000,4.000000,4.000000,4.000000,4.000000,4.000000,4.000000,4.000000,4.000000,4.000000,4.000000,4.000000,4.000000,4.000000,4.000000,100.000000,,,,,,,,,,,,,,,,
1645711888.599193,173.000000,0.000000,4178.589844,4239.487305,4206.282227,4219.230957,4218.205078,4229.230957,4227.436035,4222.692383,4223.589844,4243.077148,4212.179688,4149.615234,4214.358887,4191.666504,3266.000000,4.000000,82.000000,,,,0.000000,4.000000,4.000000,4.000000,4.000000,4.000000,4.000000,4.000000,4.000000,4.000000,4.000000,4.000000,4.000000,4.000000,4.000000,100.000000,,,,,,,,,,,,,,,,
1645711888.603133,174.000000,0.000000,4208.589844,4226.410156,4201.538574,4200.641113,4193.333496,4211.666504,4217.563965,4214.358887,4217.051270,4223.974121,4201.282227,4148.589844,4210.256348,4200.641113,2315.000000,4.000000,82.000000,,,,0.000000,4.000000,4.000000,4.000000,4.000000,4.000000,4.000000,4.000000,4.000000,4.000000,4.000000,4.000000,4.000000,4.000000,4.000000,100.000000,,,,,,,,,,,,,,,,
1645711888.607074,175.000000,0.000000,4225.897461,4213.589844,4196.153809,4185.000000,4171.025879,4196.666504,4210.128418,4205.000000,4208.461426,4202.563965,4191.153809,4149.102539,4206.410156,4209.487305,2652.000000,4.000000,82.000000,,,,0.000000,4.000000,4.000000,4.000000,4.000000,4.000000,4.000000,4.000000,4.000000,4.000000,4.000000,4.000000,4.000000,4.000000,4.000000,100.000000,,,,,,,,,,,,,,,,
1645711888.611014,176.000000,0.000000,4213.974121,4213.461426,4193.461426,4186.282227,4168.974121,4196.538574,4209.615234,4203.077148,4204.743652,4197.563965,4192.436035,4152.820313,4207.563965,4209.102539,3390.000000,4.000000,82.000000,,,,0.000000,4.000000,4.000000,4.000000,4.000000,4.000000,4.000000,4.000000,4.000000,4.000000,4.000000,4.000000,4.000000,4.000000,4.000000,100.000000,,,,,,,,,,,,,,,,
1645711888.614954,177.000000,0.000000,4193.077148,4221.538574,4192.179688,4198.589844,4179.743652,4204.358887,4210.641113,4205.384766,4205.128418,4205.384766,4197.692383,4155.384766,4210.256348,4200.512695,3266.000000,4.000000,82.000000,,,,0.000000,4.000000,4.000000,4.000000,4.000000,4.000000,4.000000,4.000000,4.000000,4.000000,4.000000,4.000000,4.000000,4.000000,4.000000,100.000000,,,,,,,,,,,,,,,,
1645711888.618894,178.000000,0.000000,4191.666504,4224.615234,4189.743652,4205.641113,4183.589844,4205.384766,4207.179688,4202.820313,4204.102539,4207.948730,4193.846191,4152.307617,4208.846191,4196.410156,2315.000000,4.000000,82.000000,,,,0.000000,4.000000,4.000000,4.000000,4.000000,4.000000,4.000000,4.000000,4.000000,4.000000,4.000000,4.000000,4.000000,4.000000,4.000000,100.000000,,,,,,,,,,,,,,,,
1645711888.622834,179.000000,0.000000,4207.820313,4219.487305,4188.077148,4202.179688,4176.410156,4198.077148,4201.794922,4194.871582,4200.641113,4199.487305,4183.077148,4146.922852,4204.102539,4204.615234,2652.000000,4.000000,82.000000,,,,0.000000,4.000000,4.000000,4.000000,4.000000,4.000000,4.000000,4.000000,4.000000,4.000000,4.000000,4.000000,4.000000,4.000000,4.000000,100.000000,,,,,,,,,,,,,,,,
1645711888.626774,180.000000,0.000000,4212.051270,4215.769043,4190.384766,4198.205078,4174.487305,4194.743652,4201.666504,4191.153809,4200.000000,4193.846191,4182.436035,4146.538574,4203.205078,4217.307617,3390.000000,4.000000,82.000000,,,,0.000000,4.000000,4.000000,4.000000,4.000000,4.000000,4.000000,4.000000,4.000000,4.000000,4.000000,4.000000,4.000000,4.000000,4.000000,100.000000,,,,,,,,,,,,,,,,
1645711888.630814,181.000000,0.000000,4189.743652,4221.410156,4196.282227,4202.820313,4188.974121,4202.820313,4208.077148,4197.692383,4205.384766,4203.461426,4200.128418,4152.820313,4210.384766,4217.948730,3266.000000,4.000000,82.000000,,,,0.000000,4.000000,4.000000,4.000000,4.000000,4.000000,4.000000,4.000000,4.000000,4.000000,4.000000,4.000000,4.000000,4.000000,4.000000,100.000000,,,,,,,,,,,,,,,,
1645711888.634754,182.000000,0.000000,4163.333496,4230.769043,4200.256348,4210.128418,4207.563965,4212.948730,4213.589844,4207.820313,4211.410156,4220.384766,4221.153809,4158.846191,4219.615234,4202.436035,2315.000000,4.000000,82.000000,,,,0.000000,4.000000,4.000000,4.000000,4.000000,4.000000,4.000000,4.000000,4.000000,4.000000,4.000000,4.000000,4.000000,4.000000,4.000000,100.000000,,,,,,,,,,,,,,,,
1645711888.638694,183.000000,0.000000,4165.000000,4230.897461,4198.461426,4207.307617,4207.948730,4210.897461,4211.538574,4209.615234,4209.487305,4224.615234,4222.692383,4156.410156,4220.641113,4185.512695,2652.000000,4.000000,82.000000,,,,0.000000,4.000000,4.000000,4.000000,4.000000,4.000000,4.000000,4.000000,4.000000,4.000000,4.000000,4.000000,4.000000,4.000000,4.000000,100.000000,,,,,,,,,,,,,,,,
1645711888.642634,184.000000,0.000000,4194.230957,4219.871582,4193.333496,4193.717773,4186.922852,4197.563965,4205.256348,4200.641113,4199.615234,4210.256348,4202.179688,4147.563965,4211.922852,4184.487305,3390.000000,4.000000,82.000000,,,,0.000000,4.000000,4.000000,4.000000,4.000000,4.000000,4.000000,4.000000,4.000000,4.000000,4.000000,4.000000,4.000000,4.000000,4.000000,100.000000,,,,,,,,,,,,,,,,
1645711888.646575,185.000000,0.000000,4217.051270,4210.641113,4191.666504,4184.102539,4167.051270,4189.358887,4203.589844,4192.051270,4191.794922,4194.102539,4181.410156,4142.307617,4201.922852,4199.487305,3266.000000,4.000000,82.000000,,,,0.000000,4.000000,4.000000,4.000000,4.000000,4.000000,4.000000,4.000000,4.000000,4.000000,4.000000,4.000000,4.000000,4.000000,4.000000,100.000000,,,,,,,,,,,,,,,,
1645711888.650515,186.000000,0.000000,4208.589844,4214.871582,4196.538574,4190.641113,4168.846191,4197.563965,4209.615234,4194.743652,4194.871582,4194.358887,4180.641113,4147.820313,4199.871582,4214.102539,2315.000000,4.000000,82.000000,,,,0.000000,4.000000,4.000000,4.000000,4.000000,4.000000,4.000000,4.000000,4.000000,4.000000,4.000000,4.000000,4.000000,4.000000,4.000000,100.000000,,,,,,,,,,,,,,,,
1645711888.654455,187.000000,0.000000,4184.102539,4228.205078,4203.589844,4206.922852,4187.051270,4213.333496,4216.282227,4206.153809,4205.769043,4208.461426,4196.282227,4159.871582,4205.000000,4214.743652,2652.000000,4.000000,82.000000,,,,0.000000,4.000000,4.000000,4.000000,4.000000,4.000000,4.000000,4.000000,4.000000,4.000000,4.000000,4.000000,4.000000,4.000000,4.000000,100.000000,,,,,,,,,,,,,,,,
1645711888.658395,188.000000,0.000000,4178.461426,4235.384766,4206.794922,4215.897461,4198.974121,4218.846191,4215.769043,4213.974121,4213.205078,4218.205078,4207.051270,4167.820313,4208.974121,4205.256348,3390.000000,4.000000,82.000000,,,,0.000000,4.000000,4.000000,4.000000,4.000000,4.000000,4.000000,4.000000,4.000000,4.000000,4.000000,4.000000,4.000000,4.000000,4.000000,100.000000,,,,,,,,,,,,,,,,
1645711888.662335,189.000000,0.000000,4201.025879,4229.743652,4205.256348,4210.769043,4193.974121,4208.974121,4209.358887,4211.410156,4211.025879,4212.948730,4201.538574,4166.922852,4206.666504,4199.358887,3266.000000,4.000000,82.000000,,,,0.000000,4.000000,4.000000,4.000000,4.000000,4.000000,4.000000,4.000000,4.000000,4.000000,4.000000,4.000000,4.000000,4.000000,4.000000,100.000000,,,,,,,,,,,,,,,,
1645711888.666275,190.000000,0.000000,4225.256348,4220.512695,4203.205078,4202.436035,4184.743652,4197.179688,4205.769043,4205.128418,4204.230957,4202.948730,4190.641113,4162.051270,4202.563965,4203.589844,2315.000000,4.000000,82.000000,,,,0.000000,4.000000,4.000000,4.000000,4.000000,4.000000,4.000000,4.000000,4.000000,4.000000,4.000000,4.000000,4.000000,4.000000,4.000000,100.000000,,,,,,,,,,,,,,,,
1645711888.670215,191.000000,0.000000,4224.102539,4219.743652,4204.230957,4203.846191,4187.820313,4197.307617,4209.487305,4204.743652,4201.922852,4202.051270,4190.769043,4159.358887,4202.820313,4211.410156,2652.000000,4.000000,82.000000,,,,0.000000,4.000000,4.000000,4.000000,4.000000,4.000000,4.000000,4.000000,4.000000,4.000000,4.000000,4.000000,4.000000,4.000000,4.000000,100.000000,,,,,,,,,,,,,,,,
1645711888.674155,192.000000,0.000000,4204.615234,4225.897461,4206.025879,4212.307617,4200.128418,4206.153809,4215.000000,4210.384766,4205.384766,4208.077148,4201.410156,4158.974121,4206.410156,4215.128418,3390.000000,4.000000,82.000000,,,,0.000000,4.000000,4.000000,4.000000,4.000000,4.000000,4.000000,4.000000,4.000000,4.000000,4.000000,4.000000,4.000000,4.000000,4.000000,100.000000,,,,,,,,,,,,,,,,
1645711888.678095,193.000000,0.000000,4195.256348,4227.692383,4204.487305,4214.102539,4204.358887,4210.000000,4214.871582,4213.333496,4208.077148,4206.282227,4206.922852,4156.282227,4207.051270,4216.025879,3266.000000,4.000000,82.000000,,,,0.000000,4.000000,4.000000,4.000000,4.000000,4.000000,4.000000,4.000000,4.000000,4.000000,4.000000,4.000000,4.000000,4.000000,4.000000,100.000000,,,,,,,,,,,,,,,,
1645711888.682035,194.000000,0.000000,4205.897461,4220.256348,4199.358887,4203.589844,4194.230957,4204.102539,4209.871582,4209.230957,4205.512695,4192.179688,4198.974121,4151.153809,4201.666504,4219.230957,2315.000000,4.000000,82.000000,,,,0.000000,4.000000,4.000000,4.000000,4.000000,4.000000,4.000000,4.000000,4.000000,4.000000,4.000000,4.000000,4.000000,4.000000,4.000000,100.000000,,,,,,,,,,,,,,,,
1645711888.685976,195.000000,0.000000,4215.256348,4213.205078,4195.512695,4192.051270,4184.743652,4199.743652,4208.205078,4204.358887,4201.666504,4180.641113,4187.948730,4148.589844,4196.025879,4222.948730,2652.000000,4.000000,82.000000,,,,0.000000,4.000000,4.000000,4.000000,4.000000,4.000000,4.000000,4.000000,4.000000,4.000000,4.000000,4.000000,4.000000,4.000000,4.000000,100.000000,,,,,,,,,,,,,,,,
1645711888.689916,196.000000,0.000000,4202.179688,4217.948730,4196.538574,4192.820313,4192.436035,4207.692383,4213.974121,4206.410156,4202.948730,4188.205078,4188.717773,4152.051270,4196.794922,4218.461426,3390.000000,4.000000,82.000000,,,,0.000000,4.000000,4.000000,4.000000,4.000000,4.000000,4.000000,4.000000,4.000000,4.000000,4.000000,4.000000,4.000000,4.000000,4.000000,100.000000,,,,,,,,,,,,,,,,
1645711888.693856,197.000000,0.000000,4177.948730,4232.179688,4200.512695,4204.102539,4211.922852,4222.051270,4221.410156,4213.461426,4208.974121,4210.000000,4200.384766,4156.922852,4203.205078,4202.948730,3266.000000,4.000000,82.000000,,,,0.000000,4.000000,4.000000,4.000000,4.000000,4.000000,4.000000,4.000000,4.000000,4.000000,4.000000,4.000000,4.000000,4.000000,4.000000,100.000000,,,,,,,,,,,,,,,,
1645711888.697796,198.000000,0.000000,4172.948730,4242.051270,4202.692383,4212.563965,4221.153809,4226.153809,4221.153809,4215.384766,4212.307617,4223.077148,4207.051270,4155.384766,4207.563965,4187.820313,2315.000000,4.000000,82.000000,,,,0.000000,4.000000,4.000000,4.000000,4.000000,4.000000,4.000000,4.000000,4.000000,4.000000,4.000000,4.000000,4.000000,4.000000,4.000000,100.000000,,,,,,,,,,,,,,,,
1645711888.701736,199.000000,0.000000,4196.666504,4239.743652,4202.051270,4210.512695,4209.102539,4214.230957,4212.820313,4207.820313,4208.205078,4213.717773,4199.230957,4146.538574,4205.128418,4187.820313,2652.000000,4.000000,82.000000,,,,0.000000,4.000000,4.000000,4.000000,4.000000,4.000000,4.000000,4.000000,4.000000,4.000000,4.000000,4.000000,4.000000,4.000000,4.000000,100.000000,,,,,,,,,,,,,,,,
1645711888.705776,200.000000,0.000000,4223.077148,4232.179688,4202.179688,4206.410156,4190.641113,4199.871582,4205.769043,4198.333496,4201.153809,4194.615234,4186.922852,4138.974121,4200.769043,4203.333496,3390.000000,4.000000,82.000000,,,,0.000000,4.000000,4.000000,4.000000,4.000000,4.000000,4.000000,4.000000,4.000000,4.000000,4.000000,4.000000,4.000000,4.000000,4.000000,100.000000,,,,,,,,,,,,,,,,
1645711888.709716,201.000000,0.000000,4222.563965,4231.282227,4205.897461,4211.538574,4188.589844,4199.487305,4207.563965,4196.794922,4199.102539,4188.589844,4186.025879,4141.153809,4201.922852,4218.717773,3266.000000,4.000000,82.000000,,,,0.000000,4.000000,4.000000,4.000000,4.000000,4.000000,4.000000,4.000000,4.000000,4.000000,4.000000,4.000000,4.000000,4.000000,4.000000,100.000000,,,,,,,,,,,,,,,,
1645711888.713656,202.000000,0.000000,4199.230957,4237.948730,4211.025879,4224.102539,4205.128418,4212.563965,4214.358887,4202.692383,4202.563965,4200.641113,4197.948730,4150.641113,4208.205078,4220.000000,2315.000000,4.000000,82.000000,,,,0.000000,4.000000,4.000000,4.000000,4.000000,4.000000,4.000000,4.000000,4.000000,4.000000,4.000000,4.000000,4.000000,4.000000,4.000000,100.000000,,,,,,,,,,,,,,,,
1645711888.717596,203.000000,0.000000,4184.871582,4241.666504,4212.436035,4229.743652,4220.384766,4222.563965,4216.666504,4205.769043,4204.743652,4212.820313,4207.563965,4156.794922,4212.051270,4210.641113,2652.000000,4.000000,82.000000,,,,0.000000,4.000000,4.000000,4.000000,4.000000,4.000000,4.000000,4.000000,4.000000,4.000000,4.000000,4.000000,4.000000,4.000000,4.000000,100.000000,,,,,,,,,,,,,,,,
1645711888.721536,204.000000,0.000000,4197.436035,4235.641113,4208.974121,4220.512695,4217.307617,4218.205078,4211.538574,4199.487305,4200.641113,4208.333496,4203.846191,4153.589844,4207.692383,4204.871582,3390.000000,4.000000,82.000000,,,,0.000000,4.000000,4.000000,4.000000,4.000000,4.000000,4.000000,4.000000,4.000000,4.000000,4.000000,4.000000,4.000000,4.000000,4.000000,100.000000,,,,,,,,,,,,,,,,
1645711888.725477,205.000000,0.000000,4218.974121,4226.666504,4204.743652,4205.641113,4201.922852,4206.666504,4205.256348,4190.000000,4194.615234,4192.692383,4193.333496,4146.282227,4199.743652,4210.000000,3266.000000,4.000000,82.000000,,,,0.000000,4.000000,4.000000,4.000000,4.000000,4.000000,4.000000,4.000000,4.000000,4.000000,4.000000,4.000000,4.000000,4.000000,4.000000,100.000000,,,,,,,,,,,,,,,,
1645711888.729417,206.000000,0.000000,4221.282227,4225.769043,4203.717773,4200.128418,4192.692383,4202.051270,4204.230957,4188.333496,4194.230957,4185.000000,4191.153809,4143.974121,4196.922852,4217.563965,2315.000000,4.000000,82.000000,,,,0.000000,4.000000,4.000000,4.000000,4.000000,4.000000,4.000000,4.000000,4.000000,4.000000,4.000000,4.000000,4.000000,4.000000,4.000000,100.000000,,,,,,,,,,,,,,,,
1645711888.733357,207.000000,0.000000,4203.717773,4233.461426,4205.128418,4206.410156,4195.769043,4207.307617,4206.410156,4195.769043,4201.025879,4192.820313,4200.256348,4148.205078,4201.410156,4216.666504,2652.000000,4.000000,82.000000,,,,0.000000,4.000000,4.000000,4.000000,4.000000,4.000000,4.000000,4.000000,4.000000,4.000000,4.000000,4.000000,4.000000,4.000000,4.000000,100.000000,,,,,,,,,,,,,,,,
1645711888.737297,208.000000,0.000000,4192.563965,4239.102539,4205.769043,4213.461426,4200.641113,4211.666504,4206.025879,4202.820313,4207.179688,4204.487305,4208.846191,4152.179688,4206.922852,4208.846191,3390.000000,4.000000,82.000000,,,,0.000000,4.000000,4.000000,4.000000,4.000000,4.000000,4.000000,4.000000,4.000000,4.000000,4.000000,4.000000,4.000000,4.000000,4.000000,100.000000,,,,,,,,,,,,,,,,
1645711888.741237,209.000000,0.000000,4203.846191,4236.153809,4204.743652,4213.205078,4198.461426,4208.333496,4203.077148,4202.051270,4206.538574,4206.410156,4208.205078,4151.410156,4208.205078,4206.153809,3266.000000,4.000000,82.000000,,,,0.000000,4.000000,4.000000,4.000000,4.000000,4.000000,4.000000,4.000000,4.000000,4.000000,4.000000,4.000000,4.000000,4.000000,4.000000,100.000000,,,,,,,,,,,,,,,,
1645711888.745177,210.000000,0.000000,4220.769043,4231.410156,4205.769043,4212.051270,4197.051270,4204.102539,4203.974121,4198.205078,4202.179688,4202.692383,4204.743652,4149.358887,4208.205078,4214.487305,2315.000000,4.000000,82.000000,,,,0.000000,4.000000,4.000000,4.000000,4.000000,4.000000,4.000000,4.000000,4.000000,4.000000,4.000000,4.000000,4.000000,4.000000,4.000000,100.000000,,,,,,,,,,,,,,,,
1645711888.749117,211.000000,0.000000,4217.307617,4235.256348,4210.128418,4220.512695,4208.717773,4210.256348,4212.820313,4201.282227,4202.692383,4207.692383,4209.871582,4151.794922,4212.563965,4225.000000,2652.000000,4.000000,82.000000,,,,0.000000,4.000000,4.000000,4.000000,4.000000,4.000000,4.000000,4.000000,4.000000,4.000000,4.000000,4.000000,4.000000,4.000000,4.000000,100.000000,,,,,,,,,,,,,,,,
1645711888.753057,212.000000,0.000000,4194.487305,4246.666504,4214.230957,4235.897461,4229.102539,4224.358887,4223.333496,4212.436035,4210.384766,4223.717773,4221.282227,4158.333496,4220.897461,4225.512695,3390.000000,4.000000,82.000000,,,,0.000000,4.000000,4.000000,4.000000,4.000000,4.000000,4.000000,4.000000,4.000000,4.000000,4.000000,4.000000,4.000000,4.000000,4.000000,100.000000,,,,,,,,,,,,,,,,
1645711888.756997,213.000000,0.000000,4180.641113,4252.563965,4212.436035,4243.205078,4237.563965,4231.410156,4225.769043,4221.666504,4218.589844,4236.410156,4223.205078,4162.692383,4225.384766,4215.128418,3266.000000,4.000000,82.000000,,,,0.000000,4.000000,4.000000,4.000000,4.000000,4.000000,4.000000,4.000000,4.000000,4.000000,4.000000,4.000000,4.000000,4.000000,4.000000,100.000000,,,,,,,,,,,,,,,,
1645711888.760938,214.000000,0.000000,4193.717773,4243.717773,4204.615234,4233.205078,4221.666504,4222.307617,4218.205078,4220.128418,4219.487305,4232.051270,4208.077148,4160.769043,4221.025879,4205.256348,2315.000000,4.000000,82.000000,,,,0.000000,4.000000,4.000000,4.000000,4.000000,4.000000,4.000000,4.000000,4.000000,4.000000,4.000000,4.000000,4.000000,4.000000,4.000000,100.000000,,,,,,,,,,,,,,,,
1645711888.764878,215.000000,0.000000,4215.641113,4227.179688,4197.307617,4215.512695,4194.615234,4206.025879,4209.230957,4211.538574,4214.487305,4217.051270,4189.615234,4156.794922,4213.077148,4205.000000,2652.000000,4.000000,82.000000,,,,0.000000,4.000000,4.000000,4.000000,4.000000,4.000000,4.000000,4.000000,4.000000,4.000000,4.000000,4.000000,4.000000,4.000000,4.000000,100.000000,,,,,,,,,,,,,,,,
1645711888.768818,216.000000,0.000000,4216.282227,4218.333496,4197.051270,4207.563965,4181.410156,4199.358887,4207.692383,4207.051270,4211.025879,4209.871582,4189.102539,4156.794922,4210.897461,4210.769043,3390.000000,4.000000,82.000000,,,,0.000000,4.000000,4.000000,4.000000,4.000000,4.000000,4.000000,4.000000,4.000000,4.000000,4.000000,4.000000,4.000000,4.000000,4.000000,100.000000,,,,,,,,,,,,,,,,
1645711888.772758,217.000000,0.000000,4193.589844,4222.436035,4202.307617,4212.692383,4188.974121,4205.897461,4212.179688,4210.769043,4212.692383,4217.051270,4209.487305,4160.256348,4216.666504,4214.230957,3266.000000,4.000000,82.000000,,,,0.000000,4.000000,4.000000,4.000000,4.000000,4.000000,4.000000,4.000000,4.000000,4.000000,4.000000,4.000000,4.000000,4.000000,4.000000,100.000000,,,,,,,,,,,,,,,,
1645711888.776798,218.000000,0.000000,4177.051270,4229.743652,4206.025879,4217.820313,4200.000000,4212.563965,4214.871582,4215.512695,4215.128418,4224.743652,4230.128418,4160.256348,4222.307617,4213.846191,2315.000000,4.000000,82.000000,,,,0.000000,4.000000,4.000000,4.000000,4.000000,4.000000,4.000000,4.000000,4.000000,4.000000,4.000000,4.000000,4.000000,4.000000,4.000000,100.000000,,,,,,,,,,,,,,,,
1645711888.780738,219.000000,0.000000,4188.974121,4228.974121,4203.461426,4210.769043,4196.153809,4208.974121,4212.179688,4213.589844,4212.563965,4218.461426,4230.897461,4152.820313,4219.615234,4215.256348,2652.000000,4.000000,82.000000,,,,0.000000,4.000000,4.000000,4.000000,4.000000,4.000000,4.000000,4.000000,4.000000,4.000000,4.000000,4.000000,4.000000,4.000000,4.000000,100.000000,,,,,,,,,,,,,,,,
1645711888.784678,220.000000,0.000000,4214.615234,4222.179688,4197.563965,4197.563965,4182.179688,4200.641113,4209.615234,4207.563965,4206.025879,4203.077148,4214.615234,4142.948730,4210.641113,4220.256348,3390.000000,4.000000,82.000000,,,,0.000000,4.000000,4.000000,4.000000,4.000000,4.000000,4.000000,4.000000,4.000000,4.000000,4.000000,4.000000,4.000000,4.000000,4.000000,100.000000,,,,,,,,,,,,,,,,
1645711888.788618,221.000000,0.000000,4221.666504,4219.871582,4194.487305,4194.230957,4177.692383,4201.666504,4213.077148,4206.025879,4202.820313,4196.666504,4201.538574,4138.974121,4205.000000,4221.282227,3266.000000,4.000000,82.000000,,,,0.000000,4.000000,4.000000,4.000000,4.000000,4.000000,4.000000,4.000000,4.000000,4.000000,4.000000,4.000000,4.000000,4.000000,4.000000,100.000000,,,,,,,,,,,,,,,,
1645711888.792558,222.000000,0.000000,4202.307617,4225.769043,4196.025879,4205.000000,4189.871582,4213.589844,4220.000000,4211.025879,4205.897461,4206.282227,4203.589844,4142.436035,4207.948730,4211.794922,2315.000000,4.000000,82.000000,,,,0.000000,4.000000,4.000000,4.000000,4.000000,4.000000,4.000000,4.000000,4.000000,4.000000,4.000000,4.000000,4.000000,4.000000,4.000000,100.000000,,,,,,,,,,,,,,,,
1645711888.796598,223.000000,0.000000,4183.846191,4231.153809,4198.205078,4216.025879,4203.589844,4222.948730,4221.410156,4213.974121,4210.256348,4217.692383,4211.794922,4146.922852,4214.358887,4197.948730,2652.000000,4.000000,82.000000,,,,0.000000,4.000000,4.000000,4.000000,4.000000,4.000000,4.000000,4.000000,4.000000,4.000000,4.000000,4.000000,4.000000,4.000000,4.000000,100.000000,,,,,,,,,,,,,,,,
1645711888.800538,224.000000,0.000000,4191.153809,4227.948730,4198.077148,4213.461426,4202.051270,4218.333496,4214.743652,4207.692383,4208.974121,4214.743652,4211.794922,4147.307617,4216.666504,4193.846191,3390.000000,4.000000,82.000000,,,,0.000000,4.000000,4.000000,4.000000,4.000000,4.000000,4.000000,4.000000,4.000000,4.000000,4.000000,4.000000,4.000000,4.000000,4.000000,100.000000,,,,,,,,,,,,,,,,
1645711888.804478,225.000000,0.000000,4213.846191,4221.794922,4197.563965,4202.436035,4189.615234,4206.153809,4206.922852,4196.282227,4203.333496,4201.410156,4203.974121,4145.128418,4214.230957,4205.384766,3266.000000,4.000000,82.000000,,,,0.000000,4.000000,4.000000,4.000000,4.000000,4.000000,4.000000,4.000000,4.000000,4.000000,4.000000,4.000000,4.000000,4.000000,4.000000,100.000000,,,,,,,,,,,,,,,,
1645711888.808419,226.000000,0.000000,4221.153809,4225.256348,4200.384766,4200.128418,4186.794922,4202.436035,4205.897461,4190.641113,4200.769043,4196.538574,4200.769043,4145.384766,4213.333496,4221.794922,2315.000000,4.000000,82.000000,,,,0.000000,4.000000,4.000000,4.000000,4.000000,4.000000,4.000000,4.000000,4.000000,4.000000,4.000000,4.000000,4.000000,4.000000,4.000000,100.000000,,,,,,,,,,,,,,,,
1645711888.812459,227.000000,0.000000,4203.846191,4240.000000,4205.769043,4212.948730,4201.666504,4211.410156,4210.128418,4194.358887,4204.230957,4208.205078,4208.077148,4148.205078,4216.922852,4227.307617,2652.000000,4.000000,82.000000,,,,0.000000,4.000000,4.000000,4.000000,4.000000,4.000000,4.000000,4.000000,4.000000,4.000000,4.000000,4.000000,4.000000,4.000000,4.000000,100.000000,,,,,,,,,,,,,,,,
1645711888.816399,228.000000,0.000000,4186.410156,4252.051270,4209.102539,4228.205078,4217.948730,4219.871582,4211.025879,4198.205078,4207.179688,4221.794922,4215.384766,4148.974121,4220.512695,4218.717773,3390.000000,4.000000,82.000000,,,,0.000000,4.000000,4.000000,4.000000,4.000000,4.000000,4.000000,4.000000,4.000000,4.000000,4.000000,4.000000,4.000000,4.000000,4.000000,100.000000,,,,,,,,,,,,,,,,
1645711888.820339,229.000000,0.000000,4193.077148,4247.820313,4207.436035,4230.000000,4216.153809,4215.000000,4204.358887,4192.820313,4202.307617,4218.717773,4210.641113,4146.153809,4217.692383,4208.589844,3266.000000,4.000000,82.000000,,,,0.000000,4.000000,4.000000,4.000000,4.000000,4.000000,4.000000,4.000000,4.000000,4.000000,4.000000,4.000000,4.000000,4.000000,4.000000,100.000000,,,,,,,,,,,,,,,,
1645711888.824279,230.000000,0.000000,4214.358887,4231.794922,4203.846191,4219.743652,4198.333496,4201.922852,4196.922852,4181.538574,4192.051270,4200.897461,4197.948730,4144.615234,4209.743652,4207.820313,2315.000000,4.000000,82.000000,,,,0.000000,4.000000,4.000000,4.000000,4.000000,4.000000,4.000000,4.000000,4.000000,4.000000,4.000000,4.000000,4.000000,4.000000,4.000000,100.000000,,,,,,,,,,,,,,,,
1645711888.828219,231.000000,0.000000,4219.487305,4221.538574,4203.589844,4213.333496,4186.153809,4197.692383,4197.692383,4176.922852,4186.153809,4188.717773,4193.461426,4149.615234,4204.487305,4213.589844,2652.000000,4.000000,82.000000,,,,0.000000,4.000000,4.000000,4.000000,4.000000,4.000000,4.000000,4.000000,4.000000,4.000000,4.000000,4.000000,4.000000,4.000000,4.000000,100.000000,,,,,,,,,,,,,,,,
