title:Alex-BpRHddDXeYbrmifDXCCU5A, start timestamp:1645711850.492661, stop timestamp:1645711876.999181, headset type:EPOCPLUS, headset serial:3B9AEBFF, headset firmware:626, channels:55, sampling rate:eeg_256, samples:6731      , version:2.1, 
Timestamp,EEG.Counter,EEG.Interpolated,EEG.AF3,EEG.F7,EEG.F3,EEG.FC5,EEG.T7,EEG.P7,EEG.O1,EEG.O2,EEG.P8,EEG.T8,EEG.FC6,EEG.F4,EEG.F8,EEG.AF4,EEG.RawCq,EEG.Battery,EEG.BatteryPercent,MarkerIndex,MarkerType,MarkerValueInt,EEG.MarkerHardware,CQ.AF3,CQ.F7,CQ.F3,CQ.FC5,CQ.T7,CQ.P7,CQ.O1,CQ.O2,CQ.P8,CQ.T8,CQ.FC6,CQ.F4,CQ.F8,CQ.AF4,CQ.Overall,EQ.SampleRateQuality,EQ.OVERALL,EQ.AF3,EQ.F7,EQ.F3,EQ.FC5,EQ.T7,EQ.P7,EQ.O1,EQ.O2,EQ.P8,EQ.T8,EQ.FC6,EQ.F4,EQ.F8,EQ.AF4
1645711850.492661,226.000000,0.000000,4646.025879,4096.922852,4219.871582,4207.051270,4234.743652,4232.948730,4215.128418,4217.692383,4221.794922,4239.358887,4189.615234,4158.974121,4223.846191,4216.153809,2310.000000,4.000000,82.000000,,,,0.000000,4.000000,4.000000,4.000000,4.000000,4.000000,4.000000,4.000000,4.000000,4.000000,4.000000,4.000000,4.000000,4.000000,4.000000,100.000000,,,,,,,,,,,,,,,,
1645711850.496701,227.000000,0.000000,4754.487305,4095.512939,4221.025879,4204.743652,4232.307617,4229.487305,4215.769043,4218.077148,4220.512695,4237.948730,4187.436035,4163.205078,4220.256348,4215.897461,2672.000000,4.000000,82.000000,,,,0.000000,4.000000,4.000000,4.000000,4.000000,4.000000,4.000000,4.000000,4.000000,4.000000,4.000000,4.000000,4.000000,4.000000,4.000000,100.000000,,,,,,,,,,,,,,,,
1645711850.500641,228.000000,0.000000,4487.948730,4098.205078,4223.846191,4205.512695,4227.179688,4230.769043,4218.717773,4221.282227,4222.948730,4242.820313,4187.948730,4170.128418,4219.230957,4216.153809,3368.000000,4.000000,82.000000,,,,0.000000,4.000000,4.000000,4.000000,4.000000,4.000000,4.000000,4.000000,4.000000,4.000000,4.000000,4.000000,4.000000,4.000000,4.000000,100.000000,,,,,,,,,,,,,,,,
1645711850.504581,229.000000,0.000000,4037.051270,4102.820313,4226.666504,4208.846191,4222.820313,4235.000000,4220.897461,4223.974121,4226.794922,4247.820313,4190.000000,4174.102539,4220.769043,4216.025879,3237.000000,4.000000,82.000000,,,,0.000000,4.000000,4.000000,4.000000,4.000000,4.000000,4.000000,4.000000,4.000000,4.000000,4.000000,4.000000,4.000000,4.000000,4.000000,100.000000,,,,,,,,,,,,,,,,
1645711850.508521,230.000000,0.000000,3706.923096,4104.230957,4227.179688,4212.436035,4218.717773,4237.307617,4219.615234,4221.922852,4227.948730,4246.153809,4188.974121,4171.282227,4221.282227,4216.410156,2310.000000,4.000000,82.000000,,,,0.000000,4.000000,4.000000,4.000000,4.000000,4.000000,4.000000,4.000000,4.000000,4.000000,4.000000,4.000000,4.000000,4.000000,4.000000,100.000000,,,,,,,,,,,,,,,,
1645711850.512461,231.000000,0.000000,3656.923096,4101.282227,4225.512695,4215.512695,4214.743652,4235.641113,4216.282227,4216.025879,4225.000000,4237.692383,4184.358887,4164.487305,4219.615234,4219.230957,2672.000000,4.000000,82.000000,,,,0.000000,4.000000,4.000000,4.000000,4.000000,4.000000,4.000000,4.000000,4.000000,4.000000,4.000000,4.000000,4.000000,4.000000,4.000000,100.000000,,,,,,,,,,,,,,,,
1645711850.516401,232.000000,0.000000,3802.051270,4097.820313,4225.128418,4219.871582,4214.615234,4233.461426,4214.487305,4211.538574,4221.410156,4230.256348,4181.025879,4160.384766,4217.820313,4224.102539,3368.000000,4.000000,82.000000,,,,0.000000,4.000000,4.000000,4.000000,4.000000,4.000000,4.000000,4.000000,4.000000,4.000000,4.000000,4.000000,4.000000,4.000000,4.000000,100.000000,,,,,,,,,,,,,,,,
1645711850.520341,233.000000,0.000000,3938.589844,4098.205078,4227.820313,4225.769043,4220.256348,4234.487305,4215.512695,4211.666504,4221.025879,4230.256348,4183.461426,4162.692383,4218.461426,4227.307617,3237.000000,4.000000,82.000000,,,,0.000000,4.000000,4.000000,4.000000,4.000000,4.000000,4.000000,4.000000,4.000000,4.000000,4.000000,4.000000,4.000000,4.000000,4.000000,100.000000,,,,,,,,,,,,,,,,
1645711850.524281,234.000000,0.000000,3945.000000,4102.051270,4231.666504,4229.102539,4227.307617,4237.307617,4216.666504,4214.102539,4223.205078,4235.128418,4188.717773,4168.205078,4219.871582,4225.769043,2310.000000,4.000000,82.000000,,,,0.000000,4.000000,4.000000,4.000000,4.000000,4.000000,4.000000,4.000000,4.000000,4.000000,4.000000,4.000000,4.000000,4.000000,4.000000,100.000000,,,,,,,,,,,,,,,,
1645711850.528221,235.000000,0.000000,3857.051270,4105.256348,4233.717773,4225.897461,4228.461426,4237.307617,4215.641113,4213.333496,4224.102539,4237.179688,4189.102539,4170.769043,4218.077148,4220.384766,2672.000000,4.000000,82.000000,,,,0.000000,4.000000,4.000000,4.000000,4.000000,4.000000,4.000000,4.000000,4.000000,4.000000,4.000000,4.000000,4.000000,4.000000,4.000000,100.000000,,,,,,,,,,,,,,,,
1645711850.532162,236.000000,0.000000,3778.974365,4105.000000,4232.820313,4217.692383,4222.051270,4233.717773,4213.077148,4207.563965,4221.666504,4232.692383,4181.794922,4167.820313,4211.922852,4215.769043,3368.000000,4.000000,82.000000,,,,0.000000,4.000000,4.000000,4.000000,4.000000,4.000000,4.000000,4.000000,4.000000,4.000000,4.000000,4.000000,4.000000,4.000000,4.000000,100.000000,,,,,,,,,,,,,,,,
1645711850.536102,237.000000,0.000000,3762.564209,4102.820313,4231.282227,4212.436035,4214.487305,4230.897461,4212.563965,4201.153809,4217.820313,4226.538574,4172.563965,4162.563965,4204.615234,4214.871582,3237.000000,4.000000,82.000000,,,,0.000000,4.000000,4.000000,4.000000,4.000000,4.000000,4.000000,4.000000,4.000000,4.000000,4.000000,4.000000,4.000000,4.000000,4.000000,100.000000,,,,,,,,,,,,,,,,
1645711850.540042,238.000000,0.000000,3779.871826,4100.512695,4230.512695,4215.512695,4211.538574,4232.436035,4215.256348,4199.487305,4216.282227,4225.000000,4169.487305,4159.743652,4200.384766,4215.641113,2310.000000,4.000000,82.000000,,,,0.000000,4.000000,4.000000,4.000000,4.000000,4.000000,4.000000,4.000000,4.000000,4.000000,4.000000,4.000000,4.000000,4.000000,4.000000,100.000000,,,,,,,,,,,,,,,,
1645711850.543982,239.000000,0.000000,3783.205078,4097.820313,4229.871582,4222.820313,4212.948730,4236.538574,4218.589844,4202.948730,4217.820313,4228.717773,4173.974121,4160.256348,4200.000000,4214.230957,2672.000000,4.000000,82.000000,,,,0.000000,4.000000,4.000000,4.000000,4.000000,4.000000,4.000000,4.000000,4.000000,4.000000,4.000000,4.000000,4.000000,4.000000,4.000000,100.000000,,,,,,,,,,,,,,,,
1645711850.547922,240.000000,0.000000,3763.461426,4092.948730,4228.333496,4224.871582,4213.461426,4237.820313,4219.487305,4207.563965,4220.641113,4231.922852,4179.615234,4161.794922,4201.410156,4209.871582,3368.000000,4.000000,82.000000,,,,0.000000,4.000000,4.000000,4.000000,4.000000,4.000000,4.000000,4.000000,4.000000,4.000000,4.000000,4.000000,4.000000,4.000000,4.000000,100.000000,,,,,,,,,,,,,,,,
1645711850.551862,241.000000,0.000000,3742.435791,4087.307617,4226.794922,4218.461426,4212.436035,4234.871582,4218.205078,4210.384766,4222.436035,4230.897461,4181.153809,4162.820313,4202.436035,4206.922852,3237.000000,4.000000,82.000000,,,,0.000000,4.000000,4.000000,4.000000,4.000000,4.000000,4.000000,4.000000,4.000000,4.000000,4.000000,4.000000,4.000000,4.000000,4.000000,100.000000,,,,,,,,,,,,,,,,
1645711850.555802,242.000000,0.000000,3733.589844,4086.538574,4228.461426,4210.384766,4214.487305,4232.820313,4218.589844,4212.563965,4223.717773,4228.717773,4180.128418,4164.358887,4203.717773,4210.128418,2310.000000,4.000000,82.000000,,,,0.000000,4.000000,4.000000,4.000000,4.000000,4.000000,4.000000,4.000000,4.000000,4.000000,4.000000,4.000000,4.000000,4.000000,4.000000,100.000000,,,,,,,,,,,,,,,,
1645711850.559742,243.000000,0.000000,3727.692383,4093.461426,4233.974121,4210.641113,4223.717773,4236.794922,4222.563965,4217.051270,4225.897461,4230.384766,4181.666504,4168.461426,4206.666504,4219.230957,2672.000000,4.000000,82.000000,,,,0.000000,4.000000,4.000000,4.000000,4.000000,4.000000,4.000000,4.000000,4.000000,4.000000,4.000000,4.000000,4.000000,4.000000,4.000000,100.000000,,,,,,,,,,,,,,,,
1645711850.563682,244.000000,0.000000,3713.461426,4103.846191,4239.871582,4220.512695,4236.538574,4244.871582,4227.820313,4223.333496,4227.948730,4235.897461,4186.922852,4173.589844,4210.128418,4227.692383,3368.000000,4.000000,82.000000,,,,0.000000,4.000000,4.000000,4.000000,4.000000,4.000000,4.000000,4.000000,4.000000,4.000000,4.000000,4.000000,4.000000,4.000000,4.000000,100.000000,,,,,,,,,,,,,,,,
1645711850.567722,245.000000,0.000000,3693.589844,4108.846191,4241.410156,4230.769043,4243.846191,4250.384766,4230.256348,4227.692383,4227.820313,4239.743652,4191.666504,4176.282227,4211.153809,4230.000000,3237.000000,4.000000,82.000000,,,,0.000000,4.000000,4.000000,4.000000,4.000000,4.000000,4.000000,4.000000,4.000000,4.000000,4.000000,4.000000,4.000000,4.000000,4.000000,100.000000,,,,,,,,,,,,,,,,
1645711850.571662,246.000000,0.000000,3676.281982,4104.102539,4237.307617,4231.538574,4240.641113,4249.487305,4228.461426,4227.436035,4225.512695,4237.307617,4191.025879,4173.974121,4208.717773,4225.769043,2310.000000,4.000000,82.000000,,,,0.000000,4.000000,4.000000,4.000000,4.000000,4.000000,4.000000,4.000000,4.000000,4.000000,4.000000,4.000000,4.000000,4.000000,4.000000,100.000000,,,,,,,,,,,,,,,,
1645711850.575603,247.000000,0.000000,3661.666748,4094.615479,4230.256348,4223.077148,4231.538574,4245.000000,4225.000000,4224.230957,4223.717773,4231.153809,4186.538574,4168.461426,4205.641113,4219.615234,2672.000000,4.000000,82.000000,,,,0.000000,4.000000,4.000000,4.000000,4.000000,4.000000,4.000000,4.000000,4.000000,4.000000,4.000000,4.000000,4.000000,4.000000,4.000000,100.000000,,,,,,,,,,,,,,,,
1645711850.579543,248.000000,0.000000,3643.718018,4088.589844,4224.615234,4213.846191,4225.128418,4242.563965,4222.820313,4221.922852,4225.384766,4228.205078,4182.820313,4163.205078,4205.897461,4215.128418,3368.000000,4.000000,82.000000,,,,0.000000,4.000000,4.000000,4.000000,4.000000,4.000000,4.000000,4.000000,4.000000,4.000000,4.000000,4.000000,4.000000,4.000000,4.000000,100.000000,,,,,,,,,,,,,,,,
1645711850.583483,249.000000,0.000000,3621.794922,4088.461426,4222.051270,4210.512695,4224.871582,4242.692383,4221.922852,4222.051270,4229.615234,4230.512695,4182.307617,4160.256348,4209.230957,4212.307617,3237.000000,4.000000,82.000000,,,,0.000000,4.000000,4.000000,4.000000,4.000000,4.000000,4.000000,4.000000,4.000000,4.000000,4.000000,4.000000,4.000000,4.000000,4.000000,100.000000,,,,,,,,,,,,,,,,
1645711850.587423,250.000000,0.000000,3602.692383,4089.358887,4221.282227,4211.794922,4226.153809,4241.922852,4220.256348,4222.563965,4231.922852,4233.205078,4183.205078,4158.846191,4211.410156,4209.102539,2310.000000,4.000000,82.000000,,,,0.000000,4.000000,4.000000,4.000000,4.000000,4.000000,4.000000,4.000000,4.000000,4.000000,4.000000,4.000000,4.000000,4.000000,4.000000,100.000000,,,,,,,,,,,,,,,,
1645711850.591363,251.000000,0.000000,3591.025635,4086.281982,4221.153809,4211.922852,4224.102539,4238.589844,4217.948730,4221.282227,4230.000000,4231.282227,4184.102539,4158.589844,4210.512695,4205.512695,2672.000000,4.000000,82.000000,,,,0.000000,4.000000,4.000000,4.000000,4.000000,4.000000,4.000000,4.000000,4.000000,4.000000,4.000000,4.000000,4.000000,4.000000,4.000000,100.000000,,,,,,,,,,,,,,,,
1645711850.595303,252.000000,0.000000,3582.307617,4081.025635,4221.538574,4209.358887,4219.230957,4236.025879,4217.051270,4219.487305,4226.025879,4226.794922,4186.922852,4160.641113,4208.846191,4204.230957,3368.000000,4.000000,82.000000,,,,0.000000,4.000000,4.000000,4.000000,4.000000,4.000000,4.000000,4.000000,4.000000,4.000000,4.000000,4.000000,4.000000,4.000000,4.000000,100.000000,,,,,,,,,,,,,,,,
1645711850.599243,253.000000,0.000000,3569.230713,4078.974365,4223.717773,4207.563965,4215.897461,4238.461426,4219.230957,4219.743652,4225.128418,4226.153809,4193.077148,4165.641113,4210.512695,4208.077148,3237.000000,4.000000,82.000000,,,,0.000000,4.000000,4.000000,4.000000,4.000000,4.000000,4.000000,4.000000,4.000000,4.000000,4.000000,4.000000,4.000000,4.000000,4.000000,100.000000,,,,,,,,,,,,,,,,
1645711850.603183,254.000000,0.000000,3551.153809,4081.666748,4227.051270,4209.358887,4215.897461,4244.230957,4222.307617,4222.051270,4228.846191,4231.794922,4199.487305,4171.025879,4216.153809,4216.794922,2310.000000,4.000000,82.000000,,,,0.000000,4.000000,4.000000,4.000000,4.000000,4.000000,4.000000,4.000000,4.000000,4.000000,4.000000,4.000000,4.000000,4.000000,4.000000,100.000000,,,,,,,,,,,,,,,,
1645711850.607123,255.000000,0.000000,3534.487061,4085.512939,4230.384766,4213.717773,4217.179688,4247.563965,4223.333496,4224.102539,4234.358887,4239.358887,4200.641113,4173.205078,4221.538574,4226.282227,112.000000,4.000000,82.000000,,,,0.000000,4.000000,4.000000,4.000000,4.000000,4.000000,4.000000,4.000000,4.000000,4.000000,4.000000,4.000000,4.000000,4.000000,4.000000,100.000000,,,,,,,,,,,,,,,,
1645711850.611064,0.000000,0.000000,3523.974365,4086.923096,4233.333496,4217.179688,4218.846191,4245.000000,4222.051270,4224.230957,4237.563965,4243.846191,4196.794922,4171.922852,4223.846191,4232.820313,3305.000000,4.000000,82.000000,,,,0.000000,4.000000,4.000000,4.000000,4.000000,4.000000,4.000000,4.000000,4.000000,4.000000,4.000000,4.000000,4.000000,4.000000,4.000000,100.000000,,,,,,,,,,,,,,,,
1645711850.615004,1.000000,0.000000,3516.281982,4086.410156,4237.179688,4218.077148,4223.333496,4240.384766,4221.282227,4224.230957,4237.051270,4245.384766,4195.641113,4171.538574,4223.974121,4234.487305,3368.000000,4.000000,82.000000,,,,0.000000,4.000000,4.000000,4.000000,4.000000,4.000000,4.000000,4.000000,4.000000,4.000000,4.000000,4.000000,4.000000,4.000000,4.000000,100.000000,,,,,,,,,,,,,,,,
1645711850.618944,2.000000,0.000000,3504.230713,4087.307617,4242.307617,4216.794922,4232.179688,4239.487305,4223.461426,4226.153809,4234.358887,4247.948730,4203.589844,4176.282227,4225.000000,4231.922852,2408.000000,4.000000,82.000000,,,,0.000000,4.000000,4.000000,4.000000,4.000000,4.000000,4.000000,4.000000,4.000000,4.000000,4.000000,4.000000,4.000000,4.000000,4.000000,100.000000,,,,,,,,,,,,,,,,
1645711850.622884,3.000000,0.000000,3485.897461,4090.000000,4246.153809,4214.358887,4240.641113,4243.205078,4226.666504,4228.589844,4231.282227,4251.153809,4216.666504,4184.871582,4227.179688,4227.051270,3391.000000,4.000000,82.000000,,,,0.000000,4.000000,4.000000,4.000000,4.000000,4.000000,4.000000,4.000000,4.000000,4.000000,4.000000,4.000000,4.000000,4.000000,4.000000,100.000000,,,,,,,,,,,,,,,,
1645711850.626824,4.000000,0.000000,3466.025635,4091.025635,4245.128418,4211.153809,4240.641113,4246.153809,4227.307617,4227.307617,4228.333496,4248.974121,4223.461426,4190.641113,4226.922852,4222.179688,3203.000000,4.000000,82.000000,,,,0.000000,4.000000,4.000000,4.000000,4.000000,4.000000,4.000000,4.000000,4.000000,4.000000,4.000000,4.000000,4.000000,4.000000,4.000000,100.000000,,,,,,,,,,,,,,,,
1645711850.630764,5.000000,0.000000,3449.487061,4087.948730,4238.077148,4208.846191,4230.256348,4243.974121,4224.358887,4220.769043,4225.641113,4237.820313,4216.666504,4188.846191,4222.051270,4219.871582,3327.000000,4.000000,82.000000,,,,0.000000,4.000000,4.000000,4.000000,4.000000,4.000000,4.000000,4.000000,4.000000,4.000000,4.000000,4.000000,4.000000,4.000000,4.000000,100.000000,,,,,,,,,,,,,,,,
1645711850.634804,6.000000,0.000000,3435.897461,4082.820557,4228.846191,4209.743652,4217.692383,4238.333496,4220.384766,4212.948730,4224.871582,4223.333496,4202.307617,4181.666504,4214.871582,4220.641113,2939.000000,4.000000,82.000000,,,,0.000000,4.000000,4.000000,4.000000,4.000000,4.000000,4.000000,4.000000,4.000000,4.000000,4.000000,4.000000,4.000000,4.000000,4.000000,100.000000,,,,,,,,,,,,,,,,
1645711850.638744,7.000000,0.000000,3421.025635,4080.128174,4222.948730,4213.589844,4213.589844,4234.871582,4218.846191,4209.615234,4226.922852,4215.897461,4192.948730,4174.871582,4211.025879,4222.436035,2836.000000,4.000000,82.000000,,,,0.000000,4.000000,4.000000,4.000000,4.000000,4.000000,4.000000,4.000000,4.000000,4.000000,4.000000,4.000000,4.000000,4.000000,4.000000,100.000000,,,,,,,,,,,,,,,,
1645711850.642684,8.000000,0.000000,3403.205078,4080.256348,4221.794922,4215.769043,4219.743652,4236.025879,4219.487305,4212.563965,4230.128418,4220.128418,4193.974121,4172.563965,4212.436035,4221.538574,1475.000000,4.000000,82.000000,,,,0.000000,4.000000,4.000000,4.000000,4.000000,4.000000,4.000000,4.000000,4.000000,4.000000,4.000000,4.000000,4.000000,4.000000,4.000000,100.000000,,,,,,,,,,,,,,,,
1645711850.646624,9.000000,0.000000,3384.487061,4079.871826,4223.205078,4211.410156,4226.794922,4238.461426,4219.871582,4217.179688,4230.384766,4229.487305,4199.358887,4172.948730,4216.025879,4216.282227,3139.000000,4.000000,82.000000,,,,0.000000,4.000000,4.000000,4.000000,4.000000,4.000000,4.000000,4.000000,4.000000,4.000000,4.000000,4.000000,4.000000,4.000000,4.000000,100.000000,,,,,,,,,,,,,,,,
1645711850.650564,10.000000,0.000000,3367.435791,4076.538574,4224.230957,4201.410156,4225.641113,4238.974121,4219.230957,4218.846191,4225.897461,4234.102539,4199.358887,4173.205078,4216.666504,4210.000000,2049.000000,4.000000,82.000000,,,,0.000000,4.000000,4.000000,4.000000,4.000000,4.000000,4.000000,4.000000,4.000000,4.000000,4.000000,4.000000,4.000000,4.000000,4.000000,100.000000,,,,,,,,,,,,,,,,
1645711850.654505,11.000000,0.000000,3350.641113,4073.076904,4225.384766,4193.589844,4218.333496,4238.077148,4219.230957,4217.820313,4219.871582,4230.897461,4192.051270,4172.563965,4213.846191,4207.948730,2689.000000,4.000000,82.000000,,,,0.000000,4.000000,4.000000,4.000000,4.000000,4.000000,4.000000,4.000000,4.000000,4.000000,4.000000,4.000000,4.000000,4.000000,4.000000,100.000000,,,,,,,,,,,,,,,,
1645711850.658445,12.000000,0.000000,3332.307617,4074.230713,4227.820313,4194.871582,4215.128418,4239.230957,4221.922852,4218.589844,4217.948730,4225.128418,4184.358887,4172.692383,4211.025879,4211.282227,3303.000000,4.000000,82.000000,,,,0.000000,4.000000,4.000000,4.000000,4.000000,4.000000,4.000000,4.000000,4.000000,4.000000,4.000000,4.000000,4.000000,4.000000,4.000000,100.000000,,,,,,,,,,,,,,,,
1645711850.662385,13.000000,0.000000,3313.718018,4080.512939,4231.153809,4204.230957,4222.179688,4242.436035,4225.897461,4223.333496,4221.922852,4222.179688,4183.461426,4173.589844,4210.256348,4215.769043,3238.000000,4.000000,82.000000,,,,0.000000,4.000000,4.000000,4.000000,4.000000,4.000000,4.000000,4.000000,4.000000,4.000000,4.000000,4.000000,4.000000,4.000000,4.000000,100.000000,,,,,,,,,,,,,,,,
1645711850.666325,14.000000,0.000000,3298.333252,4086.410156,4232.179688,4213.461426,4233.589844,4243.846191,4227.563965,4228.846191,4227.820313,4220.897461,4188.333496,4172.563965,4210.000000,4216.025879,2049.000000,4.000000,82.000000,,,,0.000000,4.000000,4.000000,4.000000,4.000000,4.000000,4.000000,4.000000,4.000000,4.000000,4.000000,4.000000,4.000000,4.000000,4.000000,100.000000,,,,,,,,,,,,,,,,
1645711850.670265,15.000000,0.000000,3284.743652,4086.281982,4229.487305,4215.769043,4238.461426,4241.025879,4225.769043,4230.512695,4229.871582,4217.051270,4192.948730,4168.589844,4207.436035,4211.153809,2689.000000,4.000000,82.000000,,,,0.000000,4.000000,4.000000,4.000000,4.000000,4.000000,4.000000,4.000000,4.000000,4.000000,4.000000,4.000000,4.000000,4.000000,4.000000,100.000000,,,,,,,,,,,,,,,,
1645711850.674205,16.000000,0.000000,3264.615479,4080.384521,4225.512695,4211.922852,4232.692383,4236.410156,4223.077148,4228.205078,4226.282227,4211.153809,4194.358887,4164.230957,4202.563965,4205.256348,3303.000000,4.000000,82.000000,,,,0.000000,4.000000,4.000000,4.000000,4.000000,4.000000,4.000000,4.000000,4.000000,4.000000,4.000000,4.000000,4.000000,4.000000,4.000000,100.000000,,,,,,,,,,,,,,,,
1645711850.678145,17.000000,0.000000,3229.871826,4074.230713,4224.487305,4208.205078,4221.153809,4234.743652,4222.820313,4225.897461,4221.410156,4207.948730,4193.974121,4164.230957,4198.461426,4202.820313,3238.000000,4.000000,82.000000,,,,0.000000,4.000000,4.000000,4.000000,4.000000,4.000000,4.000000,4.000000,4.000000,4.000000,4.000000,4.000000,4.000000,4.000000,4.000000,100.000000,,,,,,,,,,,,,,,,
1645711850.682085,18.000000,0.000000,3183.076904,4071.923096,4227.948730,4208.205078,4211.410156,4236.922852,4225.128418,4226.922852,4220.000000,4210.512695,4193.589844,4169.358887,4197.307617,4204.487305,2049.000000,4.000000,82.000000,,,,0.000000,4.000000,4.000000,4.000000,4.000000,4.000000,4.000000,4.000000,4.000000,4.000000,4.000000,4.000000,4.000000,4.000000,4.000000,100.000000,,,,,,,,,,,,,,,,
1645711850.686025,19.000000,0.000000,3136.923096,4072.435791,4232.436035,4209.743652,4206.410156,4238.717773,4227.307617,4230.128418,4223.333496,4215.384766,4191.282227,4175.384766,4198.333496,4207.692383,2689.000000,4.000000,82.000000,,,,0.000000,4.000000,4.000000,4.000000,4.000000,4.000000,4.000000,4.000000,4.000000,4.000000,4.000000,4.000000,4.000000,4.000000,4.000000,100.000000,,,,,,,,,,,,,,,,
1645711850.689966,20.000000,0.000000,3102.307617,4072.307617,4233.589844,4208.077148,4205.512695,4236.666504,4227.436035,4232.051270,4228.461426,4218.461426,4185.641113,4176.794922,4199.871582,4210.769043,3303.000000,4.000000,82.000000,,,,0.000000,4.000000,4.000000,4.000000,4.000000,4.000000,4.000000,4.000000,4.000000,4.000000,4.000000,4.000000,4.000000,4.000000,4.000000,100.000000,,,,,,,,,,,,,,,,
1645711850.693906,21.000000,0.000000,3076.281982,4071.410156,4230.769043,4202.563965,4209.230957,4233.077148,4226.410156,4231.666504,4232.692383,4220.897461,4180.897461,4173.077148,4202.179688,4213.974121,3238.000000,4.000000,82.000000,,,,0.000000,4.000000,4.000000,4.000000,4.000000,4.000000,4.000000,4.000000,4.000000,4.000000,4.000000,4.000000,4.000000,4.000000,4.000000,100.000000,,,,,,,,,,,,,,,,
1645711850.697846,22.000000,0.000000,3044.871826,4072.307617,4227.307617,4198.077148,4217.948730,4233.974121,4226.282227,4231.153809,4235.384766,4227.179688,4182.563965,4167.692383,4206.282227,4217.179688,2049.000000,4.000000,82.000000,,,,0.000000,4.000000,4.000000,4.000000,4.000000,4.000000,4.000000,4.000000,4.000000,4.000000,4.000000,4.000000,4.000000,4.000000,4.000000,100.000000,,,,,,,,,,,,,,,,
1645711850.701786,23.000000,0.000000,2997.692383,4075.769287,4226.410156,4198.589844,4228.333496,4240.512695,4227.051270,4231.794922,4236.538574,4236.410156,4190.641113,4163.333496,4210.128418,4218.461426,2689.000000,4.000000,82.000000,,,,0.000000,4.000000,4.000000,4.000000,4.000000,4.000000,4.000000,4.000000,4.000000,4.000000,4.000000,4.000000,4.000000,4.000000,4.000000,100.000000,,,,,,,,,,,,,,,,
1645711850.705726,24.000000,0.000000,2938.076904,4078.076904,4227.820313,4202.436035,4233.205078,4246.794922,4227.051270,4232.179688,4235.897461,4239.871582,4197.179688,4160.000000,4209.358887,4215.641113,3303.000000,4.000000,82.000000,,,,0.000000,4.000000,4.000000,4.000000,4.000000,4.000000,4.000000,4.000000,4.000000,4.000000,4.000000,4.000000,4.000000,4.000000,4.000000,100.000000,,,,,,,,,,,,,,,,
1645711850.709566,25.000000,0.000000,2879.230713,4075.641113,4228.974121,4205.256348,4228.589844,4246.794922,4225.641113,4230.000000,4232.692383,4231.025879,4195.256348,4155.641113,4201.538574,4208.589844,3238.000000,4.000000,82.000000,,,,0.000000,4.000000,4.000000,4.000000,4.000000,4.000000,4.000000,4.000000,4.000000,4.000000,4.000000,4.000000,4.000000,4.000000,4.000000,100.000000,,,,,,,,,,,,,,,,
1645711850.713506,26.000000,0.000000,2831.281982,4070.000000,4228.461426,4206.666504,4219.487305,4241.153809,4224.358887,4225.897461,4228.333496,4214.615234,4187.563965,4151.410156,4191.410156,4200.897461,2049.000000,4.000000,82.000000,1,1,0,0.000000,4.000000,4.000000,4.000000,4.000000,4.000000,4.000000,4.000000,4.000000,4.000000,4.000000,4.000000,4.000000,4.000000,4.000000,100.000000,,,,,,,,,,,,,,,,
1645711850.717446,27.000000,0.000000,2795.897461,4067.307617,4227.179688,4209.871582,4216.282227,4237.307617,4226.025879,4223.717773,4225.897461,4204.615234,4183.589844,4151.025879,4187.179688,4196.410156,2689.000000,4.000000,82.000000,,,,0.000000,4.000000,4.000000,4.000000,4.000000,4.000000,4.000000,4.000000,4.000000,4.000000,4.000000,4.000000,4.000000,4.000000,4.000000,100.000000,,,,,,,,,,,,,,,,
1645711850.721386,28.000000,0.000000,2772.307617,4070.897461,4226.794922,4216.922852,4224.743652,4240.000000,4230.384766,4225.897461,4227.563965,4209.743652,4189.487305,4156.794922,4193.717773,4197.051270,3303.000000,4.000000,82.000000,,,,0.000000,4.000000,4.000000,4.000000,4.000000,4.000000,4.000000,4.000000,4.000000,4.000000,4.000000,4.000000,4.000000,4.000000,4.000000,100.000000,,,,,,,,,,,,,,,,
1645711850.725327,29.000000,0.000000,2761.153809,4076.923096,4227.692383,4223.077148,4238.333496,4246.025879,4235.000000,4230.641113,4231.410156,4224.230957,4200.256348,4165.256348,4206.025879,4200.641113,3238.000000,4.000000,82.000000,,,,0.000000,4.000000,4.000000,4.000000,4.000000,4.000000,4.000000,4.000000,4.000000,4.000000,4.000000,4.000000,4.000000,4.000000,4.000000,100.000000,,,,,,,,,,,,,,,,
1645711850.729267,30.000000,0.000000,2756.923096,4077.820557,4228.974121,4222.179688,4244.871582,4248.589844,4237.307617,4233.589844,4233.589844,4233.077148,4204.871582,4170.128418,4214.358887,4203.846191,2049.000000,4.000000,82.000000,,,,0.000000,4.000000,4.000000,4.000000,4.000000,4.000000,4.000000,4.000000,4.000000,4.000000,4.000000,4.000000,4.000000,4.000000,4.000000,100.000000,,,,,,,,,,,,,,,,
1645711850.733207,31.000000,0.000000,2740.641113,4071.538574,4229.871582,4213.846191,4238.717773,4245.384766,4237.563965,4232.436035,4231.922852,4227.307617,4197.948730,4168.205078,4212.692383,4204.358887,2689.000000,4.000000,82.000000,,,,0.000000,4.000000,4.000000,4.000000,4.000000,4.000000,4.000000,4.000000,4.000000,4.000000,4.000000,4.000000,4.000000,4.000000,4.000000,100.000000,,,,,,,,,,,,,,,,
1645711850.737147,32.000000,0.000000,2695.000000,4063.205078,4230.384766,4205.256348,4225.641113,4241.153809,4237.436035,4229.102539,4227.948730,4212.563965,4184.487305,4162.179688,4204.230957,4201.794922,0.000000,4.000000,82.000000,,,,0.000000,4.000000,4.000000,4.000000,4.000000,4.000000,4.000000,4.000000,4.000000,4.000000,4.000000,4.000000,4.000000,4.000000,4.000000,100.000000,,,,,,,,,,,,,,,,
1645711850.741087,33.000000,0.000000,2629.871826,4059.743652,4230.769043,4202.307617,4215.256348,4240.384766,4237.692383,4226.666504,4224.487305,4201.025879,4173.846191,4157.179688,4196.538574,4197.051270,0.000000,4.000000,82.000000,,,,0.000000,4.000000,4.000000,4.000000,4.000000,4.000000,4.000000,4.000000,4.000000,4.000000,4.000000,4.000000,4.000000,4.000000,4.000000,100.000000,,,,,,,,,,,,,,,,
1645711850.745027,34.000000,0.000000,2584.102539,4061.923096,4230.641113,4203.589844,4210.512695,4242.436035,4236.922852,4225.769043,4222.692383,4198.461426,4170.384766,4155.897461,4194.102539,4192.436035,0.000000,4.000000,82.000000,,,,0.000000,4.000000,4.000000,4.000000,4.000000,4.000000,4.000000,4.000000,4.000000,4.000000,4.000000,4.000000,4.000000,4.000000,4.000000,100.000000,,,,,,,,,,,,,,,,
1645711850.748967,35.000000,0.000000,2584.615479,4064.615479,4229.358887,4203.461426,4207.948730,4242.179688,4233.974121,4224.743652,4221.922852,4200.897461,4172.051270,4157.820313,4196.410156,4191.410156,0.000000,4.000000,82.000000,,,,0.000000,4.000000,4.000000,4.000000,4.000000,4.000000,4.000000,4.000000,4.000000,4.000000,4.000000,4.000000,4.000000,4.000000,4.000000,100.000000,,,,,,,,,,,,,,,,
1645711850.752907,36.000000,0.000000,2600.512939,4063.974365,4228.077148,4200.384766,4205.512695,4238.077148,4230.000000,4223.846191,4222.307617,4201.922852,4175.897461,4161.282227,4200.512695,4195.641113,0.000000,4.000000,82.000000,,,,0.000000,4.000000,4.000000,4.000000,4.000000,4.000000,4.000000,4.000000,4.000000,4.000000,4.000000,4.000000,4.000000,4.000000,4.000000,100.000000,,,,,,,,,,,,,,,,
1645711850.756847,37.000000,0.000000,2547.179443,4061.281982,4228.461426,4198.846191,4206.538574,4234.230957,4227.563965,4224.743652,4224.358887,4200.512695,4181.794922,4165.897461,4204.615234,4203.461426,0.000000,4.000000,82.000000,,,,0.000000,4.000000,4.000000,4.000000,4.000000,4.000000,4.000000,4.000000,4.000000,4.000000,4.000000,4.000000,4.000000,4.000000,4.000000,100.000000,,,,,,,,,,,,,,,,
1645711850.760788,38.000000,0.000000,2347.948730,4059.743652,4231.025879,4203.333496,4214.871582,4235.000000,4227.820313,4228.077148,4228.205078,4199.615234,4189.743652,4170.769043,4208.333496,4210.128418,0.000000,4.000000,82.000000,,,,0.000000,4.000000,4.000000,4.000000,4.000000,4.000000,4.000000,4.000000,4.000000,4.000000,4.000000,4.000000,4.000000,4.000000,4.000000,100.000000,,,,,,,,,,,,,,,,
1645711850.764728,39.000000,0.000000,2003.461548,4060.000000,4233.589844,4210.897461,4227.563965,4239.102539,4228.846191,4231.410156,4231.666504,4200.128418,4195.384766,4173.846191,4210.384766,4210.897461,0.000000,4.000000,82.000000,,,,0.000000,4.000000,4.000000,4.000000,4.000000,4.000000,4.000000,4.000000,4.000000,4.000000,4.000000,4.000000,4.000000,4.000000,4.000000,100.000000,,,,,,,,,,,,,,,,
1645711850.768668,40.000000,0.000000,1605.769287,4059.615479,4233.205078,4213.846191,4235.512695,4241.666504,4227.948730,4231.794922,4232.307617,4200.256348,4194.230957,4173.461426,4209.102539,4205.256348,0.000000,4.000000,82.000000,,,,0.000000,4.000000,4.000000,4.000000,4.000000,4.000000,4.000000,4.000000,4.000000,4.000000,4.000000,4.000000,4.000000,4.000000,4.000000,100.000000,,,,,,,,,,,,,,,,
1645711850.772608,41.000000,0.000000,1284.615356,4057.307617,4229.871582,4208.589844,4233.461426,4240.128418,4225.384766,4228.717773,4230.512695,4200.384766,4186.922852,4170.641113,4205.128418,4196.922852,0.000000,4.000000,82.000000,,,,0.000000,4.000000,4.000000,4.000000,4.000000,4.000000,4.000000,4.000000,4.000000,4.000000,4.000000,4.000000,4.000000,4.000000,4.000000,100.000000,,,,,,,,,,,,,,,,
1645711850.776548,42.000000,0.000000,1127.307739,4054.743652,4226.922852,4200.128418,4224.358887,4237.307617,4223.717773,4225.641113,4228.974121,4203.461426,4180.512695,4168.589844,4202.051270,4191.153809,0.000000,4.000000,82.000000,,,,0.000000,4.000000,4.000000,4.000000,4.000000,4.000000,4.000000,4.000000,4.000000,4.000000,4.000000,4.000000,4.000000,4.000000,4.000000,100.000000,,,,,,,,,,,,,,,,
1645711850.780588,43.000000,0.000000,1132.820557,4054.230713,4226.666504,4196.282227,4215.897461,4236.538574,4224.102539,4225.128418,4229.487305,4210.128418,4180.256348,4169.487305,4202.820313,4190.000000,0.000000,4.000000,82.000000,,,,0.000000,4.000000,4.000000,4.000000,4.000000,4.000000,4.000000,4.000000,4.000000,4.000000,4.000000,4.000000,4.000000,4.000000,4.000000,100.000000,,,,,,,,,,,,,,,,
1645711850.784528,44.000000,0.000000,1225.128174,4054.487061,4228.461426,4198.205078,4211.666504,4236.794922,4224.487305,4226.153809,4231.153809,4216.410156,4184.615234,4172.179688,4207.051270,4192.563965,0.000000,4.000000,82.000000,,,,0.000000,4.000000,4.000000,4.000000,4.000000,4.000000,4.000000,4.000000,4.000000,4.000000,4.000000,4.000000,4.000000,4.000000,4.000000,100.000000,,,,,,,,,,,,,,,,
1645711850.788468,45.000000,0.000000,1310.897461,4053.333252,4229.358887,4200.384766,4210.641113,4234.487305,4222.436035,4225.512695,4231.410156,4216.282227,4188.205078,4174.230957,4211.153809,4196.282227,0.000000,4.000000,82.000000,,,,0.000000,4.000000,4.000000,4.000000,4.000000,4.000000,4.000000,4.000000,4.000000,4.000000,4.000000,4.000000,4.000000,4.000000,4.000000,100.000000,,,,,,,,,,,,,,,,
1645711850.792408,46.000000,0.000000,1336.282104,4051.538574,4228.974121,4198.974121,4211.410156,4230.000000,4218.846191,4222.179688,4229.230957,4209.615234,4188.974121,4175.769043,4212.692383,4200.000000,0.000000,4.000000,82.000000,,,,0.000000,4.000000,4.000000,4.000000,4.000000,4.000000,4.000000,4.000000,4.000000,4.000000,4.000000,4.000000,4.000000,4.000000,4.000000,100.000000,,,,,,,,,,,,,,,,
1645711850.796348,47.000000,0.000000,1308.205078,4052.435791,4229.230957,4195.769043,4214.615234,4227.948730,4217.307617,4219.358887,4226.794922,4202.820313,4190.000000,4178.333496,4212.179688,4203.461426,0.000000,4.000000,82.000000,,,,0.000000,4.000000,4.000000,4.000000,4.000000,4.000000,4.000000,4.000000,4.000000,4.000000,4.000000,4.000000,4.000000,4.000000,4.000000,100.000000,,,,,,,,,,,,,,,,
1645711850.800288,48.000000,0.000000,1272.820557,4057.051270,4231.922852,4195.512695,4220.000000,4231.538574,4219.871582,4219.871582,4225.897461,4201.666504,4194.358887,4181.666504,4211.538574,4206.025879,0.000000,4.000000,82.000000,,,,0.000000,4.000000,4.000000,4.000000,4.000000,4.000000,4.000000,4.000000,4.000000,4.000000,4.000000,4.000000,4.000000,4.000000,4.000000,100.000000,,,,,,,,,,,,,,,,
1645711850.804328,49.000000,0.000000,1271.923096,4061.153809,4235.641113,4199.230957,4222.436035,4237.436035,4223.974121,4222.307617,4226.153809,4204.871582,4198.974121,4181.794922,4210.769043,4206.282227,0.000000,4.000000,82.000000,,,,0.000000,4.000000,4.000000,4.000000,4.000000,4.000000,4.000000,4.000000,4.000000,4.000000,4.000000,4.000000,4.000000,4.000000,4.000000,100.000000,,,,,,,,,,,,,,,,
1645711850.808269,50.000000,0.000000,1311.794922,4059.615479,4237.179688,4204.102539,4217.436035,4238.974121,4225.128418,4223.077148,4225.256348,4206.025879,4198.077148,4175.641113,4208.974121,4204.487305,0.000000,4.000000,82.000000,,,,0.000000,4.000000,4.000000,4.000000,4.000000,4.000000,4.000000,4.000000,4.000000,4.000000,4.000000,4.000000,4.000000,4.000000,4.000000,100.000000,,,,,,,,,,,,,,,,
1645711850.812109,51.000000,0.000000,1364.871826,4053.076904,4235.512695,4207.820313,4207.051270,4233.846191,4222.563965,4220.897461,4223.205078,4202.307617,4190.512695,4165.641113,4206.282227,4203.589844,0.000000,4.000000,82.000000,,,,0.000000,4.000000,4.000000,4.000000,4.000000,4.000000,4.000000,4.000000,4.000000,4.000000,4.000000,4.000000,4.000000,4.000000,4.000000,100.000000,,,,,,,,,,,,,,,,
1645711850.816049,52.000000,0.000000,1401.410278,4048.076904,4233.461426,4210.769043,4200.384766,4226.666504,4218.846191,4218.589844,4222.820313,4197.820313,4183.333496,4158.974121,4204.615234,4206.282227,0.000000,4.000000,82.000000,,,,0.000000,4.000000,4.000000,4.000000,4.000000,4.000000,4.000000,4.000000,4.000000,4.000000,4.000000,4.000000,4.000000,4.000000,4.000000,100.000000,,,,,,,,,,,,,,,,
1645711850.819989,53.000000,0.000000,1415.000000,4049.615479,4233.974121,4212.820313,4203.333496,4223.205078,4217.051270,4219.102539,4225.512695,4197.820313,4183.717773,4160.769043,4205.000000,4211.153809,0.000000,4.000000,82.000000,,,,0.000000,4.000000,4.000000,4.000000,4.000000,4.000000,4.000000,4.000000,4.000000,4.000000,4.000000,4.000000,4.000000,4.000000,4.000000,100.000000,,,,,,,,,,,,,,,,
1645711850.823929,54.000000,0.000000,1420.640991,4054.871826,4236.153809,4211.538574,4211.025879,4223.589844,4216.794922,4220.897461,4229.102539,4200.769043,4190.897461,4167.948730,4205.512695,4213.461426,0.000000,4.000000,82.000000,,,,0.000000,4.000000,4.000000,4.000000,4.000000,4.000000,4.000000,4.000000,4.000000,4.000000,4.000000,4.000000,4.000000,4.000000,4.000000,100.000000,,,,,,,,,,,,,,,,
1645711850.827869,55.000000,0.000000,1432.564087,4056.153809,4236.794922,4204.615234,4213.589844,4223.717773,4215.897461,4219.743652,4229.230957,4200.384766,4196.666504,4173.077148,4203.461426,4209.487305,0.000000,4.000000,82.000000,,,,0.000000,4.000000,4.000000,4.000000,4.000000,4.000000,4.000000,4.000000,4.000000,4.000000,4.000000,4.000000,4.000000,4.000000,4.000000,100.000000,,,,,,,,,,,,,,,,
1645711850.831809,56.000000,0.000000,1450.512817,4050.384521,4234.871582,4195.641113,4208.461426,4221.922852,4214.358887,4214.615234,4224.743652,4194.615234,4195.256348,4171.666504,4199.102539,4200.641113,0.000000,4.000000,82.000000,,,,0.000000,4.000000,4.000000,4.000000,4.000000,4.000000,4.000000,4.000000,4.000000,4.000000,4.000000,4.000000,4.000000,4.000000,4.000000,100.000000,,,,,,,,,,,,,,,,
1645711850.835749,57.000000,0.000000,1466.410278,4042.564209,4232.563965,4192.179688,4204.102539,4221.410156,4214.871582,4210.128418,4219.871582,4189.743652,4189.358887,4166.666504,4196.153809,4191.922852,0.000000,4.000000,82.000000,,,,0.000000,4.000000,4.000000,4.000000,4.000000,4.000000,4.000000,4.000000,4.000000,4.000000,4.000000,4.000000,4.000000,4.000000,4.000000,100.000000,,,,,,,,,,,,,,,,
1645711850.839690,58.000000,0.000000,1477.820557,4040.512939,4232.179688,4198.333496,4210.000000,4225.769043,4218.589844,4211.538574,4219.487305,4192.563965,4185.641113,4163.461426,4198.077148,4187.820313,0.000000,4.000000,82.000000,,,,0.000000,4.000000,4.000000,4.000000,4.000000,4.000000,4.000000,4.000000,4.000000,4.000000,4.000000,4.000000,4.000000,4.000000,4.000000,100.000000,,,,,,,,,,,,,,,,
1645711850.843630,59.000000,0.000000,1490.256470,4045.769287,4233.333496,4208.846191,4223.846191,4233.077148,4223.333496,4218.333496,4224.102539,4201.025879,4185.769043,4164.487305,4202.948730,4189.102539,0.000000,4.000000,82.000000,,,,0.000000,4.000000,4.000000,4.000000,4.000000,4.000000,4.000000,4.000000,4.000000,4.000000,4.000000,4.000000,4.000000,4.000000,4.000000,100.000000,,,,,,,,,,,,,,,,
1645711850.847570,60.000000,0.000000,1509.743530,4051.923096,4233.974121,4213.461426,4233.461426,4237.436035,4225.256348,4224.615234,4229.102539,4205.641113,4185.512695,4166.794922,4205.769043,4193.589844,0.000000,4.000000,82.000000,,,,0.000000,4.000000,4.000000,4.000000,4.000000,4.000000,4.000000,4.000000,4.000000,4.000000,4.000000,4.000000,4.000000,4.000000,4.000000,100.000000,,,,,,,,,,,,,,,,
1645711850.851510,61.000000,0.000000,1533.974365,4052.820557,4233.077148,4207.307617,4230.512695,4236.410156,4224.102539,4225.512695,4229.487305,4200.512695,4181.922852,4167.307617,4203.589844,4199.102539,0.000000,4.000000,82.000000,,,,0.000000,4.000000,4.000000,4.000000,4.000000,4.000000,4.000000,4.000000,4.000000,4.000000,4.000000,4.000000,4.000000,4.000000,4.000000,100.000000,,,,,,,,,,,,,,,,
1645711850.855450,62.000000,0.000000,1553.974365,4049.487061,4232.820313,4196.538574,4219.871582,4233.205078,4222.820313,4222.051270,4225.384766,4190.256348,4177.948730,4166.538574,4199.743652,4203.846191,0.000000,4.000000,82.000000,,,,0.000000,4.000000,4.000000,4.000000,4.000000,4.000000,4.000000,4.000000,4.000000,4.000000,4.000000,4.000000,4.000000,4.000000,4.000000,100.000000,,,,,,,,,,,,,,,,
1645711850.859390,63.000000,0.000000,1564.615356,4046.794922,4234.615234,4191.025879,4213.333496,4232.948730,4223.974121,4219.615234,4221.410156,4185.128418,4179.230957,4166.922852,4199.102539,4206.153809,0.000000,4.000000,82.000000,,,,0.000000,4.000000,4.000000,4.000000,4.000000,4.000000,4.000000,4.000000,4.000000,4.000000,4.000000,4.000000,4.000000,4.000000,4.000000,100.000000,,,,,,,,,,,,,,,,
1645711850.863330,64.000000,0.000000,1570.128174,4047.564209,4237.692383,4194.358887,4216.153809,4235.641113,4226.153809,4221.282227,4221.153809,4189.358887,4186.794922,4169.487305,4203.205078,4204.743652,0.000000,4.000000,82.000000,,,,0.000000,4.000000,4.000000,4.000000,4.000000,4.000000,4.000000,4.000000,4.000000,4.000000,4.000000,4.000000,4.000000,4.000000,4.000000,100.000000,,,,,,,,,,,,,,,,
1645711850.867270,65.000000,0.000000,1580.897461,4048.974365,4239.487305,4201.025879,4221.538574,4236.922852,4227.051270,4225.384766,4224.358887,4197.820313,4195.897461,4172.307617,4208.846191,4201.153809,0.000000,4.000000,82.000000,,,,0.000000,4.000000,4.000000,4.000000,4.000000,4.000000,4.000000,4.000000,4.000000,4.000000,4.000000,4.000000,4.000000,4.000000,4.000000,100.000000,,,,,,,,,,,,,,,,
1645711850.871210,66.000000,0.000000,1602.179443,4048.076904,4239.358887,4204.487305,4220.128418,4233.974121,4226.410156,4228.974121,4228.333496,4202.307617,4201.666504,4173.589844,4212.307617,4199.615234,0.000000,4.000000,82.000000,,,,0.000000,4.000000,4.000000,4.000000,4.000000,4.000000,4.000000,4.000000,4.000000,4.000000,4.000000,4.000000,4.000000,4.000000,4.000000,100.000000,,,,,,,,,,,,,,,,
1645711850.875051,67.000000,0.000000,1629.102539,4045.384521,4239.358887,4203.974121,4211.410156,4229.871582,4226.282227,4231.666504,4231.538574,4201.282227,4205.256348,4174.615234,4214.230957,4203.717773,0.000000,4.000000,82.000000,,,,0.000000,4.000000,4.000000,4.000000,4.000000,4.000000,4.000000,4.000000,4.000000,4.000000,4.000000,4.000000,4.000000,4.000000,4.000000,100.000000,,,,,,,,,,,,,,,,
1645711850.878991,68.000000,0.000000,1651.923096,4044.358887,4241.025879,4204.230957,4203.974121,4229.358887,4227.692383,4234.615234,4234.487305,4199.615234,4210.897461,4177.436035,4217.436035,4212.307617,0.000000,4.000000,82.000000,,,,0.000000,4.000000,4.000000,4.000000,4.000000,4.000000,4.000000,4.000000,4.000000,4.000000,4.000000,4.000000,4.000000,4.000000,4.000000,100.000000,,,,,,,,,,,,,,,,
1645711850.882931,69.000000,0.000000,1667.051270,4045.512939,4243.846191,4207.051270,4205.769043,4233.333496,4229.230957,4237.692383,4237.563965,4201.538574,4218.205078,4181.538574,4222.051270,4219.743652,0.000000,4.000000,82.000000,,,,0.000000,4.000000,4.000000,4.000000,4.000000,4.000000,4.000000,4.000000,4.000000,4.000000,4.000000,4.000000,4.000000,4.000000,4.000000,100.000000,,,,,,,,,,,,,,,,
1645711850.886871,70.000000,0.000000,1678.974365,4046.281982,4245.384766,4209.102539,4215.384766,4237.563965,4229.102539,4238.205078,4239.230957,4205.769043,4220.384766,4183.717773,4224.230957,4221.282227,0.000000,4.000000,82.000000,,,,0.000000,4.000000,4.000000,4.000000,4.000000,4.000000,4.000000,4.000000,4.000000,4.000000,4.000000,4.000000,4.000000,4.000000,4.000000,100.000000,,,,,,,,,,,,,,,,
1645711850.890811,71.000000,0.000000,1693.333374,4044.102539,4244.615234,4205.512695,4224.743652,4238.717773,4227.563965,4234.230957,4237.563965,4208.333496,4212.436035,4182.307617,4221.282227,4216.666504,0.000000,4.000000,82.000000,2,1,0,0.000000,4.000000,4.000000,4.000000,4.000000,4.000000,4.000000,4.000000,4.000000,4.000000,4.000000,4.000000,4.000000,4.000000,4.000000,100.000000,,,,,,,,,,,,,,,,
1645711850.894751,72.000000,0.000000,1709.487183,4040.641113,4243.205078,4197.307617,4228.205078,4238.205078,4226.922852,4228.461426,4233.589844,4208.717773,4199.102539,4179.358887,4215.128418,4209.743652,0.000000,4.000000,82.000000,,,,0.000000,4.000000,4.000000,4.000000,4.000000,4.000000,4.000000,4.000000,4.000000,4.000000,4.000000,4.000000,4.000000,4.000000,4.000000,100.000000,,,,,,,,,,,,,,,,
1645711850.898691,73.000000,0.000000,1723.333374,4040.256348,4243.461426,4190.384766,4226.282227,4239.615234,4228.589844,4225.384766,4230.384766,4209.102539,4191.153809,4178.589844,4211.538574,4203.717773,0.000000,4.000000,82.000000,,,,0.000000,4.000000,4.000000,4.000000,4.000000,4.000000,4.000000,4.000000,4.000000,4.000000,4.000000,4.000000,4.000000,4.000000,4.000000,100.000000,,,,,,,,,,,,,,,,
1645711850.902631,74.000000,0.000000,1734.102539,4043.076904,4245.000000,4188.205078,4222.051270,4242.436035,4230.641113,4226.666504,4230.128418,4210.256348,4193.717773,4180.512695,4212.692383,4199.487305,0.000000,4.000000,82.000000,,,,0.000000,4.000000,4.000000,4.000000,4.000000,4.000000,4.000000,4.000000,4.000000,4.000000,4.000000,4.000000,4.000000,4.000000,4.000000,100.000000,,,,,,,,,,,,,,,,
1645711850.906571,75.000000,0.000000,1746.666626,4045.000000,4245.128418,4187.948730,4216.922852,4242.436035,4229.871582,4229.102539,4231.538574,4208.717773,4201.282227,4181.666504,4214.871582,4196.538574,0.000000,4.000000,82.000000,,,,0.000000,4.000000,4.000000,4.000000,4.000000,4.000000,4.000000,4.000000,4.000000,4.000000,4.000000,4.000000,4.000000,4.000000,4.000000,100.000000,,,,,,,,,,,,,,,,
1645711850.910512,76.000000,0.000000,1764.359009,4042.179443,4241.922852,4185.128418,4210.769043,4237.692383,4225.897461,4228.974121,4232.051270,4201.922852,4204.102539,4178.846191,4212.692383,4195.769043,0.000000,4.000000,82.000000,,,,0.000000,4.000000,4.000000,4.000000,4.000000,4.000000,4.000000,4.000000,4.000000,4.000000,4.000000,4.000000,4.000000,4.000000,4.000000,100.000000,,,,,,,,,,,,,,,,
1645711850.914452,77.000000,0.000000,1783.846191,4036.538574,4237.179688,4180.512695,4206.410156,4232.051270,4222.179688,4226.025879,4231.025879,4192.948730,4200.000000,4174.102539,4205.769043,4198.717773,0.000000,4.000000,82.000000,,,,0.000000,4.000000,4.000000,4.000000,4.000000,4.000000,4.000000,4.000000,4.000000,4.000000,4.000000,4.000000,4.000000,4.000000,4.000000,100.000000,,,,,,,,,,,,,,,,
1645711850.918392,78.000000,0.000000,1799.230713,4034.102539,4234.871582,4180.256348,4207.948730,4231.666504,4222.051270,4223.333496,4230.256348,4188.205078,4195.256348,4172.051270,4199.358887,4204.743652,0.000000,4.000000,82.000000,,,,0.000000,4.000000,4.000000,4.000000,4.000000,4.000000,4.000000,4.000000,4.000000,4.000000,4.000000,4.000000,4.000000,4.000000,4.000000,100.000000,,,,,,,,,,,,,,,,
1645711850.922332,79.000000,0.000000,1810.000000,4037.692383,4237.436035,4187.948730,4216.282227,4237.948730,4225.641113,4223.077148,4230.897461,4191.025879,4195.897461,4175.512695,4198.077148,4210.256348,0.000000,4.000000,82.000000,,,,0.000000,4.000000,4.000000,4.000000,4.000000,4.000000,4.000000,4.000000,4.000000,4.000000,4.000000,4.000000,4.000000,4.000000,4.000000,100.000000,,,,,,,,,,,,,,,,
1645711850.926272,80.000000,0.000000,1822.435913,4043.846191,4243.333496,4199.487305,4226.794922,4245.384766,4229.871582,4224.615234,4232.051270,4197.692383,4201.153809,4182.307617,4202.051270,4212.307617,0.000000,4.000000,82.000000,,,,0.000000,4.000000,4.000000,4.000000,4.000000,4.000000,4.000000,4.000000,4.000000,4.000000,4.000000,4.000000,4.000000,4.000000,4.000000,100.000000,,,,,,,,,,,,,,,,
1645711850.930212,81.000000,0.000000,1841.153809,4047.051270,4248.333496,4207.179688,4233.205078,4248.077148,4232.307617,4225.512695,4232.051270,4202.563965,4205.512695,4187.692383,4207.179688,4210.769043,0.000000,4.000000,82.000000,,,,0.000000,4.000000,4.000000,4.000000,4.000000,4.000000,4.000000,4.000000,4.000000,4.000000,4.000000,4.000000,4.000000,4.000000,4.000000,100.000000,,,,,,,,,,,,,,,,
1645711850.934152,82.000000,0.000000,1862.692261,4045.641113,4249.358887,4207.692383,4233.717773,4246.153809,4233.077148,4225.769043,4231.153809,4204.358887,4206.410156,4189.487305,4210.897461,4208.589844,0.000000,4.000000,82.000000,,,,0.000000,4.000000,4.000000,4.000000,4.000000,4.000000,4.000000,4.000000,4.000000,4.000000,4.000000,4.000000,4.000000,4.000000,4.000000,100.000000,,,,,,,,,,,,,,,,
1645711850.938092,83.000000,0.000000,1879.615356,4042.692383,4246.538574,4203.333496,4230.256348,4243.333496,4233.717773,4227.051270,4231.410156,4206.666504,4206.282227,4188.205078,4213.205078,4208.205078,0.000000,4.000000,82.000000,,,,0.000000,4.000000,4.000000,4.000000,4.000000,4.000000,4.000000,4.000000,4.000000,4.000000,4.000000,4.000000,4.000000,4.000000,4.000000,100.000000,,,,,,,,,,,,,,,,
1645711850.942032,84.000000,0.000000,1889.871826,4040.512939,4242.307617,4198.461426,4224.615234,4242.179688,4234.615234,4229.743652,4233.717773,4210.641113,4206.794922,4184.743652,4214.615234,4209.615234,0.000000,4.000000,82.000000,,,,0.000000,4.000000,4.000000,4.000000,4.000000,4.000000,4.000000,4.000000,4.000000,4.000000,4.000000,4.000000,4.000000,4.000000,4.000000,100.000000,,,,,,,,,,,,,,,,
1645711850.945972,85.000000,0.000000,1899.230713,4038.205078,4238.846191,4194.871582,4216.153809,4240.897461,4234.743652,4231.794922,4235.641113,4211.410156,4205.897461,4179.615234,4214.358887,4211.153809,0.000000,4.000000,82.000000,,,,0.000000,4.000000,4.000000,4.000000,4.000000,4.000000,4.000000,4.000000,4.000000,4.000000,4.000000,4.000000,4.000000,4.000000,4.000000,100.000000,,,,,,,,,,,,,,,,
1645711850.949813,86.000000,0.000000,1914.230713,4034.615479,4237.307617,4192.436035,4207.307617,4237.563965,4233.461426,4231.153809,4235.128418,4203.974121,4201.153809,4173.589844,4211.410156,4212.051270,0.000000,4.000000,82.000000,,,,0.000000,4.000000,4.000000,4.000000,4.000000,4.000000,4.000000,4.000000,4.000000,4.000000,4.000000,4.000000,4.000000,4.000000,4.000000,100.000000,,,,,,,,,,,,,,,,
1645711850.953753,87.000000,0.000000,1934.487183,4031.410156,4238.333496,4191.538574,4204.743652,4234.615234,4232.307617,4229.230957,4232.563965,4191.153809,4195.641113,4169.487305,4207.563965,4212.179688,0.000000,4.000000,82.000000,,,,0.000000,4.000000,4.000000,4.000000,4.000000,4.000000,4.000000,4.000000,4.000000,4.000000,4.000000,4.000000,4.000000,4.000000,4.000000,100.000000,,,,,,,,,,,,,,,,
1645711850.957693,88.000000,0.000000,1953.461548,4032.564209,4241.538574,4194.358887,4212.820313,4235.769043,4233.205078,4229.487305,4231.153809,4183.077148,4194.743652,4170.128418,4206.538574,4211.153809,0.000000,4.000000,82.000000,,,,0.000000,4.000000,4.000000,4.000000,4.000000,4.000000,4.000000,4.000000,4.000000,4.000000,4.000000,4.000000,4.000000,4.000000,4.000000,100.000000,,,,,,,,,,,,,,,,
1645711850.961633,89.000000,0.000000,1967.435913,4038.589844,4244.615234,4199.871582,4226.282227,4240.769043,4235.384766,4232.436035,4232.307617,4185.769043,4199.102539,4174.358887,4209.615234,4208.205078,0.000000,4.000000,82.000000,,,,0.000000,4.000000,4.000000,4.000000,4.000000,4.000000,4.000000,4.000000,4.000000,4.000000,4.000000,4.000000,4.000000,4.000000,4.000000,100.000000,,,,,,,,,,,,,,,,
1645711850.965573,90.000000,0.000000,1979.743530,4044.102539,4244.487305,4204.230957,4232.307617,4243.589844,4236.153809,4234.487305,4233.589844,4194.615234,4202.948730,4176.922852,4213.077148,4203.589844,0.000000,4.000000,82.000000,,,,0.000000,4.000000,4.000000,4.000000,4.000000,4.000000,4.000000,4.000000,4.000000,4.000000,4.000000,4.000000,4.000000,4.000000,4.000000,100.000000,,,,,,,,,,,,,,,,
1645711850.969513,91.000000,0.000000,1994.487183,4042.948730,4240.000000,4203.846191,4223.205078,4239.487305,4234.230957,4231.666504,4232.051270,4198.461426,4200.384766,4173.461426,4211.282227,4199.871582,0.000000,4.000000,82.000000,,,,0.000000,4.000000,4.000000,4.000000,4.000000,4.000000,4.000000,4.000000,4.000000,4.000000,4.000000,4.000000,4.000000,4.000000,4.000000,100.000000,,,,,,,,,,,,,,,,
1645711850.973453,92.000000,0.000000,2011.153809,4035.512939,4234.230957,4200.897461,4205.897461,4231.794922,4231.282227,4225.128418,4228.205078,4192.820313,4193.077148,4165.641113,4203.461426,4199.743652,0.000000,4.000000,82.000000,,,,0.000000,4.000000,4.000000,4.000000,4.000000,4.000000,4.000000,4.000000,4.000000,4.000000,4.000000,4.000000,4.000000,4.000000,4.000000,100.000000,,,,,,,,,,,,,,,,
1645711850.977393,93.000000,0.000000,2025.128174,4028.333252,4231.153809,4200.000000,4196.410156,4227.948730,4230.128418,4220.000000,4225.769043,4183.333496,4188.205078,4159.358887,4194.358887,4202.692383,0.000000,4.000000,82.000000,,,,0.000000,4.000000,4.000000,4.000000,4.000000,4.000000,4.000000,4.000000,4.000000,4.000000,4.000000,4.000000,4.000000,4.000000,4.000000,100.000000,,,,,,,,,,,,,,,,
1645711850.981334,94.000000,0.000000,2035.384644,4027.307617,4232.692383,4201.922852,4203.589844,4231.153809,4230.256348,4219.871582,4227.179688,4178.717773,4189.871582,4159.358887,4189.871582,4204.487305,0.000000,4.000000,82.000000,,,,0.000000,4.000000,4.000000,4.000000,4.000000,4.000000,4.000000,4.000000,4.000000,4.000000,4.000000,4.000000,4.000000,4.000000,4.000000,100.000000,,,,,,,,,,,,,,,,
1645711850.985274,95.000000,0.000000,2047.051270,4031.666748,4236.282227,4201.794922,4219.102539,4236.153809,4228.589844,4222.692383,4229.743652,4179.871582,4193.846191,4163.205078,4191.538574,4202.051270,0.000000,4.000000,82.000000,,,,0.000000,4.000000,4.000000,4.000000,4.000000,4.000000,4.000000,4.000000,4.000000,4.000000,4.000000,4.000000,4.000000,4.000000,4.000000,100.000000,,,,,,,,,,,,,,,,
1645711850.989214,96.000000,0.000000,2064.871826,4036.410156,4238.589844,4196.025879,4226.794922,4235.128418,4223.717773,4224.230957,4229.743652,4181.025879,4193.974121,4165.256348,4195.897461,4197.051270,0.000000,4.000000,82.000000,,,,0.000000,4.000000,4.000000,4.000000,4.000000,4.000000,4.000000,4.000000,4.000000,4.000000,4.000000,4.000000,4.000000,4.000000,4.000000,100.000000,,,,,,,,,,,,,,,,
1645711850.993154,97.000000,0.000000,2086.923096,4037.692383,4238.589844,4187.692383,4220.000000,4227.820313,4218.846191,4223.077148,4226.922852,4177.948730,4189.615234,4162.307617,4200.128418,4195.256348,0.000000,4.000000,82.000000,,,,0.000000,4.000000,4.000000,4.000000,4.000000,4.000000,4.000000,4.000000,4.000000,4.000000,4.000000,4.000000,4.000000,4.000000,4.000000,100.000000,,,,,,,,,,,,,,,,
1645711850.997094,98.000000,0.000000,2105.128174,4036.410156,4237.948730,4183.461426,4207.051270,4221.410156,4218.717773,4222.051270,4224.487305,4173.974121,4185.897461,4157.051270,4203.205078,4199.871582,0.000000,4.000000,82.000000,,,,0.000000,4.000000,4.000000,4.000000,4.000000,4.000000,4.000000,4.000000,4.000000,4.000000,4.000000,4.000000,4.000000,4.000000,4.000000,100.000000,,,,,,,,,,,,,,,,
1645711851.001034,99.000000,0.000000,2116.025635,4033.974365,4237.948730,4185.256348,4200.128418,4222.179688,4223.974121,4223.589844,4225.128418,4174.230957,4186.666504,4153.205078,4205.384766,4207.563965,0.000000,4.000000,82.000000,,,,0.000000,4.000000,4.000000,4.000000,4.000000,4.000000,4.000000,4.000000,4.000000,4.000000,4.000000,4.000000,4.000000,4.000000,4.000000,100.000000,,,,,,,,,,,,,,,,
1645711851.004974,100.000000,0.000000,2123.974365,4030.256348,4237.179688,4187.820313,4202.179688,4227.948730,4229.230957,4225.897461,4227.179688,4178.077148,4188.974121,4152.051270,4205.384766,4211.538574,0.000000,4.000000,82.000000,,,,0.000000,4.000000,4.000000,4.000000,4.000000,4.000000,4.000000,4.000000,4.000000,4.000000,4.000000,4.000000,4.000000,4.000000,4.000000,100.000000,,,,,,,,,,,,,,,,
1645711851.008914,101.000000,0.000000,2136.410156,4024.615479,4233.974121,4185.384766,4207.436035,4231.666504,4228.974121,4225.256348,4227.563965,4180.769043,4187.948730,4152.051270,4202.563965,4208.846191,0.000000,4.000000,82.000000,,,,0.000000,4.000000,4.000000,4.000000,4.000000,4.000000,4.000000,4.000000,4.000000,4.000000,4.000000,4.000000,4.000000,4.000000,4.000000,100.000000,,,,,,,,,,,,,,,,
1645711851.012854,102.000000,0.000000,2153.846191,4019.743652,4229.487305,4179.615234,4210.641113,4229.358887,4223.077148,4221.538574,4225.384766,4180.128418,4183.974121,4152.051270,4198.461426,4202.307617,0.000000,4.000000,82.000000,,,,0.000000,4.000000,4.000000,4.000000,4.000000,4.000000,4.000000,4.000000,4.000000,4.000000,4.000000,4.000000,4.000000,4.000000,4.000000,100.000000,,,,,,,,,,,,,,,,
1645711851.016894,103.000000,0.000000,2169.871826,4020.256348,4226.666504,4177.692383,4213.717773,4224.230957,4216.922852,4218.717773,4223.461426,4179.871582,4182.436035,4152.436035,4196.922852,4197.820313,0.000000,4.000000,82.000000,,,,0.000000,4.000000,4.000000,4.000000,4.000000,4.000000,4.000000,4.000000,4.000000,4.000000,4.000000,4.000000,4.000000,4.000000,4.000000,100.000000,,,,,,,,,,,,,,,,
1645711851.020834,104.000000,0.000000,2180.000000,4026.666748,4226.922852,4183.077148,4219.358887,4221.794922,4214.871582,4220.128418,4224.743652,4183.333496,4186.153809,4154.102539,4199.743652,4197.820313,0.000000,4.000000,82.000000,,,,0.000000,4.000000,4.000000,4.000000,4.000000,4.000000,4.000000,4.000000,4.000000,4.000000,4.000000,4.000000,4.000000,4.000000,4.000000,100.000000,,,,,,,,,,,,,,,,
1645711851.024775,105.000000,0.000000,2186.923096,4031.923096,4227.563965,4189.871582,4224.743652,4222.820313,4216.794922,4224.230957,4228.205078,4187.436035,4191.410156,4155.384766,4204.102539,4200.384766,0.000000,4.000000,82.000000,3,1,0,0.000000,4.000000,4.000000,4.000000,4.000000,4.000000,4.000000,4.000000,4.000000,4.000000,4.000000,4.000000,4.000000,4.000000,4.000000,100.000000,,,,,,,,,,,,,,,,
1645711851.028715,106.000000,0.000000,2197.435791,4027.564209,4225.512695,4189.487305,4223.333496,4223.974121,4219.487305,4226.410156,4230.512695,4186.153809,4192.307617,4154.358887,4206.282227,4202.307617,0.000000,4.000000,82.000000,,,,0.000000,4.000000,4.000000,4.000000,4.000000,4.000000,4.000000,4.000000,4.000000,4.000000,4.000000,4.000000,4.000000,4.000000,4.000000,100.000000,,,,,,,,,,,,,,,,
1645711851.032655,107.000000,0.000000,2213.718018,4013.205078,4221.282227,4180.384766,4213.974121,4223.333496,4220.897461,4225.000000,4229.615234,4179.487305,4188.974121,4152.307617,4205.256348,4203.077148,0.000000,4.000000,82.000000,,,,0.000000,4.000000,4.000000,4.000000,4.000000,4.000000,4.000000,4.000000,4.000000,4.000000,4.000000,4.000000,4.000000,4.000000,4.000000,100.000000,,,,,,,,,,,,,,,,
1645711851.036595,108.000000,0.000000,2231.025635,3997.307617,4219.102539,4171.025879,4203.205078,4222.820313,4221.410156,4223.333496,4227.563965,4175.128418,4188.333496,4153.077148,4204.230957,4204.102539,0.000000,4.000000,82.000000,,,,0.000000,4.000000,4.000000,4.000000,4.000000,4.000000,4.000000,4.000000,4.000000,4.000000,4.000000,4.000000,4.000000,4.000000,4.000000,100.000000,,,,,,,,,,,,,,,,
1645711851.040535,109.000000,0.000000,2245.256348,3989.102539,4221.282227,4170.128418,4199.102539,4225.000000,4221.922852,4225.000000,4227.692383,4179.102539,4194.871582,4158.974121,4205.769043,4206.153809,0.000000,4.000000,82.000000,,,,0.000000,4.000000,4.000000,4.000000,4.000000,4.000000,4.000000,4.000000,4.000000,4.000000,4.000000,4.000000,4.000000,4.000000,4.000000,100.000000,,,,,,,,,,,,,,,,
1645711851.044475,110.000000,0.000000,2258.205078,3990.000000,4225.512695,4176.922852,4202.692383,4227.948730,4222.563965,4229.230957,4229.871582,4187.692383,4203.205078,4166.922852,4207.563965,4207.307617,0.000000,4.000000,82.000000,,,,0.000000,4.000000,4.000000,4.000000,4.000000,4.000000,4.000000,4.000000,4.000000,4.000000,4.000000,4.000000,4.000000,4.000000,4.000000,100.000000,,,,,,,,,,,,,,,,
1645711851.048415,111.000000,0.000000,2274.615479,3994.230713,4227.563965,4183.461426,4208.077148,4227.948730,4223.077148,4231.794922,4231.538574,4191.153809,4204.102539,4171.666504,4205.512695,4206.282227,0.000000,4.000000,82.000000,,,,0.000000,4.000000,4.000000,4.000000,4.000000,4.000000,4.000000,4.000000,4.000000,4.000000,4.000000,4.000000,4.000000,4.000000,4.000000,100.000000,,,,,,,,,,,,,,,,
1645711851.052355,112.000000,0.000000,2294.871826,3996.923096,4226.538574,4184.358887,4210.128418,4224.615234,4224.487305,4230.769043,4230.384766,4185.769043,4195.256348,4171.794922,4200.384766,4204.102539,0.000000,4.000000,82.000000,,,,0.000000,4.000000,4.000000,4.000000,4.000000,4.000000,4.000000,4.000000,4.000000,4.000000,4.000000,4.000000,4.000000,4.000000,4.000000,100.000000,,,,,,,,,,,,,,,,
1645711851.056295,113.000000,0.000000,2313.205078,3999.615479,4225.641113,4182.179688,4209.102539,4222.051270,4227.436035,4228.333496,4227.948730,4178.077148,4185.256348,4170.769043,4197.820313,4203.589844,0.000000,4.000000,82.000000,,,,0.000000,4.000000,4.000000,4.000000,4.000000,4.000000,4.000000,4.000000,4.000000,4.000000,4.000000,4.000000,4.000000,4.000000,4.000000,100.000000,,,,,,,,,,,,,,,,
1645711851.060236,114.000000,0.000000,2325.128174,4005.512939,4228.333496,4182.563965,4208.461426,4223.846191,4230.769043,4227.179688,4227.179688,4176.538574,4184.358887,4171.666504,4202.179688,4206.282227,0.000000,4.000000,82.000000,,,,0.000000,4.000000,4.000000,4.000000,4.000000,4.000000,4.000000,4.000000,4.000000,4.000000,4.000000,4.000000,4.000000,4.000000,4.000000,100.000000,,,,,,,,,,,,,,,,
1645711851.064276,115.000000,0.000000,2333.846191,4014.615479,4233.589844,4186.922852,4208.846191,4227.692383,4231.666504,4226.410156,4228.461426,4180.512695,4193.461426,4173.333496,4210.384766,4211.025879,0.000000,4.000000,82.000000,,,,0.000000,4.000000,4.000000,4.000000,4.000000,4.000000,4.000000,4.000000,4.000000,4.000000,4.000000,4.000000,4.000000,4.000000,4.000000,100.000000,,,,,,,,,,,,,,,,
1645711851.068216,116.000000,0.000000,2345.897461,4022.820557,4237.563965,4191.025879,4207.563965,4228.717773,4229.102539,4223.333496,4229.102539,4181.922852,4203.974121,4172.179688,4215.000000,4215.000000,0.000000,4.000000,82.000000,,,,0.000000,4.000000,4.000000,4.000000,4.000000,4.000000,4.000000,4.000000,4.000000,4.000000,4.000000,4.000000,4.000000,4.000000,4.000000,100.000000,,,,,,,,,,,,,,,,
1645711851.072156,117.000000,0.000000,2362.948730,4027.307617,4237.692383,4190.384766,4204.487305,4225.256348,4224.743652,4217.436035,4226.922852,4175.769043,4207.563965,4167.563965,4212.179688,4215.641113,0.000000,4.000000,82.000000,,,,0.000000,4.000000,4.000000,4.000000,4.000000,4.000000,4.000000,4.000000,4.000000,4.000000,4.000000,4.000000,4.000000,4.000000,4.000000,100.000000,,,,,,,,,,,,,,,,
1645711851.076096,118.000000,0.000000,2379.871826,4028.846191,4236.025879,4184.615234,4203.205078,4220.897461,4221.922852,4212.436035,4222.948730,4167.179688,4203.589844,4162.948730,4205.128418,4212.179688,0.000000,4.000000,82.000000,,,,0.000000,4.000000,4.000000,4.000000,4.000000,4.000000,4.000000,4.000000,4.000000,4.000000,4.000000,4.000000,4.000000,4.000000,4.000000,100.000000,,,,,,,,,,,,,,,,
1645711851.080036,119.000000,0.000000,2391.281982,4030.000000,4235.769043,4177.307617,4206.025879,4219.743652,4221.410156,4212.179688,4220.384766,4164.487305,4197.051270,4161.922852,4200.128418,4205.384766,0.000000,4.000000,82.000000,,,,0.000000,4.000000,4.000000,4.000000,4.000000,4.000000,4.000000,4.000000,4.000000,4.000000,4.000000,4.000000,4.000000,4.000000,4.000000,100.000000,,,,,,,,,,,,,,,,
1645711851.083976,120.000000,0.000000,2398.974365,4030.128174,4237.307617,4170.897461,4209.230957,4220.641113,4221.153809,4216.025879,4220.769043,4169.871582,4191.410156,4163.717773,4199.743652,4198.205078,0.000000,4.000000,82.000000,,,,0.000000,4.000000,4.000000,4.000000,4.000000,4.000000,4.000000,4.000000,4.000000,4.000000,4.000000,4.000000,4.000000,4.000000,4.000000,100.000000,,,,,,,,,,,,,,,,
1645711851.087916,121.000000,0.000000,2409.615479,4027.307617,4238.205078,4166.153809,4206.922852,4219.743652,4218.846191,4219.743652,4222.307617,4176.538574,4187.051270,4164.358887,4201.538574,4194.487305,0.000000,4.000000,82.000000,,,,0.000000,4.000000,4.000000,4.000000,4.000000,4.000000,4.000000,4.000000,4.000000,4.000000,4.000000,4.000000,4.000000,4.000000,4.000000,100.000000,,,,,,,,,,,,,,,,
1645711851.091856,122.000000,0.000000,2425.897461,4022.051270,4236.794922,4165.128418,4200.000000,4216.410156,4215.769043,4220.256348,4222.820313,4177.179688,4183.974121,4161.538574,4202.563965,4197.051270,0.000000,4.000000,82.000000,,,,0.000000,4.000000,4.000000,4.000000,4.000000,4.000000,4.000000,4.000000,4.000000,4.000000,4.000000,4.000000,4.000000,4.000000,4.000000,100.000000,,,,,,,,,,,,,,,,
1645711851.095796,123.000000,0.000000,2443.461426,4019.230713,4234.743652,4170.897461,4196.794922,4215.384766,4215.384766,4219.487305,4222.307617,4172.307617,4185.000000,4157.436035,4203.205078,4204.487305,0.000000,4.000000,82.000000,,,,0.000000,4.000000,4.000000,4.000000,4.000000,4.000000,4.000000,4.000000,4.000000,4.000000,4.000000,4.000000,4.000000,4.000000,4.000000,100.000000,,,,,,,,,,,,,,,,
1645711851.099737,124.000000,0.000000,2457.307617,4022.948730,4234.615234,4183.333496,4203.974121,4220.000000,4218.461426,4220.641113,4223.077148,4168.077148,4191.538574,4155.641113,4205.128418,4211.538574,0.000000,4.000000,82.000000,,,,0.000000,4.000000,4.000000,4.000000,4.000000,4.000000,4.000000,4.000000,4.000000,4.000000,4.000000,4.000000,4.000000,4.000000,4.000000,100.000000,,,,,,,,,,,,,,,,
1645711851.103677,125.000000,0.000000,2468.076904,4029.871826,4235.769043,4195.256348,4216.410156,4226.538574,4221.538574,4223.846191,4225.512695,4168.717773,4199.102539,4156.538574,4207.307617,4212.948730,0.000000,4.000000,82.000000,,,,0.000000,4.000000,4.000000,4.000000,4.000000,4.000000,4.000000,4.000000,4.000000,4.000000,4.000000,4.000000,4.000000,4.000000,4.000000,100.000000,,,,,,,,,,,,,,,,
1645711851.107617,126.000000,0.000000,2481.025635,4032.307617,4235.512695,4198.077148,4221.410156,4227.436035,4220.512695,4225.641113,4227.179688,4172.307617,4200.769043,4157.307617,4205.897461,4207.436035,0.000000,4.000000,82.000000,,,,0.000000,4.000000,4.000000,4.000000,4.000000,4.000000,4.000000,4.000000,4.000000,4.000000,4.000000,4.000000,4.000000,4.000000,4.000000,100.000000,,,,,,,,,,,,,,,,
1645711851.111557,127.000000,0.000000,2497.179443,4026.153809,4232.436035,4190.897461,4213.077148,4219.871582,4215.384766,4223.974121,4226.538574,4175.128418,4194.615234,4155.897461,4199.615234,4200.256348,0.000000,4.000000,82.000000,,,,0.000000,4.000000,4.000000,4.000000,4.000000,4.000000,4.000000,4.000000,4.000000,4.000000,4.000000,4.000000,4.000000,4.000000,4.000000,100.000000,,,,,,,,,,,,,,,,
1645711851.115497,128.000000,0.000000,2511.025635,4016.538574,4228.846191,4182.051270,4200.128418,4210.384766,4210.641113,4221.025879,4224.743652,4176.282227,4187.563965,4153.974121,4192.948730,4197.820313,3538.000000,4.000000,82.000000,,,,0.000000,4.000000,4.000000,4.000000,4.000000,4.000000,4.000000,4.000000,4.000000,4.000000,4.000000,4.000000,4.000000,4.000000,4.000000,100.000000,,,,,,,,,,,,,,,,
1645711851.119437,129.000000,0.000000,2517.435791,4012.051270,4227.692383,4179.743652,4195.641113,4208.205078,4210.512695,4220.512695,4224.358887,4176.922852,4187.692383,4153.974121,4192.051270,4201.794922,3357.000000,4.000000,82.000000,,,,0.000000,4.000000,4.000000,4.000000,4.000000,4.000000,4.000000,4.000000,4.000000,4.000000,4.000000,4.000000,4.000000,4.000000,4.000000,100.000000,,,,,,,,,,,,,,,,
1645711851.123377,130.000000,0.000000,2519.358887,4015.128174,4227.820313,4182.692383,4202.436035,4215.000000,4214.487305,4221.922852,4225.512695,4175.512695,4195.000000,4155.512695,4197.563965,4206.666504,2511.000000,4.000000,82.000000,,,,0.000000,4.000000,4.000000,4.000000,4.000000,4.000000,4.000000,4.000000,4.000000,4.000000,4.000000,4.000000,4.000000,4.000000,4.000000,100.000000,,,,,,,,,,,,,,,,
1645711851.127317,131.000000,0.000000,2525.000000,4020.128174,4226.153809,4182.307617,4209.230957,4224.487305,4218.461426,4221.410156,4225.128418,4169.102539,4200.769043,4154.871582,4203.077148,4206.282227,3339.000000,4.000000,82.000000,,,,0.000000,4.000000,4.000000,4.000000,4.000000,4.000000,4.000000,4.000000,4.000000,4.000000,4.000000,4.000000,4.000000,4.000000,4.000000,100.000000,,,,,,,,,,,,,,,,
1645711851.131257,132.000000,0.000000,2539.102539,4020.384521,4220.384766,4173.333496,4205.897461,4229.743652,4220.128418,4217.179688,4221.794922,4158.974121,4197.692383,4150.512695,4202.307617,4199.487305,3627.000000,4.000000,82.000000,,,,0.000000,4.000000,4.000000,4.000000,4.000000,4.000000,4.000000,4.000000,4.000000,4.000000,4.000000,4.000000,4.000000,4.000000,4.000000,100.000000,,,,,,,,,,,,,,,,
1645711851.135197,133.000000,0.000000,2556.923096,4015.512939,4213.077148,4161.153809,4195.000000,4230.256348,4220.769043,4212.820313,4218.461426,4152.692383,4187.692383,4145.128418,4195.512695,4191.282227,3317.000000,4.000000,82.000000,,,,0.000000,4.000000,4.000000,4.000000,4.000000,4.000000,4.000000,4.000000,4.000000,4.000000,4.000000,4.000000,4.000000,4.000000,4.000000,100.000000,,,,,,,,,,,,,,,,
1645711851.139237,134.000000,0.000000,2571.153809,4010.000000,4208.846191,4156.282227,4189.487305,4230.512695,4222.692383,4213.974121,4219.743652,4156.666504,4179.102539,4143.461426,4188.333496,4186.794922,3122.000000,4.000000,82.000000,,,,0.000000,4.000000,4.000000,4.000000,4.000000,4.000000,4.000000,4.000000,4.000000,4.000000,4.000000,4.000000,4.000000,4.000000,4.000000,100.000000,,,,,,,,,,,,,,,,
1645711851.143178,135.000000,0.000000,2580.000000,4007.820557,4209.871582,4162.307617,4196.410156,4232.051270,4226.153809,4221.922852,4226.666504,4169.102539,4178.077148,4147.051270,4185.897461,4187.692383,2973.000000,4.000000,82.000000,,,,0.000000,4.000000,4.000000,4.000000,4.000000,4.000000,4.000000,4.000000,4.000000,4.000000,4.000000,4.000000,4.000000,4.000000,4.000000,100.000000,,,,,,,,,,,,,,,,
1645711851.147118,136.000000,0.000000,2589.358887,4008.333252,4214.871582,4172.307617,4209.743652,4232.692383,4228.974121,4232.307617,4234.358887,4180.256348,4182.820313,4153.077148,4188.717773,4191.666504,1638.000000,4.000000,82.000000,,,,0.000000,4.000000,4.000000,4.000000,4.000000,4.000000,4.000000,4.000000,4.000000,4.000000,4.000000,4.000000,4.000000,4.000000,4.000000,100.000000,,,,,,,,,,,,,,,,
1645711851.151058,137.000000,0.000000,2604.102539,4009.743652,4220.256348,4176.538574,4217.179688,4230.000000,4229.615234,4238.974121,4237.820313,4182.563965,4187.820313,4157.179688,4193.974121,4196.538574,3106.000000,4.000000,82.000000,,,,0.000000,4.000000,4.000000,4.000000,4.000000,4.000000,4.000000,4.000000,4.000000,4.000000,4.000000,4.000000,4.000000,4.000000,4.000000,100.000000,,,,,,,,,,,,,,,,
1645711851.155098,138.000000,0.000000,2621.666748,4012.435791,4223.717773,4173.077148,4214.358887,4226.282227,4229.358887,4240.512695,4236.410156,4177.692383,4190.897461,4158.205078,4199.487305,4201.666504,2237.000000,4.000000,82.000000,,,,0.000000,4.000000,4.000000,4.000000,4.000000,4.000000,4.000000,4.000000,4.000000,4.000000,4.000000,4.000000,4.000000,4.000000,4.000000,100.000000,,,,,,,,,,,,,,,,
1645711851.159038,139.000000,0.000000,2636.025635,4018.076904,4225.641113,4168.589844,4208.333496,4225.897461,4229.871582,4239.230957,4233.974121,4174.102539,4193.846191,4158.717773,4205.000000,4206.922852,2684.000000,4.000000,82.000000,,,,0.000000,4.000000,4.000000,4.000000,4.000000,4.000000,4.000000,4.000000,4.000000,4.000000,4.000000,4.000000,4.000000,4.000000,4.000000,100.000000,,,,,,,,,,,,,,,,
1645711851.162978,140.000000,0.000000,2646.794922,4025.256348,4226.666504,4169.871582,4207.692383,4229.743652,4231.282227,4238.205078,4233.589844,4176.282227,4198.461426,4160.897461,4209.615234,4211.410156,3241.000000,4.000000,82.000000,,,,0.000000,4.000000,4.000000,4.000000,4.000000,4.000000,4.000000,4.000000,4.000000,4.000000,4.000000,4.000000,4.000000,4.000000,4.000000,100.000000,,,,,,,,,,,,,,,,
1645711851.166918,141.000000,0.000000,2659.487061,4029.487061,4227.820313,4176.538574,4212.692383,4233.205078,4231.153809,4237.307617,4235.000000,4179.615234,4202.563965,4163.846191,4210.769043,4213.974121,3230.000000,4.000000,82.000000,,,,0.000000,4.000000,4.000000,4.000000,4.000000,4.000000,4.000000,4.000000,4.000000,4.000000,4.000000,4.000000,4.000000,4.000000,4.000000,100.000000,,,,,,,,,,,,,,,,
1645711851.170758,142.000000,0.000000,2677.820557,4027.435791,4229.487305,4183.333496,4216.153809,4231.794922,4228.717773,4235.641113,4235.769043,4177.692383,4203.846191,4165.000000,4207.051270,4214.615234,2237.000000,4.000000,82.000000,,,,0.000000,4.000000,4.000000,4.000000,4.000000,4.000000,4.000000,4.000000,4.000000,4.000000,4.000000,4.000000,4.000000,4.000000,4.000000,100.000000,,,,,,,,,,,,,,,,
1645711851.174698,143.000000,0.000000,2697.692383,4021.666748,4231.538574,4186.410156,4212.179688,4226.410156,4225.769043,4234.358887,4235.256348,4171.538574,4203.974121,4164.230957,4201.666504,4214.871582,2684.000000,4.000000,82.000000,,,,0.000000,4.000000,4.000000,4.000000,4.000000,4.000000,4.000000,4.000000,4.000000,4.000000,4.000000,4.000000,4.000000,4.000000,4.000000,100.000000,,,,,,,,,,,,,,,,
1645711851.178639,144.000000,0.000000,2711.153809,4018.076904,4232.692383,4186.410156,4202.179688,4222.179688,4224.871582,4235.897461,4234.871582,4169.230957,4206.666504,4163.589844,4199.358887,4215.641113,3241.000000,4.000000,82.000000,,,,0.000000,4.000000,4.000000,4.000000,4.000000,4.000000,4.000000,4.000000,4.000000,4.000000,4.000000,4.000000,4.000000,4.000000,4.000000,100.000000,,,,,,,,,,,,,,,,
1645711851.182579,145.000000,0.000000,2716.794922,4019.230713,4231.666504,4185.384766,4192.051270,4221.794922,4225.769043,4240.128418,4235.641113,4175.256348,4211.794922,4163.846191,4201.538574,4215.641113,3230.000000,4.000000,82.000000,,,,0.000000,4.000000,4.000000,4.000000,4.000000,4.000000,4.000000,4.000000,4.000000,4.000000,4.000000,4.000000,4.000000,4.000000,4.000000,100.000000,,,,,,,,,,,,,,,,
1645711851.186519,146.000000,0.000000,2721.410156,4022.179443,4228.205078,4183.077148,4186.922852,4223.077148,4226.538574,4243.589844,4236.410156,4185.256348,4214.230957,4164.102539,4205.128418,4213.461426,2237.000000,4.000000,82.000000,,,,0.000000,4.000000,4.000000,4.000000,4.000000,4.000000,4.000000,4.000000,4.000000,4.000000,4.000000,4.000000,4.000000,4.000000,4.000000,100.000000,,,,,,,,,,,,,,,,
1645711851.190459,147.000000,0.000000,2731.794922,4023.205078,4224.358887,4178.589844,4189.230957,4223.717773,4226.410156,4243.333496,4236.153809,4190.512695,4210.384766,4163.589844,4206.794922,4210.128418,2684.000000,4.000000,82.000000,,,,0.000000,4.000000,4.000000,4.000000,4.000000,4.000000,4.000000,4.000000,4.000000,4.000000,4.000000,4.000000,4.000000,4.000000,4.000000,100.000000,,,,,,,,,,,,,,,,
1645711851.194399,148.000000,0.000000,2746.923096,4022.307617,4223.717773,4173.077148,4198.717773,4225.000000,4226.922852,4240.769043,4235.897461,4188.589844,4203.461426,4164.230957,4206.666504,4208.589844,3241.000000,4.000000,82.000000,,,,0.000000,4.000000,4.000000,4.000000,4.000000,4.000000,4.000000,4.000000,4.000000,4.000000,4.000000,4.000000,4.000000,4.000000,4.000000,100.000000,,,,,,,,,,,,,,,,
1645711851.198339,149.000000,0.000000,2760.000000,4022.435791,4226.922852,4170.128418,4211.282227,4229.358887,4229.615234,4239.743652,4237.436035,4184.230957,4200.512695,4167.948730,4207.307617,4210.256348,3230.000000,4.000000,82.000000,,,,0.000000,4.000000,4.000000,4.000000,4.000000,4.000000,4.000000,4.000000,4.000000,4.000000,4.000000,4.000000,4.000000,4.000000,4.000000,100.000000,,,,,,,,,,,,,,,,
1645711851.202279,150.000000,0.000000,2767.820557,4023.718018,4230.769043,4171.538574,4219.230957,4235.384766,4232.307617,4241.538574,4240.769043,4182.948730,4204.230957,4173.461426,4209.230957,4212.307617,2237.000000,4.000000,82.000000,,,,0.000000,4.000000,4.000000,4.000000,4.000000,4.000000,4.000000,4.000000,4.000000,4.000000,4.000000,4.000000,4.000000,4.000000,4.000000,100.000000,,,,,,,,,,,,,,,,
1645711851.206219,151.000000,0.000000,2774.615479,4023.076904,4230.256348,4176.153809,4216.282227,4237.692383,4232.051270,4243.589844,4243.205078,4184.358887,4210.000000,4176.153809,4209.871582,4210.897461,2684.000000,4.000000,82.000000,,,,0.000000,4.000000,4.000000,4.000000,4.000000,4.000000,4.000000,4.000000,4.000000,4.000000,4.000000,4.000000,4.000000,4.000000,4.000000,100.000000,,,,,,,,,,,,,,,,
1645711851.210159,152.000000,0.000000,2785.897461,4018.974365,4225.000000,4180.384766,4204.743652,4233.461426,4228.717773,4242.948730,4242.307617,4184.615234,4212.307617,4173.461426,4206.666504,4206.410156,3241.000000,4.000000,82.000000,,,,0.000000,4.000000,4.000000,4.000000,4.000000,4.000000,4.000000,4.000000,4.000000,4.000000,4.000000,4.000000,4.000000,4.000000,4.000000,100.000000,,,,,,,,,,,,,,,,
1645711851.214099,153.000000,0.000000,2801.410156,4015.000000,4219.871582,4181.538574,4195.769043,4226.922852,4225.769043,4240.256348,4239.230957,4182.820313,4210.512695,4168.205078,4201.538574,4203.077148,3230.000000,4.000000,82.000000,,,,0.000000,4.000000,4.000000,4.000000,4.000000,4.000000,4.000000,4.000000,4.000000,4.000000,4.000000,4.000000,4.000000,4.000000,4.000000,100.000000,,,,,,,,,,,,,,,,
1645711851.218040,154.000000,0.000000,2815.512939,4016.666748,4220.000000,4179.615234,4199.230957,4225.128418,4226.922852,4239.102539,4237.179688,4181.410156,4208.974121,4165.256348,4198.589844,4204.871582,2237.000000,4.000000,82.000000,,,,0.000000,4.000000,4.000000,4.000000,4.000000,4.000000,4.000000,4.000000,4.000000,4.000000,4.000000,4.000000,4.000000,4.000000,4.000000,100.000000,,,,,,,,,,,,,,,,
1645711851.221980,155.000000,0.000000,2825.256348,4024.102539,4225.641113,4175.512695,4212.820313,4229.871582,4231.538574,4240.769043,4237.436035,4181.153809,4209.743652,4166.410156,4199.615234,4210.897461,2684.000000,4.000000,82.000000,,,,0.000000,4.000000,4.000000,4.000000,4.000000,4.000000,4.000000,4.000000,4.000000,4.000000,4.000000,4.000000,4.000000,4.000000,4.000000,100.000000,,,,,,,,,,,,,,,,
1645711851.225920,156.000000,0.000000,2834.743652,4030.769287,4231.922852,4171.025879,4222.948730,4235.128418,4235.000000,4242.179688,4237.820313,4179.487305,4209.358887,4168.846191,4201.922852,4216.410156,3241.000000,4.000000,82.000000,,,,0.000000,4.000000,4.000000,4.000000,4.000000,4.000000,4.000000,4.000000,4.000000,4.000000,4.000000,4.000000,4.000000,4.000000,4.000000,100.000000,,,,,,,,,,,,,,,,
1645711851.229860,157.000000,0.000000,2848.589844,4030.000000,4233.461426,4169.102539,4218.205078,4234.230957,4233.589844,4239.230957,4235.256348,4173.461426,4203.846191,4168.846191,4201.410156,4216.922852,3230.000000,4.000000,82.000000,,,,0.000000,4.000000,4.000000,4.000000,4.000000,4.000000,4.000000,4.000000,4.000000,4.000000,4.000000,4.000000,4.000000,4.000000,4.000000,100.000000,,,,,,,,,,,,,,,,
1645711851.233800,158.000000,0.000000,2865.000000,4022.179443,4229.615234,4172.692383,4201.922852,4227.436035,4228.589844,4232.307617,4230.512695,4165.641113,4195.769043,4166.794922,4197.436035,4212.820313,2237.000000,4.000000,82.000000,,,,0.000000,4.000000,4.000000,4.000000,4.000000,4.000000,4.000000,4.000000,4.000000,4.000000,4.000000,4.000000,4.000000,4.000000,4.000000,100.000000,,,,,,,,,,,,,,,,
1645711851.237740,159.000000,0.000000,2877.692383,4014.615479,4224.871582,4181.666504,4188.717773,4221.153809,4224.487305,4226.410156,4226.922852,4162.948730,4192.436035,4165.769043,4193.077148,4207.436035,2684.000000,4.000000,82.000000,,,,0.000000,4.000000,4.000000,4.000000,4.000000,4.000000,4.000000,4.000000,4.000000,4.000000,4.000000,4.000000,4.000000,4.000000,4.000000,100.000000,,,,,,,,,,,,,,,,
1645711851.241580,160.000000,0.000000,2884.487061,4013.333252,4222.820313,4191.025879,4189.743652,4220.769043,4224.358887,4225.512695,4226.538574,4168.589844,4197.051270,4167.436035,4191.282227,4204.102539,3241.000000,4.000000,82.000000,,,,0.000000,4.000000,4.000000,4.000000,4.000000,4.000000,4.000000,4.000000,4.000000,4.000000,4.000000,4.000000,4.000000,4.000000,4.000000,100.000000,,,,,,,,,,,,,,,,
1645711851.245520,161.000000,0.000000,2890.641113,4017.692383,4223.974121,4193.205078,4201.538574,4223.846191,4226.922852,4228.333496,4227.692383,4176.666504,4204.230957,4169.615234,4191.153809,4204.102539,3230.000000,4.000000,82.000000,,,,0.000000,4.000000,4.000000,4.000000,4.000000,4.000000,4.000000,4.000000,4.000000,4.000000,4.000000,4.000000,4.000000,4.000000,4.000000,100.000000,,,,,,,,,,,,,,,,
1645711851.249461,162.000000,0.000000,2902.307617,4021.666748,4225.512695,4185.897461,4210.897461,4225.256348,4229.102539,4230.769043,4226.794922,4178.461426,4206.282227,4169.487305,4190.256348,4206.025879,2237.000000,4.000000,82.000000,,,,0.000000,4.000000,4.000000,4.000000,4.000000,4.000000,4.000000,4.000000,4.000000,4.000000,4.000000,4.000000,4.000000,4.000000,4.000000,100.000000,,,,,,,,,,,,,,,,
1645711851.253401,163.000000,0.000000,2917.820557,4021.794922,4225.512695,4175.256348,4210.000000,4222.948730,4229.487305,4230.641113,4223.717773,4171.410156,4201.410156,4167.307617,4187.692383,4207.948730,2684.000000,4.000000,82.000000,,,,0.000000,4.000000,4.000000,4.000000,4.000000,4.000000,4.000000,4.000000,4.000000,4.000000,4.000000,4.000000,4.000000,4.000000,4.000000,100.000000,,,,,,,,,,,,,,,,
1645711851.257341,164.000000,0.000000,2929.871826,4019.358887,4224.102539,4170.384766,4202.051270,4220.128418,4228.461426,4229.487305,4221.153809,4162.179688,4196.025879,4165.641113,4185.256348,4207.948730,3241.000000,4.000000,82.000000,,,,0.000000,4.000000,4.000000,4.000000,4.000000,4.000000,4.000000,4.000000,4.000000,4.000000,4.000000,4.000000,4.000000,4.000000,4.000000,100.000000,,,,,,,,,,,,,,,,
1645711851.261281,165.000000,0.000000,2934.871826,4016.923096,4221.794922,4173.333496,4194.743652,4220.256348,4226.922852,4229.743652,4221.922852,4157.692383,4195.641113,4165.256348,4185.384766,4204.743652,3230.000000,4.000000,82.000000,,,,0.000000,4.000000,4.000000,4.000000,4.000000,4.000000,4.000000,4.000000,4.000000,4.000000,4.000000,4.000000,4.000000,4.000000,4.000000,100.000000,,,,,,,,,,,,,,,,
1645711851.265221,166.000000,0.000000,2937.564209,4014.871826,4218.717773,4176.538574,4191.538574,4222.692383,4224.743652,4231.153809,4225.256348,4158.461426,4198.077148,4163.589844,4187.179688,4198.974121,2237.000000,4.000000,82.000000,,,,0.000000,4.000000,4.000000,4.000000,4.000000,4.000000,4.000000,4.000000,4.000000,4.000000,4.000000,4.000000,4.000000,4.000000,4.000000,100.000000,1.000000,0.000000,0.000000,0.000000,0.000000,0.000000,0.000000,0.000000,0.000000,0.000000,0.000000,0.000000,0.000000,0.000000,0.000000,0.000000
1645711851.269161,167.000000,0.000000,2945.384521,4012.051270,4215.128418,4172.948730,4190.641113,4224.743652,4223.077148,4231.922852,4228.333496,4160.512695,4197.948730,4158.717773,4188.974121,4193.974121,2684.000000,4.000000,82.000000,,,,0.000000,4.000000,4.000000,4.000000,4.000000,4.000000,4.000000,4.000000,4.000000,4.000000,4.000000,4.000000,4.000000,4.000000,4.000000,100.000000,,,,,,,,,,,,,,,,
1645711851.273101,168.000000,0.000000,2959.743652,4009.230713,4212.948730,4165.384766,4191.666504,4225.897461,4223.846191,4232.692383,4229.743652,4162.307617,4194.102539,4153.333496,4190.897461,4193.461426,3241.000000,4.000000,82.000000,,,,0.000000,4.000000,4.000000,4.000000,4.000000,4.000000,4.000000,4.000000,4.000000,4.000000,4.000000,4.000000,4.000000,4.000000,4.000000,100.000000,,,,,,,,,,,,,,,,
1645711851.277041,169.000000,0.000000,2975.000000,4009.230713,4214.871582,4165.000000,4196.153809,4228.077148,4227.820313,4235.897461,4230.769043,4166.922852,4191.922852,4152.692383,4194.487305,4198.205078,3230.000000,4.000000,82.000000,,,,0.000000,4.000000,4.000000,4.000000,4.000000,4.000000,4.000000,4.000000,4.000000,4.000000,4.000000,4.000000,4.000000,4.000000,4.000000,100.000000,,,,,,,,,,,,,,,,
1645711851.280981,170.000000,0.000000,2986.666748,4012.820557,4220.641113,4177.051270,4203.717773,4231.410156,4232.692383,4242.179688,4232.948730,4174.871582,4195.897461,4158.333496,4199.615234,4204.487305,2237.000000,4.000000,82.000000,,,,0.000000,4.000000,4.000000,4.000000,4.000000,4.000000,4.000000,4.000000,4.000000,4.000000,4.000000,4.000000,4.000000,4.000000,4.000000,100.000000,,,,,,,,,,,,,,,,
1645711851.284921,171.000000,0.000000,2996.153809,4016.025635,4226.282227,4193.333496,4209.102539,4232.820313,4234.487305,4248.461426,4235.897461,4180.384766,4202.692383,4165.769043,4202.307617,4208.333496,2684.000000,4.000000,82.000000,,,,0.000000,4.000000,4.000000,4.000000,4.000000,4.000000,4.000000,4.000000,4.000000,4.000000,4.000000,4.000000,4.000000,4.000000,4.000000,100.000000,,,,,,,,,,,,,,,,
1645711851.288862,172.000000,0.000000,3007.564209,4014.487061,4227.692383,4199.487305,4206.666504,4229.230957,4231.794922,4250.769043,4237.179688,4177.563965,4205.256348,4168.717773,4199.102539,4208.589844,3241.000000,4.000000,82.000000,,,,0.000000,4.000000,4.000000,4.000000,4.000000,4.000000,4.000000,4.000000,4.000000,4.000000,4.000000,4.000000,4.000000,4.000000,4.000000,100.000000,,,,,,,,,,,,,,,,
1645711851.292802,173.000000,0.000000,3020.769287,4009.615479,4224.358887,4190.128418,4198.846191,4222.948730,4227.692383,4248.974121,4236.666504,4168.717773,4201.282227,4166.153809,4191.538574,4207.820313,3230.000000,4.000000,82.000000,,,,0.000000,4.000000,4.000000,4.000000,4.000000,4.000000,4.000000,4.000000,4.000000,4.000000,4.000000,4.000000,4.000000,4.000000,4.000000,100.000000,,,,,,,,,,,,,,,,
1645711851.296742,174.000000,0.000000,3030.769287,4007.820557,4220.000000,4174.615234,4194.743652,4220.256348,4226.922852,4247.051270,4236.025879,4163.846191,4196.666504,4163.077148,4185.897461,4208.077148,2237.000000,4.000000,82.000000,,,,0.000000,4.000000,4.000000,4.000000,4.000000,4.000000,4.000000,4.000000,4.000000,4.000000,4.000000,4.000000,4.000000,4.000000,4.000000,100.000000,,,,,,,,,,,,,,,,
1645711851.300682,175.000000,0.000000,3035.769287,4012.564209,4218.205078,4166.538574,4199.871582,4224.102539,4230.128418,4248.205078,4236.922852,4170.000000,4198.077148,4164.487305,4186.666504,4207.563965,2684.000000,4.000000,82.000000,,,,0.000000,4.000000,4.000000,4.000000,4.000000,4.000000,4.000000,4.000000,4.000000,4.000000,4.000000,4.000000,4.000000,4.000000,4.000000,100.000000,,,,,,,,,,,,,,,,
1645711851.304622,176.000000,0.000000,3040.512939,4019.615479,4218.461426,4168.974121,4208.974121,4229.871582,4233.589844,4251.025879,4238.461426,4181.922852,4205.128418,4169.102539,4191.666504,4203.461426,3241.000000,4.000000,82.000000,,,,0.000000,4.000000,4.000000,4.000000,4.000000,4.000000,4.000000,4.000000,4.000000,4.000000,4.000000,4.000000,4.000000,4.000000,4.000000,100.000000,,,,,,,,,,,,,,,,
1645711851.308562,177.000000,0.000000,3051.025635,4021.410156,4217.692383,4173.333496,4211.410156,4230.384766,4232.307617,4251.538574,4237.820313,4187.307617,4210.512695,4170.769043,4194.487305,4196.025879,3230.000000,4.000000,82.000000,,,,0.000000,4.000000,4.000000,4.000000,4.000000,4.000000,4.000000,4.000000,4.000000,4.000000,4.000000,4.000000,4.000000,4.000000,4.000000,100.000000,,,,,,,,,,,,,,,,
1645711851.312502,178.000000,0.000000,3066.410156,4015.641113,4214.102539,4171.282227,4203.333496,4224.615234,4226.666504,4248.077148,4235.000000,4180.512695,4209.102539,4165.769043,4192.051270,4190.000000,2237.000000,4.000000,82.000000,,,,0.000000,4.000000,4.000000,4.000000,4.000000,4.000000,4.000000,4.000000,4.000000,4.000000,4.000000,4.000000,4.000000,4.000000,4.000000,100.000000,,,,,,,,,,,,,,,,
1645711851.316342,179.000000,0.000000,3078.846191,4007.435791,4209.743652,4163.717773,4192.820313,4219.102539,4221.538574,4244.102539,4232.563965,4168.461426,4203.205078,4157.307617,4187.563965,4189.871582,2684.000000,4.000000,82.000000,,,,0.000000,4.000000,4.000000,4.000000,4.000000,4.000000,4.000000,4.000000,4.000000,4.000000,4.000000,4.000000,4.000000,4.000000,4.000000,100.000000,,,,,,,,,,,,,,,,
1645711851.320283,180.000000,0.000000,3084.102539,4003.333252,4208.205078,4157.820313,4189.487305,4219.102539,4220.512695,4242.692383,4233.077148,4162.307617,4198.333496,4151.282227,4185.769043,4195.128418,3241.000000,4.000000,82.000000,,,,0.000000,4.000000,4.000000,4.000000,4.000000,4.000000,4.000000,4.000000,4.000000,4.000000,4.000000,4.000000,4.000000,4.000000,4.000000,100.000000,,,,,,,,,,,,,,,,
1645711851.324223,181.000000,0.000000,3086.153809,4004.358887,4210.512695,4158.333496,4193.846191,4222.820313,4222.563965,4243.333496,4235.128418,4164.487305,4195.384766,4150.512695,4187.563965,4200.384766,3230.000000,4.000000,82.000000,,,,0.000000,4.000000,4.000000,4.000000,4.000000,4.000000,4.000000,4.000000,4.000000,4.000000,4.000000,4.000000,4.000000,4.000000,4.000000,100.000000,,,,,,,,,,,,,,,,
1645711851.328163,182.000000,0.000000,3093.461426,4005.769287,4213.461426,4163.077148,4198.205078,4223.717773,4223.589844,4242.563965,4235.128418,4167.051270,4191.282227,4152.307617,4188.974121,4200.512695,2237.000000,4.000000,82.000000,,,,0.000000,4.000000,4.000000,4.000000,4.000000,4.000000,4.000000,4.000000,4.000000,4.000000,4.000000,4.000000,4.000000,4.000000,4.000000,100.000000,,,,,,,,,,,,,,,,
1645711851.332103,183.000000,0.000000,3108.333252,4004.230713,4213.974121,4167.436035,4197.051270,4219.487305,4222.179688,4238.846191,4231.153809,4163.461426,4185.512695,4153.205078,4187.436035,4195.897461,2684.000000,4.000000,82.000000,,,,0.000000,4.000000,4.000000,4.000000,4.000000,4.000000,4.000000,4.000000,4.000000,4.000000,4.000000,4.000000,4.000000,4.000000,4.000000,100.000000,,,,,,,,,,,,,,,,
1645711851.336043,184.000000,0.000000,3124.230713,4001.794922,4211.794922,4170.256348,4193.589844,4214.871582,4220.512695,4235.000000,4225.897461,4156.538574,4183.205078,4152.436035,4184.358887,4191.025879,3241.000000,4.000000,82.000000,,,,0.000000,4.000000,4.000000,4.000000,4.000000,4.000000,4.000000,4.000000,4.000000,4.000000,4.000000,4.000000,4.000000,4.000000,4.000000,100.000000,,,,,,,,,,,,,,,,
1645711851.339983,185.000000,0.000000,3133.974365,4002.307617,4209.615234,4173.077148,4194.102539,4215.384766,4221.282227,4235.256348,4223.461426,4154.358887,4189.102539,4151.538574,4183.974121,4189.871582,3230.000000,4.000000,82.000000,,,,0.000000,4.000000,4.000000,4.000000,4.000000,4.000000,4.000000,4.000000,4.000000,4.000000,4.000000,4.000000,4.000000,4.000000,4.000000,100.000000,,,,,,,,,,,,,,,,
1645711851.343923,186.000000,0.000000,3138.461426,4006.666748,4208.974121,4177.051270,4199.487305,4220.128418,4224.102539,4239.615234,4225.000000,4158.974121,4199.358887,4151.282227,4187.051270,4192.179688,2237.000000,4.000000,82.000000,,,,0.000000,4.000000,4.000000,4.000000,4.000000,4.000000,4.000000,4.000000,4.000000,4.000000,4.000000,4.000000,4.000000,4.000000,4.000000,100.000000,,,,,,,,,,,,,,,,
1645711851.347863,187.000000,0.000000,3144.743652,4011.538574,4209.615234,4180.384766,4203.974121,4223.333496,4226.410156,4243.846191,4227.820313,4164.102539,4204.615234,4150.512695,4190.128418,4195.000000,2684.000000,4.000000,82.000000,,,,0.000000,4.000000,4.000000,4.000000,4.000000,4.000000,4.000000,4.000000,4.000000,4.000000,4.000000,4.000000,4.000000,4.000000,4.000000,100.000000,,,,,,,,,,,,,,,,
1645711851.351803,188.000000,0.000000,3156.153809,4013.333252,4211.282227,4181.282227,4202.948730,4221.922852,4227.307617,4244.102539,4228.846191,4163.717773,4199.358887,4149.102539,4189.487305,4196.410156,3241.000000,4.000000,82.000000,,,,0.000000,4.000000,4.000000,4.000000,4.000000,4.000000,4.000000,4.000000,4.000000,4.000000,4.000000,4.000000,4.000000,4.000000,4.000000,100.000000,,,,,,,,,,,,,,,,
1645711851.355743,189.000000,0.000000,3169.487061,4013.076904,4214.230957,4180.128418,4199.230957,4220.128418,4228.461426,4241.666504,4228.077148,4159.102539,4188.461426,4148.205078,4186.153809,4196.410156,3230.000000,4.000000,82.000000,,,,0.000000,4.000000,4.000000,4.000000,4.000000,4.000000,4.000000,4.000000,4.000000,4.000000,4.000000,4.000000,4.000000,4.000000,4.000000,100.000000,,,,,,,,,,,,,,,,
1645711851.359684,190.000000,0.000000,3179.358887,4013.589844,4218.205078,4178.205078,4198.589844,4223.205078,4231.025879,4240.384766,4227.436035,4156.282227,4182.307617,4149.615234,4184.230957,4195.897461,2237.000000,4.000000,82.000000,,,,0.000000,4.000000,4.000000,4.000000,4.000000,4.000000,4.000000,4.000000,4.000000,4.000000,4.000000,4.000000,4.000000,4.000000,4.000000,100.000000,,,,,,,,,,,,,,,,
1645711851.363624,191.000000,0.000000,3186.666748,4015.128174,4220.897461,4175.128418,4202.179688,4230.000000,4233.846191,4242.051270,4228.205078,4158.717773,4186.153809,4152.051270,4186.025879,4195.256348,2684.000000,4.000000,82.000000,,,,0.000000,4.000000,4.000000,4.000000,4.000000,4.000000,4.000000,4.000000,4.000000,4.000000,4.000000,4.000000,4.000000,4.000000,4.000000,100.000000,,,,,,,,,,,,,,,,
1645711851.367564,192.000000,0.000000,3197.051270,4014.230713,4220.128418,4170.384766,4205.128418,4233.974121,4234.230957,4244.743652,4229.358887,4163.589844,4196.410156,4153.077148,4190.000000,4195.128418,3241.000000,4.000000,82.000000,,,,0.000000,4.000000,4.000000,4.000000,4.000000,4.000000,4.000000,4.000000,4.000000,4.000000,4.000000,4.000000,4.000000,4.000000,4.000000,100.000000,,,,,,,,,,,,,,,,
1645711851.371504,193.000000,0.000000,3211.794922,4009.230713,4216.410156,4166.410156,4203.974121,4230.641113,4231.794922,4245.512695,4230.000000,4166.153809,4205.512695,4151.666504,4193.333496,4196.025879,3230.000000,4.000000,82.000000,,,,0.000000,4.000000,4.000000,4.000000,4.000000,4.000000,4.000000,4.000000,4.000000,4.000000,4.000000,4.000000,4.000000,4.000000,4.000000,100.000000,,,,,,,,,,,,,,,,
1645711851.375444,194.000000,0.000000,3225.256348,4003.076904,4212.948730,4168.205078,4201.666504,4223.461426,4228.974121,4244.230957,4230.000000,4165.769043,4209.230957,4150.512695,4194.615234,4197.948730,2237.000000,4.000000,82.000000,,,,0.000000,4.000000,4.000000,4.000000,4.000000,4.000000,4.000000,4.000000,4.000000,4.000000,4.000000,4.000000,4.000000,4.000000,4.000000,100.000000,,,,,,,,,,,,,,,,
1645711851.379384,195.000000,0.000000,3231.153809,4000.128174,4212.307617,4177.179688,4203.333496,4219.102539,4228.461426,4242.692383,4230.384766,4164.487305,4208.333496,4151.538574,4194.230957,4198.846191,2684.000000,4.000000,82.000000,,,,0.000000,4.000000,4.000000,4.000000,4.000000,4.000000,4.000000,4.000000,4.000000,4.000000,4.000000,4.000000,4.000000,4.000000,4.000000,100.000000,,,,,,,,,,,,,,,,
1645711851.383324,196.000000,0.000000,3231.281982,4001.281982,4213.461426,4187.051270,4208.717773,4220.000000,4229.358887,4241.282227,4230.384766,4163.077148,4203.846191,4153.717773,4192.563965,4197.563965,3241.000000,4.000000,82.000000,,,,0.000000,4.000000,4.000000,4.000000,4.000000,4.000000,4.000000,4.000000,4.000000,4.000000,4.000000,4.000000,4.000000,4.000000,4.000000,100.000000,,,,,,,,,,,,,,,,
1645711851.387264,197.000000,0.000000,3234.358887,4002.435791,4213.205078,4189.615234,4210.897461,4222.179688,4228.717773,4238.205078,4228.461426,4159.230957,4196.410156,4154.102539,4189.358887,4194.358887,3230.000000,4.000000,82.000000,,,,0.000000,4.000000,4.000000,4.000000,4.000000,4.000000,4.000000,4.000000,4.000000,4.000000,4.000000,4.000000,4.000000,4.000000,4.000000,100.000000,,,,,,,,,,,,,,,,
1645711851.391204,198.000000,0.000000,3245.512939,4000.641113,4210.641113,4182.051270,4205.128418,4221.025879,4225.384766,4233.077148,4224.358887,4152.436035,4187.948730,4151.666504,4185.512695,4191.922852,2237.000000,4.000000,82.000000,,,,0.000000,4.000000,4.000000,4.000000,4.000000,4.000000,4.000000,4.000000,4.000000,4.000000,4.000000,4.000000,4.000000,4.000000,4.000000,100.000000,,,,,,,,,,,,,,,,
1645711851.395145,199.000000,0.000000,3260.512939,3997.051270,4208.077148,4170.641113,4195.128418,4217.179688,4221.025879,4228.461426,4220.897461,4147.563965,4184.230957,4149.358887,4184.230957,4192.307617,2684.000000,4.000000,82.000000,,,,0.000000,4.000000,4.000000,4.000000,4.000000,4.000000,4.000000,4.000000,4.000000,4.000000,4.000000,4.000000,4.000000,4.000000,4.000000,100.000000,,,,,,,,,,,,,,,,
1645711851.399085,200.000000,0.000000,3271.666748,3995.897461,4208.205078,4164.358887,4188.717773,4214.615234,4218.333496,4227.948730,4221.410156,4150.384766,4189.102539,4150.384766,4187.179688,4194.615234,3241.000000,4.000000,82.000000,,,,0.000000,4.000000,4.000000,4.000000,4.000000,4.000000,4.000000,4.000000,4.000000,4.000000,4.000000,4.000000,4.000000,4.000000,4.000000,100.000000,,,,,,,,,,,,,,,,
1645711851.403025,201.000000,0.000000,3277.435791,3998.718018,4210.256348,4166.794922,4188.846191,4215.512695,4217.948730,4231.153809,4225.641113,4159.615234,4199.102539,4154.102539,4192.307617,4196.153809,3230.000000,4.000000,82.000000,,,,0.000000,4.000000,4.000000,4.000000,4.000000,4.000000,4.000000,4.000000,4.000000,4.000000,4.000000,4.000000,4.000000,4.000000,4.000000,100.000000,,,,,,,,,,,,,,,,
1645711851.406965,202.000000,0.000000,3283.974365,4002.948730,4211.410156,4174.358887,4191.410156,4217.692383,4218.974121,4233.974121,4230.000000,4167.307617,4205.256348,4157.051270,4195.000000,4195.384766,2237.000000,4.000000,82.000000,,,,0.000000,4.000000,4.000000,4.000000,4.000000,4.000000,4.000000,4.000000,4.000000,4.000000,4.000000,4.000000,4.000000,4.000000,4.000000,100.000000,,,,,,,,,,,,,,,,
1645711851.410905,203.000000,0.000000,3296.025635,4004.743652,4210.128418,4181.538574,4192.692383,4218.205078,4220.897461,4232.563965,4231.025879,4166.794922,4202.692383,4156.025879,4192.820313,4193.974121,2684.000000,4.000000,82.000000,,,,0.000000,4.000000,4.000000,4.000000,4.000000,4.000000,4.000000,4.000000,4.000000,4.000000,4.000000,4.000000,4.000000,4.000000,4.000000,100.000000,,,,,,,,,,,,,,,,
1645711851.414845,204.000000,0.000000,3310.512939,4003.974365,4208.461426,4186.025879,4194.230957,4217.820313,4223.846191,4227.948730,4228.846191,4160.641113,4195.512695,4152.307617,4188.846191,4195.000000,3241.000000,4.000000,82.000000,,,,0.000000,4.000000,4.000000,4.000000,4.000000,4.000000,4.000000,4.000000,4.000000,4.000000,4.000000,4.000000,4.000000,4.000000,4.000000,100.000000,,,,,,,,,,,,,,,,
1645711851.418785,205.000000,0.000000,3320.897461,4004.102539,4209.487305,4188.846191,4200.000000,4219.102539,4227.307617,4224.102539,4226.666504,4156.410156,4192.692383,4149.743652,4188.077148,4198.717773,3230.000000,4.000000,82.000000,,,,0.000000,4.000000,4.000000,4.000000,4.000000,4.000000,4.000000,4.000000,4.000000,4.000000,4.000000,4.000000,4.000000,4.000000,4.000000,100.000000,,,,,,,,,,,,,,,,
1645711851.422725,206.000000,0.000000,3326.666748,4006.281982,4213.461426,4189.743652,4207.948730,4221.922852,4228.974121,4223.077148,4226.025879,4157.692383,4196.922852,4149.871582,4191.666504,4202.563965,2237.000000,4.000000,82.000000,,,,0.000000,4.000000,4.000000,4.000000,4.000000,4.000000,4.000000,4.000000,4.000000,4.000000,4.000000,4.000000,4.000000,4.000000,4.000000,100.000000,,,,,,,,,,,,,,,,
1645711851.426665,207.000000,0.000000,3333.205078,4007.948730,4217.179688,4186.666504,4209.358887,4222.820313,4226.666504,4223.333496,4226.282227,4160.128418,4203.077148,4150.641113,4195.128418,4203.717773,2684.000000,4.000000,82.000000,,,,0.000000,4.000000,4.000000,4.000000,4.000000,4.000000,4.000000,4.000000,4.000000,4.000000,4.000000,4.000000,4.000000,4.000000,4.000000,100.000000,,,,,,,,,,,,,,,,
1645711851.430605,208.000000,0.000000,3344.358887,4005.641113,4218.077148,4179.358887,4198.846191,4219.487305,4221.922852,4222.179688,4225.512695,4158.333496,4204.102539,4149.871582,4193.846191,4202.051270,3241.000000,4.000000,82.000000,,,,0.000000,4.000000,4.000000,4.000000,4.000000,4.000000,4.000000,4.000000,4.000000,4.000000,4.000000,4.000000,4.000000,4.000000,4.000000,100.000000,,,,,,,,,,,,,,,,
1645711851.434546,209.000000,0.000000,3356.410156,4001.153809,4216.666504,4172.948730,4182.563965,4214.487305,4218.333496,4220.128418,4223.974121,4152.948730,4199.743652,4147.948730,4188.846191,4199.102539,3230.000000,4.000000,82.000000,,,,0.000000,4.000000,4.000000,4.000000,4.000000,4.000000,4.000000,4.000000,4.000000,4.000000,4.000000,4.000000,4.000000,4.000000,4.000000,100.000000,,,,,,,,,,,,,,,,
1645711851.438486,210.000000,0.000000,3363.076904,3998.974365,4215.128418,4173.077148,4173.333496,4212.179688,4218.461426,4219.230957,4223.717773,4150.000000,4195.769043,4147.307617,4185.128418,4195.897461,2237.000000,4.000000,82.000000,,,,0.000000,4.000000,4.000000,4.000000,4.000000,4.000000,4.000000,4.000000,4.000000,4.000000,4.000000,4.000000,4.000000,4.000000,4.000000,100.000000,,,,,,,,,,,,,,,,
1645711851.442426,211.000000,0.000000,3364.230713,4000.128174,4214.487305,4179.871582,4177.563965,4213.077148,4220.256348,4219.615234,4224.871582,4152.820313,4196.153809,4147.948730,4186.025879,4191.666504,2684.000000,4.000000,82.000000,,,,0.000000,4.000000,4.000000,4.000000,4.000000,4.000000,4.000000,4.000000,4.000000,4.000000,4.000000,4.000000,4.000000,4.000000,4.000000,100.000000,,,,,,,,,,,,,,,,
1645711851.446366,212.000000,0.000000,3367.179443,4000.897461,4213.461426,4186.025879,4188.461426,4213.077148,4220.000000,4218.846191,4225.641113,4157.307617,4198.589844,4147.563965,4189.871582,4186.794922,3241.000000,4.000000,82.000000,,,,0.000000,4.000000,4.000000,4.000000,4.000000,4.000000,4.000000,4.000000,4.000000,4.000000,4.000000,4.000000,4.000000,4.000000,4.000000,100.000000,,,,,,,,,,,,,,,,
1645711851.450306,213.000000,0.000000,3377.692383,3998.205078,4210.897461,4186.025879,4194.615234,4209.230957,4217.436035,4215.512695,4224.358887,4157.179688,4198.205078,4144.102539,4192.563965,4182.948730,3230.000000,4.000000,82.000000,,,,0.000000,4.000000,4.000000,4.000000,4.000000,4.000000,4.000000,4.000000,4.000000,4.000000,4.000000,4.000000,4.000000,4.000000,4.000000,100.000000,,,,,,,,,,,,,,,,
1645711851.454146,214.000000,0.000000,3392.564209,3994.615479,4208.333496,4182.436035,4193.205078,4204.743652,4216.153809,4212.307617,4222.563965,4152.436035,4195.000000,4140.000000,4192.563965,4183.333496,2237.000000,4.000000,82.000000,,,,0.000000,4.000000,4.000000,4.000000,4.000000,4.000000,4.000000,4.000000,4.000000,4.000000,4.000000,4.000000,4.000000,4.000000,4.000000,100.000000,,,,,,,,,,,,,,,,
1645711851.458086,215.000000,0.000000,3404.358887,3995.641113,4208.717773,4183.461426,4191.410156,4205.641113,4219.615234,4214.102539,4223.205078,4150.000000,4193.974121,4140.128418,4192.051270,4188.846191,2684.000000,4.000000,82.000000,,,,0.000000,4.000000,4.000000,4.000000,4.000000,4.000000,4.000000,4.000000,4.000000,4.000000,4.000000,4.000000,4.000000,4.000000,4.000000,100.000000,,,,,,,,,,,,,,,,
1645711851.462026,216.000000,0.000000,3410.256348,4002.051270,4213.205078,4191.922852,4195.897461,4212.563965,4226.538574,4221.538574,4226.922852,4154.615234,4198.717773,4145.641113,4193.077148,4196.410156,3241.000000,4.000000,82.000000,,,,0.000000,4.000000,4.000000,4.000000,4.000000,4.000000,4.000000,4.000000,4.000000,4.000000,4.000000,4.000000,4.000000,4.000000,4.000000,100.000000,,,,,,,,,,,,,,,,
1645711851.465967,217.000000,0.000000,3415.512939,4008.461426,4218.589844,4201.538574,4204.487305,4219.230957,4231.922852,4229.102539,4230.000000,4162.948730,4206.282227,4152.563965,4194.358887,4201.538574,3230.000000,4.000000,82.000000,,,,0.000000,4.000000,4.000000,4.000000,4.000000,4.000000,4.000000,4.000000,4.000000,4.000000,4.000000,4.000000,4.000000,4.000000,4.000000,100.000000,,,,,,,,,,,,,,,,
1645711851.469907,218.000000,0.000000,3425.769287,4008.846191,4221.025879,4202.692383,4210.128418,4219.102539,4231.794922,4231.153809,4228.717773,4167.179688,4210.384766,4154.743652,4193.461426,4201.922852,2237.000000,4.000000,82.000000,,,,0.000000,4.000000,4.000000,4.000000,4.000000,4.000000,4.000000,4.000000,4.000000,4.000000,4.000000,4.000000,4.000000,4.000000,4.000000,100.000000,,,,,,,,,,,,,,,,
1645711851.473847,219.000000,0.000000,3439.487061,4004.358887,4219.743652,4193.589844,4209.615234,4213.205078,4227.820313,4227.436035,4223.717773,4164.487305,4208.461426,4150.897461,4190.256348,4198.974121,2684.000000,4.000000,82.000000,,,,0.000000,4.000000,4.000000,4.000000,4.000000,4.000000,4.000000,4.000000,4.000000,4.000000,4.000000,4.000000,4.000000,4.000000,4.000000,100.000000,,,,,,,,,,,,,,,,
1645711851.477787,220.000000,0.000000,3449.743652,4001.410156,4217.436035,4181.025879,4206.282227,4208.974121,4225.256348,4223.205078,4219.871582,4159.230957,4203.589844,4145.512695,4187.692383,4195.512695,3241.000000,4.000000,82.000000,,,,0.000000,4.000000,4.000000,4.000000,4.000000,4.000000,4.000000,4.000000,4.000000,4.000000,4.000000,4.000000,4.000000,4.000000,4.000000,100.000000,,,,,,,,,,,,,,,,
1645711851.481727,221.000000,0.000000,3453.846191,4004.358887,4217.051270,4173.589844,4203.846191,4211.282227,4226.794922,4222.563965,4220.384766,4156.666504,4199.871582,4143.974121,4187.948730,4193.205078,3230.000000,4.000000,82.000000,,,,0.000000,4.000000,4.000000,4.000000,4.000000,4.000000,4.000000,4.000000,4.000000,4.000000,4.000000,4.000000,4.000000,4.000000,4.000000,100.000000,,,,,,,,,,,,,,,,
1645711851.485667,222.000000,0.000000,3456.923096,4009.743652,4219.102539,4173.077148,4201.922852,4216.922852,4230.512695,4224.871582,4223.717773,4156.666504,4197.820313,4147.179688,4189.487305,4191.538574,2237.000000,4.000000,82.000000,,,,0.000000,4.000000,4.000000,4.000000,4.000000,4.000000,4.000000,4.000000,4.000000,4.000000,4.000000,4.000000,4.000000,4.000000,4.000000,100.000000,,,,,,,,,,,,,,,,
1645711851.489607,223.000000,0.000000,3465.128174,4011.281982,4221.282227,4175.897461,4198.717773,4219.615234,4232.948730,4226.282227,4225.769043,4156.153809,4196.922852,4151.538574,4189.743652,4189.871582,2684.000000,4.000000,82.000000,,,,0.000000,4.000000,4.000000,4.000000,4.000000,4.000000,4.000000,4.000000,4.000000,4.000000,4.000000,4.000000,4.000000,4.000000,4.000000,100.000000,,,,,,,,,,,,,,,,
1645711851.493547,224.000000,0.000000,3477.948730,4007.307617,4222.179688,4178.846191,4196.025879,4217.436035,4232.948730,4225.000000,4224.615234,4154.743652,4198.461426,4153.461426,4188.717773,4189.102539,3241.000000,4.000000,82.000000,,,,0.000000,4.000000,4.000000,4.000000,4.000000,4.000000,4.000000,4.000000,4.000000,4.000000,4.000000,4.000000,4.000000,4.000000,4.000000,100.000000,,,,,,,,,,,,,,,,
1645711851.497487,225.000000,0.000000,3489.230713,4002.435791,4222.307617,4182.179688,4198.333496,4214.230957,4231.922852,4222.692383,4222.820313,4155.512695,4204.487305,4153.077148,4188.717773,4189.871582,3230.000000,4.000000,82.000000,,,,0.000000,4.000000,4.000000,4.000000,4.000000,4.000000,4.000000,4.000000,4.000000,4.000000,4.000000,4.000000,4.000000,4.000000,4.000000,100.000000,,,,,,,,,,,,,,,,
1645711851.501427,226.000000,0.000000,3495.641113,4001.153809,4222.948730,4186.794922,4206.282227,4213.974121,4230.897461,4221.666504,4223.333496,4159.871582,4212.948730,4152.307617,4191.282227,4191.794922,2237.000000,4.000000,82.000000,,,,0.000000,4.000000,4.000000,4.000000,4.000000,4.000000,4.000000,4.000000,4.000000,4.000000,4.000000,4.000000,4.000000,4.000000,4.000000,100.000000,,,,,,,,,,,,,,,,
1645711851.505368,227.000000,0.000000,3500.128174,4002.948730,4223.974121,4191.282227,4213.205078,4215.256348,4229.615234,4222.051270,4226.410156,4163.846191,4217.436035,4152.051270,4194.358887,4193.846191,2684.000000,4.000000,82.000000,,,,0.000000,4.000000,4.000000,4.000000,4.000000,4.000000,4.000000,4.000000,4.000000,4.000000,4.000000,4.000000,4.000000,4.000000,4.000000,100.000000,,,,,,,,,,,,,,,,
1645711851.509308,228.000000,0.000000,3507.692383,4003.589844,4224.358887,4193.333496,4211.282227,4214.102539,4227.307617,4221.922852,4228.974121,4162.948730,4212.820313,4151.666504,4194.743652,4195.641113,3241.000000,4.000000,82.000000,,,,0.000000,4.000000,4.000000,4.000000,4.000000,4.000000,4.000000,4.000000,4.000000,4.000000,4.000000,4.000000,4.000000,4.000000,4.000000,100.000000,,,,,,,,,,,,,,,,
1645711851.513248,229.000000,0.000000,3518.205078,4001.923096,4224.230957,4192.436035,4199.743652,4210.000000,4224.871582,4220.897461,4228.974121,4158.461426,4202.820313,4151.410156,4191.922852,4198.333496,3230.000000,4.000000,82.000000,,,,0.000000,4.000000,4.000000,4.000000,4.000000,4.000000,4.000000,4.000000,4.000000,4.000000,4.000000,4.000000,4.000000,4.000000,4.000000,100.000000,,,,,,,,,,,,,,,,
1645711851.517188,230.000000,0.000000,3526.538574,4000.641113,4224.615234,4190.512695,4187.307617,4206.666504,4224.487305,4220.256348,4227.563965,4156.282227,4197.436035,4153.077148,4189.615234,4201.794922,2237.000000,4.000000,82.000000,,,,0.000000,4.000000,4.000000,4.000000,4.000000,4.000000,4.000000,4.000000,4.000000,4.000000,4.000000,4.000000,4.000000,4.000000,4.000000,100.000000,,,,,,,,,,,,,,,,
1645711851.521028,231.000000,0.000000,3530.641113,4002.179443,4225.641113,4188.077148,4182.820313,4207.307617,4226.282227,4221.025879,4227.051270,4159.487305,4202.436035,4157.179688,4190.512695,4203.717773,2684.000000,4.000000,82.000000,,,,0.000000,4.000000,4.000000,4.000000,4.000000,4.000000,4.000000,4.000000,4.000000,4.000000,4.000000,4.000000,4.000000,4.000000,4.000000,100.000000,,,,,,,,,,,,,,,,
1645711851.524968,232.000000,0.000000,3535.000000,4004.615479,4225.641113,4183.974121,4187.820313,4210.641113,4227.948730,4221.666504,4227.820313,4163.461426,4212.307617,4161.410156,4192.948730,4201.666504,3241.000000,4.000000,82.000000,,,,0.000000,4.000000,4.000000,4.000000,4.000000,4.000000,4.000000,4.000000,4.000000,4.000000,4.000000,4.000000,4.000000,4.000000,4.000000,100.000000,,,,,,,,,,,,,,,,
1645711851.528908,233.000000,0.000000,3544.487061,4004.358887,4223.717773,4178.589844,4196.538574,4213.077148,4227.307617,4220.000000,4227.948730,4161.025879,4216.666504,4162.563965,4192.692383,4196.666504,3230.000000,4.000000,82.000000,,,,0.000000,4.000000,4.000000,4.000000,4.000000,4.000000,4.000000,4.000000,4.000000,4.000000,4.000000,4.000000,4.000000,4.000000,4.000000,100.000000,,,,,,,,,,,,,,,,
1645711851.532848,234.000000,0.000000,3557.948730,4001.410156,4221.025879,4175.897461,4204.102539,4213.717773,4224.615234,4217.179688,4226.282227,4152.307617,4211.282227,4160.384766,4188.846191,4193.846191,2237.000000,4.000000,82.000000,,,,0.000000,4.000000,4.000000,4.000000,4.000000,4.000000,4.000000,4.000000,4.000000,4.000000,4.000000,4.000000,4.000000,4.000000,4.000000,100.000000,,,,,,,,,,,,,,,,
1645711851.536789,235.000000,0.000000,3568.974365,3999.871826,4220.641113,4180.769043,4210.512695,4214.615234,4222.563965,4216.538574,4224.102539,4145.512695,4202.307617,4158.205078,4185.769043,4196.666504,2684.000000,4.000000,82.000000,,,,0.000000,4.000000,4.000000,4.000000,4.000000,4.000000,4.000000,4.000000,4.000000,4.000000,4.000000,4.000000,4.000000,4.000000,4.000000,100.000000,,,,,,,,,,,,,,,,
1645711851.540729,236.000000,0.000000,3574.230713,4003.076904,4223.333496,4191.666504,4216.410156,4217.051270,4221.922852,4218.974121,4222.820313,4147.436035,4198.461426,4158.461426,4187.692383,4203.461426,3241.000000,4.000000,82.000000,,,,0.000000,4.000000,4.000000,4.000000,4.000000,4.000000,4.000000,4.000000,4.000000,4.000000,4.000000,4.000000,4.000000,4.000000,4.000000,100.000000,,,,,,,,,,,,,,,,
1645711851.544669,237.000000,0.000000,3577.692383,4008.718018,4226.282227,4200.897461,4219.102539,4218.077148,4220.897461,4221.538574,4222.179688,4154.871582,4201.410156,4160.128418,4193.461426,4208.077148,3230.000000,4.000000,82.000000,,,,0.000000,4.000000,4.000000,4.000000,4.000000,4.000000,4.000000,4.000000,4.000000,4.000000,4.000000,4.000000,4.000000,4.000000,4.000000,100.000000,,,,,,,,,,,,,,,,
1645711851.548609,238.000000,0.000000,3585.384521,4011.410156,4226.538574,4201.282227,4214.743652,4213.974121,4218.589844,4220.769043,4220.641113,4159.230957,4205.641113,4160.000000,4198.333496,4206.922852,2237.000000,4.000000,82.000000,,,,0.000000,4.000000,4.000000,4.000000,4.000000,4.000000,4.000000,4.000000,4.000000,4.000000,4.000000,4.000000,4.000000,4.000000,4.000000,100.000000,,,,,,,,,,,,,,,,
1645711851.552549,239.000000,0.000000,3597.051270,4009.102539,4223.461426,4193.589844,4204.615234,4206.025879,4216.538574,4217.179688,4218.461426,4156.794922,4206.666504,4157.051270,4199.358887,4201.410156,2684.000000,4.000000,82.000000,,,,0.000000,4.000000,4.000000,4.000000,4.000000,4.000000,4.000000,4.000000,4.000000,4.000000,4.000000,4.000000,4.000000,4.000000,4.000000,100.000000,,,,,,,,,,,,,,,,
1645711851.556489,240.000000,0.000000,3606.281982,4005.897461,4220.000000,4185.512695,4197.051270,4200.512695,4217.820313,4216.025879,4218.461426,4153.077148,4205.897461,4154.230957,4198.461426,4196.282227,3241.000000,4.000000,82.000000,,,,0.000000,4.000000,4.000000,4.000000,4.000000,4.000000,4.000000,4.000000,4.000000,4.000000,4.000000,4.000000,4.000000,4.000000,4.000000,100.000000,,,,,,,,,,,,,,,,
1645711851.560429,241.000000,0.000000,3609.102539,4006.923096,4218.205078,4182.948730,4198.589844,4202.051270,4222.179688,4220.128418,4222.563965,4154.871582,4206.794922,4154.615234,4198.974121,4193.717773,3230.000000,4.000000,82.000000,,,,0.000000,4.000000,4.000000,4.000000,4.000000,4.000000,4.000000,4.000000,4.000000,4.000000,4.000000,4.000000,4.000000,4.000000,4.000000,100.000000,,,,,,,,,,,,,,,,
1645711851.564369,242.000000,0.000000,3609.615479,4011.923096,4217.436035,4184.230957,4205.384766,4207.307617,4225.000000,4226.666504,4228.461426,4161.538574,4208.461426,4156.922852,4200.128418,4192.179688,2237.000000,4.000000,82.000000,,,,0.000000,4.000000,4.000000,4.000000,4.000000,4.000000,4.000000,4.000000,4.000000,4.000000,4.000000,4.000000,4.000000,4.000000,4.000000,100.000000,,,,,,,,,,,,,,,,
1645711851.568309,243.000000,0.000000,3614.743652,4015.128174,4215.512695,4182.820313,4206.794922,4209.230957,4222.563965,4229.102539,4231.153809,4165.897461,4207.051270,4157.692383,4198.333496,4190.128418,2684.000000,4.000000,82.000000,,,,0.000000,4.000000,4.000000,4.000000,4.000000,4.000000,4.000000,4.000000,4.000000,4.000000,4.000000,4.000000,4.000000,4.000000,4.000000,100.000000,,,,,,,,,,,,,,,,
1645711851.572249,244.000000,0.000000,3625.128174,4012.307617,4211.922852,4177.307617,4197.179688,4205.128418,4216.153809,4224.358887,4228.205078,4162.948730,4201.922852,4155.000000,4192.948730,4187.820313,3241.000000,4.000000,82.000000,,,,0.000000,4.000000,4.000000,4.000000,4.000000,4.000000,4.000000,4.000000,4.000000,4.000000,4.000000,4.000000,4.000000,4.000000,4.000000,100.000000,,,,,,,,,,,,,,,,
1645711851.576190,245.000000,0.000000,3633.718018,4005.384521,4208.589844,4172.820313,4182.051270,4199.230957,4210.897461,4216.153809,4222.563965,4155.769043,4197.307617,4150.769043,4187.307617,4187.820313,3230.000000,4.000000,82.000000,,,,0.000000,4.000000,4.000000,4.000000,4.000000,4.000000,4.000000,4.000000,4.000000,4.000000,4.000000,4.000000,4.000000,4.000000,4.000000,100.000000,,,,,,,,,,,,,,,,
1645711851.580130,246.000000,0.000000,3635.256348,3999.230713,4207.179688,4174.871582,4171.922852,4197.307617,4210.384766,4210.256348,4218.974121,4150.769043,4197.179688,4146.794922,4185.384766,4190.641113,2237.000000,4.000000,82.000000,,,,0.000000,4.000000,4.000000,4.000000,4.000000,4.000000,4.000000,4.000000,4.000000,4.000000,4.000000,4.000000,4.000000,4.000000,4.000000,100.000000,,,,,,,,,,,,,,,,
1645711851.584070,247.000000,0.000000,3633.333252,3996.410156,4207.307617,4181.922852,4172.179688,4199.487305,4213.205078,4208.717773,4219.358887,4149.871582,4199.615234,4142.820313,4186.794922,4194.230957,2684.000000,4.000000,82.000000,,,,0.000000,4.000000,4.000000,4.000000,4.000000,4.000000,4.000000,4.000000,4.000000,4.000000,4.000000,4.000000,4.000000,4.000000,4.000000,100.000000,,,,,,,,,,,,,,,,
1645711851.587910,248.000000,0.000000,3636.923096,3995.769287,4207.948730,4186.282227,4179.743652,4201.538574,4215.641113,4209.230957,4221.282227,4149.615234,4199.871582,4138.205078,4188.205078,4195.512695,3241.000000,4.000000,82.000000,,,,0.000000,4.000000,4.000000,4.000000,4.000000,4.000000,4.000000,4.000000,4.000000,4.000000,4.000000,4.000000,4.000000,4.000000,4.000000,100.000000,,,,,,,,,,,,,,,,
1645711851.591850,249.000000,0.000000,3649.230713,3996.025635,4209.102539,4183.589844,4189.487305,4201.410156,4216.153809,4209.358887,4221.794922,4147.436035,4196.794922,4134.871582,4187.563965,4194.230957,3230.000000,4.000000,82.000000,,,,0.000000,4.000000,4.000000,4.000000,4.000000,4.000000,4.000000,4.000000,4.000000,4.000000,4.000000,4.000000,4.000000,4.000000,4.000000,100.000000,,,,,,,,,,,,,,,,
1645711851.595790,250.000000,0.000000,3664.487061,3998.718018,4211.922852,4177.692383,4199.615234,4202.051270,4216.538574,4209.743652,4221.153809,4145.897461,4195.256348,4136.922852,4186.538574,4191.410156,2237.000000,4.000000,82.000000,,,,0.000000,4.000000,4.000000,4.000000,4.000000,4.000000,4.000000,4.000000,4.000000,4.000000,4.000000,4.000000,4.000000,4.000000,4.000000,100.000000,,,,,,,,,,,,,,,,
1645711851.599730,251.000000,0.000000,3675.128174,4003.846191,4216.410156,4176.153809,4208.589844,4206.538574,4218.205078,4211.794922,4221.025879,4148.974121,4199.102539,4145.128418,4187.692383,4188.333496,2684.000000,4.000000,82.000000,,,,0.000000,4.000000,4.000000,4.000000,4.000000,4.000000,4.000000,4.000000,4.000000,4.000000,4.000000,4.000000,4.000000,4.000000,4.000000,100.000000,,,,,,,,,,,,,,,,
1645711851.603670,252.000000,0.000000,3680.897461,4008.718018,4219.871582,4181.025879,4212.051270,4212.820313,4220.128418,4214.487305,4221.922852,4155.512695,4205.384766,4154.358887,4189.871582,4185.128418,3241.000000,4.000000,82.000000,,,,0.000000,4.000000,4.000000,4.000000,4.000000,4.000000,4.000000,4.000000,4.000000,4.000000,4.000000,4.000000,4.000000,4.000000,4.000000,100.000000,,,,,,,,,,,,,,,,
1645711851.607611,253.000000,0.000000,3687.179443,4009.358887,4219.871582,4187.436035,4206.922852,4215.000000,4220.384766,4214.615234,4222.692383,4159.358887,4206.794922,4157.307617,4189.487305,4183.205078,3230.000000,4.000000,82.000000,,,,0.000000,4.000000,4.000000,4.000000,4.000000,4.000000,4.000000,4.000000,4.000000,4.000000,4.000000,4.000000,4.000000,4.000000,4.000000,100.000000,,,,,,,,,,,,,,,,
1645711851.611551,254.000000,0.000000,3696.923096,4005.769287,4216.538574,4190.000000,4196.794922,4211.282227,4219.487305,4211.153809,4222.051270,4157.051270,4200.256348,4151.666504,4184.871582,4184.230957,2237.000000,4.000000,82.000000,,,,0.000000,4.000000,4.000000,4.000000,4.000000,4.000000,4.000000,4.000000,4.000000,4.000000,4.000000,4.000000,4.000000,4.000000,4.000000,100.000000,,,,,,,,,,,,,,,,
1645711851.615491,255.000000,0.000000,3706.025635,4002.692383,4212.820313,4188.846191,4191.666504,4206.282227,4219.743652,4206.410156,4221.025879,4151.922852,4191.025879,4142.051270,4179.358887,4188.205078,112.000000,4.000000,82.000000,,,,0.000000,4.000000,4.000000,4.000000,4.000000,4.000000,4.000000,4.000000,4.000000,4.000000,4.000000,4.000000,4.000000,4.000000,4.000000,100.000000,,,,,,,,,,,,,,,,
1645711851.619431,0.000000,0.000000,3709.615479,4004.230713,4211.410156,4187.563965,4197.179688,4205.641113,4221.282227,4203.846191,4220.384766,4149.743652,4186.666504,4135.128418,4177.307617,4192.307617,3377.000000,4.000000,82.000000,,,,0.000000,4.000000,4.000000,4.000000,4.000000,4.000000,4.000000,4.000000,4.000000,4.000000,4.000000,4.000000,4.000000,4.000000,4.000000,100.000000,,,,,,,,,,,,,,,,
1645711851.623371,1.000000,0.000000,3709.358887,4008.589844,4211.538574,4187.692383,4207.563965,4208.974121,4221.666504,4203.077148,4219.230957,4150.256348,4188.717773,4132.692383,4179.358887,4193.589844,3129.000000,4.000000,82.000000,,,,0.000000,4.000000,4.000000,4.000000,4.000000,4.000000,4.000000,4.000000,4.000000,4.000000,4.000000,4.000000,4.000000,4.000000,4.000000,100.000000,,,,,,,,,,,,,,,,
1645711851.627311,2.000000,0.000000,3712.435791,4010.128174,4210.769043,4186.922852,4211.153809,4211.153809,4218.974121,4201.538574,4216.282227,4147.820313,4192.307617,4131.922852,4182.179688,4191.666504,2332.000000,4.000000,82.000000,,,,0.000000,4.000000,4.000000,4.000000,4.000000,4.000000,4.000000,4.000000,4.000000,4.000000,4.000000,4.000000,4.000000,4.000000,4.000000,100.000000,,,,,,,,,,,,,,,,
1645711851.631251,3.000000,0.000000,3722.692383,4006.410156,4208.717773,4183.717773,4202.436035,4209.358887,4215.000000,4198.205078,4211.922852,4138.974121,4192.820313,4130.000000,4182.692383,4189.615234,3322.000000,4.000000,82.000000,,,,0.000000,4.000000,4.000000,4.000000,4.000000,4.000000,4.000000,4.000000,4.000000,4.000000,4.000000,4.000000,4.000000,4.000000,4.000000,100.000000,,,,,,,,,,,,,,,,
1645711851.635191,4.000000,0.000000,3735.256348,4001.666748,4207.692383,4180.384766,4188.846191,4206.538574,4213.589844,4195.769043,4209.358887,4128.589844,4191.794922,4128.205078,4181.666504,4190.128418,3543.000000,4.000000,82.000000,,,,0.000000,4.000000,4.000000,4.000000,4.000000,4.000000,4.000000,4.000000,4.000000,4.000000,4.000000,4.000000,4.000000,4.000000,4.000000,100.000000,,,,,,,,,,,,,,,,
1645711851.639131,5.000000,0.000000,3743.205078,4001.281982,4209.871582,4180.128418,4180.769043,4206.794922,4216.025879,4197.563965,4211.410156,4124.487305,4192.179688,4129.358887,4181.282227,4191.538574,3314.000000,4.000000,82.000000,,,,0.000000,4.000000,4.000000,4.000000,4.000000,4.000000,4.000000,4.000000,4.000000,4.000000,4.000000,4.000000,4.000000,4.000000,4.000000,100.000000,,,,,,,,,,,,,,,,
1645711851.643071,6.000000,0.000000,3745.769287,4005.000000,4213.974121,4181.922852,4180.641113,4209.230957,4218.974121,4202.436035,4216.538574,4128.461426,4192.563965,4133.589844,4182.051270,4189.743652,3200.000000,4.000000,82.000000,,,,0.000000,4.000000,4.000000,4.000000,4.000000,4.000000,4.000000,4.000000,4.000000,4.000000,4.000000,4.000000,4.000000,4.000000,4.000000,100.000000,,,,,,,,,,,,,,,,
1645711851.647012,7.000000,0.000000,3748.333252,4006.923096,4216.794922,4181.538574,4182.692383,4208.974121,4218.333496,4205.641113,4219.871582,4133.846191,4188.589844,4137.307617,4181.666504,4183.846191,2524.000000,4.000000,82.000000,,,,0.000000,4.000000,4.000000,4.000000,4.000000,4.000000,4.000000,4.000000,4.000000,4.000000,4.000000,4.000000,4.000000,4.000000,4.000000,100.000000,,,,,,,,,,,,,,,,
1645711851.650952,8.000000,0.000000,3754.743652,4003.461426,4216.025879,4177.307617,4182.436035,4203.974121,4214.102539,4204.102539,4218.589844,4134.615234,4179.358887,4137.820313,4179.102539,4177.948730,1711.000000,4.000000,82.000000,,,,0.000000,4.000000,4.000000,4.000000,4.000000,4.000000,4.000000,4.000000,4.000000,4.000000,4.000000,4.000000,4.000000,4.000000,4.000000,100.000000,,,,,,,,,,,,,,,,
1645711851.654992,9.000000,0.000000,3762.692383,3997.564209,4213.589844,4173.717773,4183.589844,4198.717773,4210.384766,4200.256348,4214.871582,4132.563965,4172.436035,4136.666504,4175.897461,4177.051270,2874.000000,4.000000,82.000000,,,,0.000000,4.000000,4.000000,4.000000,4.000000,4.000000,4.000000,4.000000,4.000000,4.000000,4.000000,4.000000,4.000000,4.000000,4.000000,100.000000,,,,,,,,,,,,,,,,
1645711851.658932,10.000000,0.000000,3768.076904,3995.256348,4212.179688,4176.794922,4191.666504,4198.717773,4210.641113,4198.461426,4213.461426,4134.230957,4176.025879,4137.051270,4175.256348,4181.922852,2299.000000,4.000000,82.000000,,,,0.000000,4.000000,4.000000,4.000000,4.000000,4.000000,4.000000,4.000000,4.000000,4.000000,4.000000,4.000000,4.000000,4.000000,4.000000,100.000000,,,,,,,,,,,,,,,,
