title:Alex-qOmikGczk0qlNW6e8cu-GA, start timestamp:1645707741.160568, stop timestamp:1645707767.511548, headset type:EPOCPLUS, headset serial:3B9AEBFF, headset firmware:626, channels:55, sampling rate:eeg_256, samples:6689      , version:2.1, 
Timestamp,OriginalTimestamp,EEG.Counter,EEG.Interpolated,EEG.AF3,EEG.F7,EEG.F3,EEG.FC5,EEG.T7,EEG.P7,EEG.O1,EEG.O2,EEG.P8,EEG.T8,EEG.FC6,EEG.F4,EEG.F8,EEG.AF4,EEG.RawCq,EEG.Battery,EEG.BatteryPercent,MarkerIndex,MarkerType,MarkerValueInt,EEG.MarkerHardware,CQ.AF3,CQ.F7,CQ.F3,CQ.FC5,CQ.T7,CQ.P7,CQ.O1,CQ.O2,CQ.P8,CQ.T8,CQ.FC6,CQ.F4,CQ.F8,CQ.AF4,CQ.Overall,EQ.SampleRateQuality,EQ.OVERALL,EQ.AF3,EQ.F7,EQ.F3,EQ.FC5,EQ.T7,EQ.P7,EQ.O1,EQ.O2,EQ.P8,EQ.T8,EQ.FC6,EQ.F4,EQ.F8,EQ.AF4
1645707741.160568,1645707741.165423,203.000000,0.000000,4126.922852,3601.410156,4219.102539,4263.205078,4266.538574,4211.922852,4227.307617,4224.615234,4196.153809,4190.897461,4156.538574,4115.897461,4168.333496,4138.205078,3440.000000,4.000000,95.000000,,,,0.000000,4.000000,4.000000,4.000000,4.000000,4.000000,4.000000,4.000000,4.000000,4.000000,4.000000,4.000000,4.000000,4.000000,4.000000,100.000000,,,,,,,,,,,,,,,,
1645707741.164508,1645707741.169463,204.000000,0.000000,4121.922852,3599.487061,4215.897461,4242.563965,4256.794922,4210.641113,4224.102539,4216.153809,4190.000000,4183.333496,4150.000000,4110.897461,4164.358887,4135.256348,3324.000000,4.000000,95.000000,,,,0.000000,4.000000,4.000000,4.000000,4.000000,4.000000,4.000000,4.000000,4.000000,4.000000,4.000000,4.000000,4.000000,4.000000,4.000000,100.000000,,,,,,,,,,,,,,,,
1645707741.168448,1645707741.173404,205.000000,0.000000,4114.743652,3598.974365,4210.256348,4221.410156,4257.051270,4208.077148,4222.563965,4208.717773,4184.230957,4171.282227,4142.179688,4106.922852,4158.077148,4130.769043,3274.000000,4.000000,95.000000,,,,0.000000,4.000000,4.000000,4.000000,4.000000,4.000000,4.000000,4.000000,4.000000,4.000000,4.000000,4.000000,4.000000,4.000000,4.000000,100.000000,,,,,,,,,,,,,,,,
1645707741.172388,1645707741.177344,206.000000,0.000000,4109.871582,3600.641113,4205.128418,4205.897461,4265.641113,4205.897461,4222.948730,4205.769043,4181.794922,4161.922852,4137.563965,4105.769043,4153.205078,4128.077148,3047.000000,4.000000,95.000000,,,,0.000000,4.000000,4.000000,4.000000,4.000000,4.000000,4.000000,4.000000,4.000000,4.000000,4.000000,4.000000,4.000000,4.000000,4.000000,100.000000,,,,,,,,,,,,,,,,
1645707741.176328,1645707741.181284,207.000000,0.000000,4109.743652,3603.076904,4203.205078,4199.615234,4274.743652,4205.000000,4223.589844,4207.563965,4182.948730,4160.000000,4138.205078,4107.307617,4152.051270,4128.589844,3440.000000,4.000000,95.000000,,,,0.000000,4.000000,4.000000,4.000000,4.000000,4.000000,4.000000,4.000000,4.000000,4.000000,4.000000,4.000000,4.000000,4.000000,4.000000,100.000000,,,,,,,,,,,,,,,,
1645707741.180268,1645707741.185225,208.000000,0.000000,4112.179688,3602.820557,4204.871582,4201.666504,4275.641113,4204.487305,4223.077148,4210.512695,4185.384766,4164.358887,4141.666504,4109.358887,4153.846191,4129.871582,3324.000000,4.000000,95.000000,,,,0.000000,4.000000,4.000000,4.000000,4.000000,4.000000,4.000000,4.000000,4.000000,4.000000,4.000000,4.000000,4.000000,4.000000,4.000000,100.000000,,,,,,,,,,,,,,,,
1645707741.184208,1645707741.189165,209.000000,0.000000,4113.717773,3598.205078,4207.820313,4208.333496,4265.512695,4203.077148,4221.410156,4210.256348,4185.641113,4169.102539,4143.589844,4109.230957,4155.256348,4128.717773,3274.000000,4.000000,95.000000,,,,0.000000,4.000000,4.000000,4.000000,4.000000,4.000000,4.000000,4.000000,4.000000,4.000000,4.000000,4.000000,4.000000,4.000000,4.000000,100.000000,,,,,,,,,,,,,,,,
1645707741.188148,1645707741.193105,210.000000,0.000000,4112.436035,3591.794922,4208.846191,4214.743652,4250.769043,4200.512695,4219.487305,4205.128418,4182.692383,4169.743652,4141.922852,4106.153809,4154.358887,4124.102539,3047.000000,4.000000,95.000000,,,,0.000000,4.000000,4.000000,4.000000,4.000000,4.000000,4.000000,4.000000,4.000000,4.000000,4.000000,4.000000,4.000000,4.000000,4.000000,100.000000,,,,,,,,,,,,,,,,
1645707741.192088,1645707741.197046,211.000000,0.000000,4109.615234,3588.461426,4206.282227,4217.563965,4242.051270,4198.077148,4218.205078,4197.820313,4178.461426,4166.410156,4138.333496,4102.436035,4152.051270,4119.102539,3440.000000,4.000000,95.000000,,,,0.000000,4.000000,4.000000,4.000000,4.000000,4.000000,4.000000,4.000000,4.000000,4.000000,4.000000,4.000000,4.000000,4.000000,4.000000,100.000000,,,,,,,,,,,,,,,,
1645707741.196028,1645707741.200986,212.000000,0.000000,4107.948730,3590.384521,4201.410156,4216.282227,4245.000000,4197.307617,4218.205078,4193.205078,4176.410156,4161.922852,4135.769043,4101.025879,4150.769043,4117.436035,3324.000000,4.000000,95.000000,,,,0.000000,4.000000,4.000000,4.000000,4.000000,4.000000,4.000000,4.000000,4.000000,4.000000,4.000000,4.000000,4.000000,4.000000,4.000000,100.000000,,,,,,,,,,,,,,,,
1645707741.199968,1645707741.204926,213.000000,0.000000,4109.230957,3595.769287,4197.948730,4213.717773,4255.384766,4198.205078,4219.743652,4194.102539,4177.436035,4159.230957,4135.641113,4102.692383,4151.794922,4120.256348,3274.000000,4.000000,95.000000,,,,0.000000,4.000000,4.000000,4.000000,4.000000,4.000000,4.000000,4.000000,4.000000,4.000000,4.000000,4.000000,4.000000,4.000000,4.000000,100.000000,,,,,,,,,,,,,,,,
1645707741.203908,1645707741.208867,214.000000,0.000000,4112.436035,3600.256348,4198.205078,4214.102539,4263.333496,4199.487305,4222.436035,4199.358887,4179.615234,4158.717773,4136.794922,4105.384766,4153.846191,4125.384766,3047.000000,4.000000,95.000000,,,,0.000000,4.000000,4.000000,4.000000,4.000000,4.000000,4.000000,4.000000,4.000000,4.000000,4.000000,4.000000,4.000000,4.000000,4.000000,100.000000,,,,,,,,,,,,,,,,
1645707741.207848,1645707741.212807,215.000000,0.000000,4115.256348,3601.281982,4201.153809,4219.487305,4261.922852,4200.000000,4225.128418,4204.487305,4180.512695,4159.487305,4136.922852,4106.025879,4154.487305,4128.461426,3440.000000,4.000000,95.000000,,,,0.000000,4.000000,4.000000,4.000000,4.000000,4.000000,4.000000,4.000000,4.000000,4.000000,4.000000,4.000000,4.000000,4.000000,4.000000,100.000000,,,,,,,,,,,,,,,,
1645707741.211788,1645707741.216747,216.000000,0.000000,4115.384766,3599.487061,4203.205078,4228.205078,4252.563965,4199.743652,4226.153809,4205.256348,4179.615234,4159.743652,4134.615234,4103.077148,4152.307617,4126.794922,3324.000000,4.000000,95.000000,,,,0.000000,4.000000,4.000000,4.000000,4.000000,4.000000,4.000000,4.000000,4.000000,4.000000,4.000000,4.000000,4.000000,4.000000,4.000000,100.000000,,,,,,,,,,,,,,,,
1645707741.215728,1645707741.220688,217.000000,0.000000,4112.692383,3597.435791,4201.794922,4236.282227,4243.205078,4199.102539,4224.615234,4201.538574,4178.205078,4158.846191,4130.256348,4098.461426,4148.589844,4121.666504,3274.000000,4.000000,95.000000,,,,0.000000,4.000000,4.000000,4.000000,4.000000,4.000000,4.000000,4.000000,4.000000,4.000000,4.000000,4.000000,4.000000,4.000000,4.000000,100.000000,,,,,,,,,,,,,,,,
1645707741.219669,1645707741.224628,218.000000,0.000000,4108.717773,3597.307617,4197.436035,4239.358887,4240.128418,4198.461426,4221.538574,4197.436035,4177.820313,4157.820313,4125.512695,4095.128174,4145.000000,4116.666504,3047.000000,4.000000,95.000000,,,,0.000000,4.000000,4.000000,4.000000,4.000000,4.000000,4.000000,4.000000,4.000000,4.000000,4.000000,4.000000,4.000000,4.000000,4.000000,100.000000,,,,,,,,,,,,,,,,
1645707741.223609,1645707741.228568,219.000000,0.000000,4106.153809,3599.358887,4193.077148,4236.025879,4243.333496,4198.205078,4219.743652,4197.563965,4178.974121,4158.974121,4122.692383,4094.871826,4142.820313,4115.256348,3440.000000,4.000000,95.000000,,,,0.000000,4.000000,4.000000,4.000000,4.000000,4.000000,4.000000,4.000000,4.000000,4.000000,4.000000,4.000000,4.000000,4.000000,4.000000,100.000000,,,,,,,,,,,,,,,,
1645707741.227548,1645707741.232509,220.000000,0.000000,4107.051270,3602.692383,4191.666504,4228.974121,4248.589844,4199.230957,4221.025879,4202.179688,4181.282227,4163.461426,4123.333496,4097.179688,4142.820313,4118.589844,3324.000000,4.000000,95.000000,,,,0.000000,4.000000,4.000000,4.000000,4.000000,4.000000,4.000000,4.000000,4.000000,4.000000,4.000000,4.000000,4.000000,4.000000,4.000000,100.000000,,,,,,,,,,,,,,,,
1645707741.231489,1645707741.236449,221.000000,0.000000,4111.666504,3606.281982,4193.461426,4223.589844,4251.538574,4201.922852,4224.743652,4207.692383,4183.717773,4170.000000,4127.948730,4100.256348,4145.256348,4124.487305,3274.000000,4.000000,95.000000,,,,0.000000,4.000000,4.000000,4.000000,4.000000,4.000000,4.000000,4.000000,4.000000,4.000000,4.000000,4.000000,4.000000,4.000000,4.000000,100.000000,,,,,,,,,,,,,,,,
1645707741.235429,1645707741.240289,222.000000,0.000000,4117.820313,3608.589844,4197.179688,4224.230957,4250.641113,4205.128418,4228.333496,4210.512695,4185.641113,4175.000000,4134.615234,4102.948730,4148.717773,4129.487305,3047.000000,4.000000,95.000000,,,,0.000000,4.000000,4.000000,4.000000,4.000000,4.000000,4.000000,4.000000,4.000000,4.000000,4.000000,4.000000,4.000000,4.000000,4.000000,100.000000,,,,,,,,,,,,,,,,
1645707741.239369,1645707741.244230,223.000000,0.000000,4122.307617,3608.974365,4201.410156,4229.743652,4247.179688,4207.051270,4230.256348,4210.384766,4187.051270,4175.000000,4140.000000,4105.641113,4151.282227,4130.384766,3440.000000,4.000000,95.000000,,,,0.000000,4.000000,4.000000,4.000000,4.000000,4.000000,4.000000,4.000000,4.000000,4.000000,4.000000,4.000000,4.000000,4.000000,4.000000,100.000000,,,,,,,,,,,,,,,,
1645707741.243309,1645707741.248170,224.000000,0.000000,4123.333496,3608.461426,4205.769043,4235.256348,4243.589844,4206.922852,4231.025879,4210.256348,4187.692383,4170.256348,4141.282227,4109.487305,4151.025879,4126.538574,3324.000000,4.000000,95.000000,,,,0.000000,4.000000,4.000000,4.000000,4.000000,4.000000,4.000000,4.000000,4.000000,4.000000,4.000000,4.000000,4.000000,4.000000,4.000000,100.000000,,,,,,,,,,,,,,,,
1645707741.247249,1645707741.252111,225.000000,0.000000,4121.538574,3608.333252,4208.717773,4235.769043,4242.436035,4206.025879,4232.436035,4212.563965,4187.051270,4164.487305,4138.974121,4114.487305,4148.077148,4121.153809,3274.000000,4.000000,95.000000,,,,0.000000,4.000000,4.000000,4.000000,4.000000,4.000000,4.000000,4.000000,4.000000,4.000000,4.000000,4.000000,4.000000,4.000000,4.000000,100.000000,,,,,,,,,,,,,,,,
1645707741.251189,1645707741.256051,226.000000,0.000000,4120.128418,3609.487061,4208.589844,4230.897461,4244.358887,4206.153809,4234.358887,4217.307617,4186.025879,4163.333496,4136.025879,4118.589844,4145.000000,4119.358887,3047.000000,4.000000,95.000000,,,,0.000000,4.000000,4.000000,4.000000,4.000000,4.000000,4.000000,4.000000,4.000000,4.000000,4.000000,4.000000,4.000000,4.000000,4.000000,100.000000,,,,,,,,,,,,,,,,
1645707741.255129,1645707741.259991,227.000000,0.000000,4121.410156,3611.153809,4205.641113,4224.743652,4246.922852,4207.948730,4235.641113,4222.307617,4186.282227,4169.358887,4135.512695,4119.743652,4143.974121,4123.461426,3440.000000,4.000000,95.000000,,,,0.000000,4.000000,4.000000,4.000000,4.000000,4.000000,4.000000,4.000000,4.000000,4.000000,4.000000,4.000000,4.000000,4.000000,4.000000,100.000000,,,,,,,,,,,,,,,,
1645707741.259069,1645707741.263932,228.000000,0.000000,4125.000000,3612.435791,4202.179688,4222.051270,4246.666504,4210.256348,4235.641113,4225.384766,4188.589844,4179.743652,4137.692383,4117.051270,4145.641113,4131.666504,3324.000000,4.000000,95.000000,,,,0.000000,4.000000,4.000000,4.000000,4.000000,4.000000,4.000000,4.000000,4.000000,4.000000,4.000000,4.000000,4.000000,4.000000,4.000000,100.000000,,,,,,,,,,,,,,,,
1645707741.263009,1645707741.267872,229.000000,0.000000,4128.333496,3613.076904,4200.897461,4224.615234,4242.179688,4211.538574,4235.256348,4225.128418,4192.051270,4188.589844,4140.384766,4111.922852,4148.333496,4139.102539,3274.000000,4.000000,95.000000,,,,0.000000,4.000000,4.000000,4.000000,4.000000,4.000000,4.000000,4.000000,4.000000,4.000000,4.000000,4.000000,4.000000,4.000000,4.000000,100.000000,,,,,,,,,,,,,,,,
1645707741.266949,1645707741.271812,230.000000,0.000000,4129.487305,3614.102539,4201.922852,4230.128418,4236.538574,4211.538574,4235.000000,4222.179688,4195.128418,4191.666504,4141.538574,4107.179688,4149.743652,4142.179688,3047.000000,4.000000,95.000000,,,,0.000000,4.000000,4.000000,4.000000,4.000000,4.000000,4.000000,4.000000,4.000000,4.000000,4.000000,4.000000,4.000000,4.000000,4.000000,100.000000,,,,,,,,,,,,,,,,
1645707741.270889,1645707741.275753,231.000000,0.000000,4128.717773,3616.666748,4203.077148,4234.871582,4234.743652,4211.025879,4235.000000,4218.589844,4196.153809,4189.358887,4140.641113,4104.871582,4149.743652,4141.410156,3440.000000,4.000000,95.000000,,,,0.000000,4.000000,4.000000,4.000000,4.000000,4.000000,4.000000,4.000000,4.000000,4.000000,4.000000,4.000000,4.000000,4.000000,4.000000,100.000000,,,,,,,,,,,,,,,,
1645707741.274829,1645707741.279693,232.000000,0.000000,4128.077148,3620.897461,4202.563965,4236.538574,4238.717773,4210.384766,4233.846191,4215.769043,4195.641113,4185.512695,4139.358887,4105.769043,4149.743652,4139.487305,3324.000000,4.000000,95.000000,,,,0.000000,4.000000,4.000000,4.000000,4.000000,4.000000,4.000000,4.000000,4.000000,4.000000,4.000000,4.000000,4.000000,4.000000,4.000000,100.000000,,,,,,,,,,,,,,,,
1645707741.278769,1645707741.283633,233.000000,0.000000,4128.717773,3626.025635,4200.128418,4236.282227,4245.384766,4208.974121,4231.282227,4214.871582,4195.000000,4183.461426,4138.717773,4109.102539,4151.282227,4138.974121,3274.000000,4.000000,95.000000,,,,0.000000,4.000000,4.000000,4.000000,4.000000,4.000000,4.000000,4.000000,4.000000,4.000000,4.000000,4.000000,4.000000,4.000000,4.000000,100.000000,,,,,,,,,,,,,,,,
1645707741.282709,1645707741.287574,234.000000,0.000000,4130.641113,3630.897461,4198.333496,4235.769043,4249.615234,4206.153809,4228.717773,4216.025879,4195.384766,4183.974121,4139.230957,4113.461426,4154.743652,4140.897461,3047.000000,4.000000,95.000000,,,,0.000000,4.000000,4.000000,4.000000,4.000000,4.000000,4.000000,4.000000,4.000000,4.000000,4.000000,4.000000,4.000000,4.000000,4.000000,100.000000,,,,,,,,,,,,,,,,
1645707741.286649,1645707741.291514,235.000000,0.000000,4133.205078,3634.743652,4198.846191,4235.769043,4248.717773,4202.692383,4227.948730,4218.717773,4197.051270,4185.897461,4140.256348,4117.179688,4158.846191,4144.102539,3440.000000,4.000000,95.000000,,,,0.000000,4.000000,4.000000,4.000000,4.000000,4.000000,4.000000,4.000000,4.000000,4.000000,4.000000,4.000000,4.000000,4.000000,4.000000,100.000000,,,,,,,,,,,,,,,,
1645707741.290589,1645707741.295454,236.000000,0.000000,4135.512695,3637.307617,4200.897461,4235.384766,4243.717773,4200.000000,4228.974121,4220.769043,4199.358887,4187.692383,4141.922852,4118.846191,4162.051270,4146.410156,3324.000000,4.000000,95.000000,,,,0.000000,4.000000,4.000000,4.000000,4.000000,4.000000,4.000000,4.000000,4.000000,4.000000,4.000000,4.000000,4.000000,4.000000,4.000000,100.000000,,,,,,,,,,,,,,,,
1645707741.294529,1645707741.299395,237.000000,0.000000,4136.922852,3637.948730,4201.922852,4234.230957,4237.692383,4198.461426,4229.871582,4219.743652,4200.512695,4187.948730,4143.717773,4117.563965,4163.077148,4145.384766,3274.000000,4.000000,95.000000,,,,0.000000,4.000000,4.000000,4.000000,4.000000,4.000000,4.000000,4.000000,4.000000,4.000000,4.000000,4.000000,4.000000,4.000000,4.000000,100.000000,,,,,,,,,,,,,,,,
1645707741.298469,1645707741.303335,238.000000,0.000000,4136.410156,3635.897461,4200.512695,4232.948730,4232.948730,4197.436035,4228.461426,4215.512695,4199.871582,4185.769043,4144.615234,4113.717773,4161.282227,4140.128418,3047.000000,4.000000,95.000000,,,,0.000000,4.000000,4.000000,4.000000,4.000000,4.000000,4.000000,4.000000,4.000000,4.000000,4.000000,4.000000,4.000000,4.000000,4.000000,100.000000,,,,,,,,,,,,,,,,
1645707741.302409,1645707741.307275,239.000000,0.000000,4133.717773,3631.794922,4198.077148,4232.948730,4229.230957,4195.384766,4225.384766,4210.128418,4197.307617,4181.025879,4143.205078,4108.717773,4156.666504,4132.436035,3440.000000,4.000000,95.000000,,,,0.000000,4.000000,4.000000,4.000000,4.000000,4.000000,4.000000,4.000000,4.000000,4.000000,4.000000,4.000000,4.000000,4.000000,4.000000,100.000000,,,,,,,,,,,,,,,,
1645707741.306349,1645707741.311216,240.000000,0.000000,4130.256348,3628.589844,4197.307617,4234.230957,4225.769043,4192.563965,4222.563965,4206.922852,4193.974121,4175.512695,4139.871582,4105.000000,4150.512695,4127.179688,3324.000000,4.000000,95.000000,,,,0.000000,4.000000,4.000000,4.000000,4.000000,4.000000,4.000000,4.000000,4.000000,4.000000,4.000000,4.000000,4.000000,4.000000,4.000000,100.000000,,,,,,,,,,,,,,,,
1645707741.310290,1645707741.315156,241.000000,0.000000,4128.333496,3629.615479,4198.717773,4235.512695,4222.307617,4190.384766,4221.282227,4207.051270,4191.794922,4172.820313,4136.410156,4104.358887,4145.000000,4128.205078,3274.000000,4.000000,95.000000,,,,0.000000,4.000000,4.000000,4.000000,4.000000,4.000000,4.000000,4.000000,4.000000,4.000000,4.000000,4.000000,4.000000,4.000000,4.000000,100.000000,,,,,,,,,,,,,,,,
1645707741.314229,1645707741.319096,242.000000,0.000000,4128.846191,3635.384521,4200.384766,4234.358887,4219.871582,4190.000000,4220.769043,4209.102539,4191.922852,4175.128418,4134.743652,4106.282227,4141.410156,4135.128418,3047.000000,4.000000,95.000000,,,,0.000000,4.000000,4.000000,4.000000,4.000000,4.000000,4.000000,4.000000,4.000000,4.000000,4.000000,4.000000,4.000000,4.000000,4.000000,100.000000,,,,,,,,,,,,,,,,
1645707741.318169,1645707741.323037,243.000000,0.000000,4130.897461,3642.564209,4200.641113,4229.615234,4218.461426,4191.153809,4220.128418,4210.641113,4193.974121,4180.897461,4134.487305,4108.846191,4139.615234,4143.077148,3440.000000,4.000000,95.000000,,,,0.000000,4.000000,4.000000,4.000000,4.000000,4.000000,4.000000,4.000000,4.000000,4.000000,4.000000,4.000000,4.000000,4.000000,4.000000,100.000000,,,,,,,,,,,,,,,,
1645707741.322110,1645707741.326977,244.000000,0.000000,4132.436035,3646.794922,4198.974121,4222.948730,4216.153809,4191.666504,4219.230957,4210.641113,4196.282227,4185.384766,4133.846191,4109.743652,4137.948730,4146.410156,3324.000000,4.000000,95.000000,,,,0.000000,4.000000,4.000000,4.000000,4.000000,4.000000,4.000000,4.000000,4.000000,4.000000,4.000000,4.000000,4.000000,4.000000,4.000000,100.000000,,,,,,,,,,,,,,,,
1645707741.326049,1645707741.330917,245.000000,0.000000,4132.436035,3646.025635,4196.794922,4218.205078,4211.282227,4189.615234,4218.333496,4209.230957,4197.179688,4184.487305,4131.794922,4108.974121,4135.641113,4144.230957,3274.000000,4.000000,95.000000,,,,0.000000,4.000000,4.000000,4.000000,4.000000,4.000000,4.000000,4.000000,4.000000,4.000000,4.000000,4.000000,4.000000,4.000000,4.000000,100.000000,,,,,,,,,,,,,,,,
1645707741.329990,1645707741.334958,246.000000,0.000000,4131.282227,3642.179443,4194.871582,4218.461426,4205.256348,4185.128418,4216.922852,4207.563965,4196.794922,4179.615234,4128.974121,4107.436035,4133.589844,4139.615234,3047.000000,4.000000,95.000000,,,,0.000000,4.000000,4.000000,4.000000,4.000000,4.000000,4.000000,4.000000,4.000000,4.000000,4.000000,4.000000,4.000000,4.000000,4.000000,100.000000,,,,,,,,,,,,,,,,
1645707741.333930,1645707741.338898,247.000000,0.000000,4130.512695,3639.487061,4193.205078,4222.563965,4201.282227,4180.000000,4214.743652,4206.922852,4195.769043,4175.769043,4126.922852,4106.410156,4133.717773,4136.282227,3440.000000,4.000000,95.000000,,,,0.000000,4.000000,4.000000,4.000000,4.000000,4.000000,4.000000,4.000000,4.000000,4.000000,4.000000,4.000000,4.000000,4.000000,4.000000,100.000000,,,,,,,,,,,,,,,,
1645707741.337870,1645707741.342838,248.000000,0.000000,4130.769043,3640.641113,4191.538574,4225.641113,4201.794922,4176.538574,4213.077148,4208.077148,4194.743652,4176.794922,4125.897461,4105.384766,4136.538574,4135.384766,3324.000000,4.000000,95.000000,,,,0.000000,4.000000,4.000000,4.000000,4.000000,4.000000,4.000000,4.000000,4.000000,4.000000,4.000000,4.000000,4.000000,4.000000,4.000000,100.000000,,,,,,,,,,,,,,,,
1645707741.341810,1645707741.346779,249.000000,0.000000,4131.538574,3644.487061,4189.871582,4223.205078,4206.153809,4175.641113,4213.846191,4210.384766,4194.102539,4181.666504,4125.897461,4103.846191,4140.256348,4135.384766,3274.000000,4.000000,95.000000,,,,0.000000,4.000000,4.000000,4.000000,4.000000,4.000000,4.000000,4.000000,4.000000,4.000000,4.000000,4.000000,4.000000,4.000000,4.000000,100.000000,,,,,,,,,,,,,,,,
1645707741.345750,1645707741.350719,250.000000,0.000000,4131.538574,3647.692383,4189.102539,4215.769043,4211.025879,4176.794922,4217.179688,4212.692383,4194.615234,4185.512695,4126.410156,4102.563965,4142.307617,4134.743652,3047.000000,4.000000,95.000000,,,,0.000000,4.000000,4.000000,4.000000,4.000000,4.000000,4.000000,4.000000,4.000000,4.000000,4.000000,4.000000,4.000000,4.000000,4.000000,100.000000,,,,,,,,,,,,,,,,
1645707741.349690,1645707741.354659,251.000000,0.000000,4130.897461,3648.718018,4190.384766,4209.102539,4214.102539,4179.358887,4221.410156,4214.102539,4196.666504,4185.384766,4128.077148,4103.717773,4142.179688,4133.461426,3440.000000,4.000000,95.000000,,,,0.000000,4.000000,4.000000,4.000000,4.000000,4.000000,4.000000,4.000000,4.000000,4.000000,4.000000,4.000000,4.000000,4.000000,4.000000,100.000000,,,,,,,,,,,,,,,,
1645707741.353630,1645707741.358600,252.000000,0.000000,4131.922852,3649.230713,4194.743652,4208.589844,4215.641113,4182.692383,4223.974121,4214.487305,4199.615234,4183.205078,4131.794922,4108.333496,4142.179688,4134.487305,3324.000000,4.000000,95.000000,,,,0.000000,4.000000,4.000000,4.000000,4.000000,4.000000,4.000000,4.000000,4.000000,4.000000,4.000000,4.000000,4.000000,4.000000,4.000000,100.000000,,,,,,,,,,,,,,,,
1645707741.357570,1645707741.362540,253.000000,0.000000,4136.410156,3652.820557,4201.153809,4214.743652,4216.410156,4186.025879,4223.974121,4214.615234,4202.051270,4182.692383,4136.922852,4115.128418,4145.641113,4139.871582,3274.000000,4.000000,95.000000,,,,0.000000,4.000000,4.000000,4.000000,4.000000,4.000000,4.000000,4.000000,4.000000,4.000000,4.000000,4.000000,4.000000,4.000000,4.000000,100.000000,,,,,,,,,,,,,,,,
1645707741.361510,1645707741.366480,254.000000,0.000000,4144.487305,3660.384521,4207.307617,4222.436035,4216.922852,4187.948730,4222.692383,4215.512695,4202.436035,4186.153809,4141.538574,4121.410156,4152.948730,4148.717773,3047.000000,4.000000,95.000000,,,,0.000000,4.000000,4.000000,4.000000,4.000000,4.000000,4.000000,4.000000,4.000000,4.000000,4.000000,4.000000,4.000000,4.000000,4.000000,100.000000,,,,,,,,,,,,,,,,
1645707741.365450,1645707741.370421,255.000000,0.000000,4153.333496,3669.102539,4210.641113,4225.384766,4217.179688,4188.333496,4222.436035,4217.307617,4201.282227,4191.794922,4144.102539,4124.487305,4160.769043,4157.051270,115.000000,4.000000,95.000000,,,,0.000000,4.000000,4.000000,4.000000,4.000000,4.000000,4.000000,4.000000,4.000000,4.000000,4.000000,4.000000,4.000000,4.000000,4.000000,100.000000,,,,,,,,,,,,,,,,
1645707741.369390,1645707741.374361,0.000000,0.000000,4159.487305,3674.358887,4210.384766,4221.666504,4217.820313,4188.846191,4224.358887,4219.102539,4199.871582,4196.410156,4144.487305,4123.974121,4164.871582,4161.538574,3217.000000,4.000000,95.000000,,,,0.000000,4.000000,4.000000,4.000000,4.000000,4.000000,4.000000,4.000000,4.000000,4.000000,4.000000,4.000000,4.000000,4.000000,4.000000,100.000000,,,,,,,,,,,,,,,,
1645707741.373330,1645707741.378301,1.000000,0.000000,4161.282227,3673.589844,4208.333496,4215.384766,4219.487305,4191.153809,4227.051270,4220.000000,4200.000000,4197.051270,4143.846191,4122.179688,4163.333496,4160.897461,3318.000000,4.000000,95.000000,,,,0.000000,4.000000,4.000000,4.000000,4.000000,4.000000,4.000000,4.000000,4.000000,4.000000,4.000000,4.000000,4.000000,4.000000,4.000000,100.000000,,,,,,,,,,,,,,,,
1645707741.377270,1645707741.382242,2.000000,0.000000,4159.358887,3668.333252,4207.179688,4211.282227,4221.538574,4195.000000,4228.974121,4219.871582,4201.410156,4193.461426,4143.077148,4121.410156,4157.563965,4156.922852,3505.000000,4.000000,95.000000,,,,0.000000,4.000000,4.000000,4.000000,4.000000,4.000000,4.000000,4.000000,4.000000,4.000000,4.000000,4.000000,4.000000,4.000000,4.000000,100.000000,,,,,,,,,,,,,,,,
1645707741.381210,1645707741.386182,3.000000,0.000000,4155.384766,3663.333252,4208.333496,4210.897461,4221.794922,4197.307617,4228.717773,4219.743652,4202.179688,4187.436035,4141.922852,4122.307617,4150.769043,4152.307617,3629.000000,4.000000,95.000000,,,,0.000000,4.000000,4.000000,4.000000,4.000000,4.000000,4.000000,4.000000,4.000000,4.000000,4.000000,4.000000,4.000000,4.000000,4.000000,100.000000,,,,,,,,,,,,,,,,
1645707741.385150,1645707741.390122,4.000000,0.000000,4151.922852,3662.820557,4210.128418,4212.563965,4218.846191,4195.384766,4226.282227,4219.615234,4201.410156,4182.692383,4140.769043,4124.102539,4146.922852,4149.487305,3244.000000,4.000000,95.000000,,,,0.000000,4.000000,4.000000,4.000000,4.000000,4.000000,4.000000,4.000000,4.000000,4.000000,4.000000,4.000000,4.000000,4.000000,4.000000,100.000000,,,,,,,,,,,,,,,,
1645707741.389090,1645707741.394063,5.000000,0.000000,4151.153809,3667.435791,4210.384766,4214.358887,4213.846191,4189.871582,4222.692383,4219.487305,4200.000000,4182.692383,4141.025879,4125.384766,4148.717773,4150.512695,3431.000000,4.000000,95.000000,,,,0.000000,4.000000,4.000000,4.000000,4.000000,4.000000,4.000000,4.000000,4.000000,4.000000,4.000000,4.000000,4.000000,4.000000,4.000000,100.000000,,,,,,,,,,,,,,,,
1645707741.393030,1645707741.398003,6.000000,0.000000,4153.846191,3674.358887,4207.820313,4216.153809,4209.743652,4184.615234,4219.487305,4219.487305,4199.871582,4188.333496,4143.717773,4125.512695,4156.025879,4155.769043,3115.000000,4.000000,95.000000,,,,0.000000,4.000000,4.000000,4.000000,4.000000,4.000000,4.000000,4.000000,4.000000,4.000000,4.000000,4.000000,4.000000,4.000000,4.000000,100.000000,,,,,,,,,,,,,,,,
1645707741.396970,1645707741.401844,7.000000,0.000000,4158.333496,3679.230713,4204.358887,4216.922852,4207.307617,4183.077148,4218.461426,4220.256348,4201.794922,4196.538574,4147.692383,4124.358887,4165.128418,4162.820313,2539.000000,4.000000,95.000000,,,,0.000000,4.000000,4.000000,4.000000,4.000000,4.000000,4.000000,4.000000,4.000000,4.000000,4.000000,4.000000,4.000000,4.000000,4.000000,100.000000,,,,,,,,,,,,,,,,
1645707741.400910,1645707741.405784,8.000000,0.000000,4161.282227,3679.615479,4202.051270,4215.769043,4204.230957,4185.384766,4220.512695,4221.922852,4205.000000,4201.538574,4149.487305,4121.666504,4171.025879,4167.563965,1467.000000,4.000000,95.000000,,,,0.000000,4.000000,4.000000,4.000000,4.000000,4.000000,4.000000,4.000000,4.000000,4.000000,4.000000,4.000000,4.000000,4.000000,4.000000,100.000000,,,,,,,,,,,,,,,,
1645707741.404850,1645707741.409724,9.000000,0.000000,4160.128418,3676.025635,4201.410156,4212.307617,4198.974121,4187.948730,4224.230957,4223.077148,4207.692383,4199.230957,4146.794922,4116.922852,4170.897461,4167.307617,3291.000000,4.000000,95.000000,,,,0.000000,4.000000,4.000000,4.000000,4.000000,4.000000,4.000000,4.000000,4.000000,4.000000,4.000000,4.000000,4.000000,4.000000,4.000000,100.000000,,,,,,,,,,,,,,,,
1645707741.408790,1645707741.413665,10.000000,0.000000,4155.256348,3671.923096,4200.384766,4207.051270,4193.205078,4187.563965,4227.051270,4221.922852,4208.333496,4191.282227,4140.512695,4111.410156,4166.410156,4162.436035,2909.000000,4.000000,95.000000,,,,0.000000,4.000000,4.000000,4.000000,4.000000,4.000000,4.000000,4.000000,4.000000,4.000000,4.000000,4.000000,4.000000,4.000000,4.000000,100.000000,,,,,,,,,,,,,,,,
1645707741.412730,1645707741.417605,11.000000,0.000000,4149.743652,3670.128174,4197.692383,4201.794922,4191.538574,4184.487305,4226.794922,4218.717773,4206.538574,4183.333496,4134.358887,4106.794922,4161.282227,4156.025879,3193.000000,4.000000,95.000000,,,,0.000000,4.000000,4.000000,4.000000,4.000000,4.000000,4.000000,4.000000,4.000000,4.000000,4.000000,4.000000,4.000000,4.000000,4.000000,100.000000,,,,,,,,,,,,,,,,
1645707741.416670,1645707741.421545,12.000000,0.000000,4146.794922,3671.025635,4194.358887,4197.692383,4196.410156,4181.282227,4224.230957,4215.769043,4203.589844,4180.000000,4131.922852,4105.000000,4158.333496,4151.410156,3403.000000,4.000000,95.000000,,,,0.000000,4.000000,4.000000,4.000000,4.000000,4.000000,4.000000,4.000000,4.000000,4.000000,4.000000,4.000000,4.000000,4.000000,4.000000,100.000000,,,,,,,,,,,,,,,,
1645707741.420611,1645707741.425486,13.000000,0.000000,4146.922852,3671.923096,4192.436035,4196.025879,4205.128418,4180.384766,4222.179688,4214.871582,4200.769043,4181.025879,4132.692383,4105.641113,4157.563965,4149.230957,3018.000000,4.000000,95.000000,,,,0.000000,4.000000,4.000000,4.000000,4.000000,4.000000,4.000000,4.000000,4.000000,4.000000,4.000000,4.000000,4.000000,4.000000,4.000000,100.000000,,,,,,,,,,,,,,,,
1645707741.424550,1645707741.429426,14.000000,0.000000,4147.820313,3670.256348,4193.077148,4197.436035,4211.794922,4182.051270,4222.692383,4216.410156,4199.358887,4183.333496,4133.333496,4106.538574,4157.051270,4147.820313,2909.000000,4.000000,95.000000,,,,0.000000,4.000000,4.000000,4.000000,4.000000,4.000000,4.000000,4.000000,4.000000,4.000000,4.000000,4.000000,4.000000,4.000000,4.000000,100.000000,,,,,,,,,,,,,,,,
1645707741.428491,1645707741.433366,15.000000,0.000000,4148.333496,3667.692383,4195.000000,4201.153809,4211.922852,4185.000000,4225.128418,4218.846191,4199.871582,4183.974121,4130.897461,4105.384766,4155.641113,4146.025879,3193.000000,4.000000,95.000000,,,,0.000000,4.000000,4.000000,4.000000,4.000000,4.000000,4.000000,4.000000,4.000000,4.000000,4.000000,4.000000,4.000000,4.000000,4.000000,100.000000,,,,,,,,,,,,,,,,
1645707741.432431,1645707741.437307,16.000000,0.000000,4149.230957,3668.076904,4196.538574,4204.487305,4206.538574,4187.692383,4226.922852,4219.487305,4201.410156,4182.820313,4126.025879,4101.922852,4153.974121,4144.358887,3403.000000,4.000000,95.000000,,,,0.000000,4.000000,4.000000,4.000000,4.000000,4.000000,4.000000,4.000000,4.000000,4.000000,4.000000,4.000000,4.000000,4.000000,4.000000,100.000000,,,,,,,,,,,,,,,,
1645707741.436371,1645707741.441247,17.000000,0.000000,4151.666504,3673.461426,4196.538574,4203.846191,4200.256348,4188.846191,4226.410156,4216.922852,4202.948730,4180.256348,4121.538574,4098.461426,4153.333496,4143.333496,3018.000000,4.000000,95.000000,,,,0.000000,4.000000,4.000000,4.000000,4.000000,4.000000,4.000000,4.000000,4.000000,4.000000,4.000000,4.000000,4.000000,4.000000,4.000000,100.000000,,,,,,,,,,,,,,,,
1645707741.440311,1645707741.445187,18.000000,0.000000,4154.230957,3680.256348,4195.384766,4197.436035,4197.436035,4187.820313,4224.230957,4212.563965,4203.589844,4176.538574,4119.230957,4098.333496,4153.077148,4142.307617,2909.000000,4.000000,95.000000,,,,0.000000,4.000000,4.000000,4.000000,4.000000,4.000000,4.000000,4.000000,4.000000,4.000000,4.000000,4.000000,4.000000,4.000000,4.000000,100.000000,,,,,,,,,,,,,,,,
1645707741.444251,1645707741.449128,19.000000,0.000000,4155.000000,3683.846191,4193.846191,4187.820313,4198.717773,4185.256348,4222.820313,4208.974121,4202.948730,4172.820313,4118.846191,4101.922852,4152.436035,4140.897461,3193.000000,4.000000,95.000000,,,,0.000000,4.000000,4.000000,4.000000,4.000000,4.000000,4.000000,4.000000,4.000000,4.000000,4.000000,4.000000,4.000000,4.000000,4.000000,100.000000,,,,,,,,,,,,,,,,
1645707741.448191,1645707741.453068,20.000000,0.000000,4153.461426,3682.564209,4192.820313,4180.000000,4201.282227,4182.307617,4223.589844,4208.077148,4201.410156,4171.025879,4119.615234,4106.666504,4151.666504,4140.000000,3403.000000,4.000000,95.000000,1,1,2,0.000000,4.000000,4.000000,4.000000,4.000000,4.000000,4.000000,4.000000,4.000000,4.000000,4.000000,4.000000,4.000000,4.000000,4.000000,100.000000,,,,,,,,,,,,,,,,
1645707741.452131,1645707741.457008,21.000000,0.000000,4152.051270,3679.358887,4192.436035,4177.179688,4200.897461,4180.769043,4225.256348,4208.589844,4200.384766,4171.922852,4121.282227,4109.358887,4151.794922,4140.512695,3018.000000,4.000000,95.000000,,,,0.000000,4.000000,4.000000,4.000000,4.000000,4.000000,4.000000,4.000000,4.000000,4.000000,4.000000,4.000000,4.000000,4.000000,4.000000,100.000000,,,,,,,,,,,,,,,,
1645707741.456071,1645707741.460949,22.000000,0.000000,4152.820313,3678.205078,4193.205078,4179.102539,4196.025879,4181.153809,4225.512695,4208.333496,4200.897461,4174.358887,4123.461426,4108.974121,4153.846191,4142.948730,2909.000000,4.000000,95.000000,,,,0.000000,4.000000,4.000000,4.000000,4.000000,4.000000,4.000000,4.000000,4.000000,4.000000,4.000000,4.000000,4.000000,4.000000,4.000000,100.000000,,,,,,,,,,,,,,,,
1645707741.460011,1645707741.464889,23.000000,0.000000,4155.256348,3680.641113,4195.256348,4182.820313,4188.717773,4182.307617,4223.717773,4206.410156,4202.563965,4175.512695,4125.128418,4107.051270,4156.794922,4146.153809,3193.000000,4.000000,95.000000,,,,0.000000,4.000000,4.000000,4.000000,4.000000,4.000000,4.000000,4.000000,4.000000,4.000000,4.000000,4.000000,4.000000,4.000000,4.000000,100.000000,,,,,,,,,,,,,,,,
1645707741.463951,1645707741.468829,24.000000,0.000000,4158.077148,3685.512939,4198.589844,4185.641113,4183.717773,4182.692383,4221.922852,4204.615234,4203.974121,4174.102539,4125.641113,4106.666504,4159.743652,4149.487305,3403.000000,4.000000,95.000000,,,,0.000000,4.000000,4.000000,4.000000,4.000000,4.000000,4.000000,4.000000,4.000000,4.000000,4.000000,4.000000,4.000000,4.000000,4.000000,100.000000,,,,,,,,,,,,,,,,
1645707741.467891,1645707741.472870,25.000000,0.000000,4160.769043,3691.923096,4202.307617,4186.922852,4185.128418,4182.436035,4221.922852,4205.512695,4204.358887,4171.410156,4125.641113,4109.487305,4161.794922,4153.333496,3018.000000,4.000000,95.000000,,,,0.000000,4.000000,4.000000,4.000000,4.000000,4.000000,4.000000,4.000000,4.000000,4.000000,4.000000,4.000000,4.000000,4.000000,4.000000,100.000000,,,,,,,,,,,,,,,,
1645707741.471831,1645707741.476810,26.000000,0.000000,4163.589844,3699.358887,4205.256348,4187.179688,4193.589844,4182.051270,4223.974121,4210.000000,4204.230957,4171.025879,4126.538574,4114.871582,4163.461426,4157.948730,2909.000000,4.000000,95.000000,,,,0.000000,4.000000,4.000000,4.000000,4.000000,4.000000,4.000000,4.000000,4.000000,4.000000,4.000000,4.000000,4.000000,4.000000,4.000000,100.000000,,,,,,,,,,,,,,,,
1645707741.475771,1645707741.480750,27.000000,0.000000,4166.794922,3706.538574,4207.179688,4186.666504,4204.871582,4182.820313,4227.179688,4216.025879,4204.487305,4174.615234,4128.589844,4120.256348,4164.615234,4162.051270,3193.000000,4.000000,95.000000,,,,0.000000,4.000000,4.000000,4.000000,4.000000,4.000000,4.000000,4.000000,4.000000,4.000000,4.000000,4.000000,4.000000,4.000000,4.000000,100.000000,,,,,,,,,,,,,,,,
1645707741.479711,1645707741.484691,28.000000,0.000000,4169.230957,3710.641113,4209.102539,4185.641113,4212.436035,4184.743652,4230.384766,4220.000000,4206.025879,4180.256348,4130.256348,4123.589844,4165.384766,4163.333496,3403.000000,4.000000,95.000000,,,,0.000000,4.000000,4.000000,4.000000,4.000000,4.000000,4.000000,4.000000,4.000000,4.000000,4.000000,4.000000,4.000000,4.000000,4.000000,100.000000,,,,,,,,,,,,,,,,
1645707741.483651,1645707741.488731,29.000000,0.000000,4169.230957,3709.743652,4211.666504,4184.487305,4212.051270,4186.922852,4233.333496,4220.641113,4208.333496,4184.358887,4129.871582,4123.205078,4165.384766,4160.384766,3018.000000,4.000000,95.000000,,,,0.000000,4.000000,4.000000,4.000000,4.000000,4.000000,4.000000,4.000000,4.000000,4.000000,4.000000,4.000000,4.000000,4.000000,4.000000,100.000000,,,,,,,,,,,,,,,,
1645707741.487591,1645707741.492672,30.000000,0.000000,4166.666504,3705.641113,4214.358887,4182.820313,4205.000000,4189.230957,4235.384766,4219.871582,4210.769043,4185.769043,4126.922852,4119.871582,4164.615234,4154.487305,2909.000000,4.000000,95.000000,,,,0.000000,4.000000,4.000000,4.000000,4.000000,4.000000,4.000000,4.000000,4.000000,4.000000,4.000000,4.000000,4.000000,4.000000,4.000000,100.000000,,,,,,,,,,,,,,,,
1645707741.491531,1645707741.496612,31.000000,0.000000,4163.589844,3702.692383,4215.769043,4180.384766,4196.922852,4191.410156,4235.384766,4219.743652,4212.563965,4186.282227,4123.846191,4115.256348,4163.846191,4148.846191,3193.000000,4.000000,95.000000,,,,0.000000,4.000000,4.000000,4.000000,4.000000,4.000000,4.000000,4.000000,4.000000,4.000000,4.000000,4.000000,4.000000,4.000000,4.000000,100.000000,,,,,,,,,,,,,,,,
1645707741.495471,1645707741.500553,32.000000,0.000000,4162.436035,3703.846191,4215.897461,4177.436035,4193.205078,4193.077148,4233.589844,4221.538574,4213.589844,4188.589844,4123.077148,4111.922852,4164.102539,4146.794922,0.000000,4.000000,95.000000,,,,0.000000,4.000000,4.000000,4.000000,4.000000,4.000000,4.000000,4.000000,4.000000,4.000000,4.000000,4.000000,4.000000,4.000000,4.000000,100.000000,,,,,,,,,,,,,,,,
1645707741.499411,1645707741.504494,33.000000,0.000000,4164.230957,3707.820557,4216.153809,4174.615234,4195.512695,4193.974121,4231.922852,4224.358887,4213.846191,4192.436035,4125.512695,4110.897461,4165.641113,4148.846191,0.000000,4.000000,95.000000,,,,0.000000,4.000000,4.000000,4.000000,4.000000,4.000000,4.000000,4.000000,4.000000,4.000000,4.000000,4.000000,4.000000,4.000000,4.000000,100.000000,,,,,,,,,,,,,,,,
1645707741.503351,1645707741.508434,34.000000,0.000000,4167.948730,3711.538574,4218.077148,4172.179688,4201.025879,4194.102539,4232.948730,4227.307617,4213.846191,4195.512695,4129.358887,4112.051270,4168.077148,4152.820313,0.000000,4.000000,95.000000,,,,0.000000,4.000000,4.000000,4.000000,4.000000,4.000000,4.000000,4.000000,4.000000,4.000000,4.000000,4.000000,4.000000,4.000000,4.000000,100.000000,,,,,,,,,,,,,,,,
1645707741.507291,1645707741.512375,35.000000,0.000000,4172.179688,3713.589844,4221.538574,4170.512695,4206.538574,4194.871582,4236.666504,4229.487305,4214.102539,4196.666504,4133.077148,4114.487305,4170.641113,4156.666504,0.000000,4.000000,95.000000,,,,0.000000,4.000000,4.000000,4.000000,4.000000,4.000000,4.000000,4.000000,4.000000,4.000000,4.000000,4.000000,4.000000,4.000000,4.000000,100.000000,,,,,,,,,,,,,,,,
1645707741.511231,1645707741.516315,36.000000,0.000000,4176.025879,3715.897461,4224.102539,4169.615234,4210.897461,4196.794922,4240.641113,4229.615234,4215.000000,4197.051270,4135.897461,4116.666504,4173.717773,4159.358887,0.000000,4.000000,95.000000,,,,0.000000,4.000000,4.000000,4.000000,4.000000,4.000000,4.000000,4.000000,4.000000,4.000000,4.000000,4.000000,4.000000,4.000000,4.000000,100.000000,,,,,,,,,,,,,,,,
1645707741.515171,1645707741.520256,37.000000,0.000000,4178.333496,3720.128174,4223.974121,4168.974121,4214.102539,4198.846191,4241.538574,4227.692383,4216.025879,4198.461426,4138.205078,4117.563965,4176.922852,4160.897461,0.000000,4.000000,95.000000,,,,0.000000,4.000000,4.000000,4.000000,4.000000,4.000000,4.000000,4.000000,4.000000,4.000000,4.000000,4.000000,4.000000,4.000000,4.000000,100.000000,,,,,,,,,,,,,,,,
1645707741.519112,1645707741.524196,38.000000,0.000000,4178.589844,3726.153809,4221.538574,4167.179688,4216.153809,4199.102539,4238.461426,4225.128418,4216.794922,4200.512695,4139.871582,4116.922852,4179.615234,4162.051270,0.000000,4.000000,95.000000,,,,0.000000,4.000000,4.000000,4.000000,4.000000,4.000000,4.000000,4.000000,4.000000,4.000000,4.000000,4.000000,4.000000,4.000000,4.000000,100.000000,,,,,,,,,,,,,,,,
1645707741.523051,1645707741.528137,39.000000,0.000000,4177.436035,3732.307617,4219.358887,4163.077148,4215.769043,4196.794922,4233.589844,4224.230957,4216.666504,4201.153809,4140.769043,4116.025879,4180.897461,4163.077148,0.000000,4.000000,95.000000,,,,0.000000,4.000000,4.000000,4.000000,4.000000,4.000000,4.000000,4.000000,4.000000,4.000000,4.000000,4.000000,4.000000,4.000000,4.000000,100.000000,,,,,,,,,,,,,,,,
1645707741.526991,1645707741.532078,40.000000,0.000000,4176.922852,3737.051270,4219.487305,4157.692383,4212.307617,4193.461426,4230.384766,4225.641113,4216.410156,4199.487305,4141.922852,4116.410156,4181.153809,4164.230957,0.000000,4.000000,95.000000,,,,0.000000,4.000000,4.000000,4.000000,4.000000,4.000000,4.000000,4.000000,4.000000,4.000000,4.000000,4.000000,4.000000,4.000000,4.000000,100.000000,,,,,,,,,,,,,,,,
1645707741.530932,1645707741.536018,41.000000,0.000000,4178.717773,3739.615479,4221.410156,4153.589844,4206.922852,4191.666504,4230.641113,4227.820313,4216.922852,4196.538574,4144.230957,4119.615234,4181.282227,4165.384766,0.000000,4.000000,95.000000,,,,0.000000,4.000000,4.000000,4.000000,4.000000,4.000000,4.000000,4.000000,4.000000,4.000000,4.000000,4.000000,4.000000,4.000000,4.000000,100.000000,,,,,,,,,,,,,,,,
1645707741.534872,1645707741.539959,42.000000,0.000000,4181.922852,3739.743652,4222.948730,4152.948730,4201.153809,4192.692383,4233.077148,4228.461426,4218.205078,4194.871582,4147.820313,4124.743652,4181.666504,4166.025879,0.000000,4.000000,95.000000,,,,0.000000,4.000000,4.000000,4.000000,4.000000,4.000000,4.000000,4.000000,4.000000,4.000000,4.000000,4.000000,4.000000,4.000000,4.000000,100.000000,,,,,,,,,,,,,,,,
1645707741.538812,1645707741.543999,43.000000,0.000000,4183.589844,3738.076904,4222.436035,4154.871582,4195.512695,4194.871582,4235.000000,4226.922852,4218.717773,4195.641113,4150.769043,4128.717773,4181.025879,4165.128418,0.000000,4.000000,95.000000,,,,0.000000,4.000000,4.000000,4.000000,4.000000,4.000000,4.000000,4.000000,4.000000,4.000000,4.000000,4.000000,4.000000,4.000000,4.000000,100.000000,,,,,,,,,,,,,,,,
1645707741.542752,1645707741.547939,44.000000,0.000000,4182.051270,3735.641113,4220.128418,4155.384766,4190.512695,4195.000000,4234.743652,4224.615234,4217.436035,4197.563965,4151.153809,4128.077148,4178.205078,4162.692383,0.000000,4.000000,95.000000,,,,0.000000,4.000000,4.000000,4.000000,4.000000,4.000000,4.000000,4.000000,4.000000,4.000000,4.000000,4.000000,4.000000,4.000000,4.000000,100.000000,,,,,,,,,,,,,,,,
1645707741.546692,1645707741.551880,45.000000,0.000000,4178.333496,3734.102539,4217.307617,4151.282227,4187.948730,4191.794922,4232.563965,4223.205078,4215.256348,4198.333496,4148.717773,4121.922852,4174.358887,4159.743652,0.000000,4.000000,95.000000,,,,0.000000,4.000000,4.000000,4.000000,4.000000,4.000000,4.000000,4.000000,4.000000,4.000000,4.000000,4.000000,4.000000,4.000000,4.000000,100.000000,,,,,,,,,,,,,,,,
1645707741.550632,1645707741.555820,46.000000,0.000000,4175.256348,3733.846191,4214.487305,4143.461426,4190.384766,4187.179688,4229.487305,4222.820313,4213.589844,4197.563965,4145.641113,4113.461426,4171.922852,4158.205078,0.000000,4.000000,95.000000,,,,0.000000,4.000000,4.000000,4.000000,4.000000,4.000000,4.000000,4.000000,4.000000,4.000000,4.000000,4.000000,4.000000,4.000000,4.000000,100.000000,,,,,,,,,,,,,,,,
1645707741.554572,1645707741.559760,47.000000,0.000000,4175.128418,3734.487061,4212.179688,4137.051270,4197.051270,4184.615234,4226.922852,4222.820313,4213.461426,4196.153809,4143.846191,4107.179688,4172.692383,4158.589844,0.000000,4.000000,95.000000,,,,0.000000,4.000000,4.000000,4.000000,4.000000,4.000000,4.000000,4.000000,4.000000,4.000000,4.000000,4.000000,4.000000,4.000000,4.000000,100.000000,,,,,,,,,,,,,,,,
1645707741.558512,1645707741.563701,48.000000,0.000000,4177.307617,3735.256348,4210.897461,4136.538574,4203.205078,4185.897461,4225.641113,4222.820313,4214.487305,4194.871582,4143.717773,4105.769043,4176.153809,4160.000000,0.000000,4.000000,95.000000,2,1,2,0.000000,4.000000,4.000000,4.000000,4.000000,4.000000,4.000000,4.000000,4.000000,4.000000,4.000000,4.000000,4.000000,4.000000,4.000000,100.000000,,,,,,,,,,,,,,,,
1645707741.562452,1645707741.567641,49.000000,0.000000,4179.743652,3736.281982,4211.538574,4141.666504,4202.948730,4188.846191,4226.153809,4223.589844,4215.512695,4193.717773,4143.846191,4109.102539,4179.615234,4160.769043,0.000000,4.000000,95.000000,,,,0.000000,4.000000,4.000000,4.000000,4.000000,4.000000,4.000000,4.000000,4.000000,4.000000,4.000000,4.000000,4.000000,4.000000,4.000000,100.000000,,,,,,,,,,,,,,,,
1645707741.566392,1645707741.571581,50.000000,0.000000,4180.512695,3738.076904,4213.974121,4148.077148,4195.256348,4190.384766,4227.563965,4225.641113,4215.512695,4192.692383,4143.333496,4114.230957,4180.769043,4160.000000,0.000000,4.000000,95.000000,,,,0.000000,4.000000,4.000000,4.000000,4.000000,4.000000,4.000000,4.000000,4.000000,4.000000,4.000000,4.000000,4.000000,4.000000,4.000000,100.000000,,,,,,,,,,,,,,,,
1645707741.570332,1645707741.575522,51.000000,0.000000,4179.487305,3740.256348,4216.922852,4151.794922,4185.256348,4188.846191,4228.461426,4227.436035,4214.615234,4192.820313,4142.820313,4118.589844,4180.256348,4158.974121,0.000000,4.000000,95.000000,,,,0.000000,4.000000,4.000000,4.000000,4.000000,4.000000,4.000000,4.000000,4.000000,4.000000,4.000000,4.000000,4.000000,4.000000,4.000000,100.000000,,,,,,,,,,,,,,,,
1645707741.574272,1645707741.579462,52.000000,0.000000,4178.461426,3741.666748,4218.717773,4152.179688,4180.384766,4185.256348,4227.820313,4227.563965,4213.717773,4195.256348,4143.589844,4121.025879,4180.256348,4159.487305,0.000000,4.000000,95.000000,,,,0.000000,4.000000,4.000000,4.000000,4.000000,4.000000,4.000000,4.000000,4.000000,4.000000,4.000000,4.000000,4.000000,4.000000,4.000000,100.000000,,,,,,,,,,,,,,,,
1645707741.578212,1645707741.583402,53.000000,0.000000,4178.846191,3740.769287,4218.077148,4150.897461,4183.205078,4181.922852,4226.153809,4226.025879,4214.230957,4199.230957,4145.512695,4122.051270,4181.666504,4161.794922,0.000000,4.000000,95.000000,,,,0.000000,4.000000,4.000000,4.000000,4.000000,4.000000,4.000000,4.000000,4.000000,4.000000,4.000000,4.000000,4.000000,4.000000,4.000000,100.000000,,,,,,,,,,,,,,,,
1645707741.582152,1645707741.587343,54.000000,0.000000,4179.615234,3737.435791,4215.128418,4149.487305,4189.743652,4180.897461,4225.512695,4224.358887,4215.897461,4202.051270,4146.666504,4122.051270,4183.717773,4163.846191,0.000000,4.000000,95.000000,,,,0.000000,4.000000,4.000000,4.000000,4.000000,4.000000,4.000000,4.000000,4.000000,4.000000,4.000000,4.000000,4.000000,4.000000,4.000000,100.000000,,,,,,,,,,,,,,,,
1645707741.586092,1645707741.591283,55.000000,0.000000,4179.358887,3732.820557,4211.153809,4148.461426,4193.589844,4182.307617,4227.051270,4224.487305,4216.666504,4201.538574,4145.128418,4121.025879,4184.615234,4163.717773,0.000000,4.000000,95.000000,,,,0.000000,4.000000,4.000000,4.000000,4.000000,4.000000,4.000000,4.000000,4.000000,4.000000,4.000000,4.000000,4.000000,4.000000,4.000000,100.000000,,,,,,,,,,,,,,,,
1645707741.590032,1645707741.595223,56.000000,0.000000,4177.436035,3729.615479,4207.948730,4147.179688,4191.794922,4184.871582,4229.487305,4225.769043,4214.358887,4197.436035,4141.538574,4118.846191,4183.717773,4161.666504,0.000000,4.000000,95.000000,,,,0.000000,4.000000,4.000000,4.000000,4.000000,4.000000,4.000000,4.000000,4.000000,4.000000,4.000000,4.000000,4.000000,4.000000,4.000000,100.000000,,,,,,,,,,,,,,,,
1645707741.593972,1645707741.599164,57.000000,0.000000,4175.384766,3730.128174,4206.538574,4145.384766,4187.436035,4186.794922,4230.769043,4226.538574,4209.871582,4192.307617,4138.077148,4115.769043,4182.051270,4159.743652,0.000000,4.000000,95.000000,,,,0.000000,4.000000,4.000000,4.000000,4.000000,4.000000,4.000000,4.000000,4.000000,4.000000,4.000000,4.000000,4.000000,4.000000,4.000000,100.000000,,,,,,,,,,,,,,,,
1645707741.597912,1645707741.603104,58.000000,0.000000,4175.641113,3734.615479,4207.820313,4143.717773,4184.871582,4186.666504,4229.743652,4226.025879,4206.153809,4188.846191,4136.666504,4113.205078,4180.769043,4160.256348,0.000000,4.000000,95.000000,,,,0.000000,4.000000,4.000000,4.000000,4.000000,4.000000,4.000000,4.000000,4.000000,4.000000,4.000000,4.000000,4.000000,4.000000,4.000000,100.000000,,,,,,,,,,,,,,,,
1645707741.601852,1645707741.607045,59.000000,0.000000,4178.974121,3741.025635,4211.666504,4143.461426,4185.897461,4184.102539,4227.692383,4224.230957,4205.897461,4188.077148,4137.692383,4113.205078,4180.384766,4163.846191,0.000000,4.000000,95.000000,,,,0.000000,4.000000,4.000000,4.000000,4.000000,4.000000,4.000000,4.000000,4.000000,4.000000,4.000000,4.000000,4.000000,4.000000,4.000000,100.000000,,,,,,,,,,,,,,,,
1645707741.605792,1645707741.610985,60.000000,0.000000,4183.846191,3746.025635,4216.538574,4145.384766,4188.333496,4180.641113,4226.794922,4222.307617,4208.846191,4189.102539,4140.000000,4116.666504,4180.128418,4169.102539,0.000000,4.000000,95.000000,,,,0.000000,4.000000,4.000000,4.000000,4.000000,4.000000,4.000000,4.000000,4.000000,4.000000,4.000000,4.000000,4.000000,4.000000,4.000000,100.000000,,,,,,,,,,,,,,,,
1645707741.609732,1645707741.615025,61.000000,0.000000,4188.077148,3747.692383,4219.871582,4148.333496,4188.461426,4177.820313,4227.051270,4220.641113,4211.922852,4190.641113,4142.948730,4122.307617,4180.128418,4174.102539,0.000000,4.000000,95.000000,,,,0.000000,4.000000,4.000000,4.000000,4.000000,4.000000,4.000000,4.000000,4.000000,4.000000,4.000000,4.000000,4.000000,4.000000,4.000000,100.000000,,,,,,,,,,,,,,,,
1645707741.613672,1645707741.618965,62.000000,0.000000,4190.512695,3746.538574,4220.384766,4149.743652,4184.743652,4176.922852,4226.794922,4219.871582,4212.563965,4192.179688,4145.641113,4127.179688,4181.153809,4177.179688,0.000000,4.000000,95.000000,,,,0.000000,4.000000,4.000000,4.000000,4.000000,4.000000,4.000000,4.000000,4.000000,4.000000,4.000000,4.000000,4.000000,4.000000,4.000000,100.000000,,,,,,,,,,,,,,,,
1645707741.617612,1645707741.622906,63.000000,0.000000,4191.282227,3744.358887,4218.974121,4147.179688,4179.102539,4177.692383,4225.128418,4220.384766,4211.025879,4193.717773,4147.436035,4128.974121,4183.461426,4178.077148,0.000000,4.000000,95.000000,,,,0.000000,4.000000,4.000000,4.000000,4.000000,4.000000,4.000000,4.000000,4.000000,4.000000,4.000000,4.000000,4.000000,4.000000,4.000000,100.000000,,,,,,,,,,,,,,,,
1645707741.621552,1645707741.626846,64.000000,0.000000,4191.025879,3742.307617,4218.077148,4141.025879,4175.769043,4178.717773,4223.461426,4222.307617,4209.358887,4195.256348,4147.436035,4127.051270,4186.410156,4177.179688,0.000000,4.000000,95.000000,,,,0.000000,4.000000,4.000000,4.000000,4.000000,4.000000,4.000000,4.000000,4.000000,4.000000,4.000000,4.000000,4.000000,4.000000,4.000000,100.000000,,,,,,,,,,,,,,,,
1645707741.625492,1645707741.630786,65.000000,0.000000,4190.000000,3740.512939,4219.358887,4134.615234,4177.179688,4179.358887,4224.743652,4224.743652,4209.230957,4196.410156,4145.512695,4123.333496,4188.846191,4175.641113,0.000000,4.000000,95.000000,,,,0.000000,4.000000,4.000000,4.000000,4.000000,4.000000,4.000000,4.000000,4.000000,4.000000,4.000000,4.000000,4.000000,4.000000,4.000000,100.000000,,,,,,,,,,,,,,,,
1645707741.629433,1645707741.634727,66.000000,0.000000,4188.846191,3739.358887,4221.794922,4132.307617,4182.820313,4180.384766,4229.358887,4226.025879,4210.641113,4197.051270,4143.589844,4120.256348,4189.487305,4175.384766,0.000000,4.000000,95.000000,,,,0.000000,4.000000,4.000000,4.000000,4.000000,4.000000,4.000000,4.000000,4.000000,4.000000,4.000000,4.000000,4.000000,4.000000,4.000000,100.000000,,,,,,,,,,,,,,,,
1645707741.633373,1645707741.638667,67.000000,0.000000,4188.333496,3740.000000,4223.333496,4136.282227,4189.358887,4182.563965,4234.615234,4225.512695,4212.307617,4197.307617,4143.333496,4119.743652,4188.205078,4177.307617,0.000000,4.000000,95.000000,,,,0.000000,4.000000,4.000000,4.000000,4.000000,4.000000,4.000000,4.000000,4.000000,4.000000,4.000000,4.000000,4.000000,4.000000,4.000000,100.000000,,,,,,,,,,,,,,,,
1645707741.637313,1645707741.642607,68.000000,0.000000,4187.948730,3743.205078,4222.179688,4144.358887,4193.205078,4185.384766,4237.051270,4225.000000,4213.846191,4197.307617,4145.000000,4121.666504,4185.897461,4180.256348,0.000000,4.000000,95.000000,,,,0.000000,4.000000,4.000000,4.000000,4.000000,4.000000,4.000000,4.000000,4.000000,4.000000,4.000000,4.000000,4.000000,4.000000,4.000000,100.000000,,,,,,,,,,,,,,,,
1645707741.641253,1645707741.646548,69.000000,0.000000,4186.794922,3748.205078,4218.333496,4150.897461,4192.692383,4187.051270,4235.897461,4226.538574,4214.743652,4196.794922,4146.410156,4124.487305,4183.589844,4181.410156,0.000000,4.000000,95.000000,,,,0.000000,4.000000,4.000000,4.000000,4.000000,4.000000,4.000000,4.000000,4.000000,4.000000,4.000000,4.000000,4.000000,4.000000,4.000000,100.000000,,,,,,,,,,,,,,,,
1645707741.645193,1645707741.650488,70.000000,0.000000,4183.974121,3753.333252,4212.948730,4151.410156,4188.974121,4186.282227,4233.205078,4230.641113,4214.871582,4195.384766,4145.512695,4125.641113,4182.563965,4178.974121,0.000000,4.000000,95.000000,,,,0.000000,4.000000,4.000000,4.000000,4.000000,4.000000,4.000000,4.000000,4.000000,4.000000,4.000000,4.000000,4.000000,4.000000,4.000000,100.000000,,,,,,,,,,,,,,,,
1645707741.649133,1645707741.654429,71.000000,0.000000,4180.769043,3757.307617,4207.436035,4145.512695,4185.000000,4184.102539,4231.153809,4235.512695,4213.974121,4193.589844,4142.179688,4123.717773,4182.820313,4173.846191,0.000000,4.000000,95.000000,,,,0.000000,4.000000,4.000000,4.000000,4.000000,4.000000,4.000000,4.000000,4.000000,4.000000,4.000000,4.000000,4.000000,4.000000,4.000000,100.000000,,,,,,,,,,,,,,,,
1645707741.653073,1645707741.658369,72.000000,0.000000,4178.717773,3759.487061,4202.692383,4137.563965,4183.333496,4182.692383,4230.384766,4238.333496,4212.436035,4192.692383,4138.461426,4118.461426,4183.205078,4169.358887,0.000000,4.000000,95.000000,,,,0.000000,4.000000,4.000000,4.000000,4.000000,4.000000,4.000000,4.000000,4.000000,4.000000,4.000000,4.000000,4.000000,4.000000,4.000000,100.000000,,,,,,,,,,,,,,,,
1645707741.657013,1645707741.662309,73.000000,0.000000,4178.205078,3759.358887,4199.871582,4133.333496,4184.102539,4183.077148,4230.512695,4237.820313,4210.641113,4192.179688,4136.025879,4111.666504,4182.179688,4167.436035,0.000000,4.000000,95.000000,,,,0.000000,4.000000,4.000000,4.000000,4.000000,4.000000,4.000000,4.000000,4.000000,4.000000,4.000000,4.000000,4.000000,4.000000,4.000000,100.000000,,,,,,,,,,,,,,,,
1645707741.660953,1645707741.666250,74.000000,0.000000,4177.948730,3756.410156,4199.487305,4136.025879,4185.000000,4184.487305,4231.282227,4234.615234,4208.974121,4191.153809,4134.743652,4106.282227,4179.230957,4167.563965,0.000000,4.000000,95.000000,,,,0.000000,4.000000,4.000000,4.000000,4.000000,4.000000,4.000000,4.000000,4.000000,4.000000,4.000000,4.000000,4.000000,4.000000,4.000000,100.000000,1.000000,16.666666,1.000000,0.000000,3.000000,1.000000,1.000000,3.000000,4.000000,4.000000,4.000000,4.000000,3.000000,3.000000,4.000000,3.000000
1645707741.664893,1645707741.670190,75.000000,0.000000,4178.077148,3752.692383,4201.922852,4143.589844,4184.743652,4185.512695,4232.563965,4231.410156,4207.820313,4188.846191,4134.358887,4105.000000,4176.282227,4168.589844,0.000000,4.000000,95.000000,,,,0.000000,4.000000,4.000000,4.000000,4.000000,4.000000,4.000000,4.000000,4.000000,4.000000,4.000000,4.000000,4.000000,4.000000,4.000000,100.000000,,,,,,,,,,,,,,,,
1645707741.668833,1645707741.674130,76.000000,0.000000,4180.384766,3751.923096,4205.641113,4150.769043,4184.743652,4185.641113,4233.974121,4230.128418,4208.333496,4186.922852,4135.897461,4108.974121,4176.282227,4170.769043,0.000000,4.000000,95.000000,,,,0.000000,4.000000,4.000000,4.000000,4.000000,4.000000,4.000000,4.000000,4.000000,4.000000,4.000000,4.000000,4.000000,4.000000,4.000000,100.000000,,,,,,,,,,,,,,,,
1645707741.672773,1645707741.678071,77.000000,0.000000,4186.410156,3756.923096,4208.333496,4153.461426,4187.179688,4185.128418,4234.358887,4230.897461,4211.666504,4187.179688,4139.871582,4116.410156,4180.769043,4174.871582,0.000000,4.000000,95.000000,,,,0.000000,4.000000,4.000000,4.000000,4.000000,4.000000,4.000000,4.000000,4.000000,4.000000,4.000000,4.000000,4.000000,4.000000,4.000000,100.000000,,,,,,,,,,,,,,,,
1645707741.676713,1645707741.682011,78.000000,0.000000,4193.846191,3765.256348,4208.461426,4150.897461,4191.282227,4184.615234,4233.461426,4231.538574,4216.538574,4189.487305,4145.384766,4123.333496,4187.692383,4180.000000,0.000000,4.000000,95.000000,,,,0.000000,4.000000,4.000000,4.000000,4.000000,4.000000,4.000000,4.000000,4.000000,4.000000,4.000000,4.000000,4.000000,4.000000,4.000000,100.000000,,,,,,,,,,,,,,,,
1645707741.680653,1645707741.685951,79.000000,0.000000,4198.846191,3770.256348,4206.922852,4146.025879,4192.692383,4183.589844,4231.410156,4230.384766,4219.615234,4191.410156,4149.358887,4126.922852,4192.692383,4183.974121,0.000000,4.000000,95.000000,,,,0.000000,4.000000,4.000000,4.000000,4.000000,4.000000,4.000000,4.000000,4.000000,4.000000,4.000000,4.000000,4.000000,4.000000,4.000000,100.000000,,,,,,,,,,,,,,,,
1645707741.684593,1645707741.689792,80.000000,0.000000,4197.948730,3767.435791,4205.512695,4142.692383,4188.205078,4180.897461,4229.230957,4226.922852,4218.589844,4190.384766,4148.974121,4126.410156,4192.436035,4184.487305,0.000000,4.000000,95.000000,,,,0.000000,4.000000,4.000000,4.000000,4.000000,4.000000,4.000000,4.000000,4.000000,4.000000,4.000000,4.000000,4.000000,4.000000,4.000000,100.000000,,,,,,,,,,,,,,,,
1645707741.688533,1645707741.693732,81.000000,0.000000,4193.077148,3759.102539,4205.641113,4143.077148,4179.743652,4177.563965,4227.563965,4222.948730,4214.102539,4187.051270,4145.256348,4123.846191,4187.692383,4182.307617,0.000000,4.000000,95.000000,,,,0.000000,4.000000,4.000000,4.000000,4.000000,4.000000,4.000000,4.000000,4.000000,4.000000,4.000000,4.000000,4.000000,4.000000,4.000000,100.000000,,,,,,,,,,,,,,,,
1645707741.692473,1645707741.697672,82.000000,0.000000,4188.589844,3752.820557,4207.307617,4146.538574,4173.846191,4176.410156,4226.794922,4220.512695,4209.487305,4184.102539,4141.794922,4122.051270,4182.563965,4179.615234,0.000000,4.000000,95.000000,,,,0.000000,4.000000,4.000000,4.000000,4.000000,4.000000,4.000000,4.000000,4.000000,4.000000,4.000000,4.000000,4.000000,4.000000,4.000000,100.000000,,,,,,,,,,,,,,,,
1645707741.696413,1645707741.701613,83.000000,0.000000,4188.333496,3754.230713,4209.358887,4150.128418,4174.743652,4178.717773,4226.922852,4221.025879,4207.179688,4183.205078,4141.538574,4122.179688,4180.256348,4178.461426,0.000000,4.000000,95.000000,,,,0.000000,4.000000,4.000000,4.000000,4.000000,4.000000,4.000000,4.000000,4.000000,4.000000,4.000000,4.000000,4.000000,4.000000,4.000000,100.000000,,,,,,,,,,,,,,,,
1645707741.700353,1645707741.705553,84.000000,0.000000,4191.153809,3762.307617,4210.769043,4151.282227,4180.256348,4183.205078,4228.461426,4224.358887,4207.692383,4183.461426,4143.589844,4123.333496,4180.769043,4178.717773,0.000000,4.000000,95.000000,,,,0.000000,4.000000,4.000000,4.000000,4.000000,4.000000,4.000000,4.000000,4.000000,4.000000,4.000000,4.000000,4.000000,4.000000,4.000000,100.000000,,,,,,,,,,,,,,,,
1645707741.704293,1645707741.709493,85.000000,0.000000,4193.589844,3771.153809,4211.025879,4149.358887,4183.846191,4186.410156,4231.025879,4228.589844,4209.615234,4183.077148,4144.743652,4123.717773,4181.410156,4179.230957,0.000000,4.000000,95.000000,,,,0.000000,4.000000,4.000000,4.000000,4.000000,4.000000,4.000000,4.000000,4.000000,4.000000,4.000000,4.000000,4.000000,4.000000,4.000000,100.000000,,,,,,,,,,,,,,,,
1645707741.708233,1645707741.713434,86.000000,0.000000,4193.205078,3774.871826,4210.128418,4145.769043,4181.538574,4186.153809,4233.846191,4231.282227,4211.794922,4181.922852,4143.077148,4122.563965,4180.769043,4179.102539,0.000000,4.000000,95.000000,,,,0.000000,4.000000,4.000000,4.000000,4.000000,4.000000,4.000000,4.000000,4.000000,4.000000,4.000000,4.000000,4.000000,4.000000,4.000000,100.000000,,,,,,,,,,,,,,,,
1645707741.712173,1645707741.717374,87.000000,0.000000,4190.769043,3772.051270,4208.589844,4142.820313,4175.384766,4183.333496,4235.897461,4232.051270,4213.846191,4181.794922,4140.000000,4121.410156,4178.846191,4178.974121,0.000000,4.000000,95.000000,,,,0.000000,4.000000,4.000000,4.000000,4.000000,4.000000,4.000000,4.000000,4.000000,4.000000,4.000000,4.000000,4.000000,4.000000,4.000000,100.000000,,,,,,,,,,,,,,,,
1645707741.716113,1645707741.721314,88.000000,0.000000,4188.974121,3766.153809,4207.692383,4142.179688,4170.897461,4180.256348,4236.282227,4231.922852,4216.282227,4184.230957,4138.077148,4121.794922,4177.179688,4179.358887,0.000000,4.000000,95.000000,,,,0.000000,4.000000,4.000000,4.000000,4.000000,4.000000,4.000000,4.000000,4.000000,4.000000,4.000000,4.000000,4.000000,4.000000,4.000000,100.000000,,,,,,,,,,,,,,,,
1645707741.720054,1645707741.725255,89.000000,0.000000,4189.358887,3761.153809,4208.461426,4143.846191,4171.025879,4178.333496,4235.256348,4232.179688,4218.205078,4187.563965,4138.717773,4123.461426,4176.282227,4179.871582,0.000000,4.000000,95.000000,,,,0.000000,4.000000,4.000000,4.000000,4.000000,4.000000,4.000000,4.000000,4.000000,4.000000,4.000000,4.000000,4.000000,4.000000,4.000000,100.000000,,,,,,,,,,,,,,,,
1645707741.723993,1645707741.729195,90.000000,0.000000,4190.512695,3758.846191,4210.128418,4146.025879,4175.000000,4177.307617,4233.461426,4232.820313,4218.205078,4189.102539,4141.538574,4124.743652,4175.641113,4179.358887,0.000000,4.000000,95.000000,,,,0.000000,4.000000,4.000000,4.000000,4.000000,4.000000,4.000000,4.000000,4.000000,4.000000,4.000000,4.000000,4.000000,4.000000,4.000000,100.000000,,,,,,,,,,,,,,,,
1645707741.727934,1645707741.733136,91.000000,0.000000,4190.897461,3758.846191,4211.282227,4146.410156,4179.743652,4177.179688,4231.410156,4233.205078,4216.025879,4187.820313,4144.871582,4123.717773,4174.871582,4177.307617,0.000000,4.000000,95.000000,,,,0.000000,4.000000,4.000000,4.000000,4.000000,4.000000,4.000000,4.000000,4.000000,4.000000,4.000000,4.000000,4.000000,4.000000,4.000000,100.000000,,,,,,,,,,,,,,,,
1645707741.731874,1645707741.737076,92.000000,0.000000,4189.487305,3760.384521,4210.128418,4143.846191,4182.948730,4177.692383,4229.230957,4232.436035,4212.692383,4186.025879,4147.692383,4121.922852,4173.974121,4174.615234,0.000000,4.000000,95.000000,,,,0.000000,4.000000,4.000000,4.000000,4.000000,4.000000,4.000000,4.000000,4.000000,4.000000,4.000000,4.000000,4.000000,4.000000,4.000000,100.000000,,,,,,,,,,,,,,,,
1645707741.735814,1645707741.741016,93.000000,0.000000,4187.179688,3762.692383,4207.692383,4139.358887,4183.846191,4178.589844,4227.948730,4230.384766,4209.871582,4186.538574,4148.974121,4121.922852,4173.717773,4172.692383,0.000000,4.000000,95.000000,,,,0.000000,4.000000,4.000000,4.000000,4.000000,4.000000,4.000000,4.000000,4.000000,4.000000,4.000000,4.000000,4.000000,4.000000,4.000000,100.000000,,,,,,,,,,,,,,,,
1645707741.739754,1645707741.744957,94.000000,0.000000,4185.512695,3764.871826,4205.897461,4135.384766,4183.205078,4179.487305,4228.589844,4228.589844,4208.846191,4189.487305,4148.077148,4125.128418,4174.743652,4172.436035,0.000000,4.000000,95.000000,,,,0.000000,4.000000,4.000000,4.000000,4.000000,4.000000,4.000000,4.000000,4.000000,4.000000,4.000000,4.000000,4.000000,4.000000,4.000000,100.000000,,,,,,,,,,,,,,,,
1645707741.743694,1645707741.748897,95.000000,0.000000,4185.384766,3766.410156,4206.282227,4134.102539,4181.666504,4180.000000,4231.538574,4228.205078,4209.871582,4192.179688,4145.384766,4130.000000,4176.410156,4174.102539,0.000000,4.000000,95.000000,,,,0.000000,4.000000,4.000000,4.000000,4.000000,4.000000,4.000000,4.000000,4.000000,4.000000,4.000000,4.000000,4.000000,4.000000,4.000000,100.000000,,,,,,,,,,,,,,,,
1645707741.747634,1645707741.752837,96.000000,0.000000,4187.179688,3767.051270,4207.563965,4136.282227,4180.128418,4180.641113,4235.512695,4229.615234,4212.179688,4191.794922,4142.307617,4132.948730,4177.820313,4176.794922,0.000000,4.000000,95.000000,,,,0.000000,4.000000,4.000000,4.000000,4.000000,4.000000,4.000000,4.000000,4.000000,4.000000,4.000000,4.000000,4.000000,4.000000,4.000000,100.000000,,,,,,,,,,,,,,,,
1645707741.751574,1645707741.756778,97.000000,0.000000,4190.256348,3767.948730,4207.820313,4141.538574,4178.846191,4182.307617,4237.948730,4231.410156,4214.615234,4188.461426,4141.025879,4132.051270,4178.846191,4179.871582,0.000000,4.000000,95.000000,,,,0.000000,4.000000,4.000000,4.000000,4.000000,4.000000,4.000000,4.000000,4.000000,4.000000,4.000000,4.000000,4.000000,4.000000,4.000000,100.000000,,,,,,,,,,,,,,,,
1645707741.755514,1645707741.760618,98.000000,0.000000,4193.974121,3770.641113,4206.538574,4148.589844,4178.717773,4185.128418,4237.692383,4232.307617,4216.538574,4184.871582,4143.205078,4128.717773,4180.256348,4183.205078,0.000000,4.000000,95.000000,,,,0.000000,4.000000,4.000000,4.000000,4.000000,4.000000,4.000000,4.000000,4.000000,4.000000,4.000000,4.000000,4.000000,4.000000,4.000000,100.000000,,,,,,,,,,,,,,,,
1645707741.759454,1645707741.764558,99.000000,0.000000,4198.205078,3775.769287,4205.897461,4155.000000,4179.871582,4187.692383,4236.410156,4233.333496,4217.820313,4184.615234,4148.461426,4127.179688,4183.077148,4187.436035,0.000000,4.000000,95.000000,,,,0.000000,4.000000,4.000000,4.000000,4.000000,4.000000,4.000000,4.000000,4.000000,4.000000,4.000000,4.000000,4.000000,4.000000,4.000000,100.000000,,,,,,,,,,,,,,,,
1645707741.763394,1645707741.768499,100.000000,0.000000,4202.436035,3783.205078,4207.820313,4158.461426,4182.179688,4188.205078,4236.794922,4235.769043,4219.230957,4188.717773,4155.000000,4130.128418,4187.436035,4193.846191,0.000000,4.000000,95.000000,,,,0.000000,4.000000,4.000000,4.000000,4.000000,4.000000,4.000000,4.000000,4.000000,4.000000,4.000000,4.000000,4.000000,4.000000,4.000000,100.000000,,,,,,,,,,,,,,,,
1645707741.767334,1645707741.772439,101.000000,0.000000,4206.025879,3791.281982,4211.922852,4158.717773,4184.358887,4187.179688,4239.487305,4240.128418,4221.282227,4196.153809,4160.512695,4136.922852,4192.692383,4201.410156,0.000000,4.000000,95.000000,,,,0.000000,4.000000,4.000000,4.000000,4.000000,4.000000,4.000000,4.000000,4.000000,4.000000,4.000000,4.000000,4.000000,4.000000,4.000000,100.000000,,,,,,,,,,,,,,,,
1645707741.771274,1645707741.776379,102.000000,0.000000,4208.077148,3797.435791,4215.256348,4157.051270,4185.000000,4185.769043,4242.563965,4243.589844,4223.205078,4203.846191,4164.102539,4143.589844,4196.922852,4206.794922,0.000000,4.000000,95.000000,,,,0.000000,4.000000,4.000000,4.000000,4.000000,4.000000,4.000000,4.000000,4.000000,4.000000,4.000000,4.000000,4.000000,4.000000,4.000000,100.000000,,,,,,,,,,,,,,,,
1645707741.775214,1645707741.780320,103.000000,0.000000,4207.179688,3798.718018,4214.743652,4155.256348,4182.948730,4185.128418,4243.205078,4243.461426,4223.717773,4208.077148,4164.871582,4146.410156,4198.461426,4206.666504,0.000000,4.000000,95.000000,,,,0.000000,4.000000,4.000000,4.000000,4.000000,4.000000,4.000000,4.000000,4.000000,4.000000,4.000000,4.000000,4.000000,4.000000,4.000000,100.000000,,,,,,,,,,,,,,,,
1645707741.779154,1645707741.784260,104.000000,0.000000,4202.051270,3794.487061,4210.512695,4154.487305,4178.846191,4184.743652,4240.641113,4239.487305,4222.179688,4206.025879,4162.948730,4144.743652,4196.794922,4200.769043,0.000000,4.000000,95.000000,,,,0.000000,4.000000,4.000000,4.000000,4.000000,4.000000,4.000000,4.000000,4.000000,4.000000,4.000000,4.000000,4.000000,4.000000,4.000000,100.000000,,,,,,,,,,,,,,,,
1645707741.783094,1645707741.788200,105.000000,0.000000,4194.102539,3787.051270,4205.641113,4154.615234,4174.743652,4183.717773,4237.820313,4235.000000,4219.358887,4198.077148,4159.358887,4141.922852,4193.333496,4192.692383,0.000000,4.000000,95.000000,,,,0.000000,4.000000,4.000000,4.000000,4.000000,4.000000,4.000000,4.000000,4.000000,4.000000,4.000000,4.000000,4.000000,4.000000,4.000000,100.000000,,,,,,,,,,,,,,,,
1645707741.787034,1645707741.792141,106.000000,0.000000,4187.307617,3781.538574,4203.974121,4155.384766,4173.846191,4182.436035,4237.948730,4234.230957,4217.692383,4189.871582,4157.179688,4141.794922,4191.025879,4188.333496,0.000000,4.000000,95.000000,,,,0.000000,4.000000,4.000000,4.000000,4.000000,4.000000,4.000000,4.000000,4.000000,4.000000,4.000000,4.000000,4.000000,4.000000,4.000000,100.000000,,,,,,,,,,,,,,,,
1645707741.790974,1645707741.796081,107.000000,0.000000,4186.410156,3783.333252,4206.794922,4157.051270,4178.461426,4182.692383,4241.538574,4239.102539,4219.358887,4188.205078,4159.487305,4146.666504,4193.333496,4192.051270,0.000000,4.000000,95.000000,,,,0.000000,4.000000,4.000000,4.000000,4.000000,4.000000,4.000000,4.000000,4.000000,4.000000,4.000000,4.000000,4.000000,4.000000,4.000000,100.000000,,,,,,,,,,,,,,,,
1645707741.794914,1645707741.800021,108.000000,0.000000,4192.692383,3792.820557,4212.436035,4159.743652,4187.179688,4185.512695,4246.282227,4247.436035,4223.974121,4195.384766,4166.410156,4154.358887,4200.897461,4202.563965,0.000000,4.000000,95.000000,,,,0.000000,4.000000,4.000000,4.000000,4.000000,4.000000,4.000000,4.000000,4.000000,4.000000,4.000000,4.000000,4.000000,4.000000,4.000000,100.000000,,,,,,,,,,,,,,,,
1645707741.798854,1645707741.803962,109.000000,0.000000,4201.410156,3804.102539,4217.948730,4162.179688,4194.743652,4189.743652,4249.487305,4254.230957,4228.461426,4206.922852,4173.333496,4160.384766,4210.000000,4212.948730,0.000000,4.000000,95.000000,,,,0.000000,4.000000,4.000000,4.000000,4.000000,4.000000,4.000000,4.000000,4.000000,4.000000,4.000000,4.000000,4.000000,4.000000,4.000000,100.000000,,,,,,,,,,,,,,,,
1645707741.802794,1645707741.807902,110.000000,0.000000,4205.000000,3808.461426,4220.512695,4162.307617,4194.487305,4192.436035,4250.256348,4256.282227,4229.871582,4214.487305,4174.743652,4160.512695,4214.102539,4215.769043,0.000000,4.000000,95.000000,,,,0.000000,4.000000,4.000000,4.000000,4.000000,4.000000,4.000000,4.000000,4.000000,4.000000,4.000000,4.000000,4.000000,4.000000,4.000000,100.000000,,,,,,,,,,,,,,,,
1645707741.806734,1645707741.811842,111.000000,0.000000,4198.717773,3801.410156,4218.846191,4158.461426,4184.102539,4191.666504,4248.717773,4253.077148,4227.436035,4212.820313,4167.948730,4154.358887,4208.974121,4208.077148,0.000000,4.000000,95.000000,,,,0.000000,4.000000,4.000000,4.000000,4.000000,4.000000,4.000000,4.000000,4.000000,4.000000,4.000000,4.000000,4.000000,4.000000,4.000000,100.000000,,,,,,,,,,,,,,,,
1645707741.810674,1645707741.815783,112.000000,0.000000,4185.000000,3786.538574,4213.205078,4150.641113,4168.205078,4187.948730,4245.384766,4246.538574,4223.077148,4203.589844,4156.025879,4145.000000,4196.922852,4194.615234,0.000000,4.000000,95.000000,,,,0.000000,4.000000,4.000000,4.000000,4.000000,4.000000,4.000000,4.000000,4.000000,4.000000,4.000000,4.000000,4.000000,4.000000,4.000000,100.000000,,,,,,,,,,,,,,,,
1645707741.814614,1645707741.819723,113.000000,0.000000,4171.410156,3773.205078,4206.666504,4141.282227,4155.128418,4183.461426,4241.410156,4239.871582,4219.102539,4192.948730,4145.256348,4136.538574,4185.128418,4183.077148,0.000000,4.000000,95.000000,,,,0.000000,4.000000,4.000000,4.000000,4.000000,4.000000,4.000000,4.000000,4.000000,4.000000,4.000000,4.000000,4.000000,4.000000,4.000000,100.000000,,,,,,,,,,,,,,,,
1645707741.818555,1645707741.823664,114.000000,0.000000,4164.230957,3769.871826,4202.820313,4133.717773,4151.666504,4180.128418,4237.820313,4235.128418,4217.179688,4186.282227,4140.384766,4131.922852,4180.128418,4178.205078,0.000000,4.000000,95.000000,,,,0.000000,4.000000,4.000000,4.000000,4.000000,4.000000,4.000000,4.000000,4.000000,4.000000,4.000000,4.000000,4.000000,4.000000,4.000000,100.000000,,,,,,,,,,,,,,,,
1645707741.822494,1645707741.827604,115.000000,0.000000,4165.384766,3778.718018,4203.717773,4130.897461,4158.333496,4178.589844,4235.641113,4233.333496,4216.922852,4185.512695,4141.282227,4131.922852,4183.333496,4179.743652,0.000000,4.000000,95.000000,,,,0.000000,4.000000,4.000000,4.000000,4.000000,4.000000,4.000000,4.000000,4.000000,4.000000,4.000000,4.000000,4.000000,4.000000,4.000000,100.000000,,,,,,,,,,,,,,,,
1645707741.826434,1645707741.831444,116.000000,0.000000,4171.282227,3794.871826,4208.205078,4132.948730,4170.769043,4178.205078,4234.743652,4233.333496,4216.794922,4188.589844,4144.487305,4135.512695,4190.384766,4183.333496,0.000000,4.000000,95.000000,,,,0.000000,4.000000,4.000000,4.000000,4.000000,4.000000,4.000000,4.000000,4.000000,4.000000,4.000000,4.000000,4.000000,4.000000,4.000000,100.000000,,,,,,,,,,,,,,,,
1645707741.830375,1645707741.835385,117.000000,0.000000,4177.051270,3809.743652,4212.307617,4137.436035,4182.436035,4178.461426,4234.230957,4233.077148,4216.538574,4192.563965,4146.794922,4140.000000,4196.282227,4185.641113,0.000000,4.000000,95.000000,,,,0.000000,4.000000,4.000000,4.000000,4.000000,4.000000,4.000000,4.000000,4.000000,4.000000,4.000000,4.000000,4.000000,4.000000,4.000000,100.000000,,,,,,,,,,,,,,,,
1645707741.834314,1645707741.839325,118.000000,0.000000,4179.230957,3816.281982,4212.948730,4140.512695,4189.230957,4179.358887,4233.077148,4231.666504,4216.794922,4195.256348,4147.563965,4142.692383,4198.461426,4185.641113,0.000000,4.000000,95.000000,,,,0.000000,4.000000,4.000000,4.000000,4.000000,4.000000,4.000000,4.000000,4.000000,4.000000,4.000000,4.000000,4.000000,4.000000,4.000000,100.000000,,,,,,,,,,,,,,,,
1645707741.838255,1645707741.843265,119.000000,0.000000,4177.436035,3813.076904,4210.384766,4139.487305,4189.615234,4180.384766,4231.538574,4229.871582,4217.948730,4195.897461,4147.179688,4142.051270,4198.077148,4184.871582,0.000000,4.000000,95.000000,,,,0.000000,4.000000,4.000000,4.000000,4.000000,4.000000,4.000000,4.000000,4.000000,4.000000,4.000000,4.000000,4.000000,4.000000,4.000000,100.000000,,,,,,,,,,,,,,,,
1645707741.842195,1645707741.847206,120.000000,0.000000,4173.333496,3804.230713,4207.436035,4134.615234,4185.256348,4180.641113,4231.153809,4229.871582,4219.615234,4195.256348,4146.538574,4139.230957,4197.307617,4184.871582,0.000000,4.000000,95.000000,,,,0.000000,4.000000,4.000000,4.000000,4.000000,4.000000,4.000000,4.000000,4.000000,4.000000,4.000000,4.000000,4.000000,4.000000,4.000000,100.000000,,,,,,,,,,,,,,,,
1645707741.846135,1645707741.851146,121.000000,0.000000,4169.358887,3796.538574,4206.922852,4129.487305,4179.743652,4180.512695,4233.205078,4232.051270,4220.641113,4195.256348,4146.410156,4136.538574,4198.077148,4186.410156,0.000000,4.000000,95.000000,,,,0.000000,4.000000,4.000000,4.000000,4.000000,4.000000,4.000000,4.000000,4.000000,4.000000,4.000000,4.000000,4.000000,4.000000,4.000000,100.000000,,,,,,,,,,,,,,,,
1645707741.850075,1645707741.855086,122.000000,0.000000,4167.948730,3794.358887,4208.461426,4128.461426,4176.794922,4181.282227,4237.179688,4235.512695,4220.897461,4197.436035,4147.563965,4136.282227,4200.769043,4188.717773,0.000000,4.000000,95.000000,,,,0.000000,4.000000,4.000000,4.000000,4.000000,4.000000,4.000000,4.000000,4.000000,4.000000,4.000000,4.000000,4.000000,4.000000,4.000000,100.000000,,,,,,,,,,,,,,,,
1645707741.854015,1645707741.859027,123.000000,0.000000,4170.128418,3797.179443,4209.358887,4132.307617,4177.692383,4183.717773,4241.153809,4238.205078,4220.897461,4201.410156,4150.512695,4138.333496,4204.487305,4191.153809,0.000000,4.000000,95.000000,,,,0.000000,4.000000,4.000000,4.000000,4.000000,4.000000,4.000000,4.000000,4.000000,4.000000,4.000000,4.000000,4.000000,4.000000,4.000000,100.000000,,,,,,,,,,,,,,,,
1645707741.857955,1645707741.862967,124.000000,0.000000,4173.974121,3800.641113,4207.307617,4137.307617,4180.384766,4186.922852,4243.589844,4239.743652,4221.538574,4204.358887,4153.589844,4140.512695,4207.436035,4192.563965,0.000000,4.000000,95.000000,,,,0.000000,4.000000,4.000000,4.000000,4.000000,4.000000,4.000000,4.000000,4.000000,4.000000,4.000000,4.000000,4.000000,4.000000,4.000000,100.000000,,,,,,,,,,,,,,,,
1645707741.861895,1645707741.866907,125.000000,0.000000,4176.538574,3801.666748,4202.692383,4139.358887,4182.436035,4189.615234,4244.743652,4240.897461,4222.948730,4205.000000,4155.384766,4140.897461,4208.205078,4192.563965,0.000000,4.000000,95.000000,,,,0.000000,4.000000,4.000000,4.000000,4.000000,4.000000,4.000000,4.000000,4.000000,4.000000,4.000000,4.000000,4.000000,4.000000,4.000000,100.000000,,,,,,,,,,,,,,,,
1645707741.865835,1645707741.870848,126.000000,0.000000,4176.025879,3800.512939,4197.948730,4136.922852,4183.077148,4191.025879,4245.384766,4242.436035,4225.512695,4204.487305,4155.256348,4139.102539,4207.179688,4191.282227,0.000000,4.000000,95.000000,,,,0.000000,4.000000,4.000000,4.000000,4.000000,4.000000,4.000000,4.000000,4.000000,4.000000,4.000000,4.000000,4.000000,4.000000,4.000000,100.000000,,,,,,,,,,,,,,,,
1645707741.869775,1645707741.874788,127.000000,0.000000,4173.333496,3800.897461,4194.871582,4132.692383,4183.333496,4192.436035,4246.282227,4244.487305,4228.846191,4205.384766,4154.743652,4136.410156,4207.179688,4190.000000,0.000000,4.000000,95.000000,,,,0.000000,4.000000,4.000000,4.000000,4.000000,4.000000,4.000000,4.000000,4.000000,4.000000,4.000000,4.000000,4.000000,4.000000,4.000000,100.000000,,,,,,,,,,,,,,,,
1645707741.873715,1645707741.878728,128.000000,0.000000,4170.897461,3805.000000,4193.846191,4130.256348,4183.589844,4194.230957,4247.051270,4246.538574,4231.922852,4208.846191,4155.641113,4134.871582,4209.871582,4190.256348,3424.000000,4.000000,95.000000,,,,0.000000,4.000000,4.000000,4.000000,4.000000,4.000000,4.000000,4.000000,4.000000,4.000000,4.000000,4.000000,4.000000,4.000000,4.000000,100.000000,,,,,,,,,,,,,,,,
1645707741.877655,1645707741.882669,129.000000,0.000000,4169.743652,3810.641113,4194.102539,4131.025879,4182.563965,4195.512695,4247.948730,4248.717773,4233.205078,4213.077148,4157.948730,4135.384766,4214.230957,4191.922852,3328.000000,4.000000,95.000000,,,,0.000000,4.000000,4.000000,4.000000,4.000000,4.000000,4.000000,4.000000,4.000000,4.000000,4.000000,4.000000,4.000000,4.000000,4.000000,100.000000,,,,,,,,,,,,,,,,
1645707741.881595,1645707741.886609,130.000000,0.000000,4168.589844,3813.333252,4194.487305,4133.461426,4178.846191,4194.487305,4248.974121,4251.025879,4232.563965,4214.358887,4160.384766,4137.051270,4216.794922,4193.077148,3516.000000,4.000000,95.000000,,,,0.000000,4.000000,4.000000,4.000000,4.000000,4.000000,4.000000,4.000000,4.000000,4.000000,4.000000,4.000000,4.000000,4.000000,4.000000,100.000000,,,,,,,,,,,,,,,,
1645707741.885535,1645707741.890549,131.000000,0.000000,4166.538574,3810.769287,4193.974121,4134.871582,4174.102539,4191.153809,4249.487305,4253.846191,4231.025879,4211.410156,4161.153809,4137.948730,4215.384766,4192.563965,3547.000000,4.000000,95.000000,,,,0.000000,4.000000,4.000000,4.000000,4.000000,4.000000,4.000000,4.000000,4.000000,4.000000,4.000000,4.000000,4.000000,4.000000,4.000000,100.000000,,,,,,,,,,,,,,,,
1645707741.889475,1645707741.894490,132.000000,0.000000,4163.461426,3804.871826,4191.794922,4133.974121,4171.666504,4187.436035,4248.333496,4256.025879,4230.000000,4206.538574,4160.256348,4136.794922,4210.897461,4190.512695,3466.000000,4.000000,95.000000,,,,0.000000,4.000000,4.000000,4.000000,4.000000,4.000000,4.000000,4.000000,4.000000,4.000000,4.000000,4.000000,4.000000,4.000000,4.000000,100.000000,,,,,,,,,,,,,,,,
1645707741.893415,1645707741.898330,133.000000,0.000000,4160.897461,3799.871826,4188.974121,4131.922852,4172.948730,4185.384766,4244.871582,4256.666504,4230.000000,4204.102539,4158.461426,4133.717773,4206.282227,4188.461426,3650.000000,4.000000,95.000000,,,,0.000000,4.000000,4.000000,4.000000,4.000000,4.000000,4.000000,4.000000,4.000000,4.000000,4.000000,4.000000,4.000000,4.000000,4.000000,100.000000,,,,,,,,,,,,,,,,
1645707741.897355,1645707741.902271,134.000000,0.000000,4160.769043,3799.102539,4187.436035,4130.769043,4176.025879,4184.871582,4240.512695,4255.769043,4230.769043,4206.666504,4157.563965,4131.153809,4204.230957,4188.846191,3250.000000,4.000000,95.000000,,,,0.000000,4.000000,4.000000,4.000000,4.000000,4.000000,4.000000,4.000000,4.000000,4.000000,4.000000,4.000000,4.000000,4.000000,4.000000,100.000000,,,,,,,,,,,,,,,,
1645707741.901295,1645707741.906211,135.000000,0.000000,4163.589844,3802.692383,4188.974121,4130.769043,4176.410156,4184.230957,4237.820313,4254.743652,4231.794922,4213.205078,4158.717773,4132.563965,4205.641113,4192.692383,2944.000000,4.000000,95.000000,,,,0.000000,4.000000,4.000000,4.000000,4.000000,4.000000,4.000000,4.000000,4.000000,4.000000,4.000000,4.000000,4.000000,4.000000,4.000000,100.000000,,,,,,,,,,,,,,,,
1645707741.905235,1645707741.910151,136.000000,0.000000,4168.461426,3808.205078,4193.717773,4131.025879,4172.692383,4182.179688,4238.077148,4255.128418,4232.692383,4220.769043,4162.563965,4138.974121,4210.128418,4199.615234,1404.000000,4.000000,95.000000,,,,0.000000,4.000000,4.000000,4.000000,4.000000,4.000000,4.000000,4.000000,4.000000,4.000000,4.000000,4.000000,4.000000,4.000000,4.000000,100.000000,,,,,,,,,,,,,,,,
1645707741.909175,1645707741.914092,137.000000,0.000000,4173.974121,3812.564209,4199.743652,4131.025879,4167.436035,4179.230957,4240.128418,4257.436035,4233.974121,4226.538574,4168.589844,4148.205078,4215.256348,4207.820313,3296.000000,4.000000,95.000000,,,,0.000000,4.000000,4.000000,4.000000,4.000000,4.000000,4.000000,4.000000,4.000000,4.000000,4.000000,4.000000,4.000000,4.000000,4.000000,100.000000,,,,,,,,,,,,,,,,
1645707741.913115,1645707741.918032,138.000000,0.000000,4179.102539,3814.358887,4204.743652,4132.563965,4165.128418,4176.794922,4241.282227,4260.000000,4235.641113,4229.102539,4174.230957,4155.512695,4218.589844,4214.230957,2852.000000,4.000000,95.000000,,,,0.000000,4.000000,4.000000,4.000000,4.000000,4.000000,4.000000,4.000000,4.000000,4.000000,4.000000,4.000000,4.000000,4.000000,4.000000,100.000000,,,,,,,,,,,,,,,,
1645707741.917055,1645707741.921972,139.000000,0.000000,4182.436035,3813.846191,4207.436035,4138.077148,4167.307617,4176.025879,4240.000000,4261.153809,4237.179688,4227.820313,4175.641113,4157.307617,4218.333496,4215.769043,3392.000000,4.000000,95.000000,,,,0.000000,4.000000,4.000000,4.000000,4.000000,4.000000,4.000000,4.000000,4.000000,4.000000,4.000000,4.000000,4.000000,4.000000,4.000000,100.000000,,,,,,,,,,,,,,,,
1645707741.920995,1645707741.925913,140.000000,0.000000,4182.307617,3812.692383,4207.948730,4147.563965,4170.641113,4176.410156,4237.692383,4259.871582,4236.922852,4223.077148,4170.897461,4152.692383,4214.102539,4211.282227,3402.000000,4.000000,95.000000,,,,0.000000,4.000000,4.000000,4.000000,4.000000,4.000000,4.000000,4.000000,4.000000,4.000000,4.000000,4.000000,4.000000,4.000000,4.000000,100.000000,,,,,,,,,,,,,,,,
1645707741.924935,1645707741.929853,141.000000,0.000000,4178.589844,3812.820557,4207.307617,4157.692383,4170.641113,4176.794922,4237.307617,4257.179688,4234.871582,4216.025879,4162.307617,4144.102539,4208.205078,4202.307617,3226.000000,4.000000,95.000000,,,,0.000000,4.000000,4.000000,4.000000,4.000000,4.000000,4.000000,4.000000,4.000000,4.000000,4.000000,4.000000,4.000000,4.000000,4.000000,100.000000,,,,,,,,,,,,,,,,
1645707741.928876,1645707741.933793,142.000000,0.000000,4173.077148,3815.000000,4206.282227,4164.743652,4166.153809,4177.307617,4239.743652,4255.000000,4232.436035,4210.000000,4155.384766,4136.282227,4203.846191,4192.563965,2852.000000,4.000000,95.000000,,,,0.000000,4.000000,4.000000,4.000000,4.000000,4.000000,4.000000,4.000000,4.000000,4.000000,4.000000,4.000000,4.000000,4.000000,4.000000,100.000000,,,,,,,,,,,,,,,,
1645707741.932815,1645707741.937734,143.000000,0.000000,4169.230957,3818.333252,4206.153809,4167.436035,4161.666504,4178.461426,4243.077148,4254.743652,4231.666504,4208.205078,4154.487305,4133.205078,4203.846191,4186.153809,3392.000000,4.000000,95.000000,,,,0.000000,4.000000,4.000000,4.000000,4.000000,4.000000,4.000000,4.000000,4.000000,4.000000,4.000000,4.000000,4.000000,4.000000,4.000000,100.000000,,,,,,,,,,,,,,,,
1645707741.936756,1645707741.941674,144.000000,0.000000,4169.102539,3820.384521,4207.179688,4167.179688,4162.307617,4180.769043,4244.871582,4256.538574,4232.948730,4211.025879,4159.358887,4135.512695,4207.307617,4184.487305,3402.000000,4.000000,95.000000,,,,0.000000,4.000000,4.000000,4.000000,4.000000,4.000000,4.000000,4.000000,4.000000,4.000000,4.000000,4.000000,4.000000,4.000000,4.000000,100.000000,,,,,,,,,,,,,,,,
1645707741.940696,1645707741.945614,145.000000,0.000000,4172.436035,3819.358887,4209.102539,4165.769043,4168.846191,4183.205078,4245.000000,4258.717773,4234.743652,4214.743652,4165.128418,4140.384766,4211.282227,4185.641113,3226.000000,4.000000,95.000000,,,,0.000000,4.000000,4.000000,4.000000,4.000000,4.000000,4.000000,4.000000,4.000000,4.000000,4.000000,4.000000,4.000000,4.000000,4.000000,100.000000,,,,,,,,,,,,,,,,
1645707741.944636,1645707741.949555,146.000000,0.000000,4177.051270,3816.025635,4210.512695,4164.871582,4177.179688,4185.256348,4245.000000,4258.589844,4235.641113,4214.487305,4166.410156,4143.333496,4212.436035,4186.666504,2852.000000,4.000000,95.000000,,,,0.000000,4.000000,4.000000,4.000000,4.000000,4.000000,4.000000,4.000000,4.000000,4.000000,4.000000,4.000000,4.000000,4.000000,4.000000,100.000000,,,,,,,,,,,,,,,,
1645707741.948576,1645707741.953495,147.000000,0.000000,4179.615234,3813.076904,4209.743652,4164.871582,4182.179688,4186.922852,4246.282227,4255.128418,4234.615234,4208.205078,4161.410156,4141.538574,4209.615234,4186.282227,3392.000000,4.000000,95.000000,,,,0.000000,4.000000,4.000000,4.000000,4.000000,4.000000,4.000000,4.000000,4.000000,4.000000,4.000000,4.000000,4.000000,4.000000,4.000000,100.000000,,,,,,,,,,,,,,,,
1645707741.952516,1645707741.957435,148.000000,0.000000,4178.205078,3812.820557,4205.512695,4165.384766,4181.922852,4188.717773,4248.461426,4249.230957,4232.436035,4199.102539,4153.333496,4135.641113,4204.358887,4184.743652,3402.000000,4.000000,95.000000,,,,0.000000,4.000000,4.000000,4.000000,4.000000,4.000000,4.000000,4.000000,4.000000,4.000000,4.000000,4.000000,4.000000,4.000000,4.000000,100.000000,,,,,,,,,,,,,,,,
1645707741.956456,1645707741.961376,149.000000,0.000000,4172.692383,3815.512939,4198.333496,4165.769043,4177.820313,4191.153809,4250.384766,4243.846191,4230.897461,4192.179688,4146.794922,4128.846191,4198.589844,4182.307617,3226.000000,4.000000,95.000000,,,,0.000000,4.000000,4.000000,4.000000,4.000000,4.000000,4.000000,4.000000,4.000000,4.000000,4.000000,4.000000,4.000000,4.000000,4.000000,100.000000,,,,,,,,,,,,,,,,
1645707741.960396,1645707741.965316,150.000000,0.000000,4164.615234,3818.846191,4190.641113,4164.743652,4173.333496,4193.461426,4251.666504,4241.410156,4231.025879,4190.641113,4143.974121,4123.974121,4194.102539,4178.717773,2852.000000,4.000000,95.000000,,,,0.000000,4.000000,4.000000,4.000000,4.000000,4.000000,4.000000,4.000000,4.000000,4.000000,4.000000,4.000000,4.000000,4.000000,4.000000,100.000000,,,,,,,,,,,,,,,,
1645707741.964336,1645707741.969157,151.000000,0.000000,4157.563965,3820.897461,4185.512695,4162.563965,4171.538574,4194.871582,4252.563965,4242.436035,4232.179688,4193.461426,4144.102539,4121.922852,4191.410156,4174.358887,3392.000000,4.000000,95.000000,,,,0.000000,4.000000,4.000000,4.000000,4.000000,4.000000,4.000000,4.000000,4.000000,4.000000,4.000000,4.000000,4.000000,4.000000,4.000000,100.000000,,,,,,,,,,,,,,,,
1645707741.968276,1645707741.973097,152.000000,0.000000,4155.256348,3821.794922,4184.487305,4160.384766,4174.358887,4195.256348,4253.461426,4244.871582,4232.948730,4197.436035,4145.897461,4122.179688,4191.153809,4171.410156,3402.000000,4.000000,95.000000,,,,0.000000,4.000000,4.000000,4.000000,4.000000,4.000000,4.000000,4.000000,4.000000,4.000000,4.000000,4.000000,4.000000,4.000000,4.000000,100.000000,,,,,,,,,,,,,,,,
1645707741.972216,1645707741.977037,153.000000,0.000000,4159.358887,3822.948730,4187.179688,4159.358887,4180.512695,4195.256348,4253.461426,4245.769043,4232.563965,4200.512695,4148.461426,4124.743652,4193.333496,4172.436035,3226.000000,4.000000,95.000000,,,,0.000000,4.000000,4.000000,4.000000,4.000000,4.000000,4.000000,4.000000,4.000000,4.000000,4.000000,4.000000,4.000000,4.000000,4.000000,100.000000,,,,,,,,,,,,,,,,
1645707741.976156,1645707741.980978,154.000000,0.000000,4167.948730,3825.897461,4191.153809,4159.230957,4185.128418,4195.128418,4251.666504,4244.358887,4232.307617,4202.051270,4151.538574,4129.358887,4197.307617,4177.563965,2852.000000,4.000000,95.000000,,,,0.000000,4.000000,4.000000,4.000000,4.000000,4.000000,4.000000,4.000000,4.000000,4.000000,4.000000,4.000000,4.000000,4.000000,4.000000,100.000000,,,,,,,,,,,,,,,,
1645707741.980096,1645707741.984918,155.000000,0.000000,4175.769043,3829.358887,4194.358887,4158.077148,4182.307617,4194.230957,4247.820313,4241.538574,4232.948730,4202.051270,4153.974121,4134.743652,4201.153809,4184.102539,3392.000000,4.000000,95.000000,,,,0.000000,4.000000,4.000000,4.000000,4.000000,4.000000,4.000000,4.000000,4.000000,4.000000,4.000000,4.000000,4.000000,4.000000,4.000000,100.000000,,,,,,,,,,,,,,,,
1645707741.984036,1645707741.988858,156.000000,0.000000,4178.589844,3830.769287,4195.128418,4155.256348,4171.025879,4191.538574,4243.717773,4239.230957,4233.461426,4200.641113,4154.230957,4139.102539,4202.563965,4187.692383,3402.000000,4.000000,95.000000,,,,0.000000,4.000000,4.000000,4.000000,4.000000,4.000000,4.000000,4.000000,4.000000,4.000000,4.000000,4.000000,4.000000,4.000000,4.000000,100.000000,,,,,,,,,,,,,,,,
1645707741.987976,1645707741.992799,157.000000,0.000000,4176.410156,3829.615479,4193.717773,4153.077148,4158.077148,4187.179688,4241.282227,4237.820313,4232.307617,4198.461426,4152.692383,4141.025879,4201.410156,4187.051270,3226.000000,4.000000,95.000000,,,,0.000000,4.000000,4.000000,4.000000,4.000000,4.000000,4.000000,4.000000,4.000000,4.000000,4.000000,4.000000,4.000000,4.000000,4.000000,100.000000,,,,,,,,,,,,,,,,
1645707741.991916,1645707741.996739,158.000000,0.000000,4173.205078,3827.948730,4191.282227,4154.615234,4152.307617,4183.077148,4240.769043,4236.666504,4228.717773,4197.563965,4151.410156,4141.538574,4199.358887,4184.102539,2852.000000,4.000000,95.000000,,,,0.000000,4.000000,4.000000,4.000000,4.000000,4.000000,4.000000,4.000000,4.000000,4.000000,4.000000,4.000000,4.000000,4.000000,4.000000,100.000000,,,,,,,,,,,,,,,,
1645707741.995856,1645707742.000679,159.000000,0.000000,4172.051270,3828.076904,4189.615234,4160.256348,4157.436035,4181.025879,4240.512695,4234.743652,4224.230957,4198.717773,4152.179688,4141.794922,4198.077148,4181.666504,3392.000000,4.000000,95.000000,,,,0.000000,4.000000,4.000000,4.000000,4.000000,4.000000,4.000000,4.000000,4.000000,4.000000,4.000000,4.000000,4.000000,4.000000,4.000000,100.000000,,,,,,,,,,,,,,,,
1645707741.999796,1645707742.004620,160.000000,0.000000,4172.563965,3829.871826,4189.358887,4166.282227,4167.948730,4180.769043,4238.846191,4232.436035,4221.153809,4200.641113,4153.846191,4142.179688,4198.077148,4180.256348,3402.000000,4.000000,95.000000,,,,0.000000,4.000000,4.000000,4.000000,4.000000,4.000000,4.000000,4.000000,4.000000,4.000000,4.000000,4.000000,4.000000,4.000000,4.000000,100.000000,,,,,,,,,,,,,,,,
1645707742.003736,1645707742.008560,161.000000,0.000000,4172.692383,3831.538574,4189.358887,4168.333496,4175.256348,4180.512695,4236.025879,4231.153809,4220.897461,4201.025879,4153.846191,4141.794922,4197.948730,4178.205078,3226.000000,4.000000,95.000000,,,,0.000000,4.000000,4.000000,4.000000,4.000000,4.000000,4.000000,4.000000,4.000000,4.000000,4.000000,4.000000,4.000000,4.000000,4.000000,100.000000,,,,,,,,,,,,,,,,
1645707742.007676,1645707742.012500,162.000000,0.000000,4171.538574,3832.307617,4187.820313,4165.641113,4175.000000,4179.615234,4234.102539,4232.436035,4223.205078,4199.487305,4151.153809,4139.871582,4196.922852,4175.128418,2852.000000,4.000000,95.000000,,,,0.000000,4.000000,4.000000,4.000000,4.000000,4.000000,4.000000,4.000000,4.000000,4.000000,4.000000,4.000000,4.000000,4.000000,4.000000,100.000000,,,,,,,,,,,,,,,,
1645707742.011616,1645707742.016441,163.000000,0.000000,4170.128418,3833.461426,4184.615234,4161.410156,4170.000000,4179.615234,4235.000000,4235.897461,4226.666504,4198.333496,4147.820313,4136.538574,4195.897461,4172.563965,3392.000000,4.000000,95.000000,,,,0.000000,4.000000,4.000000,4.000000,4.000000,4.000000,4.000000,4.000000,4.000000,4.000000,4.000000,4.000000,4.000000,4.000000,4.000000,100.000000,,,,,,,,,,,,,,,,
1645707742.015556,1645707742.020381,164.000000,0.000000,4169.487305,3836.153809,4181.282227,4159.358887,4165.641113,4182.179688,4238.974121,4239.487305,4229.615234,4200.256348,4146.666504,4132.948730,4196.282227,4172.179688,3402.000000,4.000000,95.000000,,,,0.000000,4.000000,4.000000,4.000000,4.000000,4.000000,4.000000,4.000000,4.000000,4.000000,4.000000,4.000000,4.000000,4.000000,4.000000,100.000000,,,,,,,,,,,,,,,,
1645707742.019496,1645707742.024321,165.000000,0.000000,4168.974121,3839.743652,4180.384766,4160.256348,4164.743652,4186.666504,4243.846191,4241.153809,4230.384766,4204.230957,4148.205078,4129.871582,4198.333496,4173.333496,3226.000000,4.000000,95.000000,,,,0.000000,4.000000,4.000000,4.000000,4.000000,4.000000,4.000000,4.000000,4.000000,4.000000,4.000000,4.000000,4.000000,4.000000,4.000000,100.000000,,,,,,,,,,,,,,,,
1645707742.023436,1645707742.028262,166.000000,0.000000,4166.922852,3841.538574,4183.077148,4161.922852,4166.153809,4189.871582,4246.922852,4240.384766,4229.487305,4207.051270,4149.487305,4127.436035,4200.384766,4173.717773,2852.000000,4.000000,95.000000,,,,0.000000,4.000000,4.000000,4.000000,4.000000,4.000000,4.000000,4.000000,4.000000,4.000000,4.000000,4.000000,4.000000,4.000000,4.000000,100.000000,,,,,,,,,,,,,,,,
1645707742.027377,1645707742.032202,167.000000,0.000000,4163.205078,3840.128174,4187.179688,4161.538574,4166.794922,4189.615234,4246.282227,4238.077148,4228.077148,4206.282227,4148.461426,4125.512695,4200.512695,4171.922852,3392.000000,4.000000,95.000000,,,,0.000000,4.000000,4.000000,4.000000,4.000000,4.000000,4.000000,4.000000,4.000000,4.000000,4.000000,4.000000,4.000000,4.000000,4.000000,100.000000,,,,,,,,,,,,,,,,
1645707742.031316,1645707742.036142,168.000000,0.000000,4159.743652,3836.666748,4188.461426,4158.461426,4164.871582,4186.922852,4242.179688,4235.641113,4227.948730,4202.692383,4145.641113,4123.717773,4198.846191,4168.589844,3402.000000,4.000000,95.000000,,,,0.000000,4.000000,4.000000,4.000000,4.000000,4.000000,4.000000,4.000000,4.000000,4.000000,4.000000,4.000000,4.000000,4.000000,4.000000,100.000000,,,,,,,,,,,,,,,,
1645707742.035257,1645707742.040083,169.000000,0.000000,4158.974121,3834.358887,4185.000000,4154.487305,4161.538574,4184.743652,4237.436035,4234.358887,4229.487305,4198.717773,4143.717773,4122.436035,4196.922852,4165.256348,3226.000000,4.000000,95.000000,,,,0.000000,4.000000,4.000000,4.000000,4.000000,4.000000,4.000000,4.000000,4.000000,4.000000,4.000000,4.000000,4.000000,4.000000,4.000000,100.000000,,,,,,,,,,,,,,,,
1645707742.039197,1645707742.043923,170.000000,0.000000,4161.153809,3834.743652,4178.846191,4151.666504,4159.102539,4184.743652,4235.384766,4235.897461,4231.922852,4196.794922,4144.871582,4122.307617,4196.922852,4163.205078,2852.000000,4.000000,95.000000,,,,0.000000,4.000000,4.000000,4.000000,4.000000,4.000000,4.000000,4.000000,4.000000,4.000000,4.000000,4.000000,4.000000,4.000000,4.000000,100.000000,,,,,,,,,,,,,,,,
1645707742.043137,1645707742.047864,171.000000,0.000000,4164.358887,3836.923096,4174.487305,4150.256348,4159.487305,4185.769043,4237.307617,4240.641113,4233.717773,4197.948730,4149.102539,4123.974121,4199.615234,4163.077148,3392.000000,4.000000,95.000000,,,,0.000000,4.000000,4.000000,4.000000,4.000000,4.000000,4.000000,4.000000,4.000000,4.000000,4.000000,4.000000,4.000000,4.000000,4.000000,100.000000,,,,,,,,,,,,,,,,
1645707742.047077,1645707742.051804,172.000000,0.000000,4166.025879,3838.718018,4174.358887,4148.846191,4162.051270,4186.025879,4241.282227,4247.436035,4234.615234,4202.051270,4154.358887,4126.666504,4203.717773,4165.000000,3402.000000,4.000000,95.000000,,,,0.000000,4.000000,4.000000,4.000000,4.000000,4.000000,4.000000,4.000000,4.000000,4.000000,4.000000,4.000000,4.000000,4.000000,4.000000,100.000000,,,,,,,,,,,,,,,,
1645707742.051017,1645707742.055744,173.000000,0.000000,4165.897461,3838.718018,4176.666504,4146.538574,4164.230957,4184.871582,4243.589844,4252.692383,4234.743652,4208.717773,4158.461426,4128.846191,4207.436035,4168.846191,3226.000000,4.000000,95.000000,,,,0.000000,4.000000,4.000000,4.000000,4.000000,4.000000,4.000000,4.000000,4.000000,4.000000,4.000000,4.000000,4.000000,4.000000,4.000000,100.000000,,,,,,,,,,,,,,,,
1645707742.054957,1645707742.059784,174.000000,0.000000,4164.487305,3837.692383,4178.077148,4144.230957,4164.358887,4183.333496,4242.051270,4252.563965,4234.615234,4215.641113,4160.000000,4128.974121,4208.974121,4173.333496,2852.000000,4.000000,95.000000,,,,0.000000,4.000000,4.000000,4.000000,4.000000,4.000000,4.000000,4.000000,4.000000,4.000000,4.000000,4.000000,4.000000,4.000000,4.000000,100.000000,,,,,,,,,,,,,,,,
1645707742.058897,1645707742.063725,175.000000,0.000000,4163.077148,3836.666748,4176.538574,4143.589844,4162.179688,4182.307617,4237.820313,4246.538574,4233.974121,4219.102539,4158.205078,4126.794922,4207.820313,4176.666504,3392.000000,4.000000,95.000000,,,,0.000000,4.000000,4.000000,4.000000,4.000000,4.000000,4.000000,4.000000,4.000000,4.000000,4.000000,4.000000,4.000000,4.000000,4.000000,100.000000,,,,,,,,,,,,,,,,
1645707742.062837,1645707742.067665,176.000000,0.000000,4162.692383,3837.051270,4173.077148,4146.025879,4159.743652,4182.179688,4234.743652,4237.948730,4232.179688,4216.538574,4153.717773,4124.487305,4205.384766,4177.051270,3402.000000,4.000000,95.000000,,,,0.000000,4.000000,4.000000,4.000000,4.000000,4.000000,4.000000,4.000000,4.000000,4.000000,4.000000,4.000000,4.000000,4.000000,4.000000,100.000000,,,,,,,,,,,,,,,,
1645707742.066777,1645707742.071605,177.000000,0.000000,4164.102539,3839.871826,4170.000000,4151.538574,4159.487305,4182.820313,4235.128418,4231.025879,4229.615234,4209.487305,4149.102539,4124.358887,4203.589844,4175.256348,3226.000000,4.000000,95.000000,,,,0.000000,4.000000,4.000000,4.000000,4.000000,4.000000,4.000000,4.000000,4.000000,4.000000,4.000000,4.000000,4.000000,4.000000,4.000000,100.000000,,,,,,,,,,,,,,,,
1645707742.070717,1645707742.075546,178.000000,0.000000,4167.051270,3845.256348,4169.102539,4157.948730,4161.922852,4183.589844,4237.692383,4228.846191,4227.563965,4202.692383,4147.307617,4127.948730,4204.358887,4174.102539,2852.000000,4.000000,95.000000,,,,0.000000,4.000000,4.000000,4.000000,4.000000,4.000000,4.000000,4.000000,4.000000,4.000000,4.000000,4.000000,4.000000,4.000000,4.000000,100.000000,,,,,,,,,,,,,,,,
1645707742.074657,1645707742.079486,179.000000,0.000000,4170.128418,3851.923096,4170.000000,4162.563965,4165.128418,4183.717773,4238.974121,4231.025879,4227.692383,4200.769043,4150.000000,4133.974121,4207.436035,4175.769043,3392.000000,4.000000,95.000000,,,,0.000000,4.000000,4.000000,4.000000,4.000000,4.000000,4.000000,4.000000,4.000000,4.000000,4.000000,4.000000,4.000000,4.000000,4.000000,100.000000,,,,,,,,,,,,,,,,
1645707742.078597,1645707742.083427,180.000000,0.000000,4171.025879,3856.538574,4171.538574,4163.077148,4165.641113,4182.820313,4237.436035,4235.256348,4230.000000,4203.717773,4155.512695,4139.487305,4210.769043,4179.102539,3402.000000,4.000000,95.000000,,,,0.000000,4.000000,4.000000,4.000000,4.000000,4.000000,4.000000,4.000000,4.000000,4.000000,4.000000,4.000000,4.000000,4.000000,4.000000,100.000000,,,,,,,,,,,,,,,,
1645707742.082537,1645707742.087367,181.000000,0.000000,4168.333496,3856.153809,4171.922852,4159.743652,4161.410156,4181.153809,4234.358887,4238.589844,4232.179688,4207.820313,4159.615234,4141.410156,4211.282227,4180.769043,3226.000000,4.000000,95.000000,,,,0.000000,4.000000,4.000000,4.000000,4.000000,4.000000,4.000000,4.000000,4.000000,4.000000,4.000000,4.000000,4.000000,4.000000,4.000000,100.000000,,,,,,,,,,,,,,,,
1645707742.086477,1645707742.091307,182.000000,0.000000,4163.333496,3850.897461,4170.128418,4155.384766,4154.743652,4179.871582,4232.436035,4238.974121,4231.922852,4208.974121,4159.615234,4138.717773,4207.563965,4178.717773,2852.000000,4.000000,95.000000,,,,0.000000,4.000000,4.000000,4.000000,4.000000,4.000000,4.000000,4.000000,4.000000,4.000000,4.000000,4.000000,4.000000,4.000000,4.000000,100.000000,,,,,,,,,,,,,,,,
1645707742.090417,1645707742.095248,183.000000,0.000000,4158.717773,3843.974365,4166.538574,4153.461426,4151.538574,4180.000000,4232.436035,4236.410156,4229.102539,4206.025879,4155.769043,4133.077148,4201.410156,4173.846191,3392.000000,4.000000,95.000000,,,,0.000000,4.000000,4.000000,4.000000,4.000000,4.000000,4.000000,4.000000,4.000000,4.000000,4.000000,4.000000,4.000000,4.000000,4.000000,100.000000,,,,,,,,,,,,,,,,
1645707742.094357,1645707742.099188,184.000000,0.000000,4157.436035,3839.743652,4162.692383,4155.128418,4155.897461,4181.282227,4233.205078,4232.692383,4225.769043,4201.410156,4150.512695,4127.307617,4196.282227,4168.974121,3402.000000,4.000000,95.000000,,,,0.000000,4.000000,4.000000,4.000000,4.000000,4.000000,4.000000,4.000000,4.000000,4.000000,4.000000,4.000000,4.000000,4.000000,4.000000,100.000000,,,,,,,,,,,,,,,,
1645707742.098297,1645707742.103128,185.000000,0.000000,4160.000000,3840.897461,4161.153809,4158.205078,4165.897461,4181.666504,4233.333496,4230.000000,4224.743652,4197.820313,4146.282227,4123.846191,4193.974121,4166.153809,3226.000000,4.000000,95.000000,,,,0.000000,4.000000,4.000000,4.000000,4.000000,4.000000,4.000000,4.000000,4.000000,4.000000,4.000000,4.000000,4.000000,4.000000,4.000000,100.000000,,,,,,,,,,,,,,,,
1645707742.102237,1645707742.107069,186.000000,0.000000,4164.358887,3847.179443,4163.461426,4159.871582,4174.358887,4179.871582,4232.820313,4229.743652,4226.282227,4195.641113,4143.846191,4123.077148,4193.077148,4165.000000,2852.000000,4.000000,95.000000,,,,0.000000,4.000000,4.000000,4.000000,4.000000,4.000000,4.000000,4.000000,4.000000,4.000000,4.000000,4.000000,4.000000,4.000000,4.000000,100.000000,,,,,,,,,,,,,,,,
1645707742.106177,1645707742.110909,187.000000,0.000000,4167.563965,3855.641113,4168.461426,4158.717773,4174.871582,4176.666504,4232.563965,4231.025879,4227.948730,4193.589844,4142.179688,4123.461426,4190.384766,4163.846191,3392.000000,4.000000,95.000000,,,,0.000000,4.000000,4.000000,4.000000,4.000000,4.000000,4.000000,4.000000,4.000000,4.000000,4.000000,4.000000,4.000000,4.000000,4.000000,100.000000,,,,,,,,,,,,,,,,
1645707742.110117,1645707742.114849,188.000000,0.000000,4168.461426,3862.307617,4172.820313,4157.051270,4168.077148,4174.615234,4232.179688,4231.794922,4227.563965,4190.384766,4140.384766,4122.692383,4184.487305,4161.153809,3402.000000,4.000000,95.000000,,,,0.000000,4.000000,4.000000,4.000000,4.000000,4.000000,4.000000,4.000000,4.000000,4.000000,4.000000,4.000000,4.000000,4.000000,4.000000,100.000000,,,,,,,,,,,,,,,,
1645707742.114057,1645707742.118790,189.000000,0.000000,4167.820313,3864.358887,4174.230957,4157.820313,4160.512695,4174.871582,4230.769043,4230.897461,4225.256348,4186.922852,4138.205078,4120.000000,4176.666504,4156.794922,3226.000000,4.000000,95.000000,,,,0.000000,4.000000,4.000000,4.000000,4.000000,4.000000,4.000000,4.000000,4.000000,4.000000,4.000000,4.000000,4.000000,4.000000,4.000000,100.000000,,,,,,,,,,,,,,,,
1645707742.117997,1645707742.122730,190.000000,0.000000,4166.922852,3861.794922,4172.563965,4162.051270,4157.948730,4175.897461,4228.461426,4229.102539,4223.589844,4184.358887,4136.025879,4116.794922,4170.256348,4152.692383,2852.000000,4.000000,95.000000,,,,0.000000,4.000000,4.000000,4.000000,4.000000,4.000000,4.000000,4.000000,4.000000,4.000000,4.000000,4.000000,4.000000,4.000000,4.000000,100.000000,,,,,,,,,,,,,,,,
1645707742.121937,1645707742.126670,191.000000,0.000000,4166.410156,3857.179443,4169.615234,4167.692383,4159.358887,4175.384766,4226.538574,4227.692383,4224.358887,4183.333496,4134.230957,4114.871582,4167.563965,4151.410156,3392.000000,4.000000,95.000000,,,,0.000000,4.000000,4.000000,4.000000,4.000000,4.000000,4.000000,4.000000,4.000000,4.000000,4.000000,4.000000,4.000000,4.000000,4.000000,100.000000,,,,,,,,,,,,,,,,
1645707742.125878,1645707742.130611,192.000000,0.000000,4166.410156,3854.230713,4167.948730,4171.538574,4160.256348,4172.948730,4226.794922,4227.051270,4226.794922,4183.974121,4133.333496,4115.256348,4168.717773,4153.589844,3402.000000,4.000000,95.000000,,,,0.000000,4.000000,4.000000,4.000000,4.000000,4.000000,4.000000,4.000000,4.000000,4.000000,4.000000,4.000000,4.000000,4.000000,4.000000,100.000000,,,,,,,,,,,,,,,,
1645707742.129818,1645707742.134551,193.000000,0.000000,4167.692383,3856.025635,4168.717773,4172.179688,4158.077148,4170.641113,4229.102539,4226.282227,4228.717773,4185.897461,4134.743652,4117.948730,4172.563965,4158.461426,3226.000000,4.000000,95.000000,,,,0.000000,4.000000,4.000000,4.000000,4.000000,4.000000,4.000000,4.000000,4.000000,4.000000,4.000000,4.000000,4.000000,4.000000,4.000000,100.000000,,,,,,,,,,,,,,,,
1645707742.133757,1645707742.138491,194.000000,0.000000,4171.025879,3862.435791,4172.179688,4170.384766,4154.487305,4170.512695,4231.410156,4225.128418,4228.717773,4188.974121,4138.461426,4121.794922,4177.436035,4163.717773,2852.000000,4.000000,95.000000,,,,0.000000,4.000000,4.000000,4.000000,4.000000,4.000000,4.000000,4.000000,4.000000,4.000000,4.000000,4.000000,4.000000,4.000000,4.000000,100.000000,,,,,,,,,,,,,,,,
1645707742.137698,1645707742.142432,195.000000,0.000000,4176.922852,3869.487061,4177.436035,4167.692383,4153.333496,4172.692383,4231.666504,4224.487305,4227.179688,4191.794922,4142.307617,4125.512695,4181.410156,4167.307617,3392.000000,4.000000,95.000000,,,,0.000000,4.000000,4.000000,4.000000,4.000000,4.000000,4.000000,4.000000,4.000000,4.000000,4.000000,4.000000,4.000000,4.000000,4.000000,100.000000,,,,,,,,,,,,,,,,
1645707742.141638,1645707742.146372,196.000000,0.000000,4183.205078,3873.333252,4183.589844,4165.256348,4156.282227,4175.256348,4230.128418,4225.641113,4225.512695,4192.307617,4143.717773,4127.820313,4183.205078,4169.102539,3402.000000,4.000000,95.000000,,,,0.000000,4.000000,4.000000,4.000000,4.000000,4.000000,4.000000,4.000000,4.000000,4.000000,4.000000,4.000000,4.000000,4.000000,4.000000,100.000000,,,,,,,,,,,,,,,,
1645707742.145578,1645707742.150312,197.000000,0.000000,4187.563965,3872.820557,4189.230957,4163.461426,4162.307617,4176.410156,4228.846191,4228.461426,4224.615234,4189.871582,4142.307617,4128.461426,4182.563965,4170.512695,3226.000000,4.000000,95.000000,,,,0.000000,4.000000,4.000000,4.000000,4.000000,4.000000,4.000000,4.000000,4.000000,4.000000,4.000000,4.000000,4.000000,4.000000,4.000000,100.000000,,,,,,,,,,,,,,,,
1645707742.149518,1645707742.154253,198.000000,0.000000,4188.077148,3871.153809,4192.563965,4162.692383,4168.205078,4175.384766,4229.230957,4231.666504,4225.128418,4186.282227,4140.384766,4128.205078,4180.641113,4172.948730,2852.000000,4.000000,95.000000,,,,0.000000,4.000000,4.000000,4.000000,4.000000,4.000000,4.000000,4.000000,4.000000,4.000000,4.000000,4.000000,4.000000,4.000000,4.000000,100.000000,,,,,,,,,,,,,,,,
1645707742.153458,1645707742.158193,199.000000,0.000000,4185.512695,3871.794922,4192.948730,4162.948730,4170.641113,4172.820313,4230.256348,4232.820313,4226.410156,4184.230957,4140.512695,4127.563965,4179.487305,4176.153809,3392.000000,4.000000,95.000000,,,,0.000000,4.000000,4.000000,4.000000,4.000000,4.000000,4.000000,4.000000,4.000000,4.000000,4.000000,4.000000,4.000000,4.000000,4.000000,100.000000,,,,,,,,,,,,,,,,
1645707742.157398,1645707742.162134,200.000000,0.000000,4182.307617,3875.769287,4191.794922,4164.230957,4167.820313,4169.743652,4230.128418,4231.025879,4227.307617,4185.256348,4142.307617,4126.794922,4180.128418,4178.333496,3402.000000,4.000000,95.000000,,,,0.000000,4.000000,4.000000,4.000000,4.000000,4.000000,4.000000,4.000000,4.000000,4.000000,4.000000,4.000000,4.000000,4.000000,4.000000,100.000000,,,,,,,,,,,,,,,,
1645707742.161338,1645707742.166074,201.000000,0.000000,4180.897461,3881.025635,4191.922852,4166.538574,4161.410156,4167.436035,4228.717773,4227.179688,4227.051270,4187.436035,4143.461426,4126.025879,4182.179688,4178.205078,3226.000000,4.000000,95.000000,,,,0.000000,4.000000,4.000000,4.000000,4.000000,4.000000,4.000000,4.000000,4.000000,4.000000,4.000000,4.000000,4.000000,4.000000,4.000000,100.000000,,,,,,,,,,,,,,,,
1645707742.165278,1645707742.170014,202.000000,0.000000,4182.179688,3885.256348,4194.102539,4168.717773,4156.282227,4166.794922,4227.436035,4223.333496,4226.410156,4188.333496,4143.205078,4126.025879,4184.871582,4176.794922,2852.000000,4.000000,95.000000,,,,0.000000,4.000000,4.000000,4.000000,4.000000,4.000000,4.000000,4.000000,4.000000,4.000000,4.000000,4.000000,4.000000,4.000000,4.000000,100.000000,1.000000,33.333332,4.000000,0.000000,4.000000,4.000000,1.000000,4.000000,4.000000,4.000000,4.000000,4.000000,3.000000,4.000000,4.000000,4.000000
1645707742.169218,1645707742.173955,203.000000,0.000000,4185.256348,3887.435791,4196.538574,4169.487305,4156.666504,4168.333496,4227.436035,4221.153809,4227.179688,4187.436035,4142.948730,4127.051270,4187.692383,4175.897461,3392.000000,4.000000,95.000000,,,,0.000000,4.000000,4.000000,4.000000,4.000000,4.000000,4.000000,4.000000,4.000000,4.000000,4.000000,4.000000,4.000000,4.000000,4.000000,100.000000,,,,,,,,,,,,,,,,
1645707742.173158,1645707742.177895,204.000000,0.000000,4187.692383,3887.820557,4196.153809,4168.205078,4162.820313,4171.794922,4228.846191,4220.769043,4229.615234,4186.410156,4145.128418,4128.333496,4190.384766,4176.794922,3402.000000,4.000000,95.000000,,,,0.000000,4.000000,4.000000,4.000000,4.000000,4.000000,4.000000,4.000000,4.000000,4.000000,4.000000,4.000000,4.000000,4.000000,4.000000,100.000000,,,,,,,,,,,,,,,,
1645707742.177098,1645707742.181935,205.000000,0.000000,4187.307617,3887.820557,4192.563965,4164.743652,4170.128418,4175.897461,4230.769043,4222.051270,4232.051270,4187.051270,4149.615234,4128.205078,4192.436035,4178.461426,3226.000000,4.000000,95.000000,,,,0.000000,4.000000,4.000000,4.000000,4.000000,4.000000,4.000000,4.000000,4.000000,4.000000,4.000000,4.000000,4.000000,4.000000,4.000000,100.000000,,,,,,,,,,,,,,,,
1645707742.181038,1645707742.185875,206.000000,0.000000,4183.461426,3887.564209,4188.333496,4160.897461,4172.563965,4178.589844,4232.820313,4223.846191,4232.820313,4189.487305,4154.102539,4126.025879,4193.077148,4178.974121,2852.000000,4.000000,95.000000,,,,0.000000,4.000000,4.000000,4.000000,4.000000,4.000000,4.000000,4.000000,4.000000,4.000000,4.000000,4.000000,4.000000,4.000000,4.000000,100.000000,,,,,,,,,,,,,,,,
1645707742.184978,1645707742.189816,207.000000,0.000000,4177.436035,3886.666748,4186.282227,4158.589844,4168.461426,4178.846191,4234.358887,4225.512695,4231.794922,4192.563965,4155.512695,4123.077148,4192.820313,4177.307617,3392.000000,4.000000,95.000000,,,,0.000000,4.000000,4.000000,4.000000,4.000000,4.000000,4.000000,4.000000,4.000000,4.000000,4.000000,4.000000,4.000000,4.000000,4.000000,100.000000,,,,,,,,,,,,,,,,
1645707742.188918,1645707742.193756,208.000000,0.000000,4172.436035,3885.128174,4187.179688,4158.589844,4162.051270,4177.436035,4235.128418,4225.384766,4230.769043,4195.128418,4154.358887,4121.153809,4193.461426,4174.102539,3402.000000,4.000000,95.000000,,,,0.000000,4.000000,4.000000,4.000000,4.000000,4.000000,4.000000,4.000000,4.000000,4.000000,4.000000,4.000000,4.000000,4.000000,4.000000,100.000000,,,,,,,,,,,,,,,,
1645707742.192858,1645707742.197696,209.000000,0.000000,4171.410156,3884.102539,4188.974121,4160.128418,4159.487305,4176.794922,4235.384766,4223.717773,4231.153809,4197.051270,4153.333496,4121.666504,4195.769043,4172.179688,3226.000000,4.000000,95.000000,,,,0.000000,4.000000,4.000000,4.000000,4.000000,4.000000,4.000000,4.000000,4.000000,4.000000,4.000000,4.000000,4.000000,4.000000,4.000000,100.000000,,,,,,,,,,,,,,,,
1645707742.196798,1645707742.201637,210.000000,0.000000,4174.358887,3884.615479,4189.743652,4160.384766,4163.333496,4178.846191,4235.769043,4222.563965,4232.820313,4198.589844,4154.871582,4124.102539,4199.102539,4173.205078,2852.000000,4.000000,95.000000,,,,0.000000,4.000000,4.000000,4.000000,4.000000,4.000000,4.000000,4.000000,4.000000,4.000000,4.000000,4.000000,4.000000,4.000000,4.000000,100.000000,,,,,,,,,,,,,,,,
1645707742.200738,1645707742.205577,211.000000,0.000000,4178.589844,3886.923096,4189.487305,4157.692383,4170.384766,4182.436035,4237.563965,4225.128418,4234.487305,4199.871582,4158.589844,4126.538574,4201.282227,4176.922852,3392.000000,4.000000,95.000000,,,,0.000000,4.000000,4.000000,4.000000,4.000000,4.000000,4.000000,4.000000,4.000000,4.000000,4.000000,4.000000,4.000000,4.000000,4.000000,100.000000,,,,,,,,,,,,,,,,
1645707742.204678,1645707742.209518,212.000000,0.000000,4180.512695,3889.743652,4190.128418,4152.948730,4175.384766,4185.128418,4241.025879,4232.179688,4235.000000,4200.384766,4161.794922,4127.179688,4201.153809,4180.641113,3402.000000,4.000000,95.000000,,,,0.000000,4.000000,4.000000,4.000000,4.000000,4.000000,4.000000,4.000000,4.000000,4.000000,4.000000,4.000000,4.000000,4.000000,4.000000,100.000000,,,,,,,,,,,,,,,,
1645707742.208618,1645707742.213458,213.000000,0.000000,4179.102539,3891.281982,4192.820313,4148.717773,4174.615234,4184.615234,4244.230957,4240.256348,4234.615234,4200.384766,4162.307617,4125.897461,4198.974121,4182.179688,3226.000000,4.000000,95.000000,,,,0.000000,4.000000,4.000000,4.000000,4.000000,4.000000,4.000000,4.000000,4.000000,4.000000,4.000000,4.000000,4.000000,4.000000,4.000000,100.000000,,,,,,,,,,,,,,,,
1645707742.212558,1645707742.217398,214.000000,0.000000,4176.153809,3890.897461,4196.153809,4146.538574,4168.717773,4180.897461,4243.974121,4243.974121,4233.974121,4200.256348,4159.743652,4124.102539,4196.153809,4180.512695,2852.000000,4.000000,95.000000,,,,0.000000,4.000000,4.000000,4.000000,4.000000,4.000000,4.000000,4.000000,4.000000,4.000000,4.000000,4.000000,4.000000,4.000000,4.000000,100.000000,,,,,,,,,,,,,,,,
1645707742.216498,1645707742.221339,215.000000,0.000000,4173.333496,3888.333252,4196.922852,4145.256348,4161.025879,4176.153809,4239.102539,4240.384766,4232.948730,4199.358887,4155.897461,4122.820313,4193.205078,4176.282227,3392.000000,4.000000,95.000000,,,,0.000000,4.000000,4.000000,4.000000,4.000000,4.000000,4.000000,4.000000,4.000000,4.000000,4.000000,4.000000,4.000000,4.000000,4.000000,100.000000,,,,,,,,,,,,,,,,
1645707742.220438,1645707742.225279,216.000000,0.000000,4170.641113,3884.230713,4193.333496,4142.436035,4156.025879,4172.820313,4231.666504,4232.179688,4231.666504,4197.563965,4152.179688,4122.179688,4190.641113,4170.897461,3402.000000,4.000000,95.000000,,,,0.000000,4.000000,4.000000,4.000000,4.000000,4.000000,4.000000,4.000000,4.000000,4.000000,4.000000,4.000000,4.000000,4.000000,4.000000,100.000000,,,,,,,,,,,,,,,,
1645707742.224378,1645707742.229219,217.000000,0.000000,4167.436035,3880.384521,4186.922852,4137.692383,4155.897461,4172.051270,4226.153809,4225.897461,4230.512695,4195.897461,4149.871582,4121.538574,4188.589844,4166.538574,3226.000000,4.000000,95.000000,,,,0.000000,4.000000,4.000000,4.000000,4.000000,4.000000,4.000000,4.000000,4.000000,4.000000,4.000000,4.000000,4.000000,4.000000,4.000000,100.000000,,,,,,,,,,,,,,,,
1645707742.228319,1645707742.233160,218.000000,0.000000,4164.871582,3879.358887,4181.538574,4134.230957,4159.871582,4173.974121,4225.641113,4225.384766,4230.512695,4195.897461,4149.743652,4121.153809,4188.333496,4165.256348,2852.000000,4.000000,95.000000,,,,0.000000,4.000000,4.000000,4.000000,4.000000,4.000000,4.000000,4.000000,4.000000,4.000000,4.000000,4.000000,4.000000,4.000000,4.000000,100.000000,,,,,,,,,,,,,,,,
1645707742.232258,1645707742.237100,219.000000,0.000000,4165.512695,3882.179443,4180.256348,4135.384766,4164.487305,4177.307617,4228.846191,4229.358887,4231.538574,4197.692383,4151.666504,4122.692383,4190.000000,4167.307617,3392.000000,4.000000,95.000000,,,,0.000000,4.000000,4.000000,4.000000,4.000000,4.000000,4.000000,4.000000,4.000000,4.000000,4.000000,4.000000,4.000000,4.000000,4.000000,100.000000,,,,,,,,,,,,,,,,
1645707742.236199,1645707742.241040,220.000000,0.000000,4169.871582,3887.564209,4183.589844,4140.128418,4166.794922,4179.871582,4232.436035,4233.205078,4232.436035,4199.102539,4154.358887,4126.794922,4192.179688,4171.153809,3402.000000,4.000000,95.000000,,,,0.000000,4.000000,4.000000,4.000000,4.000000,4.000000,4.000000,4.000000,4.000000,4.000000,4.000000,4.000000,4.000000,4.000000,4.000000,100.000000,,,,,,,,,,,,,,,,
1645707742.240139,1645707742.244981,221.000000,0.000000,4174.743652,3891.794922,4189.230957,4143.205078,4166.538574,4179.871582,4233.717773,4233.333496,4232.051270,4197.179688,4155.897461,4132.436035,4192.307617,4173.205078,3226.000000,4.000000,95.000000,,,,0.000000,4.000000,4.000000,4.000000,4.000000,4.000000,4.000000,4.000000,4.000000,4.000000,4.000000,4.000000,4.000000,4.000000,4.000000,100.000000,,,,,,,,,,,,,,,,
1645707742.244079,1645707742.248921,222.000000,0.000000,4175.769043,3892.051270,4193.205078,4140.384766,4165.897461,4177.179688,4232.820313,4229.871582,4230.897461,4191.794922,4155.384766,4136.538574,4188.461426,4170.769043,2852.000000,4.000000,95.000000,,,,0.000000,4.000000,4.000000,4.000000,4.000000,4.000000,4.000000,4.000000,4.000000,4.000000,4.000000,4.000000,4.000000,4.000000,4.000000,100.000000,,,,,,,,,,,,,,,,
1645707742.248019,1645707742.252861,223.000000,0.000000,4172.179688,3888.076904,4193.589844,4133.077148,4166.538574,4173.717773,4230.641113,4225.769043,4230.000000,4185.897461,4153.717773,4136.922852,4181.922852,4164.743652,3392.000000,4.000000,95.000000,,,,0.000000,4.000000,4.000000,4.000000,4.000000,4.000000,4.000000,4.000000,4.000000,4.000000,4.000000,4.000000,4.000000,4.000000,4.000000,100.000000,,,,,,,,,,,,,,,,
1645707742.251959,1645707742.256702,224.000000,0.000000,4166.666504,3881.923096,4191.410156,4127.051270,4167.563965,4171.666504,4228.077148,4224.230957,4230.256348,4183.846191,4153.333496,4133.717773,4176.410156,4158.717773,3402.000000,4.000000,95.000000,,,,0.000000,4.000000,4.000000,4.000000,4.000000,4.000000,4.000000,4.000000,4.000000,4.000000,4.000000,4.000000,4.000000,4.000000,4.000000,100.000000,,,,,,,,,,,,,,,,
1645707742.255899,1645707742.260642,225.000000,0.000000,4163.717773,3876.666748,4190.256348,4126.410156,4166.410156,4172.307617,4225.897461,4226.025879,4231.282227,4187.307617,4155.769043,4129.487305,4175.384766,4156.538574,3226.000000,4.000000,95.000000,,,,0.000000,4.000000,4.000000,4.000000,4.000000,4.000000,4.000000,4.000000,4.000000,4.000000,4.000000,4.000000,4.000000,4.000000,4.000000,100.000000,,,,,,,,,,,,,,,,
1645707742.259839,1645707742.264582,226.000000,0.000000,4165.512695,3874.871826,4192.436035,4130.000000,4161.922852,4173.974121,4225.128418,4230.128418,4232.436035,4193.974121,4159.871582,4128.077148,4179.358887,4159.358887,2852.000000,4.000000,95.000000,,,,0.000000,4.000000,4.000000,4.000000,4.000000,4.000000,4.000000,4.000000,4.000000,4.000000,4.000000,4.000000,4.000000,4.000000,4.000000,100.000000,,,,,,,,,,,,,,,,
1645707742.263779,1645707742.268523,227.000000,0.000000,4170.897461,3877.179443,4197.563965,4133.333496,4157.307617,4175.128418,4227.179688,4234.230957,4232.563965,4199.358887,4163.333496,4130.512695,4185.512695,4165.384766,3392.000000,4.000000,95.000000,,,,0.000000,4.000000,4.000000,4.000000,4.000000,4.000000,4.000000,4.000000,4.000000,4.000000,4.000000,4.000000,4.000000,4.000000,4.000000,100.000000,,,,,,,,,,,,,,,,
1645707742.267719,1645707742.272463,228.000000,0.000000,4177.179688,3883.589844,4202.051270,4133.589844,4157.820313,4175.769043,4231.410156,4236.538574,4232.179688,4201.538574,4165.128418,4135.512695,4190.641113,4172.179688,3402.000000,4.000000,95.000000,,,,0.000000,4.000000,4.000000,4.000000,4.000000,4.000000,4.000000,4.000000,4.000000,4.000000,4.000000,4.000000,4.000000,4.000000,4.000000,100.000000,,,,,,,,,,,,,,,,
1645707742.271659,1645707742.276403,229.000000,0.000000,4182.051270,3892.435791,4202.436035,4130.384766,4165.897461,4177.179688,4235.512695,4236.666504,4232.179688,4201.666504,4166.282227,4140.000000,4192.948730,4177.692383,3226.000000,4.000000,95.000000,,,,0.000000,4.000000,4.000000,4.000000,4.000000,4.000000,4.000000,4.000000,4.000000,4.000000,4.000000,4.000000,4.000000,4.000000,4.000000,100.000000,,,,,,,,,,,,,,,,
1645707742.275599,1645707742.280344,230.000000,0.000000,4184.615234,3900.641113,4198.333496,4125.769043,4177.563965,4179.487305,4236.153809,4234.743652,4232.948730,4201.538574,4167.948730,4141.538574,4193.205078,4180.384766,2852.000000,4.000000,95.000000,,,,0.000000,4.000000,4.000000,4.000000,4.000000,4.000000,4.000000,4.000000,4.000000,4.000000,4.000000,4.000000,4.000000,4.000000,4.000000,100.000000,,,,,,,,,,,,,,,,
