title:Alex-LMs2MEjHnYJwUleF1XbSQA, start timestamp:1645710480.155841, stop timestamp:1645710506.205277, headset type:EPOCPLUS, headset serial:3B9AEBFF, headset firmware:626, channels:55, sampling rate:eeg_256, samples:6612      , version:2.1, 
Timestamp,EEG.Counter,EEG.Interpolated,EEG.AF3,EEG.F7,EEG.F3,EEG.FC5,EEG.T7,EEG.P7,EEG.O1,EEG.O2,EEG.P8,EEG.T8,EEG.FC6,EEG.F4,EEG.F8,EEG.AF4,EEG.RawCq,EEG.Battery,EEG.BatteryPercent,MarkerIndex,MarkerType,MarkerValueInt,EEG.MarkerHardware,CQ.AF3,CQ.F7,CQ.F3,CQ.FC5,CQ.T7,CQ.P7,CQ.O1,CQ.O2,CQ.P8,CQ.T8,CQ.FC6,CQ.F4,CQ.F8,CQ.AF4,CQ.Overall,EQ.SampleRateQuality,EQ.OVERALL,EQ.AF3,EQ.F7,EQ.F3,EQ.FC5,EQ.T7,EQ.P7,EQ.O1,EQ.O2,EQ.P8,EQ.T8,EQ.FC6,EQ.F4,EQ.F8,EQ.AF4
1645710480.155841,227.000000,0.000000,4053.974365,4174.102539,4210.256348,4196.410156,4224.871582,4220.641113,4217.179688,4201.794922,4213.717773,4208.205078,4204.230957,4174.230957,4271.666504,4220.128418,2744.000000,4.000000,86.000000,,,,0.000000,4.000000,4.000000,4.000000,4.000000,4.000000,4.000000,4.000000,2.000000,4.000000,4.000000,4.000000,4.000000,4.000000,4.000000,83.333336,,,,,,,,,,,,,,,,
1645710480.159681,228.000000,0.000000,4057.179443,4174.102539,4212.179688,4204.487305,4227.051270,4222.051270,4217.179688,4203.077148,4215.641113,4212.563965,4206.153809,4172.692383,4273.077148,4220.897461,3442.000000,4.000000,86.000000,,,,0.000000,4.000000,4.000000,4.000000,4.000000,4.000000,4.000000,4.000000,2.000000,4.000000,4.000000,4.000000,4.000000,4.000000,4.000000,83.333336,,,,,,,,,,,,,,,,
1645710480.163621,229.000000,0.000000,4063.333252,4178.461426,4217.948730,4211.794922,4223.461426,4220.641113,4217.820313,4205.897461,4217.948730,4216.538574,4207.179688,4172.948730,4274.743652,4223.846191,2978.000000,4.000000,86.000000,,,,0.000000,4.000000,4.000000,4.000000,4.000000,4.000000,4.000000,4.000000,2.000000,4.000000,4.000000,4.000000,4.000000,4.000000,4.000000,83.333336,,,,,,,,,,,,,,,,
1645710480.167561,230.000000,0.000000,4067.692383,4186.282227,4224.102539,4216.153809,4216.153809,4217.948730,4218.717773,4208.205078,4220.256348,4219.230957,4208.333496,4174.102539,4275.897461,4227.436035,2362.000000,4.000000,86.000000,,,,0.000000,4.000000,4.000000,4.000000,4.000000,4.000000,4.000000,4.000000,2.000000,4.000000,4.000000,4.000000,4.000000,4.000000,4.000000,83.333336,,,,,,,,,,,,,,,,
1645710480.171501,231.000000,0.000000,4067.307617,4194.358887,4226.153809,4217.307617,4210.897461,4216.025879,4218.717773,4208.846191,4221.922852,4220.384766,4209.102539,4174.230957,4276.025879,4229.358887,2744.000000,4.000000,86.000000,,,,0.000000,4.000000,4.000000,4.000000,4.000000,4.000000,4.000000,4.000000,2.000000,4.000000,4.000000,4.000000,4.000000,4.000000,4.000000,83.333336,,,,,,,,,,,,,,,,
1645710480.175442,232.000000,0.000000,4063.974365,4198.846191,4222.307617,4215.897461,4211.922852,4215.256348,4217.563965,4208.461426,4221.666504,4219.358887,4207.692383,4172.692383,4274.230957,4227.692383,3442.000000,4.000000,86.000000,,,,0.000000,4.000000,4.000000,4.000000,4.000000,4.000000,4.000000,4.000000,2.000000,4.000000,4.000000,4.000000,4.000000,4.000000,4.000000,83.333336,,,,,,,,,,,,,,,,
1645710480.179382,233.000000,0.000000,4061.666748,4197.563965,4215.000000,4212.307617,4218.974121,4214.743652,4216.282227,4208.333496,4219.358887,4215.897461,4203.846191,4171.282227,4270.769043,4223.717773,2978.000000,4.000000,86.000000,,,,0.000000,4.000000,4.000000,4.000000,4.000000,4.000000,4.000000,4.000000,2.000000,4.000000,4.000000,4.000000,4.000000,4.000000,4.000000,83.333336,,,,,,,,,,,,,,,,
1645710480.183322,234.000000,0.000000,4061.923096,4192.179688,4209.871582,4208.077148,4228.077148,4214.358887,4216.666504,4209.487305,4216.666504,4212.563965,4200.384766,4172.563965,4267.948730,4221.282227,2362.000000,4.000000,86.000000,,,,0.000000,4.000000,4.000000,4.000000,4.000000,4.000000,4.000000,4.000000,2.000000,4.000000,4.000000,4.000000,4.000000,4.000000,4.000000,83.333336,,,,,,,,,,,,,,,,
1645710480.187262,235.000000,0.000000,4062.820557,4187.179688,4210.512695,4204.230957,4234.358887,4214.487305,4219.230957,4211.025879,4215.641113,4212.436035,4201.153809,4176.794922,4268.205078,4223.333496,2744.000000,4.000000,86.000000,,,,0.000000,4.000000,4.000000,4.000000,4.000000,4.000000,4.000000,4.000000,2.000000,4.000000,4.000000,4.000000,4.000000,4.000000,4.000000,83.333336,,,,,,,,,,,,,,,,
1645710480.191202,236.000000,0.000000,4062.435791,4185.897461,4215.512695,4201.538574,4234.487305,4215.769043,4222.820313,4211.538574,4217.307617,4216.666504,4206.794922,4181.025879,4272.307617,4229.102539,3442.000000,4.000000,86.000000,,,,0.000000,4.000000,4.000000,4.000000,4.000000,4.000000,4.000000,4.000000,2.000000,4.000000,4.000000,4.000000,4.000000,4.000000,4.000000,83.333336,,,,,,,,,,,,,,,,
1645710480.195142,237.000000,0.000000,4061.153809,4187.051270,4219.487305,4199.230957,4228.717773,4217.563965,4225.512695,4210.897461,4219.871582,4222.051270,4213.717773,4182.051270,4276.538574,4233.846191,2978.000000,4.000000,86.000000,,,,0.000000,4.000000,4.000000,4.000000,4.000000,4.000000,4.000000,4.000000,2.000000,4.000000,4.000000,4.000000,4.000000,4.000000,4.000000,83.333336,,,,,,,,,,,,,,,,
1645710480.199082,238.000000,0.000000,4060.512939,4187.051270,4218.333496,4197.563965,4220.384766,4218.333496,4225.897461,4210.128418,4220.769043,4223.461426,4216.794922,4178.589844,4276.794922,4233.205078,2362.000000,4.000000,86.000000,,,,0.000000,4.000000,4.000000,4.000000,4.000000,4.000000,4.000000,4.000000,2.000000,4.000000,4.000000,4.000000,4.000000,4.000000,4.000000,83.333336,,,,,,,,,,,,,,,,
1645710480.203022,239.000000,0.000000,4060.256348,4183.077148,4212.051270,4198.077148,4213.461426,4217.051270,4224.615234,4209.743652,4218.461426,4218.974121,4213.461426,4172.692383,4271.666504,4226.666504,2744.000000,4.000000,86.000000,,,,0.000000,4.000000,4.000000,4.000000,4.000000,4.000000,4.000000,4.000000,2.000000,4.000000,4.000000,4.000000,4.000000,4.000000,4.000000,83.333336,,,,,,,,,,,,,,,,
1645710480.206962,240.000000,0.000000,4058.589844,4176.922852,4205.000000,4201.666504,4211.153809,4214.871582,4223.077148,4208.846191,4214.487305,4211.538574,4206.282227,4167.692383,4264.230957,4218.205078,3442.000000,4.000000,86.000000,,,,0.000000,4.000000,4.000000,4.000000,4.000000,4.000000,4.000000,4.000000,2.000000,4.000000,4.000000,4.000000,4.000000,4.000000,4.000000,83.333336,,,,,,,,,,,,,,,,
1645710480.210903,241.000000,0.000000,4054.871826,4172.563965,4201.153809,4206.666504,4213.333496,4213.717773,4221.794922,4206.538574,4211.666504,4206.282227,4200.256348,4165.512695,4259.230957,4212.436035,2978.000000,4.000000,86.000000,,,,0.000000,4.000000,4.000000,4.000000,4.000000,4.000000,4.000000,4.000000,2.000000,4.000000,4.000000,4.000000,4.000000,4.000000,4.000000,83.333336,,,,,,,,,,,,,,,,
1645710480.214843,242.000000,0.000000,4051.538574,4172.692383,4201.410156,4209.358887,4217.179688,4214.230957,4220.512695,4203.589844,4211.666504,4205.769043,4198.333496,4166.025879,4258.717773,4211.794922,2362.000000,4.000000,86.000000,,,,0.000000,4.000000,4.000000,4.000000,4.000000,4.000000,4.000000,4.000000,2.000000,4.000000,4.000000,4.000000,4.000000,4.000000,4.000000,83.333336,,,,,,,,,,,,,,,,
1645710480.218783,243.000000,0.000000,4051.794922,4176.282227,4204.358887,4207.179688,4219.358887,4214.743652,4218.717773,4202.051270,4213.461426,4208.846191,4200.128418,4167.948730,4261.922852,4215.769043,2744.000000,4.000000,86.000000,,,,0.000000,4.000000,4.000000,4.000000,4.000000,4.000000,4.000000,4.000000,2.000000,4.000000,4.000000,4.000000,4.000000,4.000000,4.000000,83.333336,,,,,,,,,,,,,,,,
1645710480.222623,244.000000,0.000000,4055.641113,4179.743652,4207.948730,4202.051270,4219.230957,4214.102539,4216.922852,4202.563965,4215.128418,4212.692383,4203.077148,4170.641113,4265.897461,4221.410156,3442.000000,4.000000,86.000000,,,,0.000000,4.000000,4.000000,4.000000,4.000000,4.000000,4.000000,4.000000,2.000000,4.000000,4.000000,4.000000,4.000000,4.000000,4.000000,83.333336,,,,,,,,,,,,,,,,
1645710480.226563,245.000000,0.000000,4059.743652,4180.897461,4210.769043,4199.358887,4219.487305,4212.692383,4215.897461,4203.589844,4215.512695,4215.000000,4206.538574,4173.974121,4268.717773,4225.769043,2978.000000,4.000000,86.000000,,,,0.000000,4.000000,4.000000,4.000000,4.000000,4.000000,4.000000,4.000000,2.000000,4.000000,4.000000,4.000000,4.000000,4.000000,4.000000,83.333336,,,,,,,,,,,,,,,,
1645710480.230503,246.000000,0.000000,4061.153809,4180.512695,4212.948730,4202.820313,4221.666504,4211.794922,4215.897461,4203.461426,4215.000000,4215.512695,4210.128418,4178.333496,4269.615234,4227.436035,2362.000000,4.000000,86.000000,,,,0.000000,4.000000,4.000000,4.000000,4.000000,4.000000,4.000000,4.000000,2.000000,4.000000,4.000000,4.000000,4.000000,4.000000,4.000000,83.333336,,,,,,,,,,,,,,,,
1645710480.234443,247.000000,0.000000,4060.769287,4181.282227,4214.487305,4210.641113,4223.846191,4211.666504,4215.897461,4201.794922,4214.230957,4214.743652,4213.461426,4183.205078,4269.358887,4227.563965,2744.000000,4.000000,86.000000,,,,0.000000,4.000000,4.000000,4.000000,4.000000,4.000000,4.000000,4.000000,2.000000,4.000000,4.000000,4.000000,4.000000,4.000000,4.000000,83.333336,,,,,,,,,,,,,,,,
1645710480.238383,248.000000,0.000000,4061.794922,4184.358887,4215.769043,4216.794922,4222.692383,4211.410156,4215.256348,4199.871582,4213.461426,4213.461426,4215.256348,4186.666504,4268.589844,4228.205078,3442.000000,4.000000,86.000000,,,,0.000000,4.000000,4.000000,4.000000,4.000000,4.000000,4.000000,4.000000,2.000000,4.000000,4.000000,4.000000,4.000000,4.000000,4.000000,83.333336,,,,,,,,,,,,,,,,
1645710480.242323,249.000000,0.000000,4065.384521,4188.717773,4216.794922,4216.410156,4217.948730,4210.512695,4213.974121,4199.102539,4212.436035,4212.820313,4214.871582,4187.179688,4267.820313,4230.641113,2978.000000,4.000000,86.000000,,,,0.000000,4.000000,4.000000,4.000000,4.000000,4.000000,4.000000,4.000000,2.000000,4.000000,4.000000,4.000000,4.000000,4.000000,4.000000,83.333336,,,,,,,,,,,,,,,,
1645710480.246264,250.000000,0.000000,4068.718018,4191.794922,4217.307617,4209.743652,4213.461426,4210.128418,4213.589844,4199.615234,4211.410156,4213.717773,4213.205078,4185.128418,4267.948730,4233.461426,2362.000000,4.000000,86.000000,,,,0.000000,4.000000,4.000000,4.000000,4.000000,4.000000,4.000000,4.000000,2.000000,4.000000,4.000000,4.000000,4.000000,4.000000,4.000000,83.333336,,,,,,,,,,,,,,,,
1645710480.250204,251.000000,0.000000,4068.461426,4191.153809,4217.051270,4201.922852,4213.077148,4211.538574,4214.487305,4200.128418,4210.384766,4215.769043,4212.179688,4182.051270,4269.230957,4234.230957,2744.000000,4.000000,86.000000,,,,0.000000,4.000000,4.000000,4.000000,4.000000,4.000000,4.000000,4.000000,2.000000,4.000000,4.000000,4.000000,4.000000,4.000000,4.000000,83.333336,,,,,,,,,,,,,,,,
1645710480.254144,252.000000,0.000000,4065.128174,4186.153809,4216.410156,4198.589844,4217.051270,4213.846191,4216.025879,4200.256348,4209.743652,4216.794922,4212.051270,4179.743652,4270.641113,4231.538574,3442.000000,4.000000,86.000000,,,,0.000000,4.000000,4.000000,4.000000,4.000000,4.000000,4.000000,4.000000,2.000000,4.000000,4.000000,4.000000,4.000000,4.000000,4.000000,83.333336,,,,,,,,,,,,,,,,
1645710480.258084,253.000000,0.000000,4062.307617,4179.358887,4215.256348,4201.153809,4221.922852,4215.000000,4216.538574,4200.000000,4209.871582,4214.871582,4211.666504,4178.461426,4270.641113,4226.794922,2978.000000,4.000000,86.000000,,,,0.000000,4.000000,4.000000,4.000000,4.000000,4.000000,4.000000,4.000000,2.000000,4.000000,4.000000,4.000000,4.000000,4.000000,4.000000,83.333336,,,,,,,,,,,,,,,,
1645710480.262024,254.000000,0.000000,4062.307617,4175.128418,4213.717773,4207.179688,4223.846191,4213.589844,4215.384766,4199.615234,4211.282227,4210.897461,4210.384766,4177.948730,4268.589844,4222.948730,2362.000000,4.000000,86.000000,,,,0.000000,4.000000,4.000000,4.000000,4.000000,4.000000,4.000000,4.000000,2.000000,4.000000,4.000000,4.000000,4.000000,4.000000,4.000000,83.333336,,,,,,,,,,,,,,,,
1645710480.265964,255.000000,0.000000,4063.205078,4177.051270,4211.794922,4212.051270,4223.077148,4211.538574,4213.846191,4198.974121,4213.846191,4208.205078,4209.230957,4177.307617,4266.153809,4222.051270,113.000000,4.000000,86.000000,,,,0.000000,4.000000,4.000000,4.000000,4.000000,4.000000,4.000000,4.000000,2.000000,4.000000,4.000000,4.000000,4.000000,4.000000,4.000000,83.333336,,,,,,,,,,,,,,,,
1645710480.269904,0.000000,0.000000,4062.692383,4184.102539,4209.615234,4213.589844,4222.563965,4211.410156,4213.974121,4198.077148,4217.051270,4209.102539,4209.615234,4176.282227,4265.256348,4223.589844,3278.000000,4.000000,86.000000,,,,0.000000,4.000000,4.000000,4.000000,4.000000,4.000000,4.000000,4.000000,2.000000,4.000000,4.000000,4.000000,4.000000,4.000000,4.000000,83.333336,,,,,,,,,,,,,,,,
1645710480.273844,1.000000,0.000000,4061.281982,4191.025879,4207.307617,4212.948730,4224.615234,4213.077148,4216.410156,4197.692383,4219.102539,4212.948730,4210.897461,4175.256348,4266.025879,4225.384766,3370.000000,4.000000,86.000000,,,,0.000000,4.000000,4.000000,4.000000,4.000000,4.000000,4.000000,4.000000,2.000000,4.000000,4.000000,4.000000,4.000000,4.000000,4.000000,83.333336,,,,,,,,,,,,,,,,
1645710480.277784,2.000000,0.000000,4061.794922,4192.051270,4205.384766,4212.436035,4227.436035,4214.102539,4219.615234,4198.077148,4218.974121,4215.769043,4210.384766,4173.974121,4266.794922,4225.512695,2178.000000,4.000000,86.000000,,,,0.000000,4.000000,4.000000,4.000000,4.000000,4.000000,4.000000,4.000000,2.000000,4.000000,4.000000,4.000000,4.000000,4.000000,4.000000,83.333336,,,,,,,,,,,,,,,,
1645710480.281725,3.000000,0.000000,4064.615479,4186.538574,4204.358887,4212.563965,4228.205078,4212.307617,4221.153809,4197.820313,4217.307617,4214.871582,4206.794922,4171.922852,4265.897461,4223.461426,3351.000000,4.000000,86.000000,,,,0.000000,4.000000,4.000000,4.000000,4.000000,4.000000,4.000000,4.000000,2.000000,4.000000,4.000000,4.000000,4.000000,4.000000,4.000000,83.333336,,,,,,,,,,,,,,,,
1645710480.285665,4.000000,0.000000,4066.794922,4179.230957,4204.487305,4212.307617,4226.282227,4208.846191,4219.358887,4195.512695,4215.384766,4210.512695,4202.436035,4169.102539,4263.589844,4220.256348,3584.000000,4.000000,86.000000,,,,0.000000,4.000000,4.000000,4.000000,4.000000,4.000000,4.000000,4.000000,2.000000,4.000000,4.000000,4.000000,4.000000,4.000000,4.000000,83.333336,,,,,,,,,,,,,,,,
1645710480.289605,5.000000,0.000000,4065.769287,4177.051270,4205.256348,4210.384766,4223.077148,4206.410156,4215.256348,4191.153809,4214.615234,4206.025879,4200.641113,4166.794922,4261.538574,4217.436035,3375.000000,4.000000,86.000000,,,,0.000000,4.000000,4.000000,4.000000,4.000000,4.000000,4.000000,4.000000,2.000000,4.000000,4.000000,4.000000,4.000000,4.000000,4.000000,83.333336,,,,,,,,,,,,,,,,
1645710480.293545,6.000000,0.000000,4063.076904,4182.948730,4206.410156,4207.307617,4220.000000,4206.794922,4210.897461,4187.436035,4214.615234,4203.717773,4203.205078,4166.153809,4260.512695,4217.307617,3305.000000,4.000000,86.000000,,,,0.000000,4.000000,4.000000,4.000000,4.000000,4.000000,4.000000,4.000000,2.000000,4.000000,4.000000,4.000000,4.000000,4.000000,4.000000,83.333336,0.984375,41.666668,0.000000,4.000000,4.000000,4.000000,4.000000,4.000000,4.000000,1.000000,4.000000,4.000000,4.000000,4.000000,4.000000,4.000000
1645710480.297385,7.000000,0.000000,4062.820557,4193.205078,4208.077148,4205.000000,4217.436035,4209.102539,4208.589844,4187.563965,4214.230957,4203.846191,4208.077148,4167.948730,4261.025879,4220.641113,1004.000000,4.000000,86.000000,,,,0.000000,4.000000,4.000000,4.000000,4.000000,4.000000,4.000000,4.000000,2.000000,4.000000,4.000000,4.000000,4.000000,4.000000,4.000000,83.333336,,,,,,,,,,,,,,,,
1645710480.301325,8.000000,0.000000,4066.666748,4200.384766,4210.641113,4205.769043,4216.410156,4211.794922,4209.358887,4191.410156,4213.717773,4205.641113,4212.179688,4171.538574,4262.692383,4226.410156,1349.000000,4.000000,86.000000,,,,0.000000,4.000000,4.000000,4.000000,4.000000,4.000000,4.000000,4.000000,2.000000,4.000000,4.000000,4.000000,4.000000,4.000000,4.000000,83.333336,,,,,,,,,,,,,,,,
1645710480.305265,9.000000,0.000000,4071.538574,4199.615234,4213.974121,4210.128418,4218.717773,4213.974121,4212.436035,4195.256348,4213.974121,4208.717773,4214.358887,4176.153809,4265.641113,4231.666504,3044.000000,4.000000,86.000000,,,,0.000000,4.000000,4.000000,4.000000,4.000000,4.000000,4.000000,4.000000,2.000000,4.000000,4.000000,4.000000,4.000000,4.000000,4.000000,83.333336,,,,,,,,,,,,,,,,
1645710480.309205,10.000000,0.000000,4073.589844,4192.820313,4216.666504,4216.282227,4224.102539,4215.641113,4215.384766,4195.769043,4216.153809,4213.077148,4215.769043,4180.897461,4269.743652,4234.102539,2361.000000,4.000000,86.000000,,,,0.000000,4.000000,4.000000,4.000000,4.000000,4.000000,4.000000,4.000000,2.000000,4.000000,4.000000,4.000000,4.000000,4.000000,4.000000,83.333336,,,,,,,,,,,,,,,,
1645710480.313145,11.000000,0.000000,4072.307617,4186.410156,4218.077148,4220.256348,4230.000000,4216.538574,4216.410156,4192.948730,4218.846191,4217.820313,4217.563965,4184.230957,4273.333496,4233.333496,2738.000000,4.000000,86.000000,,,,0.000000,4.000000,4.000000,4.000000,4.000000,4.000000,4.000000,4.000000,2.000000,4.000000,4.000000,4.000000,4.000000,4.000000,4.000000,83.333336,,,,,,,,,,,,,,,,
1645710480.317086,12.000000,0.000000,4070.641113,4185.897461,4217.563965,4218.974121,4232.692383,4216.410156,4215.641113,4189.743652,4220.641113,4221.025879,4219.615234,4184.743652,4274.615234,4231.666504,3035.000000,4.000000,86.000000,,,,0.000000,4.000000,4.000000,4.000000,4.000000,4.000000,4.000000,4.000000,2.000000,4.000000,4.000000,4.000000,4.000000,4.000000,4.000000,83.333336,,,,,,,,,,,,,,,,
1645710480.321026,13.000000,0.000000,4070.897461,4191.666504,4216.282227,4213.077148,4231.282227,4215.897461,4215.512695,4189.358887,4220.641113,4221.666504,4220.897461,4181.922852,4272.692383,4231.025879,3052.000000,4.000000,86.000000,,,,0.000000,4.000000,4.000000,4.000000,4.000000,4.000000,4.000000,4.000000,2.000000,4.000000,4.000000,4.000000,4.000000,4.000000,4.000000,83.333336,,,,,,,,,,,,,,,,
1645710480.324966,14.000000,0.000000,4072.307617,4199.358887,4215.384766,4207.307617,4228.589844,4216.282227,4217.692383,4191.410156,4220.000000,4221.282227,4221.282227,4177.563965,4268.974121,4231.922852,2361.000000,4.000000,86.000000,,,,0.000000,4.000000,4.000000,4.000000,4.000000,4.000000,4.000000,4.000000,2.000000,4.000000,4.000000,4.000000,4.000000,4.000000,4.000000,83.333336,,,,,,,,,,,,,,,,
1645710480.328906,15.000000,0.000000,4072.435791,4203.717773,4215.769043,4206.666504,4228.974121,4218.077148,4221.410156,4193.461426,4219.358887,4221.666504,4221.153809,4173.589844,4266.153809,4233.205078,2738.000000,4.000000,86.000000,,,,0.000000,4.000000,4.000000,4.000000,4.000000,4.000000,4.000000,4.000000,2.000000,4.000000,4.000000,4.000000,4.000000,4.000000,4.000000,83.333336,,,,,,,,,,,,,,,,
1645710480.332846,16.000000,0.000000,4071.538574,4202.820313,4217.051270,4212.051270,4232.948730,4219.230957,4223.717773,4193.205078,4219.358887,4223.205078,4220.769043,4171.666504,4266.025879,4233.333496,3035.000000,4.000000,86.000000,,,,0.000000,4.000000,4.000000,4.000000,4.000000,4.000000,4.000000,4.000000,2.000000,4.000000,4.000000,4.000000,4.000000,4.000000,4.000000,83.333336,,,,,,,,,,,,,,,,
1645710480.336786,17.000000,0.000000,4071.666748,4198.846191,4217.948730,4219.230957,4237.563965,4218.205078,4222.436035,4191.153809,4218.974121,4224.230957,4219.102539,4171.922852,4268.077148,4232.051270,3052.000000,4.000000,86.000000,,,,0.000000,4.000000,4.000000,4.000000,4.000000,4.000000,4.000000,4.000000,2.000000,4.000000,4.000000,4.000000,4.000000,4.000000,4.000000,83.333336,,,,,,,,,,,,,,,,
1645710480.340726,18.000000,0.000000,4073.846191,4196.282227,4218.077148,4222.948730,4239.615234,4215.128418,4218.846191,4189.743652,4217.307617,4223.205078,4216.410156,4173.461426,4270.128418,4230.641113,2361.000000,4.000000,86.000000,,,,0.000000,4.000000,4.000000,4.000000,4.000000,4.000000,4.000000,4.000000,2.000000,4.000000,4.000000,4.000000,4.000000,4.000000,4.000000,83.333336,,,,,,,,,,,,,,,,
1645710480.344666,19.000000,0.000000,4076.025635,4197.820313,4218.077148,4221.153809,4239.358887,4212.820313,4216.153809,4190.897461,4215.128418,4221.025879,4214.615234,4175.769043,4270.769043,4230.128418,2738.000000,4.000000,86.000000,,,,0.000000,4.000000,4.000000,4.000000,4.000000,4.000000,4.000000,4.000000,2.000000,4.000000,4.000000,4.000000,4.000000,4.000000,4.000000,83.333336,,,,,,,,,,,,,,,,
1645710480.348606,20.000000,0.000000,4075.512939,4201.538574,4218.846191,4215.512695,4238.846191,4213.205078,4216.410156,4193.974121,4214.230957,4219.871582,4215.256348,4178.589844,4269.487305,4230.897461,3035.000000,4.000000,86.000000,,,,0.000000,4.000000,4.000000,4.000000,4.000000,4.000000,4.000000,4.000000,2.000000,4.000000,4.000000,4.000000,4.000000,4.000000,4.000000,83.333336,,,,,,,,,,,,,,,,
1645710480.352547,21.000000,0.000000,4072.820557,4202.948730,4220.384766,4209.358887,4237.692383,4215.512695,4218.717773,4196.538574,4216.153809,4220.641113,4217.820313,4181.282227,4266.922852,4231.666504,3052.000000,4.000000,86.000000,,,,0.000000,4.000000,4.000000,4.000000,4.000000,4.000000,4.000000,4.000000,2.000000,4.000000,4.000000,4.000000,4.000000,4.000000,4.000000,83.333336,,,,,,,,,,,,,,,,
1645710480.356487,22.000000,0.000000,4070.897461,4198.589844,4221.922852,4204.358887,4233.205078,4216.922852,4220.769043,4196.666504,4220.000000,4221.794922,4219.615234,4182.820313,4263.717773,4231.282227,2361.000000,4.000000,86.000000,,,,0.000000,4.000000,4.000000,4.000000,4.000000,4.000000,4.000000,4.000000,2.000000,4.000000,4.000000,4.000000,4.000000,4.000000,4.000000,83.333336,,,,,,,,,,,,,,,,
1645710480.360427,23.000000,0.000000,4071.794922,4190.512695,4222.179688,4201.538574,4224.230957,4216.282227,4221.025879,4194.615234,4222.820313,4220.769043,4219.102539,4183.077148,4260.769043,4229.487305,2738.000000,4.000000,86.000000,,,,0.000000,4.000000,4.000000,4.000000,4.000000,4.000000,4.000000,4.000000,2.000000,4.000000,4.000000,4.000000,4.000000,4.000000,4.000000,83.333336,,,,,,,,,,,,,,,,
1645710480.364367,24.000000,0.000000,4073.846191,4184.743652,4220.897461,4201.410156,4214.487305,4214.615234,4219.615234,4191.282227,4222.179688,4217.051270,4216.794922,4182.563965,4258.589844,4227.179688,3035.000000,4.000000,86.000000,,,,0.000000,4.000000,4.000000,4.000000,4.000000,4.000000,4.000000,4.000000,2.000000,4.000000,4.000000,4.000000,4.000000,4.000000,4.000000,83.333336,,,,,,,,,,,,,,,,
1645710480.368307,25.000000,0.000000,4073.589844,4187.051270,4218.333496,4203.974121,4209.487305,4214.230957,4218.205078,4187.948730,4218.461426,4212.307617,4214.871582,4182.436035,4257.563965,4225.384766,3052.000000,4.000000,86.000000,,,,0.000000,4.000000,4.000000,4.000000,4.000000,4.000000,4.000000,4.000000,2.000000,4.000000,4.000000,4.000000,4.000000,4.000000,4.000000,83.333336,,,,,,,,,,,,,,,,
1645710480.372147,26.000000,0.000000,4070.512939,4195.897461,4215.384766,4206.922852,4211.538574,4215.384766,4217.051270,4185.512695,4213.846191,4208.717773,4214.230957,4182.820313,4257.436035,4225.128418,2361.000000,4.000000,86.000000,,,,0.000000,4.000000,4.000000,4.000000,4.000000,4.000000,4.000000,4.000000,2.000000,4.000000,4.000000,4.000000,4.000000,4.000000,4.000000,83.333336,,,,,,,,,,,,,,,,
1645710480.376087,27.000000,0.000000,4067.692383,4203.333496,4213.077148,4206.666504,4217.820313,4216.538574,4215.897461,4184.743652,4210.769043,4207.307617,4213.846191,4182.692383,4257.436035,4226.153809,2738.000000,4.000000,86.000000,,,,0.000000,4.000000,4.000000,4.000000,4.000000,4.000000,4.000000,4.000000,2.000000,4.000000,4.000000,4.000000,4.000000,4.000000,4.000000,83.333336,,,,,,,,,,,,,,,,
1645710480.380027,28.000000,0.000000,4068.589844,4201.410156,4211.922852,4202.307617,4224.230957,4216.153809,4214.743652,4186.153809,4210.000000,4207.692383,4212.436035,4182.051270,4257.307617,4227.948730,3035.000000,4.000000,86.000000,,,,0.000000,4.000000,4.000000,4.000000,4.000000,4.000000,4.000000,4.000000,2.000000,4.000000,4.000000,4.000000,4.000000,4.000000,4.000000,83.333336,,,,,,,,,,,,,,,,
1645710480.383967,29.000000,0.000000,4072.948730,4190.512695,4212.820313,4197.820313,4228.589844,4215.000000,4214.230957,4188.589844,4210.641113,4209.871582,4210.897461,4182.307617,4257.563965,4230.384766,3052.000000,4.000000,86.000000,,,,0.000000,4.000000,4.000000,4.000000,4.000000,4.000000,4.000000,4.000000,2.000000,4.000000,4.000000,4.000000,4.000000,4.000000,4.000000,83.333336,,,,,,,,,,,,,,,,
1645710480.387908,30.000000,0.000000,4076.538574,4179.487305,4215.641113,4198.846191,4231.153809,4215.128418,4215.384766,4190.256348,4211.410156,4213.974121,4211.666504,4185.000000,4259.102539,4232.692383,2361.000000,4.000000,86.000000,,,,0.000000,4.000000,4.000000,4.000000,4.000000,4.000000,4.000000,4.000000,2.000000,4.000000,4.000000,4.000000,4.000000,4.000000,4.000000,83.333336,,,,,,,,,,,,,,,,
1645710480.391848,31.000000,0.000000,4076.666748,4177.307617,4218.974121,4206.922852,4232.820313,4218.077148,4217.948730,4189.615234,4211.794922,4218.846191,4215.256348,4189.487305,4261.538574,4234.230957,2738.000000,4.000000,86.000000,,,,0.000000,4.000000,4.000000,4.000000,4.000000,4.000000,4.000000,4.000000,2.000000,4.000000,4.000000,4.000000,4.000000,4.000000,4.000000,83.333336,,,,,,,,,,,,,,,,
1645710480.395788,32.000000,0.000000,4074.487061,4185.641113,4221.153809,4216.794922,4233.077148,4221.922852,4220.256348,4186.922852,4211.538574,4221.410156,4218.974121,4192.563965,4263.077148,4234.230957,0.000000,4.000000,86.000000,,,,0.000000,4.000000,4.000000,4.000000,4.000000,4.000000,4.000000,4.000000,2.000000,4.000000,4.000000,4.000000,4.000000,4.000000,4.000000,83.333336,,,,,,,,,,,,,,,,
1645710480.399728,33.000000,0.000000,4073.205078,4197.820313,4221.794922,4221.666504,4231.025879,4223.846191,4220.641113,4184.358887,4210.897461,4219.230957,4219.871582,4190.897461,4261.922852,4232.820313,0.000000,4.000000,86.000000,,,,0.000000,4.000000,4.000000,4.000000,4.000000,4.000000,4.000000,4.000000,2.000000,4.000000,4.000000,4.000000,4.000000,4.000000,4.000000,83.333336,,,,,,,,,,,,,,,,
1645710480.403668,34.000000,0.000000,4073.718018,4205.000000,4221.538574,4218.846191,4226.666504,4222.692383,4218.846191,4183.589844,4210.128418,4213.717773,4217.820313,4184.615234,4258.461426,4231.025879,0.000000,4.000000,86.000000,,,,0.000000,4.000000,4.000000,4.000000,4.000000,4.000000,4.000000,4.000000,2.000000,4.000000,4.000000,4.000000,4.000000,4.000000,4.000000,83.333336,,,,,,,,,,,,,,,,
1645710480.407608,35.000000,0.000000,4073.974365,4203.461426,4221.282227,4211.794922,4221.922852,4219.615234,4216.025879,4184.358887,4210.000000,4209.615234,4215.256348,4177.051270,4255.384766,4230.000000,0.000000,4.000000,86.000000,,,,0.000000,4.000000,4.000000,4.000000,4.000000,4.000000,4.000000,4.000000,2.000000,4.000000,4.000000,4.000000,4.000000,4.000000,4.000000,83.333336,,,,,,,,,,,,,,,,
1645710480.411548,36.000000,0.000000,4072.948730,4195.256348,4221.025879,4205.641113,4219.230957,4216.410156,4213.205078,4185.641113,4211.282227,4211.153809,4214.871582,4172.436035,4255.128418,4229.871582,0.000000,4.000000,86.000000,,,,0.000000,4.000000,4.000000,4.000000,4.000000,4.000000,4.000000,4.000000,2.000000,4.000000,4.000000,4.000000,4.000000,4.000000,4.000000,83.333336,,,,,,,,,,,,,,,,
1645710480.415488,37.000000,0.000000,4071.666748,4186.025879,4220.128418,4203.333496,4219.743652,4213.589844,4211.410156,4186.794922,4214.230957,4217.820313,4216.538574,4172.179688,4257.692383,4230.769043,0.000000,4.000000,86.000000,,,,0.000000,4.000000,4.000000,4.000000,4.000000,4.000000,4.000000,4.000000,2.000000,4.000000,4.000000,4.000000,4.000000,4.000000,4.000000,83.333336,,,,,,,,,,,,,,,,
1645710480.419428,38.000000,0.000000,4072.948730,4181.538574,4219.358887,4204.358887,4222.692383,4211.410156,4210.256348,4188.077148,4217.179688,4225.256348,4218.846191,4175.128418,4260.512695,4233.077148,0.000000,4.000000,86.000000,,,,0.000000,4.000000,4.000000,4.000000,4.000000,4.000000,4.000000,4.000000,2.000000,4.000000,4.000000,4.000000,4.000000,4.000000,4.000000,83.333336,,,,,,,,,,,,,,,,
1645710480.423369,39.000000,0.000000,4075.897461,4184.230957,4219.743652,4207.563965,4225.769043,4210.128418,4209.743652,4189.230957,4218.461426,4228.333496,4219.743652,4178.461426,4261.153809,4236.153809,0.000000,4.000000,86.000000,,,,0.000000,4.000000,4.000000,4.000000,4.000000,4.000000,4.000000,4.000000,2.000000,4.000000,4.000000,4.000000,4.000000,4.000000,4.000000,83.333336,,,,,,,,,,,,,,,,
1645710480.427309,40.000000,0.000000,4077.307617,4191.794922,4221.282227,4211.538574,4226.153809,4210.641113,4209.358887,4188.717773,4217.179688,4225.256348,4218.846191,4179.487305,4258.974121,4238.077148,0.000000,4.000000,86.000000,,,,0.000000,4.000000,4.000000,4.000000,4.000000,4.000000,4.000000,4.000000,2.000000,4.000000,4.000000,4.000000,4.000000,4.000000,4.000000,83.333336,,,,,,,,,,,,,,,,
1645710480.431249,41.000000,0.000000,4074.615479,4198.333496,4221.922852,4213.974121,4222.820313,4212.948730,4209.102539,4186.153809,4214.102539,4217.692383,4215.769043,4177.179688,4254.871582,4236.410156,0.000000,4.000000,86.000000,,,,0.000000,4.000000,4.000000,4.000000,4.000000,4.000000,4.000000,4.000000,2.000000,4.000000,4.000000,4.000000,4.000000,4.000000,4.000000,83.333336,,,,,,,,,,,,,,,,
1645710480.435189,42.000000,0.000000,4069.743652,4198.205078,4219.102539,4212.179688,4218.333496,4215.512695,4208.974121,4183.205078,4210.512695,4208.077148,4211.025879,4171.922852,4250.769043,4230.769043,0.000000,4.000000,86.000000,,,,0.000000,4.000000,4.000000,4.000000,4.000000,4.000000,4.000000,4.000000,2.000000,4.000000,4.000000,4.000000,4.000000,4.000000,4.000000,83.333336,,,,,,,,,,,,,,,,
1645710480.439129,43.000000,0.000000,4066.538574,4191.153809,4212.051270,4205.897461,4217.179688,4216.410156,4209.358887,4182.179688,4208.205078,4200.000000,4206.025879,4166.025879,4247.692383,4224.102539,0.000000,4.000000,86.000000,,,,0.000000,4.000000,4.000000,4.000000,4.000000,4.000000,4.000000,4.000000,2.000000,4.000000,4.000000,4.000000,4.000000,4.000000,4.000000,83.333336,,,,,,,,,,,,,,,,
1645710480.442969,44.000000,0.000000,4066.794922,4182.820313,4203.717773,4198.717773,4222.948730,4216.025879,4210.384766,4183.846191,4208.717773,4196.410156,4203.333496,4161.794922,4246.794922,4220.384766,0.000000,4.000000,86.000000,,,,0.000000,4.000000,4.000000,4.000000,4.000000,4.000000,4.000000,4.000000,2.000000,4.000000,4.000000,4.000000,4.000000,4.000000,4.000000,83.333336,,,,,,,,,,,,,,,,
1645710480.446909,45.000000,0.000000,4067.692383,4179.871582,4198.589844,4196.282227,4234.358887,4216.153809,4212.307617,4186.282227,4212.436035,4200.000000,4205.256348,4160.641113,4248.589844,4221.794922,0.000000,4.000000,86.000000,,,,0.000000,4.000000,4.000000,4.000000,4.000000,4.000000,4.000000,4.000000,2.000000,4.000000,4.000000,4.000000,4.000000,4.000000,4.000000,83.333336,,,,,,,,,,,,,,,,
1645710480.450849,46.000000,0.000000,4066.666748,4184.487305,4199.871582,4201.538574,4246.153809,4218.205078,4214.102539,4188.077148,4218.333496,4210.128418,4210.897461,4162.563965,4252.820313,4226.922852,0.000000,4.000000,86.000000,,,,0.000000,4.000000,4.000000,4.000000,4.000000,4.000000,4.000000,4.000000,2.000000,4.000000,4.000000,4.000000,4.000000,4.000000,4.000000,83.333336,,,,,,,,,,,,,,,,
1645710480.454789,47.000000,0.000000,4064.487061,4192.307617,4205.769043,4211.025879,4251.666504,4220.769043,4214.487305,4188.717773,4223.205078,4221.794922,4216.794922,4165.512695,4257.179688,4232.179688,0.000000,4.000000,86.000000,,,,0.000000,4.000000,4.000000,4.000000,4.000000,4.000000,4.000000,4.000000,2.000000,4.000000,4.000000,4.000000,4.000000,4.000000,4.000000,83.333336,,,,,,,,,,,,,,,,
1645710480.458730,48.000000,0.000000,4063.718018,4197.692383,4211.538574,4217.692383,4248.077148,4221.666504,4213.205078,4188.974121,4224.615234,4228.461426,4218.461426,4166.922852,4258.461426,4234.102539,0.000000,4.000000,86.000000,,,,0.000000,4.000000,4.000000,4.000000,4.000000,4.000000,4.000000,4.000000,2.000000,4.000000,4.000000,4.000000,4.000000,4.000000,4.000000,83.333336,,,,,,,,,,,,,,,,
1645710480.462670,49.000000,0.000000,4065.000000,4198.717773,4213.077148,4217.051270,4238.461426,4219.743652,4211.538574,4189.358887,4222.179688,4227.051270,4215.256348,4165.512695,4255.769043,4231.794922,0.000000,4.000000,86.000000,,,,0.000000,4.000000,4.000000,4.000000,4.000000,4.000000,4.000000,4.000000,2.000000,4.000000,4.000000,4.000000,4.000000,4.000000,4.000000,83.333336,,,,,,,,,,,,,,,,
1645710480.466610,50.000000,0.000000,4066.410156,4197.307617,4210.512695,4211.666504,4230.256348,4217.563965,4211.282227,4189.230957,4218.717773,4221.410156,4210.512695,4162.307617,4250.769043,4227.179688,0.000000,4.000000,86.000000,,,,0.000000,4.000000,4.000000,4.000000,4.000000,4.000000,4.000000,4.000000,2.000000,4.000000,4.000000,4.000000,4.000000,4.000000,4.000000,83.333336,,,,,,,,,,,,,,,,
1645710480.470550,51.000000,0.000000,4066.281982,4195.897461,4206.666504,4207.948730,4228.974121,4217.948730,4213.333496,4188.717773,4217.563965,4217.179688,4208.077148,4159.743652,4246.922852,4223.205078,0.000000,4.000000,86.000000,,,,0.000000,4.000000,4.000000,4.000000,4.000000,4.000000,4.000000,4.000000,2.000000,4.000000,4.000000,4.000000,4.000000,4.000000,4.000000,83.333336,,,,,,,,,,,,,,,,
1645710480.474490,52.000000,0.000000,4065.769287,4194.871582,4205.000000,4209.615234,4233.333496,4220.897461,4216.922852,4188.461426,4219.230957,4217.692383,4209.487305,4159.358887,4245.897461,4222.307617,0.000000,4.000000,86.000000,,,,0.000000,4.000000,4.000000,4.000000,4.000000,4.000000,4.000000,4.000000,2.000000,4.000000,4.000000,4.000000,4.000000,4.000000,4.000000,83.333336,,,,,,,,,,,,,,,,
1645710480.478430,53.000000,0.000000,4067.307617,4192.948730,4206.410156,4213.974121,4236.794922,4224.230957,4220.256348,4189.102539,4221.666504,4221.025879,4212.820313,4161.153809,4247.179688,4224.487305,0.000000,4.000000,86.000000,,,,0.000000,4.000000,4.000000,4.000000,4.000000,4.000000,4.000000,4.000000,2.000000,4.000000,4.000000,4.000000,4.000000,4.000000,4.000000,83.333336,,,,,,,,,,,,,,,,
1645710480.482370,54.000000,0.000000,4070.769287,4190.128418,4209.743652,4214.871582,4235.512695,4225.769043,4222.307617,4189.615234,4223.205078,4224.358887,4215.128418,4163.461426,4249.230957,4228.205078,0.000000,4.000000,86.000000,,,,0.000000,4.000000,4.000000,4.000000,4.000000,4.000000,4.000000,4.000000,2.000000,4.000000,4.000000,4.000000,4.000000,4.000000,4.000000,83.333336,,,,,,,,,,,,,,,,
1645710480.486310,55.000000,0.000000,4073.205078,4188.846191,4212.948730,4208.974121,4231.538574,4225.769043,4222.948730,4188.974121,4223.333496,4226.666504,4216.025879,4164.871582,4251.666504,4231.410156,0.000000,4.000000,86.000000,,,,0.000000,4.000000,4.000000,4.000000,4.000000,4.000000,4.000000,4.000000,2.000000,4.000000,4.000000,4.000000,4.000000,4.000000,4.000000,83.333336,,,,,,,,,,,,,,,,
1645710480.490250,56.000000,0.000000,4072.179443,4191.282227,4214.487305,4199.230957,4230.000000,4225.384766,4221.922852,4187.563965,4223.333496,4228.589844,4216.666504,4164.358887,4254.487305,4232.820313,0.000000,4.000000,86.000000,,,,0.000000,4.000000,4.000000,4.000000,4.000000,4.000000,4.000000,4.000000,2.000000,4.000000,4.000000,4.000000,4.000000,4.000000,4.000000,83.333336,,,,,,,,,,,,,,,,
1645710480.494191,57.000000,0.000000,4069.487061,4196.538574,4214.615234,4192.820313,4232.179688,4225.000000,4219.487305,4187.692383,4223.717773,4230.384766,4218.205078,4162.692383,4256.666504,4231.922852,0.000000,4.000000,86.000000,,,,0.000000,4.000000,4.000000,4.000000,4.000000,4.000000,4.000000,4.000000,2.000000,4.000000,4.000000,4.000000,4.000000,4.000000,4.000000,83.333336,,,,,,,,,,,,,,,,
1645710480.498131,58.000000,0.000000,4068.333252,4201.410156,4213.589844,4195.128418,4234.487305,4223.589844,4215.769043,4190.512695,4224.615234,4230.897461,4219.743652,4161.410156,4257.179688,4230.128418,0.000000,4.000000,86.000000,,,,0.000000,4.000000,4.000000,4.000000,4.000000,4.000000,4.000000,4.000000,2.000000,4.000000,4.000000,4.000000,4.000000,4.000000,4.000000,83.333336,,,,,,,,,,,,,,,,
1645710480.502071,59.000000,0.000000,4070.128174,4203.333496,4211.538574,4205.512695,4233.333496,4220.256348,4211.538574,4194.102539,4225.641113,4229.487305,4219.743652,4161.666504,4255.769043,4228.589844,0.000000,4.000000,86.000000,,,,0.000000,4.000000,4.000000,4.000000,4.000000,4.000000,4.000000,4.000000,2.000000,4.000000,4.000000,4.000000,4.000000,4.000000,4.000000,83.333336,,,,,,,,,,,,,,,,
1645710480.506011,60.000000,0.000000,4072.051270,4202.179688,4208.461426,4217.307617,4230.000000,4216.538574,4208.077148,4195.256348,4225.641113,4227.179688,4217.948730,4162.563965,4253.846191,4227.563965,0.000000,4.000000,86.000000,1,1,3,0.000000,4.000000,4.000000,4.000000,4.000000,4.000000,4.000000,4.000000,2.000000,4.000000,4.000000,4.000000,4.000000,4.000000,4.000000,83.333336,,,,,,,,,,,,,,,,
1645710480.509851,61.000000,0.000000,4072.051270,4198.974121,4205.128418,4222.692383,4228.589844,4214.487305,4206.538574,4192.307617,4224.358887,4225.641113,4215.256348,4161.922852,4252.692383,4226.538574,0.000000,4.000000,86.000000,,,,0.000000,4.000000,4.000000,4.000000,4.000000,4.000000,4.000000,4.000000,2.000000,4.000000,4.000000,4.000000,4.000000,4.000000,4.000000,83.333336,,,,,,,,,,,,,,,,
1645710480.513791,62.000000,0.000000,4070.641113,4194.358887,4203.589844,4218.333496,4230.641113,4215.000000,4206.922852,4187.948730,4221.282227,4224.615234,4211.922852,4158.205078,4251.794922,4224.102539,0.000000,4.000000,86.000000,,,,0.000000,4.000000,4.000000,4.000000,4.000000,4.000000,4.000000,4.000000,2.000000,4.000000,4.000000,4.000000,4.000000,4.000000,4.000000,83.333336,,,,,,,,,,,,,,,,
1645710480.517731,63.000000,0.000000,4070.641113,4189.358887,4204.358887,4207.692383,4233.846191,4216.922852,4208.077148,4185.641113,4217.307617,4222.436035,4207.179688,4152.436035,4249.230957,4220.256348,0.000000,4.000000,86.000000,,,,0.000000,4.000000,4.000000,4.000000,4.000000,4.000000,4.000000,4.000000,2.000000,4.000000,4.000000,4.000000,4.000000,4.000000,4.000000,83.333336,,,,,,,,,,,,,,,,
1645710480.521671,64.000000,0.000000,4072.820557,4185.641113,4207.179688,4198.461426,4235.512695,4219.230957,4209.230957,4186.538574,4213.846191,4217.948730,4201.410156,4147.179688,4244.487305,4217.179688,0.000000,4.000000,86.000000,,,,0.000000,4.000000,4.000000,4.000000,4.000000,4.000000,4.000000,4.000000,2.000000,4.000000,4.000000,4.000000,4.000000,4.000000,4.000000,83.333336,,,,,,,,,,,,,,,,
1645710480.525611,65.000000,0.000000,4074.487061,4186.025879,4210.897461,4196.282227,4236.538574,4221.666504,4210.512695,4188.846191,4212.820313,4212.307617,4197.179688,4145.641113,4239.871582,4217.307617,0.000000,4.000000,86.000000,,,,0.000000,4.000000,4.000000,4.000000,4.000000,4.000000,4.000000,4.000000,2.000000,4.000000,4.000000,4.000000,4.000000,4.000000,4.000000,83.333336,,,,,,,,,,,,,,,,
1645710480.529552,66.000000,0.000000,4074.102539,4191.922852,4214.487305,4201.025879,4239.230957,4224.871582,4212.692383,4190.256348,4214.615234,4207.948730,4197.948730,4148.846191,4238.077148,4221.282227,0.000000,4.000000,86.000000,,,,0.000000,4.000000,4.000000,4.000000,4.000000,4.000000,4.000000,4.000000,2.000000,4.000000,4.000000,4.000000,4.000000,4.000000,4.000000,83.333336,,,,,,,,,,,,,,,,
1645710480.533492,67.000000,0.000000,4073.076904,4201.538574,4217.436035,4207.563965,4243.205078,4228.205078,4215.641113,4190.256348,4218.333496,4206.282227,4203.333496,4155.256348,4239.871582,4226.538574,0.000000,4.000000,86.000000,,,,0.000000,4.000000,4.000000,4.000000,4.000000,4.000000,4.000000,4.000000,2.000000,4.000000,4.000000,4.000000,4.000000,4.000000,4.000000,83.333336,,,,,,,,,,,,,,,,
1645710480.537432,68.000000,0.000000,4074.487061,4210.256348,4219.487305,4210.641113,4244.230957,4229.743652,4218.205078,4190.256348,4221.410156,4207.307617,4210.256348,4162.051270,4243.846191,4229.871582,0.000000,4.000000,86.000000,,,,0.000000,4.000000,4.000000,4.000000,4.000000,4.000000,4.000000,4.000000,2.000000,4.000000,4.000000,4.000000,4.000000,4.000000,4.000000,83.333336,,,,,,,,,,,,,,,,
1645710480.541372,69.000000,0.000000,4078.589844,4213.461426,4220.769043,4209.358887,4238.974121,4228.333496,4219.871582,4191.410156,4222.563965,4211.282227,4215.000000,4166.666504,4247.692383,4229.102539,0.000000,4.000000,86.000000,,,,0.000000,4.000000,4.000000,4.000000,4.000000,4.000000,4.000000,4.000000,2.000000,4.000000,4.000000,4.000000,4.000000,4.000000,4.000000,83.333336,,,,,,,,,,,,,,,,
1645710480.545312,70.000000,0.000000,4081.923096,4211.025879,4221.282227,4207.563965,4230.128418,4225.769043,4220.000000,4192.948730,4222.051270,4218.077148,4216.666504,4168.333496,4250.897461,4225.512695,0.000000,4.000000,86.000000,,,,0.000000,4.000000,4.000000,4.000000,4.000000,4.000000,4.000000,4.000000,2.000000,4.000000,4.000000,4.000000,4.000000,4.000000,4.000000,83.333336,,,,,,,,,,,,,,,,
1645710480.549252,71.000000,0.000000,4081.923096,4206.794922,4221.410156,4209.871582,4225.384766,4224.358887,4218.974121,4193.333496,4221.538574,4227.051270,4217.692383,4167.563965,4253.974121,4223.333496,0.000000,4.000000,86.000000,,,,0.000000,4.000000,4.000000,4.000000,4.000000,4.000000,4.000000,4.000000,2.000000,4.000000,4.000000,4.000000,4.000000,4.000000,4.000000,83.333336,,,,,,,,,,,,,,,,
1645710480.553192,72.000000,0.000000,4080.641113,4205.641113,4222.179688,4216.666504,4230.641113,4224.358887,4217.436035,4191.922852,4222.307617,4235.769043,4220.256348,4166.538574,4257.563965,4225.897461,0.000000,4.000000,86.000000,,,,0.000000,4.000000,4.000000,4.000000,4.000000,4.000000,4.000000,4.000000,2.000000,4.000000,4.000000,4.000000,4.000000,4.000000,4.000000,83.333336,,,,,,,,,,,,,,,,
1645710480.557132,73.000000,0.000000,4082.051270,4207.820313,4224.615234,4224.102539,4242.820313,4224.615234,4216.153809,4190.512695,4224.102539,4240.641113,4224.230957,4166.794922,4260.256348,4232.948730,0.000000,4.000000,86.000000,,,,0.000000,4.000000,4.000000,4.000000,4.000000,4.000000,4.000000,4.000000,2.000000,4.000000,4.000000,4.000000,4.000000,4.000000,4.000000,83.333336,,,,,,,,,,,,,,,,
1645710480.561072,74.000000,0.000000,4086.794922,4210.000000,4228.717773,4227.820313,4252.051270,4224.102539,4216.153809,4191.410156,4225.641113,4240.000000,4227.948730,4168.846191,4260.641113,4240.641113,0.000000,4.000000,86.000000,,,,0.000000,4.000000,4.000000,4.000000,4.000000,4.000000,4.000000,4.000000,2.000000,4.000000,4.000000,4.000000,4.000000,4.000000,4.000000,83.333336,,,,,,,,,,,,,,,,
1645710480.565013,75.000000,0.000000,4091.281982,4209.358887,4232.948730,4226.922852,4249.487305,4223.717773,4218.205078,4195.000000,4226.025879,4235.897461,4230.641113,4171.538574,4259.102539,4244.358887,0.000000,4.000000,86.000000,,,,0.000000,4.000000,4.000000,4.000000,4.000000,4.000000,4.000000,4.000000,2.000000,4.000000,4.000000,4.000000,4.000000,4.000000,4.000000,83.333336,,,,,,,,,,,,,,,,
1645710480.568853,76.000000,0.000000,4091.153809,4206.282227,4235.256348,4223.333496,4235.769043,4225.000000,4221.666504,4199.102539,4225.000000,4232.307617,4232.948730,4173.846191,4257.563965,4242.179688,0.000000,4.000000,86.000000,,,,0.000000,4.000000,4.000000,4.000000,4.000000,4.000000,4.000000,4.000000,2.000000,4.000000,4.000000,4.000000,4.000000,4.000000,4.000000,83.333336,,,,,,,,,,,,,,,,
1645710480.572793,77.000000,0.000000,4086.923096,4203.205078,4234.743652,4218.717773,4220.384766,4227.820313,4224.871582,4201.153809,4223.846191,4232.436035,4235.384766,4175.128418,4258.461426,4236.538574,0.000000,4.000000,86.000000,,,,0.000000,4.000000,4.000000,4.000000,4.000000,4.000000,4.000000,4.000000,2.000000,4.000000,4.000000,4.000000,4.000000,4.000000,4.000000,83.333336,,,,,,,,,,,,,,,,
1645710480.576733,78.000000,0.000000,4083.461426,4202.692383,4232.307617,4214.358887,4215.000000,4230.641113,4226.410156,4200.512695,4223.846191,4235.769043,4236.922852,4176.410156,4262.179688,4232.436035,0.000000,4.000000,86.000000,,,,0.000000,4.000000,4.000000,4.000000,4.000000,4.000000,4.000000,4.000000,2.000000,4.000000,4.000000,4.000000,4.000000,4.000000,4.000000,83.333336,,,,,,,,,,,,,,,,
1645710480.580673,79.000000,0.000000,4084.487061,4205.769043,4229.615234,4211.666504,4224.358887,4231.922852,4226.025879,4199.102539,4225.256348,4240.128418,4236.794922,4178.846191,4267.051270,4233.717773,0.000000,4.000000,86.000000,,,,0.000000,4.000000,4.000000,4.000000,4.000000,4.000000,4.000000,4.000000,2.000000,4.000000,4.000000,4.000000,4.000000,4.000000,4.000000,83.333336,,,,,,,,,,,,,,,,
1645710480.584513,80.000000,0.000000,4088.846191,4211.922852,4227.692383,4213.333496,4242.820313,4231.666504,4224.871582,4198.333496,4227.179688,4243.205078,4235.641113,4181.922852,4270.256348,4238.974121,0.000000,4.000000,86.000000,,,,0.000000,4.000000,4.000000,4.000000,4.000000,4.000000,4.000000,4.000000,2.000000,4.000000,4.000000,4.000000,4.000000,4.000000,4.000000,83.333336,,,,,,,,,,,,,,,,
1645710480.588453,81.000000,0.000000,4091.153809,4218.461426,4226.153809,4220.384766,4258.589844,4230.897461,4223.974121,4198.974121,4228.717773,4243.461426,4234.487305,4183.077148,4269.487305,4243.077148,0.000000,4.000000,86.000000,,,,0.000000,4.000000,4.000000,4.000000,4.000000,4.000000,4.000000,4.000000,2.000000,4.000000,4.000000,4.000000,4.000000,4.000000,4.000000,83.333336,,,,,,,,,,,,,,,,
1645710480.592393,82.000000,0.000000,4088.846191,4221.794922,4223.717773,4230.000000,4261.794922,4230.769043,4223.589844,4200.128418,4229.487305,4240.128418,4233.205078,4179.871582,4263.717773,4241.153809,0.000000,4.000000,86.000000,,,,0.000000,4.000000,4.000000,4.000000,4.000000,4.000000,4.000000,4.000000,2.000000,4.000000,4.000000,4.000000,4.000000,4.000000,4.000000,83.333336,,,,,,,,,,,,,,,,
1645710480.596334,83.000000,0.000000,4083.718018,4219.230957,4219.743652,4236.282227,4251.666504,4230.641113,4223.589844,4201.025879,4229.102539,4233.205078,4230.000000,4172.436035,4254.487305,4233.205078,0.000000,4.000000,86.000000,,,,0.000000,4.000000,4.000000,4.000000,4.000000,4.000000,4.000000,4.000000,2.000000,4.000000,4.000000,4.000000,4.000000,4.000000,4.000000,83.333336,,,,,,,,,,,,,,,,
1645710480.600274,84.000000,0.000000,4080.128174,4211.666504,4215.128418,4234.743652,4237.436035,4229.743652,4223.717773,4200.769043,4227.179688,4224.743652,4224.358887,4163.717773,4244.615234,4222.820313,0.000000,4.000000,86.000000,,,,0.000000,4.000000,4.000000,4.000000,4.000000,4.000000,4.000000,4.000000,2.000000,4.000000,4.000000,4.000000,4.000000,4.000000,4.000000,83.333336,,,,,,,,,,,,,,,,
1645710480.604214,85.000000,0.000000,4079.230713,4203.333496,4211.538574,4225.769043,4229.871582,4228.461426,4224.230957,4199.358887,4224.487305,4217.948730,4217.820313,4157.051270,4237.436035,4215.256348,0.000000,4.000000,86.000000,2,1,3,0.000000,4.000000,4.000000,4.000000,4.000000,4.000000,4.000000,4.000000,2.000000,4.000000,4.000000,4.000000,4.000000,4.000000,4.000000,83.333336,,,,,,,,,,,,,,,,
1645710480.608154,86.000000,0.000000,4078.974365,4198.333496,4208.589844,4215.000000,4232.948730,4228.205078,4224.615234,4197.307617,4222.692383,4215.641113,4213.461426,4153.846191,4234.743652,4212.820313,0.000000,4.000000,86.000000,,,,0.000000,4.000000,4.000000,4.000000,4.000000,4.000000,4.000000,4.000000,2.000000,4.000000,4.000000,4.000000,4.000000,4.000000,4.000000,83.333336,,,,,,,,,,,,,,,,
1645710480.612094,87.000000,0.000000,4077.692383,4197.820313,4205.128418,4208.589844,4241.282227,4228.846191,4223.589844,4195.769043,4222.307617,4216.922852,4211.538574,4152.948730,4235.641113,4214.102539,0.000000,4.000000,86.000000,,,,0.000000,4.000000,4.000000,4.000000,4.000000,4.000000,4.000000,4.000000,2.000000,4.000000,4.000000,4.000000,4.000000,4.000000,4.000000,83.333336,,,,,,,,,,,,,,,,
1645710480.616034,88.000000,0.000000,4076.410156,4199.615234,4200.641113,4209.358887,4245.384766,4228.974121,4220.256348,4195.384766,4222.692383,4218.333496,4210.256348,4152.436035,4237.948730,4216.025879,0.000000,4.000000,86.000000,,,,0.000000,4.000000,4.000000,4.000000,4.000000,4.000000,4.000000,4.000000,2.000000,4.000000,4.000000,4.000000,4.000000,4.000000,4.000000,83.333336,,,,,,,,,,,,,,,,
1645710480.619974,89.000000,0.000000,4076.410156,4200.641113,4197.179688,4214.615234,4241.410156,4227.307617,4216.282227,4195.641113,4222.436035,4216.666504,4207.436035,4151.410156,4238.077148,4217.051270,0.000000,4.000000,86.000000,,,,0.000000,4.000000,4.000000,4.000000,4.000000,4.000000,4.000000,4.000000,2.000000,4.000000,4.000000,4.000000,4.000000,4.000000,4.000000,83.333336,,,,,,,,,,,,,,,,
1645710480.623914,90.000000,0.000000,4077.564209,4199.871582,4197.436035,4219.871582,4233.461426,4224.615234,4214.230957,4195.641113,4221.666504,4211.794922,4203.846191,4150.769043,4233.717773,4217.307617,0.000000,4.000000,86.000000,,,,0.000000,4.000000,4.000000,4.000000,4.000000,4.000000,4.000000,4.000000,2.000000,4.000000,4.000000,4.000000,4.000000,4.000000,4.000000,83.333336,,,,,,,,,,,,,,,,
1645710480.627854,91.000000,0.000000,4078.205078,4197.948730,4201.666504,4221.794922,4228.846191,4223.461426,4216.025879,4193.974121,4221.410156,4207.948730,4202.307617,4151.538574,4224.487305,4217.948730,0.000000,4.000000,86.000000,,,,0.000000,4.000000,4.000000,4.000000,4.000000,4.000000,4.000000,4.000000,2.000000,4.000000,4.000000,4.000000,4.000000,4.000000,4.000000,83.333336,,,,,,,,,,,,,,,,
1645710480.631795,92.000000,0.000000,4077.307617,4196.666504,4206.794922,4220.256348,4229.743652,4224.615234,4220.128418,4191.538574,4222.820313,4208.333496,4205.000000,4153.589844,4211.410156,4219.615234,0.000000,4.000000,86.000000,,,,0.000000,4.000000,4.000000,4.000000,4.000000,4.000000,4.000000,4.000000,2.000000,4.000000,4.000000,4.000000,4.000000,4.000000,4.000000,83.333336,,,,,,,,,,,,,,,,
1645710480.635735,93.000000,0.000000,4076.538574,4196.666504,4208.717773,4216.922852,4231.794922,4226.153809,4223.589844,4190.641113,4225.000000,4212.436035,4210.128418,4155.512695,4196.538574,4221.282227,0.000000,4.000000,86.000000,,,,0.000000,4.000000,4.000000,4.000000,4.000000,4.000000,4.000000,4.000000,2.000000,4.000000,4.000000,4.000000,4.000000,4.000000,4.000000,83.333336,,,,,,,,,,,,,,,,
1645710480.639675,94.000000,0.000000,4077.435791,4197.948730,4206.153809,4214.230957,4229.743652,4225.512695,4223.974121,4193.333496,4226.538574,4216.538574,4213.846191,4155.641113,4182.307617,4222.051270,0.000000,4.000000,86.000000,,,,0.000000,4.000000,4.000000,4.000000,4.000000,4.000000,4.000000,4.000000,2.000000,4.000000,4.000000,4.000000,4.000000,4.000000,4.000000,83.333336,,,,,,,,,,,,,,,,
1645710480.643615,95.000000,0.000000,4079.230713,4199.487305,4202.307617,4213.589844,4224.743652,4222.307617,4221.922852,4198.077148,4226.282227,4217.820313,4214.102539,4154.358887,4172.436035,4221.666504,0.000000,4.000000,86.000000,,,,0.000000,4.000000,4.000000,4.000000,4.000000,4.000000,4.000000,4.000000,2.000000,4.000000,4.000000,4.000000,4.000000,4.000000,4.000000,83.333336,,,,,,,,,,,,,,,,
1645710480.647455,96.000000,0.000000,4079.615479,4200.256348,4201.538574,4215.641113,4222.820313,4218.974121,4219.743652,4201.666504,4224.743652,4216.538574,4212.051270,4153.333496,4168.846191,4221.922852,0.000000,4.000000,86.000000,,,,0.000000,4.000000,4.000000,4.000000,4.000000,4.000000,4.000000,4.000000,2.000000,4.000000,4.000000,4.000000,4.000000,4.000000,4.000000,83.333336,,,,,,,,,,,,,,,,
1645710480.651395,97.000000,0.000000,4078.589844,4198.846191,4205.769043,4218.974121,4228.205078,4218.077148,4219.743652,4202.051270,4223.461426,4215.256348,4210.000000,4154.230957,4171.025879,4223.717773,0.000000,4.000000,86.000000,,,,0.000000,4.000000,4.000000,4.000000,4.000000,4.000000,4.000000,4.000000,2.000000,4.000000,4.000000,4.000000,4.000000,4.000000,4.000000,83.333336,,,,,,,,,,,,,,,,
1645710480.655335,98.000000,0.000000,4078.461426,4196.025879,4212.179688,4221.282227,4237.563965,4220.000000,4222.051270,4200.256348,4223.205078,4215.128418,4209.230957,4156.666504,4174.615234,4226.794922,0.000000,4.000000,86.000000,,,,0.000000,4.000000,4.000000,4.000000,4.000000,4.000000,4.000000,4.000000,2.000000,4.000000,4.000000,4.000000,4.000000,4.000000,4.000000,83.333336,,,,,,,,,,,,,,,,
1645710480.659275,99.000000,0.000000,4081.153809,4193.717773,4216.153809,4220.769043,4243.846191,4222.820313,4224.871582,4198.974121,4223.846191,4216.153809,4209.358887,4158.974121,4175.512695,4229.358887,0.000000,4.000000,86.000000,,,,0.000000,4.000000,4.000000,4.000000,4.000000,4.000000,4.000000,4.000000,2.000000,4.000000,4.000000,4.000000,4.000000,4.000000,4.000000,83.333336,,,,,,,,,,,,,,,,
1645710480.663215,100.000000,0.000000,4084.871826,4194.102539,4215.128418,4217.820313,4242.179688,4224.358887,4226.025879,4200.000000,4225.000000,4217.820313,4209.871582,4159.487305,4172.692383,4229.615234,0.000000,4.000000,86.000000,,,,0.000000,4.000000,4.000000,4.000000,4.000000,4.000000,4.000000,4.000000,2.000000,4.000000,4.000000,4.000000,4.000000,4.000000,4.000000,83.333336,,,,,,,,,,,,,,,,
1645710480.667156,101.000000,0.000000,4086.025635,4196.666504,4210.128418,4214.487305,4233.589844,4224.358887,4225.000000,4202.820313,4226.282227,4220.256348,4210.769043,4157.820313,4168.846191,4227.436035,0.000000,4.000000,86.000000,,,,0.000000,4.000000,4.000000,4.000000,4.000000,4.000000,4.000000,4.000000,2.000000,4.000000,4.000000,4.000000,4.000000,4.000000,4.000000,83.333336,,,,,,,,,,,,,,,,
1645710480.671096,102.000000,0.000000,4083.589844,4199.358887,4204.615234,4213.333496,4223.461426,4223.717773,4222.820313,4205.769043,4227.179688,4222.692383,4212.563965,4155.256348,4167.436035,4224.358887,0.000000,4.000000,86.000000,,,,0.000000,4.000000,4.000000,4.000000,4.000000,4.000000,4.000000,4.000000,2.000000,4.000000,4.000000,4.000000,4.000000,4.000000,4.000000,83.333336,,,,,,,,,,,,,,,,
1645710480.675036,103.000000,0.000000,4080.641113,4200.384766,4202.179688,4214.487305,4218.717773,4222.820313,4221.025879,4208.205078,4227.307617,4224.230957,4213.974121,4153.974121,4169.358887,4222.436035,0.000000,4.000000,86.000000,,,,0.000000,4.000000,4.000000,4.000000,4.000000,4.000000,4.000000,4.000000,2.000000,4.000000,4.000000,4.000000,4.000000,4.000000,4.000000,83.333336,,,,,,,,,,,,,,,,
1645710480.678976,104.000000,0.000000,4080.769287,4200.128418,4203.333496,4216.666504,4222.436035,4222.051270,4220.769043,4209.743652,4226.410156,4223.846191,4214.102539,4155.000000,4172.563965,4222.692383,0.000000,4.000000,86.000000,,,,0.000000,4.000000,4.000000,4.000000,4.000000,4.000000,4.000000,4.000000,2.000000,4.000000,4.000000,4.000000,4.000000,4.000000,4.000000,83.333336,,,,,,,,,,,,,,,,
1645710480.682916,105.000000,0.000000,4083.718018,4200.128418,4206.153809,4218.846191,4232.051270,4222.307617,4222.307617,4210.384766,4225.384766,4222.051270,4213.333496,4157.307617,4175.128418,4225.256348,0.000000,4.000000,86.000000,,,,0.000000,4.000000,4.000000,4.000000,4.000000,4.000000,4.000000,4.000000,2.000000,4.000000,4.000000,4.000000,4.000000,4.000000,4.000000,83.333336,,,,,,,,,,,,,,,,
1645710480.686856,106.000000,0.000000,4085.384521,4201.794922,4207.692383,4220.641113,4240.000000,4223.589844,4224.358887,4209.230957,4225.000000,4220.512695,4213.077148,4159.230957,4176.410156,4228.717773,0.000000,4.000000,86.000000,,,,0.000000,4.000000,4.000000,4.000000,4.000000,4.000000,4.000000,4.000000,2.000000,4.000000,4.000000,4.000000,4.000000,4.000000,4.000000,83.333336,,,,,,,,,,,,,,,,
1645710480.690796,107.000000,0.000000,4084.230713,4205.000000,4206.666504,4221.922852,4239.487305,4224.230957,4225.128418,4206.666504,4225.000000,4220.384766,4213.846191,4159.615234,4177.051270,4230.769043,0.000000,4.000000,86.000000,,,,0.000000,4.000000,4.000000,4.000000,4.000000,4.000000,4.000000,4.000000,2.000000,4.000000,4.000000,4.000000,4.000000,4.000000,4.000000,83.333336,,,,,,,,,,,,,,,,
1645710480.694736,108.000000,0.000000,4082.435791,4207.948730,4203.974121,4220.897461,4229.871582,4222.051270,4222.948730,4203.846191,4224.230957,4220.512695,4214.230957,4158.461426,4176.666504,4230.256348,0.000000,4.000000,86.000000,,,,0.000000,4.000000,4.000000,4.000000,4.000000,4.000000,4.000000,4.000000,2.000000,4.000000,4.000000,4.000000,4.000000,4.000000,4.000000,83.333336,,,,,,,,,,,,,,,,
1645710480.698676,109.000000,0.000000,4083.076904,4208.461426,4201.794922,4217.436035,4217.820313,4216.538574,4218.461426,4202.179688,4222.307617,4218.846191,4212.820313,4156.153809,4174.615234,4227.692383,0.000000,4.000000,86.000000,,,,0.000000,4.000000,4.000000,4.000000,4.000000,4.000000,4.000000,4.000000,2.000000,4.000000,4.000000,4.000000,4.000000,4.000000,4.000000,83.333336,,,,,,,,,,,,,,,,
1645710480.702617,110.000000,0.000000,4085.512939,4206.025879,4201.282227,4214.102539,4211.794922,4211.153809,4214.102539,4201.410156,4220.000000,4215.128418,4209.230957,4152.948730,4170.897461,4225.000000,0.000000,4.000000,86.000000,,,,0.000000,4.000000,4.000000,4.000000,4.000000,4.000000,4.000000,4.000000,2.000000,4.000000,4.000000,4.000000,4.000000,4.000000,4.000000,83.333336,,,,,,,,,,,,,,,,
1645710480.706557,111.000000,0.000000,4086.025635,4201.794922,4201.538574,4214.487305,4216.153809,4209.871582,4212.307617,4199.615234,4218.589844,4211.153809,4205.512695,4150.000000,4167.179688,4223.333496,0.000000,4.000000,86.000000,,,,0.000000,4.000000,4.000000,4.000000,4.000000,4.000000,4.000000,4.000000,2.000000,4.000000,4.000000,4.000000,4.000000,4.000000,4.000000,83.333336,,,,,,,,,,,,,,,,
1645710480.710497,112.000000,0.000000,4082.948730,4198.717773,4201.538574,4218.461426,4227.692383,4213.333496,4213.717773,4196.153809,4218.077148,4209.230957,4203.974121,4149.615234,4165.641113,4223.461426,0.000000,4.000000,86.000000,,,,0.000000,4.000000,4.000000,4.000000,4.000000,4.000000,4.000000,4.000000,2.000000,4.000000,4.000000,4.000000,4.000000,4.000000,4.000000,83.333336,,,,,,,,,,,,,,,,
1645710480.714437,113.000000,0.000000,4079.487061,4198.717773,4201.282227,4221.666504,4238.333496,4218.205078,4217.051270,4192.948730,4217.563965,4209.871582,4206.025879,4152.948730,4167.307617,4225.384766,0.000000,4.000000,86.000000,,,,0.000000,4.000000,4.000000,4.000000,4.000000,4.000000,4.000000,4.000000,2.000000,4.000000,4.000000,4.000000,4.000000,4.000000,4.000000,83.333336,,,,,,,,,,,,,,,,
1645710480.718377,114.000000,0.000000,4079.871826,4201.410156,4202.563965,4219.358887,4240.769043,4220.384766,4220.000000,4191.666504,4216.153809,4211.538574,4210.512695,4158.974121,4171.282227,4228.717773,0.000000,4.000000,86.000000,,,,0.000000,4.000000,4.000000,4.000000,4.000000,4.000000,4.000000,4.000000,2.000000,4.000000,4.000000,4.000000,4.000000,4.000000,4.000000,83.333336,,,,,,,,,,,,,,,,
1645710480.722217,115.000000,0.000000,4083.974365,4203.717773,4206.282227,4212.051270,4233.717773,4218.461426,4221.282227,4191.794922,4213.846191,4212.307617,4215.256348,4164.615234,4175.512695,4232.436035,0.000000,4.000000,86.000000,3,1,3,0.000000,4.000000,4.000000,4.000000,4.000000,4.000000,4.000000,4.000000,2.000000,4.000000,4.000000,4.000000,4.000000,4.000000,4.000000,83.333336,,,,,,,,,,,,,,,,
1645710480.726157,116.000000,0.000000,4087.564209,4203.333496,4211.282227,4205.512695,4222.820313,4214.743652,4221.153809,4191.153809,4211.538574,4211.282227,4218.333496,4167.051270,4178.717773,4235.384766,0.000000,4.000000,86.000000,,,,0.000000,4.000000,4.000000,4.000000,4.000000,4.000000,4.000000,4.000000,2.000000,4.000000,4.000000,4.000000,4.000000,4.000000,4.000000,83.333336,,,,,,,,,,,,,,,,
1645710480.730097,117.000000,0.000000,4087.051270,4200.256348,4215.000000,4205.384766,4215.769043,4212.436035,4220.384766,4188.974121,4210.256348,4209.230957,4219.230957,4165.769043,4180.256348,4236.410156,0.000000,4.000000,86.000000,,,,0.000000,4.000000,4.000000,4.000000,4.000000,4.000000,4.000000,4.000000,2.000000,4.000000,4.000000,4.000000,4.000000,4.000000,4.000000,83.333336,,,,,,,,,,,,,,,,
1645710480.734037,118.000000,0.000000,4083.846191,4196.410156,4216.153809,4211.666504,4217.051270,4212.563965,4219.358887,4187.051270,4210.769043,4207.948730,4218.717773,4162.948730,4180.641113,4236.538574,0.000000,4.000000,86.000000,,,,0.000000,4.000000,4.000000,4.000000,4.000000,4.000000,4.000000,4.000000,2.000000,4.000000,4.000000,4.000000,4.000000,4.000000,4.000000,83.333336,,,,,,,,,,,,,,,,
1645710480.737978,119.000000,0.000000,4082.564209,4194.102539,4215.256348,4219.487305,4225.384766,4213.974121,4218.077148,4189.102539,4213.846191,4208.974121,4219.102539,4161.410156,4181.153809,4237.820313,0.000000,4.000000,86.000000,,,,0.000000,4.000000,4.000000,4.000000,4.000000,4.000000,4.000000,4.000000,2.000000,4.000000,4.000000,4.000000,4.000000,4.000000,4.000000,83.333336,,,,,,,,,,,,,,,,
1645710480.741918,120.000000,0.000000,4086.025635,4194.487305,4214.743652,4224.230957,4235.769043,4215.641113,4217.692383,4195.769043,4219.615234,4213.974121,4223.077148,4163.333496,4183.974121,4241.922852,0.000000,4.000000,86.000000,,,,0.000000,4.000000,4.000000,4.000000,4.000000,4.000000,4.000000,4.000000,2.000000,4.000000,4.000000,4.000000,4.000000,4.000000,4.000000,83.333336,,,,,,,,,,,,,,,,
1645710480.745858,121.000000,0.000000,4091.794922,4198.077148,4216.538574,4225.384766,4242.436035,4218.205078,4219.230957,4204.358887,4226.922852,4223.717773,4231.410156,4168.461426,4190.128418,4247.948730,0.000000,4.000000,86.000000,,,,0.000000,4.000000,4.000000,4.000000,4.000000,4.000000,4.000000,4.000000,2.000000,4.000000,4.000000,4.000000,4.000000,4.000000,4.000000,83.333336,,,,,,,,,,,,,,,,
1645710480.749798,122.000000,0.000000,4095.512939,4203.461426,4220.000000,4225.769043,4242.820313,4221.922852,4222.436035,4210.512695,4233.205078,4236.282227,4240.897461,4174.102539,4197.692383,4252.436035,0.000000,4.000000,86.000000,,,,0.000000,4.000000,4.000000,4.000000,4.000000,4.000000,4.000000,4.000000,2.000000,4.000000,4.000000,4.000000,4.000000,4.000000,4.000000,83.333336,,,,,,,,,,,,,,,,
1645710480.753738,123.000000,0.000000,4095.512939,4207.820313,4222.436035,4227.307617,4237.692383,4225.641113,4225.512695,4212.179688,4236.410156,4246.538574,4246.538574,4176.538574,4202.820313,4252.563965,0.000000,4.000000,86.000000,,,,0.000000,4.000000,4.000000,4.000000,4.000000,4.000000,4.000000,4.000000,2.000000,4.000000,4.000000,4.000000,4.000000,4.000000,4.000000,83.333336,,,,,,,,,,,,,,,,
1645710480.757678,124.000000,0.000000,4093.333252,4208.205078,4221.538574,4228.846191,4230.769043,4227.307617,4226.666504,4211.666504,4236.794922,4249.615234,4245.128418,4174.102539,4202.948730,4248.333496,0.000000,4.000000,86.000000,,,,0.000000,4.000000,4.000000,4.000000,4.000000,4.000000,4.000000,4.000000,2.000000,4.000000,4.000000,4.000000,4.000000,4.000000,4.000000,83.333336,,,,,,,,,,,,,,,,
1645710480.761618,125.000000,0.000000,4091.153809,4205.128418,4217.179688,4228.077148,4227.179688,4225.641113,4225.641113,4211.666504,4236.538574,4244.871582,4238.589844,4168.205078,4199.230957,4242.436035,0.000000,4.000000,86.000000,,,,0.000000,4.000000,4.000000,4.000000,4.000000,4.000000,4.000000,4.000000,2.000000,4.000000,4.000000,4.000000,4.000000,4.000000,4.000000,83.333336,,,,,,,,,,,,,,,,
1645710480.765558,126.000000,0.000000,4088.589844,4201.922852,4211.666504,4224.102539,4230.769043,4222.563965,4223.974121,4213.333496,4237.692383,4236.922852,4232.436035,4161.922852,4196.282227,4237.436035,0.000000,4.000000,86.000000,,,,0.000000,4.000000,4.000000,4.000000,4.000000,4.000000,4.000000,4.000000,2.000000,4.000000,4.000000,4.000000,4.000000,4.000000,4.000000,83.333336,,,,,,,,,,,,,,,,
1645710480.769498,127.000000,0.000000,4084.230713,4201.410156,4207.692383,4218.077148,4240.256348,4220.512695,4223.077148,4215.256348,4239.743652,4231.282227,4230.256348,4158.205078,4198.077148,4234.358887,0.000000,4.000000,86.000000,,,,0.000000,4.000000,4.000000,4.000000,4.000000,4.000000,4.000000,4.000000,2.000000,4.000000,4.000000,4.000000,4.000000,4.000000,4.000000,83.333336,,,,,,,,,,,,,,,,
1645710480.773439,128.000000,0.000000,4079.615479,4202.307617,4206.153809,4211.922852,4248.461426,4220.897461,4222.948730,4215.769043,4240.256348,4230.256348,4231.153809,4156.794922,4205.128418,4232.307617,3283.000000,4.000000,86.000000,,,,0.000000,4.000000,4.000000,4.000000,4.000000,4.000000,4.000000,4.000000,2.000000,4.000000,4.000000,4.000000,4.000000,4.000000,4.000000,83.333336,,,,,,,,,,,,,,,,
1645710480.777379,129.000000,0.000000,4077.307617,4200.769043,4206.025879,4207.948730,4247.436035,4222.436035,4223.077148,4214.615234,4237.307617,4231.922852,4231.153809,4155.769043,4214.102539,4230.769043,3377.000000,4.000000,86.000000,,,,0.000000,4.000000,4.000000,4.000000,4.000000,4.000000,4.000000,4.000000,2.000000,4.000000,4.000000,4.000000,4.000000,4.000000,4.000000,83.333336,,,,,,,,,,,,,,,,
1645710480.781319,130.000000,0.000000,4078.461426,4195.000000,4206.025879,4207.948730,4236.538574,4223.205078,4223.205078,4212.307617,4231.794922,4233.205078,4227.436035,4153.717773,4221.282227,4230.128418,2276.000000,4.000000,86.000000,,,,0.000000,4.000000,4.000000,4.000000,4.000000,4.000000,4.000000,4.000000,2.000000,4.000000,4.000000,4.000000,4.000000,4.000000,4.000000,83.333336,,,,,,,,,,,,,,,,
1645710480.785259,131.000000,0.000000,4080.256348,4188.077148,4205.641113,4212.563965,4223.461426,4222.436035,4223.077148,4209.487305,4226.922852,4233.333496,4221.794922,4151.153809,4225.000000,4230.769043,3584.000000,4.000000,86.000000,,,,0.000000,4.000000,4.000000,4.000000,4.000000,4.000000,4.000000,4.000000,2.000000,4.000000,4.000000,4.000000,4.000000,4.000000,4.000000,83.333336,,,,,,,,,,,,,,,,
1645710480.789199,132.000000,0.000000,4079.871826,4184.871582,4205.000000,4219.743652,4218.589844,4221.410156,4223.333496,4207.051270,4226.410156,4233.846191,4218.461426,4150.641113,4226.282227,4232.948730,3537.000000,4.000000,86.000000,,,,0.000000,4.000000,4.000000,4.000000,4.000000,4.000000,4.000000,4.000000,2.000000,4.000000,4.000000,4.000000,4.000000,4.000000,4.000000,83.333336,,,,,,,,,,,,,,,,
1645710480.793139,133.000000,0.000000,4077.820557,4187.692383,4204.871582,4225.384766,4224.487305,4221.922852,4224.615234,4205.897461,4230.769043,4235.384766,4220.256348,4153.205078,4227.820313,4236.410156,3389.000000,4.000000,86.000000,,,,0.000000,4.000000,4.000000,4.000000,4.000000,4.000000,4.000000,4.000000,2.000000,4.000000,4.000000,4.000000,4.000000,4.000000,4.000000,83.333336,,,,,,,,,,,,,,,,
1645710480.796979,134.000000,0.000000,4077.435791,4193.974121,4205.897461,4225.641113,4235.512695,4224.230957,4227.051270,4206.538574,4236.666504,4236.538574,4225.641113,4158.589844,4230.641113,4241.025879,3480.000000,4.000000,86.000000,,,,0.000000,4.000000,4.000000,4.000000,4.000000,4.000000,4.000000,4.000000,2.000000,4.000000,4.000000,4.000000,4.000000,4.000000,4.000000,83.333336,0.984375,50.000000,0.000000,4.000000,4.000000,4.000000,4.000000,4.000000,4.000000,2.000000,4.000000,4.000000,4.000000,4.000000,4.000000,4.000000
1645710480.800919,135.000000,0.000000,4080.128174,4199.358887,4208.333496,4221.153809,4243.846191,4227.307617,4229.743652,4208.974121,4239.102539,4235.256348,4230.512695,4165.000000,4233.846191,4245.384766,1209.000000,4.000000,86.000000,,,,0.000000,4.000000,4.000000,4.000000,4.000000,4.000000,4.000000,4.000000,2.000000,4.000000,4.000000,4.000000,4.000000,4.000000,4.000000,83.333336,,,,,,,,,,,,,,,,
1645710480.804859,136.000000,0.000000,4083.589844,4201.922852,4211.538574,4215.512695,4246.666504,4229.743652,4231.794922,4210.769043,4236.025879,4231.794922,4232.436035,4170.128418,4236.153809,4248.077148,1594.000000,4.000000,86.000000,,,,0.000000,4.000000,4.000000,4.000000,4.000000,4.000000,4.000000,4.000000,2.000000,4.000000,4.000000,4.000000,4.000000,4.000000,4.000000,83.333336,,,,,,,,,,,,,,,,
1645710480.808800,137.000000,0.000000,4084.358887,4202.307617,4214.487305,4212.692383,4245.384766,4230.769043,4232.179688,4209.871582,4229.743652,4227.692383,4231.410156,4173.205078,4236.794922,4247.563965,3070.000000,4.000000,86.000000,,,,0.000000,4.000000,4.000000,4.000000,4.000000,4.000000,4.000000,4.000000,2.000000,4.000000,4.000000,4.000000,4.000000,4.000000,4.000000,83.333336,,,,,,,,,,,,,,,,
1645710480.812740,138.000000,0.000000,4082.564209,4201.410156,4215.897461,4212.307617,4241.666504,4229.743652,4230.641113,4206.025879,4224.358887,4223.846191,4228.205078,4173.974121,4235.384766,4243.846191,2576.000000,4.000000,86.000000,,,,0.000000,4.000000,4.000000,4.000000,4.000000,4.000000,4.000000,4.000000,2.000000,4.000000,4.000000,4.000000,4.000000,4.000000,4.000000,83.333336,,,,,,,,,,,,,,,,
1645710480.816680,139.000000,0.000000,4081.794922,4199.102539,4215.641113,4211.666504,4234.871582,4226.538574,4227.820313,4201.410156,4222.051270,4220.000000,4224.358887,4172.820313,4232.692383,4239.487305,2742.000000,4.000000,86.000000,,,,0.000000,4.000000,4.000000,4.000000,4.000000,4.000000,4.000000,4.000000,2.000000,4.000000,4.000000,4.000000,4.000000,4.000000,4.000000,83.333336,,,,,,,,,,,,,,,,
1645710480.820620,140.000000,0.000000,4083.974365,4195.256348,4214.615234,4209.871582,4225.128418,4222.820313,4225.512695,4198.846191,4222.692383,4216.538574,4221.538574,4171.538574,4230.256348,4237.563965,3185.000000,4.000000,86.000000,,,,0.000000,4.000000,4.000000,4.000000,4.000000,4.000000,4.000000,4.000000,2.000000,4.000000,4.000000,4.000000,4.000000,4.000000,4.000000,83.333336,,,,,,,,,,,,,,,,
1645710480.824560,141.000000,0.000000,4087.307617,4192.307617,4214.871582,4209.871582,4216.922852,4220.512695,4225.128418,4199.102539,4224.358887,4215.769043,4222.179688,4172.307617,4230.256348,4240.128418,3067.000000,4.000000,86.000000,,,,0.000000,4.000000,4.000000,4.000000,4.000000,4.000000,4.000000,4.000000,2.000000,4.000000,4.000000,4.000000,4.000000,4.000000,4.000000,83.333336,,,,,,,,,,,,,,,,
1645710480.828500,142.000000,0.000000,4088.333252,4193.205078,4217.563965,4215.000000,4217.179688,4221.153809,4226.025879,4201.025879,4226.538574,4219.871582,4227.051270,4177.051270,4233.846191,4245.641113,2576.000000,4.000000,86.000000,,,,0.000000,4.000000,4.000000,4.000000,4.000000,4.000000,4.000000,4.000000,2.000000,4.000000,4.000000,4.000000,4.000000,4.000000,4.000000,83.333336,,,,,,,,,,,,,,,,
1645710480.832440,143.000000,0.000000,4086.794922,4198.333496,4222.563965,4224.871582,4228.333496,4223.205078,4226.410156,4203.205078,4228.974121,4227.563965,4234.230957,4184.743652,4240.000000,4250.897461,2742.000000,4.000000,86.000000,,,,0.000000,4.000000,4.000000,4.000000,4.000000,4.000000,4.000000,4.000000,2.000000,4.000000,4.000000,4.000000,4.000000,4.000000,4.000000,83.333336,,,,,,,,,,,,,,,,
1645710480.836380,144.000000,0.000000,4086.794922,4204.615234,4228.077148,4233.846191,4243.846191,4224.102539,4225.000000,4205.000000,4231.538574,4234.230957,4239.230957,4192.179688,4245.384766,4253.205078,3185.000000,4.000000,86.000000,,,,0.000000,4.000000,4.000000,4.000000,4.000000,4.000000,4.000000,4.000000,2.000000,4.000000,4.000000,4.000000,4.000000,4.000000,4.000000,83.333336,,,,,,,,,,,,,,,,
1645710480.840320,145.000000,0.000000,4091.538574,4208.846191,4232.820313,4235.897461,4252.820313,4222.563965,4222.563965,4205.769043,4233.333496,4235.641113,4238.846191,4195.641113,4247.436035,4252.179688,3067.000000,4.000000,86.000000,,,,0.000000,4.000000,4.000000,4.000000,4.000000,4.000000,4.000000,4.000000,2.000000,4.000000,4.000000,4.000000,4.000000,4.000000,4.000000,83.333336,,,,,,,,,,,,,,,,
1645710480.844261,146.000000,0.000000,4099.487305,4209.487305,4235.641113,4229.871582,4248.846191,4220.128418,4220.897461,4205.256348,4233.974121,4232.051270,4234.487305,4194.358887,4246.282227,4250.256348,2576.000000,4.000000,86.000000,,,,0.000000,4.000000,4.000000,4.000000,4.000000,4.000000,4.000000,4.000000,2.000000,4.000000,4.000000,4.000000,4.000000,4.000000,4.000000,83.333336,,,,,,,,,,,,,,,,
1645710480.848201,147.000000,0.000000,4106.410156,4207.948730,4236.025879,4220.769043,4234.615234,4218.589844,4220.641113,4204.102539,4233.717773,4227.820313,4229.743652,4190.256348,4244.615234,4249.615234,2742.000000,4.000000,86.000000,,,,0.000000,4.000000,4.000000,4.000000,4.000000,4.000000,4.000000,4.000000,2.000000,4.000000,4.000000,4.000000,4.000000,4.000000,4.000000,83.333336,,,,,,,,,,,,,,,,
1645710480.852141,148.000000,0.000000,4108.974121,4206.025879,4234.615234,4215.384766,4219.871582,4218.205078,4221.153809,4203.846191,4233.077148,4226.538574,4227.563965,4185.641113,4244.102539,4250.641113,3185.000000,4.000000,86.000000,,,,0.000000,4.000000,4.000000,4.000000,4.000000,4.000000,4.000000,4.000000,2.000000,4.000000,4.000000,4.000000,4.000000,4.000000,4.000000,83.333336,,,,,,,,,,,,,,,,
1645710480.856081,149.000000,0.000000,4106.025879,4204.743652,4233.077148,4216.666504,4213.717773,4217.436035,4220.512695,4205.897461,4232.051270,4228.077148,4227.051270,4181.794922,4244.487305,4252.179688,3067.000000,4.000000,86.000000,,,,0.000000,4.000000,4.000000,4.000000,4.000000,4.000000,4.000000,4.000000,2.000000,4.000000,4.000000,4.000000,4.000000,4.000000,4.000000,83.333336,,,,,,,,,,,,,,,,
1645710480.860021,150.000000,0.000000,4098.717773,4203.717773,4232.307617,4221.922852,4218.717773,4214.743652,4218.461426,4209.358887,4230.256348,4229.358887,4225.897461,4178.846191,4244.102539,4252.436035,2576.000000,4.000000,86.000000,,,,0.000000,4.000000,4.000000,4.000000,4.000000,4.000000,4.000000,4.000000,2.000000,4.000000,4.000000,4.000000,4.000000,4.000000,4.000000,83.333336,,,,,,,,,,,,,,,,
1645710480.863961,151.000000,0.000000,4091.281982,4202.820313,4232.563965,4226.025879,4229.358887,4211.153809,4216.282227,4211.794922,4228.461426,4228.461426,4223.589844,4176.794922,4242.436035,4250.641113,2742.000000,4.000000,86.000000,,,,0.000000,4.000000,4.000000,4.000000,4.000000,4.000000,4.000000,4.000000,2.000000,4.000000,4.000000,4.000000,4.000000,4.000000,4.000000,83.333336,,,,,,,,,,,,,,,,
1645710480.867801,152.000000,0.000000,4089.743652,4202.692383,4233.205078,4226.282227,4237.307617,4209.487305,4215.897461,4211.538574,4227.820313,4226.794922,4222.436035,4176.282227,4240.384766,4247.692383,3185.000000,4.000000,86.000000,,,,0.000000,4.000000,4.000000,4.000000,4.000000,4.000000,4.000000,4.000000,2.000000,4.000000,4.000000,4.000000,4.000000,4.000000,4.000000,83.333336,,,,,,,,,,,,,,,,
1645710480.871741,153.000000,0.000000,4097.307617,4203.846191,4233.974121,4223.974121,4237.307617,4210.769043,4217.948730,4209.487305,4229.102539,4226.538574,4224.487305,4177.436035,4240.128418,4245.769043,3067.000000,4.000000,86.000000,,,,0.000000,4.000000,4.000000,4.000000,4.000000,4.000000,4.000000,4.000000,2.000000,4.000000,4.000000,4.000000,4.000000,4.000000,4.000000,83.333336,,,,,,,,,,,,,,,,
1645710480.875681,154.000000,0.000000,4107.051270,4205.769043,4235.384766,4222.563965,4230.641113,4213.077148,4220.384766,4208.461426,4231.153809,4228.205078,4228.461426,4180.128418,4241.538574,4246.025879,2576.000000,4.000000,86.000000,,,,0.000000,4.000000,4.000000,4.000000,4.000000,4.000000,4.000000,4.000000,2.000000,4.000000,4.000000,4.000000,4.000000,4.000000,4.000000,83.333336,,,,,,,,,,,,,,,,
1645710480.879622,155.000000,0.000000,4102.563965,4207.051270,4236.666504,4224.615234,4223.077148,4213.461426,4220.769043,4210.128418,4232.307617,4229.743652,4231.538574,4182.563965,4242.820313,4248.077148,2742.000000,4.000000,86.000000,,,,0.000000,4.000000,4.000000,4.000000,4.000000,4.000000,4.000000,4.000000,2.000000,4.000000,4.000000,4.000000,4.000000,4.000000,4.000000,83.333336,,,,,,,,,,,,,,,,
1645710480.883562,156.000000,0.000000,4067.051270,4206.538574,4236.666504,4229.615234,4220.512695,4211.153809,4218.333496,4212.820313,4231.410156,4229.358887,4230.769043,4183.077148,4242.563965,4249.615234,3185.000000,4.000000,86.000000,,,,0.000000,4.000000,4.000000,4.000000,4.000000,4.000000,4.000000,4.000000,2.000000,4.000000,4.000000,4.000000,4.000000,4.000000,4.000000,83.333336,,,,,,,,,,,,,,,,
1645710480.887502,157.000000,0.000000,3999.102539,4203.846191,4233.461426,4234.102539,4223.974121,4208.205078,4214.743652,4213.333496,4229.102539,4226.410156,4226.538574,4180.384766,4239.871582,4248.589844,3067.000000,4.000000,86.000000,,,,0.000000,4.000000,4.000000,4.000000,4.000000,4.000000,4.000000,4.000000,2.000000,4.000000,4.000000,4.000000,4.000000,4.000000,4.000000,83.333336,,,,,,,,,,,,,,,,
1645710480.891442,158.000000,0.000000,3918.205078,4200.384766,4227.179688,4233.461426,4228.846191,4206.410156,4212.051270,4210.512695,4226.794922,4221.538574,4220.641113,4174.743652,4235.641113,4244.358887,2576.000000,4.000000,86.000000,,,,0.000000,4.000000,4.000000,4.000000,4.000000,4.000000,4.000000,4.000000,2.000000,4.000000,4.000000,4.000000,4.000000,4.000000,4.000000,83.333336,,,,,,,,,,,,,,,,
1645710480.895382,159.000000,0.000000,3854.871826,4197.692383,4220.000000,4226.794922,4229.230957,4206.025879,4211.410156,4205.769043,4225.384766,4216.153809,4215.641113,4168.077148,4231.410156,4238.846191,2742.000000,4.000000,86.000000,,,,0.000000,4.000000,4.000000,4.000000,4.000000,4.000000,4.000000,4.000000,2.000000,4.000000,4.000000,4.000000,4.000000,4.000000,4.000000,83.333336,,,,,,,,,,,,,,,,
1645710480.899322,160.000000,0.000000,3830.000000,4197.307617,4215.128418,4217.948730,4223.333496,4206.410156,4213.077148,4202.563965,4225.000000,4211.794922,4213.333496,4163.589844,4228.846191,4235.000000,3185.000000,4.000000,86.000000,,,,0.000000,4.000000,4.000000,4.000000,4.000000,4.000000,4.000000,4.000000,2.000000,4.000000,4.000000,4.000000,4.000000,4.000000,4.000000,83.333336,,,,,,,,,,,,,,,,
1645710480.903262,161.000000,0.000000,3840.641113,4199.871582,4214.102539,4213.333496,4217.051270,4208.077148,4216.794922,4202.436035,4225.384766,4210.000000,4214.871582,4163.205078,4230.000000,4235.128418,3067.000000,4.000000,86.000000,,,,0.000000,4.000000,4.000000,4.000000,4.000000,4.000000,4.000000,4.000000,2.000000,4.000000,4.000000,4.000000,4.000000,4.000000,4.000000,83.333336,,,,,,,,,,,,,,,,
1645710480.907202,162.000000,0.000000,3864.743652,4204.487305,4216.282227,4216.538574,4218.589844,4212.051270,4221.538574,4205.000000,4226.025879,4212.179688,4220.256348,4166.410156,4235.000000,4238.333496,2576.000000,4.000000,86.000000,,,,0.000000,4.000000,4.000000,4.000000,4.000000,4.000000,4.000000,4.000000,2.000000,4.000000,4.000000,4.000000,4.000000,4.000000,4.000000,83.333336,,,,,,,,,,,,,,,,
1645710480.911142,163.000000,0.000000,3879.743652,4208.717773,4219.102539,4224.487305,4229.487305,4217.692383,4225.384766,4208.205078,4226.538574,4217.179688,4226.794922,4170.128418,4241.282227,4241.666504,2742.000000,4.000000,86.000000,,,,0.000000,4.000000,4.000000,4.000000,4.000000,4.000000,4.000000,4.000000,2.000000,4.000000,4.000000,4.000000,4.000000,4.000000,4.000000,83.333336,,,,,,,,,,,,,,,,
1645710480.915083,164.000000,0.000000,3878.846191,4210.384766,4219.871582,4229.615234,4242.692383,4222.692383,4226.922852,4210.256348,4226.922852,4221.153809,4230.128418,4170.897461,4245.000000,4242.436035,3185.000000,4.000000,86.000000,,,,0.000000,4.000000,4.000000,4.000000,4.000000,4.000000,4.000000,4.000000,2.000000,4.000000,4.000000,4.000000,4.000000,4.000000,4.000000,83.333336,,,,,,,,,,,,,,,,
1645710480.919023,165.000000,0.000000,3870.256348,4208.717773,4218.077148,4226.282227,4248.717773,4223.974121,4225.769043,4210.769043,4226.794922,4221.282227,4227.692383,4168.333496,4243.717773,4240.128418,3067.000000,4.000000,86.000000,,,,0.000000,4.000000,4.000000,4.000000,4.000000,4.000000,4.000000,4.000000,2.000000,4.000000,4.000000,4.000000,4.000000,4.000000,4.000000,83.333336,,,,,,,,,,,,,,,,
1645710480.922963,166.000000,0.000000,3865.512939,4205.384766,4215.000000,4216.153809,4244.743652,4221.538574,4223.333496,4210.256348,4225.897461,4218.205078,4221.922852,4164.871582,4239.615234,4237.179688,2576.000000,4.000000,86.000000,,,,0.000000,4.000000,4.000000,4.000000,4.000000,4.000000,4.000000,4.000000,2.000000,4.000000,4.000000,4.000000,4.000000,4.000000,4.000000,83.333336,,,,,,,,,,,,,,,,
1645710480.926903,167.000000,0.000000,3868.333252,4202.820313,4212.436035,4206.922852,4234.871582,4217.820313,4221.153809,4209.102539,4225.128418,4215.769043,4217.692383,4163.205078,4237.051270,4236.025879,2742.000000,4.000000,86.000000,,,,0.000000,4.000000,4.000000,4.000000,4.000000,4.000000,4.000000,4.000000,2.000000,4.000000,4.000000,4.000000,4.000000,4.000000,4.000000,83.333336,,,,,,,,,,,,,,,,
1645710480.930843,168.000000,0.000000,3874.871826,4201.410156,4211.922852,4205.256348,4225.641113,4215.897461,4220.769043,4207.948730,4225.128418,4216.794922,4218.974121,4164.358887,4238.846191,4237.820313,3185.000000,4.000000,86.000000,,,,0.000000,4.000000,4.000000,4.000000,4.000000,4.000000,4.000000,4.000000,2.000000,4.000000,4.000000,4.000000,4.000000,4.000000,4.000000,83.333336,,,,,,,,,,,,,,,,
1645710480.934783,169.000000,0.000000,3880.512939,4200.256348,4214.102539,4211.794922,4220.769043,4216.666504,4222.179688,4208.077148,4226.410156,4221.282227,4225.000000,4167.948730,4244.871582,4241.794922,3067.000000,4.000000,86.000000,,,,0.000000,4.000000,4.000000,4.000000,4.000000,4.000000,4.000000,4.000000,2.000000,4.000000,4.000000,4.000000,4.000000,4.000000,4.000000,83.333336,,,,,,,,,,,,,,,,
1645710480.938723,170.000000,0.000000,3884.615479,4198.717773,4218.589844,4221.794922,4220.897461,4219.743652,4224.615234,4210.641113,4229.358887,4227.948730,4232.436035,4173.333496,4252.563965,4246.410156,2576.000000,4.000000,86.000000,,,,0.000000,4.000000,4.000000,4.000000,4.000000,4.000000,4.000000,4.000000,2.000000,4.000000,4.000000,4.000000,4.000000,4.000000,4.000000,83.333336,,,,,,,,,,,,,,,,
1645710480.942563,171.000000,0.000000,3889.743652,4198.205078,4224.102539,4229.871582,4225.000000,4223.974121,4227.051270,4215.128418,4233.717773,4235.256348,4239.230957,4179.871582,4258.974121,4250.128418,2742.000000,4.000000,86.000000,,,,0.000000,4.000000,4.000000,4.000000,4.000000,4.000000,4.000000,4.000000,2.000000,4.000000,4.000000,4.000000,4.000000,4.000000,4.000000,83.333336,,,,,,,,,,,,,,,,
1645710480.946503,172.000000,0.000000,3895.897461,4200.384766,4229.487305,4233.717773,4230.897461,4228.077148,4228.333496,4219.358887,4238.461426,4242.563965,4244.615234,4185.897461,4262.563965,4252.179688,3185.000000,4.000000,86.000000,,,,0.000000,4.000000,4.000000,4.000000,4.000000,4.000000,4.000000,4.000000,2.000000,4.000000,4.000000,4.000000,4.000000,4.000000,4.000000,83.333336,,,,,,,,,,,,,,,,
1645710480.950444,173.000000,0.000000,3900.641113,4205.128418,4233.846191,4232.948730,4236.153809,4230.384766,4227.820313,4220.641113,4242.051270,4248.461426,4248.717773,4189.615234,4263.077148,4252.948730,3067.000000,4.000000,86.000000,,,,0.000000,4.000000,4.000000,4.000000,4.000000,4.000000,4.000000,4.000000,2.000000,4.000000,4.000000,4.000000,4.000000,4.000000,4.000000,83.333336,,,,,,,,,,,,,,,,
1645710480.954384,174.000000,0.000000,3901.923096,4209.871582,4236.153809,4228.461426,4238.205078,4229.102539,4225.641113,4218.974121,4243.077148,4250.897461,4250.384766,4190.000000,4261.282227,4252.820313,2576.000000,4.000000,86.000000,,,,0.000000,4.000000,4.000000,4.000000,4.000000,4.000000,4.000000,4.000000,2.000000,4.000000,4.000000,4.000000,4.000000,4.000000,4.000000,83.333336,,,,,,,,,,,,,,,,
1645710480.958324,175.000000,0.000000,3901.281982,4212.436035,4235.641113,4222.436035,4237.051270,4224.871582,4223.077148,4216.666504,4241.282227,4248.974121,4248.333496,4187.820313,4258.333496,4252.179688,2742.000000,4.000000,86.000000,,,,0.000000,4.000000,4.000000,4.000000,4.000000,4.000000,4.000000,4.000000,2.000000,4.000000,4.000000,4.000000,4.000000,4.000000,4.000000,83.333336,,,,,,,,,,,,,,,,
1645710480.962264,176.000000,0.000000,3901.538574,4212.307617,4232.692383,4217.948730,4235.641113,4221.025879,4222.692383,4216.282227,4238.461426,4244.487305,4243.333496,4185.384766,4256.025879,4251.794922,3185.000000,4.000000,86.000000,,,,0.000000,4.000000,4.000000,4.000000,4.000000,4.000000,4.000000,4.000000,2.000000,4.000000,4.000000,4.000000,4.000000,4.000000,4.000000,83.333336,,,,,,,,,,,,,,,,
1645710480.966204,177.000000,0.000000,3903.589844,4211.282227,4229.102539,4217.563965,4236.922852,4220.897461,4225.384766,4217.948730,4236.666504,4241.410156,4238.846191,4184.743652,4256.025879,4251.538574,3067.000000,4.000000,86.000000,,,,0.000000,4.000000,4.000000,4.000000,4.000000,4.000000,4.000000,4.000000,2.000000,4.000000,4.000000,4.000000,4.000000,4.000000,4.000000,83.333336,,,,,,,,,,,,,,,,
1645710480.970144,178.000000,0.000000,3906.538574,4211.153809,4226.666504,4221.025879,4240.897461,4224.487305,4229.102539,4220.128418,4236.922852,4241.282227,4237.563965,4186.282227,4258.205078,4251.025879,2576.000000,4.000000,86.000000,,,,0.000000,4.000000,4.000000,4.000000,4.000000,4.000000,4.000000,4.000000,2.000000,4.000000,4.000000,4.000000,4.000000,4.000000,4.000000,83.333336,,,,,,,,,,,,,,,,
1645710480.974084,179.000000,0.000000,3909.358887,4210.897461,4225.128418,4225.128418,4244.102539,4227.692383,4230.000000,4220.769043,4237.692383,4241.794922,4238.589844,4187.692383,4259.743652,4249.743652,2742.000000,4.000000,86.000000,,,,0.000000,4.000000,4.000000,4.000000,4.000000,4.000000,4.000000,4.000000,2.000000,4.000000,4.000000,4.000000,4.000000,4.000000,4.000000,83.333336,,,,,,,,,,,,,,,,
1645710480.978024,180.000000,0.000000,3911.538574,4208.846191,4223.077148,4226.794922,4242.820313,4226.025879,4226.025879,4219.487305,4236.538574,4238.205078,4238.077148,4186.025879,4258.077148,4247.692383,3185.000000,4.000000,86.000000,,,,0.000000,4.000000,4.000000,4.000000,4.000000,4.000000,4.000000,4.000000,2.000000,4.000000,4.000000,4.000000,4.000000,4.000000,4.000000,83.333336,,,,,,,,,,,,,,,,
1645710480.981964,181.000000,0.000000,3912.820557,4204.871582,4219.871582,4225.128418,4235.769043,4219.743652,4219.102539,4216.538574,4232.820313,4229.743652,4233.846191,4180.641113,4252.820313,4245.512695,3067.000000,4.000000,86.000000,,,,0.000000,4.000000,4.000000,4.000000,4.000000,4.000000,4.000000,4.000000,2.000000,4.000000,4.000000,4.000000,4.000000,4.000000,4.000000,83.333336,,,,,,,,,,,,,,,,
1645710480.985905,182.000000,0.000000,3912.179443,4201.282227,4217.179688,4221.794922,4226.282227,4213.333496,4213.205078,4212.692383,4228.205078,4220.384766,4228.077148,4174.487305,4247.179688,4244.102539,2576.000000,4.000000,86.000000,,,,0.000000,4.000000,4.000000,4.000000,4.000000,4.000000,4.000000,4.000000,2.000000,4.000000,4.000000,4.000000,4.000000,4.000000,4.000000,83.333336,,,,,,,,,,,,,,,,
1645710480.989845,183.000000,0.000000,3910.384521,4200.897461,4216.922852,4220.000000,4218.974121,4211.410156,4211.025879,4208.589844,4225.128418,4215.641113,4225.256348,4171.538574,4244.487305,4243.974121,2742.000000,4.000000,86.000000,,,,0.000000,4.000000,4.000000,4.000000,4.000000,4.000000,4.000000,4.000000,2.000000,4.000000,4.000000,4.000000,4.000000,4.000000,4.000000,83.333336,,,,,,,,,,,,,,,,
1645710480.993785,184.000000,0.000000,3910.641113,4202.692383,4219.487305,4221.153809,4216.794922,4213.846191,4211.922852,4205.384766,4224.871582,4217.051270,4226.282227,4173.333496,4245.512695,4244.230957,3185.000000,4.000000,86.000000,,,,0.000000,4.000000,4.000000,4.000000,4.000000,4.000000,4.000000,4.000000,2.000000,4.000000,4.000000,4.000000,4.000000,4.000000,4.000000,83.333336,,,,,,,,,,,,,,,,
1645710480.997725,185.000000,0.000000,3915.384521,4203.205078,4222.692383,4223.333496,4218.974121,4216.794922,4213.205078,4204.102539,4226.025879,4221.153809,4228.461426,4177.436035,4247.563965,4243.846191,3067.000000,4.000000,86.000000,,,,0.000000,4.000000,4.000000,4.000000,4.000000,4.000000,4.000000,4.000000,2.000000,4.000000,4.000000,4.000000,4.000000,4.000000,4.000000,83.333336,,,,,,,,,,,,,,,,
1645710481.001665,186.000000,0.000000,3922.564209,4200.641113,4224.102539,4222.948730,4221.666504,4217.179688,4212.948730,4204.615234,4226.922852,4222.948730,4228.461426,4179.358887,4247.820313,4241.922852,2576.000000,4.000000,86.000000,,,,0.000000,4.000000,4.000000,4.000000,4.000000,4.000000,4.000000,4.000000,2.000000,4.000000,4.000000,4.000000,4.000000,4.000000,4.000000,83.333336,,,,,,,,,,,,,,,,
1645710481.005605,187.000000,0.000000,3927.179443,4196.922852,4222.820313,4218.589844,4221.922852,4215.512695,4211.794922,4205.000000,4226.410156,4220.000000,4225.641113,4177.179688,4245.384766,4238.846191,2742.000000,4.000000,86.000000,,,,0.000000,4.000000,4.000000,4.000000,4.000000,4.000000,4.000000,4.000000,2.000000,4.000000,4.000000,4.000000,4.000000,4.000000,4.000000,83.333336,,,,,,,,,,,,,,,,
1645710481.009545,188.000000,0.000000,3926.538574,4195.897461,4220.384766,4211.794922,4220.256348,4214.615234,4211.153809,4203.717773,4224.743652,4214.358887,4222.179688,4172.051270,4241.794922,4236.153809,3185.000000,4.000000,86.000000,,,,0.000000,4.000000,4.000000,4.000000,4.000000,4.000000,4.000000,4.000000,2.000000,4.000000,4.000000,4.000000,4.000000,4.000000,4.000000,83.333336,,,,,,,,,,,,,,,,
1645710481.013485,189.000000,0.000000,3923.461426,4199.230957,4218.974121,4206.538574,4219.871582,4215.897461,4212.179688,4201.410156,4222.436035,4209.487305,4220.384766,4167.307617,4239.230957,4235.769043,3067.000000,4.000000,86.000000,,,,0.000000,4.000000,4.000000,4.000000,4.000000,4.000000,4.000000,4.000000,2.000000,4.000000,4.000000,4.000000,4.000000,4.000000,4.000000,83.333336,,,,,,,,,,,,,,,,
1645710481.017325,190.000000,0.000000,3923.846191,4204.871582,4220.000000,4206.922852,4222.692383,4217.948730,4214.487305,4200.000000,4220.128418,4207.436035,4220.256348,4165.512695,4238.589844,4238.333496,2576.000000,4.000000,86.000000,,,,0.000000,4.000000,4.000000,4.000000,4.000000,4.000000,4.000000,4.000000,2.000000,4.000000,4.000000,4.000000,4.000000,4.000000,4.000000,83.333336,,,,,,,,,,,,,,,,
1645710481.021266,191.000000,0.000000,3929.487061,4209.230957,4223.589844,4213.974121,4227.436035,4218.461426,4216.666504,4200.128418,4218.333496,4207.692383,4221.538574,4166.922852,4239.743652,4242.692383,2742.000000,4.000000,86.000000,,,,0.000000,4.000000,4.000000,4.000000,4.000000,4.000000,4.000000,4.000000,2.000000,4.000000,4.000000,4.000000,4.000000,4.000000,4.000000,83.333336,,,,,,,,,,,,,,,,
1645710481.025206,192.000000,0.000000,3936.794922,4210.641113,4228.461426,4224.615234,4231.538574,4217.179688,4218.205078,4201.025879,4217.436035,4209.102539,4223.974121,4170.256348,4241.666504,4246.410156,3185.000000,4.000000,86.000000,,,,0.000000,4.000000,4.000000,4.000000,4.000000,4.000000,4.000000,4.000000,2.000000,4.000000,4.000000,4.000000,4.000000,4.000000,4.000000,83.333336,,,,,,,,,,,,,,,,
1645710481.029146,193.000000,0.000000,3941.025635,4210.128418,4232.436035,4233.461426,4233.589844,4215.641113,4219.230957,4201.666504,4217.563965,4210.641113,4228.205078,4174.230957,4243.846191,4248.205078,3067.000000,4.000000,86.000000,,,,0.000000,4.000000,4.000000,4.000000,4.000000,4.000000,4.000000,4.000000,2.000000,4.000000,4.000000,4.000000,4.000000,4.000000,4.000000,83.333336,,,,,,,,,,,,,,,,
1645710481.033086,194.000000,0.000000,3942.179443,4209.871582,4234.230957,4235.897461,4234.358887,4215.769043,4220.128418,4202.179688,4218.717773,4211.794922,4233.333496,4178.333496,4245.512695,4248.205078,2576.000000,4.000000,86.000000,,,,0.000000,4.000000,4.000000,4.000000,4.000000,4.000000,4.000000,4.000000,2.000000,4.000000,4.000000,4.000000,4.000000,4.000000,4.000000,83.333336,,,,,,,,,,,,,,,,
1645710481.037026,195.000000,0.000000,3943.461426,4210.512695,4233.589844,4231.922852,4234.743652,4217.692383,4221.282227,4203.205078,4220.256348,4212.179688,4236.922852,4181.538574,4245.769043,4248.077148,2742.000000,4.000000,86.000000,,,,0.000000,4.000000,4.000000,4.000000,4.000000,4.000000,4.000000,4.000000,2.000000,4.000000,4.000000,4.000000,4.000000,4.000000,4.000000,83.333336,,,,,,,,,,,,,,,,
1645710481.040966,196.000000,0.000000,3947.564209,4211.282227,4232.051270,4225.512695,4234.487305,4220.769043,4222.820313,4204.615234,4221.666504,4212.051270,4236.410156,4182.692383,4243.974121,4248.717773,3185.000000,4.000000,86.000000,,,,0.000000,4.000000,4.000000,4.000000,4.000000,4.000000,4.000000,4.000000,2.000000,4.000000,4.000000,4.000000,4.000000,4.000000,4.000000,83.333336,,,,,,,,,,,,,,,,
1645710481.044906,197.000000,0.000000,3952.948730,4211.794922,4231.666504,4221.666504,4233.205078,4224.487305,4224.358887,4205.384766,4222.436035,4212.307617,4232.307617,4180.897461,4241.025879,4249.871582,3067.000000,4.000000,86.000000,,,,0.000000,4.000000,4.000000,4.000000,4.000000,4.000000,4.000000,4.000000,2.000000,4.000000,4.000000,4.000000,4.000000,4.000000,4.000000,83.333336,,,,,,,,,,,,,,,,
1645710481.048846,198.000000,0.000000,3956.281982,4212.563965,4232.563965,4222.948730,4230.769043,4227.692383,4224.743652,4205.256348,4223.333496,4213.846191,4227.436035,4176.922852,4238.846191,4250.128418,2576.000000,4.000000,86.000000,,,,0.000000,4.000000,4.000000,4.000000,4.000000,4.000000,4.000000,4.000000,2.000000,4.000000,4.000000,4.000000,4.000000,4.000000,4.000000,83.333336,,,,,,,,,,,,,,,,
1645710481.052786,199.000000,0.000000,3957.564209,4213.974121,4233.717773,4227.307617,4227.051270,4228.974121,4223.461426,4205.512695,4224.615234,4215.512695,4224.615234,4172.820313,4238.846191,4248.717773,2742.000000,4.000000,86.000000,,,,0.000000,4.000000,4.000000,4.000000,4.000000,4.000000,4.000000,4.000000,2.000000,4.000000,4.000000,4.000000,4.000000,4.000000,4.000000,83.333336,,,,,,,,,,,,,,,,
1645710481.056727,200.000000,0.000000,3959.487061,4215.769043,4233.461426,4230.897461,4222.179688,4226.922852,4221.025879,4207.820313,4226.025879,4216.025879,4223.974121,4170.769043,4241.025879,4246.666504,3185.000000,4.000000,86.000000,,,,0.000000,4.000000,4.000000,4.000000,4.000000,4.000000,4.000000,4.000000,2.000000,4.000000,4.000000,4.000000,4.000000,4.000000,4.000000,83.333336,,,,,,,,,,,,,,,,
1645710481.060667,201.000000,0.000000,3963.589844,4217.692383,4232.307617,4231.153809,4218.205078,4222.051270,4218.589844,4211.538574,4226.410156,4215.512695,4225.000000,4171.538574,4244.358887,4245.512695,3067.000000,4.000000,86.000000,,,,0.000000,4.000000,4.000000,4.000000,4.000000,4.000000,4.000000,4.000000,2.000000,4.000000,4.000000,4.000000,4.000000,4.000000,4.000000,83.333336,,,,,,,,,,,,,,,,
1645710481.064607,202.000000,0.000000,3967.564209,4219.615234,4231.666504,4228.717773,4219.230957,4217.436035,4217.820313,4214.230957,4225.641113,4216.153809,4227.051270,4174.102539,4247.692383,4246.025879,2576.000000,4.000000,86.000000,,,,0.000000,4.000000,4.000000,4.000000,4.000000,4.000000,4.000000,4.000000,2.000000,4.000000,4.000000,4.000000,4.000000,4.000000,4.000000,83.333336,,,,,,,,,,,,,,,,
1645710481.068547,203.000000,0.000000,3968.205078,4220.769043,4231.922852,4225.769043,4227.436035,4215.384766,4218.974121,4214.102539,4224.743652,4219.487305,4229.871582,4176.282227,4250.000000,4246.794922,2742.000000,4.000000,86.000000,,,,0.000000,4.000000,4.000000,4.000000,4.000000,4.000000,4.000000,4.000000,2.000000,4.000000,4.000000,4.000000,4.000000,4.000000,4.000000,83.333336,,,,,,,,,,,,,,,,
1645710481.072487,204.000000,0.000000,3965.512939,4220.000000,4232.307617,4224.102539,4240.000000,4216.282227,4220.512695,4212.051270,4224.871582,4223.846191,4231.794922,4176.666504,4250.256348,4246.282227,3185.000000,4.000000,86.000000,,,,0.000000,4.000000,4.000000,4.000000,4.000000,4.000000,4.000000,4.000000,2.000000,4.000000,4.000000,4.000000,4.000000,4.000000,4.000000,83.333336,,,,,,,,,,,,,,,,
1645710481.076427,205.000000,0.000000,3963.974365,4216.153809,4231.538574,4224.230957,4249.102539,4217.436035,4220.384766,4210.641113,4225.769043,4225.128418,4230.897461,4175.000000,4247.820313,4243.846191,3067.000000,4.000000,86.000000,,,,0.000000,4.000000,4.000000,4.000000,4.000000,4.000000,4.000000,4.000000,2.000000,4.000000,4.000000,4.000000,4.000000,4.000000,4.000000,83.333336,,,,,,,,,,,,,,,,
1645710481.080367,206.000000,0.000000,3966.410156,4210.256348,4229.102539,4225.384766,4247.692383,4217.051270,4218.077148,4211.153809,4226.922852,4221.153809,4226.922852,4171.922852,4243.205078,4240.384766,2576.000000,4.000000,86.000000,,,,0.000000,4.000000,4.000000,4.000000,4.000000,4.000000,4.000000,4.000000,2.000000,4.000000,4.000000,4.000000,4.000000,4.000000,4.000000,83.333336,,,,,,,,,,,,,,,,
1645710481.084307,207.000000,0.000000,3970.897461,4206.153809,4225.897461,4226.282227,4235.897461,4215.128418,4214.358887,4212.179688,4227.179688,4213.717773,4221.666504,4168.461426,4238.461426,4237.563965,2742.000000,4.000000,86.000000,,,,0.000000,4.000000,4.000000,4.000000,4.000000,4.000000,4.000000,4.000000,2.000000,4.000000,4.000000,4.000000,4.000000,4.000000,4.000000,83.333336,,,,,,,,,,,,,,,,
1645710481.088247,208.000000,0.000000,3973.205078,4206.282227,4222.307617,4224.871582,4220.769043,4213.077148,4210.384766,4211.153809,4226.282227,4207.307617,4217.563965,4165.897461,4235.641113,4235.384766,3185.000000,4.000000,86.000000,,,,0.000000,4.000000,4.000000,4.000000,4.000000,4.000000,4.000000,4.000000,2.000000,4.000000,4.000000,4.000000,4.000000,4.000000,4.000000,83.333336,,,,,,,,,,,,,,,,
1645710481.092088,209.000000,0.000000,3971.153809,4209.358887,4218.461426,4219.358887,4210.384766,4211.922852,4207.563965,4207.692383,4224.487305,4204.230957,4214.743652,4163.717773,4234.743652,4232.820313,3067.000000,4.000000,86.000000,,,,0.000000,4.000000,4.000000,4.000000,4.000000,4.000000,4.000000,4.000000,2.000000,4.000000,4.000000,4.000000,4.000000,4.000000,4.000000,83.333336,,,,,,,,,,,,,,,,
1645710481.096028,210.000000,0.000000,3967.820557,4211.025879,4214.615234,4210.641113,4208.974121,4211.282227,4207.436035,4204.358887,4222.051270,4203.461426,4212.179688,4161.666504,4234.358887,4229.615234,2576.000000,4.000000,86.000000,,,,0.000000,4.000000,4.000000,4.000000,4.000000,4.000000,4.000000,4.000000,2.000000,4.000000,4.000000,4.000000,4.000000,4.000000,4.000000,83.333336,,,,,,,,,,,,,,,,
1645710481.099968,211.000000,0.000000,3967.692383,4208.461426,4212.820313,4203.077148,4215.256348,4211.538574,4210.641113,4203.974121,4219.743652,4203.205078,4210.128418,4160.256348,4233.461426,4227.563965,2742.000000,4.000000,86.000000,,,,0.000000,4.000000,4.000000,4.000000,4.000000,4.000000,4.000000,4.000000,2.000000,4.000000,4.000000,4.000000,4.000000,4.000000,4.000000,83.333336,,,,,,,,,,,,,,,,
1645710481.103908,212.000000,0.000000,3971.923096,4202.563965,4214.743652,4202.307617,4224.743652,4213.717773,4216.410156,4206.922852,4219.102539,4203.717773,4210.256348,4161.282227,4233.205078,4228.846191,3185.000000,4.000000,86.000000,,,,0.000000,4.000000,4.000000,4.000000,4.000000,4.000000,4.000000,4.000000,2.000000,4.000000,4.000000,4.000000,4.000000,4.000000,4.000000,83.333336,,,,,,,,,,,,,,,,
1645710481.107748,213.000000,0.000000,3977.820557,4197.307617,4219.487305,4209.615234,4232.051270,4217.820313,4221.922852,4210.769043,4220.769043,4205.897461,4213.461426,4166.025879,4235.641113,4233.589844,3067.000000,4.000000,86.000000,,,,0.000000,4.000000,4.000000,4.000000,4.000000,4.000000,4.000000,4.000000,2.000000,4.000000,4.000000,4.000000,4.000000,4.000000,4.000000,83.333336,,,,,,,,,,,,,,,,
1645710481.111688,214.000000,0.000000,3982.564209,4195.384766,4223.717773,4219.871582,4232.436035,4221.282227,4223.717773,4212.179688,4223.846191,4209.358887,4217.948730,4172.948730,4240.641113,4238.589844,2576.000000,4.000000,86.000000,,,,0.000000,4.000000,4.000000,4.000000,4.000000,4.000000,4.000000,4.000000,2.000000,4.000000,4.000000,4.000000,4.000000,4.000000,4.000000,83.333336,,,,,,,,,,,,,,,,
1645710481.115628,215.000000,0.000000,3985.512939,4196.794922,4223.974121,4224.871582,4224.871582,4221.410156,4220.384766,4210.384766,4225.769043,4211.410156,4220.512695,4178.717773,4245.128418,4240.512695,2742.000000,4.000000,86.000000,,,,0.000000,4.000000,4.000000,4.000000,4.000000,4.000000,4.000000,4.000000,2.000000,4.000000,4.000000,4.000000,4.000000,4.000000,4.000000,83.333336,,,,,,,,,,,,,,,,
1645710481.119568,216.000000,0.000000,3987.564209,4200.256348,4220.384766,4221.025879,4213.846191,4217.948730,4214.358887,4207.307617,4225.000000,4210.128418,4220.256348,4180.256348,4245.769043,4238.589844,3185.000000,4.000000,86.000000,,,,0.000000,4.000000,4.000000,4.000000,4.000000,4.000000,4.000000,4.000000,2.000000,4.000000,4.000000,4.000000,4.000000,4.000000,4.000000,83.333336,,,,,,,,,,,,,,,,
1645710481.123509,217.000000,0.000000,3989.102539,4204.358887,4216.666504,4212.692383,4208.077148,4214.102539,4210.512695,4205.384766,4222.051270,4207.179688,4219.871582,4178.205078,4242.820313,4235.641113,3067.000000,4.000000,86.000000,,,,0.000000,4.000000,4.000000,4.000000,4.000000,4.000000,4.000000,4.000000,2.000000,4.000000,4.000000,4.000000,4.000000,4.000000,4.000000,83.333336,,,,,,,,,,,,,,,,
1645710481.127449,218.000000,0.000000,3989.615479,4208.461426,4216.282227,4208.717773,4213.333496,4214.102539,4212.307617,4205.897461,4219.358887,4206.410156,4222.563965,4175.384766,4240.128418,4235.128418,2576.000000,4.000000,86.000000,,,,0.000000,4.000000,4.000000,4.000000,4.000000,4.000000,4.000000,4.000000,2.000000,4.000000,4.000000,4.000000,4.000000,4.000000,4.000000,83.333336,,,,,,,,,,,,,,,,
1645710481.131389,219.000000,0.000000,3990.384521,4211.282227,4220.512695,4213.717773,4227.179688,4218.589844,4218.717773,4208.333496,4219.102539,4210.384766,4228.461426,4174.230957,4241.666504,4238.077148,2742.000000,4.000000,86.000000,,,,0.000000,4.000000,4.000000,4.000000,4.000000,4.000000,4.000000,4.000000,2.000000,4.000000,4.000000,4.000000,4.000000,4.000000,4.000000,83.333336,,,,,,,,,,,,,,,,
1645710481.135329,220.000000,0.000000,3993.205078,4212.051270,4226.538574,4222.948730,4239.615234,4223.974121,4225.128418,4212.051270,4221.282227,4218.461426,4234.487305,4175.897461,4247.692383,4242.563965,3185.000000,4.000000,86.000000,,,,0.000000,4.000000,4.000000,4.000000,4.000000,4.000000,4.000000,4.000000,2.000000,4.000000,4.000000,4.000000,4.000000,4.000000,4.000000,83.333336,,,,,,,,,,,,,,,,
1645710481.139269,221.000000,0.000000,3998.205078,4211.025879,4230.256348,4227.820313,4241.410156,4226.153809,4227.179688,4216.153809,4224.615234,4227.051270,4237.051270,4179.102539,4255.000000,4246.666504,3067.000000,4.000000,86.000000,,,,0.000000,4.000000,4.000000,4.000000,4.000000,4.000000,4.000000,4.000000,2.000000,4.000000,4.000000,4.000000,4.000000,4.000000,4.000000,83.333336,,,,,,,,,,,,,,,,
1645710481.143209,222.000000,0.000000,4001.923096,4209.358887,4228.974121,4223.333496,4232.179688,4224.102539,4224.102539,4219.487305,4227.820313,4233.461426,4236.410156,4182.051270,4259.230957,4249.102539,2576.000000,4.000000,86.000000,,,,0.000000,4.000000,4.000000,4.000000,4.000000,4.000000,4.000000,4.000000,2.000000,4.000000,4.000000,4.000000,4.000000,4.000000,4.000000,83.333336,,,,,,,,,,,,,,,,
1645710481.147149,223.000000,0.000000,4001.410156,4207.436035,4223.846191,4213.974121,4220.897461,4220.384766,4218.589844,4220.769043,4230.256348,4236.666504,4235.384766,4182.563965,4258.717773,4249.487305,2742.000000,4.000000,86.000000,,,,0.000000,4.000000,4.000000,4.000000,4.000000,4.000000,4.000000,4.000000,2.000000,4.000000,4.000000,4.000000,4.000000,4.000000,4.000000,83.333336,,,,,,,,,,,,,,,,
1645710481.151089,224.000000,0.000000,3998.205078,4205.000000,4217.948730,4208.333496,4217.563965,4218.205078,4213.717773,4219.358887,4231.153809,4236.922852,4236.153809,4179.871582,4254.487305,4247.563965,3185.000000,4.000000,86.000000,,,,0.000000,4.000000,4.000000,4.000000,4.000000,4.000000,4.000000,4.000000,2.000000,4.000000,4.000000,4.000000,4.000000,4.000000,4.000000,83.333336,,,,,,,,,,,,,,,,
1645710481.155029,225.000000,0.000000,3996.794922,4201.153809,4214.230957,4211.025879,4223.717773,4218.205078,4211.282227,4216.410156,4230.000000,4234.230957,4237.563965,4174.230957,4249.358887,4243.589844,3067.000000,4.000000,86.000000,,,,0.000000,4.000000,4.000000,4.000000,4.000000,4.000000,4.000000,4.000000,2.000000,4.000000,4.000000,4.000000,4.000000,4.000000,4.000000,83.333336,,,,,,,,,,,,,,,,
1645710481.158969,226.000000,0.000000,4000.641113,4197.436035,4213.589844,4218.461426,4231.794922,4219.230957,4211.538574,4213.974121,4226.922852,4229.487305,4237.179688,4168.205078,4246.153809,4239.230957,2576.000000,4.000000,86.000000,,,,0.000000,4.000000,4.000000,4.000000,4.000000,4.000000,4.000000,4.000000,2.000000,4.000000,4.000000,4.000000,4.000000,4.000000,4.000000,83.333336,,,,,,,,,,,,,,,,
1645710481.162910,227.000000,0.000000,4007.564209,4196.282227,4215.512695,4223.461426,4233.077148,4220.769043,4214.102539,4213.461426,4223.974121,4225.384766,4234.615234,4165.256348,4246.794922,4236.794922,2742.000000,4.000000,86.000000,,,,0.000000,4.000000,4.000000,4.000000,4.000000,4.000000,4.000000,4.000000,2.000000,4.000000,4.000000,4.000000,4.000000,4.000000,4.000000,83.333336,,,,,,,,,,,,,,,,
1645710481.166850,228.000000,0.000000,4012.435791,4199.358887,4218.717773,4222.820313,4226.025879,4222.948730,4218.077148,4214.358887,4222.820313,4225.128418,4231.922852,4167.051270,4250.769043,4237.692383,3185.000000,4.000000,86.000000,,,,0.000000,4.000000,4.000000,4.000000,4.000000,4.000000,4.000000,4.000000,2.000000,4.000000,4.000000,4.000000,4.000000,4.000000,4.000000,83.333336,,,,,,,,,,,,,,,,
1645710481.170790,229.000000,0.000000,4012.820557,4205.384766,4221.153809,4219.230957,4216.410156,4225.384766,4221.666504,4215.512695,4223.974121,4228.974121,4230.769043,4172.051270,4255.000000,4240.897461,3067.000000,4.000000,86.000000,,,,0.000000,4.000000,4.000000,4.000000,4.000000,4.000000,4.000000,4.000000,2.000000,4.000000,4.000000,4.000000,4.000000,4.000000,4.000000,83.333336,,,,,,,,,,,,,,,,
1645710481.174630,230.000000,0.000000,4011.666748,4211.025879,4222.307617,4217.179688,4211.794922,4226.282227,4223.205078,4216.025879,4226.153809,4233.589844,4230.897461,4176.153809,4256.025879,4243.846191,2576.000000,4.000000,86.000000,,,,0.000000,4.000000,4.000000,4.000000,4.000000,4.000000,4.000000,4.000000,2.000000,4.000000,4.000000,4.000000,4.000000,4.000000,4.000000,83.333336,,,,,,,,,,,,,,,,
1645710481.178570,231.000000,0.000000,4013.205078,4213.717773,4222.307617,4218.717773,4215.000000,4224.615234,4222.436035,4216.025879,4227.436035,4234.358887,4230.128418,4176.666504,4252.436035,4244.230957,2742.000000,4.000000,86.000000,,,,0.000000,4.000000,4.000000,4.000000,4.000000,4.000000,4.000000,4.000000,2.000000,4.000000,4.000000,4.000000,4.000000,4.000000,4.000000,83.333336,,,,,,,,,,,,,,,,
1645710481.182510,232.000000,0.000000,4017.435791,4213.333496,4221.794922,4222.307617,4223.974121,4221.538574,4221.025879,4215.000000,4226.922852,4229.871582,4227.179688,4173.717773,4246.153809,4241.666504,3185.000000,4.000000,86.000000,,,,0.000000,4.000000,4.000000,4.000000,4.000000,4.000000,4.000000,4.000000,2.000000,4.000000,4.000000,4.000000,4.000000,4.000000,4.000000,83.333336,,,,,,,,,,,,,,,,
1645710481.186450,233.000000,0.000000,4020.897461,4211.538574,4221.538574,4225.256348,4234.230957,4219.871582,4220.641113,4212.948730,4224.871582,4222.820313,4223.333496,4170.000000,4241.025879,4238.077148,3067.000000,4.000000,86.000000,,,,0.000000,4.000000,4.000000,4.000000,4.000000,4.000000,4.000000,4.000000,2.000000,4.000000,4.000000,4.000000,4.000000,4.000000,4.000000,83.333336,,,,,,,,,,,,,,,,
1645710481.190390,234.000000,0.000000,4021.538574,4210.512695,4222.563965,4225.769043,4241.282227,4220.769043,4221.153809,4210.384766,4222.179688,4217.307617,4220.897461,4168.717773,4239.487305,4236.794922,2576.000000,4.000000,86.000000,,,,0.000000,4.000000,4.000000,4.000000,4.000000,4.000000,4.000000,4.000000,2.000000,4.000000,4.000000,4.000000,4.000000,4.000000,4.000000,83.333336,,,,,,,,,,,,,,,,
1645710481.194331,235.000000,0.000000,4022.179443,4210.512695,4225.512695,4224.871582,4242.692383,4223.205078,4221.153809,4209.358887,4219.871582,4215.512695,4221.538574,4171.666504,4241.538574,4239.743652,2742.000000,4.000000,86.000000,,,,0.000000,4.000000,4.000000,4.000000,4.000000,4.000000,4.000000,4.000000,2.000000,4.000000,4.000000,4.000000,4.000000,4.000000,4.000000,83.333336,,,,,,,,,,,,,,,,
1645710481.198271,236.000000,0.000000,4026.281982,4210.641113,4230.000000,4224.358887,4238.077148,4224.230957,4219.230957,4210.897461,4217.948730,4216.666504,4224.230957,4177.820313,4244.358887,4245.641113,3185.000000,4.000000,86.000000,,,,0.000000,4.000000,4.000000,4.000000,4.000000,4.000000,4.000000,4.000000,2.000000,4.000000,4.000000,4.000000,4.000000,4.000000,4.000000,83.333336,,,,,,,,,,,,,,,,
1645710481.202211,237.000000,0.000000,4032.564209,4210.769043,4233.333496,4226.025879,4230.769043,4222.692383,4216.282227,4213.077148,4216.666504,4218.717773,4226.666504,4183.461426,4245.384766,4250.384766,3067.000000,4.000000,86.000000,,,,0.000000,4.000000,4.000000,4.000000,4.000000,4.000000,4.000000,4.000000,2.000000,4.000000,4.000000,4.000000,4.000000,4.000000,4.000000,83.333336,,,,,,,,,,,,,,,,
1645710481.206151,238.000000,0.000000,4036.538574,4212.179688,4233.589844,4229.743652,4225.769043,4219.871582,4215.000000,4213.589844,4216.410156,4220.000000,4227.692383,4185.512695,4244.358887,4250.769043,2576.000000,4.000000,86.000000,,,,0.000000,4.000000,4.000000,4.000000,4.000000,4.000000,4.000000,4.000000,2.000000,4.000000,4.000000,4.000000,4.000000,4.000000,4.000000,83.333336,,,,,,,,,,,,,,,,
1645710481.210091,239.000000,0.000000,4036.025635,4216.153809,4231.794922,4233.717773,4225.128418,4218.205078,4216.794922,4211.538574,4217.436035,4220.128418,4227.692383,4183.717773,4243.589844,4247.692383,2742.000000,4.000000,86.000000,,,,0.000000,4.000000,4.000000,4.000000,4.000000,4.000000,4.000000,4.000000,2.000000,4.000000,4.000000,4.000000,4.000000,4.000000,4.000000,83.333336,,,,,,,,,,,,,,,,
1645710481.214031,240.000000,0.000000,4034.487061,4221.666504,4232.051270,4236.794922,4227.563965,4218.333496,4220.128418,4208.589844,4219.615234,4219.230957,4228.205078,4181.410156,4244.743652,4245.128418,3185.000000,4.000000,86.000000,,,,0.000000,4.000000,4.000000,4.000000,4.000000,4.000000,4.000000,4.000000,2.000000,4.000000,4.000000,4.000000,4.000000,4.000000,4.000000,83.333336,,,,,,,,,,,,,,,,
1645710481.217971,241.000000,0.000000,4037.307617,4225.897461,4237.179688,4238.974121,4229.743652,4218.846191,4221.922852,4207.179688,4221.922852,4217.436035,4229.871582,4182.307617,4247.179688,4246.282227,3067.000000,4.000000,86.000000,,,,0.000000,4.000000,4.000000,4.000000,4.000000,4.000000,4.000000,4.000000,2.000000,4.000000,4.000000,4.000000,4.000000,4.000000,4.000000,83.333336,,,,,,,,,,,,,,,,
1645710481.221911,242.000000,0.000000,4045.128174,4226.410156,4245.512695,4241.922852,4231.153809,4217.820313,4220.000000,4207.820313,4223.717773,4215.897461,4232.307617,4186.666504,4249.615234,4250.256348,2576.000000,4.000000,86.000000,,,,0.000000,4.000000,4.000000,4.000000,4.000000,4.000000,4.000000,4.000000,2.000000,4.000000,4.000000,4.000000,4.000000,4.000000,4.000000,83.333336,,,,,,,,,,,,,,,,
1645710481.225851,243.000000,0.000000,4053.333252,4224.615234,4251.922852,4245.897461,4232.820313,4215.384766,4215.128418,4209.102539,4224.358887,4215.641113,4234.743652,4191.922852,4250.769043,4252.948730,2742.000000,4.000000,86.000000,,,,0.000000,4.000000,4.000000,4.000000,4.000000,4.000000,4.000000,4.000000,2.000000,4.000000,4.000000,4.000000,4.000000,4.000000,4.000000,83.333336,,,,,,,,,,,,,,,,
1645710481.229791,244.000000,0.000000,4057.179443,4224.230957,4252.179688,4248.205078,4234.487305,4213.589844,4210.128418,4209.487305,4224.102539,4216.922852,4236.153809,4194.358887,4250.256348,4251.666504,3185.000000,4.000000,86.000000,,,,0.000000,4.000000,4.000000,4.000000,4.000000,4.000000,4.000000,4.000000,2.000000,4.000000,4.000000,4.000000,4.000000,4.000000,4.000000,83.333336,,,,,,,,,,,,,,,,
1645710481.233732,245.000000,0.000000,4056.281982,4227.948730,4245.897461,4244.743652,4232.563965,4213.461426,4208.077148,4208.846191,4222.820313,4218.461426,4235.000000,4192.436035,4248.333496,4247.436035,3067.000000,4.000000,86.000000,,,,0.000000,4.000000,4.000000,4.000000,4.000000,4.000000,4.000000,4.000000,2.000000,4.000000,4.000000,4.000000,4.000000,4.000000,4.000000,83.333336,,,,,,,,,,,,,,,,
1645710481.237672,246.000000,0.000000,4054.230713,4235.000000,4236.794922,4235.256348,4225.128418,4214.615234,4209.487305,4208.077148,4221.538574,4218.205078,4230.897461,4187.948730,4246.025879,4244.871582,2576.000000,4.000000,86.000000,,,,0.000000,4.000000,4.000000,4.000000,4.000000,4.000000,4.000000,4.000000,2.000000,4.000000,4.000000,4.000000,4.000000,4.000000,4.000000,83.333336,,,,,,,,,,,,,,,,
1645710481.241612,247.000000,0.000000,4053.718018,4241.538574,4230.641113,4225.256348,4216.153809,4215.512695,4212.051270,4207.692383,4221.410156,4216.025879,4225.256348,4183.846191,4244.487305,4246.282227,2742.000000,4.000000,86.000000,,,,0.000000,4.000000,4.000000,4.000000,4.000000,4.000000,4.000000,4.000000,2.000000,4.000000,4.000000,4.000000,4.000000,4.000000,4.000000,83.333336,,,,,,,,,,,,,,,,
1645710481.245552,248.000000,0.000000,4054.230713,4243.461426,4229.871582,4222.307617,4212.820313,4215.256348,4212.692383,4206.922852,4222.563965,4213.205078,4221.025879,4182.179688,4243.717773,4250.128418,3185.000000,4.000000,86.000000,,,,0.000000,4.000000,4.000000,4.000000,4.000000,4.000000,4.000000,4.000000,2.000000,4.000000,4.000000,4.000000,4.000000,4.000000,4.000000,83.333336,,,,,,,,,,,,,,,,
1645710481.249392,249.000000,0.000000,4054.358887,4238.717773,4232.307617,4228.461426,4218.846191,4213.846191,4210.641113,4205.512695,4223.205078,4210.769043,4220.000000,4182.179688,4243.077148,4252.179688,3067.000000,4.000000,86.000000,,,,0.000000,4.000000,4.000000,4.000000,4.000000,4.000000,4.000000,4.000000,2.000000,4.000000,4.000000,4.000000,4.000000,4.000000,4.000000,83.333336,,,,,,,,,,,,,,,,
1645710481.253332,250.000000,0.000000,4053.846191,4228.974121,4233.974121,4237.051270,4229.871582,4212.307617,4207.307617,4204.358887,4221.922852,4208.589844,4220.769043,4181.794922,4241.410156,4249.358887,2576.000000,4.000000,86.000000,,,,0.000000,4.000000,4.000000,4.000000,4.000000,4.000000,4.000000,4.000000,2.000000,4.000000,4.000000,4.000000,4.000000,4.000000,4.000000,83.333336,,,,,,,,,,,,,,,,
1645710481.257272,251.000000,0.000000,4054.487061,4218.974121,4232.051270,4238.846191,4237.820313,4211.922852,4205.512695,4205.384766,4218.461426,4205.384766,4220.641113,4180.128418,4238.717773,4243.205078,2742.000000,4.000000,86.000000,,,,0.000000,4.000000,4.000000,4.000000,4.000000,4.000000,4.000000,4.000000,2.000000,4.000000,4.000000,4.000000,4.000000,4.000000,4.000000,83.333336,,,,,,,,,,,,,,,,
1645710481.261212,252.000000,0.000000,4056.410156,4214.358887,4227.563965,4231.794922,4239.102539,4213.461426,4206.666504,4208.589844,4214.230957,4202.179688,4219.230957,4178.333496,4236.282227,4238.333496,3185.000000,4.000000,86.000000,,,,0.000000,4.000000,4.000000,4.000000,4.000000,4.000000,4.000000,4.000000,2.000000,4.000000,4.000000,4.000000,4.000000,4.000000,4.000000,83.333336,,,,,,,,,,,,,,,,
1645710481.265153,253.000000,0.000000,4058.205078,4218.205078,4223.333496,4222.820313,4236.794922,4216.538574,4210.128418,4212.179688,4212.051270,4201.282227,4218.589844,4178.717773,4236.538574,4239.230957,3067.000000,4.000000,86.000000,,,,0.000000,4.000000,4.000000,4.000000,4.000000,4.000000,4.000000,4.000000,2.000000,4.000000,4.000000,4.000000,4.000000,4.000000,4.000000,83.333336,,,,,,,,,,,,,,,,
1645710481.269093,254.000000,0.000000,4058.589844,4227.820313,4222.051270,4221.025879,4236.025879,4219.743652,4213.974121,4214.102539,4213.461426,4204.487305,4221.025879,4182.436035,4240.000000,4245.512695,2576.000000,4.000000,86.000000,,,,0.000000,4.000000,4.000000,4.000000,4.000000,4.000000,4.000000,4.000000,2.000000,4.000000,4.000000,4.000000,4.000000,4.000000,4.000000,83.333336,,,,,,,,,,,,,,,,
1645710481.273033,255.000000,0.000000,4058.718018,4235.641113,4224.102539,4227.692383,4236.666504,4221.538574,4216.410156,4213.717773,4217.307617,4210.000000,4225.384766,4187.179688,4244.102539,4252.051270,113.000000,4.000000,86.000000,,,,0.000000,4.000000,4.000000,4.000000,4.000000,4.000000,4.000000,4.000000,2.000000,4.000000,4.000000,4.000000,4.000000,4.000000,4.000000,83.333336,,,,,,,,,,,,,,,,
1645710481.276973,0.000000,0.000000,4060.769287,4234.871582,4227.307617,4235.128418,4234.743652,4221.794922,4217.820313,4212.307617,4220.512695,4213.589844,4227.436035,4189.487305,4244.743652,4252.692383,3016.000000,4.000000,86.000000,,,,0.000000,4.000000,4.000000,4.000000,4.000000,4.000000,4.000000,4.000000,2.000000,4.000000,4.000000,4.000000,4.000000,4.000000,4.000000,83.333336,,,,,,,,,,,,,,,,
1645710481.280913,1.000000,0.000000,4064.230713,4226.282227,4229.230957,4235.000000,4228.461426,4222.179688,4219.230957,4211.666504,4221.666504,4212.692383,4224.871582,4187.563965,4240.384766,4246.538574,3392.000000,4.000000,86.000000,,,,0.000000,4.000000,4.000000,4.000000,4.000000,4.000000,4.000000,4.000000,2.000000,4.000000,4.000000,4.000000,4.000000,4.000000,4.000000,83.333336,,,,,,,,,,,,,,,,
1645710481.284853,2.000000,0.000000,4066.538574,4216.538574,4229.615234,4226.794922,4221.922852,4224.102539,4221.538574,4212.692383,4221.538574,4209.871582,4220.769043,4183.205078,4234.871582,4238.205078,2307.000000,4.000000,86.000000,,,,0.000000,4.000000,4.000000,4.000000,4.000000,4.000000,4.000000,4.000000,2.000000,4.000000,4.000000,4.000000,4.000000,4.000000,4.000000,83.333336,,,,,,,,,,,,,,,,
1645710481.288793,3.000000,0.000000,4066.153809,4212.820313,4230.256348,4218.205078,4220.384766,4227.692383,4224.487305,4215.128418,4221.538574,4210.000000,4221.025879,4180.641113,4233.205078,4234.358887,3389.000000,4.000000,86.000000,,,,0.000000,4.000000,4.000000,4.000000,4.000000,4.000000,4.000000,4.000000,2.000000,4.000000,4.000000,4.000000,4.000000,4.000000,4.000000,83.333336,,,,,,,,,,,,,,,,
1645710481.292733,4.000000,0.000000,4064.743652,4216.282227,4232.179688,4217.051270,4225.512695,4230.769043,4226.666504,4218.461426,4222.820313,4216.410156,4228.333496,4182.563965,4238.077148,4238.205078,3305.000000,4.000000,86.000000,,,,0.000000,4.000000,4.000000,4.000000,4.000000,4.000000,4.000000,4.000000,2.000000,4.000000,4.000000,4.000000,4.000000,4.000000,4.000000,83.333336,,,,,,,,,,,,,,,,
1645710481.296673,5.000000,0.000000,4065.512939,4221.666504,4234.487305,4224.615234,4233.846191,4231.410156,4227.436035,4222.436035,4225.128418,4226.794922,4240.128418,4188.846191,4247.051270,4247.563965,3385.000000,4.000000,86.000000,,,,0.000000,4.000000,4.000000,4.000000,4.000000,4.000000,4.000000,4.000000,2.000000,4.000000,4.000000,4.000000,4.000000,4.000000,4.000000,83.333336,,,,,,,,,,,,,,,,
1645710481.300613,6.000000,0.000000,4068.461426,4224.102539,4234.743652,4234.102539,4240.512695,4229.871582,4227.820313,4226.025879,4227.820313,4236.410156,4250.897461,4196.922852,4256.025879,4257.307617,3282.000000,4.000000,86.000000,,,,0.000000,4.000000,4.000000,4.000000,4.000000,4.000000,4.000000,4.000000,2.000000,4.000000,4.000000,4.000000,4.000000,4.000000,4.000000,83.333336,0.984375,58.333332,1.000000,4.000000,4.000000,4.000000,4.000000,4.000000,4.000000,2.000000,4.000000,4.000000,4.000000,4.000000,4.000000,4.000000
1645710481.304554,7.000000,0.000000,4070.641113,4222.051270,4231.794922,4237.179688,4242.948730,4228.333496,4229.102539,4227.820313,4230.769043,4241.794922,4256.794922,4203.205078,4262.051270,4262.692383,1047.000000,4.000000,86.000000,,,,0.000000,4.000000,4.000000,4.000000,4.000000,4.000000,4.000000,4.000000,2.000000,4.000000,4.000000,4.000000,4.000000,4.000000,4.000000,83.333336,,,,,,,,,,,,,,,,
1645710481.308494,8.000000,0.000000,4068.974365,4217.179688,4226.538574,4229.615234,4241.153809,4228.717773,4231.282227,4227.179688,4233.333496,4243.333496,4257.820313,4205.000000,4264.358887,4262.563965,1410.000000,4.000000,86.000000,,,,0.000000,4.000000,4.000000,4.000000,4.000000,4.000000,4.000000,4.000000,2.000000,4.000000,4.000000,4.000000,4.000000,4.000000,4.000000,83.333336,,,,,,,,,,,,,,,,
1645710481.312434,9.000000,0.000000,4065.000000,4210.769043,4221.538574,4215.384766,4236.922852,4229.615234,4232.436035,4225.384766,4235.128418,4242.948730,4256.538574,4202.563965,4264.358887,4259.487305,3066.000000,4.000000,86.000000,,,,0.000000,4.000000,4.000000,4.000000,4.000000,4.000000,4.000000,4.000000,2.000000,4.000000,4.000000,4.000000,4.000000,4.000000,4.000000,83.333336,,,,,,,,,,,,,,,,
1645710481.316374,10.000000,0.000000,4063.589844,4202.436035,4219.487305,4202.948730,4232.948730,4228.205078,4230.769043,4224.487305,4235.384766,4242.436035,4255.769043,4198.461426,4264.358887,4257.307617,2409.000000,4.000000,86.000000,,,,0.000000,4.000000,4.000000,4.000000,4.000000,4.000000,4.000000,4.000000,2.000000,4.000000,4.000000,4.000000,4.000000,4.000000,4.000000,83.333336,,,,,,,,,,,,,,,,
1645710481.320314,11.000000,0.000000,4067.948730,4192.692383,4221.025879,4199.358887,4230.769043,4224.102539,4226.922852,4225.384766,4235.000000,4242.051270,4257.051270,4195.897461,4265.897461,4257.948730,2476.000000,4.000000,86.000000,,,,0.000000,4.000000,4.000000,4.000000,4.000000,4.000000,4.000000,4.000000,2.000000,4.000000,4.000000,4.000000,4.000000,4.000000,4.000000,83.333336,,,,,,,,,,,,,,,,
