title:Alex-lydZDdy7ilWCaCFfqroIVA, start timestamp:1645711541.883469, stop timestamp:1645711567.993548, headset type:EPOCPLUS, headset serial:3B9AEBFF, headset firmware:626, channels:55, sampling rate:eeg_256, samples:6628      , version:2.1, 
Timestamp,EEG.Counter,EEG.Interpolated,EEG.AF3,EEG.F7,EEG.F3,EEG.FC5,EEG.T7,EEG.P7,EEG.O1,EEG.O2,EEG.P8,EEG.T8,EEG.FC6,EEG.F4,EEG.F8,EEG.AF4,EEG.RawCq,EEG.Battery,EEG.BatteryPercent,MarkerIndex,MarkerType,MarkerValueInt,EEG.MarkerHardware,CQ.AF3,CQ.F7,CQ.F3,CQ.FC5,CQ.T7,CQ.P7,CQ.O1,CQ.O2,CQ.P8,CQ.T8,CQ.FC6,CQ.F4,CQ.F8,CQ.AF4,CQ.Overall,EQ.SampleRateQuality,EQ.OVERALL,EQ.AF3,EQ.F7,EQ.F3,EQ.FC5,EQ.T7,EQ.P7,EQ.O1,EQ.O2,EQ.P8,EQ.T8,EQ.FC6,EQ.F4,EQ.F8,EQ.AF4
1645711541.883469,254.000000,0.000000,4247.307617,4213.974121,4220.000000,4213.205078,4264.871582,4221.282227,4223.205078,4218.205078,4224.871582,4201.282227,4210.128418,4173.077148,4231.922852,4224.871582,2288.000000,4.000000,86.000000,,,,0.000000,4.000000,4.000000,4.000000,4.000000,4.000000,4.000000,4.000000,4.000000,4.000000,4.000000,4.000000,4.000000,4.000000,4.000000,100.000000,,,,,,,,,,,,,,,,
1645711541.887509,255.000000,0.000000,4229.615234,4226.538574,4227.179688,4224.358887,4278.974121,4232.820313,4230.512695,4226.666504,4231.153809,4215.897461,4220.384766,4175.000000,4239.871582,4229.743652,113.000000,4.000000,86.000000,,,,0.000000,4.000000,4.000000,4.000000,4.000000,4.000000,4.000000,4.000000,4.000000,4.000000,4.000000,4.000000,4.000000,4.000000,4.000000,100.000000,,,,,,,,,,,,,,,,
1645711541.891449,0.000000,0.000000,4222.820313,4234.230957,4228.974121,4230.384766,4286.282227,4236.538574,4231.794922,4232.051270,4235.641113,4228.461426,4226.794922,4171.410156,4244.615234,4226.282227,3252.000000,4.000000,86.000000,,,,0.000000,4.000000,4.000000,4.000000,4.000000,4.000000,4.000000,4.000000,4.000000,4.000000,4.000000,4.000000,4.000000,4.000000,4.000000,100.000000,,,,,,,,,,,,,,,,
1645711541.895389,1.000000,0.000000,4238.461426,4229.743652,4224.358887,4222.948730,4277.307617,4227.307617,4227.179688,4229.487305,4233.205078,4225.897461,4220.641113,4164.230957,4241.282227,4222.563965,3620.000000,4.000000,86.000000,,,,0.000000,4.000000,4.000000,4.000000,4.000000,4.000000,4.000000,4.000000,4.000000,4.000000,4.000000,4.000000,4.000000,4.000000,4.000000,100.000000,,,,,,,,,,,,,,,,
1645711541.899329,2.000000,0.000000,4255.897461,4220.641113,4219.487305,4211.153809,4263.461426,4216.666504,4224.102539,4223.461426,4227.820313,4215.128418,4211.153809,4161.282227,4234.487305,4223.974121,2255.000000,4.000000,86.000000,,,,0.000000,4.000000,4.000000,4.000000,4.000000,4.000000,4.000000,4.000000,4.000000,4.000000,4.000000,4.000000,4.000000,4.000000,4.000000,100.000000,,,,,,,,,,,,,,,,
1645711541.903269,3.000000,0.000000,4250.512695,4220.256348,4220.512695,4209.871582,4263.205078,4218.333496,4227.307617,4222.436035,4226.922852,4212.820313,4213.589844,4167.563965,4232.948730,4226.153809,3553.000000,4.000000,86.000000,,,,0.000000,4.000000,4.000000,4.000000,4.000000,4.000000,4.000000,4.000000,4.000000,4.000000,4.000000,4.000000,4.000000,4.000000,4.000000,100.000000,,,,,,,,,,,,,,,,
1645711541.907209,4.000000,0.000000,4227.692383,4230.384766,4227.051270,4221.025879,4277.692383,4230.384766,4232.307617,4228.077148,4232.179688,4223.205078,4227.820313,4179.230957,4238.589844,4223.333496,3462.000000,4.000000,86.000000,,,,0.000000,4.000000,4.000000,4.000000,4.000000,4.000000,4.000000,4.000000,4.000000,4.000000,4.000000,4.000000,4.000000,4.000000,4.000000,100.000000,,,,,,,,,,,,,,,,
1645711541.911149,5.000000,0.000000,4217.692383,4240.000000,4233.333496,4232.179688,4289.102539,4238.077148,4232.051270,4233.717773,4237.563965,4233.333496,4237.692383,4186.410156,4245.000000,4218.589844,3487.000000,4.000000,86.000000,,,,0.000000,4.000000,4.000000,4.000000,4.000000,4.000000,4.000000,4.000000,4.000000,4.000000,4.000000,4.000000,4.000000,4.000000,4.000000,100.000000,,,,,,,,,,,,,,,,
1645711541.915089,6.000000,0.000000,4235.769043,4239.743652,4235.384766,4232.948730,4284.230957,4232.307617,4226.538574,4233.589844,4237.307617,4231.922852,4231.922852,4184.743652,4245.641113,4220.641113,3163.000000,4.000000,86.000000,,,,0.000000,4.000000,4.000000,4.000000,4.000000,4.000000,4.000000,4.000000,4.000000,4.000000,4.000000,4.000000,4.000000,4.000000,4.000000,100.000000,,,,,,,,,,,,,,,,
1645711541.919030,7.000000,0.000000,4261.153809,4233.717773,4234.871582,4228.205078,4272.051270,4222.179688,4223.717773,4230.000000,4233.077148,4225.256348,4219.102539,4179.487305,4241.922852,4230.512695,2496.000000,4.000000,86.000000,,,,0.000000,4.000000,4.000000,4.000000,4.000000,4.000000,4.000000,4.000000,4.000000,4.000000,4.000000,4.000000,4.000000,4.000000,4.000000,100.000000,,,,,,,,,,,,,,,,
1645711541.922970,8.000000,0.000000,4263.846191,4231.794922,4235.128418,4229.102539,4270.128418,4222.051270,4229.230957,4229.487305,4230.897461,4226.538574,4216.538574,4178.717773,4240.128418,4237.436035,1585.000000,4.000000,86.000000,,,,0.000000,4.000000,4.000000,4.000000,4.000000,4.000000,4.000000,4.000000,4.000000,4.000000,4.000000,4.000000,4.000000,4.000000,4.000000,100.000000,,,,,,,,,,,,,,,,
1645711541.926910,9.000000,0.000000,4243.333496,4235.000000,4236.153809,4236.282227,4280.641113,4232.436035,4238.205078,4232.692383,4232.436035,4236.025879,4227.692383,4183.974121,4242.820313,4231.794922,3132.000000,4.000000,86.000000,,,,0.000000,4.000000,4.000000,4.000000,4.000000,4.000000,4.000000,4.000000,4.000000,4.000000,4.000000,4.000000,4.000000,4.000000,4.000000,100.000000,,,,,,,,,,,,,,,,
1645711541.930850,10.000000,0.000000,4228.461426,4234.487305,4235.256348,4238.717773,4287.436035,4239.615234,4241.025879,4233.717773,4232.948730,4238.717773,4237.948730,4189.230957,4245.384766,4218.077148,2294.000000,4.000000,86.000000,,,,0.000000,4.000000,4.000000,4.000000,4.000000,4.000000,4.000000,4.000000,4.000000,4.000000,4.000000,4.000000,4.000000,4.000000,4.000000,100.000000,,,,,,,,,,,,,,,,
1645711541.934790,11.000000,0.000000,4238.846191,4224.743652,4231.922852,4230.256348,4278.333496,4234.230957,4234.871582,4228.077148,4228.589844,4225.384766,4234.358887,4189.487305,4242.948730,4211.025879,2678.000000,4.000000,86.000000,,,,0.000000,4.000000,4.000000,4.000000,4.000000,4.000000,4.000000,4.000000,4.000000,4.000000,4.000000,4.000000,4.000000,4.000000,4.000000,100.000000,,,,,,,,,,,,,,,,
1645711541.938730,12.000000,0.000000,4258.205078,4214.230957,4230.128418,4220.128418,4263.205078,4223.974121,4228.077148,4220.128418,4222.307617,4207.692383,4222.436035,4186.410156,4238.205078,4217.436035,3229.000000,4.000000,86.000000,,,,0.000000,4.000000,4.000000,4.000000,4.000000,4.000000,4.000000,4.000000,4.000000,4.000000,4.000000,4.000000,4.000000,4.000000,4.000000,100.000000,,,,,,,,,,,,,,,,
1645711541.942670,13.000000,0.000000,4258.077148,4216.025879,4232.692383,4222.051270,4261.666504,4223.461426,4229.615234,4217.948730,4221.282227,4205.256348,4218.205078,4184.743652,4237.051270,4228.205078,3370.000000,4.000000,86.000000,,,,0.000000,4.000000,4.000000,4.000000,4.000000,4.000000,4.000000,4.000000,4.000000,4.000000,4.000000,4.000000,4.000000,4.000000,4.000000,100.000000,,,,,,,,,,,,,,,,
1645711541.946610,14.000000,0.000000,4236.153809,4229.743652,4237.436035,4235.256348,4277.307617,4234.871582,4238.589844,4223.333496,4226.282227,4221.153809,4226.922852,4185.128418,4240.897461,4229.871582,2294.000000,4.000000,86.000000,,,,0.000000,4.000000,4.000000,4.000000,4.000000,4.000000,4.000000,4.000000,4.000000,4.000000,4.000000,4.000000,4.000000,4.000000,4.000000,100.000000,,,,,,,,,,,,,,,,
1645711541.950550,15.000000,0.000000,4220.256348,4240.128418,4238.333496,4243.077148,4291.410156,4244.487305,4246.153809,4229.743652,4230.641113,4235.769043,4236.153809,4184.230957,4243.461426,4221.794922,2678.000000,4.000000,86.000000,,,,0.000000,4.000000,4.000000,4.000000,4.000000,4.000000,4.000000,4.000000,4.000000,4.000000,4.000000,4.000000,4.000000,4.000000,4.000000,100.000000,,,,,,,,,,,,,,,,
1645711541.954490,16.000000,0.000000,4231.025879,4234.487305,4233.333496,4233.717773,4287.307617,4241.538574,4247.051270,4231.025879,4228.205078,4230.769043,4232.179688,4180.128418,4239.743652,4215.769043,3229.000000,4.000000,86.000000,,,,0.000000,4.000000,4.000000,4.000000,4.000000,4.000000,4.000000,4.000000,4.000000,4.000000,4.000000,4.000000,4.000000,4.000000,4.000000,100.000000,,,,,,,,,,,,,,,,
1645711541.958431,17.000000,0.000000,4254.487305,4218.205078,4227.307617,4215.256348,4270.641113,4232.051270,4245.256348,4229.487305,4221.794922,4211.666504,4218.717773,4176.922852,4232.948730,4220.000000,3370.000000,4.000000,86.000000,,,,0.000000,4.000000,4.000000,4.000000,4.000000,4.000000,4.000000,4.000000,4.000000,4.000000,4.000000,4.000000,4.000000,4.000000,4.000000,100.000000,,,,,,,,,,,,,,,,
1645711541.962271,18.000000,0.000000,4260.256348,4208.717773,4226.922852,4206.410156,4261.922852,4230.256348,4246.922852,4232.307617,4220.384766,4200.897461,4211.025879,4179.358887,4231.538574,4227.820313,2294.000000,4.000000,86.000000,,,,0.000000,4.000000,4.000000,4.000000,4.000000,4.000000,4.000000,4.000000,4.000000,4.000000,4.000000,4.000000,4.000000,4.000000,4.000000,100.000000,,,,,,,,,,,,,,,,
1645711541.966211,19.000000,0.000000,4241.922852,4213.974121,4232.051270,4213.846191,4269.615234,4238.846191,4251.025879,4240.256348,4227.563965,4210.256348,4216.538574,4186.410156,4238.077148,4227.820313,2678.000000,4.000000,86.000000,,,,0.000000,4.000000,4.000000,4.000000,4.000000,4.000000,4.000000,4.000000,4.000000,4.000000,4.000000,4.000000,4.000000,4.000000,4.000000,100.000000,,,,,,,,,,,,,,,,
1645711541.970151,20.000000,0.000000,4223.846191,4224.615234,4236.282227,4225.897461,4279.615234,4245.256348,4250.769043,4245.897461,4237.051270,4227.820313,4225.384766,4191.410156,4246.282227,4218.974121,3229.000000,4.000000,86.000000,,,,0.000000,4.000000,4.000000,4.000000,4.000000,4.000000,4.000000,4.000000,4.000000,4.000000,4.000000,4.000000,4.000000,4.000000,4.000000,100.000000,,,,,,,,,,,,,,,,
1645711541.974091,21.000000,0.000000,4228.205078,4226.794922,4234.487305,4228.077148,4275.897461,4238.333496,4242.948730,4242.179688,4240.256348,4234.487305,4225.641113,4189.615234,4248.846191,4212.436035,3370.000000,4.000000,86.000000,,,,0.000000,4.000000,4.000000,4.000000,4.000000,4.000000,4.000000,4.000000,4.000000,4.000000,4.000000,4.000000,4.000000,4.000000,4.000000,100.000000,,,,,,,,,,,,,,,,
1645711541.978031,22.000000,0.000000,4244.615234,4219.358887,4228.589844,4221.538574,4261.538574,4223.589844,4233.205078,4232.307617,4236.025879,4227.820313,4220.000000,4184.230957,4245.769043,4216.153809,2294.000000,4.000000,86.000000,,,,0.000000,4.000000,4.000000,4.000000,4.000000,4.000000,4.000000,4.000000,4.000000,4.000000,4.000000,4.000000,4.000000,4.000000,4.000000,100.000000,,,,,,,,,,,,,,,,
1645711541.981971,23.000000,0.000000,4246.410156,4213.333496,4224.102539,4218.846191,4254.358887,4216.410156,4229.102539,4226.025879,4231.410156,4221.666504,4221.025879,4180.897461,4243.461426,4224.615234,2678.000000,4.000000,86.000000,,,,0.000000,4.000000,4.000000,4.000000,4.000000,4.000000,4.000000,4.000000,4.000000,4.000000,4.000000,4.000000,4.000000,4.000000,4.000000,100.000000,,,,,,,,,,,,,,,,
1645711541.985911,24.000000,0.000000,4228.589844,4215.256348,4223.717773,4224.871582,4262.051270,4222.436035,4231.025879,4227.563965,4231.282227,4225.641113,4231.922852,4181.153809,4245.256348,4226.282227,3229.000000,4.000000,86.000000,,,,0.000000,4.000000,4.000000,4.000000,4.000000,4.000000,4.000000,4.000000,4.000000,4.000000,4.000000,4.000000,4.000000,4.000000,4.000000,100.000000,,,,,,,,,,,,,,,,
1645711541.989852,25.000000,0.000000,4216.282227,4219.871582,4225.000000,4229.743652,4271.282227,4230.384766,4232.179688,4231.025879,4232.692383,4231.282227,4239.743652,4181.153809,4247.692383,4220.000000,3370.000000,4.000000,86.000000,,,,0.000000,4.000000,4.000000,4.000000,4.000000,4.000000,4.000000,4.000000,4.000000,4.000000,4.000000,4.000000,4.000000,4.000000,4.000000,100.000000,,,,,,,,,,,,,,,,
1645711541.993792,26.000000,0.000000,4230.384766,4218.717773,4225.000000,4222.051270,4266.666504,4228.077148,4229.102539,4228.589844,4229.743652,4225.897461,4232.820313,4178.846191,4245.897461,4215.256348,2294.000000,4.000000,86.000000,,,,0.000000,4.000000,4.000000,4.000000,4.000000,4.000000,4.000000,4.000000,4.000000,4.000000,4.000000,4.000000,4.000000,4.000000,4.000000,100.000000,,,,,,,,,,,,,,,,
1645711541.997732,27.000000,0.000000,4257.051270,4212.948730,4224.358887,4206.282227,4251.666504,4218.077148,4225.897461,4221.538574,4222.948730,4211.153809,4217.692383,4177.051270,4241.410156,4219.743652,2678.000000,4.000000,86.000000,,,,0.000000,4.000000,4.000000,4.000000,4.000000,4.000000,4.000000,4.000000,4.000000,4.000000,4.000000,4.000000,4.000000,4.000000,4.000000,100.000000,,,,,,,,,,,,,,,,
1645711542.001672,28.000000,0.000000,4262.692383,4211.282227,4225.000000,4198.077148,4243.974121,4213.589844,4227.436035,4217.692383,4218.717773,4202.692383,4212.307617,4179.230957,4240.512695,4227.563965,3229.000000,4.000000,86.000000,,,,0.000000,4.000000,4.000000,4.000000,4.000000,4.000000,4.000000,4.000000,4.000000,4.000000,4.000000,4.000000,4.000000,4.000000,4.000000,100.000000,,,,,,,,,,,,,,,,
1645711542.005612,29.000000,0.000000,4237.436035,4216.282227,4225.897461,4203.974121,4251.025879,4219.102539,4231.153809,4220.384766,4220.384766,4208.589844,4222.692383,4183.077148,4244.871582,4227.692383,3370.000000,4.000000,86.000000,,,,0.000000,4.000000,4.000000,4.000000,4.000000,4.000000,4.000000,4.000000,4.000000,4.000000,4.000000,4.000000,4.000000,4.000000,4.000000,100.000000,,,,,,,,,,,,,,,,
1645711542.009552,30.000000,0.000000,4209.102539,4219.871582,4223.589844,4214.102539,4260.128418,4224.102539,4229.358887,4223.333496,4223.589844,4217.692383,4234.358887,4182.179688,4248.846191,4219.230957,2294.000000,4.000000,86.000000,,,,0.000000,4.000000,4.000000,4.000000,4.000000,4.000000,4.000000,4.000000,4.000000,4.000000,4.000000,4.000000,4.000000,4.000000,4.000000,100.000000,,,,,,,,,,,,,,,,
1645711542.013492,31.000000,0.000000,4208.461426,4214.230957,4218.077148,4214.743652,4255.128418,4218.077148,4220.641113,4219.615234,4221.922852,4214.615234,4231.153809,4175.000000,4246.538574,4213.461426,2678.000000,4.000000,86.000000,,,,0.000000,4.000000,4.000000,4.000000,4.000000,4.000000,4.000000,4.000000,4.000000,4.000000,4.000000,4.000000,4.000000,4.000000,4.000000,100.000000,,,,,,,,,,,,,,,,
1645711542.017432,32.000000,0.000000,4232.051270,4204.358887,4214.615234,4207.436035,4239.358887,4206.410156,4214.230957,4212.179688,4216.538574,4202.307617,4216.153809,4168.461426,4239.871582,4218.974121,0.000000,4.000000,86.000000,,,,0.000000,4.000000,4.000000,4.000000,4.000000,4.000000,4.000000,4.000000,4.000000,4.000000,4.000000,4.000000,4.000000,4.000000,4.000000,100.000000,,,,,,,,,,,,,,,,
1645711542.021372,33.000000,0.000000,4248.974121,4202.820313,4218.717773,4205.769043,4232.436035,4205.000000,4219.487305,4210.769043,4215.000000,4199.615234,4209.230957,4170.769043,4237.179688,4230.128418,0.000000,4.000000,86.000000,,,,0.000000,4.000000,4.000000,4.000000,4.000000,4.000000,4.000000,4.000000,4.000000,4.000000,4.000000,4.000000,4.000000,4.000000,4.000000,100.000000,,,,,,,,,,,,,,,,
1645711542.025312,34.000000,0.000000,4242.948730,4214.102539,4228.974121,4216.410156,4244.615234,4218.846191,4233.846191,4219.615234,4221.666504,4216.410156,4221.282227,4181.794922,4242.692383,4234.230957,0.000000,4.000000,86.000000,,,,0.000000,4.000000,4.000000,4.000000,4.000000,4.000000,4.000000,4.000000,4.000000,4.000000,4.000000,4.000000,4.000000,4.000000,4.000000,100.000000,,,,,,,,,,,,,,,,
1645711542.029253,35.000000,0.000000,4230.897461,4226.794922,4237.563965,4229.230957,4262.692383,4234.230957,4244.743652,4231.410156,4231.282227,4238.589844,4240.769043,4192.307617,4251.538574,4228.205078,0.000000,4.000000,86.000000,,,,0.000000,4.000000,4.000000,4.000000,4.000000,4.000000,4.000000,4.000000,4.000000,4.000000,4.000000,4.000000,4.000000,4.000000,4.000000,100.000000,,,,,,,,,,,,,,,,
1645711542.033193,36.000000,0.000000,4236.794922,4227.948730,4238.846191,4230.512695,4266.666504,4235.000000,4243.077148,4235.000000,4235.000000,4243.846191,4247.948730,4193.974121,4255.512695,4222.436035,0.000000,4.000000,86.000000,,,,0.000000,4.000000,4.000000,4.000000,4.000000,4.000000,4.000000,4.000000,4.000000,4.000000,4.000000,4.000000,4.000000,4.000000,4.000000,100.000000,,,,,,,,,,,,,,,,
1645711542.037233,37.000000,0.000000,4256.666504,4219.230957,4234.871582,4221.025879,4255.000000,4222.692383,4233.589844,4229.358887,4230.897461,4229.230957,4239.358887,4188.205078,4252.820313,4226.025879,0.000000,4.000000,86.000000,,,,0.000000,4.000000,4.000000,4.000000,4.000000,4.000000,4.000000,4.000000,4.000000,4.000000,4.000000,4.000000,4.000000,4.000000,4.000000,100.000000,,,,,,,,,,,,,,,,
1645711542.041173,38.000000,0.000000,4263.205078,4215.000000,4232.436035,4215.000000,4245.769043,4213.589844,4227.948730,4223.461426,4225.897461,4213.846191,4230.000000,4182.948730,4249.230957,4233.974121,0.000000,4.000000,86.000000,,,,0.000000,4.000000,4.000000,4.000000,4.000000,4.000000,4.000000,4.000000,4.000000,4.000000,4.000000,4.000000,4.000000,4.000000,4.000000,100.000000,,,,,,,,,,,,,,,,
1645711542.045113,39.000000,0.000000,4244.102539,4222.820313,4234.358887,4221.153809,4251.410156,4218.077148,4231.153809,4224.615234,4226.025879,4214.487305,4231.922852,4182.179688,4249.358887,4233.333496,0.000000,4.000000,86.000000,,,,0.000000,4.000000,4.000000,4.000000,4.000000,4.000000,4.000000,4.000000,4.000000,4.000000,4.000000,4.000000,4.000000,4.000000,4.000000,100.000000,,,,,,,,,,,,,,,,
1645711542.049053,40.000000,0.000000,4220.000000,4233.717773,4236.666504,4231.153809,4262.563965,4228.461426,4237.179688,4229.871582,4229.102539,4225.000000,4238.333496,4182.436035,4250.512695,4221.282227,0.000000,4.000000,86.000000,,,,0.000000,4.000000,4.000000,4.000000,4.000000,4.000000,4.000000,4.000000,4.000000,4.000000,4.000000,4.000000,4.000000,4.000000,4.000000,100.000000,,,,,,,,,,,,,,,,
1645711542.052993,41.000000,0.000000,4218.974121,4233.333496,4235.000000,4231.025879,4261.666504,4231.153809,4238.717773,4231.153809,4229.102539,4226.922852,4234.615234,4179.102539,4247.179688,4210.512695,0.000000,4.000000,86.000000,,,,0.000000,4.000000,4.000000,4.000000,4.000000,4.000000,4.000000,4.000000,4.000000,4.000000,4.000000,4.000000,4.000000,4.000000,4.000000,100.000000,,,,,,,,,,,,,,,,
1645711542.056933,42.000000,0.000000,4239.615234,4221.153809,4230.512695,4220.384766,4247.820313,4225.000000,4236.410156,4227.051270,4225.128418,4214.871582,4220.512695,4173.974121,4240.384766,4213.846191,0.000000,4.000000,86.000000,,,,0.000000,4.000000,4.000000,4.000000,4.000000,4.000000,4.000000,4.000000,4.000000,4.000000,4.000000,4.000000,4.000000,4.000000,4.000000,100.000000,,,,,,,,,,,,,,,,
1645711542.060773,43.000000,0.000000,4253.717773,4211.666504,4228.333496,4213.205078,4239.358887,4222.179688,4236.282227,4224.743652,4222.820313,4203.974121,4212.051270,4172.948730,4237.692383,4227.820313,0.000000,4.000000,86.000000,,,,0.000000,4.000000,4.000000,4.000000,4.000000,4.000000,4.000000,4.000000,4.000000,4.000000,4.000000,4.000000,4.000000,4.000000,4.000000,100.000000,,,,,,,,,,,,,,,,
1645711542.064714,44.000000,0.000000,4244.358887,4215.897461,4230.512695,4219.487305,4249.487305,4229.743652,4239.487305,4229.615234,4226.922852,4208.717773,4220.769043,4178.589844,4243.589844,4236.922852,0.000000,4.000000,86.000000,,,,0.000000,4.000000,4.000000,4.000000,4.000000,4.000000,4.000000,4.000000,4.000000,4.000000,4.000000,4.000000,4.000000,4.000000,4.000000,100.000000,,,,,,,,,,,,,,,,
1645711542.068654,45.000000,0.000000,4228.333496,4227.563965,4233.717773,4231.538574,4267.563965,4238.461426,4240.512695,4237.307617,4233.717773,4223.589844,4238.333496,4186.025879,4253.589844,4232.563965,0.000000,4.000000,86.000000,,,,0.000000,4.000000,4.000000,4.000000,4.000000,4.000000,4.000000,4.000000,4.000000,4.000000,4.000000,4.000000,4.000000,4.000000,4.000000,100.000000,,,,,,,,,,,,,,,,
1645711542.072594,46.000000,0.000000,4231.410156,4231.282227,4233.589844,4234.871582,4272.563965,4235.256348,4234.743652,4239.102539,4235.769043,4231.282227,4246.794922,4188.846191,4258.333496,4222.948730,0.000000,4.000000,86.000000,,,,0.000000,4.000000,4.000000,4.000000,4.000000,4.000000,4.000000,4.000000,4.000000,4.000000,4.000000,4.000000,4.000000,4.000000,4.000000,100.000000,,,,,,,,,,,,,,,,
1645711542.076534,47.000000,0.000000,4251.666504,4222.563965,4231.282227,4226.666504,4259.487305,4221.282227,4226.282227,4233.205078,4231.282227,4225.512695,4240.897461,4185.897461,4254.871582,4220.769043,0.000000,4.000000,86.000000,,,,0.000000,4.000000,4.000000,4.000000,4.000000,4.000000,4.000000,4.000000,4.000000,4.000000,4.000000,4.000000,4.000000,4.000000,4.000000,100.000000,,,,,,,,,,,,,,,,
1645711542.080474,48.000000,0.000000,4260.512695,4212.820313,4231.153809,4219.102539,4245.897461,4212.436035,4223.077148,4226.666504,4226.153809,4218.461426,4232.820313,4181.666504,4249.487305,4225.897461,0.000000,4.000000,86.000000,,,,0.000000,4.000000,4.000000,4.000000,4.000000,4.000000,4.000000,4.000000,4.000000,4.000000,4.000000,4.000000,4.000000,4.000000,4.000000,100.000000,,,,,,,,,,,,,,,,
1645711542.084414,49.000000,0.000000,4241.922852,4213.846191,4234.487305,4222.307617,4248.077148,4218.717773,4226.538574,4225.641113,4226.922852,4222.820313,4233.846191,4179.230957,4248.974121,4226.794922,0.000000,4.000000,86.000000,,,,0.000000,4.000000,4.000000,4.000000,4.000000,4.000000,4.000000,4.000000,4.000000,4.000000,4.000000,4.000000,4.000000,4.000000,4.000000,100.000000,,,,,,,,,,,,,,,,
1645711542.088354,50.000000,0.000000,4215.769043,4222.948730,4237.307617,4231.282227,4259.743652,4231.153809,4229.871582,4228.205078,4231.538574,4233.077148,4239.615234,4177.307617,4252.307617,4216.794922,0.000000,4.000000,86.000000,,,,0.000000,4.000000,4.000000,4.000000,4.000000,4.000000,4.000000,4.000000,4.000000,4.000000,4.000000,4.000000,4.000000,4.000000,4.000000,100.000000,,,,,,,,,,,,,,,,
1645711542.092294,51.000000,0.000000,4214.102539,4227.948730,4235.000000,4232.948730,4261.666504,4233.205078,4227.179688,4227.179688,4233.333496,4233.589844,4237.563965,4173.846191,4252.948730,4204.230957,0.000000,4.000000,86.000000,,,,0.000000,4.000000,4.000000,4.000000,4.000000,4.000000,4.000000,4.000000,4.000000,4.000000,4.000000,4.000000,4.000000,4.000000,4.000000,100.000000,,,,,,,,,,,,,,,,
1645711542.096234,52.000000,0.000000,4238.846191,4223.333496,4228.077148,4224.230957,4248.077148,4222.051270,4221.538574,4221.410156,4229.358887,4221.410156,4226.666504,4170.769043,4248.589844,4201.922852,0.000000,4.000000,86.000000,,,,0.000000,4.000000,4.000000,4.000000,4.000000,4.000000,4.000000,4.000000,4.000000,4.000000,4.000000,4.000000,4.000000,4.000000,4.000000,100.000000,,,,,,,,,,,,,,,,
1645711542.100174,53.000000,0.000000,4258.589844,4217.820313,4222.820313,4216.538574,4234.743652,4211.794922,4221.025879,4217.436035,4224.487305,4211.922852,4220.897461,4172.179688,4244.871582,4211.153809,0.000000,4.000000,86.000000,,,,0.000000,4.000000,4.000000,4.000000,4.000000,4.000000,4.000000,4.000000,4.000000,4.000000,4.000000,4.000000,4.000000,4.000000,4.000000,100.000000,,,,,,,,,,,,,,,,
1645711542.104015,54.000000,0.000000,4249.230957,4220.641113,4223.333496,4220.000000,4237.948730,4214.487305,4227.563965,4220.641113,4224.743652,4218.205078,4230.256348,4177.948730,4247.563965,4220.897461,0.000000,4.000000,86.000000,,,,0.000000,4.000000,4.000000,4.000000,4.000000,4.000000,4.000000,4.000000,4.000000,4.000000,4.000000,4.000000,4.000000,4.000000,4.000000,100.000000,,,,,,,,,,,,,,,,
1645711542.107955,55.000000,0.000000,4224.102539,4228.974121,4227.307617,4230.000000,4251.538574,4224.358887,4233.717773,4227.307617,4229.102539,4232.692383,4245.384766,4182.307617,4254.230957,4221.922852,0.000000,4.000000,86.000000,,,,0.000000,4.000000,4.000000,4.000000,4.000000,4.000000,4.000000,4.000000,4.000000,4.000000,4.000000,4.000000,4.000000,4.000000,4.000000,100.000000,,,,,,,,,,,,,,,,
1645711542.111895,56.000000,0.000000,4216.025879,4231.410156,4229.487305,4233.333496,4255.128418,4227.051270,4231.922852,4228.846191,4231.538574,4235.512695,4247.563965,4180.384766,4256.922852,4218.205078,0.000000,4.000000,86.000000,,,,0.000000,4.000000,4.000000,4.000000,4.000000,4.000000,4.000000,4.000000,4.000000,4.000000,4.000000,4.000000,4.000000,4.000000,4.000000,100.000000,,,,,,,,,,,,,,,,
1645711542.115835,57.000000,0.000000,4233.461426,4224.358887,4228.205078,4226.025879,4242.051270,4219.102539,4224.615234,4223.333496,4229.230957,4221.282227,4232.692383,4173.974121,4252.307617,4218.461426,0.000000,4.000000,86.000000,,,,0.000000,4.000000,4.000000,4.000000,4.000000,4.000000,4.000000,4.000000,4.000000,4.000000,4.000000,4.000000,4.000000,4.000000,4.000000,100.000000,,,,,,,,,,,,,,,,
1645711542.119775,58.000000,0.000000,4250.256348,4216.538574,4226.153809,4218.717773,4227.820313,4212.820313,4221.282227,4217.307617,4226.410156,4206.922852,4217.051270,4170.128418,4245.641113,4222.563965,0.000000,4.000000,86.000000,,,,0.000000,4.000000,4.000000,4.000000,4.000000,4.000000,4.000000,4.000000,4.000000,4.000000,4.000000,4.000000,4.000000,4.000000,4.000000,100.000000,,,,,,,,,,,,,,,,
1645711542.123715,59.000000,0.000000,4241.922852,4216.794922,4225.384766,4221.538574,4230.256348,4218.717773,4225.641113,4217.820313,4228.333496,4210.384766,4217.563965,4172.051270,4243.461426,4221.410156,0.000000,4.000000,86.000000,,,,0.000000,4.000000,4.000000,4.000000,4.000000,4.000000,4.000000,4.000000,4.000000,4.000000,4.000000,4.000000,4.000000,4.000000,4.000000,100.000000,,,,,,,,,,,,,,,,
1645711542.127655,60.000000,0.000000,4218.717773,4222.179688,4223.846191,4229.487305,4244.743652,4230.512695,4231.410156,4223.077148,4233.077148,4226.794922,4230.512695,4175.641113,4245.384766,4211.153809,0.000000,4.000000,86.000000,,,,0.000000,4.000000,4.000000,4.000000,4.000000,4.000000,4.000000,4.000000,4.000000,4.000000,4.000000,4.000000,4.000000,4.000000,4.000000,100.000000,,,,,,,,,,,,,,,,
1645711542.131595,61.000000,0.000000,4211.666504,4221.410156,4218.846191,4229.230957,4250.769043,4232.436035,4230.384766,4225.512695,4233.461426,4234.102539,4236.922852,4175.128418,4245.512695,4201.282227,0.000000,4.000000,86.000000,,,,0.000000,4.000000,4.000000,4.000000,4.000000,4.000000,4.000000,4.000000,4.000000,4.000000,4.000000,4.000000,4.000000,4.000000,4.000000,100.000000,,,,,,,,,,,,,,,,
1645711542.135536,62.000000,0.000000,4229.743652,4212.179688,4212.307617,4217.563965,4238.974121,4220.769043,4223.974121,4222.307617,4226.922852,4220.512695,4227.563965,4170.512695,4241.282227,4203.589844,0.000000,4.000000,86.000000,,,,0.000000,4.000000,4.000000,4.000000,4.000000,4.000000,4.000000,4.000000,4.000000,4.000000,4.000000,4.000000,4.000000,4.000000,4.000000,100.000000,,,,,,,,,,,,,,,,
1645711542.139476,63.000000,0.000000,4247.179688,4204.743652,4210.128418,4207.179688,4223.717773,4209.487305,4220.769043,4219.358887,4219.358887,4199.487305,4213.717773,4167.436035,4237.179688,4216.153809,0.000000,4.000000,86.000000,,,,0.000000,4.000000,4.000000,4.000000,4.000000,4.000000,4.000000,4.000000,4.000000,4.000000,4.000000,4.000000,4.000000,4.000000,4.000000,100.000000,,,,,,,,,,,,,,,,
1645711542.143416,64.000000,0.000000,4238.461426,4208.589844,4214.487305,4210.000000,4223.589844,4212.179688,4225.000000,4222.179688,4218.333496,4192.692383,4211.666504,4169.230957,4238.461426,4223.974121,0.000000,4.000000,86.000000,,,,0.000000,4.000000,4.000000,4.000000,4.000000,4.000000,4.000000,4.000000,4.000000,4.000000,4.000000,4.000000,4.000000,4.000000,4.000000,100.000000,,,,,,,,,,,,,,,,
1645711542.147356,65.000000,0.000000,4212.948730,4219.230957,4220.256348,4221.025879,4236.025879,4224.487305,4230.512695,4227.948730,4223.333496,4203.077148,4220.897461,4172.051270,4243.077148,4217.307617,0.000000,4.000000,86.000000,,,,0.000000,4.000000,4.000000,4.000000,4.000000,4.000000,4.000000,4.000000,4.000000,4.000000,4.000000,4.000000,4.000000,4.000000,4.000000,100.000000,,,,,,,,,,,,,,,,
1645711542.151296,66.000000,0.000000,4202.948730,4223.077148,4220.641113,4223.846191,4241.153809,4229.358887,4228.846191,4228.461426,4226.666504,4214.487305,4225.641113,4170.256348,4243.846191,4204.358887,0.000000,4.000000,86.000000,,,,0.000000,4.000000,4.000000,4.000000,4.000000,4.000000,4.000000,4.000000,4.000000,4.000000,4.000000,4.000000,4.000000,4.000000,4.000000,100.000000,,,,,,,,,,,,,,,,
1645711542.155236,67.000000,0.000000,4220.384766,4215.128418,4215.128418,4212.179688,4228.974121,4219.487305,4220.384766,4221.794922,4223.974121,4213.205078,4216.922852,4164.230957,4238.205078,4200.512695,0.000000,4.000000,86.000000,,,,0.000000,4.000000,4.000000,4.000000,4.000000,4.000000,4.000000,4.000000,4.000000,4.000000,4.000000,4.000000,4.000000,4.000000,4.000000,100.000000,,,,,,,,,,,,,,,,
1645711542.159176,68.000000,0.000000,4241.025879,4205.641113,4209.871582,4198.077148,4212.948730,4206.538574,4214.102539,4215.641113,4220.128418,4205.897461,4204.743652,4160.897461,4232.307617,4208.974121,0.000000,4.000000,86.000000,,,,0.000000,4.000000,4.000000,4.000000,4.000000,4.000000,4.000000,4.000000,4.000000,4.000000,4.000000,4.000000,4.000000,4.000000,4.000000,100.000000,,,,,,,,,,,,,,,,
1645711542.163116,69.000000,0.000000,4237.563965,4205.641113,4209.615234,4196.153809,4212.051270,4205.256348,4216.410156,4218.589844,4221.538574,4206.666504,4204.615234,4164.615234,4232.820313,4216.922852,0.000000,4.000000,86.000000,,,,0.000000,4.000000,4.000000,4.000000,4.000000,4.000000,4.000000,4.000000,4.000000,4.000000,4.000000,4.000000,4.000000,4.000000,4.000000,100.000000,,,,,,,,,,,,,,,,
1645711542.167056,70.000000,0.000000,4215.769043,4212.563965,4211.666504,4204.871582,4225.000000,4213.846191,4222.563965,4227.820313,4227.563965,4216.153809,4216.025879,4171.025879,4238.205078,4212.948730,0.000000,4.000000,86.000000,,,,0.000000,4.000000,4.000000,4.000000,4.000000,4.000000,4.000000,4.000000,4.000000,4.000000,4.000000,4.000000,4.000000,4.000000,4.000000,100.000000,,,,,,,,,,,,,,,,
1645711542.170996,71.000000,0.000000,4206.153809,4213.205078,4210.256348,4208.846191,4231.282227,4217.820313,4223.846191,4232.563965,4230.641113,4219.871582,4223.846191,4171.282227,4240.000000,4202.179688,0.000000,4.000000,86.000000,,,,0.000000,4.000000,4.000000,4.000000,4.000000,4.000000,4.000000,4.000000,4.000000,4.000000,4.000000,4.000000,4.000000,4.000000,4.000000,100.000000,,,,,,,,,,,,,,,,
1645711542.175036,72.000000,0.000000,4221.282227,4202.563965,4204.358887,4200.128418,4219.615234,4209.871582,4218.717773,4226.794922,4226.538574,4208.846191,4218.461426,4162.563965,4233.846191,4199.102539,0.000000,4.000000,86.000000,,,,0.000000,4.000000,4.000000,4.000000,4.000000,4.000000,4.000000,4.000000,4.000000,4.000000,4.000000,4.000000,4.000000,4.000000,4.000000,100.000000,,,,,,,,,,,,,,,,
1645711542.178977,73.000000,0.000000,4238.846191,4191.666504,4199.358887,4189.743652,4203.077148,4201.025879,4215.000000,4217.307617,4220.384766,4194.358887,4208.461426,4151.153809,4225.256348,4208.461426,0.000000,4.000000,86.000000,,,,0.000000,4.000000,4.000000,4.000000,4.000000,4.000000,4.000000,4.000000,4.000000,4.000000,4.000000,4.000000,4.000000,4.000000,4.000000,100.000000,,,,,,,,,,,,,,,,
1645711542.182917,74.000000,0.000000,4232.051270,4194.358887,4200.769043,4192.948730,4202.948730,4205.000000,4219.358887,4215.256348,4220.641113,4194.615234,4208.846191,4146.153809,4223.589844,4218.717773,0.000000,4.000000,86.000000,,,,0.000000,4.000000,4.000000,4.000000,4.000000,4.000000,4.000000,4.000000,4.000000,4.000000,4.000000,4.000000,4.000000,4.000000,4.000000,100.000000,,,,,,,,,,,,,,,,
1645711542.186857,75.000000,0.000000,4207.563965,4209.487305,4206.794922,4208.974121,4220.128418,4219.615234,4228.589844,4222.051270,4227.307617,4210.000000,4219.487305,4149.230957,4230.512695,4217.948730,0.000000,4.000000,86.000000,,,,0.000000,4.000000,4.000000,4.000000,4.000000,4.000000,4.000000,4.000000,4.000000,4.000000,4.000000,4.000000,4.000000,4.000000,4.000000,100.000000,,,,,,,,,,,,,,,,
1645711542.190797,76.000000,0.000000,4197.820313,4220.897461,4211.538574,4221.410156,4234.615234,4229.102539,4233.974121,4227.948730,4231.410156,4222.436035,4226.282227,4155.000000,4238.589844,4208.589844,0.000000,4.000000,86.000000,,,,0.000000,4.000000,4.000000,4.000000,4.000000,4.000000,4.000000,4.000000,4.000000,4.000000,4.000000,4.000000,4.000000,4.000000,4.000000,100.000000,,,,,,,,,,,,,,,,
1645711542.194737,77.000000,0.000000,4217.820313,4217.820313,4211.922852,4218.333496,4231.153809,4224.102539,4232.307617,4224.871582,4226.410156,4217.563965,4219.871582,4158.717773,4240.897461,4203.846191,0.000000,4.000000,86.000000,,,,0.000000,4.000000,4.000000,4.000000,4.000000,4.000000,4.000000,4.000000,4.000000,4.000000,4.000000,4.000000,4.000000,4.000000,4.000000,100.000000,,,,,,,,,,,,,,,,
1645711542.198677,78.000000,0.000000,4244.230957,4206.666504,4211.025879,4207.051270,4218.461426,4213.974121,4229.358887,4216.025879,4216.538574,4203.461426,4209.230957,4160.769043,4238.589844,4209.743652,0.000000,4.000000,86.000000,,,,0.000000,4.000000,4.000000,4.000000,4.000000,4.000000,4.000000,4.000000,4.000000,4.000000,4.000000,4.000000,4.000000,4.000000,4.000000,100.000000,,,,,,,,,,,,,,,,
1645711542.202617,79.000000,0.000000,4245.769043,4202.307617,4212.692383,4203.333496,4215.897461,4213.461426,4231.025879,4211.538574,4211.922852,4198.846191,4209.487305,4164.230957,4237.948730,4217.948730,0.000000,4.000000,86.000000,,,,0.000000,4.000000,4.000000,4.000000,4.000000,4.000000,4.000000,4.000000,4.000000,4.000000,4.000000,4.000000,4.000000,4.000000,4.000000,100.000000,,,,,,,,,,,,,,,,
1645711542.206557,80.000000,0.000000,4224.358887,4209.615234,4216.153809,4210.641113,4227.307617,4223.205078,4235.128418,4214.743652,4216.025879,4208.077148,4221.410156,4168.589844,4240.641113,4218.205078,0.000000,4.000000,86.000000,,,,0.000000,4.000000,4.000000,4.000000,4.000000,4.000000,4.000000,4.000000,4.000000,4.000000,4.000000,4.000000,4.000000,4.000000,4.000000,100.000000,,,,,,,,,,,,,,,,
1645711542.210497,81.000000,0.000000,4211.153809,4218.974121,4217.820313,4218.717773,4236.410156,4229.487305,4235.000000,4219.487305,4221.922852,4215.897461,4229.871582,4170.384766,4242.436035,4212.820313,0.000000,4.000000,86.000000,,,,0.000000,4.000000,4.000000,4.000000,4.000000,4.000000,4.000000,4.000000,4.000000,4.000000,4.000000,4.000000,4.000000,4.000000,4.000000,100.000000,,,,,,,,,,,,,,,,
1645711542.214438,82.000000,0.000000,4224.358887,4221.025879,4216.922852,4218.846191,4231.153809,4224.102539,4229.743652,4218.846191,4222.051270,4210.000000,4225.256348,4169.230957,4239.615234,4213.333496,0.000000,4.000000,86.000000,,,,0.000000,4.000000,4.000000,4.000000,4.000000,4.000000,4.000000,4.000000,4.000000,4.000000,4.000000,4.000000,4.000000,4.000000,4.000000,100.000000,,,,,,,,,,,,,,,,
1645711542.218378,83.000000,0.000000,4245.384766,4219.230957,4217.051270,4216.538574,4220.000000,4214.743652,4226.025879,4215.000000,4217.692383,4198.461426,4216.282227,4169.230957,4235.384766,4223.589844,0.000000,4.000000,86.000000,,,,0.000000,4.000000,4.000000,4.000000,4.000000,4.000000,4.000000,4.000000,4.000000,4.000000,4.000000,4.000000,4.000000,4.000000,4.000000,100.000000,,,,,,,,,,,,,,,,
1645711542.222318,84.000000,0.000000,4246.282227,4223.589844,4221.025879,4221.666504,4220.128418,4215.000000,4229.230957,4215.512695,4216.025879,4199.743652,4218.589844,4173.589844,4235.384766,4233.461426,0.000000,4.000000,86.000000,,,,0.000000,4.000000,4.000000,4.000000,4.000000,4.000000,4.000000,4.000000,4.000000,4.000000,4.000000,4.000000,4.000000,4.000000,4.000000,100.000000,,,,,,,,,,,,,,,,
1645711542.226258,85.000000,0.000000,4228.461426,4233.461426,4225.641113,4232.563965,4232.051270,4224.102539,4235.641113,4221.922852,4220.256348,4216.282227,4232.051270,4178.974121,4240.384766,4231.410156,0.000000,4.000000,86.000000,,,,0.000000,4.000000,4.000000,4.000000,4.000000,4.000000,4.000000,4.000000,4.000000,4.000000,4.000000,4.000000,4.000000,4.000000,4.000000,100.000000,,,,,,,,,,,,,,,,
1645711542.230198,86.000000,0.000000,4220.384766,4236.794922,4224.743652,4235.641113,4237.307617,4228.077148,4236.153809,4227.307617,4224.871582,4229.615234,4239.615234,4179.487305,4244.102539,4219.871582,0.000000,4.000000,86.000000,,,,0.000000,4.000000,4.000000,4.000000,4.000000,4.000000,4.000000,4.000000,4.000000,4.000000,4.000000,4.000000,4.000000,4.000000,4.000000,100.000000,,,,,,,,,,,,,,,,
1645711542.234138,87.000000,0.000000,4237.179688,4225.769043,4216.922852,4223.333496,4224.358887,4218.461426,4228.461426,4225.384766,4223.974121,4224.102539,4229.871582,4174.358887,4242.051270,4212.307617,0.000000,4.000000,86.000000,,,,0.000000,4.000000,4.000000,4.000000,4.000000,4.000000,4.000000,4.000000,4.000000,4.000000,4.000000,4.000000,4.000000,4.000000,4.000000,100.000000,,,,,,,,,,,,,,,,
1645711542.238078,88.000000,0.000000,4256.922852,4209.358887,4208.461426,4206.282227,4205.512695,4205.512695,4220.641113,4220.384766,4219.487305,4207.948730,4213.846191,4169.871582,4237.820313,4215.769043,0.000000,4.000000,86.000000,,,,0.000000,4.000000,4.000000,4.000000,4.000000,4.000000,4.000000,4.000000,4.000000,4.000000,4.000000,4.000000,4.000000,4.000000,4.000000,100.000000,,,,,,,,,,,,,,,,
1645711542.242018,89.000000,0.000000,4248.461426,4204.230957,4206.538574,4201.538574,4203.589844,4205.512695,4220.897461,4221.410156,4219.358887,4203.589844,4212.179688,4172.179688,4238.717773,4222.436035,0.000000,4.000000,86.000000,,,,0.000000,4.000000,4.000000,4.000000,4.000000,4.000000,4.000000,4.000000,4.000000,4.000000,4.000000,4.000000,4.000000,4.000000,4.000000,100.000000,,,,,,,,,,,,,,,,
1645711542.246058,90.000000,0.000000,4214.487305,4214.358887,4210.769043,4211.666504,4222.179688,4218.974121,4227.436035,4230.769043,4226.153809,4218.974121,4228.846191,4179.743652,4245.641113,4221.153809,0.000000,4.000000,86.000000,,,,0.000000,4.000000,4.000000,4.000000,4.000000,4.000000,4.000000,4.000000,4.000000,4.000000,4.000000,4.000000,4.000000,4.000000,4.000000,100.000000,,,,,,,,,,,,,,,,
1645711542.249998,91.000000,0.000000,4191.538574,4225.769043,4214.487305,4221.538574,4240.000000,4229.615234,4230.897461,4239.743652,4233.846191,4237.051270,4244.743652,4184.102539,4251.410156,4213.333496,0.000000,4.000000,86.000000,,,,0.000000,4.000000,4.000000,4.000000,4.000000,4.000000,4.000000,4.000000,4.000000,4.000000,4.000000,4.000000,4.000000,4.000000,4.000000,100.000000,,,,,,,,,,,,,,,,
1645711542.253938,92.000000,0.000000,4205.000000,4224.230957,4212.563965,4217.820313,4236.922852,4225.000000,4227.307617,4239.358887,4234.615234,4237.436035,4241.410156,4180.384766,4249.102539,4211.025879,0.000000,4.000000,86.000000,,,,0.000000,4.000000,4.000000,4.000000,4.000000,4.000000,4.000000,4.000000,4.000000,4.000000,4.000000,4.000000,4.000000,4.000000,4.000000,100.000000,,,,,,,,,,,,,,,,
1645711542.257879,93.000000,0.000000,4237.563965,4213.589844,4207.563965,4205.769043,4218.974121,4213.205078,4223.077148,4231.794922,4228.974121,4221.666504,4223.461426,4172.563965,4241.538574,4220.000000,0.000000,4.000000,86.000000,,,,0.000000,4.000000,4.000000,4.000000,4.000000,4.000000,4.000000,4.000000,4.000000,4.000000,4.000000,4.000000,4.000000,4.000000,4.000000,100.000000,,,,,,,,,,,,,,,,
1645711542.261819,94.000000,0.000000,4250.769043,4209.615234,4205.000000,4201.666504,4209.487305,4211.666504,4225.897461,4227.051270,4224.615234,4210.128418,4212.307617,4168.589844,4237.948730,4230.769043,0.000000,4.000000,86.000000,,,,0.000000,4.000000,4.000000,4.000000,4.000000,4.000000,4.000000,4.000000,4.000000,4.000000,4.000000,4.000000,4.000000,4.000000,4.000000,100.000000,,,,,,,,,,,,,,,,
1645711542.265659,95.000000,0.000000,4233.974121,4219.102539,4207.051270,4211.538574,4219.358887,4224.358887,4233.333496,4230.128418,4226.282227,4214.871582,4219.230957,4171.282227,4242.436035,4230.769043,0.000000,4.000000,86.000000,,,,0.000000,4.000000,4.000000,4.000000,4.000000,4.000000,4.000000,4.000000,4.000000,4.000000,4.000000,4.000000,4.000000,4.000000,4.000000,100.000000,,,,,,,,,,,,,,,,
1645711542.269599,96.000000,0.000000,4214.487305,4230.897461,4209.615234,4222.948730,4233.846191,4235.769043,4235.769043,4235.256348,4229.615234,4225.384766,4232.948730,4176.153809,4249.358887,4220.641113,0.000000,4.000000,86.000000,1,1,2,0.000000,4.000000,4.000000,4.000000,4.000000,4.000000,4.000000,4.000000,4.000000,4.000000,4.000000,4.000000,4.000000,4.000000,4.000000,100.000000,,,,,,,,,,,,,,,,
1645711542.273539,97.000000,0.000000,4219.615234,4230.641113,4209.230957,4222.051270,4233.846191,4231.025879,4229.102539,4233.717773,4228.205078,4224.230957,4235.641113,4178.077148,4250.384766,4214.102539,0.000000,4.000000,86.000000,,,,0.000000,4.000000,4.000000,4.000000,4.000000,4.000000,4.000000,4.000000,4.000000,4.000000,4.000000,4.000000,4.000000,4.000000,4.000000,100.000000,,,,,,,,,,,,,,,,
1645711542.277479,98.000000,0.000000,4240.384766,4219.358887,4207.820313,4211.538574,4220.769043,4215.128418,4220.769043,4226.153809,4222.051270,4211.538574,4226.410156,4177.692383,4245.128418,4220.256348,0.000000,4.000000,86.000000,,,,0.000000,4.000000,4.000000,4.000000,4.000000,4.000000,4.000000,4.000000,4.000000,4.000000,4.000000,4.000000,4.000000,4.000000,4.000000,100.000000,,,,,,,,,,,,,,,,
1645711542.281419,99.000000,0.000000,4245.641113,4211.538574,4210.000000,4206.282227,4213.461426,4206.410156,4220.256348,4220.512695,4218.461426,4204.230957,4220.000000,4178.333496,4240.512695,4231.153809,0.000000,4.000000,86.000000,,,,0.000000,4.000000,4.000000,4.000000,4.000000,4.000000,4.000000,4.000000,4.000000,4.000000,4.000000,4.000000,4.000000,4.000000,4.000000,100.000000,,,,,,,,,,,,,,,,
1645711542.285359,100.000000,0.000000,4226.025879,4215.769043,4215.384766,4213.205078,4221.922852,4213.333496,4227.436035,4221.666504,4221.282227,4212.307617,4225.256348,4180.384766,4241.282227,4232.179688,0.000000,4.000000,86.000000,,,,0.000000,4.000000,4.000000,4.000000,4.000000,4.000000,4.000000,4.000000,4.000000,4.000000,4.000000,4.000000,4.000000,4.000000,4.000000,100.000000,,,,,,,,,,,,,,,,
1645711542.289300,101.000000,0.000000,4207.051270,4224.358887,4218.461426,4222.179688,4233.974121,4225.256348,4232.692383,4225.000000,4226.282227,4224.615234,4233.461426,4180.256348,4243.974121,4221.153809,0.000000,4.000000,86.000000,,,,0.000000,4.000000,4.000000,4.000000,4.000000,4.000000,4.000000,4.000000,4.000000,4.000000,4.000000,4.000000,4.000000,4.000000,4.000000,100.000000,,,,,,,,,,,,,,,,
1645711542.293240,102.000000,0.000000,4214.743652,4225.128418,4215.256348,4220.000000,4232.307617,4227.051270,4229.615234,4223.205078,4226.410156,4224.358887,4231.025879,4175.641113,4242.436035,4211.153809,0.000000,4.000000,86.000000,,,,0.000000,4.000000,4.000000,4.000000,4.000000,4.000000,4.000000,4.000000,4.000000,4.000000,4.000000,4.000000,4.000000,4.000000,4.000000,100.000000,,,,,,,,,,,,,,,,
1645711542.297180,103.000000,0.000000,4240.641113,4218.205078,4208.974121,4208.717773,4218.846191,4218.846191,4222.692383,4216.922852,4221.666504,4211.794922,4219.743652,4170.384766,4236.922852,4213.717773,0.000000,4.000000,86.000000,,,,0.000000,4.000000,4.000000,4.000000,4.000000,4.000000,4.000000,4.000000,4.000000,4.000000,4.000000,4.000000,4.000000,4.000000,4.000000,100.000000,,,,,,,,,,,,,,,,
1645711542.301120,104.000000,0.000000,4252.948730,4214.871582,4205.897461,4202.948730,4211.410156,4214.102539,4220.256348,4213.974121,4218.333496,4204.487305,4214.615234,4169.615234,4234.230957,4224.358887,0.000000,4.000000,86.000000,,,,0.000000,4.000000,4.000000,4.000000,4.000000,4.000000,4.000000,4.000000,4.000000,4.000000,4.000000,4.000000,4.000000,4.000000,4.000000,100.000000,,,,,,,,,,,,,,,,
1645711542.305060,105.000000,0.000000,4238.461426,4221.153809,4208.461426,4210.256348,4218.717773,4219.230957,4223.461426,4217.948730,4220.384766,4212.563965,4222.948730,4173.717773,4238.077148,4229.102539,0.000000,4.000000,86.000000,,,,0.000000,4.000000,4.000000,4.000000,4.000000,4.000000,4.000000,4.000000,4.000000,4.000000,4.000000,4.000000,4.000000,4.000000,4.000000,100.000000,,,,,,,,,,,,,,,,
1645711542.308900,106.000000,0.000000,4219.102539,4228.846191,4212.051270,4221.153809,4228.589844,4225.384766,4225.641113,4222.948730,4223.333496,4224.871582,4234.487305,4176.922852,4244.358887,4222.948730,0.000000,4.000000,86.000000,,,,0.000000,4.000000,4.000000,4.000000,4.000000,4.000000,4.000000,4.000000,4.000000,4.000000,4.000000,4.000000,4.000000,4.000000,4.000000,100.000000,,,,,,,,,,,,,,,,
1645711542.312840,107.000000,0.000000,4220.641113,4227.179688,4212.179688,4221.666504,4224.615234,4221.922852,4221.794922,4221.025879,4221.282227,4223.717773,4234.743652,4175.000000,4246.538574,4215.256348,0.000000,4.000000,86.000000,,,,0.000000,4.000000,4.000000,4.000000,4.000000,4.000000,4.000000,4.000000,4.000000,4.000000,4.000000,4.000000,4.000000,4.000000,4.000000,100.000000,,,,,,,,,,,,,,,,
1645711542.316780,108.000000,0.000000,4238.077148,4218.205078,4209.615234,4212.563965,4210.769043,4212.692383,4216.922852,4213.589844,4215.641113,4209.102539,4225.256348,4170.128418,4244.615234,4216.282227,0.000000,4.000000,86.000000,,,,0.000000,4.000000,4.000000,4.000000,4.000000,4.000000,4.000000,4.000000,4.000000,4.000000,4.000000,4.000000,4.000000,4.000000,4.000000,100.000000,1.000000,0.000000,0.000000,1.000000,1.000000,0.000000,0.000000,0.000000,1.000000,1.000000,3.000000,0.000000,0.000000,3.000000,1.000000,0.000000
1645711542.320720,109.000000,0.000000,4242.820313,4213.974121,4208.974121,4208.461426,4206.794922,4211.794922,4218.717773,4210.128418,4213.974121,4200.128418,4221.410156,4167.820313,4244.615234,4222.948730,0.000000,4.000000,86.000000,,,,0.000000,4.000000,4.000000,4.000000,4.000000,4.000000,4.000000,4.000000,4.000000,4.000000,4.000000,4.000000,4.000000,4.000000,4.000000,100.000000,,,,,,,,,,,,,,,,
1645711542.324661,110.000000,0.000000,4223.589844,4220.384766,4211.666504,4217.692383,4221.538574,4223.205078,4225.897461,4215.769043,4219.871582,4209.487305,4230.641113,4169.358887,4249.615234,4223.846191,0.000000,4.000000,86.000000,,,,0.000000,4.000000,4.000000,4.000000,4.000000,4.000000,4.000000,4.000000,4.000000,4.000000,4.000000,4.000000,4.000000,4.000000,4.000000,100.000000,,,,,,,,,,,,,,,,
1645711542.328601,111.000000,0.000000,4204.871582,4228.717773,4213.846191,4229.615234,4238.717773,4233.461426,4229.102539,4224.230957,4227.179688,4225.769043,4241.153809,4170.256348,4254.102539,4215.641113,0.000000,4.000000,86.000000,,,,0.000000,4.000000,4.000000,4.000000,4.000000,4.000000,4.000000,4.000000,4.000000,4.000000,4.000000,4.000000,4.000000,4.000000,4.000000,100.000000,,,,,,,,,,,,,,,,
1645711542.332541,112.000000,0.000000,4215.256348,4226.538574,4212.307617,4227.820313,4235.641113,4228.205078,4223.077148,4225.000000,4226.538574,4226.794922,4236.666504,4166.922852,4250.897461,4208.333496,0.000000,4.000000,86.000000,,,,0.000000,4.000000,4.000000,4.000000,4.000000,4.000000,4.000000,4.000000,4.000000,4.000000,4.000000,4.000000,4.000000,4.000000,4.000000,100.000000,,,,,,,,,,,,,,,,
1645711542.336481,113.000000,0.000000,4247.948730,4214.743652,4208.717773,4211.538574,4213.205078,4211.410156,4213.974121,4217.563965,4218.077148,4208.974121,4219.230957,4162.692383,4240.641113,4212.051270,0.000000,4.000000,86.000000,,,,0.000000,4.000000,4.000000,4.000000,4.000000,4.000000,4.000000,4.000000,4.000000,4.000000,4.000000,4.000000,4.000000,4.000000,4.000000,100.000000,,,,,,,,,,,,,,,,
1645711542.340421,114.000000,0.000000,4266.282227,4207.307617,4207.692383,4198.717773,4196.538574,4202.051270,4212.820313,4212.051270,4211.538574,4192.692383,4208.461426,4164.230957,4232.820313,4222.948730,0.000000,4.000000,86.000000,,,,0.000000,4.000000,4.000000,4.000000,4.000000,4.000000,4.000000,4.000000,4.000000,4.000000,4.000000,4.000000,4.000000,4.000000,4.000000,100.000000,,,,,,,,,,,,,,,,
1645711542.344361,115.000000,0.000000,4249.615234,4213.974121,4210.641113,4203.846191,4205.128418,4210.641113,4222.051270,4216.666504,4214.615234,4197.179688,4217.692383,4172.563965,4234.615234,4227.692383,0.000000,4.000000,86.000000,,,,0.000000,4.000000,4.000000,4.000000,4.000000,4.000000,4.000000,4.000000,4.000000,4.000000,4.000000,4.000000,4.000000,4.000000,4.000000,100.000000,,,,,,,,,,,,,,,,
1645711542.348301,116.000000,0.000000,4218.717773,4227.179688,4213.717773,4221.025879,4228.846191,4226.410156,4232.179688,4227.436035,4223.589844,4217.179688,4236.666504,4180.641113,4242.948730,4220.769043,0.000000,4.000000,86.000000,,,,0.000000,4.000000,4.000000,4.000000,4.000000,4.000000,4.000000,4.000000,4.000000,4.000000,4.000000,4.000000,4.000000,4.000000,4.000000,100.000000,,,,,,,,,,,,,,,,
1645711542.352241,117.000000,0.000000,4209.615234,4232.179688,4212.563965,4231.282227,4241.025879,4231.153809,4233.846191,4233.461426,4228.205078,4229.871582,4243.846191,4180.897461,4248.205078,4212.051270,0.000000,4.000000,86.000000,,,,0.000000,4.000000,4.000000,4.000000,4.000000,4.000000,4.000000,4.000000,4.000000,4.000000,4.000000,4.000000,4.000000,4.000000,4.000000,100.000000,,,,,,,,,,,,,,,,
1645711542.356181,118.000000,0.000000,4227.820313,4224.871582,4208.333496,4226.410156,4231.538574,4222.179688,4228.589844,4229.871582,4224.358887,4224.230957,4232.307617,4173.846191,4245.641113,4213.461426,0.000000,4.000000,86.000000,,,,0.000000,4.000000,4.000000,4.000000,4.000000,4.000000,4.000000,4.000000,4.000000,4.000000,4.000000,4.000000,4.000000,4.000000,4.000000,100.000000,,,,,,,,,,,,,,,,
1645711542.360122,119.000000,0.000000,4243.589844,4216.538574,4205.641113,4216.794922,4216.410156,4214.230957,4225.769043,4223.205078,4218.205078,4212.563965,4217.436035,4167.307617,4239.743652,4223.589844,0.000000,4.000000,86.000000,,,,0.000000,4.000000,4.000000,4.000000,4.000000,4.000000,4.000000,4.000000,4.000000,4.000000,4.000000,4.000000,4.000000,4.000000,4.000000,100.000000,,,,,,,,,,,,,,,,
1645711542.364062,120.000000,0.000000,4233.589844,4217.820313,4205.897461,4215.000000,4215.769043,4219.358887,4230.000000,4222.051270,4217.692383,4211.666504,4216.282227,4166.666504,4237.051270,4229.230957,0.000000,4.000000,86.000000,,,,0.000000,4.000000,4.000000,4.000000,4.000000,4.000000,4.000000,4.000000,4.000000,4.000000,4.000000,4.000000,4.000000,4.000000,4.000000,100.000000,,,,,,,,,,,,,,,,
1645711542.368002,121.000000,0.000000,4211.025879,4224.871582,4205.256348,4219.871582,4227.692383,4231.025879,4235.641113,4225.897461,4222.179688,4219.487305,4226.153809,4169.615234,4237.436035,4222.948730,0.000000,4.000000,86.000000,,,,0.000000,4.000000,4.000000,4.000000,4.000000,4.000000,4.000000,4.000000,4.000000,4.000000,4.000000,4.000000,4.000000,4.000000,4.000000,100.000000,,,,,,,,,,,,,,,,
1645711542.371942,122.000000,0.000000,4206.666504,4225.256348,4200.128418,4220.384766,4233.333496,4233.205078,4235.256348,4227.820313,4224.102539,4219.615234,4230.769043,4170.000000,4235.769043,4212.051270,0.000000,4.000000,86.000000,,,,0.000000,4.000000,4.000000,4.000000,4.000000,4.000000,4.000000,4.000000,4.000000,4.000000,4.000000,4.000000,4.000000,4.000000,4.000000,100.000000,,,,,,,,,,,,,,,,
1645711542.375882,123.000000,0.000000,4225.384766,4215.769043,4192.948730,4213.589844,4224.871582,4222.692383,4230.256348,4224.871582,4219.871582,4205.641113,4222.436035,4166.153809,4230.256348,4208.974121,0.000000,4.000000,86.000000,,,,0.000000,4.000000,4.000000,4.000000,4.000000,4.000000,4.000000,4.000000,4.000000,4.000000,4.000000,4.000000,4.000000,4.000000,4.000000,100.000000,,,,,,,,,,,,,,,,
1645711542.379822,124.000000,0.000000,4239.743652,4207.051270,4189.615234,4209.871582,4215.897461,4214.102539,4228.717773,4222.051270,4214.615234,4192.307617,4212.692383,4162.179688,4226.410156,4214.102539,0.000000,4.000000,86.000000,,,,0.000000,4.000000,4.000000,4.000000,4.000000,4.000000,4.000000,4.000000,4.000000,4.000000,4.000000,4.000000,4.000000,4.000000,4.000000,100.000000,,,,,,,,,,,,,,,,
1645711542.383762,125.000000,0.000000,4226.538574,4209.871582,4192.820313,4217.820313,4222.307617,4220.512695,4234.615234,4224.487305,4215.128418,4196.282227,4215.256348,4161.153809,4229.743652,4216.794922,0.000000,4.000000,86.000000,2,1,2,0.000000,4.000000,4.000000,4.000000,4.000000,4.000000,4.000000,4.000000,4.000000,4.000000,4.000000,4.000000,4.000000,4.000000,4.000000,100.000000,,,,,,,,,,,,,,,,
1645711542.387702,126.000000,0.000000,4200.384766,4220.641113,4198.717773,4230.256348,4239.743652,4236.025879,4242.436035,4228.589844,4221.025879,4213.974121,4226.666504,4161.410156,4237.436035,4210.641113,0.000000,4.000000,86.000000,,,,0.000000,4.000000,4.000000,4.000000,4.000000,4.000000,4.000000,4.000000,4.000000,4.000000,4.000000,4.000000,4.000000,4.000000,4.000000,100.000000,,,,,,,,,,,,,,,,
1645711542.391642,127.000000,0.000000,4195.000000,4226.538574,4201.794922,4231.922852,4248.589844,4243.333496,4243.974121,4226.922852,4225.000000,4225.641113,4231.153809,4159.871582,4241.538574,4203.461426,0.000000,4.000000,86.000000,,,,0.000000,4.000000,4.000000,4.000000,4.000000,4.000000,4.000000,4.000000,4.000000,4.000000,4.000000,4.000000,4.000000,4.000000,4.000000,100.000000,,,,,,,,,,,,,,,,
1645711542.395582,128.000000,0.000000,4219.743652,4221.794922,4201.794922,4219.743652,4239.487305,4235.512695,4238.589844,4218.205078,4222.948730,4220.897461,4222.051270,4157.563965,4238.461426,4207.179688,3300.000000,4.000000,86.000000,,,,0.000000,4.000000,4.000000,4.000000,4.000000,4.000000,4.000000,4.000000,4.000000,4.000000,4.000000,4.000000,4.000000,4.000000,4.000000,100.000000,,,,,,,,,,,,,,,,
1645711542.399523,129.000000,0.000000,4246.282227,4214.871582,4202.307617,4208.077148,4225.512695,4223.589844,4233.461426,4210.769043,4218.461426,4211.410156,4211.666504,4158.589844,4233.846191,4220.384766,3211.000000,4.000000,86.000000,,,,0.000000,4.000000,4.000000,4.000000,4.000000,4.000000,4.000000,4.000000,4.000000,4.000000,4.000000,4.000000,4.000000,4.000000,4.000000,100.000000,,,,,,,,,,,,,,,,
1645711542.403463,130.000000,0.000000,4245.000000,4215.769043,4205.769043,4210.384766,4223.461426,4221.025879,4232.563965,4212.436035,4217.820313,4213.333496,4214.743652,4163.846191,4234.743652,4228.589844,2268.000000,4.000000,86.000000,,,,0.000000,4.000000,4.000000,4.000000,4.000000,4.000000,4.000000,4.000000,4.000000,4.000000,4.000000,4.000000,4.000000,4.000000,4.000000,100.000000,,,,,,,,,,,,,,,,
1645711542.407403,131.000000,0.000000,4221.794922,4221.794922,4209.230957,4222.436035,4231.794922,4226.025879,4231.922852,4220.128418,4221.153809,4224.230957,4228.461426,4168.333496,4240.641113,4222.436035,3365.000000,4.000000,86.000000,,,,0.000000,4.000000,4.000000,4.000000,4.000000,4.000000,4.000000,4.000000,4.000000,4.000000,4.000000,4.000000,4.000000,4.000000,4.000000,100.000000,,,,,,,,,,,,,,,,
1645711542.411343,132.000000,0.000000,4208.333496,4221.025879,4208.717773,4227.563965,4233.205078,4225.256348,4225.769043,4223.846191,4222.051270,4226.282227,4235.384766,4166.282227,4243.846191,4210.128418,3507.000000,4.000000,86.000000,,,,0.000000,4.000000,4.000000,4.000000,4.000000,4.000000,4.000000,4.000000,4.000000,4.000000,4.000000,4.000000,4.000000,4.000000,4.000000,100.000000,,,,,,,,,,,,,,,,
1645711542.415283,133.000000,0.000000,4218.589844,4209.743652,4204.487305,4219.230957,4220.000000,4214.102539,4216.282227,4218.974121,4217.563965,4211.666504,4226.666504,4158.974121,4239.487305,4207.179688,3353.000000,4.000000,86.000000,,,,0.000000,4.000000,4.000000,4.000000,4.000000,4.000000,4.000000,4.000000,4.000000,4.000000,4.000000,4.000000,4.000000,4.000000,4.000000,100.000000,,,,,,,,,,,,,,,,
1645711542.419223,134.000000,0.000000,4232.179688,4199.743652,4201.666504,4208.846191,4206.153809,4204.358887,4211.922852,4212.563965,4212.820313,4194.871582,4212.948730,4153.846191,4232.179688,4216.666504,3215.000000,4.000000,86.000000,,,,0.000000,4.000000,4.000000,4.000000,4.000000,4.000000,4.000000,4.000000,4.000000,4.000000,4.000000,4.000000,4.000000,4.000000,4.000000,100.000000,,,,,,,,,,,,,,,,
1645711542.423163,135.000000,0.000000,4225.769043,4204.102539,4203.461426,4211.153809,4209.102539,4208.205078,4216.922852,4213.717773,4214.743652,4195.384766,4210.384766,4156.410156,4229.871582,4225.897461,2327.000000,4.000000,86.000000,,,,0.000000,4.000000,4.000000,4.000000,4.000000,4.000000,4.000000,4.000000,4.000000,4.000000,4.000000,4.000000,4.000000,4.000000,4.000000,100.000000,,,,,,,,,,,,,,,,
1645711542.427103,136.000000,0.000000,4207.948730,4220.256348,4207.307617,4223.974121,4226.410156,4221.282227,4224.871582,4222.179688,4222.692383,4212.948730,4220.256348,4163.846191,4234.230957,4223.589844,1638.000000,4.000000,86.000000,,,,0.000000,4.000000,4.000000,4.000000,4.000000,4.000000,4.000000,4.000000,4.000000,4.000000,4.000000,4.000000,4.000000,4.000000,4.000000,100.000000,,,,,,,,,,,,,,,,
1645711542.431043,137.000000,0.000000,4207.436035,4232.948730,4208.974121,4231.922852,4237.820313,4227.820313,4226.538574,4229.358887,4228.846191,4227.436035,4228.717773,4168.846191,4239.743652,4215.000000,2931.000000,4.000000,86.000000,,,,0.000000,4.000000,4.000000,4.000000,4.000000,4.000000,4.000000,4.000000,4.000000,4.000000,4.000000,4.000000,4.000000,4.000000,4.000000,100.000000,,,,,,,,,,,,,,,,
1645711542.434984,138.000000,0.000000,4232.307617,4232.436035,4208.077148,4226.794922,4231.794922,4220.384766,4221.538574,4229.487305,4227.820313,4225.384766,4227.436035,4168.461426,4241.538574,4214.615234,2294.000000,4.000000,86.000000,,,,0.000000,4.000000,4.000000,4.000000,4.000000,4.000000,4.000000,4.000000,4.000000,4.000000,4.000000,4.000000,4.000000,4.000000,4.000000,100.000000,,,,,,,,,,,,,,,,
1645711542.438924,139.000000,0.000000,4255.897461,4225.512695,4208.717773,4216.922852,4219.230957,4209.615234,4217.563965,4226.410156,4222.948730,4215.512695,4224.102539,4166.922852,4241.666504,4226.282227,2684.000000,4.000000,86.000000,,,,0.000000,4.000000,4.000000,4.000000,4.000000,4.000000,4.000000,4.000000,4.000000,4.000000,4.000000,4.000000,4.000000,4.000000,4.000000,100.000000,,,,,,,,,,,,,,,,
1645711542.442864,140.000000,0.000000,4250.897461,4223.333496,4213.077148,4215.256348,4216.538574,4208.717773,4219.487305,4226.794922,4220.769043,4214.358887,4229.230957,4168.333496,4244.230957,4237.692383,3243.000000,4.000000,86.000000,,,,0.000000,4.000000,4.000000,4.000000,4.000000,4.000000,4.000000,4.000000,4.000000,4.000000,4.000000,4.000000,4.000000,4.000000,4.000000,100.000000,,,,,,,,,,,,,,,,
1645711542.446804,141.000000,0.000000,4226.666504,4225.641113,4217.820313,4220.769043,4223.077148,4215.641113,4222.307617,4229.487305,4222.051270,4222.563965,4238.205078,4171.025879,4247.820313,4236.282227,3040.000000,4.000000,86.000000,,,,0.000000,4.000000,4.000000,4.000000,4.000000,4.000000,4.000000,4.000000,4.000000,4.000000,4.000000,4.000000,4.000000,4.000000,4.000000,100.000000,,,,,,,,,,,,,,,,
1645711542.450744,142.000000,0.000000,4216.922852,4221.794922,4217.307617,4220.897461,4221.922852,4216.794922,4219.230957,4227.051270,4220.769043,4224.230957,4236.153809,4170.000000,4246.538574,4225.000000,2294.000000,4.000000,86.000000,,,,0.000000,4.000000,4.000000,4.000000,4.000000,4.000000,4.000000,4.000000,4.000000,4.000000,4.000000,4.000000,4.000000,4.000000,4.000000,100.000000,,,,,,,,,,,,,,,,
1645711542.454584,143.000000,0.000000,4235.128418,4208.205078,4211.282227,4210.256348,4206.538574,4207.563965,4212.436035,4217.563965,4214.102539,4210.641113,4218.974121,4164.615234,4239.102539,4217.948730,2684.000000,4.000000,86.000000,,,,0.000000,4.000000,4.000000,4.000000,4.000000,4.000000,4.000000,4.000000,4.000000,4.000000,4.000000,4.000000,4.000000,4.000000,4.000000,100.000000,,,,,,,,,,,,,,,,
1645711542.458524,144.000000,0.000000,4254.871582,4196.153809,4205.897461,4200.128418,4193.077148,4200.641113,4211.410156,4209.871582,4207.820313,4195.641113,4203.717773,4160.384766,4232.436035,4221.538574,3243.000000,4.000000,86.000000,,,,0.000000,4.000000,4.000000,4.000000,4.000000,4.000000,4.000000,4.000000,4.000000,4.000000,4.000000,4.000000,4.000000,4.000000,4.000000,100.000000,,,,,,,,,,,,,,,,
1645711542.462464,145.000000,0.000000,4244.871582,4198.846191,4206.282227,4204.487305,4201.410156,4209.358887,4221.153809,4213.974121,4210.384766,4199.102539,4209.230957,4161.666504,4234.487305,4226.922852,3040.000000,4.000000,86.000000,,,,0.000000,4.000000,4.000000,4.000000,4.000000,4.000000,4.000000,4.000000,4.000000,4.000000,4.000000,4.000000,4.000000,4.000000,4.000000,100.000000,,,,,,,,,,,,,,,,
1645711542.466404,146.000000,0.000000,4211.538574,4213.974121,4210.512695,4220.769043,4226.794922,4228.589844,4233.717773,4228.205078,4221.666504,4221.282227,4231.922852,4166.025879,4244.102539,4224.102539,2294.000000,4.000000,86.000000,,,,0.000000,4.000000,4.000000,4.000000,4.000000,4.000000,4.000000,4.000000,4.000000,4.000000,4.000000,4.000000,4.000000,4.000000,4.000000,100.000000,,,,,,,,,,,,,,,,
1645711542.470345,147.000000,0.000000,4193.077148,4225.000000,4212.820313,4231.153809,4243.461426,4238.589844,4237.436035,4240.128418,4231.922852,4239.871582,4248.846191,4167.563965,4251.794922,4216.025879,2684.000000,4.000000,86.000000,,,,0.000000,4.000000,4.000000,4.000000,4.000000,4.000000,4.000000,4.000000,4.000000,4.000000,4.000000,4.000000,4.000000,4.000000,4.000000,100.000000,,,,,,,,,,,,,,,,
1645711542.474285,148.000000,0.000000,4211.282227,4221.666504,4211.025879,4224.743652,4234.615234,4230.000000,4230.512695,4240.000000,4233.077148,4237.436035,4245.384766,4165.256348,4251.153809,4215.641113,3243.000000,4.000000,86.000000,,,,0.000000,4.000000,4.000000,4.000000,4.000000,4.000000,4.000000,4.000000,4.000000,4.000000,4.000000,4.000000,4.000000,4.000000,4.000000,100.000000,,,,,,,,,,,,,,,,
1645711542.478225,149.000000,0.000000,4243.333496,4212.051270,4209.358887,4211.153809,4213.974121,4215.256348,4222.820313,4232.051270,4227.692383,4222.563965,4231.794922,4164.230957,4245.769043,4226.410156,3040.000000,4.000000,86.000000,,,,0.000000,4.000000,4.000000,4.000000,4.000000,4.000000,4.000000,4.000000,4.000000,4.000000,4.000000,4.000000,4.000000,4.000000,4.000000,100.000000,,,,,,,,,,,,,,,,
1645711542.482165,150.000000,0.000000,4251.025879,4211.410156,4212.051270,4208.077148,4207.948730,4213.589844,4223.974121,4226.922852,4224.871582,4217.307617,4228.461426,4168.589844,4244.102539,4236.153809,2294.000000,4.000000,86.000000,,,,0.000000,4.000000,4.000000,4.000000,4.000000,4.000000,4.000000,4.000000,4.000000,4.000000,4.000000,4.000000,4.000000,4.000000,4.000000,100.000000,,,,,,,,,,,,,,,,
1645711542.486105,151.000000,0.000000,4228.461426,4221.410156,4216.666504,4219.358887,4223.077148,4226.922852,4231.282227,4228.717773,4227.563965,4228.717773,4238.717773,4174.615234,4247.563965,4231.410156,2684.000000,4.000000,86.000000,,,,0.000000,4.000000,4.000000,4.000000,4.000000,4.000000,4.000000,4.000000,4.000000,4.000000,4.000000,4.000000,4.000000,4.000000,4.000000,100.000000,,,,,,,,,,,,,,,,
1645711542.490045,152.000000,0.000000,4206.922852,4227.948730,4216.282227,4230.641113,4239.358887,4238.077148,4235.000000,4230.512695,4230.256348,4240.128418,4245.769043,4173.846191,4248.974121,4214.871582,3243.000000,4.000000,86.000000,,,,0.000000,4.000000,4.000000,4.000000,4.000000,4.000000,4.000000,4.000000,4.000000,4.000000,4.000000,4.000000,4.000000,4.000000,4.000000,100.000000,,,,,,,,,,,,,,,,
1645711542.493985,153.000000,0.000000,4212.436035,4220.000000,4208.717773,4229.358887,4236.922852,4234.230957,4230.769043,4225.384766,4226.538574,4234.615234,4235.769043,4164.102539,4242.820313,4203.077148,3040.000000,4.000000,86.000000,,,,0.000000,4.000000,4.000000,4.000000,4.000000,4.000000,4.000000,4.000000,4.000000,4.000000,4.000000,4.000000,4.000000,4.000000,4.000000,100.000000,,,,,,,,,,,,,,,,
1645711542.497925,154.000000,0.000000,4232.948730,4204.743652,4200.512695,4220.000000,4221.410156,4222.051270,4225.897461,4216.538574,4219.358887,4217.563965,4218.205078,4153.205078,4233.333496,4206.538574,2294.000000,4.000000,86.000000,,,,0.000000,4.000000,4.000000,4.000000,4.000000,4.000000,4.000000,4.000000,4.000000,4.000000,4.000000,4.000000,4.000000,4.000000,4.000000,100.000000,,,,,,,,,,,,,,,,
1645711542.501865,155.000000,0.000000,4237.948730,4199.871582,4198.974121,4217.051270,4214.358887,4218.589844,4227.692383,4213.461426,4217.051270,4208.974121,4214.102539,4151.538574,4230.000000,4217.948730,2684.000000,4.000000,86.000000,,,,0.000000,4.000000,4.000000,4.000000,4.000000,4.000000,4.000000,4.000000,4.000000,4.000000,4.000000,4.000000,4.000000,4.000000,4.000000,100.000000,,,,,,,,,,,,,,,,
1645711542.505806,156.000000,0.000000,4221.282227,4211.282227,4204.743652,4225.128418,4223.974121,4227.179688,4233.205078,4219.358887,4221.922852,4217.436035,4229.230957,4160.000000,4235.641113,4222.820313,3243.000000,4.000000,86.000000,,,,0.000000,4.000000,4.000000,4.000000,4.000000,4.000000,4.000000,4.000000,4.000000,4.000000,4.000000,4.000000,4.000000,4.000000,4.000000,100.000000,,,,,,,,,,,,,,,,
1645711542.509746,157.000000,0.000000,4208.846191,4225.641113,4210.897461,4232.307617,4234.230957,4234.230957,4233.077148,4226.282227,4227.051270,4228.846191,4245.512695,4169.871582,4243.333496,4217.820313,3040.000000,4.000000,86.000000,,,,0.000000,4.000000,4.000000,4.000000,4.000000,4.000000,4.000000,4.000000,4.000000,4.000000,4.000000,4.000000,4.000000,4.000000,4.000000,100.000000,,,,,,,,,,,,,,,,
1645711542.513686,158.000000,0.000000,4221.410156,4228.205078,4211.794922,4227.948730,4227.948730,4227.563965,4224.102539,4226.153809,4224.487305,4226.153809,4244.102539,4172.692383,4244.230957,4213.333496,2294.000000,4.000000,86.000000,,,,0.000000,4.000000,4.000000,4.000000,4.000000,4.000000,4.000000,4.000000,4.000000,4.000000,4.000000,4.000000,4.000000,4.000000,4.000000,100.000000,,,,,,,,,,,,,,,,
1645711542.517626,159.000000,0.000000,4244.487305,4220.384766,4209.615234,4218.205078,4211.025879,4214.102539,4214.358887,4220.384766,4216.410156,4212.179688,4228.717773,4169.358887,4239.230957,4217.820313,2684.000000,4.000000,86.000000,,,,0.000000,4.000000,4.000000,4.000000,4.000000,4.000000,4.000000,4.000000,4.000000,4.000000,4.000000,4.000000,4.000000,4.000000,4.000000,100.000000,,,,,,,,,,,,,,,,
1645711542.521566,160.000000,0.000000,4246.794922,4216.794922,4210.000000,4217.948730,4205.256348,4210.384766,4213.205078,4218.077148,4212.563965,4205.000000,4219.615234,4166.410156,4235.641113,4225.256348,3243.000000,4.000000,86.000000,,,,0.000000,4.000000,4.000000,4.000000,4.000000,4.000000,4.000000,4.000000,4.000000,4.000000,4.000000,4.000000,4.000000,4.000000,4.000000,100.000000,,,,,,,,,,,,,,,,
1645711542.525606,161.000000,0.000000,4223.461426,4224.615234,4213.846191,4230.641113,4218.333496,4220.769043,4219.487305,4222.563965,4218.077148,4213.205078,4227.051270,4166.922852,4238.077148,4223.589844,3040.000000,4.000000,86.000000,,,,0.000000,4.000000,4.000000,4.000000,4.000000,4.000000,4.000000,4.000000,4.000000,4.000000,4.000000,4.000000,4.000000,4.000000,4.000000,100.000000,,,,,,,,,,,,,,,,
1645711542.529546,162.000000,0.000000,4203.974121,4234.358887,4216.410156,4242.179688,4233.205078,4230.641113,4223.461426,4227.307617,4226.922852,4224.102539,4238.461426,4167.692383,4242.051270,4211.922852,2294.000000,4.000000,86.000000,,,,0.000000,4.000000,4.000000,4.000000,4.000000,4.000000,4.000000,4.000000,4.000000,4.000000,4.000000,4.000000,4.000000,4.000000,4.000000,100.000000,,,,,,,,,,,,,,,,
1645711542.533486,163.000000,0.000000,4214.743652,4232.948730,4213.846191,4238.974121,4229.743652,4225.897461,4219.487305,4225.128418,4229.487305,4221.410156,4237.436035,4165.384766,4240.897461,4202.692383,2684.000000,4.000000,86.000000,,,,0.000000,4.000000,4.000000,4.000000,4.000000,4.000000,4.000000,4.000000,4.000000,4.000000,4.000000,4.000000,4.000000,4.000000,4.000000,100.000000,,,,,,,,,,,,,,,,
1645711542.537426,164.000000,0.000000,4243.077148,4222.051270,4208.717773,4225.897461,4211.922852,4211.153809,4213.077148,4218.846191,4224.743652,4208.717773,4225.641113,4162.179688,4235.512695,4206.153809,3243.000000,4.000000,86.000000,,,,0.000000,4.000000,4.000000,4.000000,4.000000,4.000000,4.000000,4.000000,4.000000,4.000000,4.000000,4.000000,4.000000,4.000000,4.000000,100.000000,,,,,,,,,,,,,,,,
1645711542.541366,165.000000,0.000000,4253.205078,4215.000000,4207.051270,4220.384766,4202.436035,4203.974121,4212.820313,4218.589844,4220.897461,4205.897461,4220.512695,4162.179688,4233.077148,4217.307617,3040.000000,4.000000,86.000000,,,,0.000000,4.000000,4.000000,4.000000,4.000000,4.000000,4.000000,4.000000,4.000000,4.000000,4.000000,4.000000,4.000000,4.000000,4.000000,100.000000,,,,,,,,,,,,,,,,
1645711542.545306,166.000000,0.000000,4232.820313,4219.743652,4210.384766,4229.615234,4212.563965,4211.538574,4218.589844,4228.333496,4223.846191,4221.410156,4230.897461,4165.384766,4237.820313,4223.461426,2294.000000,4.000000,86.000000,,,,0.000000,4.000000,4.000000,4.000000,4.000000,4.000000,4.000000,4.000000,4.000000,4.000000,4.000000,4.000000,4.000000,4.000000,4.000000,100.000000,,,,,,,,,,,,,,,,
1645711542.549247,167.000000,0.000000,4208.974121,4228.846191,4214.615234,4241.025879,4227.563965,4221.922852,4222.051270,4239.871582,4230.128418,4240.256348,4245.000000,4166.538574,4244.358887,4221.025879,2684.000000,4.000000,86.000000,,,,0.000000,4.000000,4.000000,4.000000,4.000000,4.000000,4.000000,4.000000,4.000000,4.000000,4.000000,4.000000,4.000000,4.000000,4.000000,100.000000,,,,,,,,,,,,,,,,
1645711542.553187,168.000000,0.000000,4212.051270,4229.358887,4215.256348,4238.974121,4226.666504,4220.256348,4217.692383,4241.794922,4231.794922,4241.922852,4245.512695,4162.948730,4244.743652,4218.461426,3243.000000,4.000000,86.000000,,,,0.000000,4.000000,4.000000,4.000000,4.000000,4.000000,4.000000,4.000000,4.000000,4.000000,4.000000,4.000000,4.000000,4.000000,4.000000,100.000000,,,,,,,,,,,,,,,,
1645711542.557127,169.000000,0.000000,4235.897461,4220.897461,4213.077148,4224.871582,4210.256348,4208.974121,4210.256348,4232.820313,4226.922852,4226.153809,4232.692383,4158.205078,4238.589844,4222.179688,3040.000000,4.000000,86.000000,,,,0.000000,4.000000,4.000000,4.000000,4.000000,4.000000,4.000000,4.000000,4.000000,4.000000,4.000000,4.000000,4.000000,4.000000,4.000000,100.000000,,,,,,,,,,,,,,,,
1645711542.561067,170.000000,0.000000,4247.307617,4213.846191,4212.051270,4215.000000,4198.846191,4203.589844,4208.461426,4222.307617,4221.410156,4212.948730,4223.589844,4157.948730,4233.333496,4226.153809,2294.000000,4.000000,86.000000,,,,0.000000,4.000000,4.000000,4.000000,4.000000,4.000000,4.000000,4.000000,4.000000,4.000000,4.000000,4.000000,4.000000,4.000000,4.000000,100.000000,,,,,,,,,,,,,,,,
1645711542.565007,171.000000,0.000000,4231.153809,4214.871582,4212.563965,4218.589844,4205.000000,4211.282227,4213.461426,4218.461426,4220.641113,4215.641113,4228.461426,4162.563965,4234.230957,4220.128418,2684.000000,4.000000,86.000000,,,,0.000000,4.000000,4.000000,4.000000,4.000000,4.000000,4.000000,4.000000,4.000000,4.000000,4.000000,4.000000,4.000000,4.000000,4.000000,100.000000,,,,,,,,,,,,,,,,
1645711542.568947,172.000000,0.000000,4210.000000,4217.307617,4211.666504,4227.179688,4217.436035,4221.410156,4218.077148,4219.102539,4221.794922,4224.230957,4237.692383,4165.897461,4237.307617,4206.410156,3243.000000,4.000000,86.000000,,,,0.000000,4.000000,4.000000,4.000000,4.000000,4.000000,4.000000,4.000000,4.000000,4.000000,4.000000,4.000000,4.000000,4.000000,4.000000,100.000000,,,,,,,,,,,,,,,,
1645711542.572887,173.000000,0.000000,4212.692383,4211.922852,4207.436035,4226.410156,4217.051270,4220.128418,4216.410156,4217.692383,4219.358887,4220.641113,4235.641113,4163.589844,4235.641113,4199.871582,3040.000000,4.000000,86.000000,,,,0.000000,4.000000,4.000000,4.000000,4.000000,4.000000,4.000000,4.000000,4.000000,4.000000,4.000000,4.000000,4.000000,4.000000,4.000000,100.000000,,,,,,,,,,,,,,,,
1645711542.576827,174.000000,0.000000,4234.615234,4202.051270,4203.974121,4216.666504,4203.589844,4209.615234,4211.922852,4213.205078,4213.974121,4204.102539,4222.692383,4158.589844,4229.615234,4210.641113,2294.000000,4.000000,86.000000,,,,0.000000,4.000000,4.000000,4.000000,4.000000,4.000000,4.000000,4.000000,4.000000,4.000000,4.000000,4.000000,4.000000,4.000000,4.000000,100.000000,,,,,,,,,,,,,,,,
1645711542.580767,175.000000,0.000000,4244.487305,4201.025879,4206.410156,4212.436035,4195.769043,4205.256348,4211.922852,4211.794922,4212.563965,4193.461426,4216.025879,4157.692383,4227.307617,4229.102539,2684.000000,4.000000,86.000000,,,,0.000000,4.000000,4.000000,4.000000,4.000000,4.000000,4.000000,4.000000,4.000000,4.000000,4.000000,4.000000,4.000000,4.000000,4.000000,100.000000,,,,,,,,,,,,,,,,
1645711542.584708,176.000000,0.000000,4227.563965,4214.230957,4214.230957,4221.922852,4206.282227,4214.487305,4216.922852,4216.282227,4219.102539,4202.563965,4226.410156,4162.179688,4233.333496,4236.922852,3243.000000,4.000000,86.000000,,,,0.000000,4.000000,4.000000,4.000000,4.000000,4.000000,4.000000,4.000000,4.000000,4.000000,4.000000,4.000000,4.000000,4.000000,4.000000,100.000000,,,,,,,,,,,,,,,,
1645711542.588648,177.000000,0.000000,4206.922852,4230.000000,4221.282227,4235.256348,4223.846191,4225.897461,4219.743652,4221.282227,4227.179688,4221.410156,4242.948730,4166.794922,4242.820313,4228.205078,3040.000000,4.000000,86.000000,,,,0.000000,4.000000,4.000000,4.000000,4.000000,4.000000,4.000000,4.000000,4.000000,4.000000,4.000000,4.000000,4.000000,4.000000,4.000000,100.000000,,,,,,,,,,,,,,,,
1645711542.592588,178.000000,0.000000,4212.307617,4233.333496,4222.563965,4236.666504,4227.820313,4225.000000,4215.641113,4218.589844,4227.820313,4228.717773,4247.307617,4166.282227,4246.410156,4216.025879,2294.000000,4.000000,86.000000,,,,0.000000,4.000000,4.000000,4.000000,4.000000,4.000000,4.000000,4.000000,4.000000,4.000000,4.000000,4.000000,4.000000,4.000000,4.000000,100.000000,,,,,,,,,,,,,,,,
1645711542.596528,179.000000,0.000000,4239.230957,4223.077148,4220.000000,4226.025879,4216.410156,4213.589844,4209.615234,4210.128418,4220.256348,4219.358887,4236.922852,4162.563965,4241.794922,4214.487305,2684.000000,4.000000,86.000000,,,,0.000000,4.000000,4.000000,4.000000,4.000000,4.000000,4.000000,4.000000,4.000000,4.000000,4.000000,4.000000,4.000000,4.000000,4.000000,100.000000,,,,,,,,,,,,,,,,
1645711542.600368,180.000000,0.000000,4253.974121,4213.717773,4218.974121,4218.205078,4208.205078,4207.948730,4210.256348,4205.769043,4213.333496,4209.358887,4227.307617,4161.282227,4235.641113,4221.282227,3243.000000,4.000000,86.000000,,,,0.000000,4.000000,4.000000,4.000000,4.000000,4.000000,4.000000,4.000000,4.000000,4.000000,4.000000,4.000000,4.000000,4.000000,4.000000,100.000000,,,,,,,,,,,,,,,,
1645711542.604308,181.000000,0.000000,4238.333496,4215.769043,4221.282227,4223.589844,4216.794922,4216.410156,4218.077148,4211.538574,4214.615234,4213.077148,4231.282227,4164.230957,4234.743652,4222.948730,3040.000000,4.000000,86.000000,,,,0.000000,4.000000,4.000000,4.000000,4.000000,4.000000,4.000000,4.000000,4.000000,4.000000,4.000000,4.000000,4.000000,4.000000,4.000000,100.000000,,,,,,,,,,,,,,,,
1645711542.608248,182.000000,0.000000,4214.230957,4223.846191,4222.307617,4233.717773,4231.922852,4228.333496,4224.487305,4221.153809,4220.897461,4223.461426,4241.922852,4166.410156,4237.563965,4214.487305,2294.000000,4.000000,86.000000,,,,0.000000,4.000000,4.000000,4.000000,4.000000,4.000000,4.000000,4.000000,4.000000,4.000000,4.000000,4.000000,4.000000,4.000000,4.000000,100.000000,,,,,,,,,,,,,,,,
1645711542.612188,183.000000,0.000000,4213.717773,4225.256348,4217.692383,4232.948730,4232.820313,4227.179688,4221.794922,4223.205078,4223.077148,4221.794922,4243.589844,4163.205078,4237.692383,4206.153809,2684.000000,4.000000,86.000000,,,,0.000000,4.000000,4.000000,4.000000,4.000000,4.000000,4.000000,4.000000,4.000000,4.000000,4.000000,4.000000,4.000000,4.000000,4.000000,100.000000,,,,,,,,,,,,,,,,
1645711542.616128,184.000000,0.000000,4236.025879,4217.820313,4209.871582,4220.128418,4216.922852,4212.948730,4213.461426,4215.128418,4218.077148,4205.128418,4232.820313,4156.282227,4233.205078,4209.615234,3243.000000,4.000000,86.000000,,,,0.000000,4.000000,4.000000,4.000000,4.000000,4.000000,4.000000,4.000000,4.000000,4.000000,4.000000,4.000000,4.000000,4.000000,4.000000,100.000000,,,,,,,,,,,,,,,,
1645711542.620069,185.000000,0.000000,4247.563965,4212.307617,4205.384766,4210.384766,4204.102539,4202.563965,4209.487305,4206.153809,4211.794922,4191.153809,4223.333496,4151.025879,4229.615234,4220.769043,3040.000000,4.000000,86.000000,,,,0.000000,4.000000,4.000000,4.000000,4.000000,4.000000,4.000000,4.000000,4.000000,4.000000,4.000000,4.000000,4.000000,4.000000,4.000000,100.000000,,,,,,,,,,,,,,,,
1645711542.624009,186.000000,0.000000,4228.333496,4217.179688,4206.666504,4215.384766,4210.512695,4207.436035,4213.205078,4205.256348,4210.769043,4196.153809,4226.153809,4150.128418,4231.538574,4224.487305,2294.000000,4.000000,86.000000,,,,0.000000,4.000000,4.000000,4.000000,4.000000,4.000000,4.000000,4.000000,4.000000,4.000000,4.000000,4.000000,4.000000,4.000000,4.000000,100.000000,,,,,,,,,,,,,,,,
1645711542.627949,187.000000,0.000000,4199.743652,4226.025879,4209.615234,4227.307617,4227.692383,4219.487305,4218.333496,4211.153809,4213.333496,4213.077148,4234.102539,4149.743652,4235.000000,4214.230957,2684.000000,4.000000,86.000000,,,,0.000000,4.000000,4.000000,4.000000,4.000000,4.000000,4.000000,4.000000,4.000000,4.000000,4.000000,4.000000,4.000000,4.000000,4.000000,100.000000,,,,,,,,,,,,,,,,
1645711542.631889,188.000000,0.000000,4197.692383,4226.410156,4208.717773,4229.615234,4233.461426,4221.922852,4217.563965,4214.743652,4213.333496,4220.256348,4232.179688,4146.410156,4233.205078,4200.512695,3243.000000,4.000000,86.000000,,,,0.000000,4.000000,4.000000,4.000000,4.000000,4.000000,4.000000,4.000000,4.000000,4.000000,4.000000,4.000000,4.000000,4.000000,4.000000,100.000000,,,,,,,,,,,,,,,,
1645711542.635829,189.000000,0.000000,4225.128418,4216.666504,4205.256348,4219.102539,4221.666504,4211.794922,4212.692383,4212.820313,4209.743652,4210.256348,4219.230957,4142.179688,4226.282227,4198.589844,3040.000000,4.000000,86.000000,,,,0.000000,4.000000,4.000000,4.000000,4.000000,4.000000,4.000000,4.000000,4.000000,4.000000,4.000000,4.000000,4.000000,4.000000,4.000000,100.000000,,,,,,,,,,,,,,,,
1645711542.639769,190.000000,0.000000,4247.692383,4209.615234,4204.615234,4211.025879,4209.871582,4203.589844,4211.794922,4211.794922,4209.102539,4199.358887,4211.153809,4143.205078,4222.563965,4208.717773,2294.000000,4.000000,86.000000,,,,0.000000,4.000000,4.000000,4.000000,4.000000,4.000000,4.000000,4.000000,4.000000,4.000000,4.000000,4.000000,4.000000,4.000000,4.000000,100.000000,,,,,,,,,,,,,,,,
1645711542.643709,191.000000,0.000000,4238.589844,4215.512695,4209.487305,4218.205078,4214.871582,4209.102539,4217.820313,4217.820313,4216.410156,4205.128418,4220.769043,4150.769043,4228.205078,4217.692383,2684.000000,4.000000,86.000000,,,,0.000000,4.000000,4.000000,4.000000,4.000000,4.000000,4.000000,4.000000,4.000000,4.000000,4.000000,4.000000,4.000000,4.000000,4.000000,100.000000,,,,,,,,,,,,,,,,
1645711542.647649,192.000000,0.000000,4212.179688,4227.948730,4215.512695,4233.205078,4230.128418,4221.666504,4223.846191,4227.051270,4226.538574,4222.307617,4239.358887,4157.820313,4238.717773,4215.897461,3243.000000,4.000000,86.000000,,,,0.000000,4.000000,4.000000,4.000000,4.000000,4.000000,4.000000,4.000000,4.000000,4.000000,4.000000,4.000000,4.000000,4.000000,4.000000,100.000000,,,,,,,,,,,,,,,,
1645711542.651589,193.000000,0.000000,4204.102539,4230.769043,4216.538574,4237.051270,4234.230957,4225.000000,4222.436035,4230.128418,4229.358887,4228.717773,4246.282227,4156.922852,4243.077148,4209.230957,3040.000000,4.000000,86.000000,,,,0.000000,4.000000,4.000000,4.000000,4.000000,4.000000,4.000000,4.000000,4.000000,4.000000,4.000000,4.000000,4.000000,4.000000,4.000000,100.000000,,,,,,,,,,,,,,,,
1645711542.655530,194.000000,0.000000,4223.205078,4219.615234,4212.307617,4223.333496,4220.769043,4215.769043,4216.153809,4225.000000,4222.051270,4215.256348,4234.487305,4149.230957,4237.436035,4208.974121,2294.000000,4.000000,86.000000,,,,0.000000,4.000000,4.000000,4.000000,4.000000,4.000000,4.000000,4.000000,4.000000,4.000000,4.000000,4.000000,4.000000,4.000000,4.000000,100.000000,,,,,,,,,,,,,,,,
1645711542.659470,195.000000,0.000000,4241.153809,4207.948730,4208.589844,4206.282227,4208.205078,4207.948730,4214.871582,4220.000000,4213.461426,4198.589844,4219.358887,4143.717773,4228.717773,4215.384766,2684.000000,4.000000,86.000000,,,,0.000000,4.000000,4.000000,4.000000,4.000000,4.000000,4.000000,4.000000,4.000000,4.000000,4.000000,4.000000,4.000000,4.000000,4.000000,100.000000,,,,,,,,,,,,,,,,
1645711542.663410,196.000000,0.000000,4232.820313,4210.000000,4209.615234,4203.205078,4215.641113,4214.102539,4222.948730,4223.333496,4213.333496,4200.000000,4218.205078,4147.051270,4226.538574,4218.205078,3243.000000,4.000000,86.000000,,,,0.000000,4.000000,4.000000,4.000000,4.000000,4.000000,4.000000,4.000000,4.000000,4.000000,4.000000,4.000000,4.000000,4.000000,4.000000,100.000000,,,,,,,,,,,,,,,,
1645711542.667350,197.000000,0.000000,4210.769043,4222.948730,4213.589844,4213.333496,4236.666504,4227.948730,4232.563965,4232.820313,4221.410156,4218.846191,4229.358887,4155.512695,4231.410156,4212.051270,3040.000000,4.000000,86.000000,,,,0.000000,4.000000,4.000000,4.000000,4.000000,4.000000,4.000000,4.000000,4.000000,4.000000,4.000000,4.000000,4.000000,4.000000,4.000000,100.000000,,,,,,,,,,,,,,,,
1645711542.671290,198.000000,0.000000,4207.948730,4230.512695,4215.384766,4221.153809,4246.538574,4232.307617,4233.333496,4238.846191,4228.333496,4233.717773,4235.769043,4160.128418,4236.025879,4205.897461,2294.000000,4.000000,86.000000,,,,0.000000,4.000000,4.000000,4.000000,4.000000,4.000000,4.000000,4.000000,4.000000,4.000000,4.000000,4.000000,4.000000,4.000000,4.000000,100.000000,,,,,,,,,,,,,,,,
1645711542.675130,199.000000,0.000000,4232.051270,4224.358887,4213.717773,4217.307617,4233.974121,4221.153809,4224.871582,4237.307617,4227.820313,4229.743652,4228.589844,4157.051270,4234.743652,4211.282227,2684.000000,4.000000,86.000000,,,,0.000000,4.000000,4.000000,4.000000,4.000000,4.000000,4.000000,4.000000,4.000000,4.000000,4.000000,4.000000,4.000000,4.000000,4.000000,100.000000,,,,,,,,,,,,,,,,
1645711542.679070,200.000000,0.000000,4252.307617,4213.589844,4212.051270,4209.871582,4214.615234,4208.205078,4216.666504,4234.102539,4224.102539,4215.384766,4219.102539,4151.153809,4230.384766,4225.128418,3243.000000,4.000000,86.000000,,,,0.000000,4.000000,4.000000,4.000000,4.000000,4.000000,4.000000,4.000000,4.000000,4.000000,4.000000,4.000000,4.000000,4.000000,4.000000,100.000000,,,,,,,,,,,,,,,,
1645711542.683010,201.000000,0.000000,4240.256348,4211.666504,4213.077148,4211.025879,4210.512695,4207.820313,4215.897461,4236.282227,4223.974121,4208.077148,4221.410156,4148.589844,4228.589844,4230.897461,3040.000000,4.000000,86.000000,,,,0.000000,4.000000,4.000000,4.000000,4.000000,4.000000,4.000000,4.000000,4.000000,4.000000,4.000000,4.000000,4.000000,4.000000,4.000000,100.000000,,,,,,,,,,,,,,,,
1645711542.686950,202.000000,0.000000,4208.077148,4218.461426,4214.871582,4219.487305,4221.666504,4217.307617,4218.974121,4241.153809,4227.307617,4210.769043,4233.333496,4150.000000,4229.743652,4219.487305,2294.000000,4.000000,86.000000,,,,0.000000,4.000000,4.000000,4.000000,4.000000,4.000000,4.000000,4.000000,4.000000,4.000000,4.000000,4.000000,4.000000,4.000000,4.000000,100.000000,,,,,,,,,,,,,,,,
1645711542.690891,203.000000,0.000000,4193.717773,4221.538574,4214.102539,4222.820313,4228.846191,4220.769043,4218.333496,4240.641113,4227.820313,4210.769043,4238.333496,4151.282227,4228.974121,4201.922852,2684.000000,4.000000,86.000000,,,,0.000000,4.000000,4.000000,4.000000,4.000000,4.000000,4.000000,4.000000,4.000000,4.000000,4.000000,4.000000,4.000000,4.000000,4.000000,100.000000,,,,,,,,,,,,,,,,
1645711542.694831,204.000000,0.000000,4213.077148,4214.615234,4211.538574,4216.025879,4220.769043,4212.179688,4213.717773,4233.333496,4222.692383,4201.666504,4229.358887,4151.025879,4224.230957,4197.692383,3243.000000,4.000000,86.000000,,,,0.000000,4.000000,4.000000,4.000000,4.000000,4.000000,4.000000,4.000000,4.000000,4.000000,4.000000,4.000000,4.000000,4.000000,4.000000,100.000000,,,,,,,,,,,,,,,,
1645711542.698771,205.000000,0.000000,4240.000000,4206.538574,4211.922852,4209.358887,4209.743652,4202.820313,4212.692383,4227.820313,4218.205078,4195.897461,4219.487305,4152.820313,4221.025879,4211.282227,3040.000000,4.000000,86.000000,,,,0.000000,4.000000,4.000000,4.000000,4.000000,4.000000,4.000000,4.000000,4.000000,4.000000,4.000000,4.000000,4.000000,4.000000,4.000000,100.000000,,,,,,,,,,,,,,,,
1645711542.702711,206.000000,0.000000,4242.436035,4209.743652,4217.051270,4213.846191,4213.461426,4205.641113,4218.717773,4232.307617,4221.410156,4208.205078,4225.256348,4159.487305,4225.512695,4227.692383,2294.000000,4.000000,86.000000,,,,0.000000,4.000000,4.000000,4.000000,4.000000,4.000000,4.000000,4.000000,4.000000,4.000000,4.000000,4.000000,4.000000,4.000000,4.000000,100.000000,,,,,,,,,,,,,,,,
1645711542.706651,207.000000,0.000000,4223.846191,4222.179688,4222.436035,4224.358887,4229.358887,4217.307617,4225.256348,4242.692383,4230.769043,4232.692383,4243.333496,4167.179688,4235.128418,4230.769043,2684.000000,4.000000,86.000000,,,,0.000000,4.000000,4.000000,4.000000,4.000000,4.000000,4.000000,4.000000,4.000000,4.000000,4.000000,4.000000,4.000000,4.000000,4.000000,100.000000,,,,,,,,,,,,,,,,
1645711542.710591,208.000000,0.000000,4215.000000,4229.230957,4222.307617,4225.256348,4237.948730,4222.051270,4223.589844,4246.922852,4236.153809,4245.512695,4253.333496,4169.871582,4240.769043,4222.692383,3243.000000,4.000000,86.000000,,,,0.000000,4.000000,4.000000,4.000000,4.000000,4.000000,4.000000,4.000000,4.000000,4.000000,4.000000,4.000000,4.000000,4.000000,4.000000,100.000000,,,,,,,,,,,,,,,,
1645711542.714531,209.000000,0.000000,4229.743652,4223.205078,4216.538574,4211.922852,4228.717773,4213.333496,4214.230957,4239.615234,4231.282227,4233.589844,4243.717773,4166.282227,4237.692383,4218.461426,3040.000000,4.000000,86.000000,,,,0.000000,4.000000,4.000000,4.000000,4.000000,4.000000,4.000000,4.000000,4.000000,4.000000,4.000000,4.000000,4.000000,4.000000,4.000000,100.000000,,,,,,,,,,,,,,,,
1645711542.718471,210.000000,0.000000,4245.384766,4213.589844,4211.794922,4198.333496,4215.512695,4203.205078,4208.077148,4228.333496,4221.922852,4211.282227,4227.436035,4162.179688,4231.538574,4225.384766,2294.000000,4.000000,86.000000,,,,0.000000,4.000000,4.000000,4.000000,4.000000,4.000000,4.000000,4.000000,4.000000,4.000000,4.000000,4.000000,4.000000,4.000000,4.000000,100.000000,,,,,,,,,,,,,,,,
1645711542.722411,211.000000,0.000000,4235.256348,4215.512695,4213.461426,4201.922852,4218.461426,4206.666504,4212.692383,4224.615234,4218.077148,4204.102539,4225.769043,4163.205078,4231.538574,4234.230957,2684.000000,4.000000,86.000000,,,,0.000000,4.000000,4.000000,4.000000,4.000000,4.000000,4.000000,4.000000,4.000000,4.000000,4.000000,4.000000,4.000000,4.000000,4.000000,100.000000,,,,,,,,,,,,,,,,
1645711542.726352,212.000000,0.000000,4207.563965,4229.358887,4219.102539,4220.256348,4236.153809,4221.153809,4223.205078,4230.256348,4222.692383,4217.820313,4241.282227,4167.436035,4238.717773,4232.692383,3243.000000,4.000000,86.000000,,,,0.000000,4.000000,4.000000,4.000000,4.000000,4.000000,4.000000,4.000000,4.000000,4.000000,4.000000,4.000000,4.000000,4.000000,4.000000,100.000000,,,,,,,,,,,,,,,,
1645711542.730292,213.000000,0.000000,4197.179688,4240.128418,4221.538574,4234.102539,4246.922852,4229.487305,4228.333496,4235.512695,4228.205078,4233.589844,4254.615234,4168.205078,4244.743652,4221.666504,3040.000000,4.000000,86.000000,,,,0.000000,4.000000,4.000000,4.000000,4.000000,4.000000,4.000000,4.000000,4.000000,4.000000,4.000000,4.000000,4.000000,4.000000,4.000000,100.000000,,,,,,,,,,,,,,,,
1645711542.734232,214.000000,0.000000,4218.974121,4235.256348,4217.307617,4229.487305,4236.410156,4222.051270,4224.230957,4233.077148,4227.179688,4232.820313,4249.230957,4162.307617,4241.538574,4213.461426,2294.000000,4.000000,86.000000,,,,0.000000,4.000000,4.000000,4.000000,4.000000,4.000000,4.000000,4.000000,4.000000,4.000000,4.000000,4.000000,4.000000,4.000000,4.000000,100.000000,,,,,,,,,,,,,,,,
1645711542.738172,215.000000,0.000000,4245.512695,4220.128418,4209.871582,4213.846191,4216.410156,4209.487305,4218.333496,4225.641113,4221.025879,4219.102539,4231.282227,4153.333496,4231.025879,4213.846191,2684.000000,4.000000,86.000000,,,,0.000000,4.000000,4.000000,4.000000,4.000000,4.000000,4.000000,4.000000,4.000000,4.000000,4.000000,4.000000,4.000000,4.000000,4.000000,100.000000,,,,,,,,,,,,,,,,
1645711542.742112,216.000000,0.000000,4241.666504,4209.743652,4203.974121,4204.230957,4210.000000,4208.589844,4218.333496,4222.051270,4217.179688,4210.897461,4219.487305,4146.794922,4221.153809,4214.871582,3243.000000,4.000000,86.000000,,,,0.000000,4.000000,4.000000,4.000000,4.000000,4.000000,4.000000,4.000000,4.000000,4.000000,4.000000,4.000000,4.000000,4.000000,4.000000,100.000000,,,,,,,,,,,,,,,,
1645711542.746152,217.000000,0.000000,4210.384766,4209.743652,4200.128418,4206.025879,4221.025879,4219.615234,4222.179688,4224.487305,4218.846191,4214.615234,4221.282227,4143.205078,4216.922852,4208.205078,3040.000000,4.000000,86.000000,,,,0.000000,4.000000,4.000000,4.000000,4.000000,4.000000,4.000000,4.000000,4.000000,4.000000,4.000000,4.000000,4.000000,4.000000,4.000000,100.000000,,,,,,,,,,,,,,,,
1645711542.750092,218.000000,0.000000,4189.487305,4212.051270,4195.769043,4208.974121,4231.153809,4227.692383,4222.436035,4226.153809,4221.153809,4218.205078,4225.128418,4140.000000,4216.410156,4198.461426,2294.000000,4.000000,86.000000,,,,0.000000,4.000000,4.000000,4.000000,4.000000,4.000000,4.000000,4.000000,4.000000,4.000000,4.000000,4.000000,4.000000,4.000000,4.000000,100.000000,,,,,,,,,,,,,,,,
1645711542.754032,219.000000,0.000000,4203.205078,4209.615234,4191.410156,4204.487305,4224.871582,4222.563965,4217.948730,4221.538574,4219.358887,4210.641113,4220.512695,4136.282227,4216.922852,4199.358887,2684.000000,4.000000,86.000000,,,,0.000000,4.000000,4.000000,4.000000,4.000000,4.000000,4.000000,4.000000,4.000000,4.000000,4.000000,4.000000,4.000000,4.000000,4.000000,100.000000,,,,,,,,,,,,,,,,
1645711542.757972,220.000000,0.000000,4231.666504,4206.538574,4191.153809,4198.974121,4211.410156,4213.077148,4216.025879,4215.128418,4215.512695,4199.743652,4213.717773,4135.897461,4220.512695,4213.717773,3243.000000,4.000000,86.000000,,,,0.000000,4.000000,4.000000,4.000000,4.000000,4.000000,4.000000,4.000000,4.000000,4.000000,4.000000,4.000000,4.000000,4.000000,4.000000,100.000000,,,,,,,,,,,,,,,,
1645711542.761912,221.000000,0.000000,4238.077148,4211.410156,4197.179688,4203.589844,4211.025879,4214.230957,4221.666504,4215.128418,4215.897461,4202.948730,4219.102539,4140.897461,4230.128418,4227.692383,3040.000000,4.000000,86.000000,,,,0.000000,4.000000,4.000000,4.000000,4.000000,4.000000,4.000000,4.000000,4.000000,4.000000,4.000000,4.000000,4.000000,4.000000,4.000000,100.000000,,,,,,,,,,,,,,,,
1645711542.765853,222.000000,0.000000,4216.922852,4221.538574,4204.871582,4215.897461,4227.179688,4226.153809,4229.230957,4222.051270,4221.538574,4221.538574,4236.025879,4147.051270,4241.794922,4226.153809,2294.000000,4.000000,86.000000,,,,0.000000,4.000000,4.000000,4.000000,4.000000,4.000000,4.000000,4.000000,4.000000,4.000000,4.000000,4.000000,4.000000,4.000000,4.000000,100.000000,,,,,,,,,,,,,,,,
1645711542.769793,223.000000,0.000000,4199.102539,4223.846191,4206.538574,4220.512695,4240.000000,4233.205078,4228.846191,4226.666504,4225.769043,4235.512695,4246.922852,4147.820313,4246.666504,4212.051270,2684.000000,4.000000,86.000000,,,,0.000000,4.000000,4.000000,4.000000,4.000000,4.000000,4.000000,4.000000,4.000000,4.000000,4.000000,4.000000,4.000000,4.000000,4.000000,100.000000,,,,,,,,,,,,,,,,
1645711542.773733,224.000000,0.000000,4209.230957,4211.666504,4200.641113,4208.589844,4232.307617,4225.384766,4219.102539,4221.410156,4222.820313,4227.692383,4238.589844,4142.307617,4239.871582,4203.205078,3243.000000,4.000000,86.000000,,,,0.000000,4.000000,4.000000,4.000000,4.000000,4.000000,4.000000,4.000000,4.000000,4.000000,4.000000,4.000000,4.000000,4.000000,4.000000,100.000000,,,,,,,,,,,,,,,,
1645711542.777673,225.000000,0.000000,4232.307617,4196.410156,4193.974121,4191.666504,4213.333496,4212.307617,4210.128418,4210.641113,4215.384766,4207.179688,4220.769043,4137.820313,4228.589844,4209.615234,3040.000000,4.000000,86.000000,,,,0.000000,4.000000,4.000000,4.000000,4.000000,4.000000,4.000000,4.000000,4.000000,4.000000,4.000000,4.000000,4.000000,4.000000,4.000000,100.000000,,,,,,,,,,,,,,,,
1645711542.781613,226.000000,0.000000,4235.384766,4195.897461,4194.358887,4189.487305,4207.051270,4211.666504,4211.922852,4205.897461,4211.922852,4198.717773,4215.256348,4141.538574,4224.871582,4222.820313,2294.000000,4.000000,86.000000,,,,0.000000,4.000000,4.000000,4.000000,4.000000,4.000000,4.000000,4.000000,4.000000,4.000000,4.000000,4.000000,4.000000,4.000000,4.000000,100.000000,,,,,,,,,,,,,,,,
1645711542.785553,227.000000,0.000000,4213.717773,4212.692383,4202.307617,4205.897461,4222.307617,4225.897461,4222.051270,4211.922852,4216.153809,4212.563965,4229.102539,4152.051270,4233.205078,4227.179688,2684.000000,4.000000,86.000000,,,,0.000000,4.000000,4.000000,4.000000,4.000000,4.000000,4.000000,4.000000,4.000000,4.000000,4.000000,4.000000,4.000000,4.000000,4.000000,100.000000,,,,,,,,,,,,,,,,
1645711542.789493,228.000000,0.000000,4197.563965,4229.871582,4211.153809,4223.717773,4240.641113,4238.974121,4229.230957,4221.794922,4222.563965,4232.051270,4246.282227,4160.512695,4245.256348,4220.641113,3243.000000,4.000000,86.000000,,,,0.000000,4.000000,4.000000,4.000000,4.000000,4.000000,4.000000,4.000000,4.000000,4.000000,4.000000,4.000000,4.000000,4.000000,4.000000,100.000000,,,,,,,,,,,,,,,,
1645711542.793433,229.000000,0.000000,4211.153809,4230.897461,4215.000000,4225.641113,4240.897461,4236.153809,4226.794922,4225.512695,4223.846191,4235.128418,4248.974121,4160.641113,4250.512695,4215.000000,3040.000000,4.000000,86.000000,,,,0.000000,4.000000,4.000000,4.000000,4.000000,4.000000,4.000000,4.000000,4.000000,4.000000,4.000000,4.000000,4.000000,4.000000,4.000000,100.000000,,,,,,,,,,,,,,,,
1645711542.797373,230.000000,0.000000,4239.358887,4217.692383,4214.743652,4213.846191,4225.384766,4223.205078,4220.641113,4222.948730,4220.512695,4222.563965,4239.615234,4155.897461,4246.794922,4218.461426,2294.000000,4.000000,86.000000,,,,0.000000,4.000000,4.000000,4.000000,4.000000,4.000000,4.000000,4.000000,4.000000,4.000000,4.000000,4.000000,4.000000,4.000000,4.000000,100.000000,,,,,,,,,,,,,,,,
1645711542.801313,231.000000,0.000000,4247.179688,4207.179688,4214.615234,4205.128418,4215.256348,4217.179688,4219.102539,4221.794922,4219.230957,4214.358887,4235.641113,4154.230957,4240.897461,4224.487305,2684.000000,4.000000,86.000000,,,,0.000000,4.000000,4.000000,4.000000,4.000000,4.000000,4.000000,4.000000,4.000000,4.000000,4.000000,4.000000,4.000000,4.000000,4.000000,100.000000,,,,,,,,,,,,,,,,
1645711542.805254,232.000000,0.000000,4227.051270,4208.717773,4216.153809,4207.820313,4222.051270,4224.871582,4222.820313,4226.410156,4223.717773,4222.179688,4244.743652,4158.333496,4238.717773,4221.538574,3243.000000,4.000000,86.000000,,,,0.000000,4.000000,4.000000,4.000000,4.000000,4.000000,4.000000,4.000000,4.000000,4.000000,4.000000,4.000000,4.000000,4.000000,4.000000,100.000000,,,,,,,,,,,,,,,,
1645711542.809194,233.000000,0.000000,4209.102539,4214.615234,4216.153809,4212.820313,4233.333496,4233.461426,4225.000000,4231.538574,4228.846191,4234.230957,4254.871582,4164.358887,4238.717773,4210.897461,3040.000000,4.000000,86.000000,,,,0.000000,4.000000,4.000000,4.000000,4.000000,4.000000,4.000000,4.000000,4.000000,4.000000,4.000000,4.000000,4.000000,4.000000,4.000000,100.000000,,,,,,,,,,,,,,,,
1645711542.813134,234.000000,0.000000,4220.128418,4212.692383,4213.205078,4208.589844,4230.641113,4229.358887,4221.538574,4230.256348,4228.077148,4232.948730,4251.410156,4167.179688,4237.307617,4206.153809,2294.000000,4.000000,86.000000,,,,0.000000,4.000000,4.000000,4.000000,4.000000,4.000000,4.000000,4.000000,4.000000,4.000000,4.000000,4.000000,4.000000,4.000000,4.000000,100.000000,,,,,,,,,,,,,,,,
1645711542.817074,235.000000,0.000000,4246.922852,4204.230957,4210.769043,4198.333496,4216.282227,4216.666504,4217.436035,4223.717773,4222.436035,4219.487305,4238.333496,4167.563965,4235.384766,4215.512695,2684.000000,4.000000,86.000000,,,,0.000000,4.000000,4.000000,4.000000,4.000000,4.000000,4.000000,4.000000,4.000000,4.000000,4.000000,4.000000,4.000000,4.000000,4.000000,100.000000,,,,,,,,,,,,,,,,
1645711542.821114,236.000000,0.000000,4253.077148,4202.179688,4213.589844,4196.538574,4209.487305,4211.410156,4218.974121,4219.743652,4219.230957,4212.820313,4233.333496,4169.358887,4237.563965,4230.000000,3243.000000,4.000000,86.000000,,,,0.000000,4.000000,4.000000,4.000000,4.000000,4.000000,4.000000,4.000000,4.000000,4.000000,4.000000,4.000000,4.000000,4.000000,4.000000,100.000000,1.000000,0.000000,0.000000,0.000000,1.000000,0.000000,0.000000,0.000000,1.000000,1.000000,1.000000,0.000000,0.000000,1.000000,1.000000,0.000000
1645711542.825054,237.000000,0.000000,4228.333496,4212.051270,4220.897461,4207.563965,4219.743652,4219.743652,4224.230957,4221.922852,4221.794922,4222.563965,4243.077148,4172.563965,4243.974121,4234.102539,3040.000000,4.000000,86.000000,,,,0.000000,4.000000,4.000000,4.000000,4.000000,4.000000,4.000000,4.000000,4.000000,4.000000,4.000000,4.000000,4.000000,4.000000,4.000000,100.000000,,,,,,,,,,,,,,,,
1645711542.828994,238.000000,0.000000,4203.205078,4223.589844,4227.051270,4218.717773,4233.077148,4229.102539,4225.000000,4224.487305,4224.615234,4235.256348,4253.461426,4172.948730,4247.820313,4225.769043,2294.000000,4.000000,86.000000,,,,0.000000,4.000000,4.000000,4.000000,4.000000,4.000000,4.000000,4.000000,4.000000,4.000000,4.000000,4.000000,4.000000,4.000000,4.000000,100.000000,,,,,,,,,,,,,,,,
1645711542.832934,239.000000,0.000000,4210.000000,4223.205078,4227.307617,4216.282227,4230.769043,4225.256348,4217.563965,4220.256348,4220.897461,4232.051270,4247.692383,4168.333496,4243.205078,4218.589844,2684.000000,4.000000,86.000000,,,,0.000000,4.000000,4.000000,4.000000,4.000000,4.000000,4.000000,4.000000,4.000000,4.000000,4.000000,4.000000,4.000000,4.000000,4.000000,100.000000,,,,,,,,,,,,,,,,
1645711542.836874,240.000000,0.000000,4240.512695,4212.051270,4223.717773,4204.102539,4214.871582,4211.922852,4209.102539,4211.282227,4212.692383,4214.230957,4229.871582,4163.333496,4233.717773,4223.717773,3243.000000,4.000000,86.000000,,,,0.000000,4.000000,4.000000,4.000000,4.000000,4.000000,4.000000,4.000000,4.000000,4.000000,4.000000,4.000000,4.000000,4.000000,4.000000,100.000000,,,,,,,,,,,,,,,,
1645711542.840814,241.000000,0.000000,4256.922852,4204.743652,4221.410156,4199.358887,4205.641113,4205.512695,4208.333496,4207.179688,4208.846191,4202.948730,4220.512695,4163.717773,4229.230957,4235.128418,3040.000000,4.000000,86.000000,,,,0.000000,4.000000,4.000000,4.000000,4.000000,4.000000,4.000000,4.000000,4.000000,4.000000,4.000000,4.000000,4.000000,4.000000,4.000000,100.000000,,,,,,,,,,,,,,,,
1645711542.844755,242.000000,0.000000,4241.538574,4209.358887,4222.051270,4209.871582,4213.846191,4213.205078,4214.358887,4212.563965,4213.589844,4211.282227,4230.384766,4168.717773,4233.846191,4237.563965,2294.000000,4.000000,86.000000,,,,0.000000,4.000000,4.000000,4.000000,4.000000,4.000000,4.000000,4.000000,4.000000,4.000000,4.000000,4.000000,4.000000,4.000000,4.000000,100.000000,,,,,,,,,,,,,,,,
1645711542.848695,243.000000,0.000000,4217.820313,4217.948730,4221.794922,4223.205078,4225.384766,4223.077148,4217.692383,4220.512695,4220.641113,4226.922852,4245.897461,4170.256348,4240.897461,4227.436035,2684.000000,4.000000,86.000000,,,,0.000000,4.000000,4.000000,4.000000,4.000000,4.000000,4.000000,4.000000,4.000000,4.000000,4.000000,4.000000,4.000000,4.000000,4.000000,100.000000,,,,,,,,,,,,,,,,
1645711542.852635,244.000000,0.000000,4217.692383,4216.922852,4217.051270,4221.666504,4220.256348,4219.871582,4212.563965,4221.538574,4220.641113,4228.333496,4247.179688,4163.333496,4240.769043,4217.051270,3243.000000,4.000000,86.000000,,,,0.000000,4.000000,4.000000,4.000000,4.000000,4.000000,4.000000,4.000000,4.000000,4.000000,4.000000,4.000000,4.000000,4.000000,4.000000,100.000000,,,,,,,,,,,,,,,,
1645711542.856575,245.000000,0.000000,4237.563965,4206.282227,4210.769043,4205.641113,4201.410156,4205.769043,4205.512695,4216.025879,4213.589844,4212.820313,4233.077148,4152.563965,4233.974121,4218.205078,3040.000000,4.000000,86.000000,,,,0.000000,4.000000,4.000000,4.000000,4.000000,4.000000,4.000000,4.000000,4.000000,4.000000,4.000000,4.000000,4.000000,4.000000,4.000000,100.000000,,,,,,,,,,,,,,,,
1645711542.860515,246.000000,0.000000,4245.512695,4199.615234,4208.589844,4193.205078,4191.922852,4198.589844,4206.922852,4213.333496,4208.717773,4200.256348,4221.922852,4147.436035,4229.743652,4226.410156,2294.000000,4.000000,86.000000,,,,0.000000,4.000000,4.000000,4.000000,4.000000,4.000000,4.000000,4.000000,4.000000,4.000000,4.000000,4.000000,4.000000,4.000000,4.000000,100.000000,,,,,,,,,,,,,,,,
1645711542.864455,247.000000,0.000000,4225.897461,4206.410156,4212.307617,4197.051270,4205.897461,4207.948730,4217.436035,4219.102539,4212.948730,4206.538574,4226.922852,4151.922852,4234.615234,4226.922852,2684.000000,4.000000,86.000000,,,,0.000000,4.000000,4.000000,4.000000,4.000000,4.000000,4.000000,4.000000,4.000000,4.000000,4.000000,4.000000,4.000000,4.000000,4.000000,100.000000,,,,,,,,,,,,,,,,
1645711542.868395,248.000000,0.000000,4203.589844,4219.230957,4216.666504,4209.871582,4227.948730,4222.436035,4226.538574,4226.794922,4221.282227,4223.461426,4239.358887,4159.615234,4242.692383,4215.641113,3243.000000,4.000000,86.000000,,,,0.000000,4.000000,4.000000,4.000000,4.000000,4.000000,4.000000,4.000000,4.000000,4.000000,4.000000,4.000000,4.000000,4.000000,4.000000,100.000000,,,,,,,,,,,,,,,,
1645711542.872335,249.000000,0.000000,4210.384766,4223.333496,4216.282227,4214.487305,4232.179688,4224.358887,4225.128418,4225.897461,4223.461426,4229.743652,4241.666504,4162.436035,4244.102539,4205.641113,3040.000000,4.000000,86.000000,,,,0.000000,4.000000,4.000000,4.000000,4.000000,4.000000,4.000000,4.000000,4.000000,4.000000,4.000000,4.000000,4.000000,4.000000,4.000000,100.000000,,,,,,,,,,,,,,,,
1645711542.876275,250.000000,0.000000,4241.538574,4215.769043,4212.820313,4207.307617,4215.512695,4212.820313,4216.794922,4215.897461,4217.436035,4219.743652,4231.666504,4159.871582,4237.307617,4211.025879,2294.000000,4.000000,86.000000,,,,0.000000,4.000000,4.000000,4.000000,4.000000,4.000000,4.000000,4.000000,4.000000,4.000000,4.000000,4.000000,4.000000,4.000000,4.000000,100.000000,,,,,,,,,,,,,,,,
1645711542.880215,251.000000,0.000000,4259.615234,4208.717773,4212.307617,4201.282227,4201.025879,4205.000000,4212.563965,4207.948730,4212.179688,4209.871582,4225.384766,4158.077148,4231.410156,4227.051270,2684.000000,4.000000,86.000000,,,,0.000000,4.000000,4.000000,4.000000,4.000000,4.000000,4.000000,4.000000,4.000000,4.000000,4.000000,4.000000,4.000000,4.000000,4.000000,100.000000,,,,,,,,,,,,,,,,
1645711542.884156,252.000000,0.000000,4242.563965,4212.179688,4217.179688,4207.051270,4207.563965,4212.436035,4216.153809,4210.512695,4215.256348,4215.641113,4233.974121,4160.384766,4234.102539,4236.282227,3243.000000,4.000000,86.000000,,,,0.000000,4.000000,4.000000,4.000000,4.000000,4.000000,4.000000,4.000000,4.000000,4.000000,4.000000,4.000000,4.000000,4.000000,4.000000,100.000000,,,,,,,,,,,,,,,,
1645711542.888096,253.000000,0.000000,4211.666504,4220.256348,4222.307617,4217.820313,4225.384766,4225.769043,4220.512695,4218.717773,4223.461426,4230.000000,4246.666504,4163.077148,4241.538574,4229.102539,3040.000000,4.000000,86.000000,,,,0.000000,4.000000,4.000000,4.000000,4.000000,4.000000,4.000000,4.000000,4.000000,4.000000,4.000000,4.000000,4.000000,4.000000,4.000000,100.000000,,,,,,,,,,,,,,,,
1645711542.892136,254.000000,0.000000,4203.974121,4219.487305,4221.410156,4218.205078,4230.256348,4227.051270,4217.563965,4220.769043,4226.282227,4232.948730,4244.615234,4160.384766,4243.333496,4215.384766,2294.000000,4.000000,86.000000,,,,0.000000,4.000000,4.000000,4.000000,4.000000,4.000000,4.000000,4.000000,4.000000,4.000000,4.000000,4.000000,4.000000,4.000000,4.000000,100.000000,,,,,,,,,,,,,,,,
1645711542.896076,255.000000,0.000000,4223.846191,4207.820313,4215.000000,4205.897461,4215.512695,4214.487305,4210.256348,4213.077148,4220.512695,4219.615234,4225.897461,4153.333496,4236.153809,4210.512695,113.000000,4.000000,86.000000,,,,0.000000,4.000000,4.000000,4.000000,4.000000,4.000000,4.000000,4.000000,4.000000,4.000000,4.000000,4.000000,4.000000,4.000000,4.000000,100.000000,,,,,,,,,,,,,,,,
1645711542.900016,0.000000,0.000000,4240.000000,4198.205078,4209.230957,4195.128418,4200.897461,4204.743652,4208.205078,4204.615234,4213.589844,4207.179688,4210.384766,4147.948730,4227.307617,4215.512695,3309.000000,4.000000,86.000000,,,,0.000000,4.000000,4.000000,4.000000,4.000000,4.000000,4.000000,4.000000,4.000000,4.000000,4.000000,4.000000,4.000000,4.000000,4.000000,100.000000,,,,,,,,,,,,,,,,
1645711542.903956,1.000000,0.000000,4228.717773,4201.282227,4208.589844,4197.692383,4205.512695,4210.897461,4214.358887,4204.615234,4214.102539,4211.538574,4214.358887,4148.333496,4225.641113,4217.563965,3353.000000,4.000000,86.000000,,,,0.000000,4.000000,4.000000,4.000000,4.000000,4.000000,4.000000,4.000000,4.000000,4.000000,4.000000,4.000000,4.000000,4.000000,4.000000,100.000000,,,,,,,,,,,,,,,,
1645711542.907896,2.000000,0.000000,4206.025879,4210.897461,4209.871582,4206.794922,4222.307617,4224.743652,4220.384766,4211.025879,4220.256348,4225.256348,4230.000000,4150.897461,4229.615234,4209.230957,2259.000000,4.000000,86.000000,,,,0.000000,4.000000,4.000000,4.000000,4.000000,4.000000,4.000000,4.000000,4.000000,4.000000,4.000000,4.000000,4.000000,4.000000,4.000000,100.000000,,,,,,,,,,,,,,,,
1645711542.911836,3.000000,0.000000,4204.230957,4212.948730,4208.333496,4206.538574,4228.077148,4228.077148,4217.436035,4213.205078,4223.205078,4226.666504,4235.641113,4150.128418,4230.256348,4199.102539,3492.000000,4.000000,86.000000,,,,0.000000,4.000000,4.000000,4.000000,4.000000,4.000000,4.000000,4.000000,4.000000,4.000000,4.000000,4.000000,4.000000,4.000000,4.000000,100.000000,,,,,,,,,,,,,,,,
1645711542.915776,4.000000,0.000000,4226.794922,4204.358887,4204.102539,4194.230957,4214.358887,4216.922852,4207.820313,4207.307617,4217.692383,4208.846191,4223.846191,4146.153809,4223.589844,4200.512695,3509.000000,4.000000,86.000000,,,,0.000000,4.000000,4.000000,4.000000,4.000000,4.000000,4.000000,4.000000,4.000000,4.000000,4.000000,4.000000,4.000000,4.000000,4.000000,100.000000,,,,,,,,,,,,,,,,
1645711542.919716,5.000000,0.000000,4242.179688,4197.563965,4202.563965,4184.102539,4198.717773,4205.769043,4202.436035,4200.256348,4209.487305,4190.256348,4209.358887,4144.102539,4215.256348,4212.307617,3325.000000,4.000000,86.000000,,,,0.000000,4.000000,4.000000,4.000000,4.000000,4.000000,4.000000,4.000000,4.000000,4.000000,4.000000,4.000000,4.000000,4.000000,4.000000,100.000000,,,,,,,,,,,,,,,,
1645711542.923657,6.000000,0.000000,4227.307617,4203.205078,4206.410156,4189.102539,4200.256348,4207.692383,4206.922852,4200.384766,4207.051270,4190.897461,4208.846191,4146.922852,4213.077148,4219.743652,3402.000000,4.000000,86.000000,,,,0.000000,4.000000,4.000000,4.000000,4.000000,4.000000,4.000000,4.000000,4.000000,4.000000,4.000000,4.000000,4.000000,4.000000,4.000000,100.000000,,,,,,,,,,,,,,,,
1645711542.927597,7.000000,0.000000,4199.230957,4214.743652,4211.794922,4202.820313,4215.000000,4217.051270,4214.487305,4206.025879,4210.641113,4206.666504,4219.230957,4150.641113,4217.307617,4213.589844,2510.000000,4.000000,86.000000,,,,0.000000,4.000000,4.000000,4.000000,4.000000,4.000000,4.000000,4.000000,4.000000,4.000000,4.000000,4.000000,4.000000,4.000000,4.000000,100.000000,,,,,,,,,,,,,,,,
1645711542.931537,8.000000,0.000000,4194.743652,4216.153809,4213.205078,4207.692383,4221.538574,4218.205078,4215.000000,4208.077148,4213.461426,4214.230957,4223.589844,4150.000000,4220.769043,4201.410156,1646.000000,4.000000,86.000000,,,,0.000000,4.000000,4.000000,4.000000,4.000000,4.000000,4.000000,4.000000,4.000000,4.000000,4.000000,4.000000,4.000000,4.000000,4.000000,100.000000,,,,,,,,,,,,,,,,
1645711542.935477,9.000000,0.000000,4220.512695,4203.717773,4210.769043,4198.846191,4210.769043,4207.820313,4208.333496,4202.948730,4211.410156,4202.820313,4215.128418,4146.153809,4219.358887,4198.333496,3088.000000,4.000000,86.000000,,,,0.000000,4.000000,4.000000,4.000000,4.000000,4.000000,4.000000,4.000000,4.000000,4.000000,4.000000,4.000000,4.000000,4.000000,4.000000,100.000000,,,,,,,,,,,,,,,,
1645711542.939417,10.000000,0.000000,4244.230957,4191.025879,4209.487305,4189.871582,4197.692383,4200.000000,4203.717773,4197.692383,4209.230957,4188.461426,4207.179688,4145.769043,4216.153809,4206.794922,2294.000000,4.000000,86.000000,,,,0.000000,4.000000,4.000000,4.000000,4.000000,4.000000,4.000000,4.000000,4.000000,4.000000,4.000000,4.000000,4.000000,4.000000,4.000000,100.000000,,,,,,,,,,,,,,,,
1645711542.943357,11.000000,0.000000,4236.666504,4192.820313,4212.307617,4194.743652,4200.000000,4206.922852,4207.051270,4200.512695,4213.077148,4192.948730,4214.230957,4152.307617,4217.179688,4215.256348,2794.000000,4.000000,86.000000,,,,0.000000,4.000000,4.000000,4.000000,4.000000,4.000000,4.000000,4.000000,4.000000,4.000000,4.000000,4.000000,4.000000,4.000000,4.000000,100.000000,,,,,,,,,,,,,,,,
1645711542.947297,12.000000,0.000000,4210.384766,4205.897461,4216.282227,4209.102539,4214.615234,4221.538574,4213.846191,4209.487305,4221.410156,4215.128418,4231.410156,4161.538574,4222.563965,4214.871582,3234.000000,4.000000,86.000000,,,,0.000000,4.000000,4.000000,4.000000,4.000000,4.000000,4.000000,4.000000,4.000000,4.000000,4.000000,4.000000,4.000000,4.000000,4.000000,100.000000,,,,,,,,,,,,,,,,
1645711542.951237,13.000000,0.000000,4201.666504,4213.846191,4216.794922,4216.153809,4221.538574,4226.282227,4215.897461,4214.871582,4226.282227,4232.436035,4240.384766,4166.538574,4227.307617,4211.153809,3160.000000,4.000000,86.000000,,,,0.000000,4.000000,4.000000,4.000000,4.000000,4.000000,4.000000,4.000000,4.000000,4.000000,4.000000,4.000000,4.000000,4.000000,4.000000,100.000000,,,,,,,,,,,,,,,,
1645711542.955177,14.000000,0.000000,4221.794922,4208.589844,4214.230957,4208.717773,4211.922852,4216.410156,4212.307617,4211.794922,4223.205078,4229.358887,4233.461426,4166.282227,4228.205078,4215.000000,2294.000000,4.000000,86.000000,,,,0.000000,4.000000,4.000000,4.000000,4.000000,4.000000,4.000000,4.000000,4.000000,4.000000,4.000000,4.000000,4.000000,4.000000,4.000000,100.000000,,,,,,,,,,,,,,,,
1645711542.959117,15.000000,0.000000,4242.179688,4200.128418,4213.717773,4198.717773,4200.384766,4205.897461,4210.000000,4206.025879,4216.538574,4216.538574,4223.717773,4165.512695,4228.461426,4225.641113,2794.000000,4.000000,86.000000,,,,0.000000,4.000000,4.000000,4.000000,4.000000,4.000000,4.000000,4.000000,4.000000,4.000000,4.000000,4.000000,4.000000,4.000000,4.000000,100.000000,,,,,,,,,,,,,,,,
1645711542.963157,16.000000,0.000000,4234.102539,4202.436035,4217.820313,4201.282227,4204.743652,4208.333496,4213.077148,4206.153809,4213.974121,4213.974121,4227.563965,4167.948730,4231.666504,4230.897461,3234.000000,4.000000,86.000000,,,,0.000000,4.000000,4.000000,4.000000,4.000000,4.000000,4.000000,4.000000,4.000000,4.000000,4.000000,4.000000,4.000000,4.000000,4.000000,100.000000,,,,,,,,,,,,,,,,
1645711542.967098,17.000000,0.000000,4208.717773,4214.743652,4222.692383,4214.871582,4220.769043,4219.102539,4216.538574,4212.179688,4216.794922,4224.358887,4242.563965,4171.153809,4235.897461,4223.974121,3160.000000,4.000000,86.000000,,,,0.000000,4.000000,4.000000,4.000000,4.000000,4.000000,4.000000,4.000000,4.000000,4.000000,4.000000,4.000000,4.000000,4.000000,4.000000,100.000000,,,,,,,,,,,,,,,,
1645711542.971038,18.000000,0.000000,4202.436035,4222.179688,4223.205078,4223.461426,4227.179688,4221.922852,4214.743652,4216.410156,4219.615234,4231.538574,4250.128418,4170.897461,4235.512695,4214.487305,2294.000000,4.000000,86.000000,,,,0.000000,4.000000,4.000000,4.000000,4.000000,4.000000,4.000000,4.000000,4.000000,4.000000,4.000000,4.000000,4.000000,4.000000,4.000000,100.000000,,,,,,,,,,,,,,,,
1645711542.974978,19.000000,0.000000,4227.948730,4216.410156,4220.256348,4217.948730,4214.615234,4211.922852,4209.615234,4214.487305,4219.230957,4224.743652,4241.282227,4168.205078,4230.128418,4216.922852,2794.000000,4.000000,86.000000,,,,0.000000,4.000000,4.000000,4.000000,4.000000,4.000000,4.000000,4.000000,4.000000,4.000000,4.000000,4.000000,4.000000,4.000000,4.000000,100.000000,,,,,,,,,,,,,,,,
1645711542.978918,20.000000,0.000000,4255.384766,4205.641113,4219.743652,4207.692383,4199.615234,4202.436035,4209.871582,4210.897461,4218.846191,4214.743652,4228.333496,4168.717773,4226.410156,4230.769043,3234.000000,4.000000,86.000000,,,,0.000000,4.000000,4.000000,4.000000,4.000000,4.000000,4.000000,4.000000,4.000000,4.000000,4.000000,4.000000,4.000000,4.000000,4.000000,100.000000,,,,,,,,,,,,,,,,
1645711542.982858,21.000000,0.000000,4250.000000,4203.846191,4224.871582,4207.179688,4203.205078,4207.820313,4217.692383,4211.922852,4222.436035,4218.205078,4228.333496,4174.230957,4230.769043,4239.871582,3160.000000,4.000000,86.000000,,,,0.000000,4.000000,4.000000,4.000000,4.000000,4.000000,4.000000,4.000000,4.000000,4.000000,4.000000,4.000000,4.000000,4.000000,4.000000,100.000000,,,,,,,,,,,,,,,,
1645711542.986798,22.000000,0.000000,4217.820313,4212.179688,4231.025879,4216.922852,4222.436035,4222.563965,4224.743652,4215.897461,4227.563965,4232.307617,4240.000000,4178.461426,4239.358887,4231.794922,2294.000000,4.000000,86.000000,,,,0.000000,4.000000,4.000000,4.000000,4.000000,4.000000,4.000000,4.000000,4.000000,4.000000,4.000000,4.000000,4.000000,4.000000,4.000000,100.000000,,,,,,,,,,,,,,,,
1645711542.990738,23.000000,0.000000,4197.307617,4218.717773,4230.769043,4222.948730,4233.589844,4228.205078,4220.769043,4214.743652,4226.153809,4236.153809,4244.743652,4173.333496,4241.794922,4213.974121,2794.000000,4.000000,86.000000,,,,0.000000,4.000000,4.000000,4.000000,4.000000,4.000000,4.000000,4.000000,4.000000,4.000000,4.000000,4.000000,4.000000,4.000000,4.000000,100.000000,,,,,,,,,,,,,,,,
1645711542.994678,24.000000,0.000000,4209.615234,4215.641113,4222.820313,4216.538574,4222.307617,4216.666504,4207.948730,4205.384766,4215.769043,4218.333496,4230.897461,4158.846191,4232.563965,4204.487305,3234.000000,4.000000,86.000000,,,,0.000000,4.000000,4.000000,4.000000,4.000000,4.000000,4.000000,4.000000,4.000000,4.000000,4.000000,4.000000,4.000000,4.000000,4.000000,100.000000,,,,,,,,,,,,,,,,
1645711542.998618,25.000000,0.000000,4233.077148,4209.871582,4213.846191,4206.282227,4203.205078,4201.794922,4199.358887,4195.641113,4203.974121,4193.974121,4210.512695,4145.000000,4218.846191,4209.358887,3160.000000,4.000000,86.000000,,,,0.000000,4.000000,4.000000,4.000000,4.000000,4.000000,4.000000,4.000000,4.000000,4.000000,4.000000,4.000000,4.000000,4.000000,4.000000,100.000000,,,,,,,,,,,,,,,,
1645711543.002559,26.000000,0.000000,4233.846191,4213.205078,4210.897461,4206.538574,4200.641113,4201.282227,4203.974121,4195.000000,4200.384766,4187.820313,4203.589844,4141.282227,4211.666504,4216.410156,2294.000000,4.000000,86.000000,,,,0.000000,4.000000,4.000000,4.000000,4.000000,4.000000,4.000000,4.000000,4.000000,4.000000,4.000000,4.000000,4.000000,4.000000,4.000000,100.000000,,,,,,,,,,,,,,,,
1645711543.006499,27.000000,0.000000,4212.307617,4225.128418,4213.461426,4217.179688,4217.179688,4214.358887,4216.153809,4202.436035,4205.384766,4203.461426,4213.461426,4147.051270,4214.102539,4212.436035,2794.000000,4.000000,86.000000,,,,0.000000,4.000000,4.000000,4.000000,4.000000,4.000000,4.000000,4.000000,4.000000,4.000000,4.000000,4.000000,4.000000,4.000000,4.000000,100.000000,,,,,,,,,,,,,,,,
1645711543.010439,28.000000,0.000000,4200.641113,4232.179688,4215.641113,4223.717773,4230.128418,4222.948730,4222.563965,4207.436035,4209.487305,4219.743652,4223.461426,4153.461426,4218.974121,4200.512695,3234.000000,4.000000,86.000000,,,,0.000000,4.000000,4.000000,4.000000,4.000000,4.000000,4.000000,4.000000,4.000000,4.000000,4.000000,4.000000,4.000000,4.000000,4.000000,100.000000,,,,,,,,,,,,,,,,
1645711543.014379,29.000000,0.000000,4217.307617,4225.512695,4213.974121,4216.922852,4222.179688,4215.512695,4218.333496,4203.717773,4205.897461,4217.692383,4219.230957,4154.871582,4218.461426,4195.769043,3160.000000,4.000000,86.000000,,,,0.000000,4.000000,4.000000,4.000000,4.000000,4.000000,4.000000,4.000000,4.000000,4.000000,4.000000,4.000000,4.000000,4.000000,4.000000,100.000000,,,,,,,,,,,,,,,,
1645711543.018319,30.000000,0.000000,4240.256348,4213.205078,4211.538574,4206.410156,4204.358887,4202.307617,4211.922852,4197.563965,4198.461426,4203.717773,4207.563965,4153.205078,4214.230957,4204.230957,2294.000000,4.000000,86.000000,,,,0.000000,4.000000,4.000000,4.000000,4.000000,4.000000,4.000000,4.000000,4.000000,4.000000,4.000000,4.000000,4.000000,4.000000,4.000000,100.000000,,,,,,,,,,,,,,,,
1645711543.022259,31.000000,0.000000,4236.538574,4210.512695,4212.948730,4207.692383,4201.410156,4201.410156,4212.948730,4199.615234,4197.436035,4198.846191,4205.256348,4153.846191,4213.333496,4214.615234,2794.000000,4.000000,86.000000,,,,0.000000,4.000000,4.000000,4.000000,4.000000,4.000000,4.000000,4.000000,4.000000,4.000000,4.000000,4.000000,4.000000,4.000000,4.000000,100.000000,,,,,,,,,,,,,,,,
1645711543.026199,32.000000,0.000000,4207.948730,4220.000000,4217.436035,4221.153809,4219.102539,4215.000000,4219.487305,4210.256348,4205.512695,4210.128418,4215.897461,4156.410156,4218.077148,4213.717773,0.000000,4.000000,86.000000,,,,0.000000,4.000000,4.000000,4.000000,4.000000,4.000000,4.000000,4.000000,4.000000,4.000000,4.000000,4.000000,4.000000,4.000000,4.000000,100.000000,,,,,,,,,,,,,,,,
1645711543.030139,33.000000,0.000000,4189.358887,4228.077148,4219.230957,4229.871582,4236.538574,4226.666504,4222.692383,4218.333496,4214.487305,4221.666504,4224.102539,4156.153809,4222.051270,4203.461426,0.000000,4.000000,86.000000,,,,0.000000,4.000000,4.000000,4.000000,4.000000,4.000000,4.000000,4.000000,4.000000,4.000000,4.000000,4.000000,4.000000,4.000000,4.000000,100.000000,,,,,,,,,,,,,,,,
1645711543.034079,34.000000,0.000000,4203.589844,4223.077148,4215.256348,4221.025879,4233.333496,4222.820313,4218.333496,4214.743652,4216.025879,4216.153809,4216.922852,4150.641113,4219.230957,4197.948730,0.000000,4.000000,86.000000,,,,0.000000,4.000000,4.000000,4.000000,4.000000,4.000000,4.000000,4.000000,4.000000,4.000000,4.000000,4.000000,4.000000,4.000000,4.000000,100.000000,,,,,,,,,,,,,,,,
1645711543.038119,35.000000,0.000000,4231.410156,4211.153809,4209.102539,4203.205078,4215.128418,4210.512695,4212.948730,4204.102539,4211.410156,4199.230957,4202.563965,4144.230957,4212.051270,4203.461426,0.000000,4.000000,86.000000,,,,0.000000,4.000000,4.000000,4.000000,4.000000,4.000000,4.000000,4.000000,4.000000,4.000000,4.000000,4.000000,4.000000,4.000000,4.000000,100.000000,,,,,,,,,,,,,,,,
1645711543.042059,36.000000,0.000000,4237.307617,4207.563965,4206.538574,4196.410156,4205.128418,4206.538574,4213.846191,4199.615234,4209.743652,4191.666504,4200.512695,4143.461426,4208.974121,4210.769043,0.000000,4.000000,86.000000,,,,0.000000,4.000000,4.000000,4.000000,4.000000,4.000000,4.000000,4.000000,4.000000,4.000000,4.000000,4.000000,4.000000,4.000000,4.000000,100.000000,,,,,,,,,,,,,,,,
1645711543.046000,37.000000,0.000000,4217.051270,4216.666504,4208.974121,4207.051270,4213.077148,4215.512695,4218.846191,4206.794922,4215.384766,4202.692383,4216.025879,4148.974121,4213.333496,4207.948730,0.000000,4.000000,86.000000,,,,0.000000,4.000000,4.000000,4.000000,4.000000,4.000000,4.000000,4.000000,4.000000,4.000000,4.000000,4.000000,4.000000,4.000000,4.000000,100.000000,,,,,,,,,,,,,,,,
1645711543.049940,38.000000,0.000000,4201.794922,4226.794922,4212.563965,4221.282227,4224.358887,4224.358887,4219.871582,4217.307617,4222.307617,4217.820313,4232.307617,4155.256348,4220.000000,4198.333496,0.000000,4.000000,86.000000,,,,0.000000,4.000000,4.000000,4.000000,4.000000,4.000000,4.000000,4.000000,4.000000,4.000000,4.000000,4.000000,4.000000,4.000000,4.000000,100.000000,,,,,,,,,,,,,,,,
