title:Alex-Go3bIawURHsVmmreT6gbLQ, start timestamp:1645709490.944666, stop timestamp:1645709516.643976, headset type:EPOCPLUS, headset serial:3B9AEBFF, headset firmware:626, channels:55, sampling rate:eeg_256, samples:6524      , version:2.1, 
Timestamp,EEG.Counter,EEG.Interpolated,EEG.AF3,EEG.F7,EEG.F3,EEG.FC5,EEG.T7,EEG.P7,EEG.O1,EEG.O2,EEG.P8,EEG.T8,EEG.FC6,EEG.F4,EEG.F8,EEG.AF4,EEG.RawCq,EEG.Battery,EEG.BatteryPercent,MarkerIndex,MarkerType,MarkerValueInt,EEG.MarkerHardware,CQ.AF3,CQ.F7,CQ.F3,CQ.FC5,CQ.T7,CQ.P7,CQ.O1,CQ.O2,CQ.P8,CQ.T8,CQ.FC6,CQ.F4,CQ.F8,CQ.AF4,CQ.Overall,EQ.SampleRateQuality,EQ.OVERALL,EQ.AF3,EQ.F7,EQ.F3,EQ.FC5,EQ.T7,EQ.P7,EQ.O1,EQ.O2,EQ.P8,EQ.T8,EQ.FC6,EQ.F4,EQ.F8,EQ.AF4
1645709490.944666,47.000000,0.000000,4177.436035,4180.512695,4184.743652,4179.102539,4169.615234,4173.589844,4169.487305,4190.384766,4185.641113,4210.769043,4182.179688,4159.615234,4207.948730,4190.128418,0.000000,4.000000,91.000000,,,,0.000000,4.000000,4.000000,4.000000,4.000000,4.000000,4.000000,4.000000,4.000000,4.000000,4.000000,4.000000,4.000000,4.000000,4.000000,100.000000,,,,,,,,,,,,,,,,
1645709490.948507,48.000000,0.000000,4180.384766,4182.179688,4184.102539,4179.487305,4170.128418,4173.461426,4168.974121,4183.846191,4181.666504,4205.897461,4182.051270,4160.512695,4208.589844,4191.153809,0.000000,4.000000,91.000000,,,,0.000000,4.000000,4.000000,4.000000,4.000000,4.000000,4.000000,4.000000,4.000000,4.000000,4.000000,4.000000,4.000000,4.000000,4.000000,100.000000,,,,,,,,,,,,,,,,
1645709490.952447,49.000000,0.000000,4183.205078,4184.871582,4184.615234,4181.538574,4171.922852,4175.256348,4170.256348,4176.410156,4178.589844,4201.538574,4182.948730,4162.179688,4210.256348,4193.717773,0.000000,4.000000,91.000000,,,,0.000000,4.000000,4.000000,4.000000,4.000000,4.000000,4.000000,4.000000,4.000000,4.000000,4.000000,4.000000,4.000000,4.000000,4.000000,100.000000,,,,,,,,,,,,,,,,
1645709490.956387,50.000000,0.000000,4184.487305,4186.794922,4185.897461,4183.717773,4173.846191,4177.436035,4172.307617,4170.897461,4176.666504,4198.333496,4183.846191,4163.077148,4211.538574,4195.000000,0.000000,4.000000,91.000000,,,,0.000000,4.000000,4.000000,4.000000,4.000000,4.000000,4.000000,4.000000,4.000000,4.000000,4.000000,4.000000,4.000000,4.000000,4.000000,100.000000,,,,,,,,,,,,,,,,
1645709490.960327,51.000000,0.000000,4184.487305,4186.153809,4186.025879,4183.589844,4173.589844,4177.563965,4172.307617,4168.461426,4174.743652,4195.256348,4182.563965,4161.153809,4210.000000,4192.692383,0.000000,4.000000,91.000000,,,,0.000000,4.000000,4.000000,4.000000,4.000000,4.000000,4.000000,4.000000,4.000000,4.000000,4.000000,4.000000,4.000000,4.000000,4.000000,100.000000,,,,,,,,,,,,,,,,
1645709490.964267,52.000000,0.000000,4183.205078,4181.666504,4183.589844,4179.230957,4170.128418,4173.846191,4169.230957,4167.179688,4171.025879,4191.025879,4177.563965,4155.512695,4204.871582,4186.794922,0.000000,4.000000,91.000000,,,,0.000000,4.000000,4.000000,4.000000,4.000000,4.000000,4.000000,4.000000,4.000000,4.000000,4.000000,4.000000,4.000000,4.000000,4.000000,100.000000,,,,,,,,,,,,,,,,
1645709490.968207,53.000000,0.000000,4180.000000,4174.358887,4178.974121,4171.922852,4164.102539,4167.436035,4163.974121,4164.743652,4165.512695,4186.153809,4170.256348,4148.461426,4198.077148,4179.743652,0.000000,4.000000,91.000000,,,,0.000000,4.000000,4.000000,4.000000,4.000000,4.000000,4.000000,4.000000,4.000000,4.000000,4.000000,4.000000,4.000000,4.000000,4.000000,100.000000,,,,,,,,,,,,,,,,
1645709490.972147,54.000000,0.000000,4175.256348,4166.153809,4173.846191,4164.487305,4157.563965,4160.769043,4158.717773,4160.641113,4160.128418,4181.794922,4164.487305,4142.948730,4192.820313,4174.743652,0.000000,4.000000,91.000000,,,,0.000000,4.000000,4.000000,4.000000,4.000000,4.000000,4.000000,4.000000,4.000000,4.000000,4.000000,4.000000,4.000000,4.000000,4.000000,100.000000,,,,,,,,,,,,,,,,
1645709490.976087,55.000000,0.000000,4170.128418,4160.000000,4169.871582,4160.000000,4152.948730,4156.538574,4155.384766,4156.410156,4156.922852,4178.846191,4162.948730,4141.025879,4191.538574,4173.333496,0.000000,4.000000,91.000000,,,,0.000000,4.000000,4.000000,4.000000,4.000000,4.000000,4.000000,4.000000,4.000000,4.000000,4.000000,4.000000,4.000000,4.000000,4.000000,100.000000,,,,,,,,,,,,,,,,
1645709490.980027,56.000000,0.000000,4166.922852,4157.051270,4167.307617,4158.717773,4151.666504,4156.025879,4155.000000,4154.743652,4156.794922,4176.538574,4164.871582,4141.538574,4193.461426,4174.102539,0.000000,4.000000,91.000000,,,,0.000000,4.000000,4.000000,4.000000,4.000000,4.000000,4.000000,4.000000,4.000000,4.000000,4.000000,4.000000,4.000000,4.000000,4.000000,100.000000,,,,,,,,,,,,,,,,
1645709490.983968,57.000000,0.000000,4166.410156,4157.179688,4166.282227,4159.615234,4153.846191,4158.461426,4157.051270,4157.179688,4158.589844,4174.743652,4167.051270,4142.563965,4196.282227,4174.871582,0.000000,4.000000,91.000000,,,,0.000000,4.000000,4.000000,4.000000,4.000000,4.000000,4.000000,4.000000,4.000000,4.000000,4.000000,4.000000,4.000000,4.000000,4.000000,100.000000,,,,,,,,,,,,,,,,
1645709490.987908,58.000000,0.000000,4168.333496,4159.102539,4167.179688,4161.538574,4158.333496,4161.922852,4160.384766,4162.307617,4160.897461,4174.102539,4167.436035,4142.436035,4197.820313,4174.230957,0.000000,4.000000,91.000000,,,,0.000000,4.000000,4.000000,4.000000,4.000000,4.000000,4.000000,4.000000,4.000000,4.000000,4.000000,4.000000,4.000000,4.000000,4.000000,100.000000,,,,,,,,,,,,,,,,
1645709490.991848,59.000000,0.000000,4171.282227,4161.922852,4169.871582,4163.589844,4163.205078,4164.615234,4163.461426,4167.692383,4162.051270,4175.000000,4166.538574,4141.922852,4197.307617,4173.077148,0.000000,4.000000,91.000000,,,,0.000000,4.000000,4.000000,4.000000,4.000000,4.000000,4.000000,4.000000,4.000000,4.000000,4.000000,4.000000,4.000000,4.000000,4.000000,100.000000,,,,,,,,,,,,,,,,
1645709490.995788,60.000000,0.000000,4174.615234,4165.000000,4173.974121,4164.871582,4166.410156,4165.769043,4165.128418,4170.512695,4162.179688,4177.307617,4166.410156,4142.692383,4196.025879,4173.205078,0.000000,4.000000,91.000000,,,,0.000000,4.000000,4.000000,4.000000,4.000000,4.000000,4.000000,4.000000,4.000000,4.000000,4.000000,4.000000,4.000000,4.000000,4.000000,100.000000,,,,,,,,,,,,,,,,
1645709490.999728,61.000000,0.000000,4178.589844,4168.589844,4178.461426,4164.358887,4167.307617,4166.025879,4165.128418,4171.153809,4161.922852,4180.128418,4168.589844,4145.512695,4195.769043,4176.025879,0.000000,4.000000,91.000000,,,,0.000000,4.000000,4.000000,4.000000,4.000000,4.000000,4.000000,4.000000,4.000000,4.000000,4.000000,4.000000,4.000000,4.000000,4.000000,100.000000,,,,,,,,,,,,,,,,
1645709491.003668,62.000000,0.000000,4182.563965,4172.436035,4182.307617,4162.179688,4167.179688,4166.666504,4164.487305,4171.922852,4162.307617,4182.948730,4172.948730,4150.256348,4197.820313,4181.153809,0.000000,4.000000,91.000000,,,,0.000000,4.000000,4.000000,4.000000,4.000000,4.000000,4.000000,4.000000,4.000000,4.000000,4.000000,4.000000,4.000000,4.000000,4.000000,100.000000,,,,,,,,,,,,,,,,
1645709491.007608,63.000000,0.000000,4185.128418,4175.769043,4184.102539,4160.128418,4168.205078,4168.846191,4165.000000,4175.256348,4164.230957,4186.025879,4178.333496,4155.769043,4202.051270,4187.051270,0.000000,4.000000,91.000000,,,,0.000000,4.000000,4.000000,4.000000,4.000000,4.000000,4.000000,4.000000,4.000000,4.000000,4.000000,4.000000,4.000000,4.000000,4.000000,100.000000,,,,,,,,,,,,,,,,
1645709491.011648,64.000000,0.000000,4184.615234,4176.666504,4183.333496,4160.128418,4171.153809,4173.077148,4167.948730,4181.282227,4167.820313,4189.743652,4182.820313,4160.384766,4206.922852,4191.282227,0.000000,4.000000,91.000000,,,,0.000000,4.000000,4.000000,4.000000,4.000000,4.000000,4.000000,4.000000,4.000000,4.000000,4.000000,4.000000,4.000000,4.000000,4.000000,100.000000,,,,,,,,,,,,,,,,
1645709491.015588,65.000000,0.000000,4181.282227,4173.974121,4180.256348,4161.666504,4174.487305,4177.948730,4172.436035,4187.692383,4171.922852,4193.846191,4184.487305,4162.051270,4209.871582,4191.794922,0.000000,4.000000,91.000000,,,,0.000000,4.000000,4.000000,4.000000,4.000000,4.000000,4.000000,4.000000,4.000000,4.000000,4.000000,4.000000,4.000000,4.000000,4.000000,100.000000,,,,,,,,,,,,,,,,
1645709491.019528,66.000000,0.000000,4176.794922,4167.948730,4175.512695,4162.307617,4175.256348,4180.769043,4176.538574,4191.153809,4175.128418,4196.410156,4182.179688,4159.743652,4208.717773,4188.205078,0.000000,4.000000,91.000000,,,,0.000000,4.000000,4.000000,4.000000,4.000000,4.000000,4.000000,4.000000,4.000000,4.000000,4.000000,4.000000,4.000000,4.000000,4.000000,100.000000,,,,,,,,,,,,,,,,
1645709491.023469,67.000000,0.000000,4173.077148,4161.282227,4170.769043,4160.384766,4172.051270,4179.615234,4178.205078,4190.000000,4176.410156,4196.025879,4176.666504,4153.846191,4203.717773,4181.794922,0.000000,4.000000,91.000000,,,,0.000000,4.000000,4.000000,4.000000,4.000000,4.000000,4.000000,4.000000,4.000000,4.000000,4.000000,4.000000,4.000000,4.000000,4.000000,100.000000,,,,,,,,,,,,,,,,
1645709491.027409,68.000000,0.000000,4170.897461,4157.692383,4167.051270,4157.307617,4166.666504,4175.512695,4176.794922,4185.000000,4175.769043,4192.692383,4170.769043,4147.307617,4197.436035,4175.769043,0.000000,4.000000,91.000000,,,,0.000000,4.000000,4.000000,4.000000,4.000000,4.000000,4.000000,4.000000,4.000000,4.000000,4.000000,4.000000,4.000000,4.000000,4.000000,100.000000,,,,,,,,,,,,,,,,
1645709491.031349,69.000000,0.000000,4169.743652,4158.974121,4165.000000,4156.410156,4163.205078,4171.282227,4173.589844,4178.589844,4173.461426,4188.333496,4167.436035,4143.077148,4192.948730,4172.692383,0.000000,4.000000,91.000000,,,,0.000000,4.000000,4.000000,4.000000,4.000000,4.000000,4.000000,4.000000,4.000000,4.000000,4.000000,4.000000,4.000000,4.000000,4.000000,100.000000,,,,,,,,,,,,,,,,
1645709491.035289,70.000000,0.000000,4169.230957,4163.589844,4164.743652,4159.102539,4163.846191,4169.487305,4170.128418,4172.692383,4169.871582,4185.384766,4167.307617,4142.692383,4192.179688,4173.333496,0.000000,4.000000,91.000000,,,,0.000000,4.000000,4.000000,4.000000,4.000000,4.000000,4.000000,4.000000,4.000000,4.000000,4.000000,4.000000,4.000000,4.000000,4.000000,100.000000,,,,,,,,,,,,,,,,
1645709491.039129,71.000000,0.000000,4169.615234,4167.692383,4166.153809,4163.846191,4167.436035,4170.128418,4167.436035,4168.589844,4165.769043,4184.487305,4168.333496,4144.743652,4194.615234,4175.256348,0.000000,4.000000,91.000000,,,,0.000000,4.000000,4.000000,4.000000,4.000000,4.000000,4.000000,4.000000,4.000000,4.000000,4.000000,4.000000,4.000000,4.000000,4.000000,100.000000,,,,,,,,,,,,,,,,
1645709491.043069,72.000000,0.000000,4170.769043,4168.333496,4168.077148,4167.563965,4170.512695,4171.794922,4166.666504,4166.666504,4163.205078,4185.128418,4168.205078,4146.794922,4198.205078,4175.641113,0.000000,4.000000,91.000000,,,,0.000000,4.000000,4.000000,4.000000,4.000000,4.000000,4.000000,4.000000,4.000000,4.000000,4.000000,4.000000,4.000000,4.000000,4.000000,100.000000,,,,,,,,,,,,,,,,
1645709491.047009,73.000000,0.000000,4172.179688,4165.512695,4169.871582,4168.333496,4170.769043,4172.692383,4168.205078,4167.436035,4163.846191,4186.666504,4167.179688,4147.051270,4201.282227,4174.230957,0.000000,4.000000,91.000000,,,,0.000000,4.000000,4.000000,4.000000,4.000000,4.000000,4.000000,4.000000,4.000000,4.000000,4.000000,4.000000,4.000000,4.000000,4.000000,100.000000,,,,,,,,,,,,,,,,
1645709491.050849,74.000000,0.000000,4173.717773,4161.794922,4170.641113,4167.436035,4169.230957,4172.948730,4171.666504,4170.769043,4167.948730,4188.717773,4167.692383,4145.512695,4203.077148,4173.589844,0.000000,4.000000,91.000000,,,,0.000000,4.000000,4.000000,4.000000,4.000000,4.000000,4.000000,4.000000,4.000000,4.000000,4.000000,4.000000,4.000000,4.000000,4.000000,100.000000,,,,,,,,,,,,,,,,
1645709491.054790,75.000000,0.000000,4175.384766,4159.487305,4170.512695,4167.051270,4168.461426,4173.461426,4175.384766,4175.641113,4172.692383,4191.153809,4170.769043,4143.974121,4203.846191,4176.025879,0.000000,4.000000,91.000000,,,,0.000000,4.000000,4.000000,4.000000,4.000000,4.000000,4.000000,4.000000,4.000000,4.000000,4.000000,4.000000,4.000000,4.000000,4.000000,100.000000,,,,,,,,,,,,,,,,
1645709491.058730,76.000000,0.000000,4177.436035,4158.589844,4170.384766,4168.077148,4169.743652,4173.974121,4178.205078,4179.871582,4174.871582,4193.205078,4175.512695,4144.230957,4204.358887,4181.538574,0.000000,4.000000,91.000000,,,,0.000000,4.000000,4.000000,4.000000,4.000000,4.000000,4.000000,4.000000,4.000000,4.000000,4.000000,4.000000,4.000000,4.000000,4.000000,100.000000,,,,,,,,,,,,,,,,
1645709491.062670,77.000000,0.000000,4179.487305,4158.589844,4171.025879,4170.256348,4172.051270,4174.102539,4179.358887,4181.282227,4173.333496,4193.974121,4179.487305,4146.282227,4204.615234,4187.307617,0.000000,4.000000,91.000000,,,,0.000000,4.000000,4.000000,4.000000,4.000000,4.000000,4.000000,4.000000,4.000000,4.000000,4.000000,4.000000,4.000000,4.000000,4.000000,100.000000,,,,,,,,,,,,,,,,
1645709491.066610,78.000000,0.000000,4180.641113,4160.128418,4172.563965,4172.051270,4173.846191,4173.846191,4178.589844,4179.743652,4170.000000,4193.205078,4181.025879,4149.102539,4205.000000,4190.897461,0.000000,4.000000,91.000000,,,,0.000000,4.000000,4.000000,4.000000,4.000000,4.000000,4.000000,4.000000,4.000000,4.000000,4.000000,4.000000,4.000000,4.000000,4.000000,100.000000,,,,,,,,,,,,,,,,
1645709491.070550,79.000000,0.000000,4180.512695,4164.871582,4174.487305,4172.307617,4174.615234,4173.846191,4176.282227,4176.538574,4167.692383,4191.666504,4179.743652,4150.512695,4205.641113,4190.769043,0.000000,4.000000,91.000000,,,,0.000000,4.000000,4.000000,4.000000,4.000000,4.000000,4.000000,4.000000,4.000000,4.000000,4.000000,4.000000,4.000000,4.000000,4.000000,100.000000,,,,,,,,,,,,,,,,
1645709491.074390,80.000000,0.000000,4179.230957,4172.948730,4175.384766,4170.384766,4174.487305,4174.615234,4173.205078,4173.589844,4167.820313,4190.000000,4176.153809,4149.358887,4206.538574,4187.179688,0.000000,4.000000,91.000000,,,,0.000000,4.000000,4.000000,4.000000,4.000000,4.000000,4.000000,4.000000,4.000000,4.000000,4.000000,4.000000,4.000000,4.000000,4.000000,100.000000,,,,,,,,,,,,,,,,
1645709491.078330,81.000000,0.000000,4178.333496,4181.153809,4174.871582,4166.538574,4173.717773,4174.743652,4170.384766,4171.666504,4169.102539,4188.205078,4171.794922,4145.512695,4206.666504,4182.051270,0.000000,4.000000,91.000000,,,,0.000000,4.000000,4.000000,4.000000,4.000000,4.000000,4.000000,4.000000,4.000000,4.000000,4.000000,4.000000,4.000000,4.000000,4.000000,100.000000,,,,,,,,,,,,,,,,
1645709491.082270,82.000000,0.000000,4178.589844,4185.384766,4173.333496,4162.436035,4172.179688,4173.589844,4168.846191,4170.641113,4169.358887,4186.538574,4168.589844,4141.025879,4205.128418,4177.563965,0.000000,4.000000,91.000000,,,,0.000000,4.000000,4.000000,4.000000,4.000000,4.000000,4.000000,4.000000,4.000000,4.000000,4.000000,4.000000,4.000000,4.000000,4.000000,100.000000,,,,,,,,,,,,,,,,
1645709491.086211,83.000000,0.000000,4179.871582,4184.615234,4171.922852,4161.025879,4170.769043,4171.538574,4168.974121,4170.128418,4168.077148,4186.153809,4168.846191,4138.717773,4203.077148,4176.922852,0.000000,4.000000,91.000000,,,,0.000000,4.000000,4.000000,4.000000,4.000000,4.000000,4.000000,4.000000,4.000000,4.000000,4.000000,4.000000,4.000000,4.000000,4.000000,100.000000,,,,,,,,,,,,,,,,
1645709491.090151,84.000000,0.000000,4181.282227,4181.794922,4171.922852,4163.717773,4170.897461,4170.256348,4170.384766,4169.871582,4166.153809,4187.948730,4173.205078,4140.512695,4202.820313,4181.025879,0.000000,4.000000,91.000000,,,,0.000000,4.000000,4.000000,4.000000,4.000000,4.000000,4.000000,4.000000,4.000000,4.000000,4.000000,4.000000,4.000000,4.000000,4.000000,100.000000,,,,,,,,,,,,,,,,
1645709491.093991,85.000000,0.000000,4182.179688,4180.512695,4173.077148,4168.589844,4172.948730,4170.897461,4171.922852,4170.256348,4164.743652,4191.410156,4179.230957,4145.384766,4205.641113,4187.948730,0.000000,4.000000,91.000000,,,,0.000000,4.000000,4.000000,4.000000,4.000000,4.000000,4.000000,4.000000,4.000000,4.000000,4.000000,4.000000,4.000000,4.000000,4.000000,100.000000,,,,,,,,,,,,,,,,
1645709491.097931,86.000000,0.000000,4182.820313,4182.307617,4174.487305,4172.307617,4175.256348,4172.692383,4173.077148,4171.538574,4164.487305,4193.974121,4182.948730,4149.743652,4209.487305,4193.077148,0.000000,4.000000,91.000000,,,,0.000000,4.000000,4.000000,4.000000,4.000000,4.000000,4.000000,4.000000,4.000000,4.000000,4.000000,4.000000,4.000000,4.000000,4.000000,100.000000,,,,,,,,,,,,,,,,
1645709491.101871,87.000000,0.000000,4182.820313,4186.025879,4175.256348,4173.077148,4175.512695,4173.974121,4173.846191,4174.615234,4165.512695,4194.102539,4182.436035,4150.897461,4211.282227,4192.820313,0.000000,4.000000,91.000000,,,,0.000000,4.000000,4.000000,4.000000,4.000000,4.000000,4.000000,4.000000,4.000000,4.000000,4.000000,4.000000,4.000000,4.000000,4.000000,100.000000,,,,,,,,,,,,,,,,
1645709491.105811,88.000000,0.000000,4181.794922,4189.230957,4175.769043,4171.282227,4172.948730,4173.717773,4174.487305,4179.743652,4167.820313,4193.077148,4178.974121,4148.846191,4209.615234,4187.692383,0.000000,4.000000,91.000000,,,,0.000000,4.000000,4.000000,4.000000,4.000000,4.000000,4.000000,4.000000,4.000000,4.000000,4.000000,4.000000,4.000000,4.000000,4.000000,100.000000,,,,,,,,,,,,,,,,
1645709491.109751,89.000000,0.000000,4179.871582,4190.641113,4176.025879,4168.461426,4169.487305,4172.051270,4174.871582,4186.282227,4170.769043,4193.717773,4176.282227,4146.538574,4206.794922,4182.436035,0.000000,4.000000,91.000000,,,,0.000000,4.000000,4.000000,4.000000,4.000000,4.000000,4.000000,4.000000,4.000000,4.000000,4.000000,4.000000,4.000000,4.000000,4.000000,100.000000,,,,,,,,,,,,,,,,
1645709491.113691,90.000000,0.000000,4177.563965,4189.230957,4175.769043,4165.897461,4167.436035,4169.615234,4174.230957,4191.282227,4173.205078,4197.179688,4176.538574,4146.538574,4205.769043,4181.410156,0.000000,4.000000,91.000000,,,,0.000000,4.000000,4.000000,4.000000,4.000000,4.000000,4.000000,4.000000,4.000000,4.000000,4.000000,4.000000,4.000000,4.000000,4.000000,100.000000,,,,,,,,,,,,,,,,
1645709491.117631,91.000000,0.000000,4176.282227,4186.025879,4174.358887,4163.974121,4167.436035,4166.794922,4171.922852,4192.307617,4174.102539,4200.769043,4178.589844,4149.230957,4207.820313,4184.615234,0.000000,4.000000,91.000000,,,,0.000000,4.000000,4.000000,4.000000,4.000000,4.000000,4.000000,4.000000,4.000000,4.000000,4.000000,4.000000,4.000000,4.000000,4.000000,100.000000,,,,,,,,,,,,,,,,
1645709491.121572,92.000000,0.000000,4176.410156,4182.820313,4172.307617,4163.077148,4168.205078,4164.615234,4168.974121,4188.333496,4173.077148,4201.025879,4179.487305,4151.794922,4210.897461,4188.589844,0.000000,4.000000,91.000000,,,,0.000000,4.000000,4.000000,4.000000,4.000000,4.000000,4.000000,4.000000,4.000000,4.000000,4.000000,4.000000,4.000000,4.000000,4.000000,100.000000,,,,,,,,,,,,,,,,
1645709491.125512,93.000000,0.000000,4177.307617,4181.922852,4171.025879,4163.846191,4168.974121,4163.589844,4167.179688,4181.794922,4170.512695,4196.794922,4177.820313,4151.794922,4212.307617,4190.000000,0.000000,4.000000,91.000000,,,,0.000000,4.000000,4.000000,4.000000,4.000000,4.000000,4.000000,4.000000,4.000000,4.000000,4.000000,4.000000,4.000000,4.000000,4.000000,100.000000,,,,,,,,,,,,,,,,
1645709491.129452,94.000000,0.000000,4177.692383,4184.230957,4172.179688,4166.666504,4169.743652,4163.974121,4167.563965,4176.410156,4168.205078,4190.769043,4175.384766,4149.358887,4211.410156,4188.589844,0.000000,4.000000,91.000000,,,,0.000000,4.000000,4.000000,4.000000,4.000000,4.000000,4.000000,4.000000,4.000000,4.000000,4.000000,4.000000,4.000000,4.000000,4.000000,100.000000,,,,,,,,,,,,,,,,
1645709491.133392,95.000000,0.000000,4177.307617,4188.461426,4176.025879,4170.384766,4171.153809,4165.128418,4170.000000,4175.128418,4168.077148,4187.436035,4174.871582,4146.794922,4209.487305,4186.666504,0.000000,4.000000,91.000000,,,,0.000000,4.000000,4.000000,4.000000,4.000000,4.000000,4.000000,4.000000,4.000000,4.000000,4.000000,4.000000,4.000000,4.000000,4.000000,100.000000,,,,,,,,,,,,,,,,
1645709491.137232,96.000000,0.000000,4177.179688,4191.025879,4180.641113,4172.692383,4172.436035,4166.025879,4172.692383,4178.461426,4170.128418,4188.077148,4176.794922,4146.025879,4208.461426,4186.025879,0.000000,4.000000,91.000000,,,,0.000000,4.000000,4.000000,4.000000,4.000000,4.000000,4.000000,4.000000,4.000000,4.000000,4.000000,4.000000,4.000000,4.000000,4.000000,100.000000,,,,,,,,,,,,,,,,
1645709491.141172,97.000000,0.000000,4178.205078,4189.871582,4183.205078,4171.794922,4172.436035,4165.897461,4174.102539,4183.461426,4172.179688,4190.128418,4178.461426,4146.538574,4208.846191,4186.538574,0.000000,4.000000,91.000000,,,,0.000000,4.000000,4.000000,4.000000,4.000000,4.000000,4.000000,4.000000,4.000000,4.000000,4.000000,4.000000,4.000000,4.000000,4.000000,100.000000,,,,,,,,,,,,,,,,
1645709491.145112,98.000000,0.000000,4179.615234,4185.769043,4181.538574,4167.948730,4170.897461,4165.128418,4173.461426,4186.282227,4171.794922,4190.128418,4177.307617,4146.922852,4209.358887,4186.666504,0.000000,4.000000,91.000000,,,,0.000000,4.000000,4.000000,4.000000,4.000000,4.000000,4.000000,4.000000,4.000000,4.000000,4.000000,4.000000,4.000000,4.000000,4.000000,100.000000,,,,,,,,,,,,,,,,
1645709491.149052,99.000000,0.000000,4180.000000,4181.282227,4176.153809,4163.077148,4168.717773,4164.615234,4171.666504,4184.102539,4168.333496,4187.436035,4173.077148,4145.897461,4209.230957,4185.256348,0.000000,4.000000,91.000000,,,,0.000000,4.000000,4.000000,4.000000,4.000000,4.000000,4.000000,4.000000,4.000000,4.000000,4.000000,4.000000,4.000000,4.000000,4.000000,100.000000,,,,,,,,,,,,,,,,
1645709491.152993,100.000000,0.000000,4178.333496,4178.589844,4170.384766,4159.358887,4166.666504,4164.743652,4170.128418,4177.563965,4163.205078,4184.102539,4168.205078,4144.230957,4207.820313,4182.051270,0.000000,4.000000,91.000000,,,,0.000000,4.000000,4.000000,4.000000,4.000000,4.000000,4.000000,4.000000,4.000000,4.000000,4.000000,4.000000,4.000000,4.000000,4.000000,100.000000,,,,,,,,,,,,,,,,
1645709491.156933,101.000000,0.000000,4175.769043,4177.820313,4167.436035,4157.179688,4164.871582,4164.743652,4169.358887,4170.128418,4159.230957,4182.051270,4165.256348,4142.563965,4205.128418,4178.461426,0.000000,4.000000,91.000000,,,,0.000000,4.000000,4.000000,4.000000,4.000000,4.000000,4.000000,4.000000,4.000000,4.000000,4.000000,4.000000,4.000000,4.000000,4.000000,100.000000,,,,,,,,,,,,,,,,
1645709491.160873,102.000000,0.000000,4174.102539,4177.948730,4169.230957,4155.897461,4163.205078,4163.974121,4168.974121,4166.153809,4158.717773,4181.922852,4165.000000,4142.051270,4201.922852,4176.153809,0.000000,4.000000,91.000000,,,,0.000000,4.000000,4.000000,4.000000,4.000000,4.000000,4.000000,4.000000,4.000000,4.000000,4.000000,4.000000,4.000000,4.000000,4.000000,100.000000,,,,,,,,,,,,,,,,
1645709491.164813,103.000000,0.000000,4174.358887,4178.333496,4174.743652,4155.512695,4162.948730,4163.333496,4168.846191,4167.948730,4161.922852,4183.333496,4167.307617,4143.333496,4199.871582,4176.538574,0.000000,4.000000,91.000000,,,,0.000000,4.000000,4.000000,4.000000,4.000000,4.000000,4.000000,4.000000,4.000000,4.000000,4.000000,4.000000,4.000000,4.000000,4.000000,100.000000,,,,,,,,,,,,,,,,
1645709491.168753,104.000000,0.000000,4176.025879,4180.512695,4181.538574,4156.922852,4165.384766,4164.358887,4169.615234,4174.102539,4167.179688,4186.282227,4171.410156,4146.410156,4200.512695,4179.871582,0.000000,4.000000,91.000000,,,,0.000000,4.000000,4.000000,4.000000,4.000000,4.000000,4.000000,4.000000,4.000000,4.000000,4.000000,4.000000,4.000000,4.000000,4.000000,100.000000,,,,,,,,,,,,,,,,
1645709491.172693,105.000000,0.000000,4178.333496,4185.384766,4186.794922,4161.025879,4170.512695,4168.077148,4171.410156,4180.769043,4171.538574,4191.153809,4176.794922,4150.384766,4204.102539,4185.128418,0.000000,4.000000,91.000000,,,,0.000000,4.000000,4.000000,4.000000,4.000000,4.000000,4.000000,4.000000,4.000000,4.000000,4.000000,4.000000,4.000000,4.000000,4.000000,100.000000,,,,,,,,,,,,,,,,
1645709491.176633,106.000000,0.000000,4180.512695,4191.666504,4189.358887,4166.794922,4176.282227,4172.692383,4173.589844,4184.358887,4172.948730,4197.692383,4182.307617,4153.717773,4209.102539,4190.384766,0.000000,4.000000,91.000000,,,,0.000000,4.000000,4.000000,4.000000,4.000000,4.000000,4.000000,4.000000,4.000000,4.000000,4.000000,4.000000,4.000000,4.000000,4.000000,100.000000,,,,,,,,,,,,,,,,
1645709491.180573,107.000000,0.000000,4182.692383,4196.282227,4189.358887,4171.794922,4179.102539,4175.769043,4175.641113,4184.615234,4171.794922,4203.333496,4186.538574,4155.256348,4213.333496,4194.230957,0.000000,4.000000,91.000000,,,,0.000000,4.000000,4.000000,4.000000,4.000000,4.000000,4.000000,4.000000,4.000000,4.000000,4.000000,4.000000,4.000000,4.000000,4.000000,100.000000,,,,,,,,,,,,,,,,
1645709491.184513,108.000000,0.000000,4183.974121,4196.282227,4187.307617,4173.333496,4177.563965,4175.384766,4176.410156,4183.589844,4169.615234,4205.256348,4188.077148,4154.871582,4215.256348,4196.153809,0.000000,4.000000,91.000000,1,1,2,0.000000,4.000000,4.000000,4.000000,4.000000,4.000000,4.000000,4.000000,4.000000,4.000000,4.000000,4.000000,4.000000,4.000000,4.000000,100.000000,,,,,,,,,,,,,,,,
1645709491.188453,109.000000,0.000000,4183.077148,4191.410156,4183.974121,4170.512695,4172.948730,4172.051270,4175.769043,4183.205078,4168.333496,4202.820313,4186.666504,4153.205078,4214.487305,4195.641113,0.000000,4.000000,91.000000,,,,0.000000,4.000000,4.000000,4.000000,4.000000,4.000000,4.000000,4.000000,4.000000,4.000000,4.000000,4.000000,4.000000,4.000000,4.000000,100.000000,,,,,,,,,,,,,,,,
1645709491.192394,110.000000,0.000000,4180.128418,4184.871582,4180.384766,4165.641113,4168.205078,4167.820313,4173.717773,4183.333496,4168.974121,4197.563965,4183.589844,4150.641113,4211.922852,4192.436035,0.000000,4.000000,91.000000,,,,0.000000,4.000000,4.000000,4.000000,4.000000,4.000000,4.000000,4.000000,4.000000,4.000000,4.000000,4.000000,4.000000,4.000000,4.000000,100.000000,,,,,,,,,,,,,,,,
1645709491.196334,111.000000,0.000000,4176.410156,4180.769043,4178.205078,4161.666504,4165.897461,4164.615234,4170.641113,4183.461426,4171.282227,4192.820313,4180.128418,4147.436035,4208.589844,4187.436035,0.000000,4.000000,91.000000,,,,0.000000,4.000000,4.000000,4.000000,4.000000,4.000000,4.000000,4.000000,4.000000,4.000000,4.000000,4.000000,4.000000,4.000000,4.000000,100.000000,,,,,,,,,,,,,,,,
1645709491.200274,112.000000,0.000000,4174.230957,4181.025879,4178.333496,4160.769043,4166.538574,4163.461426,4167.563965,4183.205078,4173.077148,4190.641113,4177.179688,4143.974121,4205.769043,4182.436035,0.000000,4.000000,91.000000,,,,0.000000,4.000000,4.000000,4.000000,4.000000,4.000000,4.000000,4.000000,4.000000,4.000000,4.000000,4.000000,4.000000,4.000000,4.000000,100.000000,,,,,,,,,,,,,,,,
1645709491.204214,113.000000,0.000000,4174.615234,4184.615234,4180.256348,4162.692383,4169.230957,4164.743652,4166.410156,4182.948730,4172.948730,4191.794922,4175.512695,4141.282227,4204.487305,4179.743652,0.000000,4.000000,91.000000,,,,0.000000,4.000000,4.000000,4.000000,4.000000,4.000000,4.000000,4.000000,4.000000,4.000000,4.000000,4.000000,4.000000,4.000000,4.000000,100.000000,,,,,,,,,,,,,,,,
1645709491.208154,114.000000,0.000000,4176.538574,4188.846191,4182.563965,4166.025879,4172.948730,4168.205078,4168.333496,4183.333496,4170.897461,4195.384766,4175.256348,4139.871582,4205.128418,4180.769043,0.000000,4.000000,91.000000,,,,0.000000,4.000000,4.000000,4.000000,4.000000,4.000000,4.000000,4.000000,4.000000,4.000000,4.000000,4.000000,4.000000,4.000000,4.000000,100.000000,,,,,,,,,,,,,,,,
1645709491.211994,115.000000,0.000000,4178.717773,4191.538574,4184.358887,4169.871582,4176.153809,4172.692383,4172.307617,4184.487305,4169.358887,4199.230957,4176.410156,4139.615234,4207.692383,4184.871582,0.000000,4.000000,91.000000,,,,0.000000,4.000000,4.000000,4.000000,4.000000,4.000000,4.000000,4.000000,4.000000,4.000000,4.000000,4.000000,4.000000,4.000000,4.000000,100.000000,,,,,,,,,,,,,,,,
1645709491.215934,116.000000,0.000000,4180.128418,4192.179688,4185.000000,4173.205078,4177.563965,4176.410156,4175.897461,4186.282227,4170.000000,4200.641113,4177.563965,4139.487305,4210.512695,4189.358887,0.000000,4.000000,91.000000,,,,0.000000,4.000000,4.000000,4.000000,4.000000,4.000000,4.000000,4.000000,4.000000,4.000000,4.000000,4.000000,4.000000,4.000000,4.000000,100.000000,,,,,,,,,,,,,,,,
1645709491.219874,117.000000,0.000000,4180.897461,4191.410156,4184.615234,4174.871582,4176.794922,4177.436035,4177.179688,4187.692383,4172.948730,4198.717773,4177.563965,4138.846191,4212.179688,4191.922852,0.000000,4.000000,91.000000,,,,0.000000,4.000000,4.000000,4.000000,4.000000,4.000000,4.000000,4.000000,4.000000,4.000000,4.000000,4.000000,4.000000,4.000000,4.000000,100.000000,,,,,,,,,,,,,,,,
1645709491.223815,118.000000,0.000000,4180.897461,4190.512695,4183.205078,4174.871582,4174.615234,4175.769043,4176.025879,4188.205078,4176.794922,4195.128418,4176.538574,4137.436035,4211.666504,4191.922852,0.000000,4.000000,91.000000,,,,0.000000,4.000000,4.000000,4.000000,4.000000,4.000000,4.000000,4.000000,4.000000,4.000000,4.000000,4.000000,4.000000,4.000000,4.000000,100.000000,,,,,,,,,,,,,,,,
1645709491.227755,119.000000,0.000000,4179.487305,4190.128418,4181.282227,4173.974121,4173.205078,4173.461426,4173.589844,4187.179688,4179.230957,4192.436035,4175.512695,4136.025879,4209.487305,4190.256348,0.000000,4.000000,91.000000,,,,0.000000,4.000000,4.000000,4.000000,4.000000,4.000000,4.000000,4.000000,4.000000,4.000000,4.000000,4.000000,4.000000,4.000000,4.000000,100.000000,,,,,,,,,,,,,,,,
1645709491.231695,120.000000,0.000000,4176.666504,4190.512695,4179.230957,4173.717773,4174.102539,4172.820313,4171.794922,4184.487305,4178.717773,4191.922852,4175.256348,4135.256348,4207.051270,4187.948730,0.000000,4.000000,91.000000,,,,0.000000,4.000000,4.000000,4.000000,4.000000,4.000000,4.000000,4.000000,4.000000,4.000000,4.000000,4.000000,4.000000,4.000000,4.000000,100.000000,,,,,,,,,,,,,,,,
1645709491.235635,121.000000,0.000000,4173.589844,4191.025879,4177.179688,4173.461426,4176.410156,4174.487305,4171.025879,4180.384766,4175.128418,4191.922852,4175.128418,4134.487305,4205.256348,4185.512695,0.000000,4.000000,91.000000,,,,0.000000,4.000000,4.000000,4.000000,4.000000,4.000000,4.000000,4.000000,4.000000,4.000000,4.000000,4.000000,4.000000,4.000000,4.000000,100.000000,,,,,,,,,,,,,,,,
1645709491.239575,122.000000,0.000000,4171.794922,4191.025879,4175.000000,4172.307617,4177.948730,4176.538574,4171.410156,4175.384766,4170.512695,4190.128418,4174.102539,4133.077148,4204.230957,4183.205078,0.000000,4.000000,91.000000,,,,0.000000,4.000000,4.000000,4.000000,4.000000,4.000000,4.000000,4.000000,4.000000,4.000000,4.000000,4.000000,4.000000,4.000000,4.000000,100.000000,,,,,,,,,,,,,,,,
1645709491.243515,123.000000,0.000000,4171.922852,4190.128418,4173.205078,4170.000000,4177.307617,4177.307617,4172.563965,4170.897461,4167.179688,4185.897461,4171.794922,4131.153809,4204.102539,4181.282227,0.000000,4.000000,91.000000,,,,0.000000,4.000000,4.000000,4.000000,4.000000,4.000000,4.000000,4.000000,4.000000,4.000000,4.000000,4.000000,4.000000,4.000000,4.000000,100.000000,,,,,,,,,,,,,,,,
1645709491.247455,124.000000,0.000000,4173.333496,4189.230957,4172.692383,4167.948730,4175.000000,4176.538574,4173.717773,4167.948730,4166.666504,4181.666504,4169.615234,4130.000000,4204.615234,4180.641113,0.000000,4.000000,91.000000,,,,0.000000,4.000000,4.000000,4.000000,4.000000,4.000000,4.000000,4.000000,4.000000,4.000000,4.000000,4.000000,4.000000,4.000000,4.000000,100.000000,,,,,,,,,,,,,,,,
1645709491.251395,125.000000,0.000000,4174.743652,4189.487305,4174.230957,4167.948730,4173.333496,4175.128418,4174.102539,4167.820313,4168.461426,4180.769043,4169.487305,4131.538574,4205.384766,4181.922852,0.000000,4.000000,91.000000,,,,0.000000,4.000000,4.000000,4.000000,4.000000,4.000000,4.000000,4.000000,4.000000,4.000000,4.000000,4.000000,4.000000,4.000000,4.000000,100.000000,,,,,,,,,,,,,,,,
1645709491.255335,126.000000,0.000000,4176.153809,4191.025879,4176.922852,4170.641113,4173.461426,4173.974121,4173.205078,4169.871582,4170.897461,4183.846191,4171.794922,4136.153809,4205.769043,4185.000000,0.000000,4.000000,91.000000,,,,0.000000,4.000000,4.000000,4.000000,4.000000,4.000000,4.000000,4.000000,4.000000,4.000000,4.000000,4.000000,4.000000,4.000000,4.000000,100.000000,,,,,,,,,,,,,,,,
1645709491.259275,127.000000,0.000000,4178.077148,4192.820313,4179.615234,4174.487305,4174.871582,4173.461426,4171.794922,4172.436035,4172.051270,4187.948730,4174.871582,4141.922852,4205.128418,4188.461426,0.000000,4.000000,91.000000,,,,0.000000,4.000000,4.000000,4.000000,4.000000,4.000000,4.000000,4.000000,4.000000,4.000000,4.000000,4.000000,4.000000,4.000000,4.000000,100.000000,,,,,,,,,,,,,,,,
1645709491.263216,128.000000,0.000000,4180.384766,4194.102539,4181.794922,4177.820313,4176.025879,4173.461426,4170.769043,4172.692383,4170.512695,4189.743652,4176.153809,4146.153809,4203.717773,4190.512695,3369.000000,4.000000,91.000000,,,,0.000000,4.000000,4.000000,4.000000,4.000000,4.000000,4.000000,4.000000,4.000000,4.000000,4.000000,4.000000,4.000000,4.000000,4.000000,100.000000,,,,,,,,,,,,,,,,
1645709491.267156,129.000000,0.000000,4181.410156,4194.615234,4183.589844,4179.230957,4176.282227,4174.230957,4170.384766,4170.256348,4167.436035,4188.461426,4174.743652,4147.563965,4202.692383,4190.256348,3416.000000,4.000000,91.000000,,,,0.000000,4.000000,4.000000,4.000000,4.000000,4.000000,4.000000,4.000000,4.000000,4.000000,4.000000,4.000000,4.000000,4.000000,4.000000,100.000000,,,,,,,,,,,,,,,,
1645709491.271096,130.000000,0.000000,4180.384766,4194.102539,4185.512695,4179.102539,4175.897461,4175.641113,4170.512695,4167.307617,4165.512695,4185.641113,4172.179688,4146.922852,4203.205078,4188.589844,2586.000000,4.000000,91.000000,,,,0.000000,4.000000,4.000000,4.000000,4.000000,4.000000,4.000000,4.000000,4.000000,4.000000,4.000000,4.000000,4.000000,4.000000,4.000000,100.000000,,,,,,,,,,,,,,,,
1645709491.275036,131.000000,0.000000,4177.563965,4192.179688,4186.538574,4177.948730,4175.128418,4176.666504,4170.256348,4166.794922,4167.179688,4183.461426,4170.384766,4145.512695,4204.615234,4186.794922,3238.000000,4.000000,91.000000,,,,0.000000,4.000000,4.000000,4.000000,4.000000,4.000000,4.000000,4.000000,4.000000,4.000000,4.000000,4.000000,4.000000,4.000000,4.000000,100.000000,,,,,,,,,,,,,,,,
1645709491.278976,132.000000,0.000000,4175.256348,4187.563965,4185.128418,4176.282227,4173.717773,4176.410156,4169.487305,4170.000000,4172.179688,4182.948730,4170.512695,4144.230957,4205.128418,4185.128418,3506.000000,4.000000,91.000000,,,,0.000000,4.000000,4.000000,4.000000,4.000000,4.000000,4.000000,4.000000,4.000000,4.000000,4.000000,4.000000,4.000000,4.000000,4.000000,100.000000,,,,,,,,,,,,,,,,
1645709491.282816,133.000000,0.000000,4174.871582,4180.256348,4180.512695,4174.358887,4171.410156,4174.615234,4168.846191,4175.512695,4178.205078,4183.461426,4171.538574,4143.589844,4203.589844,4183.205078,3183.000000,4.000000,91.000000,,,,0.000000,4.000000,4.000000,4.000000,4.000000,4.000000,4.000000,4.000000,4.000000,4.000000,4.000000,4.000000,4.000000,4.000000,4.000000,100.000000,,,,,,,,,,,,,,,,
1645709491.286756,134.000000,0.000000,4176.025879,4172.179688,4174.743652,4172.820313,4168.846191,4172.563965,4168.974121,4180.384766,4182.948730,4184.102539,4172.563965,4143.205078,4201.025879,4181.153809,3293.000000,4.000000,91.000000,,,,0.000000,4.000000,4.000000,4.000000,4.000000,4.000000,4.000000,4.000000,4.000000,4.000000,4.000000,4.000000,4.000000,4.000000,4.000000,100.000000,,,,,,,,,,,,,,,,
1645709491.290696,135.000000,0.000000,4176.794922,4165.128418,4170.769043,4171.794922,4167.179688,4171.794922,4170.128418,4182.307617,4184.615234,4184.487305,4173.205078,4142.692383,4199.358887,4179.487305,2774.000000,4.000000,91.000000,,,,0.000000,4.000000,4.000000,4.000000,4.000000,4.000000,4.000000,4.000000,4.000000,4.000000,4.000000,4.000000,4.000000,4.000000,4.000000,100.000000,,,,,,,,,,,,,,,,
1645709491.294637,136.000000,0.000000,4176.153809,4160.000000,4171.153809,4171.025879,4166.794922,4172.820313,4171.666504,4181.153809,4183.333496,4184.358887,4173.077148,4141.538574,4199.487305,4178.333496,1464.000000,4.000000,91.000000,,,,0.000000,4.000000,4.000000,4.000000,4.000000,4.000000,4.000000,4.000000,4.000000,4.000000,4.000000,4.000000,4.000000,4.000000,4.000000,100.000000,,,,,,,,,,,,,,,,
1645709491.298577,137.000000,0.000000,4174.743652,4156.794922,4174.743652,4170.128418,4167.051270,4174.743652,4173.205078,4178.333496,4180.641113,4183.333496,4171.922852,4139.358887,4201.025879,4177.948730,3287.000000,4.000000,91.000000,,,,0.000000,4.000000,4.000000,4.000000,4.000000,4.000000,4.000000,4.000000,4.000000,4.000000,4.000000,4.000000,4.000000,4.000000,4.000000,100.000000,,,,,,,,,,,,,,,,
1645709491.302517,138.000000,0.000000,4174.358887,4154.871582,4179.102539,4169.230957,4167.307617,4176.025879,4175.000000,4176.922852,4178.846191,4181.538574,4170.512695,4136.794922,4202.692383,4178.461426,2507.000000,4.000000,91.000000,,,,0.000000,4.000000,4.000000,4.000000,4.000000,4.000000,4.000000,4.000000,4.000000,4.000000,4.000000,4.000000,4.000000,4.000000,4.000000,100.000000,,,,,,,,,,,,,,,,
1645709491.306457,139.000000,0.000000,4175.641113,4154.743652,4181.410156,4169.487305,4168.077148,4176.794922,4177.692383,4178.974121,4179.487305,4179.871582,4170.128418,4135.512695,4203.589844,4180.641113,3177.000000,4.000000,91.000000,,,,0.000000,4.000000,4.000000,4.000000,4.000000,4.000000,4.000000,4.000000,4.000000,4.000000,4.000000,4.000000,4.000000,4.000000,4.000000,100.000000,,,,,,,,,,,,,,,,
1645709491.310397,140.000000,0.000000,4177.948730,4156.538574,4180.641113,4171.666504,4170.512695,4178.333496,4181.538574,4184.102539,4182.692383,4179.358887,4172.436035,4136.538574,4203.333496,4184.102539,3200.000000,4.000000,91.000000,,,,0.000000,4.000000,4.000000,4.000000,4.000000,4.000000,4.000000,4.000000,4.000000,4.000000,4.000000,4.000000,4.000000,4.000000,4.000000,100.000000,,,,,,,,,,,,,,,,
1645709491.314337,141.000000,0.000000,4179.743652,4159.871582,4177.948730,4174.743652,4174.358887,4180.384766,4185.128418,4189.358887,4187.051270,4179.743652,4176.410156,4139.102539,4201.922852,4187.436035,3273.000000,4.000000,91.000000,,,,0.000000,4.000000,4.000000,4.000000,4.000000,4.000000,4.000000,4.000000,4.000000,4.000000,4.000000,4.000000,4.000000,4.000000,4.000000,100.000000,,,,,,,,,,,,,,,,
1645709491.318277,142.000000,0.000000,4180.256348,4163.205078,4175.769043,4176.538574,4177.307617,4181.410156,4186.025879,4190.769043,4189.487305,4179.230957,4178.974121,4140.641113,4199.358887,4188.846191,2507.000000,4.000000,91.000000,,,,0.000000,4.000000,4.000000,4.000000,4.000000,4.000000,4.000000,4.000000,4.000000,4.000000,4.000000,4.000000,4.000000,4.000000,4.000000,100.000000,,,,,,,,,,,,,,,,
1645709491.322217,143.000000,0.000000,4179.743652,4164.743652,4175.897461,4175.641113,4177.307617,4179.871582,4182.948730,4186.282227,4188.205078,4176.025879,4177.692383,4139.615234,4196.794922,4187.692383,3177.000000,4.000000,91.000000,,,,0.000000,4.000000,4.000000,4.000000,4.000000,4.000000,4.000000,4.000000,4.000000,4.000000,4.000000,4.000000,4.000000,4.000000,4.000000,100.000000,,,,,,,,,,,,,,,,
1645709491.326157,144.000000,0.000000,4179.230957,4164.358887,4179.102539,4173.205078,4174.871582,4176.666504,4177.307617,4177.820313,4183.717773,4171.282227,4173.461426,4137.051270,4195.256348,4185.897461,3200.000000,4.000000,91.000000,,,,0.000000,4.000000,4.000000,4.000000,4.000000,4.000000,4.000000,4.000000,4.000000,4.000000,4.000000,4.000000,4.000000,4.000000,4.000000,100.000000,,,,,,,,,,,,,,,,
1645709491.330097,145.000000,0.000000,4179.358887,4163.717773,4183.974121,4171.153809,4172.307617,4174.230957,4172.820313,4170.897461,4178.974121,4168.205078,4170.128418,4136.025879,4196.153809,4186.282227,3273.000000,4.000000,91.000000,,,,0.000000,4.000000,4.000000,4.000000,4.000000,4.000000,4.000000,4.000000,4.000000,4.000000,4.000000,4.000000,4.000000,4.000000,4.000000,100.000000,,,,,,,,,,,,,,,,
1645709491.334038,146.000000,0.000000,4180.128418,4163.974121,4188.205078,4170.641113,4171.794922,4174.615234,4172.692383,4170.000000,4177.307617,4169.102539,4170.641113,4138.974121,4198.974121,4189.871582,2507.000000,4.000000,91.000000,,,,0.000000,4.000000,4.000000,4.000000,4.000000,4.000000,4.000000,4.000000,4.000000,4.000000,4.000000,4.000000,4.000000,4.000000,4.000000,100.000000,,,,,,,,,,,,,,,,
1645709491.337978,147.000000,0.000000,4181.153809,4164.615234,4189.743652,4170.512695,4172.692383,4177.179688,4176.538574,4175.384766,4178.974121,4172.820313,4173.974121,4144.743652,4201.666504,4194.230957,3177.000000,4.000000,91.000000,,,,0.000000,4.000000,4.000000,4.000000,4.000000,4.000000,4.000000,4.000000,4.000000,4.000000,4.000000,4.000000,4.000000,4.000000,4.000000,100.000000,,,,,,,,,,,,,,,,
1645709491.341918,148.000000,0.000000,4181.410156,4163.717773,4188.589844,4169.102539,4172.948730,4179.230957,4180.897461,4182.563965,4181.538574,4176.282227,4176.794922,4149.358887,4202.051270,4195.384766,3200.000000,4.000000,91.000000,,,,0.000000,4.000000,4.000000,4.000000,4.000000,4.000000,4.000000,4.000000,4.000000,4.000000,4.000000,4.000000,4.000000,4.000000,4.000000,100.000000,,,,,,,,,,,,,,,,
1645709491.345858,149.000000,0.000000,4180.128418,4160.384766,4184.871582,4166.025879,4171.153809,4178.974121,4182.563965,4185.897461,4182.179688,4176.538574,4176.153809,4149.102539,4199.615234,4191.153809,3273.000000,4.000000,91.000000,,,,0.000000,4.000000,4.000000,4.000000,4.000000,4.000000,4.000000,4.000000,4.000000,4.000000,4.000000,4.000000,4.000000,4.000000,4.000000,100.000000,,,,,,,,,,,,,,,,
1645709491.349798,150.000000,0.000000,4177.051270,4155.641113,4179.358887,4162.563965,4168.461426,4176.666504,4180.769043,4182.820313,4179.487305,4173.589844,4172.179688,4142.948730,4195.897461,4183.589844,2507.000000,4.000000,91.000000,,,,0.000000,4.000000,4.000000,4.000000,4.000000,4.000000,4.000000,4.000000,4.000000,4.000000,4.000000,4.000000,4.000000,4.000000,4.000000,100.000000,,,,,,,,,,,,,,,,
1645709491.353638,151.000000,0.000000,4173.717773,4151.410156,4173.461426,4160.384766,4166.282227,4174.487305,4177.436035,4175.512695,4174.487305,4168.974121,4166.922852,4133.717773,4193.205078,4176.794922,3177.000000,4.000000,91.000000,,,,0.000000,4.000000,4.000000,4.000000,4.000000,4.000000,4.000000,4.000000,4.000000,4.000000,4.000000,4.000000,4.000000,4.000000,4.000000,100.000000,,,,,,,,,,,,,,,,
1645709491.357578,152.000000,0.000000,4171.794922,4149.615234,4169.102539,4159.871582,4165.256348,4173.333496,4174.230957,4168.974121,4169.230957,4165.256348,4163.077148,4126.282227,4192.436035,4173.974121,3200.000000,4.000000,91.000000,,,,0.000000,4.000000,4.000000,4.000000,4.000000,4.000000,4.000000,4.000000,4.000000,4.000000,4.000000,4.000000,4.000000,4.000000,4.000000,100.000000,,,,,,,,,,,,,,,,
1645709491.361518,153.000000,0.000000,4172.436035,4150.769043,4168.077148,4160.128418,4164.871582,4173.205078,4172.820313,4167.948730,4165.384766,4164.230957,4162.436035,4124.358887,4193.333496,4175.384766,3273.000000,4.000000,91.000000,,,,0.000000,4.000000,4.000000,4.000000,4.000000,4.000000,4.000000,4.000000,4.000000,4.000000,4.000000,4.000000,4.000000,4.000000,4.000000,100.000000,,,,,,,,,,,,,,,,
1645709491.365459,154.000000,0.000000,4175.000000,4154.358887,4171.666504,4160.641113,4164.743652,4173.205078,4173.589844,4173.333496,4164.615234,4166.410156,4165.769043,4128.846191,4194.615234,4178.974121,2507.000000,4.000000,91.000000,,,,0.000000,4.000000,4.000000,4.000000,4.000000,4.000000,4.000000,4.000000,4.000000,4.000000,4.000000,4.000000,4.000000,4.000000,4.000000,100.000000,0.984375,100.000000,4.000000,4.000000,4.000000,4.000000,4.000000,4.000000,4.000000,4.000000,4.000000,4.000000,4.000000,4.000000,4.000000,4.000000
1645709491.369399,155.000000,0.000000,4177.307617,4159.102539,4178.461426,4161.282227,4165.512695,4173.717773,4176.410156,4181.922852,4166.922852,4171.410156,4172.051270,4136.922852,4196.025879,4182.436035,3177.000000,4.000000,91.000000,,,,0.000000,4.000000,4.000000,4.000000,4.000000,4.000000,4.000000,4.000000,4.000000,4.000000,4.000000,4.000000,4.000000,4.000000,4.000000,100.000000,,,,,,,,,,,,,,,,
1645709491.373339,156.000000,0.000000,4178.077148,4163.461426,4185.000000,4162.436035,4167.436035,4174.615234,4179.615234,4188.717773,4171.538574,4177.179688,4178.461426,4144.743652,4198.205078,4184.743652,3200.000000,4.000000,91.000000,,,,0.000000,4.000000,4.000000,4.000000,4.000000,4.000000,4.000000,4.000000,4.000000,4.000000,4.000000,4.000000,4.000000,4.000000,4.000000,100.000000,,,,,,,,,,,,,,,,
1645709491.377279,157.000000,0.000000,4177.051270,4166.153809,4187.692383,4163.717773,4169.358887,4175.512695,4181.794922,4191.153809,4175.897461,4181.282227,4181.794922,4148.589844,4200.897461,4185.384766,3273.000000,4.000000,91.000000,,,,0.000000,4.000000,4.000000,4.000000,4.000000,4.000000,4.000000,4.000000,4.000000,4.000000,4.000000,4.000000,4.000000,4.000000,4.000000,100.000000,,,,,,,,,,,,,,,,
1645709491.381219,158.000000,0.000000,4175.128418,4166.794922,4185.512695,4163.717773,4169.102539,4176.153809,4181.794922,4189.615234,4177.307617,4181.666504,4180.897461,4146.794922,4203.077148,4183.846191,2507.000000,4.000000,91.000000,,,,0.000000,4.000000,4.000000,4.000000,4.000000,4.000000,4.000000,4.000000,4.000000,4.000000,4.000000,4.000000,4.000000,4.000000,4.000000,100.000000,,,,,,,,,,,,,,,,
1645709491.385159,159.000000,0.000000,4172.692383,4166.153809,4179.871582,4162.307617,4166.410156,4176.153809,4180.000000,4186.794922,4175.256348,4178.974121,4177.436035,4140.384766,4203.205078,4180.128418,3177.000000,4.000000,91.000000,,,,0.000000,4.000000,4.000000,4.000000,4.000000,4.000000,4.000000,4.000000,4.000000,4.000000,4.000000,4.000000,4.000000,4.000000,4.000000,100.000000,,,,,,,,,,,,,,,,
1645709491.389099,160.000000,0.000000,4170.256348,4165.769043,4174.358887,4160.384766,4163.077148,4176.153809,4178.077148,4185.384766,4172.436035,4176.410156,4174.615234,4133.077148,4201.410156,4175.769043,3200.000000,4.000000,91.000000,,,,0.000000,4.000000,4.000000,4.000000,4.000000,4.000000,4.000000,4.000000,4.000000,4.000000,4.000000,4.000000,4.000000,4.000000,4.000000,100.000000,,,,,,,,,,,,,,,,
1645709491.393039,161.000000,0.000000,4168.077148,4167.179688,4171.282227,4159.487305,4162.051270,4176.666504,4177.563965,4185.897461,4172.051270,4176.538574,4174.358887,4128.461426,4199.358887,4173.333496,3273.000000,4.000000,91.000000,,,,0.000000,4.000000,4.000000,4.000000,4.000000,4.000000,4.000000,4.000000,4.000000,4.000000,4.000000,4.000000,4.000000,4.000000,4.000000,100.000000,,,,,,,,,,,,,,,,
1645709491.396979,162.000000,0.000000,4167.563965,4170.256348,4171.794922,4160.128418,4164.102539,4177.820313,4178.974121,4187.179688,4175.000000,4179.615234,4176.282227,4128.333496,4198.974121,4174.871582,2507.000000,4.000000,91.000000,,,,0.000000,4.000000,4.000000,4.000000,4.000000,4.000000,4.000000,4.000000,4.000000,4.000000,4.000000,4.000000,4.000000,4.000000,4.000000,100.000000,,,,,,,,,,,,,,,,
1645709491.400919,163.000000,0.000000,4169.615234,4173.717773,4174.743652,4162.051270,4168.333496,4179.358887,4181.922852,4187.436035,4179.230957,4183.205078,4178.205078,4132.051270,4200.769043,4179.743652,3177.000000,4.000000,91.000000,,,,0.000000,4.000000,4.000000,4.000000,4.000000,4.000000,4.000000,4.000000,4.000000,4.000000,4.000000,4.000000,4.000000,4.000000,4.000000,100.000000,,,,,,,,,,,,,,,,
1645709491.404860,164.000000,0.000000,4173.717773,4175.897461,4178.461426,4163.846191,4172.820313,4180.897461,4184.487305,4186.153809,4181.922852,4185.384766,4178.846191,4137.179688,4203.717773,4185.512695,3200.000000,4.000000,91.000000,,,,0.000000,4.000000,4.000000,4.000000,4.000000,4.000000,4.000000,4.000000,4.000000,4.000000,4.000000,4.000000,4.000000,4.000000,4.000000,100.000000,,,,,,,,,,,,,,,,
1645709491.408800,165.000000,0.000000,4176.922852,4176.538574,4181.410156,4164.743652,4175.641113,4181.922852,4185.000000,4184.743652,4181.794922,4185.897461,4178.974121,4142.307617,4207.051270,4190.000000,3273.000000,4.000000,91.000000,,,,0.000000,4.000000,4.000000,4.000000,4.000000,4.000000,4.000000,4.000000,4.000000,4.000000,4.000000,4.000000,4.000000,4.000000,4.000000,100.000000,,,,,,,,,,,,,,,,
1645709491.412740,166.000000,0.000000,4177.692383,4176.025879,4182.820313,4164.743652,4175.769043,4182.179688,4182.948730,4184.487305,4179.743652,4185.641113,4180.000000,4146.794922,4210.000000,4192.307617,2507.000000,4.000000,91.000000,,,,0.000000,4.000000,4.000000,4.000000,4.000000,4.000000,4.000000,4.000000,4.000000,4.000000,4.000000,4.000000,4.000000,4.000000,4.000000,100.000000,,,,,,,,,,,,,,,,
1645709491.416680,167.000000,0.000000,4176.794922,4174.871582,4183.461426,4164.615234,4173.717773,4181.153809,4179.358887,4185.128418,4177.948730,4185.384766,4181.666504,4149.871582,4211.666504,4192.563965,3177.000000,4.000000,91.000000,,,,0.000000,4.000000,4.000000,4.000000,4.000000,4.000000,4.000000,4.000000,4.000000,4.000000,4.000000,4.000000,4.000000,4.000000,4.000000,100.000000,,,,,,,,,,,,,,,,
1645709491.420520,168.000000,0.000000,4176.666504,4173.717773,4184.102539,4165.128418,4171.410156,4179.871582,4177.051270,4185.000000,4177.436035,4184.487305,4182.563965,4150.512695,4211.410156,4191.666504,3200.000000,4.000000,91.000000,,,,0.000000,4.000000,4.000000,4.000000,4.000000,4.000000,4.000000,4.000000,4.000000,4.000000,4.000000,4.000000,4.000000,4.000000,4.000000,100.000000,,,,,,,,,,,,,,,,
1645709491.424460,169.000000,0.000000,4178.717773,4172.948730,4185.000000,4167.051270,4171.153809,4179.358887,4178.077148,4182.820313,4178.205078,4182.820313,4181.794922,4149.230957,4209.358887,4189.871582,3273.000000,4.000000,91.000000,,,,0.000000,4.000000,4.000000,4.000000,4.000000,4.000000,4.000000,4.000000,4.000000,4.000000,4.000000,4.000000,4.000000,4.000000,4.000000,100.000000,,,,,,,,,,,,,,,,
1645709491.428400,170.000000,0.000000,4181.666504,4173.461426,4185.000000,4169.871582,4173.974121,4180.769043,4182.051270,4179.102539,4178.461426,4180.641113,4179.871582,4147.820313,4207.563965,4188.461426,2507.000000,4.000000,91.000000,,,,0.000000,4.000000,4.000000,4.000000,4.000000,4.000000,4.000000,4.000000,4.000000,4.000000,4.000000,4.000000,4.000000,4.000000,4.000000,100.000000,,,,,,,,,,,,,,,,
1645709491.432340,171.000000,0.000000,4183.333496,4175.128418,4183.333496,4171.922852,4178.333496,4183.717773,4186.410156,4175.384766,4177.307617,4178.717773,4177.948730,4147.436035,4207.436035,4188.077148,3177.000000,4.000000,91.000000,,,,0.000000,4.000000,4.000000,4.000000,4.000000,4.000000,4.000000,4.000000,4.000000,4.000000,4.000000,4.000000,4.000000,4.000000,4.000000,100.000000,,,,,,,,,,,,,,,,
1645709491.436281,172.000000,0.000000,4182.563965,4176.410156,4180.256348,4171.538574,4181.153809,4185.512695,4187.692383,4172.692383,4174.743652,4177.307617,4176.282227,4147.948730,4208.974121,4188.205078,3200.000000,4.000000,91.000000,,,,0.000000,4.000000,4.000000,4.000000,4.000000,4.000000,4.000000,4.000000,4.000000,4.000000,4.000000,4.000000,4.000000,4.000000,4.000000,100.000000,,,,,,,,,,,,,,,,
1645709491.440221,173.000000,0.000000,4180.256348,4175.512695,4177.436035,4168.589844,4179.871582,4184.230957,4185.128418,4171.153809,4171.794922,4175.641113,4174.487305,4147.563965,4210.128418,4187.820313,3273.000000,4.000000,91.000000,,,,0.000000,4.000000,4.000000,4.000000,4.000000,4.000000,4.000000,4.000000,4.000000,4.000000,4.000000,4.000000,4.000000,4.000000,4.000000,100.000000,,,,,,,,,,,,,,,,
1645709491.444161,174.000000,0.000000,4178.205078,4172.820313,4176.666504,4165.128418,4175.769043,4180.128418,4180.256348,4170.769043,4169.871582,4173.717773,4172.820313,4145.769043,4209.487305,4186.282227,2507.000000,4.000000,91.000000,,,,0.000000,4.000000,4.000000,4.000000,4.000000,4.000000,4.000000,4.000000,4.000000,4.000000,4.000000,4.000000,4.000000,4.000000,4.000000,100.000000,,,,,,,,,,,,,,,,
1645709491.448101,175.000000,0.000000,4177.692383,4170.641113,4178.974121,4164.230957,4172.563965,4176.538574,4176.538574,4171.153809,4169.871582,4172.563965,4172.948730,4144.230957,4208.333496,4185.641113,3177.000000,4.000000,91.000000,,,,0.000000,4.000000,4.000000,4.000000,4.000000,4.000000,4.000000,4.000000,4.000000,4.000000,4.000000,4.000000,4.000000,4.000000,4.000000,100.000000,,,,,,,,,,,,,,,,
1645709491.452041,176.000000,0.000000,4178.974121,4171.794922,4183.333496,4167.307617,4173.461426,4176.153809,4175.769043,4172.307617,4171.153809,4173.974121,4176.282227,4145.897461,4209.102539,4188.205078,3200.000000,4.000000,91.000000,,,,0.000000,4.000000,4.000000,4.000000,4.000000,4.000000,4.000000,4.000000,4.000000,4.000000,4.000000,4.000000,4.000000,4.000000,4.000000,100.000000,,,,,,,,,,,,,,,,
1645709491.455981,177.000000,0.000000,4181.666504,4176.794922,4186.922852,4173.333496,4178.077148,4179.230957,4177.563965,4174.102539,4172.820313,4178.077148,4182.051270,4151.025879,4212.948730,4194.358887,3273.000000,4.000000,91.000000,,,,0.000000,4.000000,4.000000,4.000000,4.000000,4.000000,4.000000,4.000000,4.000000,4.000000,4.000000,4.000000,4.000000,4.000000,4.000000,100.000000,,,,,,,,,,,,,,,,
1645709491.459921,178.000000,0.000000,4184.871582,4183.333496,4188.461426,4179.230957,4183.077148,4183.717773,4179.743652,4176.538574,4174.102539,4183.461426,4187.692383,4156.794922,4217.948730,4201.025879,2507.000000,4.000000,91.000000,,,,0.000000,4.000000,4.000000,4.000000,4.000000,4.000000,4.000000,4.000000,4.000000,4.000000,4.000000,4.000000,4.000000,4.000000,4.000000,100.000000,,,,,,,,,,,,,,,,
1645709491.463861,179.000000,0.000000,4187.051270,4188.974121,4187.948730,4182.307617,4185.641113,4186.538574,4181.025879,4179.358887,4175.000000,4187.820313,4191.153809,4159.487305,4221.410156,4204.487305,3177.000000,4.000000,91.000000,,,,0.000000,4.000000,4.000000,4.000000,4.000000,4.000000,4.000000,4.000000,4.000000,4.000000,4.000000,4.000000,4.000000,4.000000,4.000000,100.000000,,,,,,,,,,,,,,,,
1645709491.467801,180.000000,0.000000,4187.179688,4193.077148,4187.051270,4182.436035,4185.641113,4186.922852,4181.538574,4182.436035,4175.641113,4190.000000,4191.922852,4158.333496,4222.179688,4203.077148,3200.000000,4.000000,91.000000,,,,0.000000,4.000000,4.000000,4.000000,4.000000,4.000000,4.000000,4.000000,4.000000,4.000000,4.000000,4.000000,4.000000,4.000000,4.000000,100.000000,,,,,,,,,,,,,,,,
1645709491.471741,181.000000,0.000000,4185.384766,4195.897461,4186.282227,4180.769043,4184.871582,4185.641113,4181.538574,4185.000000,4175.512695,4190.256348,4190.769043,4155.256348,4221.025879,4197.948730,3273.000000,4.000000,91.000000,,,,0.000000,4.000000,4.000000,4.000000,4.000000,4.000000,4.000000,4.000000,4.000000,4.000000,4.000000,4.000000,4.000000,4.000000,4.000000,100.000000,,,,,,,,,,,,,,,,
1645709491.475682,182.000000,0.000000,4182.307617,4196.410156,4185.641113,4178.077148,4183.974121,4183.205078,4180.769043,4186.153809,4174.102539,4188.589844,4188.333496,4152.179688,4218.333496,4190.897461,2507.000000,4.000000,91.000000,,,,0.000000,4.000000,4.000000,4.000000,4.000000,4.000000,4.000000,4.000000,4.000000,4.000000,4.000000,4.000000,4.000000,4.000000,4.000000,100.000000,,,,,,,,,,,,,,,,
1645709491.479622,183.000000,0.000000,4178.461426,4193.205078,4183.717773,4173.717773,4181.410156,4179.487305,4178.589844,4184.871582,4171.538574,4184.487305,4184.487305,4149.358887,4214.102539,4183.717773,3177.000000,4.000000,91.000000,,,,0.000000,4.000000,4.000000,4.000000,4.000000,4.000000,4.000000,4.000000,4.000000,4.000000,4.000000,4.000000,4.000000,4.000000,4.000000,100.000000,,,,,,,,,,,,,,,,
1645709491.483562,184.000000,0.000000,4173.461426,4186.153809,4179.487305,4167.436035,4176.410156,4175.128418,4175.384766,4181.794922,4169.358887,4178.589844,4179.615234,4146.025879,4208.333496,4177.436035,3200.000000,4.000000,91.000000,,,,0.000000,4.000000,4.000000,4.000000,4.000000,4.000000,4.000000,4.000000,4.000000,4.000000,4.000000,4.000000,4.000000,4.000000,4.000000,100.000000,,,,,,,,,,,,,,,,
1645709491.487402,185.000000,0.000000,4167.307617,4178.333496,4173.589844,4160.641113,4170.128418,4172.179688,4172.563965,4179.102539,4168.717773,4173.077148,4175.384766,4142.307617,4202.307617,4173.717773,3273.000000,4.000000,91.000000,,,,0.000000,4.000000,4.000000,4.000000,4.000000,4.000000,4.000000,4.000000,4.000000,4.000000,4.000000,4.000000,4.000000,4.000000,4.000000,100.000000,,,,,,,,,,,,,,,,
1645709491.491342,186.000000,0.000000,4161.922852,4174.102539,4167.948730,4156.666504,4165.897461,4173.077148,4172.051270,4179.102539,4169.743652,4170.897461,4173.461426,4138.974121,4198.333496,4173.333496,2507.000000,4.000000,91.000000,,,,0.000000,4.000000,4.000000,4.000000,4.000000,4.000000,4.000000,4.000000,4.000000,4.000000,4.000000,4.000000,4.000000,4.000000,4.000000,100.000000,,,,,,,,,,,,,,,,
1645709491.495282,187.000000,0.000000,4160.641113,4175.641113,4165.128418,4156.922852,4165.897461,4178.205078,4175.000000,4182.051270,4171.410156,4173.205078,4174.358887,4137.692383,4197.692383,4176.153809,3177.000000,4.000000,91.000000,,,,0.000000,4.000000,4.000000,4.000000,4.000000,4.000000,4.000000,4.000000,4.000000,4.000000,4.000000,4.000000,4.000000,4.000000,4.000000,100.000000,,,,,,,,,,,,,,,,
1645709491.499222,188.000000,0.000000,4165.000000,4181.538574,4165.897461,4160.384766,4169.871582,4184.743652,4180.384766,4186.794922,4173.077148,4178.589844,4177.436035,4138.846191,4200.256348,4180.512695,3200.000000,4.000000,91.000000,,,,0.000000,4.000000,4.000000,4.000000,4.000000,4.000000,4.000000,4.000000,4.000000,4.000000,4.000000,4.000000,4.000000,4.000000,4.000000,100.000000,,,,,,,,,,,,,,,,
1645709491.503162,189.000000,0.000000,4171.922852,4187.948730,4169.102539,4164.102539,4174.871582,4188.589844,4185.641113,4191.410156,4175.384766,4184.615234,4181.025879,4141.794922,4204.358887,4184.743652,3273.000000,4.000000,91.000000,,,,0.000000,4.000000,4.000000,4.000000,4.000000,4.000000,4.000000,4.000000,4.000000,4.000000,4.000000,4.000000,4.000000,4.000000,4.000000,100.000000,,,,,,,,,,,,,,,,
1645709491.507103,190.000000,0.000000,4177.051270,4192.051270,4172.436035,4166.282227,4177.948730,4188.205078,4189.102539,4194.358887,4178.846191,4189.615234,4184.615234,4145.641113,4208.974121,4188.333496,2507.000000,4.000000,91.000000,,,,0.000000,4.000000,4.000000,4.000000,4.000000,4.000000,4.000000,4.000000,4.000000,4.000000,4.000000,4.000000,4.000000,4.000000,4.000000,100.000000,,,,,,,,,,,,,,,,
1645709491.511043,191.000000,0.000000,4177.563965,4193.205078,4173.974121,4167.563965,4178.717773,4185.128418,4190.256348,4195.384766,4183.205078,4193.205078,4187.820313,4148.846191,4213.077148,4190.897461,3177.000000,4.000000,91.000000,,,,0.000000,4.000000,4.000000,4.000000,4.000000,4.000000,4.000000,4.000000,4.000000,4.000000,4.000000,4.000000,4.000000,4.000000,4.000000,100.000000,,,,,,,,,,,,,,,,
1645709491.514983,192.000000,0.000000,4174.871582,4192.307617,4173.461426,4169.230957,4178.333496,4182.307617,4190.512695,4194.871582,4186.410156,4195.384766,4189.871582,4150.000000,4216.025879,4192.307617,3200.000000,4.000000,91.000000,,,,0.000000,4.000000,4.000000,4.000000,4.000000,4.000000,4.000000,4.000000,4.000000,4.000000,4.000000,4.000000,4.000000,4.000000,4.000000,100.000000,,,,,,,,,,,,,,,,
1645709491.518923,193.000000,0.000000,4172.307617,4191.282227,4171.282227,4171.025879,4178.589844,4182.051270,4191.282227,4194.615234,4187.051270,4196.153809,4190.256348,4149.102539,4217.051270,4191.666504,3273.000000,4.000000,91.000000,,,,0.000000,4.000000,4.000000,4.000000,4.000000,4.000000,4.000000,4.000000,4.000000,4.000000,4.000000,4.000000,4.000000,4.000000,4.000000,100.000000,,,,,,,,,,,,,,,,
1645709491.522863,194.000000,0.000000,4172.692383,4191.538574,4168.846191,4171.794922,4179.871582,4184.487305,4193.333496,4195.897461,4185.000000,4196.025879,4188.461426,4147.436035,4216.282227,4189.487305,2507.000000,4.000000,91.000000,,,,0.000000,4.000000,4.000000,4.000000,4.000000,4.000000,4.000000,4.000000,4.000000,4.000000,4.000000,4.000000,4.000000,4.000000,4.000000,100.000000,,,,,,,,,,,,,,,,
1645709491.526803,195.000000,0.000000,4175.512695,4193.205078,4167.820313,4170.897461,4182.436035,4187.820313,4195.897461,4198.846191,4182.179688,4196.025879,4185.769043,4147.051270,4214.743652,4187.692383,3177.000000,4.000000,91.000000,,,,0.000000,4.000000,4.000000,4.000000,4.000000,4.000000,4.000000,4.000000,4.000000,4.000000,4.000000,4.000000,4.000000,4.000000,4.000000,100.000000,,,,,,,,,,,,,,,,
1645709491.530743,196.000000,0.000000,4178.589844,4195.384766,4168.589844,4169.358887,4185.256348,4190.128418,4196.922852,4201.153809,4181.153809,4196.794922,4184.487305,4148.589844,4213.333496,4188.205078,3200.000000,4.000000,91.000000,,,,0.000000,4.000000,4.000000,4.000000,4.000000,4.000000,4.000000,4.000000,4.000000,4.000000,4.000000,4.000000,4.000000,4.000000,4.000000,100.000000,,,,,,,,,,,,,,,,
1645709491.534683,197.000000,0.000000,4179.871582,4196.538574,4170.512695,4168.846191,4186.666504,4189.487305,4195.256348,4201.025879,4182.563965,4197.179688,4185.641113,4151.282227,4212.179688,4191.153809,3273.000000,4.000000,91.000000,,,,0.000000,4.000000,4.000000,4.000000,4.000000,4.000000,4.000000,4.000000,4.000000,4.000000,4.000000,4.000000,4.000000,4.000000,4.000000,100.000000,,,,,,,,,,,,,,,,
1645709491.538623,198.000000,0.000000,4179.358887,4196.410156,4172.436035,4169.487305,4185.512695,4186.410156,4191.794922,4198.717773,4185.000000,4195.897461,4188.461426,4153.205078,4211.153809,4194.230957,2507.000000,4.000000,91.000000,,,,0.000000,4.000000,4.000000,4.000000,4.000000,4.000000,4.000000,4.000000,4.000000,4.000000,4.000000,4.000000,4.000000,4.000000,4.000000,100.000000,,,,,,,,,,,,,,,,
1645709491.542563,199.000000,0.000000,4178.461426,4195.384766,4173.589844,4170.769043,4182.307617,4183.589844,4188.974121,4196.922852,4186.410156,4193.589844,4191.025879,4153.461426,4210.000000,4195.512695,3177.000000,4.000000,91.000000,,,,0.000000,4.000000,4.000000,4.000000,4.000000,4.000000,4.000000,4.000000,4.000000,4.000000,4.000000,4.000000,4.000000,4.000000,4.000000,100.000000,,,,,,,,,,,,,,,,
1645709491.546504,200.000000,0.000000,4178.333496,4195.384766,4173.974121,4172.051270,4179.615234,4183.205078,4188.205078,4197.948730,4185.512695,4192.436035,4191.410156,4152.563965,4209.230957,4195.000000,3200.000000,4.000000,91.000000,,,,0.000000,4.000000,4.000000,4.000000,4.000000,4.000000,4.000000,4.000000,4.000000,4.000000,4.000000,4.000000,4.000000,4.000000,4.000000,100.000000,,,,,,,,,,,,,,,,
1645709491.550344,201.000000,0.000000,4179.358887,4196.922852,4174.487305,4172.948730,4179.487305,4185.384766,4188.333496,4201.025879,4183.077148,4194.230957,4189.743652,4151.666504,4209.358887,4193.717773,3273.000000,4.000000,91.000000,,,,0.000000,4.000000,4.000000,4.000000,4.000000,4.000000,4.000000,4.000000,4.000000,4.000000,4.000000,4.000000,4.000000,4.000000,4.000000,100.000000,,,,,,,,,,,,,,,,
1645709491.554284,202.000000,0.000000,4180.256348,4198.717773,4174.871582,4173.077148,4181.410156,4187.179688,4187.563965,4203.077148,4180.512695,4197.692383,4187.179688,4151.538574,4209.615234,4192.051270,2507.000000,4.000000,91.000000,,,,0.000000,4.000000,4.000000,4.000000,4.000000,4.000000,4.000000,4.000000,4.000000,4.000000,4.000000,4.000000,4.000000,4.000000,4.000000,100.000000,,,,,,,,,,,,,,,,
1645709491.558224,203.000000,0.000000,4180.256348,4198.589844,4174.487305,4171.922852,4182.820313,4185.769043,4185.769043,4201.282227,4178.846191,4199.230957,4185.000000,4151.153809,4209.230957,4189.871582,3177.000000,4.000000,91.000000,,,,0.000000,4.000000,4.000000,4.000000,4.000000,4.000000,4.000000,4.000000,4.000000,4.000000,4.000000,4.000000,4.000000,4.000000,4.000000,100.000000,,,,,,,,,,,,,,,,
1645709491.562164,204.000000,0.000000,4179.743652,4195.512695,4172.948730,4170.128418,4182.307617,4181.410156,4183.717773,4196.025879,4178.205078,4196.922852,4183.589844,4149.358887,4208.077148,4187.692383,3200.000000,4.000000,91.000000,,,,0.000000,4.000000,4.000000,4.000000,4.000000,4.000000,4.000000,4.000000,4.000000,4.000000,4.000000,4.000000,4.000000,4.000000,4.000000,100.000000,,,,,,,,,,,,,,,,
1645709491.566104,205.000000,0.000000,4179.358887,4191.025879,4171.153809,4170.000000,4181.153809,4177.948730,4182.948730,4190.128418,4178.974121,4192.692383,4183.846191,4146.666504,4207.051270,4187.436035,3273.000000,4.000000,91.000000,,,,0.000000,4.000000,4.000000,4.000000,4.000000,4.000000,4.000000,4.000000,4.000000,4.000000,4.000000,4.000000,4.000000,4.000000,4.000000,100.000000,,,,,,,,,,,,,,,,
1645709491.570044,206.000000,0.000000,4179.487305,4187.563965,4171.282227,4173.077148,4181.794922,4178.846191,4183.974121,4186.410156,4181.153809,4190.384766,4186.025879,4145.128418,4207.307617,4190.512695,2507.000000,4.000000,91.000000,,,,0.000000,4.000000,4.000000,4.000000,4.000000,4.000000,4.000000,4.000000,4.000000,4.000000,4.000000,4.000000,4.000000,4.000000,4.000000,100.000000,,,,,,,,,,,,,,,,
1645709491.573984,207.000000,0.000000,4180.769043,4186.538574,4174.615234,4178.589844,4185.384766,4184.230957,4186.025879,4185.384766,4184.230957,4191.794922,4189.230957,4146.666504,4209.102539,4196.153809,3177.000000,4.000000,91.000000,,,,0.000000,4.000000,4.000000,4.000000,4.000000,4.000000,4.000000,4.000000,4.000000,4.000000,4.000000,4.000000,4.000000,4.000000,4.000000,100.000000,,,,,,,,,,,,,,,,
1645709491.577925,208.000000,0.000000,4183.077148,4186.922852,4179.487305,4183.461426,4190.384766,4189.871582,4187.563965,4185.769043,4186.666504,4195.256348,4191.666504,4151.153809,4210.641113,4201.538574,3200.000000,4.000000,91.000000,,,,0.000000,4.000000,4.000000,4.000000,4.000000,4.000000,4.000000,4.000000,4.000000,4.000000,4.000000,4.000000,4.000000,4.000000,4.000000,100.000000,,,,,,,,,,,,,,,,
1645709491.581865,209.000000,0.000000,4186.025879,4187.051270,4182.948730,4185.641113,4193.333496,4191.410156,4187.436035,4185.897461,4186.153809,4197.307617,4191.538574,4156.666504,4210.384766,4204.102539,3273.000000,4.000000,91.000000,,,,0.000000,4.000000,4.000000,4.000000,4.000000,4.000000,4.000000,4.000000,4.000000,4.000000,4.000000,4.000000,4.000000,4.000000,4.000000,100.000000,,,,,,,,,,,,,,,,
1645709491.585805,210.000000,0.000000,4187.820313,4186.153809,4183.461426,4185.641113,4192.051270,4187.948730,4186.282227,4184.743652,4181.538574,4195.641113,4189.102539,4160.512695,4208.077148,4203.589844,2507.000000,4.000000,91.000000,,,,0.000000,4.000000,4.000000,4.000000,4.000000,4.000000,4.000000,4.000000,4.000000,4.000000,4.000000,4.000000,4.000000,4.000000,4.000000,100.000000,,,,,,,,,,,,,,,,
1645709491.589745,211.000000,0.000000,4187.051270,4184.487305,4181.922852,4184.743652,4188.205078,4182.692383,4185.256348,4183.077148,4174.871582,4191.153809,4186.282227,4161.410156,4205.384766,4201.538574,3177.000000,4.000000,91.000000,,,,0.000000,4.000000,4.000000,4.000000,4.000000,4.000000,4.000000,4.000000,4.000000,4.000000,4.000000,4.000000,4.000000,4.000000,4.000000,100.000000,,,,,,,,,,,,,,,,
1645709491.593685,212.000000,0.000000,4183.974121,4182.820313,4180.128418,4183.589844,4184.358887,4179.871582,4185.384766,4181.666504,4170.128418,4186.922852,4185.000000,4160.128418,4203.846191,4200.000000,3200.000000,4.000000,91.000000,,,,0.000000,4.000000,4.000000,4.000000,4.000000,4.000000,4.000000,4.000000,4.000000,4.000000,4.000000,4.000000,4.000000,4.000000,4.000000,100.000000,,,,,,,,,,,,,,,,
1645709491.597625,213.000000,0.000000,4181.025879,4181.794922,4179.358887,4182.051270,4182.179688,4180.897461,4186.410156,4181.538574,4169.871582,4185.641113,4185.512695,4157.820313,4203.974121,4200.256348,3273.000000,4.000000,91.000000,,,,0.000000,4.000000,4.000000,4.000000,4.000000,4.000000,4.000000,4.000000,4.000000,4.000000,4.000000,4.000000,4.000000,4.000000,4.000000,100.000000,,,,,,,,,,,,,,,,
1645709491.601565,214.000000,0.000000,4180.897461,4181.922852,4179.358887,4180.384766,4181.282227,4185.000000,4188.333496,4182.948730,4172.948730,4187.820313,4187.051270,4155.256348,4205.256348,4201.922852,2507.000000,4.000000,91.000000,,,,0.000000,4.000000,4.000000,4.000000,4.000000,4.000000,4.000000,4.000000,4.000000,4.000000,4.000000,4.000000,4.000000,4.000000,4.000000,100.000000,,,,,,,,,,,,,,,,
1645709491.605505,215.000000,0.000000,4183.205078,4183.333496,4179.230957,4179.871582,4181.153809,4189.487305,4191.410156,4184.871582,4176.410156,4191.666504,4188.717773,4153.205078,4206.666504,4203.974121,3177.000000,4.000000,91.000000,,,,0.000000,4.000000,4.000000,4.000000,4.000000,4.000000,4.000000,4.000000,4.000000,4.000000,4.000000,4.000000,4.000000,4.000000,4.000000,100.000000,,,,,,,,,,,,,,,,
1645709491.609445,216.000000,0.000000,4186.025879,4185.384766,4178.974121,4181.282227,4182.051270,4192.820313,4195.384766,4186.153809,4178.077148,4194.743652,4190.512695,4152.563965,4207.563965,4205.512695,3200.000000,4.000000,91.000000,,,,0.000000,4.000000,4.000000,4.000000,4.000000,4.000000,4.000000,4.000000,4.000000,4.000000,4.000000,4.000000,4.000000,4.000000,4.000000,100.000000,,,,,,,,,,,,,,,,
1645709491.613385,217.000000,0.000000,4187.051270,4187.563965,4178.974121,4183.589844,4183.974121,4194.615234,4198.846191,4186.666504,4177.948730,4196.025879,4192.563965,4154.230957,4208.589844,4206.153809,3273.000000,4.000000,91.000000,,,,0.000000,4.000000,4.000000,4.000000,4.000000,4.000000,4.000000,4.000000,4.000000,4.000000,4.000000,4.000000,4.000000,4.000000,4.000000,100.000000,,,,,,,,,,,,,,,,
1645709491.617425,218.000000,0.000000,4186.410156,4189.102539,4180.256348,4185.256348,4185.769043,4194.871582,4199.871582,4186.922852,4177.436035,4195.512695,4194.487305,4157.820313,4210.128418,4206.025879,2507.000000,4.000000,91.000000,,,,0.000000,4.000000,4.000000,4.000000,4.000000,4.000000,4.000000,4.000000,4.000000,4.000000,4.000000,4.000000,4.000000,4.000000,4.000000,100.000000,,,,,,,,,,,,,,,,
1645709491.621366,219.000000,0.000000,4185.384766,4190.128418,4182.436035,4184.743652,4186.153809,4193.205078,4197.436035,4187.948730,4177.948730,4194.358887,4195.641113,4161.666504,4211.922852,4205.641113,3177.000000,4.000000,91.000000,,,,0.000000,4.000000,4.000000,4.000000,4.000000,4.000000,4.000000,4.000000,4.000000,4.000000,4.000000,4.000000,4.000000,4.000000,4.000000,100.000000,,,,,,,,,,,,,,,,
1645709491.625306,220.000000,0.000000,4184.743652,4190.769043,4184.102539,4182.692383,4184.615234,4189.871582,4193.077148,4189.230957,4179.358887,4193.333496,4195.512695,4163.589844,4213.461426,4205.128418,3200.000000,4.000000,91.000000,,,,0.000000,4.000000,4.000000,4.000000,4.000000,4.000000,4.000000,4.000000,4.000000,4.000000,4.000000,4.000000,4.000000,4.000000,4.000000,100.000000,,,,,,,,,,,,,,,,
1645709491.629246,221.000000,0.000000,4183.974121,4191.282227,4182.820313,4180.384766,4182.820313,4186.025879,4189.487305,4189.743652,4180.769043,4192.948730,4194.358887,4162.563965,4213.974121,4204.230957,3273.000000,4.000000,91.000000,,,,0.000000,4.000000,4.000000,4.000000,4.000000,4.000000,4.000000,4.000000,4.000000,4.000000,4.000000,4.000000,4.000000,4.000000,4.000000,100.000000,,,,,,,,,,,,,,,,
1645709491.633186,222.000000,0.000000,4181.922852,4191.153809,4177.692383,4178.846191,4181.538574,4183.717773,4188.846191,4188.717773,4181.282227,4192.820313,4192.307617,4159.358887,4212.948730,4201.922852,2507.000000,4.000000,91.000000,,,,0.000000,4.000000,4.000000,4.000000,4.000000,4.000000,4.000000,4.000000,4.000000,4.000000,4.000000,4.000000,4.000000,4.000000,4.000000,100.000000,,,,,,,,,,,,,,,,
1645709491.637126,223.000000,0.000000,4178.846191,4189.871582,4170.512695,4177.820313,4181.153809,4183.589844,4191.025879,4186.666504,4180.641113,4192.307617,4189.487305,4155.512695,4210.384766,4198.205078,3177.000000,4.000000,91.000000,,,,0.000000,4.000000,4.000000,4.000000,4.000000,4.000000,4.000000,4.000000,4.000000,4.000000,4.000000,4.000000,4.000000,4.000000,4.000000,100.000000,,,,,,,,,,,,,,,,
1645709491.641066,224.000000,0.000000,4176.282227,4188.333496,4165.000000,4176.794922,4181.025879,4185.128418,4193.717773,4184.743652,4179.487305,4191.025879,4186.282227,4152.563965,4207.563965,4194.871582,3200.000000,4.000000,91.000000,,,,0.000000,4.000000,4.000000,4.000000,4.000000,4.000000,4.000000,4.000000,4.000000,4.000000,4.000000,4.000000,4.000000,4.000000,4.000000,100.000000,,,,,,,,,,,,,,,,
1645709491.645006,225.000000,0.000000,4175.000000,4187.692383,4163.974121,4176.025879,4181.410156,4186.666504,4194.871582,4183.717773,4178.717773,4189.743652,4183.974121,4151.282227,4206.282227,4193.717773,3273.000000,4.000000,91.000000,,,,0.000000,4.000000,4.000000,4.000000,4.000000,4.000000,4.000000,4.000000,4.000000,4.000000,4.000000,4.000000,4.000000,4.000000,4.000000,100.000000,,,,,,,,,,,,,,,,
1645709491.648946,226.000000,0.000000,4175.256348,4188.589844,4167.051270,4176.025879,4182.436035,4187.563965,4193.461426,4184.230957,4178.846191,4189.230957,4183.974121,4151.153809,4207.179688,4194.615234,2507.000000,4.000000,91.000000,,,,0.000000,4.000000,4.000000,4.000000,4.000000,4.000000,4.000000,4.000000,4.000000,4.000000,4.000000,4.000000,4.000000,4.000000,4.000000,100.000000,,,,,,,,,,,,,,,,
1645709491.652886,227.000000,0.000000,4176.410156,4189.487305,4171.025879,4176.922852,4183.974121,4188.205078,4190.512695,4185.641113,4179.743652,4189.487305,4185.641113,4150.512695,4208.589844,4195.128418,3177.000000,4.000000,91.000000,,,,0.000000,4.000000,4.000000,4.000000,4.000000,4.000000,4.000000,4.000000,4.000000,4.000000,4.000000,4.000000,4.000000,4.000000,4.000000,100.000000,,,,,,,,,,,,,,,,
1645709491.656827,228.000000,0.000000,4178.589844,4187.692383,4172.436035,4178.205078,4184.487305,4188.717773,4187.692383,4186.538574,4180.641113,4188.846191,4186.794922,4147.820313,4208.205078,4193.205078,3200.000000,4.000000,91.000000,,,,0.000000,4.000000,4.000000,4.000000,4.000000,4.000000,4.000000,4.000000,4.000000,4.000000,4.000000,4.000000,4.000000,4.000000,4.000000,100.000000,,,,,,,,,,,,,,,,
1645709491.660767,229.000000,0.000000,4181.538574,4181.794922,4171.025879,4178.846191,4182.820313,4189.102539,4186.410156,4185.897461,4180.384766,4185.512695,4185.128418,4143.461426,4204.743652,4188.974121,3273.000000,4.000000,91.000000,,,,0.000000,4.000000,4.000000,4.000000,4.000000,4.000000,4.000000,4.000000,4.000000,4.000000,4.000000,4.000000,4.000000,4.000000,4.000000,100.000000,,,,,,,,,,,,,,,,
1645709491.664707,230.000000,0.000000,4183.974121,4173.205078,4168.974121,4178.205078,4179.102539,4189.102539,4186.922852,4183.974121,4179.230957,4180.000000,4180.641113,4139.230957,4199.615234,4184.871582,2507.000000,4.000000,91.000000,,,,0.000000,4.000000,4.000000,4.000000,4.000000,4.000000,4.000000,4.000000,4.000000,4.000000,4.000000,4.000000,4.000000,4.000000,4.000000,100.000000,,,,,,,,,,,,,,,,
1645709491.668647,231.000000,0.000000,4183.846191,4165.512695,4167.948730,4176.922852,4176.153809,4188.846191,4187.820313,4181.922852,4178.205078,4175.000000,4176.025879,4137.307617,4195.512695,4183.205078,3177.000000,4.000000,91.000000,,,,0.000000,4.000000,4.000000,4.000000,4.000000,4.000000,4.000000,4.000000,4.000000,4.000000,4.000000,4.000000,4.000000,4.000000,4.000000,100.000000,,,,,,,,,,,,,,,,
1645709491.672587,232.000000,0.000000,4180.769043,4161.922852,4168.333496,4175.769043,4176.025879,4188.717773,4187.307617,4181.538574,4178.205078,4173.846191,4174.615234,4138.717773,4194.358887,4184.358887,3200.000000,4.000000,91.000000,,,,0.000000,4.000000,4.000000,4.000000,4.000000,4.000000,4.000000,4.000000,4.000000,4.000000,4.000000,4.000000,4.000000,4.000000,4.000000,100.000000,,,,,,,,,,,,,,,,
1645709491.676527,233.000000,0.000000,4176.922852,4163.589844,4168.846191,4175.256348,4178.846191,4188.717773,4185.641113,4183.077148,4179.230957,4177.051270,4177.436035,4142.307617,4195.897461,4186.922852,3273.000000,4.000000,91.000000,,,,0.000000,4.000000,4.000000,4.000000,4.000000,4.000000,4.000000,4.000000,4.000000,4.000000,4.000000,4.000000,4.000000,4.000000,4.000000,100.000000,,,,,,,,,,,,,,,,
1645709491.680467,234.000000,0.000000,4175.512695,4168.974121,4169.230957,4175.128418,4182.051270,4188.589844,4184.230957,4185.641113,4180.384766,4182.436035,4182.051270,4145.512695,4198.077148,4189.230957,2507.000000,4.000000,91.000000,,,,0.000000,4.000000,4.000000,4.000000,4.000000,4.000000,4.000000,4.000000,4.000000,4.000000,4.000000,4.000000,4.000000,4.000000,4.000000,100.000000,,,,,,,,,,,,,,,,
1645709491.684407,235.000000,0.000000,4177.692383,4175.000000,4169.615234,4175.512695,4183.846191,4188.589844,4184.615234,4187.307617,4180.897461,4186.410156,4185.769043,4147.179688,4199.487305,4191.025879,3177.000000,4.000000,91.000000,,,,0.000000,4.000000,4.000000,4.000000,4.000000,4.000000,4.000000,4.000000,4.000000,4.000000,4.000000,4.000000,4.000000,4.000000,4.000000,100.000000,,,,,,,,,,,,,,,,
1645709491.688247,236.000000,0.000000,4182.051270,4179.615234,4170.641113,4176.666504,4184.871582,4189.615234,4186.538574,4187.563965,4180.897461,4187.563965,4187.307617,4147.692383,4200.256348,4193.589844,3200.000000,4.000000,91.000000,,,,0.000000,4.000000,4.000000,4.000000,4.000000,4.000000,4.000000,4.000000,4.000000,4.000000,4.000000,4.000000,4.000000,4.000000,4.000000,100.000000,,,,,,,,,,,,,,,,
1645709491.692188,237.000000,0.000000,4185.897461,4182.436035,4172.179688,4178.461426,4185.897461,4191.282227,4187.436035,4186.410156,4180.769043,4186.410156,4188.205078,4148.333496,4201.410156,4197.820313,3273.000000,4.000000,91.000000,,,,0.000000,4.000000,4.000000,4.000000,4.000000,4.000000,4.000000,4.000000,4.000000,4.000000,4.000000,4.000000,4.000000,4.000000,4.000000,100.000000,,,,,,,,,,,,,,,,
1645709491.696128,238.000000,0.000000,4187.051270,4183.205078,4172.820313,4180.000000,4186.922852,4192.179688,4186.153809,4185.000000,4180.512695,4184.102539,4189.230957,4148.974121,4202.563965,4202.179688,2507.000000,4.000000,91.000000,,,,0.000000,4.000000,4.000000,4.000000,4.000000,4.000000,4.000000,4.000000,4.000000,4.000000,4.000000,4.000000,4.000000,4.000000,4.000000,100.000000,,,,,,,,,,,,,,,,
1645709491.700068,239.000000,0.000000,4185.641113,4182.051270,4171.410156,4179.230957,4187.051270,4190.769043,4183.333496,4183.974121,4180.000000,4181.025879,4189.487305,4148.461426,4202.307617,4203.461426,3177.000000,4.000000,91.000000,,,,0.000000,4.000000,4.000000,4.000000,4.000000,4.000000,4.000000,4.000000,4.000000,4.000000,4.000000,4.000000,4.000000,4.000000,4.000000,100.000000,,,,,,,,,,,,,,,,
1645709491.704008,240.000000,0.000000,4182.179688,4179.358887,4167.948730,4176.025879,4185.512695,4187.948730,4181.282227,4183.333496,4179.871582,4177.563965,4187.948730,4146.025879,4199.358887,4200.256348,3200.000000,4.000000,91.000000,,,,0.000000,4.000000,4.000000,4.000000,4.000000,4.000000,4.000000,4.000000,4.000000,4.000000,4.000000,4.000000,4.000000,4.000000,4.000000,100.000000,,,,,,,,,,,,,,,,
1645709491.707948,241.000000,0.000000,4178.333496,4177.051270,4164.102539,4172.051270,4183.333496,4185.897461,4181.538574,4183.077148,4180.512695,4175.641113,4185.512695,4142.692383,4195.256348,4194.743652,3273.000000,4.000000,91.000000,,,,0.000000,4.000000,4.000000,4.000000,4.000000,4.000000,4.000000,4.000000,4.000000,4.000000,4.000000,4.000000,4.000000,4.000000,4.000000,100.000000,,,,,,,,,,,,,,,,
1645709491.711888,242.000000,0.000000,4175.641113,4177.948730,4162.179688,4170.384766,4182.307617,4186.410156,4183.333496,4182.948730,4181.794922,4176.922852,4184.102539,4140.128418,4192.820313,4191.538574,2507.000000,4.000000,91.000000,,,,0.000000,4.000000,4.000000,4.000000,4.000000,4.000000,4.000000,4.000000,4.000000,4.000000,4.000000,4.000000,4.000000,4.000000,4.000000,100.000000,,,,,,,,,,,,,,,,
1645709491.715828,243.000000,0.000000,4175.769043,4182.563965,4162.820313,4172.307617,4183.461426,4188.974121,4185.384766,4183.333496,4182.692383,4180.897461,4184.487305,4139.871582,4193.846191,4193.205078,3177.000000,4.000000,91.000000,,,,0.000000,4.000000,4.000000,4.000000,4.000000,4.000000,4.000000,4.000000,4.000000,4.000000,4.000000,4.000000,4.000000,4.000000,4.000000,100.000000,,,,,,,,,,,,,,,,
1645709491.719768,244.000000,0.000000,4178.717773,4188.974121,4165.641113,4176.025879,4185.897461,4191.153809,4186.282227,4183.717773,4182.563965,4184.615234,4185.641113,4141.410156,4197.436035,4198.205078,3200.000000,4.000000,91.000000,,,,0.000000,4.000000,4.000000,4.000000,4.000000,4.000000,4.000000,4.000000,4.000000,4.000000,4.000000,4.000000,4.000000,4.000000,4.000000,100.000000,,,,,,,,,,,,,,,,
1645709491.723708,245.000000,0.000000,4182.820313,4194.102539,4168.461426,4179.358887,4188.333496,4191.666504,4186.025879,4183.717773,4182.051270,4185.384766,4185.769043,4144.102539,4201.282227,4203.077148,3273.000000,4.000000,91.000000,,,,0.000000,4.000000,4.000000,4.000000,4.000000,4.000000,4.000000,4.000000,4.000000,4.000000,4.000000,4.000000,4.000000,4.000000,4.000000,100.000000,,,,,,,,,,,,,,,,
1645709491.727649,246.000000,0.000000,4185.512695,4196.922852,4169.487305,4180.641113,4189.615234,4190.897461,4185.512695,4183.333496,4182.307617,4183.846191,4184.743652,4146.922852,4203.205078,4205.000000,2507.000000,4.000000,91.000000,,,,0.000000,4.000000,4.000000,4.000000,4.000000,4.000000,4.000000,4.000000,4.000000,4.000000,4.000000,4.000000,4.000000,4.000000,4.000000,100.000000,,,,,,,,,,,,,,,,
1645709491.731589,247.000000,0.000000,4185.512695,4197.820313,4168.461426,4180.769043,4190.128418,4190.512695,4186.153809,4183.077148,4184.102539,4182.692383,4184.358887,4149.615234,4202.820313,4204.230957,3177.000000,4.000000,91.000000,,,,0.000000,4.000000,4.000000,4.000000,4.000000,4.000000,4.000000,4.000000,4.000000,4.000000,4.000000,4.000000,4.000000,4.000000,4.000000,100.000000,,,,,,,,,,,,,,,,
1645709491.735529,248.000000,0.000000,4183.589844,4197.563965,4166.666504,4180.384766,4190.000000,4190.897461,4187.692383,4183.461426,4186.538574,4183.974121,4185.128418,4151.282227,4201.025879,4202.563965,3200.000000,4.000000,91.000000,,,,0.000000,4.000000,4.000000,4.000000,4.000000,4.000000,4.000000,4.000000,4.000000,4.000000,4.000000,4.000000,4.000000,4.000000,4.000000,100.000000,,,,,,,,,,,,,,,,
1645709491.739369,249.000000,0.000000,4181.282227,4195.897461,4165.641113,4179.871582,4188.846191,4191.282227,4189.230957,4184.871582,4188.077148,4186.538574,4185.769043,4151.153809,4198.333496,4201.153809,3273.000000,4.000000,91.000000,,,,0.000000,4.000000,4.000000,4.000000,4.000000,4.000000,4.000000,4.000000,4.000000,4.000000,4.000000,4.000000,4.000000,4.000000,4.000000,100.000000,,,,,,,,,,,,,,,,
1645709491.743309,250.000000,0.000000,4179.615234,4193.205078,4166.153809,4178.974121,4186.538574,4190.769043,4188.974121,4186.282227,4187.436035,4188.077148,4185.000000,4149.743652,4195.897461,4199.358887,2507.000000,4.000000,91.000000,,,,0.000000,4.000000,4.000000,4.000000,4.000000,4.000000,4.000000,4.000000,4.000000,4.000000,4.000000,4.000000,4.000000,4.000000,4.000000,100.000000,,,,,,,,,,,,,,,,
1645709491.747249,251.000000,0.000000,4178.846191,4191.282227,4167.820313,4177.948730,4184.358887,4189.871582,4187.179688,4187.436035,4185.769043,4187.692383,4183.461426,4148.461426,4194.743652,4197.307617,3177.000000,4.000000,91.000000,,,,0.000000,4.000000,4.000000,4.000000,4.000000,4.000000,4.000000,4.000000,4.000000,4.000000,4.000000,4.000000,4.000000,4.000000,4.000000,100.000000,,,,,,,,,,,,,,,,
1645709491.751189,252.000000,0.000000,4178.589844,4192.051270,4170.128418,4177.307617,4184.487305,4190.128418,4185.384766,4188.205078,4184.871582,4186.666504,4183.077148,4149.102539,4195.512695,4196.666504,3200.000000,4.000000,91.000000,,,,0.000000,4.000000,4.000000,4.000000,4.000000,4.000000,4.000000,4.000000,4.000000,4.000000,4.000000,4.000000,4.000000,4.000000,4.000000,100.000000,,,,,,,,,,,,,,,,
1645709491.755129,253.000000,0.000000,4178.974121,4196.025879,4172.051270,4177.307617,4187.051270,4191.922852,4185.769043,4189.230957,4186.153809,4187.051270,4184.743652,4151.666504,4198.205078,4199.102539,3273.000000,4.000000,91.000000,,,,0.000000,4.000000,4.000000,4.000000,4.000000,4.000000,4.000000,4.000000,4.000000,4.000000,4.000000,4.000000,4.000000,4.000000,4.000000,100.000000,,,,,,,,,,,,,,,,
1645709491.759069,254.000000,0.000000,4179.615234,4201.153809,4173.333496,4177.436035,4190.384766,4194.871582,4189.102539,4191.282227,4188.589844,4189.102539,4187.692383,4154.358887,4201.410156,4203.846191,2507.000000,4.000000,91.000000,,,,0.000000,4.000000,4.000000,4.000000,4.000000,4.000000,4.000000,4.000000,4.000000,4.000000,4.000000,4.000000,4.000000,4.000000,4.000000,100.000000,,,,,,,,,,,,,,,,
1645709491.763010,255.000000,0.000000,4179.871582,4204.102539,4173.974121,4177.948730,4192.692383,4197.948730,4194.615234,4194.615234,4190.256348,4192.436035,4190.512695,4155.897461,4203.846191,4208.333496,114.000000,4.000000,91.000000,,,,0.000000,4.000000,4.000000,4.000000,4.000000,4.000000,4.000000,4.000000,4.000000,4.000000,4.000000,4.000000,4.000000,4.000000,4.000000,100.000000,,,,,,,,,,,,,,,,
1645709491.766950,0.000000,0.000000,4178.974121,4203.333496,4174.102539,4178.589844,4193.333496,4200.769043,4200.128418,4198.461426,4190.128418,4195.769043,4192.948730,4156.794922,4205.512695,4209.615234,3286.000000,4.000000,91.000000,,,,0.000000,4.000000,4.000000,4.000000,4.000000,4.000000,4.000000,4.000000,4.000000,4.000000,4.000000,4.000000,4.000000,4.000000,4.000000,100.000000,,,,,,,,,,,,,,,,
1645709491.770890,1.000000,0.000000,4177.179688,4200.256348,4173.846191,4179.102539,4192.692383,4202.692383,4203.717773,4201.282227,4189.615234,4198.333496,4195.256348,4158.077148,4206.410156,4207.179688,3419.000000,4.000000,91.000000,,,,0.000000,4.000000,4.000000,4.000000,4.000000,4.000000,4.000000,4.000000,4.000000,4.000000,4.000000,4.000000,4.000000,4.000000,4.000000,100.000000,,,,,,,,,,,,,,,,
1645709491.774830,2.000000,0.000000,4176.153809,4197.820313,4173.205078,4179.102539,4191.666504,4203.205078,4204.230957,4202.307617,4190.641113,4199.487305,4196.794922,4160.128418,4206.666504,4202.307617,2767.000000,4.000000,91.000000,,,,0.000000,4.000000,4.000000,4.000000,4.000000,4.000000,4.000000,4.000000,4.000000,4.000000,4.000000,4.000000,4.000000,4.000000,4.000000,100.000000,,,,,,,,,,,,,,,,
1645709491.778770,3.000000,0.000000,4176.922852,4197.948730,4172.307617,4179.102539,4190.256348,4201.922852,4202.563965,4201.922852,4193.333496,4198.205078,4196.025879,4161.666504,4205.384766,4197.307617,3243.000000,4.000000,91.000000,,,,0.000000,4.000000,4.000000,4.000000,4.000000,4.000000,4.000000,4.000000,4.000000,4.000000,4.000000,4.000000,4.000000,4.000000,4.000000,100.000000,,,,,,,,,,,,,,,,
1645709491.782710,4.000000,0.000000,4179.615234,4200.000000,4172.179688,4179.230957,4188.846191,4199.487305,4200.512695,4201.410156,4196.025879,4194.743652,4192.692383,4161.410156,4202.436035,4193.974121,3521.000000,4.000000,91.000000,,,,0.000000,4.000000,4.000000,4.000000,4.000000,4.000000,4.000000,4.000000,4.000000,4.000000,4.000000,4.000000,4.000000,4.000000,4.000000,100.000000,,,,,,,,,,,,,,,,
1645709491.786650,5.000000,0.000000,4182.051270,4201.666504,4172.563965,4179.487305,4187.948730,4197.307617,4200.128418,4201.410156,4196.922852,4191.410156,4188.974121,4159.358887,4198.589844,4193.717773,3225.000000,4.000000,91.000000,,,,0.000000,4.000000,4.000000,4.000000,4.000000,4.000000,4.000000,4.000000,4.000000,4.000000,4.000000,4.000000,4.000000,4.000000,4.000000,100.000000,,,,,,,,,,,,,,,,
1645709491.790590,6.000000,0.000000,4182.436035,4200.897461,4172.436035,4179.743652,4188.333496,4196.666504,4201.794922,4201.794922,4195.512695,4190.512695,4187.179688,4157.179688,4195.512695,4195.512695,3112.000000,4.000000,91.000000,,,,0.000000,4.000000,4.000000,4.000000,4.000000,4.000000,4.000000,4.000000,4.000000,4.000000,4.000000,4.000000,4.000000,4.000000,4.000000,100.000000,,,,,,,,,,,,,,,,
1645709491.794530,7.000000,0.000000,4180.512695,4198.077148,4171.153809,4179.487305,4189.487305,4196.922852,4203.589844,4201.666504,4192.820313,4192.179688,4187.820313,4156.666504,4194.102539,4197.692383,2902.000000,4.000000,91.000000,,,,0.000000,4.000000,4.000000,4.000000,4.000000,4.000000,4.000000,4.000000,4.000000,4.000000,4.000000,4.000000,4.000000,4.000000,4.000000,100.000000,,,,,,,,,,,,,,,,
1645709491.798471,8.000000,0.000000,4178.717773,4195.384766,4169.230957,4178.461426,4190.128418,4196.666504,4203.333496,4199.487305,4190.384766,4193.717773,4189.102539,4157.692383,4193.717773,4198.077148,1648.000000,4.000000,91.000000,,,,0.000000,4.000000,4.000000,4.000000,4.000000,4.000000,4.000000,4.000000,4.000000,4.000000,4.000000,4.000000,4.000000,4.000000,4.000000,100.000000,,,,,,,,,,,,,,,,
1645709491.802411,9.000000,0.000000,4179.102539,4196.025879,4168.461426,4177.307617,4189.230957,4194.743652,4199.615234,4194.487305,4189.871582,4192.179688,4188.846191,4158.846191,4193.461426,4196.666504,3290.000000,4.000000,91.000000,,,,0.000000,4.000000,4.000000,4.000000,4.000000,4.000000,4.000000,4.000000,4.000000,4.000000,4.000000,4.000000,4.000000,4.000000,4.000000,100.000000,,,,,,,,,,,,,,,,
1645709491.806351,10.000000,0.000000,4182.179688,4201.153809,4170.256348,4177.179688,4187.692383,4191.538574,4194.102539,4187.436035,4191.025879,4187.307617,4186.410156,4159.230957,4192.563965,4194.871582,2507.000000,4.000000,91.000000,,,,0.000000,4.000000,4.000000,4.000000,4.000000,4.000000,4.000000,4.000000,4.000000,4.000000,4.000000,4.000000,4.000000,4.000000,4.000000,100.000000,,,,,,,,,,,,,,,,
1645709491.810191,11.000000,0.000000,4186.025879,4208.974121,4174.615234,4179.102539,4187.179688,4188.589844,4189.358887,4181.153809,4192.563965,4181.025879,4183.333496,4158.974121,4191.794922,4195.000000,3191.000000,4.000000,91.000000,,,,0.000000,4.000000,4.000000,4.000000,4.000000,4.000000,4.000000,4.000000,4.000000,4.000000,4.000000,4.000000,4.000000,4.000000,4.000000,100.000000,,,,,,,,,,,,,,,,
1645709491.814131,12.000000,0.000000,4189.102539,4215.384766,4180.128418,4182.692383,4188.077148,4186.410156,4186.538574,4177.820313,4191.922852,4176.153809,4181.025879,4159.358887,4191.538574,4197.692383,3481.000000,4.000000,91.000000,,,,0.000000,4.000000,4.000000,4.000000,4.000000,4.000000,4.000000,4.000000,4.000000,4.000000,4.000000,4.000000,4.000000,4.000000,4.000000,100.000000,,,,,,,,,,,,,,,,
1645709491.818071,13.000000,0.000000,4190.897461,4217.436035,4184.743652,4186.410156,4188.846191,4184.230957,4185.128418,4178.077148,4188.846191,4173.717773,4180.512695,4161.538574,4191.282227,4201.410156,3288.000000,4.000000,91.000000,,,,0.000000,4.000000,4.000000,4.000000,4.000000,4.000000,4.000000,4.000000,4.000000,4.000000,4.000000,4.000000,4.000000,4.000000,4.000000,100.000000,,,,,,,,,,,,,,,,
1645709491.822011,14.000000,0.000000,4192.051270,4216.282227,4186.794922,4188.461426,4188.205078,4181.025879,4184.230957,4179.615234,4184.871582,4173.205078,4182.051270,4165.769043,4191.153809,4204.102539,2507.000000,4.000000,91.000000,,,,0.000000,4.000000,4.000000,4.000000,4.000000,4.000000,4.000000,4.000000,4.000000,4.000000,4.000000,4.000000,4.000000,4.000000,4.000000,100.000000,,,,,,,,,,,,,,,,
1645709491.825951,15.000000,0.000000,4193.205078,4215.128418,4186.794922,4188.974121,4186.410156,4177.436035,4183.077148,4180.000000,4182.948730,4174.102539,4185.128418,4171.153809,4191.538574,4205.512695,3191.000000,4.000000,91.000000,,,,0.000000,4.000000,4.000000,4.000000,4.000000,4.000000,4.000000,4.000000,4.000000,4.000000,4.000000,4.000000,4.000000,4.000000,4.000000,100.000000,,,,,,,,,,,,,,,,
1645709491.829891,16.000000,0.000000,4193.846191,4216.538574,4186.538574,4188.974121,4184.871582,4175.769043,4181.794922,4178.205078,4183.846191,4175.512695,4188.717773,4175.897461,4193.333496,4206.410156,3481.000000,4.000000,91.000000,,,,0.000000,4.000000,4.000000,4.000000,4.000000,4.000000,4.000000,4.000000,4.000000,4.000000,4.000000,4.000000,4.000000,4.000000,4.000000,100.000000,,,,,,,,,,,,,,,,
1645709491.833832,17.000000,0.000000,4193.846191,4220.000000,4187.820313,4189.743652,4184.487305,4177.307617,4181.282227,4175.256348,4186.025879,4177.051270,4192.179688,4178.077148,4196.410156,4207.692383,3288.000000,4.000000,91.000000,,,,0.000000,4.000000,4.000000,4.000000,4.000000,4.000000,4.000000,4.000000,4.000000,4.000000,4.000000,4.000000,4.000000,4.000000,4.000000,100.000000,,,,,,,,,,,,,,,,
1645709491.837772,18.000000,0.000000,4194.102539,4222.436035,4191.410156,4191.025879,4184.615234,4181.153809,4181.282227,4172.948730,4186.794922,4178.717773,4194.743652,4177.692383,4199.743652,4208.717773,2507.000000,4.000000,91.000000,,,,0.000000,4.000000,4.000000,4.000000,4.000000,4.000000,4.000000,4.000000,4.000000,4.000000,4.000000,4.000000,4.000000,4.000000,4.000000,100.000000,,,,,,,,,,,,,,,,
1645709491.841712,19.000000,0.000000,4196.025879,4221.794922,4196.410156,4192.307617,4185.000000,4185.256348,4181.794922,4173.461426,4185.512695,4180.641113,4196.666504,4176.794922,4202.307617,4209.487305,3191.000000,4.000000,91.000000,,,,0.000000,4.000000,4.000000,4.000000,4.000000,4.000000,4.000000,4.000000,4.000000,4.000000,4.000000,4.000000,4.000000,4.000000,4.000000,100.000000,,,,,,,,,,,,,,,,
1645709491.845652,20.000000,0.000000,4198.846191,4218.077148,4201.153809,4192.948730,4185.512695,4187.948730,4183.077148,4177.563965,4184.102539,4183.717773,4198.589844,4178.846191,4203.461426,4210.512695,3481.000000,4.000000,91.000000,,,,0.000000,4.000000,4.000000,4.000000,4.000000,4.000000,4.000000,4.000000,4.000000,4.000000,4.000000,4.000000,4.000000,4.000000,4.000000,100.000000,,,,,,,,,,,,,,,,
1645709491.849592,21.000000,0.000000,4201.410156,4213.461426,4203.974121,4193.589844,4187.051270,4188.717773,4185.512695,4184.358887,4184.743652,4187.692383,4201.153809,4184.743652,4203.717773,4212.307617,3288.000000,4.000000,91.000000,,,,0.000000,4.000000,4.000000,4.000000,4.000000,4.000000,4.000000,4.000000,4.000000,4.000000,4.000000,4.000000,4.000000,4.000000,4.000000,100.000000,,,,,,,,,,,,,,,,
1645709491.853532,22.000000,0.000000,4202.820313,4209.743652,4204.871582,4194.487305,4189.358887,4188.589844,4188.461426,4191.666504,4187.436035,4191.410156,4203.717773,4191.666504,4203.846191,4213.974121,2507.000000,4.000000,91.000000,,,,0.000000,4.000000,4.000000,4.000000,4.000000,4.000000,4.000000,4.000000,4.000000,4.000000,4.000000,4.000000,4.000000,4.000000,4.000000,100.000000,,,,,,,,,,,,,,,,
1645709491.857472,23.000000,0.000000,4203.205078,4206.666504,4204.487305,4195.256348,4191.794922,4188.333496,4190.641113,4196.794922,4189.743652,4192.692383,4204.487305,4195.384766,4203.589844,4214.102539,3191.000000,4.000000,91.000000,,,,0.000000,4.000000,4.000000,4.000000,4.000000,4.000000,4.000000,4.000000,4.000000,4.000000,4.000000,4.000000,4.000000,4.000000,4.000000,100.000000,,,,,,,,,,,,,,,,
1645709491.861412,24.000000,0.000000,4203.333496,4202.820313,4204.230957,4195.000000,4193.077148,4188.333496,4191.538574,4198.461426,4189.871582,4190.897461,4202.307617,4193.461426,4201.922852,4211.794922,3481.000000,4.000000,91.000000,,,,0.000000,4.000000,4.000000,4.000000,4.000000,4.000000,4.000000,4.000000,4.000000,4.000000,4.000000,4.000000,4.000000,4.000000,4.000000,100.000000,,,,,,,,,,,,,,,,
1645709491.865352,25.000000,0.000000,4202.820313,4197.563965,4204.102539,4193.717773,4193.717773,4188.846191,4191.666504,4197.436035,4188.077148,4188.077148,4198.077148,4186.794922,4198.846191,4208.461426,3288.000000,4.000000,91.000000,,,,0.000000,4.000000,4.000000,4.000000,4.000000,4.000000,4.000000,4.000000,4.000000,4.000000,4.000000,4.000000,4.000000,4.000000,4.000000,100.000000,,,,,,,,,,,,,,,,
1645709491.869293,26.000000,0.000000,4201.153809,4192.436035,4202.948730,4193.077148,4194.615234,4190.256348,4192.820313,4196.538574,4186.410156,4187.179688,4194.102539,4179.615234,4195.769043,4205.897461,2507.000000,4.000000,91.000000,,,,0.000000,4.000000,4.000000,4.000000,4.000000,4.000000,4.000000,4.000000,4.000000,4.000000,4.000000,4.000000,4.000000,4.000000,4.000000,100.000000,1.000000,100.000000,4.000000,4.000000,4.000000,4.000000,4.000000,4.000000,4.000000,4.000000,4.000000,4.000000,4.000000,4.000000,4.000000,4.000000
1645709491.873133,27.000000,0.000000,4199.102539,4189.358887,4200.384766,4193.974121,4196.153809,4192.563965,4195.512695,4198.333496,4186.538574,4189.358887,4192.051270,4174.743652,4194.102539,4204.743652,3191.000000,4.000000,91.000000,,,,0.000000,4.000000,4.000000,4.000000,4.000000,4.000000,4.000000,4.000000,4.000000,4.000000,4.000000,4.000000,4.000000,4.000000,4.000000,100.000000,,,,,,,,,,,,,,,,
1645709491.877073,28.000000,0.000000,4197.563965,4188.846191,4196.538574,4194.871582,4197.563965,4195.000000,4198.461426,4202.692383,4188.333496,4192.692383,4191.410156,4173.077148,4193.589844,4204.230957,3481.000000,4.000000,91.000000,,,,0.000000,4.000000,4.000000,4.000000,4.000000,4.000000,4.000000,4.000000,4.000000,4.000000,4.000000,4.000000,4.000000,4.000000,4.000000,100.000000,,,,,,,,,,,,,,,,
1645709491.881013,29.000000,0.000000,4196.538574,4190.000000,4192.307617,4193.974121,4197.563965,4196.025879,4199.487305,4206.794922,4190.769043,4194.230957,4190.769043,4172.436035,4193.461426,4202.179688,3288.000000,4.000000,91.000000,,,,0.000000,4.000000,4.000000,4.000000,4.000000,4.000000,4.000000,4.000000,4.000000,4.000000,4.000000,4.000000,4.000000,4.000000,4.000000,100.000000,,,,,,,,,,,,,,,,
1645709491.884953,30.000000,0.000000,4194.743652,4191.666504,4188.461426,4190.256348,4196.410156,4195.128418,4197.563965,4207.692383,4192.179688,4192.563965,4188.717773,4170.641113,4192.692383,4198.077148,2507.000000,4.000000,91.000000,,,,0.000000,4.000000,4.000000,4.000000,4.000000,4.000000,4.000000,4.000000,4.000000,4.000000,4.000000,4.000000,4.000000,4.000000,4.000000,100.000000,,,,,,,,,,,,,,,,
1645709491.888893,31.000000,0.000000,4190.769043,4192.820313,4185.512695,4185.384766,4194.871582,4192.563965,4193.333496,4204.230957,4191.794922,4188.717773,4185.000000,4167.051270,4191.025879,4192.948730,3191.000000,4.000000,91.000000,,,,0.000000,4.000000,4.000000,4.000000,4.000000,4.000000,4.000000,4.000000,4.000000,4.000000,4.000000,4.000000,4.000000,4.000000,4.000000,100.000000,,,,,,,,,,,,,,,,
1645709491.892833,32.000000,0.000000,4185.769043,4193.077148,4183.717773,4180.897461,4193.077148,4189.358887,4188.974121,4198.333496,4189.487305,4184.102539,4179.871582,4161.794922,4187.692383,4188.205078,0.000000,4.000000,91.000000,,,,0.000000,4.000000,4.000000,4.000000,4.000000,4.000000,4.000000,4.000000,4.000000,4.000000,4.000000,4.000000,4.000000,4.000000,4.000000,100.000000,,,,,,,,,,,,,,,,
1645709491.896773,33.000000,0.000000,4182.179688,4192.179688,4182.436035,4178.589844,4190.897461,4186.153809,4186.794922,4192.436035,4186.282227,4179.487305,4174.230957,4156.025879,4182.948730,4184.615234,0.000000,4.000000,91.000000,,,,0.000000,4.000000,4.000000,4.000000,4.000000,4.000000,4.000000,4.000000,4.000000,4.000000,4.000000,4.000000,4.000000,4.000000,4.000000,100.000000,,,,,,,,,,,,,,,,
1645709491.900713,34.000000,0.000000,4181.794922,4190.384766,4181.922852,4179.230957,4188.717773,4183.974121,4187.820313,4189.102539,4183.717773,4175.384766,4169.230957,4151.410156,4177.820313,4182.436035,0.000000,4.000000,91.000000,,,,0.000000,4.000000,4.000000,4.000000,4.000000,4.000000,4.000000,4.000000,4.000000,4.000000,4.000000,4.000000,4.000000,4.000000,4.000000,100.000000,,,,,,,,,,,,,,,,
1645709491.904654,35.000000,0.000000,4184.102539,4188.461426,4182.307617,4182.436035,4188.205078,4183.717773,4191.025879,4189.358887,4182.692383,4172.307617,4166.410156,4149.230957,4174.615234,4181.282227,0.000000,4.000000,91.000000,,,,0.000000,4.000000,4.000000,4.000000,4.000000,4.000000,4.000000,4.000000,4.000000,4.000000,4.000000,4.000000,4.000000,4.000000,4.000000,100.000000,,,,,,,,,,,,,,,,
1645709491.908594,36.000000,0.000000,4186.922852,4187.051270,4183.717773,4186.153809,4190.128418,4185.512695,4193.333496,4191.794922,4183.077148,4171.410156,4167.436035,4150.000000,4175.641113,4182.051270,0.000000,4.000000,91.000000,,,,0.000000,4.000000,4.000000,4.000000,4.000000,4.000000,4.000000,4.000000,4.000000,4.000000,4.000000,4.000000,4.000000,4.000000,4.000000,100.000000,,,,,,,,,,,,,,,,
1645709491.912534,37.000000,0.000000,4188.333496,4185.384766,4184.871582,4187.820313,4193.205078,4187.307617,4192.948730,4193.333496,4183.846191,4172.563965,4171.794922,4153.333496,4180.512695,4185.000000,0.000000,4.000000,91.000000,,,,0.000000,4.000000,4.000000,4.000000,4.000000,4.000000,4.000000,4.000000,4.000000,4.000000,4.000000,4.000000,4.000000,4.000000,4.000000,100.000000,,,,,,,,,,,,,,,,
1645709491.916474,38.000000,0.000000,4188.333496,4182.692383,4185.000000,4185.641113,4194.615234,4186.794922,4189.358887,4191.538574,4184.358887,4174.871582,4176.922852,4157.948730,4187.179688,4189.487305,0.000000,4.000000,91.000000,,,,0.000000,4.000000,4.000000,4.000000,4.000000,4.000000,4.000000,4.000000,4.000000,4.000000,4.000000,4.000000,4.000000,4.000000,4.000000,100.000000,,,,,,,,,,,,,,,,
1645709491.920314,39.000000,0.000000,4188.205078,4178.846191,4184.230957,4180.641113,4193.077148,4183.461426,4184.871582,4186.666504,4183.974121,4176.410156,4180.384766,4162.692383,4192.948730,4194.102539,0.000000,4.000000,91.000000,,,,0.000000,4.000000,4.000000,4.000000,4.000000,4.000000,4.000000,4.000000,4.000000,4.000000,4.000000,4.000000,4.000000,4.000000,4.000000,100.000000,,,,,,,,,,,,,,,,
1645709491.924254,40.000000,0.000000,4189.230957,4176.153809,4184.230957,4176.666504,4190.000000,4179.358887,4182.179688,4181.666504,4183.589844,4176.922852,4182.051270,4166.922852,4196.538574,4197.563965,0.000000,4.000000,91.000000,,,,0.000000,4.000000,4.000000,4.000000,4.000000,4.000000,4.000000,4.000000,4.000000,4.000000,4.000000,4.000000,4.000000,4.000000,4.000000,100.000000,,,,,,,,,,,,,,,,
1645709491.928194,41.000000,0.000000,4191.794922,4177.692383,4186.025879,4177.563965,4188.589844,4177.563965,4182.948730,4179.102539,4183.974121,4177.436035,4183.846191,4170.897461,4199.230957,4199.358887,0.000000,4.000000,91.000000,,,,0.000000,4.000000,4.000000,4.000000,4.000000,4.000000,4.000000,4.000000,4.000000,4.000000,4.000000,4.000000,4.000000,4.000000,4.000000,100.000000,,,,,,,,,,,,,,,,
1645709491.932134,42.000000,0.000000,4194.871582,4184.358887,4190.000000,4184.102539,4190.384766,4178.974121,4185.641113,4179.743652,4185.256348,4179.615234,4187.307617,4174.615234,4202.948730,4200.641113,0.000000,4.000000,91.000000,,,,0.000000,4.000000,4.000000,4.000000,4.000000,4.000000,4.000000,4.000000,4.000000,4.000000,4.000000,4.000000,4.000000,4.000000,4.000000,100.000000,,,,,,,,,,,,,,,,
1645709491.936075,43.000000,0.000000,4197.051270,4193.717773,4193.846191,4192.307617,4193.846191,4181.538574,4186.922852,4182.179688,4186.538574,4183.077148,4191.025879,4177.692383,4208.077148,4202.307617,0.000000,4.000000,91.000000,,,,0.000000,4.000000,4.000000,4.000000,4.000000,4.000000,4.000000,4.000000,4.000000,4.000000,4.000000,4.000000,4.000000,4.000000,4.000000,100.000000,,,,,,,,,,,,,,,,
1645709491.940015,44.000000,0.000000,4196.922852,4200.897461,4195.000000,4197.051270,4195.256348,4182.179688,4184.743652,4184.358887,4186.794922,4185.512695,4191.794922,4178.333496,4212.820313,4203.717773,0.000000,4.000000,91.000000,,,,0.000000,4.000000,4.000000,4.000000,4.000000,4.000000,4.000000,4.000000,4.000000,4.000000,4.000000,4.000000,4.000000,4.000000,4.000000,100.000000,,,,,,,,,,,,,,,,
1645709491.943955,45.000000,0.000000,4194.615234,4203.717773,4192.051270,4195.897461,4192.436035,4179.743652,4179.871582,4185.256348,4185.769043,4185.384766,4188.846191,4175.641113,4215.256348,4204.102539,0.000000,4.000000,91.000000,,,,0.000000,4.000000,4.000000,4.000000,4.000000,4.000000,4.000000,4.000000,4.000000,4.000000,4.000000,4.000000,4.000000,4.000000,4.000000,100.000000,,,,,,,,,,,,,,,,
1645709491.947895,46.000000,0.000000,4191.922852,4203.333496,4187.051270,4191.538574,4187.307617,4176.410156,4175.256348,4184.743652,4184.230957,4183.333496,4184.743652,4171.666504,4215.000000,4204.102539,0.000000,4.000000,91.000000,,,,0.000000,4.000000,4.000000,4.000000,4.000000,4.000000,4.000000,4.000000,4.000000,4.000000,4.000000,4.000000,4.000000,4.000000,4.000000,100.000000,,,,,,,,,,,,,,,,
1645709491.951835,47.000000,0.000000,4190.512695,4203.589844,4183.846191,4189.102539,4183.589844,4174.871582,4173.461426,4184.102539,4183.205078,4181.794922,4183.461426,4169.743652,4214.102539,4204.743652,0.000000,4.000000,91.000000,,,,0.000000,4.000000,4.000000,4.000000,4.000000,4.000000,4.000000,4.000000,4.000000,4.000000,4.000000,4.000000,4.000000,4.000000,4.000000,100.000000,,,,,,,,,,,,,,,,
1645709491.955775,48.000000,0.000000,4191.538574,4206.410156,4184.358887,4190.641113,4183.717773,4175.769043,4174.743652,4184.230957,4183.717773,4182.436035,4186.282227,4171.666504,4214.358887,4206.538574,0.000000,4.000000,91.000000,,,,0.000000,4.000000,4.000000,4.000000,4.000000,4.000000,4.000000,4.000000,4.000000,4.000000,4.000000,4.000000,4.000000,4.000000,4.000000,100.000000,,,,,,,,,,,,,,,,
1645709491.959715,49.000000,0.000000,4194.102539,4210.512695,4187.179688,4194.102539,4186.538574,4177.307617,4177.051270,4185.000000,4185.128418,4184.358887,4190.512695,4175.256348,4216.282227,4208.333496,0.000000,4.000000,91.000000,,,,0.000000,4.000000,4.000000,4.000000,4.000000,4.000000,4.000000,4.000000,4.000000,4.000000,4.000000,4.000000,4.000000,4.000000,4.000000,100.000000,,,,,,,,,,,,,,,,
1645709491.963655,50.000000,0.000000,4196.025879,4213.333496,4188.589844,4195.769043,4189.487305,4177.820313,4178.589844,4186.153809,4186.410156,4185.512695,4192.307617,4176.666504,4218.205078,4208.461426,0.000000,4.000000,91.000000,,,,0.000000,4.000000,4.000000,4.000000,4.000000,4.000000,4.000000,4.000000,4.000000,4.000000,4.000000,4.000000,4.000000,4.000000,4.000000,100.000000,,,,,,,,,,,,,,,,
1645709491.967595,51.000000,0.000000,4195.641113,4213.333496,4186.025879,4193.974121,4191.153809,4177.563965,4178.846191,4187.436035,4186.922852,4184.358887,4189.743652,4174.230957,4218.077148,4206.282227,0.000000,4.000000,91.000000,,,,0.000000,4.000000,4.000000,4.000000,4.000000,4.000000,4.000000,4.000000,4.000000,4.000000,4.000000,4.000000,4.000000,4.000000,4.000000,100.000000,,,,,,,,,,,,,,,,
1645709491.971535,52.000000,0.000000,4192.179688,4210.769043,4180.256348,4190.128418,4192.051270,4178.077148,4178.717773,4188.717773,4187.307617,4181.410156,4184.743652,4169.102539,4215.641113,4202.179688,0.000000,4.000000,91.000000,,,,0.000000,4.000000,4.000000,4.000000,4.000000,4.000000,4.000000,4.000000,4.000000,4.000000,4.000000,4.000000,4.000000,4.000000,4.000000,100.000000,,,,,,,,,,,,,,,,
1645709491.975476,53.000000,0.000000,4187.563965,4207.563965,4174.358887,4186.922852,4193.333496,4180.384766,4179.358887,4189.358887,4188.717773,4178.461426,4180.384766,4163.846191,4212.051270,4197.436035,0.000000,4.000000,91.000000,,,,0.000000,4.000000,4.000000,4.000000,4.000000,4.000000,4.000000,4.000000,4.000000,4.000000,4.000000,4.000000,4.000000,4.000000,4.000000,100.000000,,,,,,,,,,,,,,,,
1645709491.979316,54.000000,0.000000,4184.230957,4205.512695,4171.922852,4185.769043,4195.128418,4183.589844,4180.897461,4188.461426,4190.512695,4176.410156,4178.333496,4160.000000,4208.974121,4193.589844,0.000000,4.000000,91.000000,,,,0.000000,4.000000,4.000000,4.000000,4.000000,4.000000,4.000000,4.000000,4.000000,4.000000,4.000000,4.000000,4.000000,4.000000,4.000000,100.000000,,,,,,,,,,,,,,,,
1645709491.983256,55.000000,0.000000,4183.974121,4206.410156,4174.102539,4186.794922,4196.666504,4186.025879,4183.077148,4186.025879,4191.025879,4175.512695,4178.333496,4158.077148,4207.051270,4191.922852,0.000000,4.000000,91.000000,,,,0.000000,4.000000,4.000000,4.000000,4.000000,4.000000,4.000000,4.000000,4.000000,4.000000,4.000000,4.000000,4.000000,4.000000,4.000000,100.000000,,,,,,,,,,,,,,,,
1645709491.987196,56.000000,0.000000,4186.410156,4210.384766,4179.358887,4189.358887,4198.077148,4187.307617,4184.871582,4183.717773,4189.487305,4176.282227,4179.871582,4158.077148,4207.436035,4193.333496,0.000000,4.000000,91.000000,,,,0.000000,4.000000,4.000000,4.000000,4.000000,4.000000,4.000000,4.000000,4.000000,4.000000,4.000000,4.000000,4.000000,4.000000,4.000000,100.000000,,,,,,,,,,,,,,,,
1645709491.991136,57.000000,0.000000,4189.743652,4216.922852,4184.871582,4193.205078,4200.000000,4187.948730,4186.025879,4183.717773,4187.692383,4179.102539,4182.436035,4160.128418,4211.153809,4198.077148,0.000000,4.000000,91.000000,,,,0.000000,4.000000,4.000000,4.000000,4.000000,4.000000,4.000000,4.000000,4.000000,4.000000,4.000000,4.000000,4.000000,4.000000,4.000000,100.000000,,,,,,,,,,,,,,,,
1645709491.995076,58.000000,0.000000,4192.563965,4223.589844,4188.717773,4197.179688,4202.948730,4188.717773,4186.666504,4186.666504,4188.205078,4183.974121,4186.153809,4163.461426,4217.307617,4204.102539,0.000000,4.000000,91.000000,,,,0.000000,4.000000,4.000000,4.000000,4.000000,4.000000,4.000000,4.000000,4.000000,4.000000,4.000000,4.000000,4.000000,4.000000,4.000000,100.000000,,,,,,,,,,,,,,,,
1645709491.999016,59.000000,0.000000,4194.615234,4226.922852,4190.128418,4199.743652,4205.769043,4190.128418,4187.307617,4191.410156,4191.538574,4188.846191,4190.256348,4166.666504,4223.333496,4208.846191,0.000000,4.000000,91.000000,,,,0.000000,4.000000,4.000000,4.000000,4.000000,4.000000,4.000000,4.000000,4.000000,4.000000,4.000000,4.000000,4.000000,4.000000,4.000000,100.000000,,,,,,,,,,,,,,,,
1645709492.002956,60.000000,0.000000,4195.641113,4225.256348,4189.743652,4199.743652,4207.051270,4191.922852,4188.461426,4195.512695,4195.256348,4191.538574,4193.205078,4168.717773,4226.025879,4210.256348,0.000000,4.000000,91.000000,,,,0.000000,4.000000,4.000000,4.000000,4.000000,4.000000,4.000000,4.000000,4.000000,4.000000,4.000000,4.000000,4.000000,4.000000,4.000000,100.000000,,,,,,,,,,,,,,,,
1645709492.006897,61.000000,0.000000,4194.743652,4219.358887,4188.461426,4197.820313,4206.538574,4193.589844,4189.871582,4196.794922,4196.666504,4191.666504,4193.974121,4168.846191,4223.846191,4208.461426,0.000000,4.000000,91.000000,,,,0.000000,4.000000,4.000000,4.000000,4.000000,4.000000,4.000000,4.000000,4.000000,4.000000,4.000000,4.000000,4.000000,4.000000,4.000000,100.000000,,,,,,,,,,,,,,,,
1645709492.010837,62.000000,0.000000,4191.282227,4212.563965,4187.436035,4195.128418,4205.128418,4194.871582,4190.769043,4194.487305,4195.512695,4190.128418,4192.436035,4166.794922,4218.974121,4205.256348,0.000000,4.000000,91.000000,,,,0.000000,4.000000,4.000000,4.000000,4.000000,4.000000,4.000000,4.000000,4.000000,4.000000,4.000000,4.000000,4.000000,4.000000,4.000000,100.000000,,,,,,,,,,,,,,,,
1645709492.014777,63.000000,0.000000,4187.051270,4208.333496,4186.538574,4193.333496,4203.846191,4195.000000,4189.743652,4189.871582,4193.333496,4188.333496,4190.128418,4163.589844,4215.128418,4202.692383,0.000000,4.000000,91.000000,,,,0.000000,4.000000,4.000000,4.000000,4.000000,4.000000,4.000000,4.000000,4.000000,4.000000,4.000000,4.000000,4.000000,4.000000,4.000000,100.000000,,,,,,,,,,,,,,,,
1645709492.018717,64.000000,0.000000,4184.615234,4207.692383,4185.384766,4192.692383,4202.563965,4193.077148,4186.666504,4185.384766,4191.922852,4187.051270,4188.974121,4160.641113,4215.000000,4202.436035,0.000000,4.000000,91.000000,,,,0.000000,4.000000,4.000000,4.000000,4.000000,4.000000,4.000000,4.000000,4.000000,4.000000,4.000000,4.000000,4.000000,4.000000,4.000000,100.000000,,,,,,,,,,,,,,,,
1645709492.022657,65.000000,0.000000,4185.512695,4208.717773,4184.358887,4192.948730,4201.025879,4189.743652,4183.589844,4182.820313,4191.538574,4186.666504,4190.384766,4160.256348,4218.717773,4205.512695,0.000000,4.000000,91.000000,,,,0.000000,4.000000,4.000000,4.000000,4.000000,4.000000,4.000000,4.000000,4.000000,4.000000,4.000000,4.000000,4.000000,4.000000,4.000000,100.000000,,,,,,,,,,,,,,,,
1645709492.026597,66.000000,0.000000,4187.948730,4208.846191,4184.102539,4193.461426,4199.743652,4187.307617,4182.563965,4183.461426,4191.666504,4188.077148,4194.871582,4163.333496,4223.974121,4210.769043,0.000000,4.000000,91.000000,,,,0.000000,4.000000,4.000000,4.000000,4.000000,4.000000,4.000000,4.000000,4.000000,4.000000,4.000000,4.000000,4.000000,4.000000,4.000000,100.000000,,,,,,,,,,,,,,,,
1645709492.030537,67.000000,0.000000,4189.230957,4207.307617,4185.000000,4193.974121,4199.487305,4187.692383,4184.487305,4186.922852,4192.436035,4191.666504,4200.769043,4168.846191,4228.205078,4215.641113,0.000000,4.000000,91.000000,,,,0.000000,4.000000,4.000000,4.000000,4.000000,4.000000,4.000000,4.000000,4.000000,4.000000,4.000000,4.000000,4.000000,4.000000,4.000000,100.000000,,,,,,,,,,,,,,,,
1645709492.034377,68.000000,0.000000,4188.077148,4205.000000,4186.025879,4193.589844,4200.000000,4190.641113,4188.077148,4191.025879,4193.846191,4196.025879,4204.615234,4173.589844,4229.358887,4216.794922,0.000000,4.000000,91.000000,,,,0.000000,4.000000,4.000000,4.000000,4.000000,4.000000,4.000000,4.000000,4.000000,4.000000,4.000000,4.000000,4.000000,4.000000,4.000000,100.000000,,,,,,,,,,,,,,,,
1645709492.038317,69.000000,0.000000,4185.769043,4202.692383,4185.641113,4191.666504,4199.487305,4193.846191,4191.410156,4193.589844,4195.256348,4197.948730,4203.589844,4174.743652,4226.794922,4212.307617,0.000000,4.000000,91.000000,,,,0.000000,4.000000,4.000000,4.000000,4.000000,4.000000,4.000000,4.000000,4.000000,4.000000,4.000000,4.000000,4.000000,4.000000,4.000000,100.000000,,,,,,,,,,,,,,,,
1645709492.042258,70.000000,0.000000,4183.589844,4199.615234,4183.077148,4187.948730,4196.794922,4194.743652,4192.692383,4193.846191,4195.512695,4195.512695,4197.948730,4171.153809,4222.051270,4203.589844,0.000000,4.000000,91.000000,,,,0.000000,4.000000,4.000000,4.000000,4.000000,4.000000,4.000000,4.000000,4.000000,4.000000,4.000000,4.000000,4.000000,4.000000,4.000000,100.000000,,,,,,,,,,,,,,,,
1645709492.046198,71.000000,0.000000,4182.051270,4194.230957,4178.974121,4183.461426,4192.436035,4192.692383,4191.538574,4192.692383,4193.846191,4189.358887,4190.769043,4164.487305,4217.179688,4194.102539,0.000000,4.000000,91.000000,,,,0.000000,4.000000,4.000000,4.000000,4.000000,4.000000,4.000000,4.000000,4.000000,4.000000,4.000000,4.000000,4.000000,4.000000,4.000000,100.000000,,,,,,,,,,,,,,,,
1645709492.050138,72.000000,0.000000,4180.641113,4186.153809,4175.000000,4179.871582,4188.717773,4189.230957,4188.974121,4191.794922,4191.538574,4182.692383,4185.769043,4157.692383,4213.846191,4187.307617,0.000000,4.000000,91.000000,,,,0.000000,4.000000,4.000000,4.000000,4.000000,4.000000,4.000000,4.000000,4.000000,4.000000,4.000000,4.000000,4.000000,4.000000,4.000000,100.000000,,,,,,,,,,,,,,,,
1645709492.053978,73.000000,0.000000,4178.974121,4176.922852,4171.666504,4178.333496,4186.794922,4186.410156,4187.307617,4192.051270,4189.743652,4178.589844,4184.615234,4153.205078,4212.307617,4185.128418,0.000000,4.000000,91.000000,,,,0.000000,4.000000,4.000000,4.000000,4.000000,4.000000,4.000000,4.000000,4.000000,4.000000,4.000000,4.000000,4.000000,4.000000,4.000000,100.000000,,,,,,,,,,,,,,,,
1645709492.057918,74.000000,0.000000,4177.692383,4169.102539,4169.487305,4178.974121,4186.794922,4185.769043,4188.333496,4193.717773,4189.230957,4177.820313,4186.282227,4151.922852,4211.282227,4187.436035,0.000000,4.000000,91.000000,,,,0.000000,4.000000,4.000000,4.000000,4.000000,4.000000,4.000000,4.000000,4.000000,4.000000,4.000000,4.000000,4.000000,4.000000,4.000000,100.000000,,,,,,,,,,,,,,,,
1645709492.061858,75.000000,0.000000,4177.692383,4165.000000,4168.589844,4180.641113,4187.948730,4188.077148,4192.179688,4196.538574,4190.128418,4180.256348,4188.589844,4153.589844,4210.384766,4192.179688,0.000000,4.000000,91.000000,,,,0.000000,4.000000,4.000000,4.000000,4.000000,4.000000,4.000000,4.000000,4.000000,4.000000,4.000000,4.000000,4.000000,4.000000,4.000000,100.000000,,,,,,,,,,,,,,,,
1645709492.065798,76.000000,0.000000,4178.717773,4165.256348,4169.487305,4182.436035,4190.000000,4192.436035,4197.692383,4200.128418,4191.922852,4184.743652,4190.641113,4156.666504,4210.128418,4197.820313,0.000000,4.000000,91.000000,,,,0.000000,4.000000,4.000000,4.000000,4.000000,4.000000,4.000000,4.000000,4.000000,4.000000,4.000000,4.000000,4.000000,4.000000,4.000000,100.000000,,,,,,,,,,,,,,,,
1645709492.069738,77.000000,0.000000,4180.000000,4168.974121,4172.051270,4183.717773,4192.051270,4196.794922,4202.051270,4202.692383,4194.358887,4189.743652,4192.436035,4160.256348,4211.410156,4202.692383,0.000000,4.000000,91.000000,,,,0.000000,4.000000,4.000000,4.000000,4.000000,4.000000,4.000000,4.000000,4.000000,4.000000,4.000000,4.000000,4.000000,4.000000,4.000000,100.000000,,,,,,,,,,,,,,,,
1645709492.073679,78.000000,0.000000,4181.153809,4173.333496,4175.641113,4184.230957,4193.077148,4198.717773,4203.333496,4202.692383,4196.410156,4193.333496,4193.589844,4163.077148,4213.717773,4205.897461,0.000000,4.000000,91.000000,,,,0.000000,4.000000,4.000000,4.000000,4.000000,4.000000,4.000000,4.000000,4.000000,4.000000,4.000000,4.000000,4.000000,4.000000,4.000000,100.000000,,,,,,,,,,,,,,,,
1645709492.077619,79.000000,0.000000,4181.922852,4175.512695,4178.974121,4183.846191,4192.307617,4196.794922,4201.025879,4200.769043,4196.794922,4193.846191,4193.333496,4164.487305,4214.743652,4206.410156,0.000000,4.000000,91.000000,,,,0.000000,4.000000,4.000000,4.000000,4.000000,4.000000,4.000000,4.000000,4.000000,4.000000,4.000000,4.000000,4.000000,4.000000,4.000000,100.000000,,,,,,,,,,,,,,,,
1645709492.081559,80.000000,0.000000,4182.307617,4174.743652,4181.538574,4182.948730,4190.256348,4192.436035,4196.794922,4198.846191,4195.512695,4191.538574,4191.666504,4164.358887,4213.846191,4204.358887,0.000000,4.000000,91.000000,,,,0.000000,4.000000,4.000000,4.000000,4.000000,4.000000,4.000000,4.000000,4.000000,4.000000,4.000000,4.000000,4.000000,4.000000,4.000000,100.000000,,,,,,,,,,,,,,,,
1645709492.085499,81.000000,0.000000,4182.051270,4173.077148,4183.333496,4182.436035,4189.358887,4188.846191,4193.846191,4198.974121,4194.358887,4189.230957,4190.641113,4163.589844,4211.666504,4201.666504,0.000000,4.000000,91.000000,,,,0.000000,4.000000,4.000000,4.000000,4.000000,4.000000,4.000000,4.000000,4.000000,4.000000,4.000000,4.000000,4.000000,4.000000,4.000000,100.000000,,,,,,,,,,,,,,,,
1645709492.089439,82.000000,0.000000,4181.025879,4173.461426,4185.000000,4183.461426,4191.282227,4188.589844,4194.102539,4200.897461,4194.743652,4189.230957,4192.051270,4163.333496,4209.743652,4200.897461,0.000000,4.000000,91.000000,,,,0.000000,4.000000,4.000000,4.000000,4.000000,4.000000,4.000000,4.000000,4.000000,4.000000,4.000000,4.000000,4.000000,4.000000,4.000000,100.000000,,,,,,,,,,,,,,,,
1645709492.093379,83.000000,0.000000,4179.230957,4177.051270,4186.410156,4185.641113,4194.871582,4191.410156,4196.153809,4201.922852,4196.410156,4191.538574,4195.512695,4163.974121,4208.717773,4202.948730,0.000000,4.000000,91.000000,,,,0.000000,4.000000,4.000000,4.000000,4.000000,4.000000,4.000000,4.000000,4.000000,4.000000,4.000000,4.000000,4.000000,4.000000,4.000000,100.000000,,,,,,,,,,,,,,,,
1645709492.097219,84.000000,0.000000,4177.948730,4181.922852,4186.922852,4187.820313,4197.051270,4194.487305,4197.307617,4199.230957,4196.922852,4193.333496,4197.948730,4164.230957,4207.179688,4206.538574,0.000000,4.000000,91.000000,,,,0.000000,4.000000,4.000000,4.000000,4.000000,4.000000,4.000000,4.000000,4.000000,4.000000,4.000000,4.000000,4.000000,4.000000,4.000000,100.000000,,,,,,,,,,,,,,,,
1645709492.101159,85.000000,0.000000,4178.205078,4185.769043,4186.025879,4188.589844,4195.641113,4195.256348,4195.512695,4192.820313,4194.871582,4191.794922,4196.666504,4163.077148,4204.615234,4209.102539,0.000000,4.000000,91.000000,,,,0.000000,4.000000,4.000000,4.000000,4.000000,4.000000,4.000000,4.000000,4.000000,4.000000,4.000000,4.000000,4.000000,4.000000,4.000000,100.000000,,,,,,,,,,,,,,,,
1645709492.105099,86.000000,0.000000,4180.000000,4187.307617,4184.487305,4187.948730,4191.153809,4193.717773,4191.794922,4185.769043,4190.897461,4187.692383,4192.692383,4161.153809,4201.666504,4209.230957,0.000000,4.000000,91.000000,,,,0.000000,4.000000,4.000000,4.000000,4.000000,4.000000,4.000000,4.000000,4.000000,4.000000,4.000000,4.000000,4.000000,4.000000,4.000000,100.000000,,,,,,,,,,,,,,,,
1645709492.109040,87.000000,0.000000,4182.307617,4186.922852,4183.589844,4187.051270,4187.051270,4191.666504,4188.974121,4181.666504,4187.948730,4184.743652,4190.256348,4160.512695,4200.256348,4208.333496,0.000000,4.000000,91.000000,,,,0.000000,4.000000,4.000000,4.000000,4.000000,4.000000,4.000000,4.000000,4.000000,4.000000,4.000000,4.000000,4.000000,4.000000,4.000000,100.000000,,,,,,,,,,,,,,,,
