title:Alex-lgCOnawlkYDWzJ8Laa60Jg, start timestamp:1645711426.138669, stop timestamp:1645711451.886671, headset type:EPOCPLUS, headset serial:3B9AEBFF, headset firmware:626, channels:55, sampling rate:eeg_256, samples:6536      , version:2.1, 
Timestamp,OriginalTimestamp,EEG.Counter,EEG.Interpolated,EEG.AF3,EEG.F7,EEG.F3,EEG.FC5,EEG.T7,EEG.P7,EEG.O1,EEG.O2,EEG.P8,EEG.T8,EEG.FC6,EEG.F4,EEG.F8,EEG.AF4,EEG.RawCq,EEG.Battery,EEG.BatteryPercent,MarkerIndex,MarkerType,MarkerValueInt,EEG.MarkerHardware,CQ.AF3,CQ.F7,CQ.F3,CQ.FC5,CQ.T7,CQ.P7,CQ.O1,CQ.O2,CQ.P8,CQ.T8,CQ.FC6,CQ.F4,CQ.F8,CQ.AF4,CQ.Overall,EQ.SampleRateQuality,EQ.OVERALL,EQ.AF3,EQ.F7,EQ.F3,EQ.FC5,EQ.T7,EQ.P7,EQ.O1,EQ.O2,EQ.P8,EQ.T8,EQ.FC6,EQ.F4,EQ.F8,EQ.AF4
1645711426.138669,1645711426.139419,64.000000,0.000000,4241.666504,4220.897461,4224.615234,4211.410156,4255.512695,4219.871582,4221.282227,4217.692383,4221.794922,4230.769043,4214.230957,4171.153809,4210.256348,4235.897461,0.000000,4.000000,86.000000,,,,0.000000,4.000000,4.000000,4.000000,4.000000,4.000000,4.000000,4.000000,4.000000,4.000000,4.000000,4.000000,4.000000,4.000000,4.000000,100.000000,,,,,,,,,,,,,,,,
1645711426.142609,1645711426.143459,65.000000,0.000000,4241.666504,4223.333496,4225.897461,4216.282227,4255.256348,4219.230957,4219.743652,4218.333496,4222.436035,4229.102539,4211.794922,4175.512695,4208.589844,4225.769043,0.000000,4.000000,86.000000,,,,0.000000,4.000000,4.000000,4.000000,4.000000,4.000000,4.000000,4.000000,4.000000,4.000000,4.000000,4.000000,4.000000,4.000000,4.000000,100.000000,,,,,,,,,,,,,,,,
1645711426.146549,1645711426.147400,66.000000,0.000000,4249.487305,4221.282227,4225.512695,4216.794922,4248.974121,4214.487305,4217.051270,4217.051270,4220.384766,4223.461426,4205.769043,4180.384766,4202.563965,4216.410156,0.000000,4.000000,86.000000,,,,0.000000,4.000000,4.000000,4.000000,4.000000,4.000000,4.000000,4.000000,4.000000,4.000000,4.000000,4.000000,4.000000,4.000000,4.000000,100.000000,,,,,,,,,,,,,,,,
1645711426.150489,1645711426.151340,67.000000,0.000000,4255.512695,4217.563965,4226.538574,4214.230957,4242.948730,4211.794922,4217.051270,4215.641113,4217.948730,4220.641113,4203.589844,4184.487305,4197.563965,4215.128418,0.000000,4.000000,86.000000,,,,0.000000,4.000000,4.000000,4.000000,4.000000,4.000000,4.000000,4.000000,4.000000,4.000000,4.000000,4.000000,4.000000,4.000000,4.000000,100.000000,,,,,,,,,,,,,,,,
1645711426.154429,1645711426.155280,68.000000,0.000000,4253.077148,4215.769043,4229.743652,4213.205078,4243.205078,4215.000000,4220.256348,4215.897461,4217.179688,4225.000000,4208.846191,4186.153809,4198.461426,4222.307617,0.000000,4.000000,86.000000,,,,0.000000,4.000000,4.000000,4.000000,4.000000,4.000000,4.000000,4.000000,4.000000,4.000000,4.000000,4.000000,4.000000,4.000000,4.000000,100.000000,,,,,,,,,,,,,,,,
1645711426.158369,1645711426.159221,69.000000,0.000000,4246.794922,4215.897461,4232.692383,4214.358887,4247.307617,4220.128418,4222.948730,4217.051270,4217.563965,4231.922852,4216.410156,4183.461426,4203.974121,4231.538574,0.000000,4.000000,86.000000,,,,0.000000,4.000000,4.000000,4.000000,4.000000,4.000000,4.000000,4.000000,4.000000,4.000000,4.000000,4.000000,4.000000,4.000000,4.000000,100.000000,,,,,,,,,,,,,,,,
1645711426.162310,1645711426.163161,70.000000,0.000000,4245.769043,4215.000000,4231.794922,4214.871582,4248.333496,4220.256348,4221.666504,4217.179688,4217.436035,4232.948730,4217.948730,4177.179688,4208.205078,4236.153809,0.000000,4.000000,86.000000,,,,0.000000,4.000000,4.000000,4.000000,4.000000,4.000000,4.000000,4.000000,4.000000,4.000000,4.000000,4.000000,4.000000,4.000000,4.000000,100.000000,,,,,,,,,,,,,,,,
1645711426.166249,1645711426.167101,71.000000,0.000000,4251.025879,4213.077148,4227.436035,4213.846191,4244.358887,4214.743652,4217.563965,4216.794922,4216.922852,4226.666504,4211.794922,4171.922852,4207.179688,4233.846191,0.000000,4.000000,86.000000,,,,0.000000,4.000000,4.000000,4.000000,4.000000,4.000000,4.000000,4.000000,4.000000,4.000000,4.000000,4.000000,4.000000,4.000000,4.000000,100.000000,,,,,,,,,,,,,,,,
1645711426.170190,1645711426.171042,72.000000,0.000000,4254.102539,4213.205078,4223.974121,4213.589844,4241.666504,4210.641113,4215.000000,4218.333496,4218.077148,4221.410156,4205.384766,4172.051270,4202.563965,4227.179688,0.000000,4.000000,86.000000,,,,0.000000,4.000000,4.000000,4.000000,4.000000,4.000000,4.000000,4.000000,4.000000,4.000000,4.000000,4.000000,4.000000,4.000000,4.000000,100.000000,,,,,,,,,,,,,,,,
1645711426.174130,1645711426.174982,73.000000,0.000000,4249.102539,4217.436035,4224.615234,4215.769043,4245.256348,4213.205078,4216.153809,4222.820313,4222.436035,4225.384766,4205.641113,4177.307617,4198.589844,4220.000000,0.000000,4.000000,86.000000,,,,0.000000,4.000000,4.000000,4.000000,4.000000,4.000000,4.000000,4.000000,4.000000,4.000000,4.000000,4.000000,4.000000,4.000000,4.000000,100.000000,,,,,,,,,,,,,,,,
1645711426.178069,1645711426.178922,74.000000,0.000000,4241.153809,4222.436035,4228.461426,4217.307617,4250.897461,4219.102539,4218.846191,4227.563965,4227.307617,4235.641113,4210.769043,4182.051270,4196.794922,4216.025879,0.000000,4.000000,86.000000,,,,0.000000,4.000000,4.000000,4.000000,4.000000,4.000000,4.000000,4.000000,4.000000,4.000000,4.000000,4.000000,4.000000,4.000000,4.000000,100.000000,,,,,,,,,,,,,,,,
1645711426.182010,1645711426.182863,75.000000,0.000000,4240.128418,4222.307617,4231.025879,4214.230957,4249.358887,4221.025879,4219.871582,4229.102539,4228.589844,4241.025879,4213.717773,4181.153809,4195.897461,4216.922852,0.000000,4.000000,86.000000,,,,0.000000,4.000000,4.000000,4.000000,4.000000,4.000000,4.000000,4.000000,4.000000,4.000000,4.000000,4.000000,4.000000,4.000000,4.000000,100.000000,,,,,,,,,,,,,,,,
1645711426.185949,1645711426.186803,76.000000,0.000000,4247.436035,4215.641113,4229.615234,4207.436035,4238.974121,4216.794922,4218.974121,4227.692383,4225.000000,4235.512695,4211.666504,4175.512695,4195.256348,4221.410156,0.000000,4.000000,86.000000,,,,0.000000,4.000000,4.000000,4.000000,4.000000,4.000000,4.000000,4.000000,4.000000,4.000000,4.000000,4.000000,4.000000,4.000000,4.000000,100.000000,,,,,,,,,,,,,,,,
1645711426.189890,1645711426.190743,77.000000,0.000000,4253.717773,4208.205078,4225.769043,4203.717773,4229.102539,4212.436035,4218.589844,4226.922852,4220.384766,4224.743652,4208.846191,4170.897461,4196.153809,4225.128418,0.000000,4.000000,86.000000,,,,0.000000,4.000000,4.000000,4.000000,4.000000,4.000000,4.000000,4.000000,4.000000,4.000000,4.000000,4.000000,4.000000,4.000000,4.000000,100.000000,,,,,,,,,,,,,,,,
1645711426.193830,1645711426.194684,78.000000,0.000000,4250.897461,4206.025879,4222.692383,4206.922852,4229.358887,4214.358887,4220.256348,4229.358887,4218.717773,4218.974121,4210.000000,4171.153809,4199.102539,4223.589844,0.000000,4.000000,86.000000,,,,0.000000,4.000000,4.000000,4.000000,4.000000,4.000000,4.000000,4.000000,4.000000,4.000000,4.000000,4.000000,4.000000,4.000000,4.000000,100.000000,,,,,,,,,,,,,,,,
1645711426.197770,1645711426.198624,79.000000,0.000000,4242.820313,4208.974121,4221.794922,4213.717773,4238.077148,4220.897461,4222.563965,4233.077148,4220.769043,4220.384766,4212.179688,4174.615234,4201.410156,4216.538574,0.000000,4.000000,86.000000,,,,0.000000,4.000000,4.000000,4.000000,4.000000,4.000000,4.000000,4.000000,4.000000,4.000000,4.000000,4.000000,4.000000,4.000000,4.000000,100.000000,,,,,,,,,,,,,,,,
1645711426.201710,1645711426.202565,80.000000,0.000000,4239.358887,4211.410156,4222.051270,4216.538574,4245.384766,4225.512695,4223.205078,4233.846191,4223.205078,4222.820313,4208.717773,4176.025879,4198.846191,4209.743652,0.000000,4.000000,86.000000,,,,0.000000,4.000000,4.000000,4.000000,4.000000,4.000000,4.000000,4.000000,4.000000,4.000000,4.000000,4.000000,4.000000,4.000000,4.000000,100.000000,,,,,,,,,,,,,,,,
1645711426.205650,1645711426.206505,81.000000,0.000000,4243.846191,4209.743652,4222.692383,4213.846191,4244.871582,4224.487305,4222.820313,4230.384766,4223.333496,4221.794922,4198.846191,4173.461426,4192.051270,4210.000000,0.000000,4.000000,86.000000,,,,0.000000,4.000000,4.000000,4.000000,4.000000,4.000000,4.000000,4.000000,4.000000,4.000000,4.000000,4.000000,4.000000,4.000000,4.000000,100.000000,,,,,,,,,,,,,,,,
1645711426.209590,1645711426.210445,82.000000,0.000000,4248.717773,4206.666504,4224.230957,4211.410156,4240.512695,4221.282227,4223.461426,4226.282227,4222.051270,4220.000000,4190.512695,4170.128418,4186.922852,4217.948730,0.000000,4.000000,86.000000,,,,0.000000,4.000000,4.000000,4.000000,4.000000,4.000000,4.000000,4.000000,4.000000,4.000000,4.000000,4.000000,4.000000,4.000000,4.000000,100.000000,,,,,,,,,,,,,,,,
1645711426.213530,1645711426.214386,83.000000,0.000000,4246.282227,4207.179688,4226.666504,4214.358887,4238.846191,4219.358887,4225.641113,4225.769043,4222.179688,4222.692383,4192.307617,4170.256348,4188.461426,4226.282227,0.000000,4.000000,86.000000,,,,0.000000,4.000000,4.000000,4.000000,4.000000,4.000000,4.000000,4.000000,4.000000,4.000000,4.000000,4.000000,4.000000,4.000000,4.000000,100.000000,,,,,,,,,,,,,,,,
1645711426.217470,1645711426.218226,84.000000,0.000000,4238.846191,4211.410156,4228.077148,4219.743652,4240.000000,4218.077148,4226.410156,4228.717773,4224.358887,4228.717773,4203.205078,4174.358887,4195.256348,4227.436035,0.000000,4.000000,86.000000,,,,0.000000,4.000000,4.000000,4.000000,4.000000,4.000000,4.000000,4.000000,4.000000,4.000000,4.000000,4.000000,4.000000,4.000000,4.000000,100.000000,,,,,,,,,,,,,,,,
1645711426.221410,1645711426.222166,85.000000,0.000000,4236.153809,4214.230957,4226.282227,4220.384766,4238.589844,4214.230957,4223.205078,4231.025879,4226.410156,4231.922852,4213.846191,4179.358887,4200.769043,4221.538574,0.000000,4.000000,86.000000,,,,0.000000,4.000000,4.000000,4.000000,4.000000,4.000000,4.000000,4.000000,4.000000,4.000000,4.000000,4.000000,4.000000,4.000000,4.000000,100.000000,,,,,,,,,,,,,,,,
1645711426.225350,1645711426.226106,86.000000,0.000000,4241.025879,4211.666504,4221.794922,4213.717773,4232.563965,4208.846191,4217.563965,4229.615234,4226.538574,4229.358887,4217.051270,4182.051270,4201.153809,4215.512695,0.000000,4.000000,86.000000,,,,0.000000,4.000000,4.000000,4.000000,4.000000,4.000000,4.000000,4.000000,4.000000,4.000000,4.000000,4.000000,4.000000,4.000000,4.000000,100.000000,,,,,,,,,,,,,,,,
1645711426.229290,1645711426.230046,87.000000,0.000000,4245.256348,4206.025879,4217.820313,4205.641113,4227.179688,4207.307617,4214.358887,4226.282227,4224.871582,4225.128418,4214.871582,4182.692383,4198.461426,4214.871582,0.000000,4.000000,86.000000,,,,0.000000,4.000000,4.000000,4.000000,4.000000,4.000000,4.000000,4.000000,4.000000,4.000000,4.000000,4.000000,4.000000,4.000000,4.000000,100.000000,,,,,,,,,,,,,,,,
1645711426.233230,1645711426.233986,88.000000,0.000000,4240.769043,4202.820313,4216.666504,4203.333496,4228.717773,4212.436035,4215.897461,4225.000000,4223.461426,4224.871582,4212.820313,4183.205078,4196.666504,4217.307617,0.000000,4.000000,86.000000,,,,0.000000,4.000000,4.000000,4.000000,4.000000,4.000000,4.000000,4.000000,4.000000,4.000000,4.000000,4.000000,4.000000,4.000000,4.000000,100.000000,,,,,,,,,,,,,,,,
1645711426.237170,1645711426.237926,89.000000,0.000000,4230.897461,4203.589844,4217.563965,4206.922852,4235.641113,4219.615234,4219.615234,4226.666504,4223.077148,4227.051270,4212.563965,4184.487305,4196.410156,4216.538574,0.000000,4.000000,86.000000,,,,0.000000,4.000000,4.000000,4.000000,4.000000,4.000000,4.000000,4.000000,4.000000,4.000000,4.000000,4.000000,4.000000,4.000000,4.000000,100.000000,,,,,,,,,,,,,,,,
1645711426.241110,1645711426.241866,90.000000,0.000000,4226.794922,4205.256348,4217.692383,4209.358887,4239.487305,4221.025879,4220.641113,4228.589844,4222.179688,4225.384766,4210.128418,4184.487305,4194.487305,4210.384766,0.000000,4.000000,86.000000,,,,0.000000,4.000000,4.000000,4.000000,4.000000,4.000000,4.000000,4.000000,4.000000,4.000000,4.000000,4.000000,4.000000,4.000000,4.000000,100.000000,,,,,,,,,,,,,,,,
1645711426.245050,1645711426.245807,91.000000,0.000000,4233.333496,4205.000000,4215.897461,4206.538574,4234.871582,4214.871582,4217.563965,4228.077148,4220.128418,4217.307617,4203.333496,4181.410156,4189.358887,4204.487305,0.000000,4.000000,86.000000,,,,0.000000,4.000000,4.000000,4.000000,4.000000,4.000000,4.000000,4.000000,4.000000,4.000000,4.000000,4.000000,4.000000,4.000000,4.000000,100.000000,,,,,,,,,,,,,,,,
1645711426.248990,1645711426.249747,92.000000,0.000000,4242.563965,4205.384766,4213.846191,4202.051270,4226.538574,4207.436035,4212.948730,4225.384766,4217.948730,4209.358887,4196.794922,4175.641113,4184.102539,4205.128418,0.000000,4.000000,86.000000,,,,0.000000,4.000000,4.000000,4.000000,4.000000,4.000000,4.000000,4.000000,4.000000,4.000000,4.000000,4.000000,4.000000,4.000000,4.000000,100.000000,,,,,,,,,,,,,,,,
1645711426.252930,1645711426.253687,93.000000,0.000000,4243.589844,4209.358887,4213.205078,4202.436035,4223.333496,4206.282227,4210.769043,4223.077148,4217.948730,4210.000000,4196.922852,4169.487305,4183.205078,4212.692383,0.000000,4.000000,86.000000,,,,0.000000,4.000000,4.000000,4.000000,4.000000,4.000000,4.000000,4.000000,4.000000,4.000000,4.000000,4.000000,4.000000,4.000000,4.000000,100.000000,,,,,,,,,,,,,,,,
1645711426.256870,1645711426.257627,94.000000,0.000000,4236.538574,4215.512695,4213.461426,4208.589844,4227.436035,4211.153809,4211.153809,4222.436035,4219.615234,4219.102539,4203.333496,4165.384766,4187.563965,4221.153809,0.000000,4.000000,86.000000,,,,0.000000,4.000000,4.000000,4.000000,4.000000,4.000000,4.000000,4.000000,4.000000,4.000000,4.000000,4.000000,4.000000,4.000000,4.000000,100.000000,,,,,,,,,,,,,,,,
1645711426.260810,1645711426.261567,95.000000,0.000000,4231.282227,4217.820313,4213.333496,4214.487305,4232.307617,4215.512695,4211.922852,4221.794922,4220.256348,4227.692383,4208.077148,4163.461426,4192.820313,4225.000000,0.000000,4.000000,86.000000,,,,0.000000,4.000000,4.000000,4.000000,4.000000,4.000000,4.000000,4.000000,4.000000,4.000000,4.000000,4.000000,4.000000,4.000000,4.000000,100.000000,,,,,,,,,,,,,,,,
1645711426.264750,1645711426.265507,96.000000,0.000000,4234.615234,4213.333496,4213.077148,4215.512695,4231.538574,4214.487305,4211.538574,4219.358887,4218.461426,4228.077148,4205.512695,4163.333496,4195.128418,4223.846191,0.000000,4.000000,86.000000,,,,0.000000,4.000000,4.000000,4.000000,4.000000,4.000000,4.000000,4.000000,4.000000,4.000000,4.000000,4.000000,4.000000,4.000000,4.000000,100.000000,,,,,,,,,,,,,,,,
1645711426.268690,1645711426.269447,97.000000,0.000000,4241.153809,4206.666504,4214.358887,4213.205078,4226.922852,4210.769043,4211.025879,4216.666504,4215.512695,4221.794922,4199.230957,4165.000000,4194.487305,4220.256348,0.000000,4.000000,86.000000,,,,0.000000,4.000000,4.000000,4.000000,4.000000,4.000000,4.000000,4.000000,4.000000,4.000000,4.000000,4.000000,4.000000,4.000000,4.000000,100.000000,,,,,,,,,,,,,,,,
1645711426.272630,1645711426.273387,98.000000,0.000000,4241.666504,4205.128418,4217.436035,4212.051270,4225.384766,4210.256348,4211.666504,4216.538574,4214.615234,4216.922852,4197.692383,4168.077148,4194.102539,4216.410156,0.000000,4.000000,86.000000,,,,0.000000,4.000000,4.000000,4.000000,4.000000,4.000000,4.000000,4.000000,4.000000,4.000000,4.000000,4.000000,4.000000,4.000000,4.000000,100.000000,,,,,,,,,,,,,,,,
1645711426.276570,1645711426.277327,99.000000,0.000000,4234.871582,4210.128418,4219.615234,4211.666504,4228.461426,4213.205078,4212.051270,4218.846191,4216.025879,4217.179688,4203.205078,4170.769043,4195.769043,4212.692383,0.000000,4.000000,86.000000,,,,0.000000,4.000000,4.000000,4.000000,4.000000,4.000000,4.000000,4.000000,4.000000,4.000000,4.000000,4.000000,4.000000,4.000000,4.000000,100.000000,,,,,,,,,,,,,,,,
1645711426.280510,1645711426.281267,100.000000,0.000000,4229.102539,4215.384766,4217.948730,4206.794922,4230.256348,4214.487305,4210.128418,4220.384766,4216.666504,4217.948730,4209.487305,4170.641113,4197.307617,4208.846191,0.000000,4.000000,86.000000,,,,0.000000,4.000000,4.000000,4.000000,4.000000,4.000000,4.000000,4.000000,4.000000,4.000000,4.000000,4.000000,4.000000,4.000000,4.000000,100.000000,,,,,,,,,,,,,,,,
1645711426.284450,1645711426.285208,101.000000,0.000000,4230.128418,4214.615234,4212.307617,4195.897461,4225.641113,4210.769043,4206.410156,4218.077148,4215.000000,4213.461426,4209.230957,4168.589844,4196.282227,4205.384766,0.000000,4.000000,86.000000,,,,0.000000,4.000000,4.000000,4.000000,4.000000,4.000000,4.000000,4.000000,4.000000,4.000000,4.000000,4.000000,4.000000,4.000000,4.000000,100.000000,,,,,,,,,,,,,,,,
1645711426.288390,1645711426.289148,102.000000,0.000000,4234.230957,4209.358887,4207.051270,4185.000000,4217.948730,4204.871582,4204.230957,4213.589844,4212.307617,4205.641113,4203.461426,4167.692383,4193.205078,4202.820313,0.000000,4.000000,86.000000,,,,0.000000,4.000000,4.000000,4.000000,4.000000,4.000000,4.000000,4.000000,4.000000,4.000000,4.000000,4.000000,4.000000,4.000000,4.000000,100.000000,,,,,,,,,,,,,,,,
1645711426.292330,1645711426.292988,103.000000,0.000000,4233.333496,4206.153809,4206.538574,4183.205078,4215.000000,4202.820313,4205.512695,4211.282227,4212.051270,4200.769043,4198.974121,4170.128418,4191.153809,4201.282227,0.000000,4.000000,86.000000,,,,0.000000,4.000000,4.000000,4.000000,4.000000,4.000000,4.000000,4.000000,4.000000,4.000000,4.000000,4.000000,4.000000,4.000000,4.000000,100.000000,,,,,,,,,,,,,,,,
1645711426.296270,1645711426.296928,104.000000,0.000000,4227.692383,4208.974121,4210.641113,4192.307617,4219.615234,4205.512695,4208.077148,4212.563965,4214.230957,4201.410156,4198.974121,4172.307617,4190.897461,4201.153809,0.000000,4.000000,86.000000,,,,0.000000,4.000000,4.000000,4.000000,4.000000,4.000000,4.000000,4.000000,4.000000,4.000000,4.000000,4.000000,4.000000,4.000000,4.000000,100.000000,,,,,,,,,,,,,,,,
1645711426.300210,1645711426.300868,105.000000,0.000000,4225.641113,4214.102539,4215.256348,4203.717773,4226.025879,4208.461426,4208.077148,4214.615234,4215.769043,4203.077148,4199.743652,4169.230957,4190.384766,4203.077148,0.000000,4.000000,86.000000,,,,0.000000,4.000000,4.000000,4.000000,4.000000,4.000000,4.000000,4.000000,4.000000,4.000000,4.000000,4.000000,4.000000,4.000000,4.000000,100.000000,,,,,,,,,,,,,,,,
1645711426.304150,1645711426.304808,106.000000,0.000000,4231.410156,4215.897461,4216.410156,4208.333496,4227.563965,4207.436035,4205.384766,4215.128418,4213.846191,4200.256348,4196.410156,4159.743652,4187.563965,4207.436035,0.000000,4.000000,86.000000,,,,0.000000,4.000000,4.000000,4.000000,4.000000,4.000000,4.000000,4.000000,4.000000,4.000000,4.000000,4.000000,4.000000,4.000000,4.000000,100.000000,,,,,,,,,,,,,,,,
1645711426.308090,1645711426.308748,107.000000,0.000000,4238.205078,4212.820313,4213.589844,4204.615234,4223.717773,4204.615234,4204.358887,4215.128418,4210.128418,4194.871582,4190.641113,4149.871582,4183.461426,4211.794922,0.000000,4.000000,86.000000,,,,0.000000,4.000000,4.000000,4.000000,4.000000,4.000000,4.000000,4.000000,4.000000,4.000000,4.000000,4.000000,4.000000,4.000000,4.000000,100.000000,,,,,,,,,,,,,,,,
1645711426.312030,1645711426.312688,108.000000,0.000000,4236.666504,4208.846191,4209.615234,4198.846191,4220.256348,4205.256348,4207.820313,4217.820313,4208.974121,4194.102539,4188.974121,4147.307617,4181.538574,4212.436035,0.000000,4.000000,86.000000,,,,0.000000,4.000000,4.000000,4.000000,4.000000,4.000000,4.000000,4.000000,4.000000,4.000000,4.000000,4.000000,4.000000,4.000000,4.000000,100.000000,,,,,,,,,,,,,,,,
1645711426.315970,1645711426.316629,109.000000,0.000000,4227.179688,4207.051270,4207.563965,4195.512695,4220.000000,4209.743652,4213.077148,4223.461426,4212.051270,4201.025879,4193.461426,4153.205078,4182.948730,4207.820313,0.000000,4.000000,86.000000,,,,0.000000,4.000000,4.000000,4.000000,4.000000,4.000000,4.000000,4.000000,4.000000,4.000000,4.000000,4.000000,4.000000,4.000000,4.000000,100.000000,,,,,,,,,,,,,,,,
1645711426.319910,1645711426.320569,110.000000,0.000000,4221.410156,4206.410156,4207.563965,4193.717773,4220.128418,4213.077148,4214.871582,4228.589844,4216.410156,4208.846191,4198.589844,4161.282227,4185.897461,4201.538574,0.000000,4.000000,86.000000,,,,0.000000,4.000000,4.000000,4.000000,4.000000,4.000000,4.000000,4.000000,4.000000,4.000000,4.000000,4.000000,4.000000,4.000000,4.000000,100.000000,,,,,,,,,,,,,,,,
1645711426.323850,1645711426.324509,111.000000,0.000000,4227.563965,4205.128418,4208.461426,4191.410156,4217.436035,4210.897461,4210.769043,4230.512695,4217.948730,4209.358887,4197.948730,4164.102539,4187.179688,4199.102539,0.000000,4.000000,86.000000,,,,0.000000,4.000000,4.000000,4.000000,4.000000,4.000000,4.000000,4.000000,4.000000,4.000000,4.000000,4.000000,4.000000,4.000000,4.000000,100.000000,,,,,,,,,,,,,,,,
1645711426.327790,1645711426.328449,112.000000,0.000000,4239.743652,4205.000000,4210.128418,4190.256348,4215.256348,4206.025879,4204.871582,4230.512695,4215.897461,4202.820313,4191.922852,4160.384766,4186.282227,4203.205078,0.000000,4.000000,86.000000,,,,0.000000,4.000000,4.000000,4.000000,4.000000,4.000000,4.000000,4.000000,4.000000,4.000000,4.000000,4.000000,4.000000,4.000000,4.000000,100.000000,,,,,,,,,,,,,,,,
1645711426.331730,1645711426.332389,113.000000,0.000000,4245.384766,4209.358887,4213.205078,4194.358887,4219.102539,4205.000000,4202.692383,4231.666504,4213.333496,4197.692383,4187.820313,4154.615234,4185.641113,4210.641113,0.000000,4.000000,86.000000,,,,0.000000,4.000000,4.000000,4.000000,4.000000,4.000000,4.000000,4.000000,4.000000,4.000000,4.000000,4.000000,4.000000,4.000000,4.000000,100.000000,,,,,,,,,,,,,,,,
1645711426.335670,1645711426.336329,114.000000,0.000000,4240.256348,4217.436035,4216.666504,4202.692383,4227.820313,4209.871582,4205.897461,4235.128418,4213.205078,4200.000000,4190.000000,4152.051270,4186.666504,4215.897461,0.000000,4.000000,86.000000,,,,0.000000,4.000000,4.000000,4.000000,4.000000,4.000000,4.000000,4.000000,4.000000,4.000000,4.000000,4.000000,4.000000,4.000000,4.000000,100.000000,,,,,,,,,,,,,,,,
1645711426.339610,1645711426.340269,115.000000,0.000000,4232.948730,4222.820313,4217.820313,4208.589844,4231.922852,4215.000000,4210.512695,4237.948730,4214.487305,4205.897461,4194.615234,4153.077148,4187.436035,4215.641113,0.000000,4.000000,86.000000,,,,0.000000,4.000000,4.000000,4.000000,4.000000,4.000000,4.000000,4.000000,4.000000,4.000000,4.000000,4.000000,4.000000,4.000000,4.000000,100.000000,,,,,,,,,,,,,,,,
1645711426.343550,1645711426.344209,116.000000,0.000000,4232.563965,4220.769043,4214.871582,4206.794922,4224.871582,4213.846191,4212.563965,4237.820313,4214.358887,4207.051270,4194.871582,4155.384766,4185.384766,4211.282227,0.000000,4.000000,86.000000,,,,0.000000,4.000000,4.000000,4.000000,4.000000,4.000000,4.000000,4.000000,4.000000,4.000000,4.000000,4.000000,4.000000,4.000000,4.000000,100.000000,,,,,,,,,,,,,,,,
1645711426.347490,1645711426.348149,117.000000,0.000000,4238.333496,4213.846191,4210.384766,4200.128418,4212.051270,4207.948730,4212.179688,4236.153809,4212.563965,4202.179688,4190.256348,4157.692383,4180.897461,4206.538574,0.000000,4.000000,86.000000,,,,0.000000,4.000000,4.000000,4.000000,4.000000,4.000000,4.000000,4.000000,4.000000,4.000000,4.000000,4.000000,4.000000,4.000000,4.000000,100.000000,,,,,,,,,,,,,,,,
1645711426.351430,1645711426.352089,118.000000,0.000000,4241.538574,4209.871582,4208.717773,4196.538574,4207.051270,4205.128418,4212.820313,4237.307617,4211.922852,4198.974121,4187.179688,4160.897461,4178.205078,4203.461426,0.000000,4.000000,86.000000,,,,0.000000,4.000000,4.000000,4.000000,4.000000,4.000000,4.000000,4.000000,4.000000,4.000000,4.000000,4.000000,4.000000,4.000000,4.000000,100.000000,,,,,,,,,,,,,,,,
1645711426.355370,1645711426.356030,119.000000,0.000000,4238.333496,4212.692383,4211.794922,4199.871582,4216.282227,4209.615234,4215.897461,4242.948730,4214.615234,4202.820313,4190.256348,4164.615234,4178.974121,4201.794922,0.000000,4.000000,86.000000,,,,0.000000,4.000000,4.000000,4.000000,4.000000,4.000000,4.000000,4.000000,4.000000,4.000000,4.000000,4.000000,4.000000,4.000000,4.000000,100.000000,,,,,,,,,,,,,,,,
1645711426.359310,1645711426.360070,120.000000,0.000000,4234.358887,4217.948730,4216.153809,4205.384766,4231.153809,4216.538574,4219.230957,4249.230957,4218.846191,4210.000000,4196.922852,4166.794922,4180.512695,4201.025879,0.000000,4.000000,86.000000,,,,0.000000,4.000000,4.000000,4.000000,4.000000,4.000000,4.000000,4.000000,4.000000,4.000000,4.000000,4.000000,4.000000,4.000000,4.000000,100.000000,,,,,,,,,,,,,,,,
1645711426.363250,1645711426.364010,121.000000,0.000000,4235.897461,4218.461426,4216.666504,4205.512695,4237.051270,4217.948730,4220.000000,4250.641113,4220.256348,4211.538574,4201.410156,4165.897461,4178.846191,4202.051270,0.000000,4.000000,86.000000,,,,0.000000,4.000000,4.000000,4.000000,4.000000,4.000000,4.000000,4.000000,4.000000,4.000000,4.000000,4.000000,4.000000,4.000000,4.000000,100.000000,,,,,,,,,,,,,,,,
1645711426.367190,1645711426.367950,122.000000,0.000000,4239.871582,4212.563965,4212.436035,4199.102539,4228.717773,4212.436035,4217.948730,4246.153809,4217.307617,4205.000000,4201.153809,4163.461426,4174.358887,4205.512695,0.000000,4.000000,86.000000,,,,0.000000,4.000000,4.000000,4.000000,4.000000,4.000000,4.000000,4.000000,4.000000,4.000000,4.000000,4.000000,4.000000,4.000000,4.000000,100.000000,,,,,,,,,,,,,,,,
1645711426.371130,1645711426.371890,123.000000,0.000000,4237.948730,4205.897461,4207.051270,4192.051270,4214.743652,4206.025879,4215.769043,4240.384766,4212.563965,4197.051270,4198.846191,4162.051270,4171.282227,4209.102539,0.000000,4.000000,86.000000,,,,0.000000,4.000000,4.000000,4.000000,4.000000,4.000000,4.000000,4.000000,4.000000,4.000000,4.000000,4.000000,4.000000,4.000000,4.000000,100.000000,,,,,,,,,,,,,,,,
1645711426.375070,1645711426.375830,124.000000,0.000000,4228.589844,4203.717773,4204.358887,4189.743652,4207.563965,4204.871582,4214.871582,4238.589844,4210.256348,4195.641113,4196.538574,4162.307617,4172.692383,4209.102539,0.000000,4.000000,86.000000,,,,0.000000,4.000000,4.000000,4.000000,4.000000,4.000000,4.000000,4.000000,4.000000,4.000000,4.000000,4.000000,4.000000,4.000000,4.000000,100.000000,,,,,,,,,,,,,,,,
1645711426.379010,1645711426.379770,125.000000,0.000000,4221.153809,4205.641113,4204.358887,4191.153809,4210.769043,4208.333496,4214.743652,4241.666504,4212.051270,4200.769043,4192.820313,4162.436035,4176.666504,4203.846191,0.000000,4.000000,86.000000,,,,0.000000,4.000000,4.000000,4.000000,4.000000,4.000000,4.000000,4.000000,4.000000,4.000000,4.000000,4.000000,4.000000,4.000000,4.000000,100.000000,,,,,,,,,,,,,,,,
1645711426.382950,1645711426.383710,126.000000,0.000000,4224.871582,4207.820313,4205.128418,4192.051270,4218.974121,4211.794922,4214.743652,4246.282227,4215.897461,4206.153809,4186.538574,4160.769043,4178.974121,4196.922852,0.000000,4.000000,86.000000,,,,0.000000,4.000000,4.000000,4.000000,4.000000,4.000000,4.000000,4.000000,4.000000,4.000000,4.000000,4.000000,4.000000,4.000000,4.000000,100.000000,,,,,,,,,,,,,,,,
1645711426.386890,1645711426.387650,127.000000,0.000000,4236.538574,4209.871582,4205.897461,4191.922852,4226.538574,4213.589844,4215.384766,4248.974121,4219.358887,4208.333496,4181.794922,4158.974121,4177.948730,4194.230957,0.000000,4.000000,86.000000,,,,0.000000,4.000000,4.000000,4.000000,4.000000,4.000000,4.000000,4.000000,4.000000,4.000000,4.000000,4.000000,4.000000,4.000000,4.000000,100.000000,,,,,,,,,,,,,,,,
1645711426.390830,1645711426.391590,128.000000,0.000000,4243.846191,4214.871582,4206.794922,4194.230957,4232.692383,4215.641113,4217.179688,4248.846191,4221.025879,4209.102539,4184.743652,4159.743652,4176.666504,4197.563965,3310.000000,4.000000,86.000000,,,,0.000000,4.000000,4.000000,4.000000,4.000000,4.000000,4.000000,4.000000,4.000000,4.000000,4.000000,4.000000,4.000000,4.000000,4.000000,100.000000,,,,,,,,,,,,,,,,
1645711426.394770,1645711426.395531,129.000000,0.000000,4239.743652,4223.205078,4207.948730,4200.512695,4237.563965,4218.846191,4218.717773,4246.666504,4220.897461,4210.897461,4196.025879,4162.948730,4177.948730,4203.717773,3360.000000,4.000000,86.000000,,,,0.000000,4.000000,4.000000,4.000000,4.000000,4.000000,4.000000,4.000000,4.000000,4.000000,4.000000,4.000000,4.000000,4.000000,4.000000,100.000000,,,,,,,,,,,,,,,,
1645711426.398710,1645711426.399471,130.000000,0.000000,4231.153809,4229.615234,4207.820313,4206.794922,4238.589844,4220.000000,4216.922852,4242.436035,4219.102539,4210.641113,4206.666504,4165.512695,4181.282227,4208.461426,2263.000000,4.000000,86.000000,,,,0.000000,4.000000,4.000000,4.000000,4.000000,4.000000,4.000000,4.000000,4.000000,4.000000,4.000000,4.000000,4.000000,4.000000,4.000000,100.000000,,,,,,,,,,,,,,,,
1645711426.402650,1645711426.403411,131.000000,0.000000,4228.589844,4228.077148,4205.769043,4207.948730,4233.461426,4215.897461,4211.282227,4236.538574,4216.025879,4204.615234,4207.563965,4164.102539,4183.205078,4210.128418,3023.000000,4.000000,86.000000,,,,0.000000,4.000000,4.000000,4.000000,4.000000,4.000000,4.000000,4.000000,4.000000,4.000000,4.000000,4.000000,4.000000,4.000000,4.000000,100.000000,,,,,,,,,,,,,,,,
1645711426.406590,1645711426.407251,132.000000,0.000000,4233.077148,4219.743652,4202.948730,4204.871582,4225.769043,4208.846191,4206.025879,4231.410156,4213.589844,4195.512695,4199.487305,4159.487305,4182.436035,4210.897461,3524.000000,4.000000,86.000000,1,1,2,0.000000,4.000000,4.000000,4.000000,4.000000,4.000000,4.000000,4.000000,4.000000,4.000000,4.000000,4.000000,4.000000,4.000000,4.000000,100.000000,,,,,,,,,,,,,,,,
1645711426.410530,1645711426.411191,133.000000,0.000000,4235.641113,4212.563965,4202.307617,4203.333496,4223.589844,4205.512695,4205.769043,4230.384766,4214.615234,4191.794922,4192.692383,4156.153809,4181.153809,4211.922852,3050.000000,4.000000,86.000000,,,,0.000000,4.000000,4.000000,4.000000,4.000000,4.000000,4.000000,4.000000,4.000000,4.000000,4.000000,4.000000,4.000000,4.000000,4.000000,100.000000,,,,,,,,,,,,,,,,
1645711426.414471,1645711426.415131,134.000000,0.000000,4231.153809,4212.948730,4204.358887,4206.794922,4230.384766,4209.230957,4211.153809,4234.230957,4218.846191,4198.077148,4195.000000,4157.436035,4181.922852,4211.922852,2923.000000,4.000000,86.000000,,,,0.000000,4.000000,4.000000,4.000000,4.000000,4.000000,4.000000,4.000000,4.000000,4.000000,4.000000,4.000000,4.000000,4.000000,4.000000,100.000000,1.000000,58.333332,1.000000,4.000000,4.000000,4.000000,4.000000,4.000000,4.000000,4.000000,3.000000,3.000000,4.000000,4.000000,3.000000,4.000000
1645711426.418410,1645711426.419071,135.000000,0.000000,4225.256348,4218.077148,4207.179688,4210.769043,4239.615234,4215.641113,4216.794922,4239.230957,4222.692383,4208.461426,4202.436035,4162.436035,4184.102539,4209.230957,2596.000000,4.000000,86.000000,,,,0.000000,4.000000,4.000000,4.000000,4.000000,4.000000,4.000000,4.000000,4.000000,4.000000,4.000000,4.000000,4.000000,4.000000,4.000000,100.000000,,,,,,,,,,,,,,,,
1645711426.422351,1645711426.423011,136.000000,0.000000,4226.666504,4220.000000,4207.948730,4208.589844,4241.666504,4217.051270,4217.563965,4240.128418,4222.179688,4211.794922,4205.384766,4166.666504,4184.358887,4204.358887,1577.000000,4.000000,86.000000,,,,0.000000,4.000000,4.000000,4.000000,4.000000,4.000000,4.000000,4.000000,4.000000,4.000000,4.000000,4.000000,4.000000,4.000000,4.000000,100.000000,,,,,,,,,,,,,,,,
1645711426.426290,1645711426.426951,137.000000,0.000000,4235.000000,4215.769043,4207.051270,4200.769043,4235.000000,4212.692383,4213.846191,4235.897461,4217.436035,4204.615234,4200.000000,4167.051270,4181.922852,4200.128418,2863.000000,4.000000,86.000000,,,,0.000000,4.000000,4.000000,4.000000,4.000000,4.000000,4.000000,4.000000,4.000000,4.000000,4.000000,4.000000,4.000000,4.000000,4.000000,100.000000,,,,,,,,,,,,,,,,
1645711426.430231,1645711426.430892,138.000000,0.000000,4240.000000,4210.769043,4206.410156,4195.128418,4227.436035,4208.846191,4209.871582,4230.512695,4212.948730,4194.487305,4191.922852,4164.102539,4179.230957,4197.820313,2300.000000,4.000000,86.000000,,,,0.000000,4.000000,4.000000,4.000000,4.000000,4.000000,4.000000,4.000000,4.000000,4.000000,4.000000,4.000000,4.000000,4.000000,4.000000,100.000000,,,,,,,,,,,,,,,,
1645711426.434171,1645711426.434832,139.000000,0.000000,4235.000000,4210.769043,4206.794922,4198.077148,4226.410156,4210.897461,4208.717773,4228.077148,4212.563965,4190.769043,4187.948730,4159.743652,4178.077148,4195.769043,2435.000000,4.000000,86.000000,,,,0.000000,4.000000,4.000000,4.000000,4.000000,4.000000,4.000000,4.000000,4.000000,4.000000,4.000000,4.000000,4.000000,4.000000,4.000000,100.000000,,,,,,,,,,,,,,,,
1645711426.438110,1645711426.438772,140.000000,0.000000,4225.000000,4214.871582,4206.922852,4206.410156,4229.743652,4216.410156,4208.846191,4228.589844,4215.256348,4193.717773,4187.692383,4155.256348,4176.666504,4192.692383,3297.000000,4.000000,86.000000,,,,0.000000,4.000000,4.000000,4.000000,4.000000,4.000000,4.000000,4.000000,4.000000,4.000000,4.000000,4.000000,4.000000,4.000000,4.000000,100.000000,,,,,,,,,,,,,,,,
1645711426.442051,1645711426.442712,141.000000,0.000000,4221.538574,4216.282227,4205.769043,4210.641113,4230.512695,4218.846191,4207.820313,4229.230957,4217.179688,4196.282227,4186.282227,4152.051270,4172.436035,4190.128418,3195.000000,4.000000,86.000000,,,,0.000000,4.000000,4.000000,4.000000,4.000000,4.000000,4.000000,4.000000,4.000000,4.000000,4.000000,4.000000,4.000000,4.000000,4.000000,100.000000,,,,,,,,,,,,,,,,
1645711426.445991,1645711426.446652,142.000000,0.000000,4227.948730,4211.922852,4205.128418,4207.179688,4227.179688,4215.641113,4206.282227,4228.846191,4216.025879,4194.615234,4182.820313,4152.051270,4167.051270,4190.769043,2300.000000,4.000000,86.000000,,,,0.000000,4.000000,4.000000,4.000000,4.000000,4.000000,4.000000,4.000000,4.000000,4.000000,4.000000,4.000000,4.000000,4.000000,4.000000,100.000000,,,,,,,,,,,,,,,,
1645711426.449931,1645711426.450592,143.000000,0.000000,4235.641113,4205.769043,4207.307617,4200.897461,4226.666504,4211.282227,4206.666504,4230.000000,4214.102539,4192.307617,4182.692383,4156.666504,4164.871582,4194.230957,2435.000000,4.000000,86.000000,,,,0.000000,4.000000,4.000000,4.000000,4.000000,4.000000,4.000000,4.000000,4.000000,4.000000,4.000000,4.000000,4.000000,4.000000,4.000000,100.000000,,,,,,,,,,,,,,,,
1645711426.453871,1645711426.454532,144.000000,0.000000,4235.897461,4203.589844,4211.794922,4198.717773,4233.205078,4210.256348,4208.974121,4234.102539,4214.358887,4194.615234,4188.846191,4163.846191,4168.461426,4196.282227,3297.000000,4.000000,86.000000,,,,0.000000,4.000000,4.000000,4.000000,4.000000,4.000000,4.000000,4.000000,4.000000,4.000000,4.000000,4.000000,4.000000,4.000000,4.000000,100.000000,,,,,,,,,,,,,,,,
1645711426.457811,1645711426.458472,145.000000,0.000000,4230.641113,4206.025879,4214.743652,4200.128418,4240.641113,4210.769043,4209.871582,4238.589844,4216.794922,4199.358887,4196.794922,4168.589844,4174.487305,4194.487305,3195.000000,4.000000,86.000000,,,,0.000000,4.000000,4.000000,4.000000,4.000000,4.000000,4.000000,4.000000,4.000000,4.000000,4.000000,4.000000,4.000000,4.000000,4.000000,100.000000,,,,,,,,,,,,,,,,
1645711426.461751,1645711426.462412,146.000000,0.000000,4228.589844,4208.974121,4213.077148,4199.615234,4238.461426,4207.307617,4206.410156,4238.717773,4218.077148,4199.102539,4198.589844,4166.794922,4177.307617,4191.025879,2300.000000,4.000000,86.000000,,,,0.000000,4.000000,4.000000,4.000000,4.000000,4.000000,4.000000,4.000000,4.000000,4.000000,4.000000,4.000000,4.000000,4.000000,4.000000,100.000000,,,,,,,,,,,,,,,,
1645711426.465691,1645711426.466353,147.000000,0.000000,4232.179688,4208.974121,4207.692383,4194.743652,4225.000000,4199.230957,4200.000000,4233.461426,4216.025879,4191.666504,4191.794922,4159.102539,4174.871582,4190.769043,2435.000000,4.000000,86.000000,,,,0.000000,4.000000,4.000000,4.000000,4.000000,4.000000,4.000000,4.000000,4.000000,4.000000,4.000000,4.000000,4.000000,4.000000,4.000000,100.000000,,,,,,,,,,,,,,,,
1645711426.469631,1645711426.470293,148.000000,0.000000,4233.846191,4207.179688,4202.820313,4189.743652,4211.410156,4192.692383,4195.384766,4226.794922,4212.179688,4183.205078,4182.948730,4150.769043,4170.512695,4193.974121,3297.000000,4.000000,86.000000,,,,0.000000,4.000000,4.000000,4.000000,4.000000,4.000000,4.000000,4.000000,4.000000,4.000000,4.000000,4.000000,4.000000,4.000000,4.000000,100.000000,,,,,,,,,,,,,,,,
1645711426.473571,1645711426.474233,149.000000,0.000000,4227.307617,4205.769043,4201.410156,4189.871582,4208.974121,4193.205078,4195.384766,4223.717773,4209.743652,4181.153809,4179.230957,4146.538574,4167.948730,4196.025879,3195.000000,4.000000,86.000000,,,,0.000000,4.000000,4.000000,4.000000,4.000000,4.000000,4.000000,4.000000,4.000000,4.000000,4.000000,4.000000,4.000000,4.000000,4.000000,100.000000,,,,,,,,,,,,,,,,
1645711426.477511,1645711426.478173,150.000000,0.000000,4217.179688,4204.487305,4202.820313,4194.102539,4217.307617,4199.230957,4198.333496,4225.000000,4209.871582,4185.000000,4180.512695,4146.666504,4167.179688,4192.179688,2300.000000,4.000000,86.000000,,,,0.000000,4.000000,4.000000,4.000000,4.000000,4.000000,4.000000,4.000000,4.000000,4.000000,4.000000,4.000000,4.000000,4.000000,4.000000,100.000000,,,,,,,,,,,,,,,,
1645711426.481451,1645711426.482013,151.000000,0.000000,4214.358887,4201.410156,4203.846191,4196.538574,4224.743652,4203.589844,4200.897461,4227.179688,4210.641113,4187.436035,4181.410156,4148.717773,4165.256348,4183.974121,2435.000000,4.000000,86.000000,,,,0.000000,4.000000,4.000000,4.000000,4.000000,4.000000,4.000000,4.000000,4.000000,4.000000,4.000000,4.000000,4.000000,4.000000,4.000000,100.000000,,,,,,,,,,,,,,,,
1645711426.485391,1645711426.485953,152.000000,0.000000,4222.436035,4197.692383,4203.333496,4193.974121,4223.077148,4202.692383,4201.538574,4226.794922,4210.384766,4183.974121,4179.615234,4150.769043,4162.179688,4177.948730,3297.000000,4.000000,86.000000,,,,0.000000,4.000000,4.000000,4.000000,4.000000,4.000000,4.000000,4.000000,4.000000,4.000000,4.000000,4.000000,4.000000,4.000000,4.000000,100.000000,,,,,,,,,,,,,,,,
1645711426.489331,1645711426.489893,153.000000,0.000000,4232.563965,4197.820313,4203.205078,4191.025879,4217.051270,4200.128418,4201.538574,4224.743652,4209.871582,4179.102539,4180.384766,4153.717773,4161.410156,4179.102539,3195.000000,4.000000,86.000000,,,,0.000000,4.000000,4.000000,4.000000,4.000000,4.000000,4.000000,4.000000,4.000000,4.000000,4.000000,4.000000,4.000000,4.000000,4.000000,100.000000,,,,,,,,,,,,,,,,
1645711426.493271,1645711426.493833,154.000000,0.000000,4234.102539,4204.230957,4205.512695,4193.461426,4216.410156,4200.512695,4201.794922,4223.589844,4210.641113,4179.230957,4187.820313,4158.333496,4166.153809,4185.897461,2300.000000,4.000000,86.000000,,,,0.000000,4.000000,4.000000,4.000000,4.000000,4.000000,4.000000,4.000000,4.000000,4.000000,4.000000,4.000000,4.000000,4.000000,4.000000,100.000000,,,,,,,,,,,,,,,,
1645711426.497211,1645711426.497773,155.000000,0.000000,4227.692383,4212.179688,4208.589844,4200.384766,4223.205078,4203.205078,4200.641113,4223.717773,4212.307617,4184.487305,4197.692383,4161.538574,4173.461426,4192.307617,2435.000000,4.000000,86.000000,,,,0.000000,4.000000,4.000000,4.000000,4.000000,4.000000,4.000000,4.000000,4.000000,4.000000,4.000000,4.000000,4.000000,4.000000,4.000000,100.000000,,,,,,,,,,,,,,,,
1645711426.501151,1645711426.501714,156.000000,0.000000,4222.692383,4214.102539,4209.487305,4204.743652,4229.743652,4203.589844,4197.051270,4222.820313,4212.692383,4188.205078,4199.871582,4159.230957,4176.922852,4194.230957,3297.000000,4.000000,86.000000,,,,0.000000,4.000000,4.000000,4.000000,4.000000,4.000000,4.000000,4.000000,4.000000,4.000000,4.000000,4.000000,4.000000,4.000000,4.000000,100.000000,,,,,,,,,,,,,,,,
1645711426.505091,1645711426.505654,157.000000,0.000000,4225.128418,4208.077148,4207.307617,4202.820313,4229.358887,4200.769043,4193.205078,4220.256348,4210.641113,4185.641113,4191.025879,4151.282227,4173.589844,4192.692383,3195.000000,4.000000,86.000000,,,,0.000000,4.000000,4.000000,4.000000,4.000000,4.000000,4.000000,4.000000,4.000000,4.000000,4.000000,4.000000,4.000000,4.000000,4.000000,100.000000,,,,,,,,,,,,,,,,
1645711426.509031,1645711426.509594,158.000000,0.000000,4231.153809,4201.153809,4205.384766,4198.846191,4224.743652,4199.743652,4193.333496,4218.589844,4208.717773,4180.512695,4179.487305,4143.717773,4167.436035,4191.794922,2300.000000,4.000000,86.000000,,,,0.000000,4.000000,4.000000,4.000000,4.000000,4.000000,4.000000,4.000000,4.000000,4.000000,4.000000,4.000000,4.000000,4.000000,4.000000,100.000000,,,,,,,,,,,,,,,,
1645711426.512971,1645711426.513534,159.000000,0.000000,4233.077148,4201.538574,4207.179688,4198.974121,4222.820313,4205.000000,4198.589844,4220.769043,4210.256348,4179.871582,4177.051270,4143.205078,4165.769043,4193.333496,2435.000000,4.000000,86.000000,,,,0.000000,4.000000,4.000000,4.000000,4.000000,4.000000,4.000000,4.000000,4.000000,4.000000,4.000000,4.000000,4.000000,4.000000,4.000000,100.000000,,,,,,,,,,,,,,,,
1645711426.516911,1645711426.517474,160.000000,0.000000,4230.897461,4209.871582,4212.179688,4203.846191,4224.615234,4212.948730,4205.000000,4226.153809,4215.128418,4184.871582,4185.641113,4150.128418,4170.512695,4195.512695,3297.000000,4.000000,86.000000,,,,0.000000,4.000000,4.000000,4.000000,4.000000,4.000000,4.000000,4.000000,4.000000,4.000000,4.000000,4.000000,4.000000,4.000000,4.000000,100.000000,,,,,,,,,,,,,,,,
1645711426.520851,1645711426.521414,161.000000,0.000000,4231.153809,4217.820313,4216.025879,4207.307617,4224.102539,4215.384766,4206.538574,4230.000000,4218.974121,4188.846191,4196.025879,4158.461426,4177.051270,4196.538574,3195.000000,4.000000,86.000000,,,,0.000000,4.000000,4.000000,4.000000,4.000000,4.000000,4.000000,4.000000,4.000000,4.000000,4.000000,4.000000,4.000000,4.000000,4.000000,100.000000,,,,,,,,,,,,,,,,
1645711426.524791,1645711426.525354,162.000000,0.000000,4236.153809,4218.846191,4215.641113,4204.743652,4218.333496,4208.974121,4201.794922,4228.846191,4218.077148,4186.666504,4198.205078,4161.666504,4179.102539,4196.922852,2300.000000,4.000000,86.000000,,,,0.000000,4.000000,4.000000,4.000000,4.000000,4.000000,4.000000,4.000000,4.000000,4.000000,4.000000,4.000000,4.000000,4.000000,4.000000,100.000000,,,,,,,,,,,,,,,,
1645711426.528731,1645711426.529294,163.000000,0.000000,4239.358887,4213.974121,4212.436035,4198.717773,4213.205078,4200.000000,4195.128418,4224.487305,4213.717773,4182.051270,4192.051270,4158.974121,4175.769043,4197.820313,2435.000000,4.000000,86.000000,,,,0.000000,4.000000,4.000000,4.000000,4.000000,4.000000,4.000000,4.000000,4.000000,4.000000,4.000000,4.000000,4.000000,4.000000,4.000000,100.000000,,,,,,,,,,,,,,,,
1645711426.532671,1645711426.533234,164.000000,0.000000,4234.230957,4209.871582,4210.128418,4195.512695,4216.922852,4197.051270,4191.538574,4221.410156,4209.871582,4181.922852,4185.897461,4154.487305,4171.025879,4198.974121,3297.000000,4.000000,86.000000,,,,0.000000,4.000000,4.000000,4.000000,4.000000,4.000000,4.000000,4.000000,4.000000,4.000000,4.000000,4.000000,4.000000,4.000000,4.000000,100.000000,,,,,,,,,,,,,,,,
1645711426.536611,1645711426.537175,165.000000,0.000000,4224.358887,4209.871582,4211.025879,4197.820313,4228.461426,4201.538574,4192.051270,4221.410156,4208.974121,4187.692383,4186.153809,4151.410156,4169.487305,4198.333496,3195.000000,4.000000,86.000000,,,,0.000000,4.000000,4.000000,4.000000,4.000000,4.000000,4.000000,4.000000,4.000000,4.000000,4.000000,4.000000,4.000000,4.000000,4.000000,100.000000,,,,,,,,,,,,,,,,
1645711426.540551,1645711426.541115,166.000000,0.000000,4220.641113,4211.153809,4212.820313,4202.563965,4237.307617,4207.436035,4193.846191,4222.051270,4209.487305,4192.179688,4190.769043,4149.743652,4171.153809,4195.384766,2300.000000,4.000000,86.000000,,,,0.000000,4.000000,4.000000,4.000000,4.000000,4.000000,4.000000,4.000000,4.000000,4.000000,4.000000,4.000000,4.000000,4.000000,4.000000,100.000000,,,,,,,,,,,,,,,,
1645711426.544491,1645711426.545055,167.000000,0.000000,4227.692383,4210.000000,4212.563965,4205.000000,4235.128418,4209.102539,4195.000000,4221.153809,4209.230957,4189.743652,4194.487305,4148.974121,4173.461426,4192.692383,2435.000000,4.000000,86.000000,,,,0.000000,4.000000,4.000000,4.000000,4.000000,4.000000,4.000000,4.000000,4.000000,4.000000,4.000000,4.000000,4.000000,4.000000,4.000000,100.000000,,,,,,,,,,,,,,,,
1645711426.548431,1645711426.548995,168.000000,0.000000,4236.922852,4207.563965,4209.615234,4204.615234,4225.384766,4207.820313,4195.641113,4219.358887,4208.333496,4183.205078,4195.897461,4149.743652,4174.358887,4191.794922,3297.000000,4.000000,86.000000,,,,0.000000,4.000000,4.000000,4.000000,4.000000,4.000000,4.000000,4.000000,4.000000,4.000000,4.000000,4.000000,4.000000,4.000000,4.000000,100.000000,,,,,,,,,,,,,,,,
1645711426.552371,1645711426.553035,169.000000,0.000000,4237.051270,4207.820313,4206.410156,4204.230957,4218.589844,4207.692383,4196.666504,4219.615234,4208.846191,4180.000000,4197.563965,4152.692383,4174.358887,4191.538574,3195.000000,4.000000,86.000000,,,,0.000000,4.000000,4.000000,4.000000,4.000000,4.000000,4.000000,4.000000,4.000000,4.000000,4.000000,4.000000,4.000000,4.000000,4.000000,100.000000,,,,,,,,,,,,,,,,
1645711426.556311,1645711426.556975,170.000000,0.000000,4228.077148,4210.897461,4205.000000,4205.384766,4219.743652,4209.487305,4196.410156,4222.179688,4210.641113,4182.563965,4200.000000,4155.512695,4174.102539,4189.102539,2300.000000,4.000000,86.000000,2,1,2,0.000000,4.000000,4.000000,4.000000,4.000000,4.000000,4.000000,4.000000,4.000000,4.000000,4.000000,4.000000,4.000000,4.000000,4.000000,100.000000,,,,,,,,,,,,,,,,
1645711426.560251,1645711426.560916,171.000000,0.000000,4221.153809,4212.179688,4205.512695,4206.153809,4224.487305,4209.743652,4193.077148,4224.102539,4211.410156,4185.000000,4199.358887,4155.128418,4173.205078,4185.256348,2435.000000,4.000000,86.000000,,,,0.000000,4.000000,4.000000,4.000000,4.000000,4.000000,4.000000,4.000000,4.000000,4.000000,4.000000,4.000000,4.000000,4.000000,4.000000,100.000000,,,,,,,,,,,,,,,,
1645711426.564191,1645711426.564856,172.000000,0.000000,4225.128418,4209.230957,4207.436035,4205.256348,4226.410156,4206.794922,4188.205078,4222.948730,4209.615234,4181.794922,4194.102539,4151.794922,4170.897461,4184.871582,3297.000000,4.000000,86.000000,,,,0.000000,4.000000,4.000000,4.000000,4.000000,4.000000,4.000000,4.000000,4.000000,4.000000,4.000000,4.000000,4.000000,4.000000,4.000000,100.000000,,,,,,,,,,,,,,,,
1645711426.568131,1645711426.568796,173.000000,0.000000,4235.769043,4206.922852,4210.641113,4205.256348,4226.538574,4204.615234,4186.282227,4220.256348,4207.692383,4176.666504,4189.102539,4150.256348,4168.717773,4191.410156,3195.000000,4.000000,86.000000,,,,0.000000,4.000000,4.000000,4.000000,4.000000,4.000000,4.000000,4.000000,4.000000,4.000000,4.000000,4.000000,4.000000,4.000000,4.000000,100.000000,,,,,,,,,,,,,,,,
1645711426.572071,1645711426.572737,174.000000,0.000000,4241.794922,4212.307617,4215.512695,4209.230957,4229.743652,4207.820313,4190.384766,4219.871582,4209.230957,4177.948730,4191.666504,4154.871582,4168.974121,4202.179688,2300.000000,4.000000,86.000000,,,,0.000000,4.000000,4.000000,4.000000,4.000000,4.000000,4.000000,4.000000,4.000000,4.000000,4.000000,4.000000,4.000000,4.000000,4.000000,100.000000,,,,,,,,,,,,,,,,
1645711426.576011,1645711426.576677,175.000000,0.000000,4239.230957,4224.487305,4219.743652,4215.128418,4236.666504,4215.256348,4197.820313,4222.692383,4214.358887,4187.948730,4202.307617,4163.717773,4171.922852,4209.230957,2435.000000,4.000000,86.000000,,,,0.000000,4.000000,4.000000,4.000000,4.000000,4.000000,4.000000,4.000000,4.000000,4.000000,4.000000,4.000000,4.000000,4.000000,4.000000,100.000000,,,,,,,,,,,,,,,,
1645711426.579951,1645711426.580617,176.000000,0.000000,4234.743652,4233.461426,4220.512695,4217.563965,4240.641113,4219.487305,4202.692383,4225.384766,4218.717773,4198.589844,4212.563965,4170.641113,4174.743652,4207.948730,3297.000000,4.000000,86.000000,,,,0.000000,4.000000,4.000000,4.000000,4.000000,4.000000,4.000000,4.000000,4.000000,4.000000,4.000000,4.000000,4.000000,4.000000,4.000000,100.000000,,,,,,,,,,,,,,,,
1645711426.583891,1645711426.584558,177.000000,0.000000,4235.512695,4230.256348,4217.436035,4213.974121,4237.307617,4215.641113,4202.051270,4224.743652,4218.333496,4200.256348,4215.000000,4171.153809,4175.000000,4200.512695,3195.000000,4.000000,86.000000,,,,0.000000,4.000000,4.000000,4.000000,4.000000,4.000000,4.000000,4.000000,4.000000,4.000000,4.000000,4.000000,4.000000,4.000000,4.000000,100.000000,,,,,,,,,,,,,,,,
1645711426.587831,1645711426.588498,178.000000,0.000000,4239.102539,4217.692383,4213.717773,4209.358887,4230.641113,4208.205078,4198.974121,4221.794922,4214.358887,4193.205078,4210.256348,4167.307617,4173.717773,4193.589844,2300.000000,4.000000,86.000000,,,,0.000000,4.000000,4.000000,4.000000,4.000000,4.000000,4.000000,4.000000,4.000000,4.000000,4.000000,4.000000,4.000000,4.000000,4.000000,100.000000,,,,,,,,,,,,,,,,
1645711426.591771,1645711426.592439,179.000000,0.000000,4238.077148,4207.179688,4213.077148,4210.000000,4230.000000,4205.769043,4197.948730,4220.128418,4211.282227,4186.666504,4205.512695,4164.615234,4173.461426,4191.282227,2435.000000,4.000000,86.000000,,,,0.000000,4.000000,4.000000,4.000000,4.000000,4.000000,4.000000,4.000000,4.000000,4.000000,4.000000,4.000000,4.000000,4.000000,4.000000,100.000000,,,,,,,,,,,,,,,,
1645711426.595711,1645711426.596379,180.000000,0.000000,4231.282227,4207.436035,4215.769043,4215.256348,4238.461426,4211.025879,4200.128418,4221.410156,4212.307617,4186.922852,4204.615234,4165.769043,4174.487305,4192.436035,3297.000000,4.000000,86.000000,,,,0.000000,4.000000,4.000000,4.000000,4.000000,4.000000,4.000000,4.000000,4.000000,4.000000,4.000000,4.000000,4.000000,4.000000,4.000000,100.000000,,,,,,,,,,,,,,,,
1645711426.599651,1645711426.600319,181.000000,0.000000,4227.051270,4215.769043,4218.205078,4218.461426,4248.333496,4217.820313,4202.179688,4223.461426,4215.000000,4190.512695,4204.871582,4168.846191,4173.846191,4194.487305,3195.000000,4.000000,86.000000,,,,0.000000,4.000000,4.000000,4.000000,4.000000,4.000000,4.000000,4.000000,4.000000,4.000000,4.000000,4.000000,4.000000,4.000000,4.000000,100.000000,,,,,,,,,,,,,,,,
1645711426.603591,1645711426.604260,182.000000,0.000000,4231.794922,4223.205078,4217.692383,4214.487305,4250.128418,4218.077148,4201.153809,4223.077148,4215.512695,4189.615234,4201.794922,4170.384766,4169.102539,4196.794922,2300.000000,4.000000,86.000000,,,,0.000000,4.000000,4.000000,4.000000,4.000000,4.000000,4.000000,4.000000,4.000000,4.000000,4.000000,4.000000,4.000000,4.000000,4.000000,100.000000,,,,,,,,,,,,,,,,
1645711426.607531,1645711426.608200,183.000000,0.000000,4240.897461,4224.102539,4215.128418,4207.563965,4243.461426,4211.538574,4197.820313,4220.769043,4212.692383,4183.974121,4196.538574,4168.974121,4163.077148,4199.743652,2435.000000,4.000000,86.000000,,,,0.000000,4.000000,4.000000,4.000000,4.000000,4.000000,4.000000,4.000000,4.000000,4.000000,4.000000,4.000000,4.000000,4.000000,4.000000,100.000000,,,,,,,,,,,,,,,,
1645711426.611471,1645711426.612140,184.000000,0.000000,4243.589844,4220.000000,4214.358887,4205.641113,4236.282227,4204.487305,4195.128418,4219.487305,4209.487305,4180.769043,4194.615234,4165.897461,4161.025879,4202.051270,3297.000000,4.000000,86.000000,,,,0.000000,4.000000,4.000000,4.000000,4.000000,4.000000,4.000000,4.000000,4.000000,4.000000,4.000000,4.000000,4.000000,4.000000,4.000000,100.000000,,,,,,,,,,,,,,,,
1645711426.615411,1645711426.616081,185.000000,0.000000,4237.051270,4215.256348,4216.794922,4211.153809,4235.128418,4202.307617,4194.615234,4220.641113,4208.461426,4184.358887,4198.077148,4162.820313,4165.128418,4201.410156,3195.000000,4.000000,86.000000,,,,0.000000,4.000000,4.000000,4.000000,4.000000,4.000000,4.000000,4.000000,4.000000,4.000000,4.000000,4.000000,4.000000,4.000000,4.000000,100.000000,,,,,,,,,,,,,,,,
1645711426.619351,1645711426.620021,186.000000,0.000000,4230.000000,4211.538574,4220.384766,4217.051270,4237.948730,4203.333496,4195.256348,4222.436035,4209.487305,4189.871582,4202.051270,4160.000000,4171.153809,4196.794922,2300.000000,4.000000,86.000000,,,,0.000000,4.000000,4.000000,4.000000,4.000000,4.000000,4.000000,4.000000,4.000000,4.000000,4.000000,4.000000,4.000000,4.000000,4.000000,100.000000,,,,,,,,,,,,,,,,
1645711426.623291,1645711426.623961,187.000000,0.000000,4231.794922,4209.102539,4222.436035,4216.025879,4239.230957,4203.589844,4196.538574,4222.563965,4210.769043,4189.487305,4201.025879,4157.948730,4173.205078,4191.153809,2435.000000,4.000000,86.000000,,,,0.000000,4.000000,4.000000,4.000000,4.000000,4.000000,4.000000,4.000000,4.000000,4.000000,4.000000,4.000000,4.000000,4.000000,4.000000,100.000000,,,,,,,,,,,,,,,,
1645711426.627231,1645711426.627801,188.000000,0.000000,4240.000000,4209.230957,4223.077148,4209.230957,4238.717773,4203.205078,4199.230957,4222.179688,4211.282227,4182.563965,4196.538574,4157.820313,4169.743652,4188.077148,3297.000000,4.000000,86.000000,,,,0.000000,4.000000,4.000000,4.000000,4.000000,4.000000,4.000000,4.000000,4.000000,4.000000,4.000000,4.000000,4.000000,4.000000,4.000000,100.000000,,,,,,,,,,,,,,,,
1645711426.631171,1645711426.631742,189.000000,0.000000,4243.589844,4213.205078,4224.230957,4205.384766,4241.666504,4205.769043,4203.846191,4224.102539,4211.794922,4176.922852,4195.128418,4159.615234,4164.743652,4188.461426,3195.000000,4.000000,86.000000,,,,0.000000,4.000000,4.000000,4.000000,4.000000,4.000000,4.000000,4.000000,4.000000,4.000000,4.000000,4.000000,4.000000,4.000000,4.000000,100.000000,,,,,,,,,,,,,,,,
1645711426.635111,1645711426.635682,190.000000,0.000000,4237.563965,4219.358887,4226.282227,4209.615234,4250.128418,4212.179688,4209.102539,4228.461426,4212.948730,4178.333496,4199.102539,4160.384766,4162.307617,4189.487305,2300.000000,4.000000,86.000000,,,,0.000000,4.000000,4.000000,4.000000,4.000000,4.000000,4.000000,4.000000,4.000000,4.000000,4.000000,4.000000,4.000000,4.000000,4.000000,100.000000,,,,,,,,,,,,,,,,
1645711426.639051,1645711426.639622,191.000000,0.000000,4229.358887,4222.436035,4226.538574,4217.179688,4257.692383,4217.307617,4211.153809,4231.410156,4213.077148,4182.820313,4202.179688,4156.794922,4162.179688,4188.461426,2435.000000,4.000000,86.000000,,,,0.000000,4.000000,4.000000,4.000000,4.000000,4.000000,4.000000,4.000000,4.000000,4.000000,4.000000,4.000000,4.000000,4.000000,4.000000,100.000000,,,,,,,,,,,,,,,,
1645711426.642991,1645711426.643562,192.000000,0.000000,4228.589844,4218.846191,4222.948730,4218.589844,4256.410156,4216.025879,4208.717773,4228.717773,4210.641113,4181.666504,4196.410156,4148.205078,4160.769043,4184.615234,3297.000000,4.000000,86.000000,,,,0.000000,4.000000,4.000000,4.000000,4.000000,4.000000,4.000000,4.000000,4.000000,4.000000,4.000000,4.000000,4.000000,4.000000,4.000000,100.000000,,,,,,,,,,,,,,,,
1645711426.646931,1645711426.647502,193.000000,0.000000,4233.974121,4210.769043,4216.794922,4210.769043,4246.794922,4209.871582,4203.974121,4221.410156,4206.666504,4173.205078,4182.820313,4138.974121,4157.179688,4179.358887,3195.000000,4.000000,86.000000,,,,0.000000,4.000000,4.000000,4.000000,4.000000,4.000000,4.000000,4.000000,4.000000,4.000000,4.000000,4.000000,4.000000,4.000000,4.000000,100.000000,,,,,,,,,,,,,,,,
1645711426.650871,1645711426.651442,194.000000,0.000000,4236.153809,4204.871582,4211.794922,4200.384766,4237.436035,4206.410156,4201.153809,4214.743652,4204.358887,4164.615234,4171.666504,4134.487305,4154.102539,4174.358887,2300.000000,4.000000,86.000000,,,,0.000000,4.000000,4.000000,4.000000,4.000000,4.000000,4.000000,4.000000,4.000000,4.000000,4.000000,4.000000,4.000000,4.000000,4.000000,100.000000,,,,,,,,,,,,,,,,
1645711426.654812,1645711426.655382,195.000000,0.000000,4230.641113,4204.743652,4210.128418,4195.769043,4236.025879,4209.871582,4201.538574,4213.333496,4205.897461,4162.692383,4171.794922,4136.410156,4154.871582,4171.794922,2435.000000,4.000000,86.000000,,,,0.000000,4.000000,4.000000,4.000000,4.000000,4.000000,4.000000,4.000000,4.000000,4.000000,4.000000,4.000000,4.000000,4.000000,4.000000,100.000000,,,,,,,,,,,,,,,,
1645711426.658751,1645711426.659322,196.000000,0.000000,4224.487305,4208.333496,4211.410156,4198.589844,4240.384766,4216.538574,4203.077148,4216.410156,4209.871582,4166.410156,4181.153809,4141.410156,4158.589844,4174.102539,3297.000000,4.000000,86.000000,,,,0.000000,4.000000,4.000000,4.000000,4.000000,4.000000,4.000000,4.000000,4.000000,4.000000,4.000000,4.000000,4.000000,4.000000,4.000000,100.000000,,,,,,,,,,,,,,,,
1645711426.662691,1645711426.663262,197.000000,0.000000,4226.794922,4211.153809,4214.230957,4204.487305,4243.846191,4220.641113,4204.358887,4220.256348,4213.077148,4169.487305,4190.897461,4145.384766,4161.666504,4182.436035,3195.000000,4.000000,86.000000,,,,0.000000,4.000000,4.000000,4.000000,4.000000,4.000000,4.000000,4.000000,4.000000,4.000000,4.000000,4.000000,4.000000,4.000000,4.000000,100.000000,,,,,,,,,,,,,,,,
1645711426.666631,1645711426.667203,198.000000,0.000000,4235.897461,4213.077148,4218.461426,4209.615234,4244.487305,4221.410156,4206.410156,4222.820313,4214.230957,4169.487305,4194.615234,4147.820313,4162.179688,4193.717773,2300.000000,4.000000,86.000000,,,,0.000000,4.000000,4.000000,4.000000,4.000000,4.000000,4.000000,4.000000,4.000000,4.000000,4.000000,4.000000,4.000000,4.000000,4.000000,100.000000,,,,,,,,,,,,,,,,
1645711426.670571,1645711426.671143,199.000000,0.000000,4241.538574,4216.922852,4224.102539,4213.846191,4247.307617,4222.948730,4210.769043,4225.641113,4214.743652,4171.025879,4194.358887,4151.282227,4161.922852,4200.641113,2435.000000,4.000000,86.000000,,,,0.000000,4.000000,4.000000,4.000000,4.000000,4.000000,4.000000,4.000000,4.000000,4.000000,4.000000,4.000000,4.000000,4.000000,4.000000,100.000000,,,,,,,,,,,,,,,,
1645711426.674512,1645711426.675083,200.000000,0.000000,4237.563965,4222.692383,4229.102539,4217.820313,4254.871582,4227.307617,4216.025879,4230.128418,4216.410156,4178.205078,4195.384766,4157.692383,4162.692383,4197.436035,3297.000000,4.000000,86.000000,,,,0.000000,4.000000,4.000000,4.000000,4.000000,4.000000,4.000000,4.000000,4.000000,4.000000,4.000000,4.000000,4.000000,4.000000,4.000000,100.000000,,,,,,,,,,,,,,,,
1645711426.678451,1645711426.679023,201.000000,0.000000,4230.512695,4224.871582,4230.256348,4218.589844,4261.153809,4230.512695,4217.692383,4234.230957,4218.333496,4187.820313,4197.692383,4164.102539,4163.205078,4185.641113,3195.000000,4.000000,86.000000,,,,0.000000,4.000000,4.000000,4.000000,4.000000,4.000000,4.000000,4.000000,4.000000,4.000000,4.000000,4.000000,4.000000,4.000000,4.000000,100.000000,,,,,,,,,,,,,,,,
1645711426.682392,1645711426.682963,202.000000,0.000000,4230.000000,4218.717773,4225.769043,4213.205078,4257.948730,4226.922852,4213.461426,4234.358887,4218.077148,4192.436035,4198.077148,4166.410156,4161.666504,4174.487305,2300.000000,4.000000,86.000000,,,,0.000000,4.000000,4.000000,4.000000,4.000000,4.000000,4.000000,4.000000,4.000000,4.000000,4.000000,4.000000,4.000000,4.000000,4.000000,100.000000,,,,,,,,,,,,,,,,
1645711426.686332,1645711426.686903,203.000000,0.000000,4236.282227,4207.563965,4218.333496,4203.589844,4245.512695,4217.436035,4206.794922,4230.128418,4215.512695,4189.743652,4196.282227,4163.461426,4159.102539,4173.205078,2435.000000,4.000000,86.000000,,,,0.000000,4.000000,4.000000,4.000000,4.000000,4.000000,4.000000,4.000000,4.000000,4.000000,4.000000,4.000000,4.000000,4.000000,4.000000,100.000000,,,,,,,,,,,,,,,,
1645711426.690272,1645711426.690843,204.000000,0.000000,4239.230957,4200.512695,4212.563965,4196.666504,4233.717773,4209.487305,4203.205078,4225.384766,4213.333496,4185.256348,4196.666504,4158.461426,4159.615234,4183.077148,3297.000000,4.000000,86.000000,,,,0.000000,4.000000,4.000000,4.000000,4.000000,4.000000,4.000000,4.000000,4.000000,4.000000,4.000000,4.000000,4.000000,4.000000,4.000000,100.000000,,,,,,,,,,,,,,,,
1645711426.694212,1645711426.694783,205.000000,0.000000,4232.563965,4203.333496,4210.769043,4197.436035,4231.282227,4208.846191,4204.102539,4224.102539,4214.102539,4185.000000,4202.307617,4155.256348,4164.871582,4195.384766,3195.000000,4.000000,86.000000,,,,0.000000,4.000000,4.000000,4.000000,4.000000,4.000000,4.000000,4.000000,4.000000,4.000000,4.000000,4.000000,4.000000,4.000000,4.000000,100.000000,,,,,,,,,,,,,,,,
1645711426.698151,1645711426.698723,206.000000,0.000000,4222.563965,4211.282227,4211.922852,4203.461426,4236.666504,4213.205078,4206.282227,4225.384766,4216.666504,4188.077148,4209.230957,4154.615234,4171.025879,4200.769043,2300.000000,4.000000,86.000000,,,,0.000000,4.000000,4.000000,4.000000,4.000000,4.000000,4.000000,4.000000,4.000000,4.000000,4.000000,4.000000,4.000000,4.000000,4.000000,100.000000,,,,,,,,,,,,,,,,
1645711426.702092,1645711426.702564,207.000000,0.000000,4220.769043,4215.256348,4212.563965,4208.333496,4242.051270,4216.282227,4206.025879,4225.512695,4218.077148,4188.589844,4210.384766,4154.871582,4172.307617,4196.666504,2435.000000,4.000000,86.000000,,,,0.000000,4.000000,4.000000,4.000000,4.000000,4.000000,4.000000,4.000000,4.000000,4.000000,4.000000,4.000000,4.000000,4.000000,4.000000,100.000000,,,,,,,,,,,,,,,,
1645711426.706032,1645711426.706504,208.000000,0.000000,4228.846191,4211.666504,4212.051270,4208.846191,4243.205078,4215.641113,4204.487305,4222.692383,4216.922852,4184.615234,4204.487305,4155.128418,4167.948730,4189.102539,3297.000000,4.000000,86.000000,,,,0.000000,4.000000,4.000000,4.000000,4.000000,4.000000,4.000000,4.000000,4.000000,4.000000,4.000000,4.000000,4.000000,4.000000,4.000000,100.000000,,,,,,,,,,,,,,,,
1645711426.709972,1645711426.710444,209.000000,0.000000,4236.282227,4206.282227,4211.666504,4207.179688,4243.589844,4215.384766,4205.000000,4218.589844,4215.128418,4180.512695,4198.461426,4156.538574,4162.820313,4184.743652,3195.000000,4.000000,86.000000,,,,0.000000,4.000000,4.000000,4.000000,4.000000,4.000000,4.000000,4.000000,4.000000,4.000000,4.000000,4.000000,4.000000,4.000000,4.000000,100.000000,,,,,,,,,,,,,,,,
1645711426.713912,1645711426.714384,210.000000,0.000000,4234.102539,4206.410156,4213.077148,4206.538574,4247.436035,4218.974121,4207.948730,4216.666504,4214.615234,4181.282227,4199.230957,4159.487305,4162.692383,4185.512695,2300.000000,4.000000,86.000000,,,,0.000000,4.000000,4.000000,4.000000,4.000000,4.000000,4.000000,4.000000,4.000000,4.000000,4.000000,4.000000,4.000000,4.000000,4.000000,100.000000,,,,,,,,,,,,,,,,
1645711426.717852,1645711426.718324,211.000000,0.000000,4226.153809,4212.179688,4215.256348,4205.641113,4251.794922,4223.589844,4208.974121,4216.922852,4214.871582,4184.871582,4205.384766,4162.179688,4166.794922,4189.358887,2435.000000,4.000000,86.000000,,,,0.000000,4.000000,4.000000,4.000000,4.000000,4.000000,4.000000,4.000000,4.000000,4.000000,4.000000,4.000000,4.000000,4.000000,4.000000,100.000000,,,,,,,,,,,,,,,,
1645711426.721792,1645711426.722264,212.000000,0.000000,4223.589844,4216.794922,4215.384766,4201.538574,4250.256348,4222.948730,4204.743652,4216.794922,4213.846191,4184.871582,4209.871582,4162.307617,4169.871582,4193.205078,3297.000000,4.000000,86.000000,,,,0.000000,4.000000,4.000000,4.000000,4.000000,4.000000,4.000000,4.000000,4.000000,4.000000,4.000000,4.000000,4.000000,4.000000,4.000000,100.000000,,,,,,,,,,,,,,,,
1645711426.725732,1645711426.726204,213.000000,0.000000,4230.256348,4216.410156,4212.948730,4196.025879,4242.436035,4216.410156,4196.922852,4215.256348,4211.410156,4179.615234,4209.358887,4160.512695,4169.487305,4195.897461,3195.000000,4.000000,86.000000,,,,0.000000,4.000000,4.000000,4.000000,4.000000,4.000000,4.000000,4.000000,4.000000,4.000000,4.000000,4.000000,4.000000,4.000000,4.000000,100.000000,,,,,,,,,,,,,,,,
1645711426.729672,1645711426.730144,214.000000,0.000000,4237.820313,4214.102539,4211.538574,4195.512695,4236.666504,4210.512695,4192.051270,4214.230957,4210.512695,4175.384766,4208.077148,4160.256348,4167.948730,4196.666504,2300.000000,4.000000,86.000000,,,,0.000000,4.000000,4.000000,4.000000,4.000000,4.000000,4.000000,4.000000,4.000000,4.000000,4.000000,4.000000,4.000000,4.000000,4.000000,100.000000,,,,,,,,,,,,,,,,
1645711426.733612,1645711426.734084,215.000000,0.000000,4237.820313,4215.641113,4214.743652,4204.102539,4240.897461,4211.666504,4194.230957,4216.153809,4213.974121,4178.333496,4211.153809,4163.974121,4169.358887,4194.615234,2435.000000,4.000000,86.000000,,,,0.000000,4.000000,4.000000,4.000000,4.000000,4.000000,4.000000,4.000000,4.000000,4.000000,4.000000,4.000000,4.000000,4.000000,4.000000,100.000000,,,,,,,,,,,,,,,,
1645711426.737552,1645711426.738025,216.000000,0.000000,4232.179688,4221.410156,4222.051270,4215.897461,4252.051270,4218.461426,4201.025879,4220.128418,4220.000000,4186.666504,4216.538574,4169.743652,4172.692383,4190.000000,3297.000000,4.000000,86.000000,,,,0.000000,4.000000,4.000000,4.000000,4.000000,4.000000,4.000000,4.000000,4.000000,4.000000,4.000000,4.000000,4.000000,4.000000,4.000000,100.000000,,,,,,,,,,,,,,,,
1645711426.741492,1645711426.741965,217.000000,0.000000,4230.000000,4225.641113,4228.717773,4220.384766,4258.717773,4222.948730,4206.153809,4222.692383,4223.333496,4191.538574,4216.666504,4172.692383,4173.717773,4185.384766,3195.000000,4.000000,86.000000,,,,0.000000,4.000000,4.000000,4.000000,4.000000,4.000000,4.000000,4.000000,4.000000,4.000000,4.000000,4.000000,4.000000,4.000000,4.000000,100.000000,,,,,,,,,,,,,,,,
1645711426.745432,1645711426.745905,218.000000,0.000000,4234.615234,4224.871582,4230.128418,4213.589844,4253.974121,4220.256348,4205.897461,4221.794922,4220.897461,4188.077148,4208.974121,4170.641113,4170.512695,4184.871582,2300.000000,4.000000,86.000000,,,,0.000000,4.000000,4.000000,4.000000,4.000000,4.000000,4.000000,4.000000,4.000000,4.000000,4.000000,4.000000,4.000000,4.000000,4.000000,100.000000,,,,,,,,,,,,,,,,
1645711426.749372,1645711426.749845,219.000000,0.000000,4239.487305,4221.794922,4226.538574,4202.563965,4242.948730,4213.589844,4202.051270,4219.487305,4215.128418,4181.538574,4199.871582,4166.153809,4166.410156,4190.256348,2435.000000,4.000000,86.000000,,,,0.000000,4.000000,4.000000,4.000000,4.000000,4.000000,4.000000,4.000000,4.000000,4.000000,4.000000,4.000000,4.000000,4.000000,4.000000,100.000000,,,,,,,,,,,,,,,,
1645711426.753312,1645711426.753785,220.000000,0.000000,4237.307617,4221.666504,4221.794922,4197.563965,4235.512695,4209.230957,4198.589844,4219.487305,4211.794922,4179.871582,4198.077148,4163.717773,4165.641113,4198.205078,3297.000000,4.000000,86.000000,,,,0.000000,4.000000,4.000000,4.000000,4.000000,4.000000,4.000000,4.000000,4.000000,4.000000,4.000000,4.000000,4.000000,4.000000,4.000000,100.000000,,,,,,,,,,,,,,,,
1645711426.757252,1645711426.757725,221.000000,0.000000,4230.512695,4224.230957,4218.589844,4200.256348,4235.384766,4208.717773,4196.922852,4222.307617,4213.205078,4183.846191,4203.717773,4164.230957,4168.717773,4202.436035,3195.000000,4.000000,86.000000,,,,0.000000,4.000000,4.000000,4.000000,4.000000,4.000000,4.000000,4.000000,4.000000,4.000000,4.000000,4.000000,4.000000,4.000000,4.000000,100.000000,,,,,,,,,,,,,,,,
1645711426.761192,1645711426.761665,222.000000,0.000000,4227.692383,4224.487305,4216.538574,4203.333496,4237.436035,4208.589844,4196.666504,4225.256348,4217.051270,4186.282227,4208.974121,4164.743652,4171.410156,4199.615234,2300.000000,4.000000,86.000000,,,,0.000000,4.000000,4.000000,4.000000,4.000000,4.000000,4.000000,4.000000,4.000000,4.000000,4.000000,4.000000,4.000000,4.000000,4.000000,100.000000,,,,,,,,,,,,,,,,
1645711426.765132,1645711426.765605,223.000000,0.000000,4231.794922,4219.230957,4214.102539,4200.000000,4236.153809,4206.794922,4197.692383,4225.641113,4219.358887,4182.820313,4207.563965,4162.436035,4170.384766,4192.051270,2435.000000,4.000000,86.000000,,,,0.000000,4.000000,4.000000,4.000000,4.000000,4.000000,4.000000,4.000000,4.000000,4.000000,4.000000,4.000000,4.000000,4.000000,4.000000,100.000000,,,,,,,,,,,,,,,,
1645711426.769072,1645711426.769445,224.000000,0.000000,4235.641113,4211.666504,4211.538574,4192.307617,4233.333496,4206.282227,4200.512695,4224.358887,4219.358887,4177.948730,4202.692383,4157.948730,4167.563965,4185.384766,3297.000000,4.000000,86.000000,,,,0.000000,4.000000,4.000000,4.000000,4.000000,4.000000,4.000000,4.000000,4.000000,4.000000,4.000000,4.000000,4.000000,4.000000,4.000000,100.000000,,,,,,,,,,,,,,,,
1645711426.773012,1645711426.773386,225.000000,0.000000,4232.179688,4208.077148,4210.384766,4187.563965,4234.487305,4210.897461,4204.743652,4224.102539,4219.102539,4179.102539,4201.922852,4153.974121,4166.922852,4183.205078,3195.000000,4.000000,86.000000,,,,0.000000,4.000000,4.000000,4.000000,4.000000,4.000000,4.000000,4.000000,4.000000,4.000000,4.000000,4.000000,4.000000,4.000000,4.000000,100.000000,,,,,,,,,,,,,,,,
1645711426.776952,1645711426.777326,226.000000,0.000000,4225.128418,4210.384766,4210.641113,4189.743652,4240.384766,4218.077148,4207.820313,4225.769043,4220.512695,4186.282227,4207.051270,4152.307617,4169.871582,4185.256348,2300.000000,4.000000,86.000000,,,,0.000000,4.000000,4.000000,4.000000,4.000000,4.000000,4.000000,4.000000,4.000000,4.000000,4.000000,4.000000,4.000000,4.000000,4.000000,100.000000,,,,,,,,,,,,,,,,
1645711426.780892,1645711426.781266,227.000000,0.000000,4224.615234,4214.358887,4210.384766,4194.487305,4244.615234,4220.512695,4206.922852,4227.948730,4222.436035,4191.410156,4212.179688,4152.051270,4173.461426,4188.461426,2435.000000,4.000000,86.000000,,,,0.000000,4.000000,4.000000,4.000000,4.000000,4.000000,4.000000,4.000000,4.000000,4.000000,4.000000,4.000000,4.000000,4.000000,4.000000,100.000000,,,,,,,,,,,,,,,,
1645711426.784832,1645711426.785206,228.000000,0.000000,4232.948730,4214.871582,4208.077148,4196.153809,4241.153809,4215.641113,4203.333496,4229.743652,4223.333496,4188.974121,4211.922852,4151.922852,4174.871582,4190.641113,3297.000000,4.000000,86.000000,,,,0.000000,4.000000,4.000000,4.000000,4.000000,4.000000,4.000000,4.000000,4.000000,4.000000,4.000000,4.000000,4.000000,4.000000,4.000000,100.000000,,,,,,,,,,,,,,,,
1645711426.788772,1645711426.789146,229.000000,0.000000,4240.384766,4212.179688,4205.256348,4194.230957,4233.461426,4209.230957,4201.282227,4232.307617,4223.333496,4182.692383,4208.717773,4152.051270,4174.487305,4190.769043,3195.000000,4.000000,86.000000,,,,0.000000,4.000000,4.000000,4.000000,4.000000,4.000000,4.000000,4.000000,4.000000,4.000000,4.000000,4.000000,4.000000,4.000000,4.000000,100.000000,,,,,,,,,,,,,,,,
1645711426.792712,1645711426.793086,230.000000,0.000000,4236.794922,4210.256348,4203.717773,4193.461426,4230.128418,4208.974121,4203.974121,4236.538574,4223.717773,4181.410156,4208.333496,4153.205078,4174.743652,4188.333496,2300.000000,4.000000,86.000000,,,,0.000000,4.000000,4.000000,4.000000,4.000000,4.000000,4.000000,4.000000,4.000000,4.000000,4.000000,4.000000,4.000000,4.000000,4.000000,100.000000,,,,,,,,,,,,,,,,
1645711426.796652,1645711426.797026,231.000000,0.000000,4224.487305,4211.282227,4203.717773,4195.512695,4234.230957,4214.871582,4209.358887,4240.384766,4224.358887,4186.282227,4211.922852,4154.358887,4176.282227,4183.846191,2435.000000,4.000000,86.000000,,,,0.000000,4.000000,4.000000,4.000000,4.000000,4.000000,4.000000,4.000000,4.000000,4.000000,4.000000,4.000000,4.000000,4.000000,4.000000,100.000000,,,,,,,,,,,,,,,,
1645711426.800592,1645711426.800966,232.000000,0.000000,4216.025879,4213.461426,4203.461426,4196.922852,4240.000000,4219.871582,4213.077148,4240.769043,4223.717773,4189.871582,4213.461426,4153.077148,4176.666504,4180.000000,3297.000000,4.000000,86.000000,,,,0.000000,4.000000,4.000000,4.000000,4.000000,4.000000,4.000000,4.000000,4.000000,4.000000,4.000000,4.000000,4.000000,4.000000,4.000000,100.000000,,,,,,,,,,,,,,,,
1645711426.804532,1645711426.804906,233.000000,0.000000,4219.358887,4214.871582,4202.692383,4193.974121,4240.897461,4218.589844,4213.461426,4236.794922,4221.025879,4186.410156,4208.461426,4149.487305,4174.487305,4180.256348,3195.000000,4.000000,86.000000,,,,0.000000,4.000000,4.000000,4.000000,4.000000,4.000000,4.000000,4.000000,4.000000,4.000000,4.000000,4.000000,4.000000,4.000000,4.000000,100.000000,,,,,,,,,,,,,,,,
1645711426.808472,1645711426.808847,234.000000,0.000000,4228.974121,4216.538574,4203.974121,4188.589844,4238.461426,4214.230957,4213.461426,4232.563965,4218.077148,4179.230957,4200.897461,4147.179688,4172.051270,4185.512695,2300.000000,4.000000,86.000000,,,,0.000000,4.000000,4.000000,4.000000,4.000000,4.000000,4.000000,4.000000,4.000000,4.000000,4.000000,4.000000,4.000000,4.000000,4.000000,100.000000,,,,,,,,,,,,,,,,
1645711426.812412,1645711426.812787,235.000000,0.000000,4234.102539,4220.256348,4208.717773,4186.025879,4238.846191,4213.205078,4216.153809,4232.436035,4217.692383,4177.692383,4199.743652,4150.256348,4172.948730,4192.307617,2435.000000,4.000000,86.000000,,,,0.000000,4.000000,4.000000,4.000000,4.000000,4.000000,4.000000,4.000000,4.000000,4.000000,4.000000,4.000000,4.000000,4.000000,4.000000,100.000000,,,,,,,,,,,,,,,,
1645711426.816352,1645711426.816727,236.000000,0.000000,4232.436035,4224.230957,4214.487305,4188.461426,4242.948730,4216.922852,4220.384766,4236.666504,4220.000000,4184.743652,4208.077148,4158.205078,4177.692383,4195.897461,3297.000000,4.000000,86.000000,,,,0.000000,4.000000,4.000000,4.000000,4.000000,4.000000,4.000000,4.000000,4.000000,4.000000,4.000000,4.000000,4.000000,4.000000,4.000000,100.000000,,,,,,,,,,,,,,,,
1645711426.820292,1645711426.820667,237.000000,0.000000,4231.794922,4224.230957,4217.051270,4192.948730,4244.615234,4220.128418,4222.307617,4240.769043,4222.307617,4193.717773,4219.743652,4166.410156,4182.563965,4195.769043,3195.000000,4.000000,86.000000,,,,0.000000,4.000000,4.000000,4.000000,4.000000,4.000000,4.000000,4.000000,4.000000,4.000000,4.000000,4.000000,4.000000,4.000000,4.000000,100.000000,,,,,,,,,,,,,,,,
1645711426.824232,1645711426.824607,238.000000,0.000000,4238.077148,4219.487305,4215.512695,4196.794922,4239.487305,4218.333496,4220.512695,4241.282227,4222.307617,4197.179688,4226.538574,4170.256348,4184.358887,4195.641113,2300.000000,4.000000,86.000000,,,,0.000000,4.000000,4.000000,4.000000,4.000000,4.000000,4.000000,4.000000,4.000000,4.000000,4.000000,4.000000,4.000000,4.000000,4.000000,100.000000,,,,,,,,,,,,,,,,
1645711426.828172,1645711426.828547,239.000000,0.000000,4246.282227,4214.871582,4213.461426,4201.538574,4232.436035,4214.102539,4217.948730,4239.615234,4221.153809,4195.000000,4227.051270,4170.000000,4183.589844,4198.717773,2435.000000,4.000000,86.000000,,,,0.000000,4.000000,4.000000,4.000000,4.000000,4.000000,4.000000,4.000000,4.000000,4.000000,4.000000,4.000000,4.000000,4.000000,4.000000,100.000000,,,,,,,,,,,,,,,,
1645711426.832112,1645711426.832487,240.000000,0.000000,4246.666504,4216.666504,4214.358887,4208.717773,4232.563965,4213.077148,4218.077148,4239.871582,4221.922852,4192.692383,4225.384766,4168.077148,4183.717773,4202.948730,3297.000000,4.000000,86.000000,,,,0.000000,4.000000,4.000000,4.000000,4.000000,4.000000,4.000000,4.000000,4.000000,4.000000,4.000000,4.000000,4.000000,4.000000,4.000000,100.000000,,,,,,,,,,,,,,,,
1645711426.836052,1645711426.836427,241.000000,0.000000,4238.205078,4225.128418,4217.563965,4215.641113,4241.666504,4216.922852,4220.641113,4243.333496,4225.000000,4193.333496,4224.871582,4166.025879,4185.641113,4203.974121,3195.000000,4.000000,86.000000,,,,0.000000,4.000000,4.000000,4.000000,4.000000,4.000000,4.000000,4.000000,4.000000,4.000000,4.000000,4.000000,4.000000,4.000000,4.000000,100.000000,,,,,,,,,,,,,,,,
1645711426.839992,1645711426.840367,242.000000,0.000000,4230.256348,4233.333496,4218.974121,4216.794922,4250.384766,4220.512695,4221.922852,4246.153809,4227.436035,4193.589844,4223.077148,4163.077148,4186.666504,4200.128418,2300.000000,4.000000,86.000000,,,,0.000000,4.000000,4.000000,4.000000,4.000000,4.000000,4.000000,4.000000,4.000000,4.000000,4.000000,4.000000,4.000000,4.000000,4.000000,100.000000,,,,,,,,,,,,,,,,
1645711426.843932,1645711426.844208,243.000000,0.000000,4231.025879,4234.230957,4215.897461,4210.384766,4249.743652,4219.358887,4219.743652,4244.358887,4226.153809,4188.717773,4217.692383,4158.333496,4183.846191,4194.871582,2435.000000,4.000000,86.000000,,,,0.000000,4.000000,4.000000,4.000000,4.000000,4.000000,4.000000,4.000000,4.000000,4.000000,4.000000,4.000000,4.000000,4.000000,4.000000,100.000000,,,,,,,,,,,,,,,,
1645711426.847872,1645711426.848148,244.000000,0.000000,4236.666504,4227.692383,4210.000000,4201.410156,4241.025879,4215.128418,4215.897461,4238.717773,4222.307617,4180.897461,4210.897461,4152.948730,4178.461426,4192.436035,3297.000000,4.000000,86.000000,,,,0.000000,4.000000,4.000000,4.000000,4.000000,4.000000,4.000000,4.000000,4.000000,4.000000,4.000000,4.000000,4.000000,4.000000,4.000000,100.000000,,,,,,,,,,,,,,,,
1645711426.851812,1645711426.852088,245.000000,0.000000,4237.307617,4219.871582,4205.641113,4196.538574,4233.974121,4212.948730,4213.846191,4233.589844,4219.743652,4176.538574,4208.077148,4149.230957,4174.358887,4192.563965,3195.000000,4.000000,86.000000,,,,0.000000,4.000000,4.000000,4.000000,4.000000,4.000000,4.000000,4.000000,4.000000,4.000000,4.000000,4.000000,4.000000,4.000000,4.000000,100.000000,,,,,,,,,,,,,,,,
1645711426.855752,1645711426.856028,246.000000,0.000000,4230.128418,4214.487305,4204.487305,4196.794922,4234.871582,4213.974121,4214.102539,4231.922852,4220.384766,4178.974121,4209.871582,4148.205078,4173.717773,4191.666504,2300.000000,4.000000,86.000000,,,,0.000000,4.000000,4.000000,4.000000,4.000000,4.000000,4.000000,4.000000,4.000000,4.000000,4.000000,4.000000,4.000000,4.000000,4.000000,100.000000,,,,,,,,,,,,,,,,
1645711426.859692,1645711426.859968,247.000000,0.000000,4222.307617,4210.128418,4205.000000,4196.922852,4239.615234,4213.974121,4213.974121,4232.692383,4222.051270,4183.589844,4211.410156,4148.333496,4173.846191,4187.948730,2435.000000,4.000000,86.000000,,,,0.000000,4.000000,4.000000,4.000000,4.000000,4.000000,4.000000,4.000000,4.000000,4.000000,4.000000,4.000000,4.000000,4.000000,4.000000,100.000000,,,,,,,,,,,,,,,,
1645711426.863632,1645711426.863908,248.000000,0.000000,4221.538574,4204.358887,4204.743652,4193.461426,4241.153809,4210.000000,4211.922852,4232.179688,4221.410156,4183.333496,4208.461426,4147.948730,4171.794922,4183.589844,3297.000000,4.000000,86.000000,,,,0.000000,4.000000,4.000000,4.000000,4.000000,4.000000,4.000000,4.000000,4.000000,4.000000,4.000000,4.000000,4.000000,4.000000,4.000000,100.000000,,,,,,,,,,,,,,,,
1645711426.867572,1645711426.867848,249.000000,0.000000,4225.641113,4200.000000,4203.974121,4189.615234,4239.615234,4205.641113,4209.487305,4229.487305,4218.077148,4177.563965,4203.589844,4147.179688,4167.563965,4182.051270,3195.000000,4.000000,86.000000,,,,0.000000,4.000000,4.000000,4.000000,4.000000,4.000000,4.000000,4.000000,4.000000,4.000000,4.000000,4.000000,4.000000,4.000000,4.000000,100.000000,,,,,,,,,,,,,,,,
1645711426.871512,1645711426.871788,250.000000,0.000000,4226.410156,4202.692383,4204.102539,4191.922852,4241.410156,4207.436035,4209.743652,4225.897461,4214.871582,4171.794922,4202.179688,4146.538574,4164.615234,4183.333496,2300.000000,4.000000,86.000000,,,,0.000000,4.000000,4.000000,4.000000,4.000000,4.000000,4.000000,4.000000,4.000000,4.000000,4.000000,4.000000,4.000000,4.000000,4.000000,100.000000,,,,,,,,,,,,,,,,
1645711426.875452,1645711426.875728,251.000000,0.000000,4221.794922,4212.820313,4205.897461,4200.897461,4249.230957,4215.897461,4212.436035,4222.820313,4213.589844,4170.384766,4204.743652,4145.384766,4164.615234,4184.230957,2435.000000,4.000000,86.000000,,,,0.000000,4.000000,4.000000,4.000000,4.000000,4.000000,4.000000,4.000000,4.000000,4.000000,4.000000,4.000000,4.000000,4.000000,4.000000,100.000000,,,,,,,,,,,,,,,,
1645711426.879392,1645711426.879669,252.000000,0.000000,4218.974121,4223.974121,4207.563965,4208.717773,4256.794922,4223.717773,4214.487305,4219.230957,4213.077148,4170.384766,4204.615234,4142.051270,4166.025879,4182.820313,3297.000000,4.000000,86.000000,,,,0.000000,4.000000,4.000000,4.000000,4.000000,4.000000,4.000000,4.000000,4.000000,4.000000,4.000000,4.000000,4.000000,4.000000,4.000000,100.000000,,,,,,,,,,,,,,,,
1645711426.883332,1645711426.883609,253.000000,0.000000,4224.615234,4228.974121,4207.948730,4208.589844,4256.410156,4224.102539,4213.589844,4214.358887,4211.282227,4167.436035,4197.436035,4137.051270,4166.538574,4180.769043,3195.000000,4.000000,86.000000,,,,0.000000,4.000000,4.000000,4.000000,4.000000,4.000000,4.000000,4.000000,4.000000,4.000000,4.000000,4.000000,4.000000,4.000000,4.000000,100.000000,,,,,,,,,,,,,,,,
1645711426.887272,1645711426.887549,254.000000,0.000000,4234.615234,4227.820313,4208.205078,4203.205078,4249.358887,4218.589844,4211.666504,4209.615234,4208.717773,4162.820313,4188.846191,4134.871582,4166.282227,4181.153809,2300.000000,4.000000,86.000000,,,,0.000000,4.000000,4.000000,4.000000,4.000000,4.000000,4.000000,4.000000,4.000000,4.000000,4.000000,4.000000,4.000000,4.000000,4.000000,100.000000,,,,,,,,,,,,,,,,
1645711426.891212,1645711426.891489,255.000000,0.000000,4238.974121,4226.922852,4210.769043,4201.538574,4244.743652,4215.128418,4211.666504,4208.205078,4207.820313,4162.436035,4188.974121,4139.487305,4167.563965,4184.358887,113.000000,4.000000,86.000000,,,,0.000000,4.000000,4.000000,4.000000,4.000000,4.000000,4.000000,4.000000,4.000000,4.000000,4.000000,4.000000,4.000000,4.000000,4.000000,100.000000,,,,,,,,,,,,,,,,
1645711426.895152,1645711426.895429,0.000000,0.000000,4234.871582,4230.769043,4216.025879,4207.692383,4248.461426,4217.563965,4213.461426,4211.153809,4209.487305,4168.846191,4200.384766,4149.230957,4170.769043,4187.563965,3316.000000,4.000000,86.000000,,,,0.000000,4.000000,4.000000,4.000000,4.000000,4.000000,4.000000,4.000000,4.000000,4.000000,4.000000,4.000000,4.000000,4.000000,4.000000,100.000000,,,,,,,,,,,,,,,,
1645711426.899092,1645711426.899369,1.000000,0.000000,4230.769043,4236.025879,4221.282227,4216.025879,4255.769043,4221.538574,4214.102539,4215.000000,4211.282227,4176.410156,4213.205078,4157.820313,4173.461426,4188.589844,3371.000000,4.000000,86.000000,,,,0.000000,4.000000,4.000000,4.000000,4.000000,4.000000,4.000000,4.000000,4.000000,4.000000,4.000000,4.000000,4.000000,4.000000,4.000000,100.000000,,,,,,,,,,,,,,,,
1645711426.903032,1645711426.903309,2.000000,0.000000,4235.256348,4236.794922,4224.102539,4217.692383,4258.077148,4220.512695,4211.922852,4215.512695,4210.384766,4177.307617,4215.897461,4160.512695,4172.820313,4188.205078,2221.000000,4.000000,86.000000,,,,0.000000,4.000000,4.000000,4.000000,4.000000,4.000000,4.000000,4.000000,4.000000,4.000000,4.000000,4.000000,4.000000,4.000000,4.000000,100.000000,,,,,,,,,,,,,,,,
1645711426.906972,1645711426.907249,3.000000,0.000000,4245.128418,4232.179688,4224.743652,4211.410156,4253.974121,4214.615234,4208.589844,4212.436035,4207.051270,4172.179688,4207.563965,4158.461426,4170.128418,4188.974121,3276.000000,4.000000,86.000000,,,,0.000000,4.000000,4.000000,4.000000,4.000000,4.000000,4.000000,4.000000,4.000000,4.000000,4.000000,4.000000,4.000000,4.000000,4.000000,100.000000,,,,,,,,,,,,,,,,
1645711426.910912,1645711426.911189,4.000000,0.000000,4249.230957,4227.563965,4225.641113,4204.743652,4250.641113,4210.641113,4207.820313,4210.000000,4205.256348,4169.230957,4199.230957,4157.563965,4169.743652,4191.538574,3724.000000,4.000000,86.000000,,,,0.000000,4.000000,4.000000,4.000000,4.000000,4.000000,4.000000,4.000000,4.000000,4.000000,4.000000,4.000000,4.000000,4.000000,4.000000,100.000000,,,,,,,,,,,,,,,,
1645711426.914853,1645711426.915129,5.000000,0.000000,4243.077148,4227.948730,4227.307617,4204.487305,4253.205078,4213.205078,4210.128418,4211.538574,4207.307617,4174.487305,4200.512695,4161.410156,4173.974121,4193.717773,3279.000000,4.000000,86.000000,,,,0.000000,4.000000,4.000000,4.000000,4.000000,4.000000,4.000000,4.000000,4.000000,4.000000,4.000000,4.000000,4.000000,4.000000,4.000000,100.000000,,,,,,,,,,,,,,,,
1645711426.918792,1645711426.918970,6.000000,0.000000,4235.000000,4231.282227,4227.436035,4208.717773,4257.820313,4218.974121,4212.948730,4215.641113,4211.410156,4183.846191,4209.871582,4167.692383,4180.000000,4193.589844,3154.000000,4.000000,86.000000,,,,0.000000,4.000000,4.000000,4.000000,4.000000,4.000000,4.000000,4.000000,4.000000,4.000000,4.000000,4.000000,4.000000,4.000000,4.000000,100.000000,1.000000,58.333332,1.000000,3.000000,4.000000,4.000000,4.000000,4.000000,3.000000,3.000000,3.000000,3.000000,4.000000,4.000000,3.000000,4.000000
1645711426.922732,1645711426.922910,7.000000,0.000000,4235.128418,4232.051270,4223.589844,4210.641113,4257.179688,4221.666504,4213.461426,4218.461426,4213.589844,4187.307617,4218.333496,4171.282227,4182.307617,4192.436035,2757.000000,4.000000,86.000000,,,,0.000000,4.000000,4.000000,4.000000,4.000000,4.000000,4.000000,4.000000,4.000000,4.000000,4.000000,4.000000,4.000000,4.000000,4.000000,100.000000,,,,,,,,,,,,,,,,
1645711426.926673,1645711426.926850,8.000000,0.000000,4242.563965,4228.589844,4217.563965,4207.563965,4250.641113,4218.846191,4211.794922,4218.333496,4212.307617,4182.307617,4220.769043,4170.512695,4179.615234,4193.205078,1579.000000,4.000000,86.000000,,,,0.000000,4.000000,4.000000,4.000000,4.000000,4.000000,4.000000,4.000000,4.000000,4.000000,4.000000,4.000000,4.000000,4.000000,4.000000,100.000000,,,,,,,,,,,,,,,,
1645711426.930612,1645711426.930790,9.000000,0.000000,4246.282227,4225.512695,4213.717773,4204.102539,4245.384766,4214.871582,4209.871582,4217.436035,4210.384766,4176.282227,4220.512695,4168.077148,4175.769043,4197.051270,3075.000000,4.000000,86.000000,,,,0.000000,4.000000,4.000000,4.000000,4.000000,4.000000,4.000000,4.000000,4.000000,4.000000,4.000000,4.000000,4.000000,4.000000,4.000000,100.000000,,,,,,,,,,,,,,,,
1645711426.934553,1645711426.934730,10.000000,0.000000,4240.384766,4226.282227,4215.000000,4205.512695,4247.307617,4213.717773,4208.717773,4218.333496,4210.641113,4177.051270,4222.436035,4167.179688,4175.128418,4201.153809,2312.000000,4.000000,86.000000,,,,0.000000,4.000000,4.000000,4.000000,4.000000,4.000000,4.000000,4.000000,4.000000,4.000000,4.000000,4.000000,4.000000,4.000000,4.000000,100.000000,,,,,,,,,,,,,,,,
1645711426.938492,1645711426.938670,11.000000,0.000000,4231.794922,4229.102539,4219.358887,4210.897461,4253.589844,4214.358887,4207.307617,4220.384766,4213.077148,4182.820313,4225.000000,4167.820313,4177.563965,4202.307617,2834.000000,4.000000,86.000000,,,,0.000000,4.000000,4.000000,4.000000,4.000000,4.000000,4.000000,4.000000,4.000000,4.000000,4.000000,4.000000,4.000000,4.000000,4.000000,100.000000,,,,,,,,,,,,,,,,
1645711426.942433,1645711426.942610,12.000000,0.000000,4231.538574,4229.102539,4222.820313,4214.615234,4256.538574,4213.717773,4205.897461,4221.794922,4215.256348,4185.384766,4224.102539,4168.333496,4179.358887,4200.000000,3255.000000,4.000000,86.000000,,,,0.000000,4.000000,4.000000,4.000000,4.000000,4.000000,4.000000,4.000000,4.000000,4.000000,4.000000,4.000000,4.000000,4.000000,4.000000,100.000000,,,,,,,,,,,,,,,,
1645711426.946373,1645711426.946550,13.000000,0.000000,4240.384766,4225.897461,4224.358887,4213.717773,4253.846191,4212.563965,4207.179688,4222.692383,4216.282227,4182.307617,4219.358887,4169.102539,4178.333496,4196.538574,3434.000000,4.000000,86.000000,,,,0.000000,4.000000,4.000000,4.000000,4.000000,4.000000,4.000000,4.000000,4.000000,4.000000,4.000000,4.000000,4.000000,4.000000,4.000000,100.000000,,,,,,,,,,,,,,,,
1645711426.950313,1645711426.950491,14.000000,0.000000,4247.948730,4223.461426,4225.769043,4211.153809,4250.512695,4214.743652,4212.563965,4225.769043,4217.563965,4179.615234,4216.282227,4171.410156,4175.897461,4193.846191,2312.000000,4.000000,86.000000,,,,0.000000,4.000000,4.000000,4.000000,4.000000,4.000000,4.000000,4.000000,4.000000,4.000000,4.000000,4.000000,4.000000,4.000000,4.000000,100.000000,,,,,,,,,,,,,,,,
1645711426.954253,1645711426.954431,15.000000,0.000000,4245.641113,4224.230957,4227.820313,4209.743652,4250.128418,4219.871582,4218.846191,4231.153809,4220.128418,4181.922852,4217.948730,4174.230957,4174.230957,4191.666504,2834.000000,4.000000,86.000000,,,,0.000000,4.000000,4.000000,4.000000,4.000000,4.000000,4.000000,4.000000,4.000000,4.000000,4.000000,4.000000,4.000000,4.000000,4.000000,100.000000,,,,,,,,,,,,,,,,
1645711426.958193,1645711426.958371,16.000000,0.000000,4237.051270,4225.128418,4227.948730,4207.051270,4248.846191,4222.436035,4220.000000,4234.615234,4222.051270,4185.000000,4220.000000,4173.205078,4173.333496,4188.846191,3255.000000,4.000000,86.000000,,,,0.000000,4.000000,4.000000,4.000000,4.000000,4.000000,4.000000,4.000000,4.000000,4.000000,4.000000,4.000000,4.000000,4.000000,4.000000,100.000000,,,,,,,,,,,,,,,,
1645711426.962133,1645711426.962311,17.000000,0.000000,4232.051270,4220.897461,4223.461426,4199.230957,4241.410156,4217.692383,4214.615234,4231.666504,4220.641113,4180.641113,4216.025879,4165.512695,4171.666504,4186.282227,3434.000000,4.000000,86.000000,,,,0.000000,4.000000,4.000000,4.000000,4.000000,4.000000,4.000000,4.000000,4.000000,4.000000,4.000000,4.000000,4.000000,4.000000,4.000000,100.000000,,,,,,,,,,,,,,,,
1645711426.966073,1645711426.966251,18.000000,0.000000,4233.589844,4212.436035,4215.641113,4188.846191,4231.538574,4209.230957,4208.205078,4223.717773,4216.410156,4168.461426,4206.922852,4154.615234,4170.000000,4186.666504,2312.000000,4.000000,86.000000,,,,0.000000,4.000000,4.000000,4.000000,4.000000,4.000000,4.000000,4.000000,4.000000,4.000000,4.000000,4.000000,4.000000,4.000000,4.000000,100.000000,,,,,,,,,,,,,,,,
1645711426.970013,1645711426.970191,19.000000,0.000000,4234.615234,4206.666504,4209.743652,4184.487305,4230.128418,4206.410156,4207.820313,4217.563965,4212.948730,4159.358887,4201.410156,4147.820313,4171.538574,4190.128418,2834.000000,4.000000,86.000000,,,,0.000000,4.000000,4.000000,4.000000,4.000000,4.000000,4.000000,4.000000,4.000000,4.000000,4.000000,4.000000,4.000000,4.000000,4.000000,100.000000,,,,,,,,,,,,,,,,
1645711426.973953,1645711426.974131,20.000000,0.000000,4229.743652,4208.589844,4209.871582,4191.410156,4242.436035,4213.205078,4214.230957,4218.589844,4213.205078,4163.077148,4205.384766,4149.358887,4178.461426,4193.077148,3255.000000,4.000000,86.000000,,,,0.000000,4.000000,4.000000,4.000000,4.000000,4.000000,4.000000,4.000000,4.000000,4.000000,4.000000,4.000000,4.000000,4.000000,4.000000,100.000000,,,,,,,,,,,,,,,,
1645711426.977893,1645711426.978071,21.000000,0.000000,4223.461426,4215.256348,4214.102539,4203.461426,4259.230957,4223.077148,4220.128418,4224.743652,4216.153809,4176.538574,4214.230957,4156.025879,4187.436035,4191.410156,3434.000000,4.000000,86.000000,,,,0.000000,4.000000,4.000000,4.000000,4.000000,4.000000,4.000000,4.000000,4.000000,4.000000,4.000000,4.000000,4.000000,4.000000,4.000000,100.000000,,,,,,,,,,,,,,,,
1645711426.981833,1645711426.982011,22.000000,0.000000,4224.358887,4218.461426,4216.794922,4209.358887,4265.128418,4225.641113,4218.589844,4228.589844,4218.077148,4186.794922,4217.692383,4160.641113,4192.051270,4185.256348,2312.000000,4.000000,86.000000,,,,0.000000,4.000000,4.000000,4.000000,4.000000,4.000000,4.000000,4.000000,4.000000,4.000000,4.000000,4.000000,4.000000,4.000000,4.000000,100.000000,,,,,,,,,,,,,,,,
1645711426.985773,1645711426.985951,23.000000,0.000000,4231.666504,4214.615234,4214.615234,4204.102539,4254.743652,4218.333496,4210.128418,4226.025879,4216.538574,4184.743652,4212.307617,4159.871582,4189.743652,4179.743652,2834.000000,4.000000,86.000000,,,,0.000000,4.000000,4.000000,4.000000,4.000000,4.000000,4.000000,4.000000,4.000000,4.000000,4.000000,4.000000,4.000000,4.000000,4.000000,100.000000,,,,,,,,,,,,,,,,
1645711426.989713,1645711426.989892,24.000000,0.000000,4235.384766,4208.717773,4209.487305,4193.461426,4238.077148,4209.102539,4202.179688,4220.384766,4213.461426,4174.358887,4204.871582,4156.025879,4184.358887,4178.717773,3255.000000,4.000000,86.000000,,,,0.000000,4.000000,4.000000,4.000000,4.000000,4.000000,4.000000,4.000000,4.000000,4.000000,4.000000,4.000000,4.000000,4.000000,4.000000,100.000000,,,,,,,,,,,,,,,,
1645711426.993653,1645711426.993732,25.000000,0.000000,4228.717773,4207.307617,4206.025879,4186.153809,4229.230957,4206.666504,4201.025879,4217.948730,4211.922852,4166.410156,4203.974121,4153.589844,4181.410156,4181.410156,3434.000000,4.000000,86.000000,,,,0.000000,4.000000,4.000000,4.000000,4.000000,4.000000,4.000000,4.000000,4.000000,4.000000,4.000000,4.000000,4.000000,4.000000,4.000000,100.000000,,,,,,,,,,,,,,,,
1645711426.997593,1645711426.997672,26.000000,0.000000,4217.436035,4210.512695,4205.897461,4185.000000,4231.410156,4210.641113,4205.769043,4220.256348,4212.820313,4165.384766,4208.717773,4153.333496,4181.794922,4184.102539,2312.000000,4.000000,86.000000,,,,0.000000,4.000000,4.000000,4.000000,4.000000,4.000000,4.000000,4.000000,4.000000,4.000000,4.000000,4.000000,4.000000,4.000000,4.000000,100.000000,,,,,,,,,,,,,,,,
1645711427.001533,1645711427.001612,27.000000,0.000000,4213.205078,4212.820313,4207.307617,4186.410156,4236.922852,4213.717773,4209.615234,4223.205078,4213.846191,4167.307617,4211.153809,4152.948730,4181.538574,4184.615234,2834.000000,4.000000,86.000000,,,,0.000000,4.000000,4.000000,4.000000,4.000000,4.000000,4.000000,4.000000,4.000000,4.000000,4.000000,4.000000,4.000000,4.000000,4.000000,100.000000,,,,,,,,,,,,,,,,
1645711427.005473,1645711427.005552,28.000000,0.000000,4218.717773,4210.897461,4207.563965,4187.820313,4239.230957,4211.025879,4208.589844,4222.436035,4212.948730,4167.051270,4206.538574,4150.512695,4178.461426,4184.102539,3255.000000,4.000000,86.000000,,,,0.000000,4.000000,4.000000,4.000000,4.000000,4.000000,4.000000,4.000000,4.000000,4.000000,4.000000,4.000000,4.000000,4.000000,4.000000,100.000000,,,,,,,,,,,,,,,,
1645711427.009413,1645711427.009492,29.000000,0.000000,4224.743652,4208.589844,4206.025879,4191.153809,4239.615234,4205.769043,4204.615234,4218.589844,4211.153809,4165.769043,4200.384766,4147.820313,4175.384766,4184.487305,3434.000000,4.000000,86.000000,,,,0.000000,4.000000,4.000000,4.000000,4.000000,4.000000,4.000000,4.000000,4.000000,4.000000,4.000000,4.000000,4.000000,4.000000,4.000000,100.000000,,,,,,,,,,,,,,,,
1645711427.013353,1645711427.013432,30.000000,0.000000,4221.922852,4210.897461,4203.589844,4197.692383,4242.692383,4204.358887,4202.051270,4215.769043,4211.153809,4167.948730,4200.384766,4147.820313,4177.051270,4185.512695,2312.000000,4.000000,86.000000,,,,0.000000,4.000000,4.000000,4.000000,4.000000,4.000000,4.000000,4.000000,4.000000,4.000000,4.000000,4.000000,4.000000,4.000000,4.000000,100.000000,,,,,,,,,,,,,,,,
1645711427.017293,1645711427.017372,31.000000,0.000000,4212.820313,4216.794922,4201.282227,4203.974121,4246.922852,4208.077148,4202.692383,4216.282227,4213.333496,4173.461426,4207.820313,4150.897461,4183.717773,4186.025879,2834.000000,4.000000,86.000000,,,,0.000000,4.000000,4.000000,4.000000,4.000000,4.000000,4.000000,4.000000,4.000000,4.000000,4.000000,4.000000,4.000000,4.000000,4.000000,100.000000,,,,,,,,,,,,,,,,
1645711427.021233,1645711427.021313,32.000000,0.000000,4208.333496,4219.743652,4200.128418,4204.102539,4245.641113,4212.179688,4204.743652,4219.230957,4215.384766,4177.179688,4215.769043,4155.384766,4191.282227,4186.153809,0.000000,4.000000,86.000000,,,,0.000000,4.000000,4.000000,4.000000,4.000000,4.000000,4.000000,4.000000,4.000000,4.000000,4.000000,4.000000,4.000000,4.000000,4.000000,100.000000,,,,,,,,,,,,,,,,
1645711427.025173,1645711427.025253,33.000000,0.000000,4213.461426,4216.153809,4201.794922,4198.333496,4237.563965,4212.692383,4205.897461,4222.307617,4215.769043,4176.025879,4218.846191,4159.230957,4195.897461,4187.820313,0.000000,4.000000,86.000000,,,,0.000000,4.000000,4.000000,4.000000,4.000000,4.000000,4.000000,4.000000,4.000000,4.000000,4.000000,4.000000,4.000000,4.000000,4.000000,100.000000,,,,,,,,,,,,,,,,
1645711427.029113,1645711427.029193,34.000000,0.000000,4221.666504,4209.487305,4206.666504,4194.102539,4230.769043,4210.897461,4205.897461,4223.717773,4215.000000,4172.820313,4218.205078,4161.794922,4197.436035,4190.641113,0.000000,4.000000,86.000000,,,,0.000000,4.000000,4.000000,4.000000,4.000000,4.000000,4.000000,4.000000,4.000000,4.000000,4.000000,4.000000,4.000000,4.000000,4.000000,100.000000,,,,,,,,,,,,,,,,
1645711427.033053,1645711427.033133,35.000000,0.000000,4224.102539,4206.410156,4212.563965,4198.461426,4234.102539,4210.256348,4205.256348,4222.948730,4214.743652,4172.692383,4218.717773,4163.077148,4198.333496,4191.666504,0.000000,4.000000,86.000000,,,,0.000000,4.000000,4.000000,4.000000,4.000000,4.000000,4.000000,4.000000,4.000000,4.000000,4.000000,4.000000,4.000000,4.000000,4.000000,100.000000,,,,,,,,,,,,,,,,
1645711427.036993,1645711427.037073,36.000000,0.000000,4221.025879,4209.102539,4216.025879,4208.461426,4245.769043,4211.153809,4204.230957,4220.000000,4214.743652,4176.282227,4221.153809,4162.307617,4198.461426,4188.846191,0.000000,4.000000,86.000000,,,,0.000000,4.000000,4.000000,4.000000,4.000000,4.000000,4.000000,4.000000,4.000000,4.000000,4.000000,4.000000,4.000000,4.000000,4.000000,100.000000,,,,,,,,,,,,,,,,
1645711427.040933,1645711427.041013,37.000000,0.000000,4220.128418,4213.717773,4214.743652,4213.589844,4254.743652,4210.256348,4202.307617,4215.000000,4213.205078,4178.461426,4222.051270,4159.743652,4196.153809,4184.230957,0.000000,4.000000,86.000000,,,,0.000000,4.000000,4.000000,4.000000,4.000000,4.000000,4.000000,4.000000,4.000000,4.000000,4.000000,4.000000,4.000000,4.000000,4.000000,100.000000,,,,,,,,,,,,,,,,
1645711427.044873,1645711427.044953,38.000000,0.000000,4224.871582,4216.153809,4210.256348,4207.051270,4253.461426,4207.179688,4200.769043,4210.512695,4210.128418,4175.641113,4218.974121,4157.051270,4191.410156,4182.820313,0.000000,4.000000,86.000000,,,,0.000000,4.000000,4.000000,4.000000,4.000000,4.000000,4.000000,4.000000,4.000000,4.000000,4.000000,4.000000,4.000000,4.000000,4.000000,100.000000,,,,,,,,,,,,,,,,
1645711427.048813,1645711427.048893,39.000000,0.000000,4229.102539,4216.282227,4206.538574,4193.846191,4246.282227,4205.769043,4201.794922,4210.256348,4208.077148,4171.025879,4215.128418,4157.563965,4188.461426,4187.051270,0.000000,4.000000,86.000000,,,,0.000000,4.000000,4.000000,4.000000,4.000000,4.000000,4.000000,4.000000,4.000000,4.000000,4.000000,4.000000,4.000000,4.000000,4.000000,100.000000,,,,,,,,,,,,,,,,
1645711427.052753,1645711427.052833,40.000000,0.000000,4226.666504,4216.666504,4206.666504,4184.871582,4242.820313,4209.871582,4205.512695,4215.512695,4210.128418,4170.769043,4215.384766,4162.051270,4191.153809,4193.461426,0.000000,4.000000,86.000000,,,,0.000000,4.000000,4.000000,4.000000,4.000000,4.000000,4.000000,4.000000,4.000000,4.000000,4.000000,4.000000,4.000000,4.000000,4.000000,100.000000,,,,,,,,,,,,,,,,
1645711427.056693,1645711427.056773,41.000000,0.000000,4220.384766,4217.820313,4209.358887,4185.641113,4246.153809,4217.179688,4209.358887,4222.692383,4215.897461,4175.769043,4219.615234,4167.307617,4198.333496,4196.922852,0.000000,4.000000,86.000000,,,,0.000000,4.000000,4.000000,4.000000,4.000000,4.000000,4.000000,4.000000,4.000000,4.000000,4.000000,4.000000,4.000000,4.000000,4.000000,100.000000,,,,,,,,,,,,,,,,
1645711427.060633,1645711427.060714,42.000000,0.000000,4219.487305,4217.820313,4210.897461,4192.179688,4249.871582,4221.282227,4210.897461,4226.153809,4220.897461,4181.025879,4222.820313,4168.205078,4204.230957,4196.410156,0.000000,4.000000,86.000000,,,,0.000000,4.000000,4.000000,4.000000,4.000000,4.000000,4.000000,4.000000,4.000000,4.000000,4.000000,4.000000,4.000000,4.000000,4.000000,100.000000,,,,,,,,,,,,,,,,
1645711427.064573,1645711427.064754,43.000000,0.000000,4226.282227,4216.153809,4210.000000,4197.563965,4248.461426,4219.487305,4211.153809,4223.974121,4221.922852,4181.794922,4221.538574,4163.461426,4204.487305,4194.743652,0.000000,4.000000,86.000000,,,,0.000000,4.000000,4.000000,4.000000,4.000000,4.000000,4.000000,4.000000,4.000000,4.000000,4.000000,4.000000,4.000000,4.000000,4.000000,100.000000,,,,,,,,,,,,,,,,
1645711427.068513,1645711427.068694,44.000000,0.000000,4231.794922,4215.769043,4208.333496,4199.871582,4244.615234,4216.282227,4213.846191,4220.128418,4219.615234,4180.384766,4218.461426,4156.666504,4200.384766,4193.974121,0.000000,4.000000,86.000000,,,,0.000000,4.000000,4.000000,4.000000,4.000000,4.000000,4.000000,4.000000,4.000000,4.000000,4.000000,4.000000,4.000000,4.000000,4.000000,100.000000,,,,,,,,,,,,,,,,
1645711427.072453,1645711427.072635,45.000000,0.000000,4227.179688,4219.358887,4208.333496,4202.820313,4245.384766,4217.820313,4220.384766,4220.000000,4217.948730,4182.051270,4218.333496,4152.307617,4196.666504,4192.563965,0.000000,4.000000,86.000000,,,,0.000000,4.000000,4.000000,4.000000,4.000000,4.000000,4.000000,4.000000,4.000000,4.000000,4.000000,4.000000,4.000000,4.000000,4.000000,100.000000,,,,,,,,,,,,,,,,
1645711427.076393,1645711427.076575,46.000000,0.000000,4215.128418,4223.717773,4209.230957,4207.820313,4251.025879,4223.846191,4227.179688,4223.974121,4218.846191,4186.666504,4220.641113,4151.153809,4195.769043,4188.205078,0.000000,4.000000,86.000000,,,,0.000000,4.000000,4.000000,4.000000,4.000000,4.000000,4.000000,4.000000,4.000000,4.000000,4.000000,4.000000,4.000000,4.000000,4.000000,100.000000,,,,,,,,,,,,,,,,
1645711427.080333,1645711427.080515,47.000000,0.000000,4208.077148,4222.307617,4208.205078,4211.153809,4254.102539,4227.948730,4229.487305,4227.948730,4220.897461,4188.077148,4219.743652,4150.769043,4195.769043,4182.563965,0.000000,4.000000,86.000000,,,,0.000000,4.000000,4.000000,4.000000,4.000000,4.000000,4.000000,4.000000,4.000000,4.000000,4.000000,4.000000,4.000000,4.000000,4.000000,100.000000,,,,,,,,,,,,,,,,
1645711427.084273,1645711427.084456,48.000000,0.000000,4212.692383,4213.846191,4204.487305,4208.846191,4249.358887,4225.384766,4226.794922,4228.333496,4221.922852,4182.820313,4213.461426,4149.615234,4194.230957,4180.000000,0.000000,4.000000,86.000000,,,,0.000000,4.000000,4.000000,4.000000,4.000000,4.000000,4.000000,4.000000,4.000000,4.000000,4.000000,4.000000,4.000000,4.000000,4.000000,100.000000,,,,,,,,,,,,,,,,
1645711427.088213,1645711427.088396,49.000000,0.000000,4222.051270,4205.256348,4200.897461,4201.794922,4241.153809,4219.615234,4223.589844,4226.666504,4222.179688,4175.769043,4207.563965,4150.000000,4192.436035,4182.820313,0.000000,4.000000,86.000000,,,,0.000000,4.000000,4.000000,4.000000,4.000000,4.000000,4.000000,4.000000,4.000000,4.000000,4.000000,4.000000,4.000000,4.000000,4.000000,100.000000,,,,,,,,,,,,,,,,
1645711427.092153,1645711427.092336,50.000000,0.000000,4224.230957,4205.256348,4201.025879,4196.025879,4239.358887,4217.692383,4223.846191,4227.051270,4224.102539,4175.256348,4210.000000,4154.487305,4193.461426,4188.077148,0.000000,4.000000,86.000000,,,,0.000000,4.000000,4.000000,4.000000,4.000000,4.000000,4.000000,4.000000,4.000000,4.000000,4.000000,4.000000,4.000000,4.000000,4.000000,100.000000,,,,,,,,,,,,,,,,
1645711427.096093,1645711427.096277,51.000000,0.000000,4217.563965,4214.487305,4205.512695,4195.641113,4247.307617,4221.666504,4226.922852,4230.897461,4227.820313,4182.563965,4221.025879,4162.179688,4197.948730,4190.769043,0.000000,4.000000,86.000000,,,,0.000000,4.000000,4.000000,4.000000,4.000000,4.000000,4.000000,4.000000,4.000000,4.000000,4.000000,4.000000,4.000000,4.000000,4.000000,100.000000,,,,,,,,,,,,,,,,
1645711427.100033,1645711427.100317,52.000000,0.000000,4212.307617,4225.512695,4211.666504,4200.256348,4257.948730,4226.666504,4228.461426,4235.512695,4230.897461,4189.743652,4232.051270,4168.205078,4202.179688,4189.487305,0.000000,4.000000,86.000000,,,,0.000000,4.000000,4.000000,4.000000,4.000000,4.000000,4.000000,4.000000,4.000000,4.000000,4.000000,4.000000,4.000000,4.000000,4.000000,100.000000,,,,,,,,,,,,,,,,
1645711427.103973,1645711427.104257,53.000000,0.000000,4217.307617,4230.256348,4216.794922,4206.794922,4262.563965,4226.922852,4226.538574,4237.820313,4231.025879,4189.102539,4233.974121,4169.487305,4202.307617,4187.563965,0.000000,4.000000,86.000000,,,,0.000000,4.000000,4.000000,4.000000,4.000000,4.000000,4.000000,4.000000,4.000000,4.000000,4.000000,4.000000,4.000000,4.000000,4.000000,100.000000,,,,,,,,,,,,,,,,
1645711427.107913,1645711427.108197,54.000000,0.000000,4228.846191,4227.948730,4220.384766,4213.461426,4259.871582,4223.589844,4223.846191,4237.820313,4228.974121,4182.948730,4226.794922,4167.820313,4198.205078,4188.846191,0.000000,4.000000,86.000000,,,,0.000000,4.000000,4.000000,4.000000,4.000000,4.000000,4.000000,4.000000,4.000000,4.000000,4.000000,4.000000,4.000000,4.000000,4.000000,100.000000,,,,,,,,,,,,,,,,
1645711427.111853,1645711427.112138,55.000000,0.000000,4235.384766,4223.974121,4222.948730,4219.230957,4255.128418,4222.307617,4223.589844,4238.461426,4227.692383,4179.487305,4218.974121,4167.563965,4193.077148,4192.692383,0.000000,4.000000,86.000000,,,,0.000000,4.000000,4.000000,4.000000,4.000000,4.000000,4.000000,4.000000,4.000000,4.000000,4.000000,4.000000,4.000000,4.000000,4.000000,100.000000,,,,,,,,,,,,,,,,
1645711427.115793,1645711427.116078,56.000000,0.000000,4231.666504,4222.179688,4223.846191,4220.384766,4251.538574,4225.000000,4225.256348,4240.512695,4227.820313,4181.794922,4216.025879,4169.871582,4190.256348,4194.871582,0.000000,4.000000,86.000000,,,,0.000000,4.000000,4.000000,4.000000,4.000000,4.000000,4.000000,4.000000,4.000000,4.000000,4.000000,4.000000,4.000000,4.000000,4.000000,100.000000,,,,,,,,,,,,,,,,
1645711427.119733,1645711427.120019,57.000000,0.000000,4224.358887,4221.282227,4221.666504,4212.820313,4246.410156,4226.794922,4225.512695,4241.666504,4227.563965,4183.205078,4215.769043,4172.179688,4189.358887,4192.179688,0.000000,4.000000,86.000000,,,,0.000000,4.000000,4.000000,4.000000,4.000000,4.000000,4.000000,4.000000,4.000000,4.000000,4.000000,4.000000,4.000000,4.000000,4.000000,100.000000,,,,,,,,,,,,,,,,
1645711427.123673,1645711427.123959,58.000000,0.000000,4222.179688,4218.205078,4217.051270,4197.436035,4237.563965,4223.205078,4222.563965,4239.230957,4224.230957,4176.794922,4213.077148,4171.025879,4189.102539,4186.538574,0.000000,4.000000,86.000000,,,,0.000000,4.000000,4.000000,4.000000,4.000000,4.000000,4.000000,4.000000,4.000000,4.000000,4.000000,4.000000,4.000000,4.000000,4.000000,100.000000,,,,,,,,,,,,,,,,
1645711427.127613,1645711427.127899,59.000000,0.000000,4225.256348,4214.102539,4214.102539,4184.358887,4229.615234,4216.538574,4218.717773,4234.358887,4218.974121,4165.641113,4207.820313,4167.436035,4190.000000,4183.333496,0.000000,4.000000,86.000000,,,,0.000000,4.000000,4.000000,4.000000,4.000000,4.000000,4.000000,4.000000,4.000000,4.000000,4.000000,4.000000,4.000000,4.000000,4.000000,100.000000,,,,,,,,,,,,,,,,
1645711427.131553,1645711427.131840,60.000000,0.000000,4227.436035,4213.717773,4217.307617,4184.358887,4230.000000,4213.205078,4217.307617,4231.410156,4216.153809,4160.128418,4206.282227,4165.000000,4193.333496,4186.282227,0.000000,4.000000,86.000000,,,,0.000000,4.000000,4.000000,4.000000,4.000000,4.000000,4.000000,4.000000,4.000000,4.000000,4.000000,4.000000,4.000000,4.000000,4.000000,100.000000,,,,,,,,,,,,,,,,
1645711427.135493,1645711427.135780,61.000000,0.000000,4226.410156,4218.461426,4225.769043,4197.948730,4239.871582,4215.512695,4218.333496,4233.077148,4218.589844,4166.025879,4211.538574,4166.538574,4198.077148,4193.205078,0.000000,4.000000,86.000000,,,,0.000000,4.000000,4.000000,4.000000,4.000000,4.000000,4.000000,4.000000,4.000000,4.000000,4.000000,4.000000,4.000000,4.000000,4.000000,100.000000,,,,,,,,,,,,,,,,
1645711427.139433,1645711427.139720,62.000000,0.000000,4227.563965,4224.230957,4233.205078,4213.717773,4251.153809,4218.974121,4218.974121,4237.051270,4223.846191,4176.922852,4219.230957,4170.897461,4200.512695,4199.358887,0.000000,4.000000,86.000000,,,,0.000000,4.000000,4.000000,4.000000,4.000000,4.000000,4.000000,4.000000,4.000000,4.000000,4.000000,4.000000,4.000000,4.000000,4.000000,100.000000,,,,,,,,,,,,,,,,
1645711427.143373,1645711427.143661,63.000000,0.000000,4234.487305,4226.025879,4234.102539,4219.230957,4254.358887,4218.461426,4217.307617,4238.974121,4227.436035,4182.051270,4221.922852,4174.230957,4198.205078,4201.538574,0.000000,4.000000,86.000000,,,,0.000000,4.000000,4.000000,4.000000,4.000000,4.000000,4.000000,4.000000,4.000000,4.000000,4.000000,4.000000,4.000000,4.000000,4.000000,100.000000,,,,,,,,,,,,,,,,
1645711427.147313,1645711427.147601,64.000000,0.000000,4241.794922,4224.102539,4228.846191,4213.077148,4249.230957,4214.615234,4215.128418,4237.436035,4226.538574,4177.948730,4218.846191,4174.615234,4193.589844,4199.615234,0.000000,4.000000,86.000000,,,,0.000000,4.000000,4.000000,4.000000,4.000000,4.000000,4.000000,4.000000,4.000000,4.000000,4.000000,4.000000,4.000000,4.000000,4.000000,100.000000,,,,,,,,,,,,,,,,
1645711427.151253,1645711427.151541,65.000000,0.000000,4240.128418,4223.205078,4222.563965,4205.000000,4242.948730,4212.179688,4214.743652,4234.487305,4222.948730,4171.282227,4215.512695,4172.307617,4192.051270,4195.256348,0.000000,4.000000,86.000000,,,,0.000000,4.000000,4.000000,4.000000,4.000000,4.000000,4.000000,4.000000,4.000000,4.000000,4.000000,4.000000,4.000000,4.000000,4.000000,100.000000,,,,,,,,,,,,,,,,
1645711427.155193,1645711427.155482,66.000000,0.000000,4228.974121,4225.512695,4219.230957,4203.461426,4240.384766,4212.948730,4215.512695,4232.051270,4219.871582,4168.974121,4215.897461,4167.820313,4195.641113,4188.974121,0.000000,4.000000,86.000000,,,,0.000000,4.000000,4.000000,4.000000,4.000000,4.000000,4.000000,4.000000,4.000000,4.000000,4.000000,4.000000,4.000000,4.000000,4.000000,100.000000,,,,,,,,,,,,,,,,
1645711427.159133,1645711427.159422,67.000000,0.000000,4218.717773,4226.666504,4218.461426,4207.820313,4239.230957,4212.820313,4214.230957,4229.102539,4218.589844,4170.384766,4216.794922,4161.410156,4200.256348,4181.922852,0.000000,4.000000,86.000000,,,,0.000000,4.000000,4.000000,4.000000,4.000000,4.000000,4.000000,4.000000,4.000000,4.000000,4.000000,4.000000,4.000000,4.000000,4.000000,100.000000,,,,,,,,,,,,,,,,
1645711427.163073,1645711427.163362,68.000000,0.000000,4218.846191,4222.436035,4217.820313,4211.153809,4235.256348,4208.461426,4209.615234,4223.846191,4218.077148,4170.128418,4212.692383,4154.358887,4200.512695,4176.282227,0.000000,4.000000,86.000000,,,,0.000000,4.000000,4.000000,4.000000,4.000000,4.000000,4.000000,4.000000,4.000000,4.000000,4.000000,4.000000,4.000000,4.000000,4.000000,100.000000,,,,,,,,,,,,,,,,
1645711427.167014,1645711427.167303,69.000000,0.000000,4226.025879,4214.743652,4216.025879,4210.512695,4230.769043,4202.820313,4204.871582,4217.692383,4217.820313,4167.051270,4204.487305,4149.102539,4195.897461,4173.846191,0.000000,4.000000,86.000000,,,,0.000000,4.000000,4.000000,4.000000,4.000000,4.000000,4.000000,4.000000,4.000000,4.000000,4.000000,4.000000,4.000000,4.000000,4.000000,100.000000,,,,,,,,,,,,,,,,
1645711427.170953,1645711427.171243,70.000000,0.000000,4228.333496,4210.384766,4214.615234,4209.358887,4233.205078,4203.077148,4204.743652,4214.358887,4218.589844,4165.384766,4198.846191,4148.205078,4191.538574,4173.974121,0.000000,4.000000,86.000000,,,,0.000000,4.000000,4.000000,4.000000,4.000000,4.000000,4.000000,4.000000,4.000000,4.000000,4.000000,4.000000,4.000000,4.000000,4.000000,100.000000,,,,,,,,,,,,,,,,
1645711427.174894,1645711427.175183,71.000000,0.000000,4220.897461,4213.333496,4214.487305,4210.384766,4243.846191,4210.769043,4209.615234,4215.769043,4220.256348,4167.948730,4200.256348,4149.871582,4191.538574,4174.230957,0.000000,4.000000,86.000000,,,,0.000000,4.000000,4.000000,4.000000,4.000000,4.000000,4.000000,4.000000,4.000000,4.000000,4.000000,4.000000,4.000000,4.000000,4.000000,100.000000,,,,,,,,,,,,,,,,
1645711427.178833,1645711427.179024,72.000000,0.000000,4211.282227,4219.358887,4214.358887,4211.282227,4253.333496,4219.743652,4214.615234,4219.230957,4221.410156,4170.769043,4204.615234,4149.743652,4194.871582,4173.589844,0.000000,4.000000,86.000000,,,,0.000000,4.000000,4.000000,4.000000,4.000000,4.000000,4.000000,4.000000,4.000000,4.000000,4.000000,4.000000,4.000000,4.000000,4.000000,100.000000,,,,,,,,,,,,,,,,
1645711427.182773,1645711427.182964,73.000000,0.000000,4210.384766,4221.410156,4213.077148,4208.077148,4251.410156,4222.436035,4215.897461,4220.384766,4220.128418,4167.948730,4205.000000,4145.384766,4197.307617,4173.846191,0.000000,4.000000,86.000000,,,,0.000000,4.000000,4.000000,4.000000,4.000000,4.000000,4.000000,4.000000,4.000000,4.000000,4.000000,4.000000,4.000000,4.000000,4.000000,100.000000,,,,,,,,,,,,,,,,
1645711427.186714,1645711427.186904,74.000000,0.000000,4217.436035,4217.692383,4210.897461,4202.051270,4239.487305,4218.589844,4213.974121,4217.307617,4216.666504,4160.384766,4200.641113,4139.230957,4197.051270,4177.051270,0.000000,4.000000,86.000000,,,,0.000000,4.000000,4.000000,4.000000,4.000000,4.000000,4.000000,4.000000,4.000000,4.000000,4.000000,4.000000,4.000000,4.000000,4.000000,100.000000,,,,,,,,,,,,,,,,
1645711427.190653,1645711427.190844,75.000000,0.000000,4221.794922,4213.461426,4209.743652,4199.358887,4229.743652,4214.743652,4212.436035,4212.692383,4213.974121,4156.282227,4197.563965,4136.153809,4196.153809,4180.897461,0.000000,4.000000,86.000000,,,,0.000000,4.000000,4.000000,4.000000,4.000000,4.000000,4.000000,4.000000,4.000000,4.000000,4.000000,4.000000,4.000000,4.000000,4.000000,100.000000,,,,,,,,,,,,,,,,
1645711427.194594,1645711427.194784,76.000000,0.000000,4216.538574,4213.333496,4210.512695,4203.717773,4232.179688,4215.128418,4212.692383,4209.102539,4214.230957,4161.538574,4200.512695,4138.461426,4196.794922,4180.641113,0.000000,4.000000,86.000000,,,,0.000000,4.000000,4.000000,4.000000,4.000000,4.000000,4.000000,4.000000,4.000000,4.000000,4.000000,4.000000,4.000000,4.000000,4.000000,100.000000,,,,,,,,,,,,,,,,
1645711427.198534,1645711427.198724,77.000000,0.000000,4207.692383,4215.897461,4211.666504,4211.282227,4242.820313,4217.307617,4212.692383,4207.051270,4216.282227,4171.666504,4206.282227,4143.589844,4198.589844,4174.615234,0.000000,4.000000,86.000000,,,,0.000000,4.000000,4.000000,4.000000,4.000000,4.000000,4.000000,4.000000,4.000000,4.000000,4.000000,4.000000,4.000000,4.000000,4.000000,100.000000,,,,,,,,,,,,,,,,
1645711427.202474,1645711427.202664,78.000000,0.000000,4205.769043,4216.666504,4211.410156,4215.512695,4250.000000,4216.922852,4211.025879,4205.000000,4217.307617,4176.794922,4208.077148,4147.051270,4198.846191,4168.589844,0.000000,4.000000,86.000000,,,,0.000000,4.000000,4.000000,4.000000,4.000000,4.000000,4.000000,4.000000,4.000000,4.000000,4.000000,4.000000,4.000000,4.000000,4.000000,100.000000,,,,,,,,,,,,,,,,
1645711427.206414,1645711427.206604,79.000000,0.000000,4212.307617,4214.487305,4210.000000,4214.230957,4248.333496,4214.487305,4209.487305,4203.589844,4216.410156,4172.692383,4204.487305,4147.820313,4197.436035,4169.743652,0.000000,4.000000,86.000000,,,,0.000000,4.000000,4.000000,4.000000,4.000000,4.000000,4.000000,4.000000,4.000000,4.000000,4.000000,4.000000,4.000000,4.000000,4.000000,100.000000,,,,,,,,,,,,,,,,
1645711427.210353,1645711427.210544,80.000000,0.000000,4218.077148,4214.230957,4209.358887,4211.025879,4244.102539,4215.512695,4210.897461,4205.128418,4215.512695,4165.641113,4201.666504,4147.563965,4197.051270,4178.333496,0.000000,4.000000,86.000000,,,,0.000000,4.000000,4.000000,4.000000,4.000000,4.000000,4.000000,4.000000,4.000000,4.000000,4.000000,4.000000,4.000000,4.000000,4.000000,100.000000,,,,,,,,,,,,,,,,
1645711427.214294,1645711427.214485,81.000000,0.000000,4215.769043,4219.615234,4209.487305,4208.333496,4245.256348,4222.436035,4215.512695,4209.487305,4216.153809,4163.205078,4203.717773,4147.820313,4198.846191,4185.512695,0.000000,4.000000,86.000000,,,,0.000000,4.000000,4.000000,4.000000,4.000000,4.000000,4.000000,4.000000,4.000000,4.000000,4.000000,4.000000,4.000000,4.000000,4.000000,100.000000,,,,,,,,,,,,,,,,
1645711427.218234,1645711427.218425,82.000000,0.000000,4208.846191,4226.410156,4207.948730,4204.102539,4250.641113,4229.358887,4219.102539,4213.077148,4216.282227,4164.743652,4206.666504,4146.794922,4200.384766,4182.692383,0.000000,4.000000,86.000000,,,,0.000000,4.000000,4.000000,4.000000,4.000000,4.000000,4.000000,4.000000,4.000000,4.000000,4.000000,4.000000,4.000000,4.000000,4.000000,100.000000,,,,,,,,,,,,,,,,
1645711427.222174,1645711427.222365,83.000000,0.000000,4205.897461,4227.436035,4202.563965,4195.769043,4251.282227,4228.974121,4217.820313,4211.153809,4212.820313,4163.461426,4203.077148,4142.179688,4197.307617,4170.641113,0.000000,4.000000,86.000000,,,,0.000000,4.000000,4.000000,4.000000,4.000000,4.000000,4.000000,4.000000,4.000000,4.000000,4.000000,4.000000,4.000000,4.000000,4.000000,100.000000,,,,,,,,,,,,,,,,
1645711427.226114,1645711427.226305,84.000000,0.000000,4208.205078,4220.128418,4194.743652,4185.641113,4244.102539,4221.153809,4212.948730,4204.487305,4206.410156,4156.666504,4192.820313,4135.256348,4190.384766,4158.846191,0.000000,4.000000,86.000000,,,,0.000000,4.000000,4.000000,4.000000,4.000000,4.000000,4.000000,4.000000,4.000000,4.000000,4.000000,4.000000,4.000000,4.000000,4.000000,100.000000,,,,,,,,,,,,,,,,
1645711427.230054,1645711427.230245,85.000000,0.000000,4208.974121,4210.512695,4189.743652,4180.769043,4235.769043,4213.974121,4209.615234,4198.589844,4202.436035,4150.769043,4184.615234,4131.153809,4185.128418,4156.922852,0.000000,4.000000,86.000000,,,,0.000000,4.000000,4.000000,4.000000,4.000000,4.000000,4.000000,4.000000,4.000000,4.000000,4.000000,4.000000,4.000000,4.000000,4.000000,100.000000,,,,,,,,,,,,,,,,
1645711427.233994,1645711427.234185,86.000000,0.000000,4203.974121,4206.538574,4191.410156,4184.615234,4234.615234,4214.615234,4210.641113,4199.102539,4204.871582,4153.846191,4187.307617,4133.974121,4187.692383,4166.410156,0.000000,4.000000,86.000000,,,,0.000000,4.000000,4.000000,4.000000,4.000000,4.000000,4.000000,4.000000,4.000000,4.000000,4.000000,4.000000,4.000000,4.000000,4.000000,100.000000,,,,,,,,,,,,,,,,
1645711427.237934,1645711427.238125,87.000000,0.000000,4198.717773,4210.128418,4198.589844,4192.563965,4239.743652,4221.025879,4214.230957,4205.384766,4212.436035,4164.743652,4199.230957,4141.410156,4197.820313,4180.897461,0.000000,4.000000,86.000000,,,,0.000000,4.000000,4.000000,4.000000,4.000000,4.000000,4.000000,4.000000,4.000000,4.000000,4.000000,4.000000,4.000000,4.000000,4.000000,100.000000,,,,,,,,,,,,,,,,
1645711427.241874,1645711427.242065,88.000000,0.000000,4201.922852,4216.794922,4206.025879,4196.794922,4242.692383,4225.000000,4216.282227,4211.666504,4218.717773,4173.974121,4210.641113,4147.563965,4208.846191,4192.051270,0.000000,4.000000,86.000000,,,,0.000000,4.000000,4.000000,4.000000,4.000000,4.000000,4.000000,4.000000,4.000000,4.000000,4.000000,4.000000,4.000000,4.000000,4.000000,100.000000,,,,,,,,,,,,,,,,
1645711427.245814,1645711427.246005,89.000000,0.000000,4212.436035,4222.563965,4209.615234,4195.897461,4238.974121,4222.307617,4215.512695,4212.948730,4219.102539,4174.487305,4213.589844,4148.461426,4213.974121,4194.358887,0.000000,4.000000,86.000000,,,,0.000000,4.000000,4.000000,4.000000,4.000000,4.000000,4.000000,4.000000,4.000000,4.000000,4.000000,4.000000,4.000000,4.000000,4.000000,100.000000,,,,,,,,,,,,,,,,
1645711427.249754,1645711427.249846,90.000000,0.000000,4219.230957,4227.436035,4208.717773,4195.769043,4233.461426,4216.410156,4213.589844,4209.230957,4214.743652,4168.333496,4209.615234,4144.871582,4211.922852,4187.692383,0.000000,4.000000,86.000000,,,,0.000000,4.000000,4.000000,4.000000,4.000000,4.000000,4.000000,4.000000,4.000000,4.000000,4.000000,4.000000,4.000000,4.000000,4.000000,100.000000,,,,,,,,,,,,,,,,
1645711427.253694,1645711427.253786,91.000000,0.000000,4215.384766,4232.307617,4205.512695,4201.666504,4232.563965,4213.077148,4212.179688,4204.487305,4210.641113,4163.077148,4204.615234,4139.743652,4206.153809,4176.282227,0.000000,4.000000,86.000000,,,,0.000000,4.000000,4.000000,4.000000,4.000000,4.000000,4.000000,4.000000,4.000000,4.000000,4.000000,4.000000,4.000000,4.000000,4.000000,100.000000,,,,,,,,,,,,,,,,
