title:Alex-IQt48zbmu_J2IhU9pyuf5g, start timestamp:1645711999.539472, stop timestamp:1645712026.424354, headset type:EPOCPLUS, headset serial:3B9AEBFF, headset firmware:626, channels:55, sampling rate:eeg_256, samples:6825      , version:2.1, 
Timestamp,EEG.Counter,EEG.Interpolated,EEG.AF3,EEG.F7,EEG.F3,EEG.FC5,EEG.T7,EEG.P7,EEG.O1,EEG.O2,EEG.P8,EEG.T8,EEG.FC6,EEG.F4,EEG.F8,EEG.AF4,EEG.RawCq,EEG.Battery,EEG.BatteryPercent,MarkerIndex,MarkerType,MarkerValueInt,EEG.MarkerHardware,CQ.AF3,CQ.F7,CQ.F3,CQ.FC5,CQ.T7,CQ.P7,CQ.O1,CQ.O2,CQ.P8,CQ.T8,CQ.FC6,CQ.F4,CQ.F8,CQ.AF4,CQ.Overall,EQ.SampleRateQuality,EQ.OVERALL,EQ.AF3,EQ.F7,EQ.F3,EQ.FC5,EQ.T7,EQ.P7,EQ.O1,EQ.O2,EQ.P8,EQ.T8,EQ.FC6,EQ.F4,EQ.F8,EQ.AF4
1645711999.539472,167.000000,0.000000,4237.179688,4214.871582,4210.000000,4229.871582,4201.666504,4214.871582,4219.743652,4214.358887,4218.717773,4211.153809,4203.461426,4159.230957,4199.230957,4207.692383,2680.000000,4.000000,82.000000,,,,0.000000,4.000000,4.000000,4.000000,4.000000,4.000000,4.000000,4.000000,4.000000,4.000000,4.000000,4.000000,4.000000,4.000000,4.000000,100.000000,,,,,,,,,,,,,,,,
1645711999.543312,168.000000,0.000000,4247.563965,4217.820313,4209.487305,4234.230957,4201.922852,4217.820313,4220.769043,4216.538574,4220.384766,4211.282227,4205.256348,4157.436035,4199.487305,4203.846191,3228.000000,4.000000,82.000000,,,,0.000000,4.000000,4.000000,4.000000,4.000000,4.000000,4.000000,4.000000,4.000000,4.000000,4.000000,4.000000,4.000000,4.000000,4.000000,100.000000,,,,,,,,,,,,,,,,
1645711999.547252,169.000000,0.000000,4262.692383,4216.666504,4208.717773,4229.230957,4197.179688,4216.794922,4220.000000,4216.538574,4220.000000,4207.948730,4203.205078,4156.282227,4199.615234,4200.897461,3029.000000,4.000000,82.000000,,,,0.000000,4.000000,4.000000,4.000000,4.000000,4.000000,4.000000,4.000000,4.000000,4.000000,4.000000,4.000000,4.000000,4.000000,4.000000,100.000000,,,,,,,,,,,,,,,,
1645711999.551192,170.000000,0.000000,4275.128418,4213.589844,4208.974121,4219.615234,4192.563965,4214.102539,4219.230957,4214.743652,4217.692383,4205.256348,4199.102539,4157.436035,4200.769043,4201.794922,2302.000000,4.000000,82.000000,,,,0.000000,4.000000,4.000000,4.000000,4.000000,4.000000,4.000000,4.000000,4.000000,4.000000,4.000000,4.000000,4.000000,4.000000,4.000000,100.000000,,,,,,,,,,,,,,,,
1645711999.555132,171.000000,0.000000,4278.461426,4213.077148,4211.538574,4215.641113,4195.256348,4214.230957,4219.743652,4213.461426,4215.769043,4208.205078,4197.948730,4161.922852,4204.487305,4206.538574,2680.000000,4.000000,82.000000,,,,0.000000,4.000000,4.000000,4.000000,4.000000,4.000000,4.000000,4.000000,4.000000,4.000000,4.000000,4.000000,4.000000,4.000000,4.000000,100.000000,,,,,,,,,,,,,,,,
1645711999.559073,172.000000,0.000000,4273.974121,4216.538574,4215.512695,4222.820313,4205.512695,4217.820313,4221.153809,4214.358887,4216.153809,4215.769043,4200.641113,4167.436035,4209.102539,4211.794922,3228.000000,4.000000,82.000000,,,,0.000000,4.000000,4.000000,4.000000,4.000000,4.000000,4.000000,4.000000,4.000000,4.000000,4.000000,4.000000,4.000000,4.000000,4.000000,100.000000,,,,,,,,,,,,,,,,
1645711999.563013,173.000000,0.000000,4268.974121,4221.282227,4218.077148,4236.025879,4214.871582,4221.666504,4221.666504,4215.512695,4217.948730,4221.025879,4202.820313,4169.358887,4210.512695,4213.461426,3029.000000,4.000000,82.000000,,,,0.000000,4.000000,4.000000,4.000000,4.000000,4.000000,4.000000,4.000000,4.000000,4.000000,4.000000,4.000000,4.000000,4.000000,4.000000,100.000000,,,,,,,,,,,,,,,,
1645711999.566953,174.000000,0.000000,4269.615234,4223.974121,4218.077148,4246.153809,4216.282227,4222.820313,4221.153809,4215.000000,4219.102539,4218.333496,4200.512695,4166.410156,4206.666504,4211.025879,2302.000000,4.000000,82.000000,,,,0.000000,4.000000,4.000000,4.000000,4.000000,4.000000,4.000000,4.000000,4.000000,4.000000,4.000000,4.000000,4.000000,4.000000,4.000000,100.000000,,,,,,,,,,,,,,,,
1645711999.570893,175.000000,0.000000,4274.230957,4225.128418,4217.051270,4250.256348,4211.153809,4222.820313,4221.538574,4213.589844,4219.230957,4209.615234,4196.025879,4162.436035,4201.282227,4207.692383,2680.000000,4.000000,82.000000,,,,0.000000,4.000000,4.000000,4.000000,4.000000,4.000000,4.000000,4.000000,4.000000,4.000000,4.000000,4.000000,4.000000,4.000000,4.000000,100.000000,,,,,,,,,,,,,,,,
1645711999.574833,176.000000,0.000000,4277.051270,4228.205078,4217.179688,4252.179688,4207.051270,4224.743652,4224.230957,4213.589844,4219.102539,4202.307617,4195.000000,4163.077148,4200.512695,4207.179688,3228.000000,4.000000,82.000000,,,,0.000000,4.000000,4.000000,4.000000,4.000000,4.000000,4.000000,4.000000,4.000000,4.000000,4.000000,4.000000,4.000000,4.000000,4.000000,100.000000,,,,,,,,,,,,,,,,
1645711999.578773,177.000000,0.000000,4275.000000,4233.974121,4218.333496,4254.615234,4208.333496,4228.717773,4227.692383,4215.897461,4219.871582,4201.538574,4200.000000,4168.846191,4206.666504,4210.128418,3029.000000,4.000000,82.000000,,,,0.000000,4.000000,4.000000,4.000000,4.000000,4.000000,4.000000,4.000000,4.000000,4.000000,4.000000,4.000000,4.000000,4.000000,4.000000,100.000000,,,,,,,,,,,,,,,,
1645711999.582713,178.000000,0.000000,4270.897461,4238.846191,4218.333496,4255.128418,4212.179688,4231.153809,4229.358887,4218.461426,4221.025879,4206.025879,4207.179688,4175.000000,4215.897461,4214.487305,2302.000000,4.000000,82.000000,,,,0.000000,4.000000,4.000000,4.000000,4.000000,4.000000,4.000000,4.000000,4.000000,4.000000,4.000000,4.000000,4.000000,4.000000,4.000000,100.000000,,,,,,,,,,,,,,,,
1645711999.586653,179.000000,0.000000,4268.077148,4237.948730,4216.282227,4249.615234,4213.077148,4229.615234,4228.461426,4219.358887,4221.922852,4211.666504,4211.282227,4176.922852,4222.051270,4218.205078,2680.000000,4.000000,82.000000,,,,0.000000,4.000000,4.000000,4.000000,4.000000,4.000000,4.000000,4.000000,4.000000,4.000000,4.000000,4.000000,4.000000,4.000000,4.000000,100.000000,,,,,,,,,,,,,,,,
1645711999.590593,180.000000,0.000000,4266.282227,4231.410156,4213.846191,4239.230957,4210.384766,4226.666504,4227.179688,4219.615234,4222.948730,4216.025879,4211.410156,4174.743652,4222.563965,4220.384766,3228.000000,4.000000,82.000000,,,,0.000000,4.000000,4.000000,4.000000,4.000000,4.000000,4.000000,4.000000,4.000000,4.000000,4.000000,4.000000,4.000000,4.000000,4.000000,100.000000,,,,,,,,,,,,,,,,
1645711999.594533,181.000000,0.000000,4262.563965,4223.461426,4212.820313,4230.769043,4207.179688,4226.282227,4227.948730,4221.025879,4224.358887,4218.846191,4209.871582,4171.922852,4218.589844,4220.128418,3029.000000,4.000000,82.000000,,,,0.000000,4.000000,4.000000,4.000000,4.000000,4.000000,4.000000,4.000000,4.000000,4.000000,4.000000,4.000000,4.000000,4.000000,4.000000,100.000000,,,,,,,,,,,,,,,,
1645711999.598474,182.000000,0.000000,4256.922852,4218.846191,4212.948730,4228.461426,4205.000000,4228.846191,4229.871582,4223.205078,4225.000000,4218.077148,4208.205078,4170.256348,4212.948730,4216.025879,2302.000000,4.000000,82.000000,,,,0.000000,4.000000,4.000000,4.000000,4.000000,4.000000,4.000000,4.000000,4.000000,4.000000,4.000000,4.000000,4.000000,4.000000,4.000000,100.000000,,,,,,,,,,,,,,,,
1645711999.602414,183.000000,0.000000,4253.077148,4218.333496,4212.051270,4230.769043,4202.436035,4230.641113,4230.384766,4223.205078,4222.692383,4211.282227,4205.000000,4168.589844,4207.307617,4207.692383,2680.000000,4.000000,82.000000,,,,0.000000,4.000000,4.000000,4.000000,4.000000,4.000000,4.000000,4.000000,4.000000,4.000000,4.000000,4.000000,4.000000,4.000000,4.000000,100.000000,,,,,,,,,,,,,,,,
1645711999.606354,184.000000,0.000000,4253.589844,4220.128418,4209.102539,4232.692383,4199.615234,4228.974121,4228.333496,4219.487305,4216.922852,4200.128418,4199.615234,4165.128418,4203.077148,4198.717773,3228.000000,4.000000,82.000000,,,,0.000000,4.000000,4.000000,4.000000,4.000000,4.000000,4.000000,4.000000,4.000000,4.000000,4.000000,4.000000,4.000000,4.000000,4.000000,100.000000,,,,,,,,,,,,,,,,
1645711999.610294,185.000000,0.000000,4256.025879,4223.846191,4206.410156,4231.666504,4199.615234,4226.153809,4226.025879,4215.128418,4210.897461,4192.948730,4195.641113,4161.153809,4202.436035,4194.743652,3029.000000,4.000000,82.000000,,,,0.000000,4.000000,4.000000,4.000000,4.000000,4.000000,4.000000,4.000000,4.000000,4.000000,4.000000,4.000000,4.000000,4.000000,4.000000,100.000000,,,,,,,,,,,,,,,,
1645711999.614134,186.000000,0.000000,4255.384766,4229.743652,4206.794922,4229.871582,4205.769043,4226.282227,4226.538574,4215.000000,4209.615234,4197.948730,4197.563965,4159.230957,4206.666504,4198.077148,2302.000000,4.000000,82.000000,,,,0.000000,4.000000,4.000000,4.000000,4.000000,4.000000,4.000000,4.000000,4.000000,4.000000,4.000000,4.000000,4.000000,4.000000,4.000000,100.000000,,,,,,,,,,,,,,,,
1645711999.618074,187.000000,0.000000,4251.282227,4236.666504,4209.871582,4230.128418,4215.897461,4230.512695,4230.000000,4220.256348,4214.230957,4214.358887,4205.000000,4160.384766,4213.717773,4205.000000,2680.000000,4.000000,82.000000,,,,0.000000,4.000000,4.000000,4.000000,4.000000,4.000000,4.000000,4.000000,4.000000,4.000000,4.000000,4.000000,4.000000,4.000000,4.000000,100.000000,,,,,,,,,,,,,,,,
1645711999.622014,188.000000,0.000000,4248.333496,4240.897461,4213.077148,4232.692383,4222.563965,4235.000000,4234.230957,4227.051270,4221.410156,4230.384766,4212.563965,4162.948730,4218.846191,4208.974121,3228.000000,4.000000,82.000000,,,,0.000000,4.000000,4.000000,4.000000,4.000000,4.000000,4.000000,4.000000,4.000000,4.000000,4.000000,4.000000,4.000000,4.000000,4.000000,100.000000,,,,,,,,,,,,,,,,
1645711999.625954,189.000000,0.000000,4250.512695,4240.256348,4214.358887,4234.743652,4221.410156,4236.410156,4237.307617,4230.897461,4226.282227,4235.128418,4215.769043,4165.000000,4217.948730,4207.820313,3029.000000,4.000000,82.000000,,,,0.000000,4.000000,4.000000,4.000000,4.000000,4.000000,4.000000,4.000000,4.000000,4.000000,4.000000,4.000000,4.000000,4.000000,4.000000,100.000000,,,,,,,,,,,,,,,,
1645711999.629895,190.000000,0.000000,4255.384766,4237.307617,4214.358887,4235.128418,4215.897461,4236.153809,4239.743652,4231.922852,4227.563965,4228.461426,4215.641113,4167.051270,4212.948730,4204.743652,2302.000000,4.000000,82.000000,,,,0.000000,4.000000,4.000000,4.000000,4.000000,4.000000,4.000000,4.000000,4.000000,4.000000,4.000000,4.000000,4.000000,4.000000,4.000000,100.000000,,,,,,,,,,,,,,,,
1645711999.633835,191.000000,0.000000,4257.179688,4236.282227,4215.256348,4235.256348,4213.974121,4238.205078,4243.205078,4233.974121,4227.692383,4220.256348,4216.538574,4171.410156,4209.871582,4204.487305,2680.000000,4.000000,82.000000,,,,0.000000,4.000000,4.000000,4.000000,4.000000,4.000000,4.000000,4.000000,4.000000,4.000000,4.000000,4.000000,4.000000,4.000000,4.000000,100.000000,,,,,,,,,,,,,,,,
1645711999.637775,192.000000,0.000000,4253.461426,4238.589844,4217.563965,4236.666504,4217.948730,4242.948730,4246.922852,4238.846191,4228.846191,4219.102539,4219.743652,4177.820313,4212.820313,4208.846191,3228.000000,4.000000,82.000000,,,,0.000000,4.000000,4.000000,4.000000,4.000000,4.000000,4.000000,4.000000,4.000000,4.000000,4.000000,4.000000,4.000000,4.000000,4.000000,100.000000,,,,,,,,,,,,,,,,
1645711999.641715,193.000000,0.000000,4248.589844,4240.384766,4218.974121,4237.820313,4222.179688,4245.641113,4248.077148,4243.333496,4230.256348,4224.487305,4221.538574,4182.436035,4219.871582,4215.128418,3029.000000,4.000000,82.000000,,,,0.000000,4.000000,4.000000,4.000000,4.000000,4.000000,4.000000,4.000000,4.000000,4.000000,4.000000,4.000000,4.000000,4.000000,4.000000,100.000000,,,,,,,,,,,,,,,,
1645711999.645655,194.000000,0.000000,4248.077148,4238.333496,4218.077148,4236.025879,4220.128418,4242.563965,4245.128418,4243.589844,4229.871582,4230.000000,4218.717773,4182.179688,4225.641113,4220.256348,2302.000000,4.000000,82.000000,,,,0.000000,4.000000,4.000000,4.000000,4.000000,4.000000,4.000000,4.000000,4.000000,4.000000,4.000000,4.000000,4.000000,4.000000,4.000000,100.000000,,,,,,,,,,,,,,,,
1645711999.649595,195.000000,0.000000,4251.922852,4234.487305,4216.794922,4231.794922,4213.461426,4235.641113,4240.384766,4239.743652,4227.948730,4232.692383,4215.000000,4178.717773,4227.436035,4223.205078,2680.000000,4.000000,82.000000,,,,0.000000,4.000000,4.000000,4.000000,4.000000,4.000000,4.000000,4.000000,4.000000,4.000000,4.000000,4.000000,4.000000,4.000000,4.000000,100.000000,,,,,,,,,,,,,,,,
1645711999.653535,196.000000,0.000000,4255.256348,4234.487305,4218.461426,4229.102539,4209.487305,4231.025879,4237.179688,4236.410156,4227.307617,4234.743652,4217.692383,4177.820313,4226.922852,4225.256348,3228.000000,4.000000,82.000000,,,,0.000000,4.000000,4.000000,4.000000,4.000000,4.000000,4.000000,4.000000,4.000000,4.000000,4.000000,4.000000,4.000000,4.000000,4.000000,100.000000,,,,,,,,,,,,,,,,
1645711999.657475,197.000000,0.000000,4254.358887,4240.000000,4224.358887,4230.256348,4210.897461,4231.538574,4236.410156,4236.666504,4228.974121,4238.077148,4228.461426,4182.307617,4227.436035,4226.666504,3029.000000,4.000000,82.000000,,,,0.000000,4.000000,4.000000,4.000000,4.000000,4.000000,4.000000,4.000000,4.000000,4.000000,4.000000,4.000000,4.000000,4.000000,4.000000,100.000000,,,,,,,,,,,,,,,,
1645711999.661415,198.000000,0.000000,4251.410156,4245.384766,4231.153809,4233.461426,4211.922852,4233.461426,4235.512695,4238.717773,4231.282227,4240.128418,4239.487305,4189.102539,4229.358887,4226.025879,2302.000000,4.000000,82.000000,,,,0.000000,4.000000,4.000000,4.000000,4.000000,4.000000,4.000000,4.000000,4.000000,4.000000,4.000000,4.000000,4.000000,4.000000,4.000000,100.000000,,,,,,,,,,,,,,,,
1645711999.665355,199.000000,0.000000,4249.871582,4243.974121,4234.487305,4235.641113,4205.897461,4231.410156,4232.436035,4238.717773,4231.282227,4236.025879,4240.769043,4192.179688,4230.128418,4222.820313,2680.000000,4.000000,82.000000,,,,0.000000,4.000000,4.000000,4.000000,4.000000,4.000000,4.000000,4.000000,4.000000,4.000000,4.000000,4.000000,4.000000,4.000000,4.000000,100.000000,,,,,,,,,,,,,,,,
1645711999.669296,200.000000,0.000000,4250.000000,4235.512695,4233.077148,4236.025879,4194.615234,4224.743652,4227.820313,4235.128418,4228.461426,4226.794922,4231.410156,4189.230957,4228.333496,4218.461426,3228.000000,4.000000,82.000000,,,,0.000000,4.000000,4.000000,4.000000,4.000000,4.000000,4.000000,4.000000,4.000000,4.000000,4.000000,4.000000,4.000000,4.000000,4.000000,100.000000,,,,,,,,,,,,,,,,
1645711999.673236,201.000000,0.000000,4249.230957,4227.436035,4229.487305,4236.794922,4187.692383,4218.205078,4224.358887,4230.641113,4224.871582,4218.974121,4220.384766,4182.692383,4225.769043,4215.897461,3029.000000,4.000000,82.000000,,,,0.000000,4.000000,4.000000,4.000000,4.000000,4.000000,4.000000,4.000000,4.000000,4.000000,4.000000,4.000000,4.000000,4.000000,4.000000,100.000000,,,,,,,,,,,,,,,,
1645711999.677176,202.000000,0.000000,4246.153809,4226.794922,4227.307617,4238.205078,4192.563965,4216.025879,4223.717773,4227.948730,4222.948730,4218.205078,4216.025879,4176.794922,4224.615234,4216.025879,2302.000000,4.000000,82.000000,,,,0.000000,4.000000,4.000000,4.000000,4.000000,4.000000,4.000000,4.000000,4.000000,4.000000,4.000000,4.000000,4.000000,4.000000,4.000000,100.000000,,,,,,,,,,,,,,,,
1645711999.681016,203.000000,0.000000,4243.461426,4233.205078,4226.922852,4238.077148,4205.769043,4216.794922,4224.487305,4226.153809,4222.179688,4221.922852,4217.692383,4172.820313,4224.230957,4217.307617,2680.000000,4.000000,82.000000,,,,0.000000,4.000000,4.000000,4.000000,4.000000,4.000000,4.000000,4.000000,4.000000,4.000000,4.000000,4.000000,4.000000,4.000000,4.000000,100.000000,,,,,,,,,,,,,,,,
1645711999.684956,204.000000,0.000000,4243.461426,4239.743652,4226.025879,4234.487305,4216.922852,4216.538574,4224.102539,4222.820313,4220.384766,4223.205078,4218.589844,4168.974121,4222.307617,4218.077148,3228.000000,4.000000,82.000000,,,,0.000000,4.000000,4.000000,4.000000,4.000000,4.000000,4.000000,4.000000,4.000000,4.000000,4.000000,4.000000,4.000000,4.000000,4.000000,100.000000,,,,,,,,,,,,,,,,
1645711999.688896,205.000000,0.000000,4244.487305,4241.794922,4222.948730,4229.102539,4218.461426,4213.717773,4222.563965,4217.051270,4216.922852,4218.974121,4214.871582,4164.230957,4218.974121,4217.563965,3029.000000,4.000000,82.000000,,,,0.000000,4.000000,4.000000,4.000000,4.000000,4.000000,4.000000,4.000000,4.000000,4.000000,4.000000,4.000000,4.000000,4.000000,4.000000,100.000000,,,,,,,,,,,,,,,,
1645711999.692836,206.000000,0.000000,4242.179688,4239.743652,4218.077148,4226.282227,4211.922852,4211.025879,4221.153809,4211.538574,4213.846191,4213.077148,4209.743652,4160.128418,4216.794922,4216.153809,2302.000000,4.000000,82.000000,,,,0.000000,4.000000,4.000000,4.000000,4.000000,4.000000,4.000000,4.000000,4.000000,4.000000,4.000000,4.000000,4.000000,4.000000,4.000000,100.000000,,,,,,,,,,,,,,,,
1645711999.696776,207.000000,0.000000,4235.128418,4236.153809,4212.692383,4227.179688,4202.948730,4211.282227,4220.641113,4208.589844,4213.461426,4210.641113,4208.333496,4158.974121,4217.307617,4213.846191,2680.000000,4.000000,82.000000,,,,0.000000,4.000000,4.000000,4.000000,4.000000,4.000000,4.000000,4.000000,4.000000,4.000000,4.000000,4.000000,4.000000,4.000000,4.000000,100.000000,,,,,,,,,,,,,,,,
1645711999.700717,208.000000,0.000000,4227.948730,4232.051270,4207.692383,4228.333496,4195.512695,4213.846191,4219.487305,4208.205078,4214.743652,4211.794922,4210.256348,4160.641113,4218.461426,4210.384766,3228.000000,4.000000,82.000000,,,,0.000000,4.000000,4.000000,4.000000,4.000000,4.000000,4.000000,4.000000,4.000000,4.000000,4.000000,4.000000,4.000000,4.000000,4.000000,100.000000,,,,,,,,,,,,,,,,
1645711999.704657,209.000000,0.000000,4225.897461,4226.666504,4203.974121,4226.794922,4190.512695,4215.256348,4217.051270,4208.461426,4215.000000,4212.692383,4211.153809,4163.077148,4217.692383,4207.051270,3029.000000,4.000000,82.000000,,,,0.000000,4.000000,4.000000,4.000000,4.000000,4.000000,4.000000,4.000000,4.000000,4.000000,4.000000,4.000000,4.000000,4.000000,4.000000,100.000000,,,,,,,,,,,,,,,,
1645711999.708597,210.000000,0.000000,4228.846191,4221.538574,4203.461426,4224.358887,4188.974121,4215.256348,4214.871582,4208.974121,4213.205078,4211.538574,4209.615234,4165.000000,4214.871582,4207.307617,2302.000000,4.000000,82.000000,,,,0.000000,4.000000,4.000000,4.000000,4.000000,4.000000,4.000000,4.000000,4.000000,4.000000,4.000000,4.000000,4.000000,4.000000,4.000000,100.000000,,,,,,,,,,,,,,,,
1645711999.712537,211.000000,0.000000,4230.897461,4220.128418,4208.205078,4226.025879,4192.563965,4216.282227,4215.641113,4211.282227,4211.282227,4210.897461,4208.333496,4167.179688,4213.205078,4212.307617,2680.000000,4.000000,82.000000,,,,0.000000,4.000000,4.000000,4.000000,4.000000,4.000000,4.000000,4.000000,4.000000,4.000000,4.000000,4.000000,4.000000,4.000000,4.000000,100.000000,,,,,,,,,,,,,,,,
1645711999.716477,212.000000,0.000000,4228.205078,4224.102539,4216.794922,4232.051270,4200.128418,4219.743652,4219.871582,4215.769043,4211.410156,4213.461426,4210.641113,4170.000000,4214.615234,4218.589844,3228.000000,4.000000,82.000000,,,,0.000000,4.000000,4.000000,4.000000,4.000000,4.000000,4.000000,4.000000,4.000000,4.000000,4.000000,4.000000,4.000000,4.000000,4.000000,100.000000,,,,,,,,,,,,,,,,
1645711999.720417,213.000000,0.000000,4222.948730,4230.384766,4224.487305,4236.410156,4206.922852,4222.820313,4224.615234,4220.256348,4213.205078,4218.077148,4215.256348,4171.410156,4216.794922,4220.128418,3029.000000,4.000000,82.000000,,,,0.000000,4.000000,4.000000,4.000000,4.000000,4.000000,4.000000,4.000000,4.000000,4.000000,4.000000,4.000000,4.000000,4.000000,4.000000,100.000000,,,,,,,,,,,,,,,,
1645711999.724357,214.000000,0.000000,4220.641113,4234.230957,4226.666504,4233.333496,4208.589844,4222.179688,4226.538574,4222.179688,4214.487305,4220.128418,4217.563965,4169.102539,4216.922852,4215.512695,2302.000000,4.000000,82.000000,,,,0.000000,4.000000,4.000000,4.000000,4.000000,4.000000,4.000000,4.000000,4.000000,4.000000,4.000000,4.000000,4.000000,4.000000,4.000000,100.000000,,,,,,,,,,,,,,,,
1645711999.728297,215.000000,0.000000,4222.948730,4234.615234,4222.948730,4225.128418,4206.410156,4218.077148,4225.641113,4222.307617,4214.230957,4218.205078,4215.769043,4163.846191,4215.128418,4209.615234,2680.000000,4.000000,82.000000,,,,0.000000,4.000000,4.000000,4.000000,4.000000,4.000000,4.000000,4.000000,4.000000,4.000000,4.000000,4.000000,4.000000,4.000000,4.000000,100.000000,,,,,,,,,,,,,,,,
1645711999.732237,216.000000,0.000000,4225.769043,4234.102539,4217.436035,4219.743652,4205.512695,4215.256348,4224.358887,4223.333496,4213.974121,4215.512695,4212.948730,4159.358887,4215.128418,4208.846191,3228.000000,4.000000,82.000000,,,,0.000000,4.000000,4.000000,4.000000,4.000000,4.000000,4.000000,4.000000,4.000000,4.000000,4.000000,4.000000,4.000000,4.000000,4.000000,100.000000,,,,,,,,,,,,,,,,
1645711999.736177,217.000000,0.000000,4224.358887,4233.846191,4214.358887,4222.051270,4207.692383,4216.538574,4224.102539,4226.922852,4215.384766,4216.153809,4212.563965,4158.461426,4218.846191,4213.461426,3029.000000,4.000000,82.000000,,,,0.000000,4.000000,4.000000,4.000000,4.000000,4.000000,4.000000,4.000000,4.000000,4.000000,4.000000,4.000000,4.000000,4.000000,4.000000,100.000000,,,,,,,,,,,,,,,,
1645711999.740118,218.000000,0.000000,4219.230957,4231.922852,4213.589844,4228.205078,4208.846191,4219.615234,4223.717773,4230.000000,4217.436035,4218.717773,4214.102539,4160.128418,4222.820313,4216.538574,2302.000000,4.000000,82.000000,,,,0.000000,4.000000,4.000000,4.000000,4.000000,4.000000,4.000000,4.000000,4.000000,4.000000,4.000000,4.000000,4.000000,4.000000,4.000000,100.000000,,,,,,,,,,,,,,,,
1645711999.744058,219.000000,0.000000,4214.358887,4225.769043,4212.436035,4230.769043,4204.358887,4220.000000,4221.922852,4228.333496,4217.436035,4218.461426,4213.717773,4160.769043,4221.922852,4211.410156,2680.000000,4.000000,82.000000,,,,0.000000,4.000000,4.000000,4.000000,4.000000,4.000000,4.000000,4.000000,4.000000,4.000000,4.000000,4.000000,4.000000,4.000000,4.000000,100.000000,,,,,,,,,,,,,,,,
1645711999.747998,220.000000,0.000000,4211.794922,4217.563965,4208.974121,4227.436035,4195.512695,4216.538574,4219.615234,4222.051270,4214.615234,4214.230957,4210.000000,4158.333496,4215.512695,4199.358887,3228.000000,4.000000,82.000000,,,,0.000000,4.000000,4.000000,4.000000,4.000000,4.000000,4.000000,4.000000,4.000000,4.000000,4.000000,4.000000,4.000000,4.000000,4.000000,100.000000,,,,,,,,,,,,,,,,
1645711999.751938,221.000000,0.000000,4209.487305,4213.077148,4205.256348,4223.077148,4189.871582,4213.846191,4219.487305,4215.897461,4211.794922,4211.282227,4205.641113,4154.358887,4208.205078,4188.717773,3029.000000,4.000000,82.000000,,,,0.000000,4.000000,4.000000,4.000000,4.000000,4.000000,4.000000,4.000000,4.000000,4.000000,4.000000,4.000000,4.000000,4.000000,4.000000,100.000000,,,,,,,,,,,,,,,,
1645711999.755778,222.000000,0.000000,4205.641113,4216.153809,4203.846191,4223.333496,4193.717773,4216.153809,4222.820313,4215.256348,4212.051270,4215.512695,4204.230957,4152.051270,4206.025879,4187.307617,2302.000000,4.000000,82.000000,,,,0.000000,4.000000,4.000000,4.000000,4.000000,4.000000,4.000000,4.000000,4.000000,4.000000,4.000000,4.000000,4.000000,4.000000,4.000000,100.000000,,,,,,,,,,,,,,,,
1645711999.759718,223.000000,0.000000,4202.692383,4224.102539,4205.384766,4227.307617,4204.871582,4221.538574,4226.922852,4220.384766,4215.512695,4225.128418,4206.538574,4153.077148,4210.000000,4195.897461,2680.000000,4.000000,82.000000,,,,0.000000,4.000000,4.000000,4.000000,4.000000,4.000000,4.000000,4.000000,4.000000,4.000000,4.000000,4.000000,4.000000,4.000000,4.000000,100.000000,,,,,,,,,,,,,,,,
1645711999.763658,224.000000,0.000000,4204.871582,4229.743652,4208.717773,4229.230957,4214.487305,4224.102539,4228.974121,4226.794922,4218.974121,4231.666504,4209.871582,4155.897461,4216.153809,4208.333496,3228.000000,4.000000,82.000000,,,,0.000000,4.000000,4.000000,4.000000,4.000000,4.000000,4.000000,4.000000,4.000000,4.000000,4.000000,4.000000,4.000000,4.000000,4.000000,100.000000,1.000000,50.000000,0.000000,3.000000,4.000000,4.000000,4.000000,4.000000,4.000000,4.000000,3.000000,4.000000,4.000000,4.000000,3.000000,4.000000
1645711999.767598,225.000000,0.000000,4211.922852,4229.358887,4213.077148,4225.512695,4215.641113,4221.922852,4228.333496,4229.871582,4219.358887,4229.230957,4212.948730,4158.974121,4220.384766,4217.436035,3029.000000,4.000000,82.000000,,,,0.000000,4.000000,4.000000,4.000000,4.000000,4.000000,4.000000,4.000000,4.000000,4.000000,4.000000,4.000000,4.000000,4.000000,4.000000,100.000000,,,,,,,,,,,,,,,,
1645711999.771539,226.000000,0.000000,4217.820313,4225.256348,4217.692383,4220.000000,4209.358887,4218.461426,4227.563965,4228.589844,4217.051270,4220.384766,4216.153809,4161.666504,4221.153809,4219.743652,2302.000000,4.000000,82.000000,,,,0.000000,4.000000,4.000000,4.000000,4.000000,4.000000,4.000000,4.000000,4.000000,4.000000,4.000000,4.000000,4.000000,4.000000,4.000000,100.000000,,,,,,,,,,,,,,,,
1645711999.775479,227.000000,0.000000,4216.025879,4222.307617,4221.666504,4218.589844,4202.820313,4218.461426,4228.205078,4224.615234,4214.358887,4213.077148,4219.743652,4163.846191,4219.102539,4216.025879,2680.000000,4.000000,82.000000,,,,0.000000,4.000000,4.000000,4.000000,4.000000,4.000000,4.000000,4.000000,4.000000,4.000000,4.000000,4.000000,4.000000,4.000000,4.000000,100.000000,,,,,,,,,,,,,,,,
1645711999.779419,228.000000,0.000000,4206.922852,4221.794922,4222.436035,4222.179688,4200.512695,4222.051270,4229.102539,4219.743652,4213.077148,4211.410156,4220.128418,4163.974121,4214.743652,4209.487305,3228.000000,4.000000,82.000000,,,,0.000000,4.000000,4.000000,4.000000,4.000000,4.000000,4.000000,4.000000,4.000000,4.000000,4.000000,4.000000,4.000000,4.000000,4.000000,100.000000,,,,,,,,,,,,,,,,
1645711999.783359,229.000000,0.000000,4197.692383,4221.282227,4218.589844,4226.025879,4201.794922,4224.487305,4228.846191,4215.256348,4212.692383,4213.077148,4214.102539,4161.153809,4209.230957,4204.871582,3029.000000,4.000000,82.000000,,,,0.000000,4.000000,4.000000,4.000000,4.000000,4.000000,4.000000,4.000000,4.000000,4.000000,4.000000,4.000000,4.000000,4.000000,4.000000,100.000000,,,,,,,,,,,,,,,,
1645711999.787299,230.000000,0.000000,4194.871582,4219.358887,4211.922852,4225.000000,4203.974121,4223.589844,4228.205078,4213.333496,4212.820313,4214.615234,4203.846191,4157.179688,4205.384766,4205.769043,2302.000000,4.000000,82.000000,,,,0.000000,4.000000,4.000000,4.000000,4.000000,4.000000,4.000000,4.000000,4.000000,4.000000,4.000000,4.000000,4.000000,4.000000,4.000000,100.000000,,,,,,,,,,,,,,,,
1645711999.791239,231.000000,0.000000,4199.358887,4218.461426,4207.436035,4220.128418,4206.922852,4221.794922,4228.974121,4216.282227,4214.487305,4217.179688,4198.205078,4156.794922,4206.794922,4212.051270,2680.000000,4.000000,82.000000,,,,0.000000,4.000000,4.000000,4.000000,4.000000,4.000000,4.000000,4.000000,4.000000,4.000000,4.000000,4.000000,4.000000,4.000000,4.000000,100.000000,,,,,,,,,,,,,,,,
1645711999.795179,232.000000,0.000000,4207.436035,4221.282227,4208.589844,4216.410156,4211.153809,4222.820313,4231.538574,4223.717773,4218.461426,4222.948730,4204.743652,4161.922852,4214.358887,4218.974121,3228.000000,4.000000,82.000000,,,,0.000000,4.000000,4.000000,4.000000,4.000000,4.000000,4.000000,4.000000,4.000000,4.000000,4.000000,4.000000,4.000000,4.000000,4.000000,100.000000,,,,,,,,,,,,,,,,
1645711999.799119,233.000000,0.000000,4215.897461,4226.153809,4213.333496,4217.051270,4215.256348,4226.538574,4233.717773,4231.153809,4222.692383,4230.384766,4221.025879,4169.487305,4223.717773,4221.153809,3029.000000,4.000000,82.000000,,,,0.000000,4.000000,4.000000,4.000000,4.000000,4.000000,4.000000,4.000000,4.000000,4.000000,4.000000,4.000000,4.000000,4.000000,4.000000,100.000000,,,,,,,,,,,,,,,,
1645711999.803059,234.000000,0.000000,4224.102539,4227.179688,4216.538574,4221.153809,4215.256348,4228.846191,4233.077148,4233.205078,4224.230957,4234.230957,4235.384766,4173.461426,4228.589844,4218.077148,2302.000000,4.000000,82.000000,,,,0.000000,4.000000,4.000000,4.000000,4.000000,4.000000,4.000000,4.000000,4.000000,4.000000,4.000000,4.000000,4.000000,4.000000,4.000000,100.000000,,,,,,,,,,,,,,,,
1645711999.806999,235.000000,0.000000,4231.025879,4221.794922,4215.256348,4224.871582,4210.128418,4227.436035,4230.512695,4228.589844,4221.538574,4231.282227,4238.205078,4172.436035,4226.153809,4213.974121,2680.000000,4.000000,82.000000,,,,0.000000,4.000000,4.000000,4.000000,4.000000,4.000000,4.000000,4.000000,4.000000,4.000000,4.000000,4.000000,4.000000,4.000000,4.000000,100.000000,,,,,,,,,,,,,,,,
1645711999.810940,236.000000,0.000000,4234.230957,4213.846191,4211.922852,4225.641113,4203.846191,4224.358887,4229.230957,4222.051270,4217.436035,4225.512695,4229.615234,4170.128418,4220.000000,4213.461426,3228.000000,4.000000,82.000000,,,,0.000000,4.000000,4.000000,4.000000,4.000000,4.000000,4.000000,4.000000,4.000000,4.000000,4.000000,4.000000,4.000000,4.000000,4.000000,100.000000,,,,,,,,,,,,,,,,
1645711999.814880,237.000000,0.000000,4232.179688,4210.512695,4211.538574,4223.333496,4202.051270,4224.487305,4231.538574,4219.743652,4215.512695,4223.205078,4218.974121,4172.179688,4216.153809,4217.051270,3029.000000,4.000000,82.000000,,,,0.000000,4.000000,4.000000,4.000000,4.000000,4.000000,4.000000,4.000000,4.000000,4.000000,4.000000,4.000000,4.000000,4.000000,4.000000,100.000000,,,,,,,,,,,,,,,,
1645711999.818820,238.000000,0.000000,4227.948730,4215.000000,4215.897461,4219.615234,4206.025879,4228.717773,4236.025879,4223.461426,4217.436035,4226.538574,4214.871582,4178.717773,4217.179688,4221.922852,2302.000000,4.000000,82.000000,,,,0.000000,4.000000,4.000000,4.000000,4.000000,4.000000,4.000000,4.000000,4.000000,4.000000,4.000000,4.000000,4.000000,4.000000,4.000000,100.000000,,,,,,,,,,,,,,,,
1645711999.822660,239.000000,0.000000,4227.179688,4223.974121,4221.922852,4216.922852,4210.897461,4233.461426,4239.487305,4229.358887,4220.769043,4231.410156,4218.846191,4184.358887,4220.512695,4224.487305,2680.000000,4.000000,82.000000,,,,0.000000,4.000000,4.000000,4.000000,4.000000,4.000000,4.000000,4.000000,4.000000,4.000000,4.000000,4.000000,4.000000,4.000000,4.000000,100.000000,,,,,,,,,,,,,,,,
1645711999.826600,240.000000,0.000000,4231.922852,4231.410156,4225.769043,4217.436035,4212.436035,4235.000000,4240.000000,4232.563965,4222.051270,4232.692383,4227.307617,4185.000000,4222.307617,4224.871582,3228.000000,4.000000,82.000000,,,,0.000000,4.000000,4.000000,4.000000,4.000000,4.000000,4.000000,4.000000,4.000000,4.000000,4.000000,4.000000,4.000000,4.000000,4.000000,100.000000,,,,,,,,,,,,,,,,
1645711999.830540,241.000000,0.000000,4237.948730,4234.615234,4226.538574,4223.205078,4211.794922,4233.589844,4238.717773,4231.794922,4220.384766,4230.256348,4235.512695,4181.794922,4222.051270,4224.615234,3029.000000,4.000000,82.000000,,,,0.000000,4.000000,4.000000,4.000000,4.000000,4.000000,4.000000,4.000000,4.000000,4.000000,4.000000,4.000000,4.000000,4.000000,4.000000,100.000000,,,,,,,,,,,,,,,,
1645711999.834480,242.000000,0.000000,4238.846191,4234.743652,4226.153809,4232.563965,4213.589844,4232.179688,4237.179688,4229.230957,4217.820313,4227.563965,4240.512695,4179.487305,4222.179688,4224.743652,2302.000000,4.000000,82.000000,,,,0.000000,4.000000,4.000000,4.000000,4.000000,4.000000,4.000000,4.000000,4.000000,4.000000,4.000000,4.000000,4.000000,4.000000,4.000000,100.000000,,,,,,,,,,,,,,,,
1645711999.838420,243.000000,0.000000,4233.717773,4233.717773,4225.641113,4239.487305,4218.974121,4231.025879,4235.512695,4227.051270,4216.153809,4227.051270,4240.128418,4180.000000,4223.461426,4224.102539,2680.000000,4.000000,82.000000,,,,0.000000,4.000000,4.000000,4.000000,4.000000,4.000000,4.000000,4.000000,4.000000,4.000000,4.000000,4.000000,4.000000,4.000000,4.000000,100.000000,,,,,,,,,,,,,,,,
1645711999.842361,244.000000,0.000000,4227.051270,4231.025879,4224.871582,4237.563965,4222.436035,4227.820313,4232.948730,4225.128418,4215.512695,4226.410156,4232.948730,4180.384766,4223.846191,4221.025879,3228.000000,4.000000,82.000000,,,,0.000000,4.000000,4.000000,4.000000,4.000000,4.000000,4.000000,4.000000,4.000000,4.000000,4.000000,4.000000,4.000000,4.000000,4.000000,100.000000,,,,,,,,,,,,,,,,
1645711999.846301,245.000000,0.000000,4223.205078,4226.025879,4223.205078,4227.179688,4217.563965,4221.666504,4229.230957,4222.948730,4215.256348,4223.717773,4221.025879,4177.179688,4221.025879,4214.743652,3029.000000,4.000000,82.000000,,,,0.000000,4.000000,4.000000,4.000000,4.000000,4.000000,4.000000,4.000000,4.000000,4.000000,4.000000,4.000000,4.000000,4.000000,4.000000,100.000000,,,,,,,,,,,,,,,,
1645711999.850241,246.000000,0.000000,4222.179688,4220.128418,4221.538574,4216.410156,4206.025879,4215.641113,4226.538574,4221.794922,4215.641113,4221.025879,4211.282227,4171.794922,4216.538574,4207.563965,2302.000000,4.000000,82.000000,,,,0.000000,4.000000,4.000000,4.000000,4.000000,4.000000,4.000000,4.000000,4.000000,4.000000,4.000000,4.000000,4.000000,4.000000,4.000000,100.000000,,,,,,,,,,,,,,,,
1645711999.854181,247.000000,0.000000,4220.384766,4216.794922,4221.282227,4213.974121,4196.410156,4214.102539,4226.538574,4223.461426,4217.820313,4222.436035,4210.256348,4168.461426,4214.487305,4202.948730,2680.000000,4.000000,82.000000,,,,0.000000,4.000000,4.000000,4.000000,4.000000,4.000000,4.000000,4.000000,4.000000,4.000000,4.000000,4.000000,4.000000,4.000000,4.000000,100.000000,,,,,,,,,,,,,,,,
1645711999.858121,248.000000,0.000000,4217.436035,4217.051270,4222.179688,4220.769043,4194.743652,4217.692383,4228.717773,4227.307617,4221.025879,4228.461426,4218.077148,4169.102539,4217.563965,4203.205078,3228.000000,4.000000,82.000000,,,,0.000000,4.000000,4.000000,4.000000,4.000000,4.000000,4.000000,4.000000,4.000000,4.000000,4.000000,4.000000,4.000000,4.000000,4.000000,100.000000,,,,,,,,,,,,,,,,
1645711999.862061,249.000000,0.000000,4216.025879,4218.589844,4222.179688,4229.230957,4198.974121,4222.436035,4230.256348,4230.000000,4223.077148,4233.846191,4227.179688,4170.769043,4223.717773,4208.205078,3029.000000,4.000000,82.000000,,,,0.000000,4.000000,4.000000,4.000000,4.000000,4.000000,4.000000,4.000000,4.000000,4.000000,4.000000,4.000000,4.000000,4.000000,4.000000,100.000000,,,,,,,,,,,,,,,,
1645711999.866001,250.000000,0.000000,4218.077148,4218.974121,4219.230957,4231.153809,4202.563965,4224.102539,4229.615234,4228.589844,4221.922852,4233.205078,4229.743652,4169.487305,4228.974121,4215.256348,2302.000000,4.000000,82.000000,,,,0.000000,4.000000,4.000000,4.000000,4.000000,4.000000,4.000000,4.000000,4.000000,4.000000,4.000000,4.000000,4.000000,4.000000,4.000000,100.000000,,,,,,,,,,,,,,,,
1645711999.869941,251.000000,0.000000,4220.897461,4219.487305,4214.615234,4226.153809,4203.717773,4223.077148,4228.077148,4224.487305,4218.589844,4227.692383,4225.897461,4165.384766,4231.025879,4221.538574,2680.000000,4.000000,82.000000,,,,0.000000,4.000000,4.000000,4.000000,4.000000,4.000000,4.000000,4.000000,4.000000,4.000000,4.000000,4.000000,4.000000,4.000000,4.000000,100.000000,,,,,,,,,,,,,,,,
1645711999.873881,252.000000,0.000000,4220.000000,4222.948730,4211.666504,4220.897461,4205.641113,4223.333496,4228.333496,4222.307617,4216.666504,4223.589844,4222.436035,4162.436035,4231.666504,4225.384766,3228.000000,4.000000,82.000000,,,,0.000000,4.000000,4.000000,4.000000,4.000000,4.000000,4.000000,4.000000,4.000000,4.000000,4.000000,4.000000,4.000000,4.000000,4.000000,100.000000,,,,,,,,,,,,,,,,
1645711999.877821,253.000000,0.000000,4215.256348,4229.743652,4212.307617,4221.153809,4210.512695,4226.538574,4230.512695,4224.615234,4218.205078,4225.897461,4224.487305,4163.333496,4232.307617,4226.282227,3029.000000,4.000000,82.000000,,,,0.000000,4.000000,4.000000,4.000000,4.000000,4.000000,4.000000,4.000000,4.000000,4.000000,4.000000,4.000000,4.000000,4.000000,4.000000,100.000000,,,,,,,,,,,,,,,,
1645711999.881762,254.000000,0.000000,4211.794922,4235.641113,4215.256348,4226.410156,4215.256348,4229.358887,4232.179688,4229.102539,4221.282227,4232.436035,4229.871582,4167.179688,4232.820313,4225.000000,2302.000000,4.000000,82.000000,,,,0.000000,4.000000,4.000000,4.000000,4.000000,4.000000,4.000000,4.000000,4.000000,4.000000,4.000000,4.000000,4.000000,4.000000,4.000000,100.000000,,,,,,,,,,,,,,,,
1645711999.885702,255.000000,0.000000,4213.461426,4236.153809,4217.563965,4230.897461,4214.743652,4228.333496,4231.153809,4231.153809,4222.692383,4236.538574,4232.692383,4170.384766,4231.282227,4222.436035,112.000000,4.000000,82.000000,,,,0.000000,4.000000,4.000000,4.000000,4.000000,4.000000,4.000000,4.000000,4.000000,4.000000,4.000000,4.000000,4.000000,4.000000,4.000000,100.000000,,,,,,,,,,,,,,,,
1645711999.889642,0.000000,0.000000,4217.948730,4231.282227,4217.820313,4230.769043,4209.102539,4224.102539,4227.820313,4228.461426,4221.282227,4234.230957,4230.641113,4170.897461,4228.461426,4220.897461,3322.000000,4.000000,82.000000,,,,0.000000,4.000000,4.000000,4.000000,4.000000,4.000000,4.000000,4.000000,4.000000,4.000000,4.000000,4.000000,4.000000,4.000000,4.000000,100.000000,,,,,,,,,,,,,,,,
1645711999.893682,1.000000,0.000000,4220.000000,4226.282227,4217.563965,4227.563965,4204.743652,4220.641113,4224.871582,4223.717773,4219.358887,4228.589844,4227.051270,4170.000000,4227.179688,4221.538574,3321.000000,4.000000,82.000000,,,,0.000000,4.000000,4.000000,4.000000,4.000000,4.000000,4.000000,4.000000,4.000000,4.000000,4.000000,4.000000,4.000000,4.000000,4.000000,100.000000,,,,,,,,,,,,,,,,
1645711999.897622,2.000000,0.000000,4217.948730,4225.384766,4218.077148,4225.512695,4207.307617,4220.512695,4223.974121,4220.769043,4219.102539,4225.384766,4226.666504,4170.128418,4229.358887,4223.846191,2475.000000,4.000000,82.000000,,,,0.000000,4.000000,4.000000,4.000000,4.000000,4.000000,4.000000,4.000000,4.000000,4.000000,4.000000,4.000000,4.000000,4.000000,4.000000,100.000000,,,,,,,,,,,,,,,,
1645711999.901562,3.000000,0.000000,4215.512695,4228.461426,4220.000000,4226.410156,4215.128418,4222.179688,4224.615234,4220.897461,4220.512695,4227.179688,4229.743652,4171.666504,4233.205078,4225.384766,3340.000000,4.000000,82.000000,,,,0.000000,4.000000,4.000000,4.000000,4.000000,4.000000,4.000000,4.000000,4.000000,4.000000,4.000000,4.000000,4.000000,4.000000,4.000000,100.000000,,,,,,,,,,,,,,,,
1645711999.905502,4.000000,0.000000,4215.897461,4231.410156,4222.179688,4229.871582,4221.666504,4222.948730,4225.641113,4222.563965,4221.794922,4231.410156,4233.589844,4173.974121,4235.384766,4224.358887,3723.000000,4.000000,82.000000,,,,0.000000,4.000000,4.000000,4.000000,4.000000,4.000000,4.000000,4.000000,4.000000,4.000000,4.000000,4.000000,4.000000,4.000000,4.000000,100.000000,,,,,,,,,,,,,,,,
1645711999.909442,5.000000,0.000000,4217.948730,4231.410156,4224.102539,4235.128418,4223.333496,4222.948730,4226.794922,4223.589844,4221.666504,4234.743652,4236.153809,4176.666504,4234.358887,4221.538574,3325.000000,4.000000,82.000000,,,,0.000000,4.000000,4.000000,4.000000,4.000000,4.000000,4.000000,4.000000,4.000000,4.000000,4.000000,4.000000,4.000000,4.000000,4.000000,100.000000,,,,,,,,,,,,,,,,
1645711999.913382,6.000000,0.000000,4217.436035,4229.487305,4225.641113,4241.538574,4221.538574,4224.487305,4228.461426,4223.589844,4220.384766,4236.025879,4238.461426,4180.128418,4232.436035,4219.230957,3417.000000,4.000000,82.000000,,,,0.000000,4.000000,4.000000,4.000000,4.000000,4.000000,4.000000,4.000000,4.000000,4.000000,4.000000,4.000000,4.000000,4.000000,4.000000,100.000000,,,,,,,,,,,,,,,,
1645711999.917322,7.000000,0.000000,4214.358887,4227.820313,4226.025879,4246.025879,4218.974121,4227.692383,4230.384766,4222.820313,4218.974121,4235.128418,4240.512695,4183.077148,4231.666504,4218.717773,2684.000000,4.000000,82.000000,,,,0.000000,4.000000,4.000000,4.000000,4.000000,4.000000,4.000000,4.000000,4.000000,4.000000,4.000000,4.000000,4.000000,4.000000,4.000000,100.000000,,,,,,,,,,,,,,,,
1645711999.921263,8.000000,0.000000,4213.846191,4227.436035,4225.384766,4243.077148,4215.256348,4229.615234,4231.153809,4221.410156,4217.563965,4231.666504,4239.230957,4182.307617,4231.538574,4218.974121,1704.000000,4.000000,82.000000,,,,0.000000,4.000000,4.000000,4.000000,4.000000,4.000000,4.000000,4.000000,4.000000,4.000000,4.000000,4.000000,4.000000,4.000000,4.000000,100.000000,,,,,,,,,,,,,,,,
1645711999.925203,9.000000,0.000000,4220.000000,4228.333496,4224.102539,4231.282227,4209.230957,4227.563965,4230.256348,4219.487305,4215.769043,4225.897461,4232.307617,4176.922852,4230.000000,4219.358887,3078.000000,4.000000,82.000000,,,,0.000000,4.000000,4.000000,4.000000,4.000000,4.000000,4.000000,4.000000,4.000000,4.000000,4.000000,4.000000,4.000000,4.000000,4.000000,100.000000,,,,,,,,,,,,,,,,
1645711999.929143,10.000000,0.000000,4229.102539,4230.128418,4224.230957,4217.179688,4203.333496,4223.974121,4229.487305,4218.333496,4214.615234,4221.666504,4223.077148,4169.871582,4227.179688,4220.897461,2311.000000,4.000000,82.000000,,,,0.000000,4.000000,4.000000,4.000000,4.000000,4.000000,4.000000,4.000000,4.000000,4.000000,4.000000,4.000000,4.000000,4.000000,4.000000,100.000000,,,,,,,,,,,,,,,,
1645711999.933083,11.000000,0.000000,4232.948730,4232.179688,4226.666504,4211.153809,4203.333496,4223.589844,4230.384766,4219.487305,4215.512695,4223.589844,4218.974121,4166.538574,4226.025879,4225.128418,2687.000000,4.000000,82.000000,,,,0.000000,4.000000,4.000000,4.000000,4.000000,4.000000,4.000000,4.000000,4.000000,4.000000,4.000000,4.000000,4.000000,4.000000,4.000000,100.000000,,,,,,,,,,,,,,,,
1645711999.937023,12.000000,0.000000,4227.948730,4232.563965,4229.743652,4218.077148,4211.282227,4227.436035,4232.436035,4222.692383,4218.461426,4230.897461,4223.589844,4169.230957,4228.461426,4230.256348,3433.000000,4.000000,82.000000,1,1,0,0.000000,4.000000,4.000000,4.000000,4.000000,4.000000,4.000000,4.000000,4.000000,4.000000,4.000000,4.000000,4.000000,4.000000,4.000000,100.000000,,,,,,,,,,,,,,,,
1645711999.940963,13.000000,0.000000,4218.974121,4228.205078,4229.358887,4233.077148,4221.922852,4231.153809,4232.436035,4224.743652,4220.769043,4236.666504,4231.922852,4173.589844,4232.563965,4232.179688,3200.000000,4.000000,82.000000,,,,0.000000,4.000000,4.000000,4.000000,4.000000,4.000000,4.000000,4.000000,4.000000,4.000000,4.000000,4.000000,4.000000,4.000000,4.000000,100.000000,,,,,,,,,,,,,,,,
1645711999.944903,14.000000,0.000000,4214.358887,4220.128418,4223.974121,4245.384766,4227.948730,4229.743652,4228.974121,4223.077148,4220.384766,4233.974121,4236.282227,4174.102539,4233.974121,4227.820313,2311.000000,4.000000,82.000000,,,,0.000000,4.000000,4.000000,4.000000,4.000000,4.000000,4.000000,4.000000,4.000000,4.000000,4.000000,4.000000,4.000000,4.000000,4.000000,100.000000,,,,,,,,,,,,,,,,
1645711999.948843,15.000000,0.000000,4216.538574,4213.846191,4216.922852,4249.102539,4227.307617,4224.102539,4224.871582,4219.487305,4217.692383,4225.000000,4234.358887,4169.743652,4231.666504,4220.256348,2687.000000,4.000000,82.000000,,,,0.000000,4.000000,4.000000,4.000000,4.000000,4.000000,4.000000,4.000000,4.000000,4.000000,4.000000,4.000000,4.000000,4.000000,4.000000,100.000000,,,,,,,,,,,,,,,,
1645711999.952783,16.000000,0.000000,4220.641113,4216.025879,4214.358887,4245.641113,4224.487305,4220.512695,4224.102539,4218.846191,4216.410156,4218.974121,4230.769043,4165.769043,4228.333496,4215.256348,3433.000000,4.000000,82.000000,,,,0.000000,4.000000,4.000000,4.000000,4.000000,4.000000,4.000000,4.000000,4.000000,4.000000,4.000000,4.000000,4.000000,4.000000,4.000000,100.000000,,,,,,,,,,,,,,,,
1645711999.956724,17.000000,0.000000,4221.410156,4226.666504,4219.102539,4239.615234,4223.205078,4222.820313,4227.436035,4223.077148,4218.589844,4222.563965,4230.641113,4166.922852,4227.692383,4216.153809,3200.000000,4.000000,82.000000,,,,0.000000,4.000000,4.000000,4.000000,4.000000,4.000000,4.000000,4.000000,4.000000,4.000000,4.000000,4.000000,4.000000,4.000000,4.000000,100.000000,,,,,,,,,,,,,,,,
1645711999.960664,18.000000,0.000000,4218.974121,4237.820313,4227.563965,4232.307617,4221.666504,4228.077148,4231.538574,4229.358887,4223.205078,4232.436035,4233.333496,4172.307617,4230.256348,4220.512695,2311.000000,4.000000,82.000000,,,,0.000000,4.000000,4.000000,4.000000,4.000000,4.000000,4.000000,4.000000,4.000000,4.000000,4.000000,4.000000,4.000000,4.000000,4.000000,100.000000,,,,,,,,,,,,,,,,
1645711999.964604,19.000000,0.000000,4217.436035,4241.538574,4233.589844,4224.230957,4217.051270,4230.256348,4232.563965,4232.436035,4226.794922,4239.615234,4235.128418,4176.794922,4233.589844,4223.974121,2687.000000,4.000000,82.000000,,,,0.000000,4.000000,4.000000,4.000000,4.000000,4.000000,4.000000,4.000000,4.000000,4.000000,4.000000,4.000000,4.000000,4.000000,4.000000,100.000000,,,,,,,,,,,,,,,,
1645711999.968444,20.000000,0.000000,4218.589844,4238.461426,4234.358887,4218.333496,4211.794922,4227.820313,4230.512695,4230.641113,4227.820313,4239.871582,4235.128418,4177.563965,4235.897461,4224.615234,3433.000000,4.000000,82.000000,,,,0.000000,4.000000,4.000000,4.000000,4.000000,4.000000,4.000000,4.000000,4.000000,4.000000,4.000000,4.000000,4.000000,4.000000,4.000000,100.000000,,,,,,,,,,,,,,,,
1645711999.972384,21.000000,0.000000,4220.256348,4236.282227,4232.692383,4220.641113,4212.179688,4225.128418,4228.717773,4227.563965,4227.563965,4236.794922,4236.025879,4176.922852,4237.436035,4224.102539,3200.000000,4.000000,82.000000,,,,0.000000,4.000000,4.000000,4.000000,4.000000,4.000000,4.000000,4.000000,4.000000,4.000000,4.000000,4.000000,4.000000,4.000000,4.000000,100.000000,,,,,,,,,,,,,,,,
1645711999.976324,22.000000,0.000000,4219.871582,4240.384766,4231.922852,4232.307617,4220.384766,4226.410156,4229.230957,4226.538574,4227.563965,4235.384766,4239.230957,4178.077148,4238.333496,4224.358887,2311.000000,4.000000,82.000000,,,,0.000000,4.000000,4.000000,4.000000,4.000000,4.000000,4.000000,4.000000,4.000000,4.000000,4.000000,4.000000,4.000000,4.000000,4.000000,100.000000,,,,,,,,,,,,,,,,
1645711999.980264,23.000000,0.000000,4218.077148,4246.666504,4232.948730,4245.769043,4229.871582,4230.128418,4230.897461,4227.307617,4227.307617,4235.384766,4241.794922,4180.256348,4237.307617,4225.897461,2687.000000,4.000000,82.000000,,,,0.000000,4.000000,4.000000,4.000000,4.000000,4.000000,4.000000,4.000000,4.000000,4.000000,4.000000,4.000000,4.000000,4.000000,4.000000,100.000000,,,,,,,,,,,,,,,,
1645711999.984204,24.000000,0.000000,4217.948730,4247.051270,4233.589844,4251.025879,4231.922852,4231.666504,4231.153809,4226.922852,4224.743652,4232.051270,4239.358887,4180.384766,4233.333496,4227.692383,3433.000000,4.000000,82.000000,,,,0.000000,4.000000,4.000000,4.000000,4.000000,4.000000,4.000000,4.000000,4.000000,4.000000,4.000000,4.000000,4.000000,4.000000,4.000000,100.000000,,,,,,,,,,,,,,,,
1645711999.988144,25.000000,0.000000,4219.871582,4239.358887,4232.307617,4245.128418,4225.512695,4228.974121,4229.743652,4224.358887,4219.743652,4224.743652,4233.461426,4177.307617,4228.589844,4228.974121,3200.000000,4.000000,82.000000,,,,0.000000,4.000000,4.000000,4.000000,4.000000,4.000000,4.000000,4.000000,4.000000,4.000000,4.000000,4.000000,4.000000,4.000000,4.000000,100.000000,,,,,,,,,,,,,,,,
1645711999.992085,26.000000,0.000000,4221.153809,4230.769043,4230.384766,4235.897461,4218.205078,4225.641113,4229.102539,4222.179688,4215.256348,4219.358887,4230.000000,4174.615234,4227.179688,4229.615234,2311.000000,4.000000,82.000000,,,,0.000000,4.000000,4.000000,4.000000,4.000000,4.000000,4.000000,4.000000,4.000000,4.000000,4.000000,4.000000,4.000000,4.000000,4.000000,100.000000,,,,,,,,,,,,,,,,
1645711999.996025,27.000000,0.000000,4219.615234,4229.871582,4229.615234,4232.563965,4217.436035,4225.641113,4230.512695,4223.333496,4214.358887,4222.179688,4232.948730,4175.128418,4230.384766,4229.743652,2687.000000,4.000000,82.000000,,,,0.000000,4.000000,4.000000,4.000000,4.000000,4.000000,4.000000,4.000000,4.000000,4.000000,4.000000,4.000000,4.000000,4.000000,4.000000,100.000000,,,,,,,,,,,,,,,,
1645711999.999965,28.000000,0.000000,4216.794922,4237.563965,4230.512695,4236.153809,4222.179688,4228.461426,4232.436035,4226.538574,4216.794922,4230.769043,4238.077148,4177.307617,4234.358887,4229.230957,3433.000000,4.000000,82.000000,,,,0.000000,4.000000,4.000000,4.000000,4.000000,4.000000,4.000000,4.000000,4.000000,4.000000,4.000000,4.000000,4.000000,4.000000,4.000000,100.000000,,,,,,,,,,,,,,,,
1645712000.003905,29.000000,0.000000,4215.897461,4245.641113,4232.436035,4240.000000,4225.897461,4229.487305,4232.436035,4227.820313,4218.974121,4235.769043,4237.307617,4176.153809,4233.974121,4228.846191,3200.000000,4.000000,82.000000,,,,0.000000,4.000000,4.000000,4.000000,4.000000,4.000000,4.000000,4.000000,4.000000,4.000000,4.000000,4.000000,4.000000,4.000000,4.000000,100.000000,,,,,,,,,,,,,,,,
1645712000.007845,30.000000,0.000000,4217.307617,4246.410156,4234.230957,4238.333496,4224.615234,4226.794922,4230.512695,4225.128418,4217.692383,4230.641113,4227.948730,4170.128418,4227.948730,4229.358887,2311.000000,4.000000,82.000000,,,,0.000000,4.000000,4.000000,4.000000,4.000000,4.000000,4.000000,4.000000,4.000000,4.000000,4.000000,4.000000,4.000000,4.000000,4.000000,100.000000,,,,,,,,,,,,,,,,
1645712000.011785,31.000000,0.000000,4217.307617,4239.487305,4235.384766,4232.563965,4221.794922,4223.461426,4228.846191,4220.897461,4214.230957,4218.974121,4216.410156,4163.205078,4220.641113,4229.230957,2687.000000,4.000000,82.000000,,,,0.000000,4.000000,4.000000,4.000000,4.000000,4.000000,4.000000,4.000000,4.000000,4.000000,4.000000,4.000000,4.000000,4.000000,4.000000,100.000000,,,,,,,,,,,,,,,,
1645712000.015725,32.000000,0.000000,4213.717773,4231.922852,4235.256348,4227.820313,4222.436035,4223.333496,4229.102539,4218.974121,4211.794922,4210.128418,4212.179688,4161.025879,4217.563965,4225.384766,0.000000,4.000000,82.000000,,,,0.000000,4.000000,4.000000,4.000000,4.000000,4.000000,4.000000,4.000000,4.000000,4.000000,4.000000,4.000000,4.000000,4.000000,4.000000,100.000000,,,,,,,,,,,,,,,,
1645712000.019665,33.000000,0.000000,4208.333496,4229.871582,4232.820313,4227.692383,4226.025879,4226.025879,4230.256348,4220.641113,4212.307617,4209.615234,4216.922852,4164.487305,4219.743652,4216.282227,0.000000,4.000000,82.000000,,,,0.000000,4.000000,4.000000,4.000000,4.000000,4.000000,4.000000,4.000000,4.000000,4.000000,4.000000,4.000000,4.000000,4.000000,4.000000,100.000000,,,,,,,,,,,,,,,,
1645712000.023605,34.000000,0.000000,4205.128418,4233.205078,4227.820313,4231.153809,4227.563965,4227.948730,4230.897461,4223.589844,4213.974121,4214.615234,4224.358887,4168.974121,4223.461426,4205.384766,0.000000,4.000000,82.000000,,,,0.000000,4.000000,4.000000,4.000000,4.000000,4.000000,4.000000,4.000000,4.000000,4.000000,4.000000,4.000000,4.000000,4.000000,4.000000,100.000000,,,,,,,,,,,,,,,,
1645712000.027546,35.000000,0.000000,4204.358887,4237.563965,4222.307617,4235.641113,4223.333496,4227.436035,4231.666504,4225.128418,4214.615234,4219.230957,4226.922852,4169.743652,4224.871582,4200.128418,0.000000,4.000000,82.000000,,,,0.000000,4.000000,4.000000,4.000000,4.000000,4.000000,4.000000,4.000000,4.000000,4.000000,4.000000,4.000000,4.000000,4.000000,4.000000,100.000000,,,,,,,,,,,,,,,,
1645712000.031486,36.000000,0.000000,4202.179688,4238.461426,4218.974121,4239.102539,4215.897461,4226.538574,4233.589844,4224.871582,4213.974121,4220.641113,4223.717773,4165.641113,4224.102539,4204.743652,0.000000,4.000000,82.000000,,,,0.000000,4.000000,4.000000,4.000000,4.000000,4.000000,4.000000,4.000000,4.000000,4.000000,4.000000,4.000000,4.000000,4.000000,4.000000,100.000000,,,,,,,,,,,,,,,,
1645712000.035426,37.000000,0.000000,4196.538574,4234.487305,4218.974121,4239.615234,4210.256348,4227.692383,4235.769043,4223.846191,4213.589844,4219.871582,4218.333496,4159.230957,4222.820313,4215.256348,0.000000,4.000000,82.000000,,,,0.000000,4.000000,4.000000,4.000000,4.000000,4.000000,4.000000,4.000000,4.000000,4.000000,4.000000,4.000000,4.000000,4.000000,4.000000,100.000000,,,,,,,,,,,,,,,,
1645712000.039266,38.000000,0.000000,4191.794922,4226.666504,4219.743652,4236.025879,4208.077148,4228.974121,4235.384766,4221.538574,4213.974121,4217.051270,4213.974121,4153.077148,4222.179688,4222.051270,0.000000,4.000000,82.000000,,,,0.000000,4.000000,4.000000,4.000000,4.000000,4.000000,4.000000,4.000000,4.000000,4.000000,4.000000,4.000000,4.000000,4.000000,4.000000,100.000000,,,,,,,,,,,,,,,,
1645712000.043206,39.000000,0.000000,4194.230957,4217.820313,4217.948730,4229.358887,4207.563965,4226.922852,4230.897461,4217.051270,4213.717773,4210.897461,4210.256348,4148.461426,4220.769043,4218.974121,0.000000,4.000000,82.000000,,,,0.000000,4.000000,4.000000,4.000000,4.000000,4.000000,4.000000,4.000000,4.000000,4.000000,4.000000,4.000000,4.000000,4.000000,4.000000,100.000000,,,,,,,,,,,,,,,,
1645712000.047146,40.000000,0.000000,4205.384766,4212.820313,4213.589844,4224.230957,4207.563965,4221.538574,4224.871582,4211.666504,4211.922852,4203.077148,4207.436035,4146.922852,4218.974121,4209.102539,0.000000,4.000000,82.000000,,,,0.000000,4.000000,4.000000,4.000000,4.000000,4.000000,4.000000,4.000000,4.000000,4.000000,4.000000,4.000000,4.000000,4.000000,4.000000,100.000000,,,,,,,,,,,,,,,,
1645712000.051086,41.000000,0.000000,4219.871582,4216.282227,4210.641113,4224.487305,4210.512695,4217.179688,4221.794922,4208.846191,4210.000000,4199.230957,4208.846191,4149.487305,4219.230957,4201.538574,0.000000,4.000000,82.000000,,,,0.000000,4.000000,4.000000,4.000000,4.000000,4.000000,4.000000,4.000000,4.000000,4.000000,4.000000,4.000000,4.000000,4.000000,4.000000,100.000000,,,,,,,,,,,,,,,,
1645712000.055026,42.000000,0.000000,4229.743652,4227.563965,4212.820313,4229.743652,4217.948730,4217.820313,4223.461426,4211.538574,4210.256348,4204.102539,4217.051270,4155.641113,4223.846191,4202.692383,0.000000,4.000000,82.000000,,,,0.000000,4.000000,4.000000,4.000000,4.000000,4.000000,4.000000,4.000000,4.000000,4.000000,4.000000,4.000000,4.000000,4.000000,4.000000,100.000000,,,,,,,,,,,,,,,,
1645712000.058966,43.000000,0.000000,4232.948730,4239.487305,4219.358887,4234.743652,4226.538574,4222.051270,4226.410156,4218.333496,4212.692383,4215.128418,4228.717773,4161.794922,4231.410156,4211.153809,0.000000,4.000000,82.000000,,,,0.000000,4.000000,4.000000,4.000000,4.000000,4.000000,4.000000,4.000000,4.000000,4.000000,4.000000,4.000000,4.000000,4.000000,4.000000,100.000000,,,,,,,,,,,,,,,,
1645712000.062807,44.000000,0.000000,4232.563965,4243.589844,4225.128418,4234.871582,4230.384766,4224.358887,4226.153809,4223.974121,4215.128418,4224.230957,4236.282227,4164.230957,4236.922852,4219.358887,0.000000,4.000000,82.000000,2,1,0,0.000000,4.000000,4.000000,4.000000,4.000000,4.000000,4.000000,4.000000,4.000000,4.000000,4.000000,4.000000,4.000000,4.000000,4.000000,100.000000,,,,,,,,,,,,,,,,
1645712000.066747,45.000000,0.000000,4232.820313,4238.461426,4225.769043,4231.666504,4227.820313,4221.922852,4222.179688,4224.487305,4215.641113,4226.025879,4234.871582,4162.563965,4237.307617,4221.410156,0.000000,4.000000,82.000000,,,,0.000000,4.000000,4.000000,4.000000,4.000000,4.000000,4.000000,4.000000,4.000000,4.000000,4.000000,4.000000,4.000000,4.000000,4.000000,100.000000,,,,,,,,,,,,,,,,
1645712000.070687,46.000000,0.000000,4232.820313,4230.512695,4221.666504,4230.512695,4223.717773,4217.948730,4218.077148,4221.538574,4214.743652,4222.820313,4227.820313,4160.384766,4234.743652,4216.794922,0.000000,4.000000,82.000000,,,,0.000000,4.000000,4.000000,4.000000,4.000000,4.000000,4.000000,4.000000,4.000000,4.000000,4.000000,4.000000,4.000000,4.000000,4.000000,100.000000,,,,,,,,,,,,,,,,
1645712000.074627,47.000000,0.000000,4230.128418,4227.307617,4216.410156,4233.974121,4224.102539,4217.051270,4217.692383,4219.487305,4214.358887,4220.512695,4221.794922,4160.897461,4233.077148,4208.717773,0.000000,4.000000,82.000000,,,,0.000000,4.000000,4.000000,4.000000,4.000000,4.000000,4.000000,4.000000,4.000000,4.000000,4.000000,4.000000,4.000000,4.000000,4.000000,100.000000,,,,,,,,,,,,,,,,
1645712000.078567,48.000000,0.000000,4224.871582,4229.230957,4212.436035,4237.179688,4228.077148,4219.615234,4220.641113,4220.384766,4214.743652,4220.512695,4219.487305,4163.077148,4233.333496,4201.282227,0.000000,4.000000,82.000000,,,,0.000000,4.000000,4.000000,4.000000,4.000000,4.000000,4.000000,4.000000,4.000000,4.000000,4.000000,4.000000,4.000000,4.000000,4.000000,100.000000,,,,,,,,,,,,,,,,
1645712000.082507,49.000000,0.000000,4220.512695,4230.512695,4209.871582,4233.333496,4228.846191,4221.153809,4223.205078,4222.179688,4214.102539,4219.358887,4218.077148,4163.461426,4232.179688,4197.563965,0.000000,4.000000,82.000000,,,,0.000000,4.000000,4.000000,4.000000,4.000000,4.000000,4.000000,4.000000,4.000000,4.000000,4.000000,4.000000,4.000000,4.000000,4.000000,100.000000,,,,,,,,,,,,,,,,
1645712000.086447,50.000000,0.000000,4219.615234,4227.179688,4208.461426,4222.307617,4222.179688,4218.717773,4223.461426,4222.051270,4211.410156,4214.487305,4215.128418,4160.512695,4227.563965,4199.743652,0.000000,4.000000,82.000000,,,,0.000000,4.000000,4.000000,4.000000,4.000000,4.000000,4.000000,4.000000,4.000000,4.000000,4.000000,4.000000,4.000000,4.000000,4.000000,100.000000,,,,,,,,,,,,,,,,
1645712000.090387,51.000000,0.000000,4220.641113,4222.563965,4209.230957,4212.563965,4212.563965,4214.743652,4222.307617,4220.641113,4208.589844,4209.102539,4213.461426,4156.922852,4221.794922,4208.846191,0.000000,4.000000,82.000000,,,,0.000000,4.000000,4.000000,4.000000,4.000000,4.000000,4.000000,4.000000,4.000000,4.000000,4.000000,4.000000,4.000000,4.000000,4.000000,100.000000,,,,,,,,,,,,,,,,
1645712000.094327,52.000000,0.000000,4220.769043,4223.077148,4213.461426,4213.589844,4208.974121,4213.974121,4221.922852,4220.384766,4208.589844,4208.846191,4216.794922,4156.666504,4220.384766,4221.410156,0.000000,4.000000,82.000000,,,,0.000000,4.000000,4.000000,4.000000,4.000000,4.000000,4.000000,4.000000,4.000000,4.000000,4.000000,4.000000,4.000000,4.000000,4.000000,100.000000,,,,,,,,,,,,,,,,
1645712000.098268,53.000000,0.000000,4219.871582,4229.487305,4219.358887,4225.641113,4214.871582,4217.436035,4222.820313,4222.307617,4211.025879,4214.230957,4223.717773,4160.128418,4225.000000,4230.641113,0.000000,4.000000,82.000000,,,,0.000000,4.000000,4.000000,4.000000,4.000000,4.000000,4.000000,4.000000,4.000000,4.000000,4.000000,4.000000,4.000000,4.000000,4.000000,100.000000,,,,,,,,,,,,,,,,
1645712000.102208,54.000000,0.000000,4221.025879,4235.641113,4223.077148,4238.589844,4224.487305,4220.897461,4223.974121,4223.846191,4213.205078,4219.615234,4227.692383,4163.846191,4232.179688,4230.384766,0.000000,4.000000,82.000000,,,,0.000000,4.000000,4.000000,4.000000,4.000000,4.000000,4.000000,4.000000,4.000000,4.000000,4.000000,4.000000,4.000000,4.000000,4.000000,100.000000,,,,,,,,,,,,,,,,
1645712000.106148,55.000000,0.000000,4224.871582,4234.871582,4221.666504,4240.512695,4229.102539,4220.641113,4224.487305,4222.820313,4213.205078,4220.128418,4224.615234,4165.000000,4236.922852,4221.025879,0.000000,4.000000,82.000000,,,,0.000000,4.000000,4.000000,4.000000,4.000000,4.000000,4.000000,4.000000,4.000000,4.000000,4.000000,4.000000,4.000000,4.000000,4.000000,100.000000,,,,,,,,,,,,,,,,
1645712000.110088,56.000000,0.000000,4227.948730,4227.692383,4217.307617,4229.487305,4226.922852,4218.077148,4225.512695,4220.641113,4212.307617,4217.948730,4218.461426,4164.615234,4237.820313,4210.000000,0.000000,4.000000,82.000000,,,,0.000000,4.000000,4.000000,4.000000,4.000000,4.000000,4.000000,4.000000,4.000000,4.000000,4.000000,4.000000,4.000000,4.000000,4.000000,100.000000,,,,,,,,,,,,,,,,
1645712000.114028,57.000000,0.000000,4225.897461,4220.769043,4214.102539,4214.615234,4223.205078,4218.077148,4228.205078,4220.641113,4213.333496,4219.102539,4217.820313,4166.025879,4237.692383,4204.743652,0.000000,4.000000,82.000000,,,,0.000000,4.000000,4.000000,4.000000,4.000000,4.000000,4.000000,4.000000,4.000000,4.000000,4.000000,4.000000,4.000000,4.000000,4.000000,100.000000,,,,,,,,,,,,,,,,
1645712000.117968,58.000000,0.000000,4219.230957,4218.846191,4214.102539,4207.051270,4222.948730,4222.179688,4231.666504,4223.205078,4216.794922,4225.256348,4224.871582,4170.128418,4238.205078,4207.179688,0.000000,4.000000,82.000000,,,,0.000000,4.000000,4.000000,4.000000,4.000000,4.000000,4.000000,4.000000,4.000000,4.000000,4.000000,4.000000,4.000000,4.000000,4.000000,100.000000,,,,,,,,,,,,,,,,
1645712000.122008,59.000000,0.000000,4213.205078,4221.153809,4215.000000,4210.256348,4225.128418,4226.153809,4232.948730,4224.871582,4219.487305,4231.410156,4232.692383,4173.205078,4238.205078,4212.436035,0.000000,4.000000,82.000000,,,,0.000000,4.000000,4.000000,4.000000,4.000000,4.000000,4.000000,4.000000,4.000000,4.000000,4.000000,4.000000,4.000000,4.000000,4.000000,100.000000,,,,,,,,,,,,,,,,
1645712000.125948,60.000000,0.000000,4211.794922,4223.461426,4214.487305,4219.102539,4226.153809,4224.871582,4229.743652,4222.179688,4218.846191,4231.538574,4232.307617,4171.922852,4235.512695,4214.615234,0.000000,4.000000,82.000000,,,,0.000000,4.000000,4.000000,4.000000,4.000000,4.000000,4.000000,4.000000,4.000000,4.000000,4.000000,4.000000,4.000000,4.000000,4.000000,100.000000,,,,,,,,,,,,,,,,
1645712000.129888,61.000000,0.000000,4213.846191,4225.128418,4213.333496,4226.153809,4225.512695,4218.717773,4223.717773,4216.666504,4215.769043,4226.282227,4223.333496,4167.307617,4231.153809,4212.179688,0.000000,4.000000,82.000000,,,,0.000000,4.000000,4.000000,4.000000,4.000000,4.000000,4.000000,4.000000,4.000000,4.000000,4.000000,4.000000,4.000000,4.000000,4.000000,100.000000,,,,,,,,,,,,,,,,
1645712000.133828,62.000000,0.000000,4214.358887,4228.333496,4213.717773,4227.948730,4226.538574,4213.589844,4219.102539,4213.205078,4214.102539,4221.794922,4213.717773,4163.589844,4228.333496,4208.717773,0.000000,4.000000,82.000000,,,,0.000000,4.000000,4.000000,4.000000,4.000000,4.000000,4.000000,4.000000,4.000000,4.000000,4.000000,4.000000,4.000000,4.000000,4.000000,100.000000,,,,,,,,,,,,,,,,
1645712000.137769,63.000000,0.000000,4211.153809,4233.589844,4215.897461,4225.641113,4230.641113,4213.589844,4218.333496,4214.743652,4216.025879,4222.436035,4211.153809,4163.717773,4228.846191,4207.820313,0.000000,4.000000,82.000000,,,,0.000000,4.000000,4.000000,4.000000,4.000000,4.000000,4.000000,4.000000,4.000000,4.000000,4.000000,4.000000,4.000000,4.000000,4.000000,100.000000,,,,,,,,,,,,,,,,
1645712000.141709,64.000000,0.000000,4207.179688,4237.307617,4217.820313,4221.666504,4234.743652,4217.307617,4220.641113,4219.615234,4220.000000,4225.256348,4215.384766,4166.153809,4230.897461,4210.128418,0.000000,4.000000,82.000000,,,,0.000000,4.000000,4.000000,4.000000,4.000000,4.000000,4.000000,4.000000,4.000000,4.000000,4.000000,4.000000,4.000000,4.000000,4.000000,100.000000,,,,,,,,,,,,,,,,
1645712000.145649,65.000000,0.000000,4206.153809,4235.769043,4217.692383,4218.589844,4234.358887,4220.000000,4223.461426,4223.717773,4222.307617,4224.487305,4220.897461,4167.563965,4231.410156,4213.205078,0.000000,4.000000,82.000000,,,,0.000000,4.000000,4.000000,4.000000,4.000000,4.000000,4.000000,4.000000,4.000000,4.000000,4.000000,4.000000,4.000000,4.000000,4.000000,100.000000,,,,,,,,,,,,,,,,
1645712000.149589,66.000000,0.000000,4207.436035,4230.256348,4217.051270,4218.974121,4229.743652,4220.256348,4225.512695,4225.512695,4221.666504,4219.615234,4223.589844,4167.179688,4230.384766,4214.487305,0.000000,4.000000,82.000000,,,,0.000000,4.000000,4.000000,4.000000,4.000000,4.000000,4.000000,4.000000,4.000000,4.000000,4.000000,4.000000,4.000000,4.000000,4.000000,100.000000,,,,,,,,,,,,,,,,
1645712000.153529,67.000000,0.000000,4206.922852,4226.153809,4218.077148,4224.358887,4225.384766,4220.128418,4226.538574,4226.666504,4220.000000,4215.769043,4223.846191,4166.410156,4230.256348,4213.461426,0.000000,4.000000,82.000000,,,,0.000000,4.000000,4.000000,4.000000,4.000000,4.000000,4.000000,4.000000,4.000000,4.000000,4.000000,4.000000,4.000000,4.000000,4.000000,100.000000,,,,,,,,,,,,,,,,
1645712000.157469,68.000000,0.000000,4203.461426,4227.563965,4220.769043,4232.051270,4224.871582,4221.282227,4226.666504,4227.820313,4219.871582,4216.794922,4223.589844,4166.025879,4231.922852,4210.897461,0.000000,4.000000,82.000000,,,,0.000000,4.000000,4.000000,4.000000,4.000000,4.000000,4.000000,4.000000,4.000000,4.000000,4.000000,4.000000,4.000000,4.000000,4.000000,100.000000,,,,,,,,,,,,,,,,
1645712000.161409,69.000000,0.000000,4199.743652,4232.948730,4222.307617,4236.025879,4226.410156,4222.051270,4224.743652,4227.436035,4220.897461,4219.871582,4223.077148,4164.743652,4233.077148,4208.717773,0.000000,4.000000,82.000000,,,,0.000000,4.000000,4.000000,4.000000,4.000000,4.000000,4.000000,4.000000,4.000000,4.000000,4.000000,4.000000,4.000000,4.000000,4.000000,100.000000,,,,,,,,,,,,,,,,
1645712000.165349,70.000000,0.000000,4199.102539,4237.948730,4220.256348,4232.051270,4226.282227,4219.743652,4220.897461,4224.230957,4221.538574,4218.974121,4221.025879,4161.153809,4231.666504,4208.205078,0.000000,4.000000,82.000000,,,,0.000000,4.000000,4.000000,4.000000,4.000000,4.000000,4.000000,4.000000,4.000000,4.000000,4.000000,4.000000,4.000000,4.000000,4.000000,100.000000,,,,,,,,,,,,,,,,
1645712000.169190,71.000000,0.000000,4200.384766,4240.128418,4216.025879,4223.077148,4225.128418,4215.641113,4217.051270,4219.487305,4220.897461,4213.333496,4218.077148,4156.025879,4228.461426,4209.230957,0.000000,4.000000,82.000000,,,,0.000000,4.000000,4.000000,4.000000,4.000000,4.000000,4.000000,4.000000,4.000000,4.000000,4.000000,4.000000,4.000000,4.000000,4.000000,100.000000,,,,,,,,,,,,,,,,
1645712000.173130,72.000000,0.000000,4199.230957,4240.128418,4212.820313,4216.538574,4227.820313,4213.846191,4215.641113,4216.538574,4219.615234,4208.205078,4216.025879,4152.179688,4225.897461,4209.743652,0.000000,4.000000,82.000000,,,,0.000000,4.000000,4.000000,4.000000,4.000000,4.000000,4.000000,4.000000,4.000000,4.000000,4.000000,4.000000,4.000000,4.000000,4.000000,100.000000,,,,,,,,,,,,,,,,
1645712000.177070,73.000000,0.000000,4193.974121,4238.846191,4212.436035,4217.051270,4236.025879,4216.153809,4216.922852,4216.538574,4218.717773,4208.077148,4214.615234,4150.384766,4224.871582,4207.307617,0.000000,4.000000,82.000000,,,,0.000000,4.000000,4.000000,4.000000,4.000000,4.000000,4.000000,4.000000,4.000000,4.000000,4.000000,4.000000,4.000000,4.000000,4.000000,100.000000,,,,,,,,,,,,,,,,
1645712000.181010,74.000000,0.000000,4188.589844,4235.384766,4213.461426,4221.794922,4244.487305,4219.743652,4218.461426,4217.436035,4217.436035,4211.025879,4211.153809,4148.717773,4223.205078,4201.025879,0.000000,4.000000,82.000000,,,,0.000000,4.000000,4.000000,4.000000,4.000000,4.000000,4.000000,4.000000,4.000000,4.000000,4.000000,4.000000,4.000000,4.000000,4.000000,100.000000,,,,,,,,,,,,,,,,
1645712000.184950,75.000000,0.000000,4188.077148,4229.487305,4214.358887,4225.256348,4245.512695,4220.641113,4218.589844,4216.282227,4214.615234,4212.436035,4204.358887,4146.025879,4219.230957,4194.230957,0.000000,4.000000,82.000000,,,,0.000000,4.000000,4.000000,4.000000,4.000000,4.000000,4.000000,4.000000,4.000000,4.000000,4.000000,4.000000,4.000000,4.000000,4.000000,100.000000,,,,,,,,,,,,,,,,
1645712000.188890,76.000000,0.000000,4192.820313,4224.743652,4216.025879,4225.769043,4238.589844,4218.717773,4217.692383,4213.461426,4210.897461,4212.051270,4198.461426,4144.615234,4215.256348,4192.692383,0.000000,4.000000,82.000000,,,,0.000000,4.000000,4.000000,4.000000,4.000000,4.000000,4.000000,4.000000,4.000000,4.000000,4.000000,4.000000,4.000000,4.000000,4.000000,100.000000,,,,,,,,,,,,,,,,
1645712000.192830,77.000000,0.000000,4198.205078,4226.153809,4220.128418,4226.410156,4231.025879,4217.692383,4217.692383,4211.922852,4208.717773,4214.358887,4200.256348,4148.205078,4216.282227,4200.000000,0.000000,4.000000,82.000000,,,,0.000000,4.000000,4.000000,4.000000,4.000000,4.000000,4.000000,4.000000,4.000000,4.000000,4.000000,4.000000,4.000000,4.000000,4.000000,100.000000,,,,,,,,,,,,,,,,
1645712000.196770,78.000000,0.000000,4200.256348,4234.871582,4226.410156,4230.000000,4229.487305,4219.358887,4218.717773,4213.589844,4209.358887,4221.410156,4211.153809,4156.794922,4223.974121,4212.179688,0.000000,4.000000,82.000000,,,,0.000000,4.000000,4.000000,4.000000,4.000000,4.000000,4.000000,4.000000,4.000000,4.000000,4.000000,4.000000,4.000000,4.000000,4.000000,100.000000,,,,,,,,,,,,,,,,
1645712000.200610,79.000000,0.000000,4199.743652,4245.384766,4231.410156,4234.871582,4233.205078,4220.641113,4218.461426,4216.153809,4211.794922,4228.077148,4224.102539,4165.000000,4234.230957,4220.897461,0.000000,4.000000,82.000000,3,1,0,0.000000,4.000000,4.000000,4.000000,4.000000,4.000000,4.000000,4.000000,4.000000,4.000000,4.000000,4.000000,4.000000,4.000000,4.000000,100.000000,,,,,,,,,,,,,,,,
1645712000.204551,80.000000,0.000000,4199.358887,4250.512695,4231.922852,4236.666504,4235.384766,4218.461426,4215.641113,4215.897461,4213.205078,4227.820313,4230.256348,4166.922852,4240.256348,4220.512695,0.000000,4.000000,82.000000,,,,0.000000,4.000000,4.000000,4.000000,4.000000,4.000000,4.000000,4.000000,4.000000,4.000000,4.000000,4.000000,4.000000,4.000000,4.000000,100.000000,,,,,,,,,,,,,,,,
1645712000.208491,81.000000,0.000000,4199.358887,4248.717773,4228.077148,4235.128418,4232.948730,4214.102539,4212.563965,4212.436035,4213.077148,4221.025879,4227.948730,4162.820313,4239.487305,4213.846191,0.000000,4.000000,82.000000,,,,0.000000,4.000000,4.000000,4.000000,4.000000,4.000000,4.000000,4.000000,4.000000,4.000000,4.000000,4.000000,4.000000,4.000000,4.000000,100.000000,,,,,,,,,,,,,,,,
1645712000.212431,82.000000,0.000000,4197.692383,4245.000000,4224.102539,4234.102539,4230.256348,4212.307617,4212.563965,4209.487305,4213.461426,4216.025879,4223.461426,4158.846191,4236.025879,4209.487305,0.000000,4.000000,82.000000,,,,0.000000,4.000000,4.000000,4.000000,4.000000,4.000000,4.000000,4.000000,4.000000,4.000000,4.000000,4.000000,4.000000,4.000000,4.000000,100.000000,,,,,,,,,,,,,,,,
1645712000.216271,83.000000,0.000000,4194.358887,4244.358887,4223.589844,4236.666504,4231.794922,4215.000000,4215.769043,4210.641113,4216.153809,4220.128418,4223.589844,4161.025879,4235.256348,4212.692383,0.000000,4.000000,82.000000,,,,0.000000,4.000000,4.000000,4.000000,4.000000,4.000000,4.000000,4.000000,4.000000,4.000000,4.000000,4.000000,4.000000,4.000000,4.000000,100.000000,,,,,,,,,,,,,,,,
1645712000.220211,84.000000,0.000000,4192.563965,4246.538574,4226.282227,4240.256348,4235.384766,4218.589844,4219.102539,4215.256348,4220.128418,4231.538574,4227.692383,4169.102539,4237.307617,4220.769043,0.000000,4.000000,82.000000,,,,0.000000,4.000000,4.000000,4.000000,4.000000,4.000000,4.000000,4.000000,4.000000,4.000000,4.000000,4.000000,4.000000,4.000000,4.000000,100.000000,,,,,,,,,,,,,,,,
1645712000.224151,85.000000,0.000000,4195.000000,4246.666504,4229.230957,4239.230957,4233.974121,4218.461426,4219.487305,4220.000000,4222.179688,4241.282227,4230.256348,4177.051270,4238.589844,4225.641113,0.000000,4.000000,82.000000,4,1,0,0.000000,4.000000,4.000000,4.000000,4.000000,4.000000,4.000000,4.000000,4.000000,4.000000,4.000000,4.000000,4.000000,4.000000,4.000000,100.000000,,,,,,,,,,,,,,,,
1645712000.228091,86.000000,0.000000,4198.846191,4242.436035,4229.871582,4232.307617,4224.743652,4215.384766,4217.692383,4222.307617,4221.153809,4242.820313,4228.205078,4180.000000,4236.282227,4222.436035,0.000000,4.000000,82.000000,,,,0.000000,4.000000,4.000000,4.000000,4.000000,4.000000,4.000000,4.000000,4.000000,4.000000,4.000000,4.000000,4.000000,4.000000,4.000000,100.000000,,,,,,,,,,,,,,,,
1645712000.232031,87.000000,0.000000,4197.692383,4236.410156,4228.461426,4224.743652,4213.589844,4214.102539,4217.436035,4223.077148,4219.230957,4236.282227,4224.743652,4177.948730,4232.307617,4213.461426,0.000000,4.000000,82.000000,,,,0.000000,4.000000,4.000000,4.000000,4.000000,4.000000,4.000000,4.000000,4.000000,4.000000,4.000000,4.000000,4.000000,4.000000,4.000000,100.000000,,,,,,,,,,,,,,,,
1645712000.235971,88.000000,0.000000,4189.358887,4232.563965,4226.538574,4222.948730,4207.948730,4217.692383,4220.256348,4224.102539,4218.333496,4226.153809,4224.358887,4173.974121,4230.384766,4204.615234,0.000000,4.000000,82.000000,,,,0.000000,4.000000,4.000000,4.000000,4.000000,4.000000,4.000000,4.000000,4.000000,4.000000,4.000000,4.000000,4.000000,4.000000,4.000000,100.000000,,,,,,,,,,,,,,,,
1645712000.239912,89.000000,0.000000,4179.487305,4232.051270,4224.487305,4226.794922,4209.487305,4222.948730,4223.589844,4224.743652,4218.589844,4216.153809,4226.025879,4170.128418,4231.410156,4200.769043,0.000000,4.000000,82.000000,,,,0.000000,4.000000,4.000000,4.000000,4.000000,4.000000,4.000000,4.000000,4.000000,4.000000,4.000000,4.000000,4.000000,4.000000,4.000000,100.000000,,,,,,,,,,,,,,,,
1645712000.243852,90.000000,0.000000,4175.641113,4233.077148,4221.794922,4229.615234,4213.333496,4224.358887,4224.615234,4223.461426,4217.948730,4208.589844,4225.256348,4166.794922,4233.846191,4202.948730,0.000000,4.000000,82.000000,,,,0.000000,4.000000,4.000000,4.000000,4.000000,4.000000,4.000000,4.000000,4.000000,4.000000,4.000000,4.000000,4.000000,4.000000,4.000000,100.000000,,,,,,,,,,,,,,,,
1645712000.247792,91.000000,0.000000,4179.487305,4233.974121,4218.589844,4227.051270,4216.153809,4221.538574,4223.589844,4221.282227,4216.410156,4206.282227,4220.000000,4164.487305,4235.769043,4209.358887,0.000000,4.000000,82.000000,,,,0.000000,4.000000,4.000000,4.000000,4.000000,4.000000,4.000000,4.000000,4.000000,4.000000,4.000000,4.000000,4.000000,4.000000,4.000000,100.000000,,,,,,,,,,,,,,,,
1645712000.251732,92.000000,0.000000,4184.615234,4235.256348,4216.666504,4222.436035,4219.358887,4218.717773,4223.461426,4221.922852,4215.769043,4212.179688,4214.230957,4164.743652,4237.820313,4216.025879,0.000000,4.000000,82.000000,,,,0.000000,4.000000,4.000000,4.000000,4.000000,4.000000,4.000000,4.000000,4.000000,4.000000,4.000000,4.000000,4.000000,4.000000,4.000000,100.000000,,,,,,,,,,,,,,,,
1645712000.255672,93.000000,0.000000,4184.615234,4237.436035,4217.692383,4222.820313,4224.871582,4220.384766,4226.282227,4227.179688,4217.692383,4224.487305,4212.948730,4167.179688,4240.641113,4219.102539,0.000000,4.000000,82.000000,,,,0.000000,4.000000,4.000000,4.000000,4.000000,4.000000,4.000000,4.000000,4.000000,4.000000,4.000000,4.000000,4.000000,4.000000,4.000000,100.000000,,,,,,,,,,,,,,,,
1645712000.259612,94.000000,0.000000,4180.256348,4240.000000,4220.641113,4230.000000,4230.256348,4225.256348,4230.256348,4234.230957,4220.769043,4235.512695,4216.025879,4168.974121,4243.205078,4216.922852,0.000000,4.000000,82.000000,,,,0.000000,4.000000,4.000000,4.000000,4.000000,4.000000,4.000000,4.000000,4.000000,4.000000,4.000000,4.000000,4.000000,4.000000,4.000000,100.000000,,,,,,,,,,,,,,,,
1645712000.263552,95.000000,0.000000,4177.307617,4241.153809,4222.948730,4236.922852,4230.769043,4228.589844,4232.563965,4237.051270,4221.922852,4236.538574,4218.589844,4167.436035,4242.692383,4211.410156,0.000000,4.000000,82.000000,,,,0.000000,4.000000,4.000000,4.000000,4.000000,4.000000,4.000000,4.000000,4.000000,4.000000,4.000000,4.000000,4.000000,4.000000,4.000000,100.000000,,,,,,,,,,,,,,,,
1645712000.267492,96.000000,0.000000,4178.846191,4240.769043,4222.307617,4236.025879,4226.282227,4228.461426,4232.820313,4233.333496,4220.256348,4226.922852,4217.436035,4163.077148,4238.589844,4207.436035,0.000000,4.000000,82.000000,,,,0.000000,4.000000,4.000000,4.000000,4.000000,4.000000,4.000000,4.000000,4.000000,4.000000,4.000000,4.000000,4.000000,4.000000,4.000000,100.000000,1.000000,66.666664,0.000000,4.000000,4.000000,4.000000,4.000000,4.000000,4.000000,4.000000,4.000000,4.000000,4.000000,4.000000,4.000000,4.000000
1645712000.271432,97.000000,0.000000,4182.307617,4240.897461,4219.615234,4226.794922,4222.051270,4227.307617,4232.563965,4226.153809,4218.205078,4215.641113,4215.000000,4160.512695,4233.717773,4207.563965,0.000000,4.000000,82.000000,,,,0.000000,4.000000,4.000000,4.000000,4.000000,4.000000,4.000000,4.000000,4.000000,4.000000,4.000000,4.000000,4.000000,4.000000,4.000000,100.000000,,,,,,,,,,,,,,,,
1645712000.275373,98.000000,0.000000,4183.333496,4242.307617,4217.051270,4217.179688,4222.436035,4228.077148,4232.563965,4221.153809,4218.589844,4213.205078,4215.769043,4163.205078,4232.307617,4210.384766,0.000000,4.000000,82.000000,,,,0.000000,4.000000,4.000000,4.000000,4.000000,4.000000,4.000000,4.000000,4.000000,4.000000,4.000000,4.000000,4.000000,4.000000,4.000000,100.000000,,,,,,,,,,,,,,,,
1645712000.279413,99.000000,0.000000,4182.179688,4243.077148,4216.794922,4214.743652,4225.128418,4229.615234,4231.538574,4220.641113,4221.538574,4221.153809,4220.512695,4169.358887,4235.641113,4211.666504,0.000000,4.000000,82.000000,,,,0.000000,4.000000,4.000000,4.000000,4.000000,4.000000,4.000000,4.000000,4.000000,4.000000,4.000000,4.000000,4.000000,4.000000,4.000000,100.000000,,,,,,,,,,,,,,,,
1645712000.283353,100.000000,0.000000,4182.307617,4241.282227,4218.589844,4220.000000,4224.487305,4228.717773,4228.333496,4222.563965,4224.358887,4232.179688,4225.384766,4174.230957,4240.641113,4209.615234,0.000000,4.000000,82.000000,,,,0.000000,4.000000,4.000000,4.000000,4.000000,4.000000,4.000000,4.000000,4.000000,4.000000,4.000000,4.000000,4.000000,4.000000,4.000000,100.000000,,,,,,,,,,,,,,,,
1645712000.287293,101.000000,0.000000,4185.000000,4237.948730,4221.410156,4227.179688,4218.846191,4225.000000,4224.487305,4224.358887,4224.230957,4237.820313,4227.307617,4175.641113,4243.589844,4206.794922,0.000000,4.000000,82.000000,,,,0.000000,4.000000,4.000000,4.000000,4.000000,4.000000,4.000000,4.000000,4.000000,4.000000,4.000000,4.000000,4.000000,4.000000,4.000000,100.000000,,,,,,,,,,,,,,,,
1645712000.291233,102.000000,0.000000,4187.307617,4237.436035,4224.230957,4231.025879,4214.358887,4222.051270,4222.820313,4225.256348,4221.153809,4236.666504,4227.692383,4175.512695,4243.461426,4207.051270,0.000000,4.000000,82.000000,,,,0.000000,4.000000,4.000000,4.000000,4.000000,4.000000,4.000000,4.000000,4.000000,4.000000,4.000000,4.000000,4.000000,4.000000,4.000000,100.000000,,,,,,,,,,,,,,,,
1645712000.295173,103.000000,0.000000,4185.128418,4241.922852,4226.410156,4230.512695,4217.307617,4223.205078,4224.230957,4225.000000,4217.563965,4232.820313,4228.846191,4176.922852,4240.897461,4211.025879,0.000000,4.000000,82.000000,,,,0.000000,4.000000,4.000000,4.000000,4.000000,4.000000,4.000000,4.000000,4.000000,4.000000,4.000000,4.000000,4.000000,4.000000,4.000000,100.000000,,,,,,,,,,,,,,,,
1645712000.299113,104.000000,0.000000,4179.230957,4247.692383,4226.153809,4227.179688,4225.128418,4226.794922,4226.410156,4222.948730,4214.743652,4229.487305,4229.871582,4178.589844,4236.538574,4215.128418,0.000000,4.000000,82.000000,,,,0.000000,4.000000,4.000000,4.000000,4.000000,4.000000,4.000000,4.000000,4.000000,4.000000,4.000000,4.000000,4.000000,4.000000,4.000000,100.000000,,,,,,,,,,,,,,,,
1645712000.303053,105.000000,0.000000,4173.846191,4248.077148,4222.179688,4223.205078,4228.846191,4227.051270,4226.025879,4217.820313,4212.051270,4225.512695,4226.666504,4176.153809,4230.641113,4215.641113,0.000000,4.000000,82.000000,,,,0.000000,4.000000,4.000000,4.000000,4.000000,4.000000,4.000000,4.000000,4.000000,4.000000,4.000000,4.000000,4.000000,4.000000,4.000000,100.000000,,,,,,,,,,,,,,,,
1645712000.307093,106.000000,0.000000,4171.410156,4240.641113,4215.641113,4221.025879,4222.307617,4221.666504,4222.563965,4211.025879,4209.230957,4219.230957,4218.077148,4167.692383,4225.256348,4213.077148,0.000000,4.000000,82.000000,,,,0.000000,4.000000,4.000000,4.000000,4.000000,4.000000,4.000000,4.000000,4.000000,4.000000,4.000000,4.000000,4.000000,4.000000,4.000000,100.000000,,,,,,,,,,,,,,,,
1645712000.311033,107.000000,0.000000,4169.871582,4231.153809,4210.256348,4223.077148,4210.000000,4214.871582,4218.974121,4206.794922,4207.307617,4213.205078,4208.205078,4157.820313,4224.102539,4211.153809,0.000000,4.000000,82.000000,,,,0.000000,4.000000,4.000000,4.000000,4.000000,4.000000,4.000000,4.000000,4.000000,4.000000,4.000000,4.000000,4.000000,4.000000,4.000000,100.000000,,,,,,,,,,,,,,,,
1645712000.314973,108.000000,0.000000,4166.922852,4227.692383,4209.230957,4228.589844,4202.051270,4212.692383,4217.820313,4209.102539,4208.589844,4212.436035,4203.461426,4153.333496,4229.102539,4212.051270,0.000000,4.000000,82.000000,,,,0.000000,4.000000,4.000000,4.000000,4.000000,4.000000,4.000000,4.000000,4.000000,4.000000,4.000000,4.000000,4.000000,4.000000,4.000000,100.000000,,,,,,,,,,,,,,,,
1645712000.318914,109.000000,0.000000,4163.974121,4232.051270,4212.563965,4233.461426,4204.102539,4216.410156,4218.846191,4216.922852,4212.820313,4217.436035,4205.641113,4157.307617,4237.307617,4213.846191,0.000000,4.000000,82.000000,,,,0.000000,4.000000,4.000000,4.000000,4.000000,4.000000,4.000000,4.000000,4.000000,4.000000,4.000000,4.000000,4.000000,4.000000,4.000000,100.000000,,,,,,,,,,,,,,,,
1645712000.322854,110.000000,0.000000,4164.615234,4238.846191,4216.538574,4232.820313,4212.051270,4221.282227,4219.871582,4224.487305,4217.307617,4222.820313,4210.769043,4166.282227,4242.948730,4212.563965,0.000000,4.000000,82.000000,,,,0.000000,4.000000,4.000000,4.000000,4.000000,4.000000,4.000000,4.000000,4.000000,4.000000,4.000000,4.000000,4.000000,4.000000,4.000000,100.000000,,,,,,,,,,,,,,,,
1645712000.326894,111.000000,0.000000,4169.102539,4241.153809,4217.820313,4227.692383,4218.717773,4222.436035,4220.000000,4226.666504,4219.102539,4223.589844,4215.128418,4173.333496,4242.436035,4207.436035,0.000000,4.000000,82.000000,,,,0.000000,4.000000,4.000000,4.000000,4.000000,4.000000,4.000000,4.000000,4.000000,4.000000,4.000000,4.000000,4.000000,4.000000,4.000000,100.000000,,,,,,,,,,,,,,,,
1645712000.330834,112.000000,0.000000,4172.563965,4238.589844,4216.794922,4224.230957,4220.769043,4220.256348,4220.384766,4223.333496,4218.461426,4221.025879,4219.615234,4174.871582,4237.948730,4201.922852,0.000000,4.000000,82.000000,,,,0.000000,4.000000,4.000000,4.000000,4.000000,4.000000,4.000000,4.000000,4.000000,4.000000,4.000000,4.000000,4.000000,4.000000,4.000000,100.000000,,,,,,,,,,,,,,,,
1645712000.334774,113.000000,0.000000,4170.128418,4236.282227,4215.641113,4226.922852,4220.000000,4218.589844,4221.794922,4218.846191,4217.307617,4220.384766,4226.025879,4172.179688,4233.717773,4199.871582,0.000000,4.000000,82.000000,,,,0.000000,4.000000,4.000000,4.000000,4.000000,4.000000,4.000000,4.000000,4.000000,4.000000,4.000000,4.000000,4.000000,4.000000,4.000000,100.000000,,,,,,,,,,,,,,,,
1645712000.338714,114.000000,0.000000,4163.333496,4238.205078,4215.641113,4232.563965,4217.563965,4218.846191,4222.948730,4216.794922,4216.922852,4222.436035,4232.051270,4167.820313,4231.666504,4202.179688,0.000000,4.000000,82.000000,,,,0.000000,4.000000,4.000000,4.000000,4.000000,4.000000,4.000000,4.000000,4.000000,4.000000,4.000000,4.000000,4.000000,4.000000,4.000000,100.000000,,,,,,,,,,,,,,,,
1645712000.342654,115.000000,0.000000,4159.102539,4242.563965,4215.897461,4234.743652,4212.563965,4219.230957,4221.410156,4216.666504,4216.025879,4222.307617,4231.410156,4163.461426,4230.128418,4206.025879,0.000000,4.000000,82.000000,,,,0.000000,4.000000,4.000000,4.000000,4.000000,4.000000,4.000000,4.000000,4.000000,4.000000,4.000000,4.000000,4.000000,4.000000,4.000000,100.000000,,,,,,,,,,,,,,,,
1645712000.346594,116.000000,0.000000,4161.538574,4244.358887,4215.769043,4231.922852,4205.256348,4217.948730,4217.436035,4216.153809,4213.077148,4215.384766,4221.153809,4159.487305,4227.692383,4208.205078,0.000000,4.000000,82.000000,,,,0.000000,4.000000,4.000000,4.000000,4.000000,4.000000,4.000000,4.000000,4.000000,4.000000,4.000000,4.000000,4.000000,4.000000,4.000000,100.000000,,,,,,,,,,,,,,,,
1645712000.350534,117.000000,0.000000,4167.692383,4242.179688,4217.179688,4228.974121,4200.384766,4217.051270,4214.102539,4214.230957,4208.589844,4204.871582,4206.282227,4157.179688,4225.641113,4207.563965,0.000000,4.000000,82.000000,,,,0.000000,4.000000,4.000000,4.000000,4.000000,4.000000,4.000000,4.000000,4.000000,4.000000,4.000000,4.000000,4.000000,4.000000,4.000000,100.000000,,,,,,,,,,,,,,,,
1645712000.354474,118.000000,0.000000,4171.282227,4239.102539,4221.794922,4230.512695,4203.077148,4219.358887,4214.615234,4212.307617,4204.743652,4198.589844,4196.538574,4158.717773,4226.410156,4205.512695,0.000000,4.000000,82.000000,,,,0.000000,4.000000,4.000000,4.000000,4.000000,4.000000,4.000000,4.000000,4.000000,4.000000,4.000000,4.000000,4.000000,4.000000,4.000000,100.000000,,,,,,,,,,,,,,,,
1645712000.358414,119.000000,0.000000,4170.641113,4238.717773,4228.333496,4233.974121,4212.563965,4223.717773,4218.333496,4211.410156,4203.077148,4201.282227,4196.538574,4163.461426,4229.743652,4203.846191,0.000000,4.000000,82.000000,,,,0.000000,4.000000,4.000000,4.000000,4.000000,4.000000,4.000000,4.000000,4.000000,4.000000,4.000000,4.000000,4.000000,4.000000,4.000000,100.000000,,,,,,,,,,,,,,,,
1645712000.362355,120.000000,0.000000,4168.846191,4240.384766,4232.692383,4233.077148,4221.025879,4225.769043,4221.410156,4211.025879,4202.820313,4209.487305,4201.922852,4167.563965,4232.051270,4203.717773,0.000000,4.000000,82.000000,,,,0.000000,4.000000,4.000000,4.000000,4.000000,4.000000,4.000000,4.000000,4.000000,4.000000,4.000000,4.000000,4.000000,4.000000,4.000000,100.000000,,,,,,,,,,,,,,,,
1645712000.366295,121.000000,0.000000,4169.358887,4240.641113,4231.794922,4227.179688,4221.922852,4223.205078,4221.538574,4210.769043,4202.436035,4215.769043,4205.256348,4167.436035,4229.743652,4206.025879,0.000000,4.000000,82.000000,,,,0.000000,4.000000,4.000000,4.000000,4.000000,4.000000,4.000000,4.000000,4.000000,4.000000,4.000000,4.000000,4.000000,4.000000,4.000000,100.000000,,,,,,,,,,,,,,,,
1645712000.370235,122.000000,0.000000,4170.769043,4238.589844,4227.179688,4223.461426,4217.692383,4219.358887,4220.512695,4211.538574,4202.179688,4216.922852,4204.487305,4164.102539,4224.102539,4209.487305,0.000000,4.000000,82.000000,,,,0.000000,4.000000,4.000000,4.000000,4.000000,4.000000,4.000000,4.000000,4.000000,4.000000,4.000000,4.000000,4.000000,4.000000,4.000000,100.000000,,,,,,,,,,,,,,,,
1645712000.374175,123.000000,0.000000,4169.615234,4236.282227,4223.205078,4228.333496,4215.256348,4219.871582,4221.794922,4214.871582,4203.589844,4215.000000,4203.077148,4162.307617,4219.358887,4210.769043,0.000000,4.000000,82.000000,,,,0.000000,4.000000,4.000000,4.000000,4.000000,4.000000,4.000000,4.000000,4.000000,4.000000,4.000000,4.000000,4.000000,4.000000,4.000000,100.000000,,,,,,,,,,,,,,,,
1645712000.378115,124.000000,0.000000,4165.769043,4235.641113,4222.692383,4238.461426,4217.820313,4225.769043,4225.897461,4220.128418,4207.051270,4213.461426,4203.717773,4164.615234,4217.563965,4206.538574,0.000000,4.000000,82.000000,,,,0.000000,4.000000,4.000000,4.000000,4.000000,4.000000,4.000000,4.000000,4.000000,4.000000,4.000000,4.000000,4.000000,4.000000,4.000000,100.000000,,,,,,,,,,,,,,,,
1645712000.382055,125.000000,0.000000,4163.205078,4235.512695,4224.358887,4243.333496,4219.615234,4231.794922,4230.128418,4223.589844,4210.641113,4212.179688,4204.102539,4169.230957,4216.922852,4197.179688,0.000000,4.000000,82.000000,,,,0.000000,4.000000,4.000000,4.000000,4.000000,4.000000,4.000000,4.000000,4.000000,4.000000,4.000000,4.000000,4.000000,4.000000,4.000000,100.000000,,,,,,,,,,,,,,,,
1645712000.385995,126.000000,0.000000,4164.615234,4234.487305,4225.769043,4237.307617,4214.487305,4232.436035,4231.282227,4222.820313,4212.436035,4210.128418,4202.436035,4172.563965,4215.641113,4188.333496,0.000000,4.000000,82.000000,,,,0.000000,4.000000,4.000000,4.000000,4.000000,4.000000,4.000000,4.000000,4.000000,4.000000,4.000000,4.000000,4.000000,4.000000,4.000000,100.000000,,,,,,,,,,,,,,,,
1645712000.389935,127.000000,0.000000,4167.820313,4233.846191,4226.538574,4225.769043,4203.717773,4228.333496,4229.743652,4219.358887,4213.077148,4208.077148,4201.794922,4173.846191,4215.384766,4187.563965,0.000000,4.000000,82.000000,,,,0.000000,4.000000,4.000000,4.000000,4.000000,4.000000,4.000000,4.000000,4.000000,4.000000,4.000000,4.000000,4.000000,4.000000,4.000000,100.000000,,,,,,,,,,,,,,,,
1645712000.393875,128.000000,0.000000,4167.820313,4235.000000,4227.563965,4219.743652,4195.641113,4223.974121,4227.436035,4217.307617,4214.615234,4208.461426,4207.436035,4175.000000,4219.230957,4197.179688,3311.000000,4.000000,82.000000,,,,0.000000,4.000000,4.000000,4.000000,4.000000,4.000000,4.000000,4.000000,4.000000,4.000000,4.000000,4.000000,4.000000,4.000000,4.000000,100.000000,,,,,,,,,,,,,,,,
1645712000.397816,129.000000,0.000000,4163.461426,4236.538574,4228.461426,4223.205078,4195.256348,4222.436035,4225.769043,4218.589844,4217.563965,4211.922852,4218.717773,4176.666504,4227.179688,4212.051270,3364.000000,4.000000,82.000000,,,,0.000000,4.000000,4.000000,4.000000,4.000000,4.000000,4.000000,4.000000,4.000000,4.000000,4.000000,4.000000,4.000000,4.000000,4.000000,100.000000,,,,,,,,,,,,,,,,
1645712000.401856,130.000000,0.000000,4158.974121,4234.487305,4227.692383,4230.512695,4200.128418,4222.179688,4224.743652,4221.282227,4220.000000,4215.256348,4228.205078,4177.307617,4235.512695,4223.846191,2306.000000,4.000000,82.000000,,,,0.000000,4.000000,4.000000,4.000000,4.000000,4.000000,4.000000,4.000000,4.000000,4.000000,4.000000,4.000000,4.000000,4.000000,4.000000,100.000000,,,,,,,,,,,,,,,,
1645712000.405796,131.000000,0.000000,4159.230957,4227.692383,4224.871582,4233.461426,4204.871582,4220.769043,4224.358887,4222.820313,4220.512695,4216.538574,4230.000000,4175.384766,4240.000000,4228.333496,3122.000000,4.000000,82.000000,,,,0.000000,4.000000,4.000000,4.000000,4.000000,4.000000,4.000000,4.000000,4.000000,4.000000,4.000000,4.000000,4.000000,4.000000,4.000000,100.000000,,,,,,,,,,,,,,,,
1645712000.409736,132.000000,0.000000,4162.948730,4221.153809,4222.948730,4230.512695,4208.077148,4218.846191,4225.384766,4224.358887,4220.000000,4218.205078,4225.641113,4173.077148,4240.384766,4227.179688,3564.000000,4.000000,82.000000,,,,0.000000,4.000000,4.000000,4.000000,4.000000,4.000000,4.000000,4.000000,4.000000,4.000000,4.000000,4.000000,4.000000,4.000000,4.000000,100.000000,,,,,,,,,,,,,,,,
1645712000.413676,133.000000,0.000000,4165.000000,4221.153809,4224.102539,4226.666504,4212.051270,4218.846191,4228.333496,4228.589844,4220.128418,4223.974121,4221.666504,4173.846191,4240.000000,4224.358887,3323.000000,4.000000,82.000000,,,,0.000000,4.000000,4.000000,4.000000,4.000000,4.000000,4.000000,4.000000,4.000000,4.000000,4.000000,4.000000,4.000000,4.000000,4.000000,100.000000,,,,,,,,,,,,,,,,
1645712000.417716,134.000000,0.000000,4162.051270,4228.846191,4227.563965,4226.153809,4216.538574,4220.769043,4231.153809,4235.256348,4221.153809,4232.692383,4221.410156,4177.051270,4241.153809,4221.538574,3253.000000,4.000000,82.000000,,,,0.000000,4.000000,4.000000,4.000000,4.000000,4.000000,4.000000,4.000000,4.000000,4.000000,4.000000,4.000000,4.000000,4.000000,4.000000,100.000000,,,,,,,,,,,,,,,,
1645712000.421756,135.000000,0.000000,4156.922852,4237.563965,4228.974121,4227.563965,4217.051270,4221.922852,4231.666504,4240.000000,4221.410156,4237.692383,4222.436035,4178.461426,4243.077148,4217.692383,2508.000000,4.000000,82.000000,,,,0.000000,4.000000,4.000000,4.000000,4.000000,4.000000,4.000000,4.000000,4.000000,4.000000,4.000000,4.000000,4.000000,4.000000,4.000000,100.000000,,,,,,,,,,,,,,,,
1645712000.425696,136.000000,0.000000,4153.846191,4240.512695,4225.641113,4226.794922,4211.025879,4220.641113,4229.871582,4239.230957,4218.846191,4233.974121,4221.282227,4174.871582,4243.077148,4212.820313,1702.000000,4.000000,82.000000,,,,0.000000,4.000000,4.000000,4.000000,4.000000,4.000000,4.000000,4.000000,4.000000,4.000000,4.000000,4.000000,4.000000,4.000000,4.000000,100.000000,,,,,,,,,,,,,,,,
1645712000.429636,137.000000,0.000000,4153.589844,4237.051270,4219.487305,4223.461426,4203.205078,4219.615234,4228.461426,4233.974121,4215.000000,4224.615234,4218.974121,4168.333496,4240.512695,4209.230957,3130.000000,4.000000,82.000000,,,,0.000000,4.000000,4.000000,4.000000,4.000000,4.000000,4.000000,4.000000,4.000000,4.000000,4.000000,4.000000,4.000000,4.000000,4.000000,100.000000,,,,,,,,,,,,,,,,
1645712000.433576,138.000000,0.000000,4153.333496,4233.077148,4215.384766,4221.153809,4202.307617,4222.820313,4229.615234,4228.846191,4212.820313,4217.563965,4219.743652,4163.205078,4237.436035,4208.717773,2313.000000,4.000000,82.000000,,,,0.000000,4.000000,4.000000,4.000000,4.000000,4.000000,4.000000,4.000000,4.000000,4.000000,4.000000,4.000000,4.000000,4.000000,4.000000,100.000000,,,,,,,,,,,,,,,,
1645712000.437516,139.000000,0.000000,4151.666504,4233.333496,4215.641113,4222.563965,4211.666504,4229.871582,4231.794922,4227.051270,4213.717773,4218.077148,4223.589844,4161.538574,4235.897461,4210.256348,2667.000000,4.000000,82.000000,,,,0.000000,4.000000,4.000000,4.000000,4.000000,4.000000,4.000000,4.000000,4.000000,4.000000,4.000000,4.000000,4.000000,4.000000,4.000000,100.000000,,,,,,,,,,,,,,,,
1645712000.441456,140.000000,0.000000,4150.897461,4237.179688,4218.589844,4225.641113,4224.102539,4234.487305,4231.666504,4227.051270,4215.512695,4222.436035,4225.769043,4160.641113,4235.512695,4210.128418,3057.000000,4.000000,82.000000,,,,0.000000,4.000000,4.000000,4.000000,4.000000,4.000000,4.000000,4.000000,4.000000,4.000000,4.000000,4.000000,4.000000,4.000000,4.000000,100.000000,,,,,,,,,,,,,,,,
1645712000.445396,141.000000,0.000000,4153.333496,4240.641113,4220.384766,4225.641113,4229.615234,4231.666504,4227.563965,4225.384766,4215.512695,4223.077148,4221.794922,4157.436035,4234.615234,4206.666504,3233.000000,4.000000,82.000000,,,,0.000000,4.000000,4.000000,4.000000,4.000000,4.000000,4.000000,4.000000,4.000000,4.000000,4.000000,4.000000,4.000000,4.000000,4.000000,100.000000,,,,,,,,,,,,,,,,
1645712000.449337,142.000000,0.000000,4157.307617,4241.922852,4219.871582,4221.282227,4225.384766,4223.205078,4222.307617,4222.179688,4213.461426,4217.820313,4214.230957,4153.205078,4233.461426,4201.922852,2313.000000,4.000000,82.000000,,,,0.000000,4.000000,4.000000,4.000000,4.000000,4.000000,4.000000,4.000000,4.000000,4.000000,4.000000,4.000000,4.000000,4.000000,4.000000,100.000000,,,,,,,,,,,,,,,,
1645712000.453277,143.000000,0.000000,4158.333496,4242.307617,4219.230957,4216.025879,4217.563965,4217.051270,4220.128418,4220.384766,4212.051270,4212.436035,4211.025879,4152.051270,4233.974121,4200.000000,2667.000000,4.000000,82.000000,,,,0.000000,4.000000,4.000000,4.000000,4.000000,4.000000,4.000000,4.000000,4.000000,4.000000,4.000000,4.000000,4.000000,4.000000,4.000000,100.000000,,,,,,,,,,,,,,,,
1645712000.457217,144.000000,0.000000,4154.743652,4242.563965,4219.615234,4214.487305,4212.563965,4217.692383,4221.666504,4222.179688,4213.589844,4212.820313,4215.512695,4155.512695,4236.538574,4202.436035,3057.000000,4.000000,82.000000,,,,0.000000,4.000000,4.000000,4.000000,4.000000,4.000000,4.000000,4.000000,4.000000,4.000000,4.000000,4.000000,4.000000,4.000000,4.000000,100.000000,,,,,,,,,,,,,,,,
1645712000.461157,145.000000,0.000000,4149.871582,4240.641113,4220.000000,4217.692383,4210.897461,4222.436035,4223.846191,4225.384766,4216.153809,4217.692383,4222.563965,4159.743652,4238.205078,4207.051270,3233.000000,4.000000,82.000000,,,,0.000000,4.000000,4.000000,4.000000,4.000000,4.000000,4.000000,4.000000,4.000000,4.000000,4.000000,4.000000,4.000000,4.000000,4.000000,100.000000,,,,,,,,,,,,,,,,
1645712000.465097,146.000000,0.000000,4148.461426,4235.512695,4218.461426,4221.410156,4208.717773,4224.487305,4223.333496,4225.641113,4216.410156,4220.641113,4223.974121,4159.230957,4235.512695,4210.512695,2313.000000,4.000000,82.000000,,,,0.000000,4.000000,4.000000,4.000000,4.000000,4.000000,4.000000,4.000000,4.000000,4.000000,4.000000,4.000000,4.000000,4.000000,4.000000,100.000000,,,,,,,,,,,,,,,,
1645712000.469037,147.000000,0.000000,4150.769043,4229.871582,4216.153809,4221.410156,4205.256348,4221.025879,4220.000000,4221.410156,4212.563965,4217.948730,4218.205078,4153.717773,4228.974121,4211.282227,2667.000000,4.000000,82.000000,,,,0.000000,4.000000,4.000000,4.000000,4.000000,4.000000,4.000000,4.000000,4.000000,4.000000,4.000000,4.000000,4.000000,4.000000,4.000000,100.000000,,,,,,,,,,,,,,,,
1645712000.472977,148.000000,0.000000,4152.948730,4228.333496,4216.153809,4217.692383,4203.974121,4216.410156,4216.666504,4215.769043,4207.179688,4212.820313,4211.282227,4148.205078,4223.333496,4210.769043,3057.000000,4.000000,82.000000,,,,0.000000,4.000000,4.000000,4.000000,4.000000,4.000000,4.000000,4.000000,4.000000,4.000000,4.000000,4.000000,4.000000,4.000000,4.000000,100.000000,,,,,,,,,,,,,,,,
1645712000.476917,149.000000,0.000000,4152.051270,4231.922852,4219.615234,4214.102539,4207.307617,4215.128418,4215.641113,4212.563965,4203.846191,4210.897461,4209.743652,4147.948730,4223.205078,4209.743652,3233.000000,4.000000,82.000000,,,,0.000000,4.000000,4.000000,4.000000,4.000000,4.000000,4.000000,4.000000,4.000000,4.000000,4.000000,4.000000,4.000000,4.000000,4.000000,100.000000,,,,,,,,,,,,,,,,
1645712000.480857,150.000000,0.000000,4149.871582,4236.025879,4224.102539,4213.205078,4211.538574,4217.436035,4216.538574,4212.436035,4203.589844,4212.692383,4213.077148,4153.077148,4227.563965,4207.820313,2313.000000,4.000000,82.000000,,,,0.000000,4.000000,4.000000,4.000000,4.000000,4.000000,4.000000,4.000000,4.000000,4.000000,4.000000,4.000000,4.000000,4.000000,4.000000,100.000000,,,,,,,,,,,,,,,,
1645712000.484798,151.000000,0.000000,4149.615234,4235.256348,4225.769043,4214.487305,4211.410156,4218.846191,4217.179688,4212.563965,4204.615234,4214.102539,4215.897461,4159.358887,4231.666504,4205.256348,2667.000000,4.000000,82.000000,,,,0.000000,4.000000,4.000000,4.000000,4.000000,4.000000,4.000000,4.000000,4.000000,4.000000,4.000000,4.000000,4.000000,4.000000,4.000000,100.000000,,,,,,,,,,,,,,,,
1645712000.488738,152.000000,0.000000,4151.282227,4229.615234,4223.974121,4216.153809,4206.282227,4216.922852,4216.666504,4211.666504,4204.615234,4212.948730,4214.102539,4162.948730,4231.538574,4203.846191,3057.000000,4.000000,82.000000,,,,0.000000,4.000000,4.000000,4.000000,4.000000,4.000000,4.000000,4.000000,4.000000,4.000000,4.000000,4.000000,4.000000,4.000000,4.000000,100.000000,,,,,,,,,,,,,,,,
1645712000.492678,153.000000,0.000000,4151.025879,4224.487305,4220.641113,4217.692383,4202.563965,4214.102539,4216.282227,4211.025879,4203.974121,4211.922852,4209.871582,4163.077148,4228.205078,4206.153809,3233.000000,4.000000,82.000000,,,,0.000000,4.000000,4.000000,4.000000,4.000000,4.000000,4.000000,4.000000,4.000000,4.000000,4.000000,4.000000,4.000000,4.000000,4.000000,100.000000,,,,,,,,,,,,,,,,
1645712000.496718,154.000000,0.000000,4147.179688,4225.000000,4218.205078,4218.589844,4205.769043,4213.974121,4216.922852,4212.436035,4204.230957,4213.974121,4207.563965,4161.153809,4225.000000,4211.282227,2313.000000,4.000000,82.000000,,,,0.000000,4.000000,4.000000,4.000000,4.000000,4.000000,4.000000,4.000000,4.000000,4.000000,4.000000,4.000000,4.000000,4.000000,4.000000,100.000000,,,,,,,,,,,,,,,,
1645712000.500658,155.000000,0.000000,4143.205078,4230.769043,4216.794922,4217.692383,4213.205078,4216.025879,4217.948730,4214.230957,4205.641113,4216.794922,4208.846191,4157.948730,4223.333496,4214.615234,2667.000000,4.000000,82.000000,,,,0.000000,4.000000,4.000000,4.000000,4.000000,4.000000,4.000000,4.000000,4.000000,4.000000,4.000000,4.000000,4.000000,4.000000,4.000000,100.000000,,,,,,,,,,,,,,,,
1645712000.504598,156.000000,0.000000,4143.846191,4236.666504,4215.000000,4214.487305,4217.563965,4217.436035,4217.820313,4213.333496,4206.410156,4214.743652,4211.538574,4153.974121,4222.692383,4211.794922,3057.000000,4.000000,82.000000,,,,0.000000,4.000000,4.000000,4.000000,4.000000,4.000000,4.000000,4.000000,4.000000,4.000000,4.000000,4.000000,4.000000,4.000000,4.000000,100.000000,,,,,,,,,,,,,,,,
1645712000.508538,157.000000,0.000000,4148.717773,4239.230957,4213.205078,4211.410156,4214.615234,4217.051270,4216.282227,4208.846191,4205.384766,4206.922852,4213.205078,4150.641113,4222.692383,4203.974121,3233.000000,4.000000,82.000000,,,,0.000000,4.000000,4.000000,4.000000,4.000000,4.000000,4.000000,4.000000,4.000000,4.000000,4.000000,4.000000,4.000000,4.000000,4.000000,100.000000,,,,,,,,,,,,,,,,
1645712000.512478,158.000000,0.000000,4152.692383,4239.615234,4213.077148,4212.436035,4208.717773,4217.307617,4215.128418,4204.230957,4203.717773,4199.871582,4214.102539,4150.384766,4224.615234,4197.307617,2313.000000,4.000000,82.000000,,,,0.000000,4.000000,4.000000,4.000000,4.000000,4.000000,4.000000,4.000000,4.000000,4.000000,4.000000,4.000000,4.000000,4.000000,4.000000,100.000000,,,,,,,,,,,,,,,,
1645712000.516418,159.000000,0.000000,4151.794922,4239.871582,4215.512695,4217.563965,4207.051270,4220.512695,4215.384766,4203.205078,4203.205078,4200.512695,4214.487305,4153.333496,4228.717773,4197.179688,2667.000000,4.000000,82.000000,,,,0.000000,4.000000,4.000000,4.000000,4.000000,4.000000,4.000000,4.000000,4.000000,4.000000,4.000000,4.000000,4.000000,4.000000,4.000000,100.000000,,,,,,,,,,,,,,,,
1645712000.520358,160.000000,0.000000,4147.820313,4239.102539,4218.205078,4221.922852,4211.282227,4224.743652,4216.538574,4205.512695,4203.717773,4208.205078,4212.563965,4155.897461,4231.666504,4203.077148,3057.000000,4.000000,82.000000,,,,0.000000,4.000000,4.000000,4.000000,4.000000,4.000000,4.000000,4.000000,4.000000,4.000000,4.000000,4.000000,4.000000,4.000000,4.000000,100.000000,,,,,,,,,,,,,,,,
1645712000.524298,161.000000,0.000000,4145.128418,4235.128418,4218.077148,4220.000000,4217.051270,4225.512695,4216.922852,4207.436035,4203.333496,4215.000000,4206.538574,4154.102539,4229.871582,4209.487305,3233.000000,4.000000,82.000000,,,,0.000000,4.000000,4.000000,4.000000,4.000000,4.000000,4.000000,4.000000,4.000000,4.000000,4.000000,4.000000,4.000000,4.000000,4.000000,100.000000,,,,,,,,,,,,,,,,
1645712000.528239,162.000000,0.000000,4145.128418,4229.358887,4214.871582,4212.563965,4219.358887,4221.794922,4216.153809,4206.794922,4201.666504,4215.256348,4198.974121,4148.461426,4223.589844,4211.025879,2313.000000,4.000000,82.000000,,,,0.000000,4.000000,4.000000,4.000000,4.000000,4.000000,4.000000,4.000000,4.000000,4.000000,4.000000,4.000000,4.000000,4.000000,4.000000,100.000000,,,,,,,,,,,,,,,,
1645712000.532179,163.000000,0.000000,4145.256348,4227.179688,4211.794922,4207.179688,4218.461426,4217.436035,4216.282227,4205.384766,4201.025879,4211.666504,4196.282227,4144.743652,4217.948730,4207.051270,2667.000000,4.000000,82.000000,,,,0.000000,4.000000,4.000000,4.000000,4.000000,4.000000,4.000000,4.000000,4.000000,4.000000,4.000000,4.000000,4.000000,4.000000,4.000000,100.000000,,,,,,,,,,,,,,,,
1645712000.536119,164.000000,0.000000,4142.692383,4232.563965,4211.922852,4209.615234,4216.922852,4216.538574,4217.948730,4206.538574,4203.717773,4210.769043,4201.794922,4148.077148,4217.436035,4200.641113,3057.000000,4.000000,82.000000,,,,0.000000,4.000000,4.000000,4.000000,4.000000,4.000000,4.000000,4.000000,4.000000,4.000000,4.000000,4.000000,4.000000,4.000000,4.000000,100.000000,,,,,,,,,,,,,,,,
1645712000.540059,165.000000,0.000000,4139.487305,4242.436035,4214.743652,4218.077148,4215.769043,4218.717773,4219.615234,4210.897461,4208.974121,4214.871582,4210.128418,4156.922852,4220.897461,4195.897461,3233.000000,4.000000,82.000000,,,,0.000000,4.000000,4.000000,4.000000,4.000000,4.000000,4.000000,4.000000,4.000000,4.000000,4.000000,4.000000,4.000000,4.000000,4.000000,100.000000,,,,,,,,,,,,,,,,
1645712000.543999,166.000000,0.000000,4139.871582,4248.846191,4217.948730,4225.256348,4214.102539,4220.384766,4219.871582,4216.153809,4213.461426,4220.769043,4212.692383,4163.974121,4223.205078,4195.641113,2313.000000,4.000000,82.000000,,,,0.000000,4.000000,4.000000,4.000000,4.000000,4.000000,4.000000,4.000000,4.000000,4.000000,4.000000,4.000000,4.000000,4.000000,4.000000,100.000000,,,,,,,,,,,,,,,,
1645712000.547939,167.000000,0.000000,4144.230957,4247.692383,4220.128418,4227.051270,4212.820313,4219.615234,4219.487305,4220.897461,4215.384766,4224.615234,4207.179688,4164.102539,4222.051270,4201.025879,2667.000000,4.000000,82.000000,,,,0.000000,4.000000,4.000000,4.000000,4.000000,4.000000,4.000000,4.000000,4.000000,4.000000,4.000000,4.000000,4.000000,4.000000,4.000000,100.000000,,,,,,,,,,,,,,,,
1645712000.551879,168.000000,0.000000,4147.948730,4242.692383,4222.179688,4226.025879,4214.487305,4218.589844,4220.897461,4226.282227,4216.153809,4227.307617,4201.153809,4158.974121,4220.256348,4210.000000,3057.000000,4.000000,82.000000,,,,0.000000,4.000000,4.000000,4.000000,4.000000,4.000000,4.000000,4.000000,4.000000,4.000000,4.000000,4.000000,4.000000,4.000000,4.000000,100.000000,,,,,,,,,,,,,,,,
1645712000.555819,169.000000,0.000000,4146.922852,4240.256348,4225.256348,4227.051270,4220.256348,4220.000000,4224.615234,4233.589844,4218.589844,4230.384766,4204.102539,4153.974121,4221.794922,4217.051270,3233.000000,4.000000,82.000000,,,,0.000000,4.000000,4.000000,4.000000,4.000000,4.000000,4.000000,4.000000,4.000000,4.000000,4.000000,4.000000,4.000000,4.000000,4.000000,100.000000,,,,,,,,,,,,,,,,
1645712000.559759,170.000000,0.000000,4143.077148,4241.922852,4228.205078,4230.128418,4226.025879,4222.436035,4228.333496,4241.153809,4222.692383,4232.692383,4216.282227,4153.077148,4226.666504,4216.666504,2313.000000,4.000000,82.000000,,,,0.000000,4.000000,4.000000,4.000000,4.000000,4.000000,4.000000,4.000000,4.000000,4.000000,4.000000,4.000000,4.000000,4.000000,4.000000,100.000000,,,,,,,,,,,,,,,,
1645712000.563799,171.000000,0.000000,4142.692383,4243.205078,4229.230957,4231.282227,4226.025879,4222.307617,4228.717773,4245.128418,4225.769043,4230.769043,4229.230957,4155.512695,4231.153809,4209.102539,2667.000000,4.000000,82.000000,,,,0.000000,4.000000,4.000000,4.000000,4.000000,4.000000,4.000000,4.000000,4.000000,4.000000,4.000000,4.000000,4.000000,4.000000,4.000000,100.000000,,,,,,,,,,,,,,,,
1645712000.567740,172.000000,0.000000,4147.820313,4240.256348,4227.436035,4228.589844,4219.230957,4218.461426,4225.641113,4244.358887,4225.128418,4224.743652,4234.230957,4159.487305,4232.692383,4200.512695,3057.000000,4.000000,82.000000,,,,0.000000,4.000000,4.000000,4.000000,4.000000,4.000000,4.000000,4.000000,4.000000,4.000000,4.000000,4.000000,4.000000,4.000000,4.000000,100.000000,,,,,,,,,,,,,,,,
1645712000.571680,173.000000,0.000000,4153.717773,4235.000000,4224.615234,4224.871582,4211.666504,4214.743652,4222.436035,4241.794922,4221.794922,4220.128418,4230.769043,4163.974121,4232.436035,4198.333496,3233.000000,4.000000,82.000000,,,,0.000000,4.000000,4.000000,4.000000,4.000000,4.000000,4.000000,4.000000,4.000000,4.000000,4.000000,4.000000,4.000000,4.000000,4.000000,100.000000,,,,,,,,,,,,,,,,
1645712000.575620,174.000000,0.000000,4154.487305,4232.948730,4223.205078,4223.846191,4209.743652,4214.871582,4221.410156,4241.410156,4219.743652,4221.538574,4225.897461,4168.589844,4232.820313,4203.974121,2313.000000,4.000000,82.000000,,,,0.000000,4.000000,4.000000,4.000000,4.000000,4.000000,4.000000,4.000000,4.000000,4.000000,4.000000,4.000000,4.000000,4.000000,4.000000,100.000000,,,,,,,,,,,,,,,,
1645712000.579560,175.000000,0.000000,4150.641113,4236.538574,4223.846191,4225.512695,4212.948730,4217.563965,4221.794922,4243.846191,4221.153809,4227.948730,4224.615234,4171.282227,4233.846191,4212.179688,2667.000000,4.000000,82.000000,,,,0.000000,4.000000,4.000000,4.000000,4.000000,4.000000,4.000000,4.000000,4.000000,4.000000,4.000000,4.000000,4.000000,4.000000,4.000000,100.000000,,,,,,,,,,,,,,,,
1645712000.583500,176.000000,0.000000,4148.205078,4242.563965,4224.871582,4226.025879,4215.000000,4218.589844,4221.410156,4246.025879,4224.358887,4232.948730,4225.256348,4170.000000,4233.205078,4216.922852,3057.000000,4.000000,82.000000,,,,0.000000,4.000000,4.000000,4.000000,4.000000,4.000000,4.000000,4.000000,4.000000,4.000000,4.000000,4.000000,4.000000,4.000000,4.000000,100.000000,,,,,,,,,,,,,,,,
1645712000.587440,177.000000,0.000000,4151.153809,4245.641113,4225.384766,4223.717773,4211.410156,4216.025879,4219.358887,4245.384766,4226.538574,4232.563965,4223.461426,4165.897461,4229.743652,4217.179688,3233.000000,4.000000,82.000000,,,,0.000000,4.000000,4.000000,4.000000,4.000000,4.000000,4.000000,4.000000,4.000000,4.000000,4.000000,4.000000,4.000000,4.000000,4.000000,100.000000,,,,,,,,,,,,,,,,
1645712000.591380,178.000000,0.000000,4156.153809,4243.717773,4226.282227,4221.282227,4205.512695,4213.333496,4217.820313,4242.436035,4226.538574,4228.974121,4218.205078,4163.205078,4225.256348,4215.769043,2313.000000,4.000000,82.000000,,,,0.000000,4.000000,4.000000,4.000000,4.000000,4.000000,4.000000,4.000000,4.000000,4.000000,4.000000,4.000000,4.000000,4.000000,4.000000,100.000000,,,,,,,,,,,,,,,,
1645712000.595420,179.000000,0.000000,4157.948730,4238.589844,4228.205078,4222.692383,4203.717773,4214.743652,4218.461426,4238.974121,4224.358887,4226.538574,4212.307617,4164.615234,4223.077148,4214.615234,2667.000000,4.000000,82.000000,,,,0.000000,4.000000,4.000000,4.000000,4.000000,4.000000,4.000000,4.000000,4.000000,4.000000,4.000000,4.000000,4.000000,4.000000,4.000000,100.000000,,,,,,,,,,,,,,,,
1645712000.599360,180.000000,0.000000,4155.128418,4233.333496,4229.230957,4226.922852,4206.538574,4218.717773,4219.358887,4234.871582,4220.000000,4224.871582,4208.589844,4166.922852,4223.717773,4212.948730,3057.000000,4.000000,82.000000,,,,0.000000,4.000000,4.000000,4.000000,4.000000,4.000000,4.000000,4.000000,4.000000,4.000000,4.000000,4.000000,4.000000,4.000000,4.000000,100.000000,,,,,,,,,,,,,,,,
1645712000.603300,181.000000,0.000000,4152.563965,4228.846191,4226.410156,4228.589844,4208.333496,4219.743652,4216.922852,4228.333496,4212.820313,4219.615234,4206.282227,4163.974121,4224.615234,4209.358887,3233.000000,4.000000,82.000000,,,,0.000000,4.000000,4.000000,4.000000,4.000000,4.000000,4.000000,4.000000,4.000000,4.000000,4.000000,4.000000,4.000000,4.000000,4.000000,100.000000,,,,,,,,,,,,,,,,
1645712000.607240,182.000000,0.000000,4154.615234,4225.769043,4219.615234,4224.102539,4205.897461,4214.871582,4211.025879,4219.615234,4204.487305,4208.846191,4204.487305,4153.974121,4223.461426,4205.769043,2313.000000,4.000000,82.000000,,,,0.000000,4.000000,4.000000,4.000000,4.000000,4.000000,4.000000,4.000000,4.000000,4.000000,4.000000,4.000000,4.000000,4.000000,4.000000,100.000000,,,,,,,,,,,,,,,,
1645712000.611181,183.000000,0.000000,4160.256348,4225.256348,4212.948730,4216.282227,4202.820313,4208.077148,4205.256348,4212.179688,4199.102539,4198.077148,4204.358887,4142.436035,4221.410156,4205.000000,2667.000000,4.000000,82.000000,,,,0.000000,4.000000,4.000000,4.000000,4.000000,4.000000,4.000000,4.000000,4.000000,4.000000,4.000000,4.000000,4.000000,4.000000,4.000000,100.000000,,,,,,,,,,,,,,,,
1645712000.615121,184.000000,0.000000,4165.512695,4227.563965,4210.769043,4212.051270,4204.871582,4206.410156,4203.846191,4209.615234,4200.128418,4195.256348,4207.820313,4137.307617,4221.153809,4207.179688,3057.000000,4.000000,82.000000,,,,0.000000,4.000000,4.000000,4.000000,4.000000,4.000000,4.000000,4.000000,4.000000,4.000000,4.000000,4.000000,4.000000,4.000000,4.000000,100.000000,,,,,,,,,,,,,,,,
1645712000.619061,185.000000,0.000000,4168.846191,4230.641113,4213.077148,4214.487305,4211.153809,4211.666504,4206.794922,4211.538574,4206.025879,4202.307617,4213.717773,4141.153809,4223.846191,4209.615234,3233.000000,4.000000,82.000000,,,,0.000000,4.000000,4.000000,4.000000,4.000000,4.000000,4.000000,4.000000,4.000000,4.000000,4.000000,4.000000,4.000000,4.000000,4.000000,100.000000,,,,,,,,,,,,,,,,
1645712000.623001,186.000000,0.000000,4172.948730,4231.025879,4215.897461,4220.384766,4214.102539,4218.333496,4210.384766,4213.846191,4211.538574,4212.692383,4217.820313,4148.717773,4227.051270,4209.230957,2313.000000,4.000000,82.000000,,,,0.000000,4.000000,4.000000,4.000000,4.000000,4.000000,4.000000,4.000000,4.000000,4.000000,4.000000,4.000000,4.000000,4.000000,4.000000,100.000000,,,,,,,,,,,,,,,,
1645712000.626941,187.000000,0.000000,4179.871582,4228.717773,4215.512695,4223.717773,4208.846191,4220.641113,4211.666504,4213.974121,4212.436035,4218.589844,4217.563965,4153.717773,4228.333496,4206.282227,2667.000000,4.000000,82.000000,,,,0.000000,4.000000,4.000000,4.000000,4.000000,4.000000,4.000000,4.000000,4.000000,4.000000,4.000000,4.000000,4.000000,4.000000,4.000000,100.000000,,,,,,,,,,,,,,,,
1645712000.630881,188.000000,0.000000,4187.307617,4227.692383,4212.820313,4223.205078,4200.000000,4218.589844,4211.282227,4212.948730,4209.743652,4218.974121,4215.512695,4154.487305,4228.333496,4203.717773,3057.000000,4.000000,82.000000,,,,0.000000,4.000000,4.000000,4.000000,4.000000,4.000000,4.000000,4.000000,4.000000,4.000000,4.000000,4.000000,4.000000,4.000000,4.000000,100.000000,,,,,,,,,,,,,,,,
1645712000.634821,189.000000,0.000000,4191.025879,4231.538574,4211.153809,4222.436035,4197.307617,4216.410156,4211.666504,4214.871582,4208.333496,4219.615234,4216.153809,4154.487305,4229.358887,4203.846191,3233.000000,4.000000,82.000000,,,,0.000000,4.000000,4.000000,4.000000,4.000000,4.000000,4.000000,4.000000,4.000000,4.000000,4.000000,4.000000,4.000000,4.000000,4.000000,100.000000,,,,,,,,,,,,,,,,
1645712000.638761,190.000000,0.000000,4190.256348,4238.333496,4212.563965,4223.846191,4204.615234,4217.307617,4213.205078,4220.512695,4211.282227,4225.512695,4220.641113,4156.410156,4232.051270,4206.153809,2313.000000,4.000000,82.000000,,,,0.000000,4.000000,4.000000,4.000000,4.000000,4.000000,4.000000,4.000000,4.000000,4.000000,4.000000,4.000000,4.000000,4.000000,4.000000,100.000000,,,,,,,,,,,,,,,,
1645712000.642701,191.000000,0.000000,4188.077148,4241.922852,4215.128418,4224.358887,4215.384766,4219.230957,4214.358887,4226.153809,4217.051270,4233.974121,4224.230957,4158.589844,4233.333496,4208.333496,2667.000000,4.000000,82.000000,,,,0.000000,4.000000,4.000000,4.000000,4.000000,4.000000,4.000000,4.000000,4.000000,4.000000,4.000000,4.000000,4.000000,4.000000,4.000000,100.000000,,,,,,,,,,,,,,,,
1645712000.646642,192.000000,0.000000,4187.436035,4238.333496,4215.512695,4219.358887,4220.256348,4219.871582,4214.102539,4227.563965,4221.025879,4238.461426,4222.436035,4158.077148,4230.512695,4208.461426,3057.000000,4.000000,82.000000,,,,0.000000,4.000000,4.000000,4.000000,4.000000,4.000000,4.000000,4.000000,4.000000,4.000000,4.000000,4.000000,4.000000,4.000000,4.000000,100.000000,,,,,,,,,,,,,,,,
1645712000.650582,193.000000,0.000000,4187.307617,4230.512695,4213.717773,4209.230957,4217.307617,4219.487305,4213.974121,4224.871582,4221.282227,4236.025879,4216.410156,4153.974121,4225.128418,4207.179688,3233.000000,4.000000,82.000000,,,,0.000000,4.000000,4.000000,4.000000,4.000000,4.000000,4.000000,4.000000,4.000000,4.000000,4.000000,4.000000,4.000000,4.000000,4.000000,100.000000,,,,,,,,,,,,,,,,
1645712000.654522,194.000000,0.000000,4184.743652,4225.128418,4211.922852,4200.128418,4212.692383,4220.897461,4215.769043,4221.025879,4218.846191,4229.615234,4211.666504,4149.230957,4222.179688,4205.769043,2313.000000,4.000000,82.000000,,,,0.000000,4.000000,4.000000,4.000000,4.000000,4.000000,4.000000,4.000000,4.000000,4.000000,4.000000,4.000000,4.000000,4.000000,4.000000,100.000000,,,,,,,,,,,,,,,,
1645712000.658462,195.000000,0.000000,4179.487305,4224.871582,4211.538574,4197.436035,4211.282227,4224.358887,4219.230957,4218.077148,4215.256348,4223.205078,4210.769043,4145.641113,4223.589844,4204.743652,2667.000000,4.000000,82.000000,,,,0.000000,4.000000,4.000000,4.000000,4.000000,4.000000,4.000000,4.000000,4.000000,4.000000,4.000000,4.000000,4.000000,4.000000,4.000000,100.000000,,,,,,,,,,,,,,,,
1645712000.662502,196.000000,0.000000,4175.000000,4226.538574,4210.641113,4200.128418,4211.410156,4226.538574,4221.538574,4215.128418,4211.025879,4217.179688,4210.769043,4142.820313,4226.282227,4203.461426,3057.000000,4.000000,82.000000,,,,0.000000,4.000000,4.000000,4.000000,4.000000,4.000000,4.000000,4.000000,4.000000,4.000000,4.000000,4.000000,4.000000,4.000000,4.000000,100.000000,,,,,,,,,,,,,,,,
1645712000.666442,197.000000,0.000000,4173.974121,4225.641113,4207.307617,4202.692383,4208.205078,4224.615234,4220.641113,4210.897461,4206.538574,4210.000000,4207.692383,4139.358887,4225.256348,4201.666504,3233.000000,4.000000,82.000000,,,,0.000000,4.000000,4.000000,4.000000,4.000000,4.000000,4.000000,4.000000,4.000000,4.000000,4.000000,4.000000,4.000000,4.000000,4.000000,100.000000,,,,,,,,,,,,,,,,
1645712000.670382,198.000000,0.000000,4175.000000,4222.820313,4202.179688,4203.077148,4202.563965,4220.769043,4218.589844,4206.794922,4203.589844,4203.589844,4202.563965,4136.666504,4220.256348,4199.743652,2313.000000,4.000000,82.000000,,,,0.000000,4.000000,4.000000,4.000000,4.000000,4.000000,4.000000,4.000000,4.000000,4.000000,4.000000,4.000000,4.000000,4.000000,4.000000,100.000000,,,,,,,,,,,,,,,,
1645712000.674322,199.000000,0.000000,4174.743652,4222.563965,4198.974121,4203.846191,4199.743652,4219.487305,4218.077148,4206.025879,4204.102539,4202.820313,4201.153809,4137.307617,4216.410156,4198.717773,2667.000000,4.000000,82.000000,,,,0.000000,4.000000,4.000000,4.000000,4.000000,4.000000,4.000000,4.000000,4.000000,4.000000,4.000000,4.000000,4.000000,4.000000,4.000000,100.000000,,,,,,,,,,,,,,,,
1645712000.678262,200.000000,0.000000,4172.948730,4227.051270,4200.256348,4208.205078,4203.333496,4222.436035,4219.743652,4208.974121,4207.307617,4209.230957,4205.897461,4141.538574,4218.846191,4200.000000,3057.000000,4.000000,82.000000,,,,0.000000,4.000000,4.000000,4.000000,4.000000,4.000000,4.000000,4.000000,4.000000,4.000000,4.000000,4.000000,4.000000,4.000000,4.000000,100.000000,,,,,,,,,,,,,,,,
1645712000.682202,201.000000,0.000000,4172.948730,4232.692383,4204.615234,4214.743652,4209.871582,4225.769043,4221.025879,4212.051270,4209.871582,4218.077148,4212.948730,4146.025879,4226.410156,4203.077148,3233.000000,4.000000,82.000000,,,,0.000000,4.000000,4.000000,4.000000,4.000000,4.000000,4.000000,4.000000,4.000000,4.000000,4.000000,4.000000,4.000000,4.000000,4.000000,100.000000,,,,,,,,,,,,,,,,
1645712000.686142,202.000000,0.000000,4177.179688,4233.589844,4208.461426,4218.846191,4213.589844,4225.384766,4219.871582,4211.538574,4209.102539,4222.307617,4216.153809,4146.794922,4233.205078,4206.538574,2313.000000,4.000000,82.000000,,,,0.000000,4.000000,4.000000,4.000000,4.000000,4.000000,4.000000,4.000000,4.000000,4.000000,4.000000,4.000000,4.000000,4.000000,4.000000,100.000000,,,,,,,,,,,,,,,,
1645712000.690083,203.000000,0.000000,4182.948730,4229.102539,4209.871582,4217.436035,4212.948730,4221.282227,4217.436035,4207.692383,4206.153809,4220.384766,4213.974121,4144.358887,4234.743652,4208.205078,2667.000000,4.000000,82.000000,,,,0.000000,4.000000,4.000000,4.000000,4.000000,4.000000,4.000000,4.000000,4.000000,4.000000,4.000000,4.000000,4.000000,4.000000,4.000000,100.000000,,,,,,,,,,,,,,,,
1645712000.694023,204.000000,0.000000,4185.000000,4224.871582,4209.871582,4212.436035,4212.051270,4217.820313,4216.538574,4204.743652,4205.256348,4217.307617,4211.282227,4143.589844,4232.051270,4207.307617,3057.000000,4.000000,82.000000,,,,0.000000,4.000000,4.000000,4.000000,4.000000,4.000000,4.000000,4.000000,4.000000,4.000000,4.000000,4.000000,4.000000,4.000000,4.000000,100.000000,,,,,,,,,,,,,,,,
1645712000.697963,205.000000,0.000000,4181.922852,4225.897461,4210.769043,4208.205078,4213.333496,4217.820313,4217.948730,4205.897461,4208.461426,4218.461426,4212.820313,4147.948730,4229.230957,4203.974121,3233.000000,4.000000,82.000000,,,,0.000000,4.000000,4.000000,4.000000,4.000000,4.000000,4.000000,4.000000,4.000000,4.000000,4.000000,4.000000,4.000000,4.000000,4.000000,100.000000,,,,,,,,,,,,,,,,
1645712000.701903,206.000000,0.000000,4178.205078,4230.384766,4213.717773,4207.179688,4215.000000,4220.256348,4220.384766,4210.000000,4213.974121,4222.820313,4217.948730,4155.512695,4228.717773,4199.871582,2313.000000,4.000000,82.000000,,,,0.000000,4.000000,4.000000,4.000000,4.000000,4.000000,4.000000,4.000000,4.000000,4.000000,4.000000,4.000000,4.000000,4.000000,4.000000,100.000000,,,,,,,,,,,,,,,,
1645712000.705843,207.000000,0.000000,4178.846191,4233.333496,4217.307617,4209.487305,4213.461426,4221.922852,4221.794922,4213.205078,4217.563965,4226.025879,4222.307617,4161.282227,4230.384766,4197.563965,2667.000000,4.000000,82.000000,,,,0.000000,4.000000,4.000000,4.000000,4.000000,4.000000,4.000000,4.000000,4.000000,4.000000,4.000000,4.000000,4.000000,4.000000,4.000000,100.000000,,,,,,,,,,,,,,,,
