title:Alex-d8G6i2Rgc5V9aMOib35xEA, start timestamp:1645708005.065617, stop timestamp:1645708031.448203, headset type:EPOCPLUS, headset serial:3B9AEBFF, headset firmware:626, channels:55, sampling rate:eeg_256, samples:6697      , version:2.1, 
Timestamp,OriginalTimestamp,EEG.Counter,EEG.Interpolated,EEG.AF3,EEG.F7,EEG.F3,EEG.FC5,EEG.T7,EEG.P7,EEG.O1,EEG.O2,EEG.P8,EEG.T8,EEG.FC6,EEG.F4,EEG.F8,EEG.AF4,EEG.RawCq,EEG.Battery,EEG.BatteryPercent,MarkerIndex,MarkerType,MarkerValueInt,EEG.MarkerHardware,CQ.AF3,CQ.F7,CQ.F3,CQ.FC5,CQ.T7,CQ.P7,CQ.O1,CQ.O2,CQ.P8,CQ.T8,CQ.FC6,CQ.F4,CQ.F8,CQ.AF4,CQ.Overall,EQ.SampleRateQuality,EQ.OVERALL,EQ.AF3,EQ.F7,EQ.F3,EQ.FC5,EQ.T7,EQ.P7,EQ.O1,EQ.O2,EQ.P8,EQ.T8,EQ.FC6,EQ.F4,EQ.F8,EQ.AF4
1645708005.065617,1645708005.066556,116.000000,0.000000,4179.615234,4146.410156,4188.077148,4146.153809,4161.025879,4195.128418,4214.102539,4205.512695,4199.230957,4151.794922,4154.871582,4117.179688,4181.282227,4054.358887,0.000000,4.000000,95.000000,,,,0.000000,4.000000,4.000000,4.000000,4.000000,4.000000,4.000000,4.000000,4.000000,4.000000,4.000000,4.000000,4.000000,4.000000,4.000000,100.000000,,,,,,,,,,,,,,,,
1645708005.069558,1645708005.070396,117.000000,0.000000,4176.025879,4144.230957,4186.666504,4145.769043,4172.692383,4201.153809,4215.769043,4208.717773,4201.666504,4156.538574,4160.384766,4116.666504,4182.692383,4055.384521,0.000000,4.000000,95.000000,,,,0.000000,4.000000,4.000000,4.000000,4.000000,4.000000,4.000000,4.000000,4.000000,4.000000,4.000000,4.000000,4.000000,4.000000,4.000000,100.000000,,,,,,,,,,,,,,,,
1645708005.073498,1645708005.074336,118.000000,0.000000,4175.769043,4144.102539,4184.487305,4145.384766,4180.384766,4205.256348,4215.384766,4211.922852,4204.230957,4160.000000,4166.153809,4117.563965,4186.666504,4057.435791,0.000000,4.000000,95.000000,,,,0.000000,4.000000,4.000000,4.000000,4.000000,4.000000,4.000000,4.000000,4.000000,4.000000,4.000000,4.000000,4.000000,4.000000,4.000000,100.000000,,,,,,,,,,,,,,,,
1645708005.077438,1645708005.078276,119.000000,0.000000,4177.307617,4144.871582,4181.666504,4142.436035,4176.922852,4203.589844,4212.563965,4212.179688,4205.256348,4159.871582,4167.692383,4118.205078,4190.128418,4057.820557,0.000000,4.000000,95.000000,,,,0.000000,4.000000,4.000000,4.000000,4.000000,4.000000,4.000000,4.000000,4.000000,4.000000,4.000000,4.000000,4.000000,4.000000,4.000000,100.000000,,,,,,,,,,,,,,,,
1645708005.081378,1645708005.082216,120.000000,0.000000,4178.461426,4145.000000,4178.846191,4136.410156,4164.615234,4197.563965,4209.102539,4209.871582,4203.846191,4156.282227,4163.205078,4116.922852,4191.153809,4055.384521,0.000000,4.000000,95.000000,,,,0.000000,4.000000,4.000000,4.000000,4.000000,4.000000,4.000000,4.000000,4.000000,4.000000,4.000000,4.000000,4.000000,4.000000,4.000000,100.000000,,,,,,,,,,,,,,,,
1645708005.085318,1645708005.086156,121.000000,0.000000,4178.461426,4144.358887,4177.307617,4130.384766,4153.461426,4192.820313,4207.436035,4207.563965,4201.025879,4151.794922,4156.025879,4113.974121,4189.871582,4052.051270,0.000000,4.000000,95.000000,,,,0.000000,4.000000,4.000000,4.000000,4.000000,4.000000,4.000000,4.000000,4.000000,4.000000,4.000000,4.000000,4.000000,4.000000,4.000000,100.000000,,,,,,,,,,,,,,,,
1645708005.089258,1645708005.090096,122.000000,0.000000,4178.589844,4143.974121,4178.461426,4128.589844,4153.461426,4193.589844,4209.230957,4208.077148,4199.487305,4149.358887,4151.666504,4111.794922,4187.820313,4051.281982,0.000000,4.000000,95.000000,,,,0.000000,4.000000,4.000000,4.000000,4.000000,4.000000,4.000000,4.000000,4.000000,4.000000,4.000000,4.000000,4.000000,4.000000,4.000000,100.000000,,,,,,,,,,,,,,,,
1645708005.093198,1645708005.094036,123.000000,0.000000,4180.384766,4145.256348,4182.307617,4133.205078,4166.538574,4199.743652,4214.358887,4212.179688,4201.025879,4149.102539,4153.717773,4113.077148,4187.179688,4055.128174,0.000000,4.000000,95.000000,,,,0.000000,4.000000,4.000000,4.000000,4.000000,4.000000,4.000000,4.000000,4.000000,4.000000,4.000000,4.000000,4.000000,4.000000,4.000000,100.000000,,,,,,,,,,,,,,,,
1645708005.097138,1645708005.097976,124.000000,0.000000,4183.974121,4147.820313,4186.922852,4142.307617,4183.333496,4206.410156,4220.256348,4217.563965,4204.358887,4149.102539,4160.512695,4117.948730,4188.589844,4061.923096,0.000000,4.000000,95.000000,,,,0.000000,4.000000,4.000000,4.000000,4.000000,4.000000,4.000000,4.000000,4.000000,4.000000,4.000000,4.000000,4.000000,4.000000,4.000000,100.000000,,,,,,,,,,,,,,,,
1645708005.101078,1645708005.101917,125.000000,0.000000,4187.051270,4149.743652,4189.230957,4150.897461,4191.666504,4208.717773,4223.589844,4221.025879,4206.922852,4147.563965,4167.179688,4122.692383,4190.512695,4067.564209,0.000000,4.000000,95.000000,,,,0.000000,4.000000,4.000000,4.000000,4.000000,4.000000,4.000000,4.000000,4.000000,4.000000,4.000000,4.000000,4.000000,4.000000,4.000000,100.000000,,,,,,,,,,,,,,,,
1645708005.105018,1645708005.105857,126.000000,0.000000,4187.051270,4149.102539,4187.820313,4154.743652,4186.410156,4205.512695,4222.563965,4220.769043,4207.051270,4144.743652,4169.487305,4123.461426,4190.256348,4068.461426,0.000000,4.000000,95.000000,,,,0.000000,4.000000,4.000000,4.000000,4.000000,4.000000,4.000000,4.000000,4.000000,4.000000,4.000000,4.000000,4.000000,4.000000,4.000000,100.000000,,,,,,,,,,,,,,,,
1645708005.108958,1645708005.109797,127.000000,0.000000,4184.230957,4146.282227,4184.230957,4153.461426,4173.333496,4199.615234,4217.948730,4218.205078,4205.512695,4142.563965,4166.025879,4119.615234,4187.820313,4064.743652,0.000000,4.000000,95.000000,,,,0.000000,4.000000,4.000000,4.000000,4.000000,4.000000,4.000000,4.000000,4.000000,4.000000,4.000000,4.000000,4.000000,4.000000,4.000000,100.000000,,,,,,,,,,,,,,,,
1645708005.112898,1645708005.113737,128.000000,0.000000,4181.282227,4143.205078,4182.563965,4149.871582,4163.205078,4194.871582,4212.948730,4216.153809,4204.487305,4143.333496,4158.717773,4114.487305,4186.410156,4060.384521,3257.000000,4.000000,95.000000,,,,0.000000,4.000000,4.000000,4.000000,4.000000,4.000000,4.000000,4.000000,4.000000,4.000000,4.000000,4.000000,4.000000,4.000000,4.000000,100.000000,,,,,,,,,,,,,,,,
1645708005.116838,1645708005.117677,129.000000,0.000000,4180.512695,4141.922852,4185.897461,4147.436035,4161.410156,4193.461426,4210.769043,4216.538574,4205.256348,4147.948730,4151.538574,4112.948730,4188.077148,4060.128174,3421.000000,4.000000,95.000000,,,,0.000000,4.000000,4.000000,4.000000,4.000000,4.000000,4.000000,4.000000,4.000000,4.000000,4.000000,4.000000,4.000000,4.000000,4.000000,100.000000,,,,,,,,,,,,,,,,
1645708005.120778,1645708005.121617,130.000000,0.000000,4182.179688,4143.205078,4192.692383,4148.077148,4165.769043,4194.743652,4212.563965,4218.461426,4206.922852,4155.384766,4148.974121,4116.666504,4192.436035,4064.871826,3510.000000,4.000000,95.000000,,,,0.000000,4.000000,4.000000,4.000000,4.000000,4.000000,4.000000,4.000000,4.000000,4.000000,4.000000,4.000000,4.000000,4.000000,4.000000,100.000000,,,,,,,,,,,,,,,,
1645708005.124718,1645708005.125557,131.000000,0.000000,4185.512695,4146.410156,4199.230957,4151.025879,4170.384766,4197.307617,4216.410156,4219.743652,4207.692383,4163.461426,4153.461426,4123.461426,4196.282227,4071.794922,3511.000000,4.000000,95.000000,,,,0.000000,4.000000,4.000000,4.000000,4.000000,4.000000,4.000000,4.000000,4.000000,4.000000,4.000000,4.000000,4.000000,4.000000,4.000000,100.000000,,,,,,,,,,,,,,,,
1645708005.128658,1645708005.129497,132.000000,0.000000,4189.358887,4150.000000,4202.563965,4154.230957,4172.563965,4200.769043,4219.102539,4219.615234,4207.179688,4169.358887,4163.461426,4129.230957,4197.436035,4076.025635,3278.000000,4.000000,95.000000,,,,0.000000,4.000000,4.000000,4.000000,4.000000,4.000000,4.000000,4.000000,4.000000,4.000000,4.000000,4.000000,4.000000,4.000000,4.000000,100.000000,,,,,,,,,,,,,,,,
1645708005.132598,1645708005.133437,133.000000,0.000000,4192.948730,4152.307617,4203.077148,4155.769043,4173.846191,4204.487305,4219.615234,4219.743652,4206.666504,4170.512695,4174.230957,4130.641113,4196.153809,4075.000000,3436.000000,4.000000,95.000000,,,,0.000000,4.000000,4.000000,4.000000,4.000000,4.000000,4.000000,4.000000,4.000000,4.000000,4.000000,4.000000,4.000000,4.000000,4.000000,100.000000,,,,,,,,,,,,,,,,
1645708005.136538,1645708005.137378,134.000000,0.000000,4195.000000,4151.794922,4202.948730,4155.000000,4177.692383,4207.692383,4219.230957,4222.563965,4207.692383,4166.153809,4180.000000,4127.820313,4194.230957,4069.358887,2848.000000,4.000000,95.000000,,,,0.000000,4.000000,4.000000,4.000000,4.000000,4.000000,4.000000,4.000000,4.000000,4.000000,4.000000,4.000000,4.000000,4.000000,4.000000,100.000000,,,,,,,,,,,,,,,,
1645708005.140478,1645708005.141218,135.000000,0.000000,4194.615234,4148.461426,4203.205078,4152.307617,4184.487305,4209.230957,4220.512695,4227.563965,4210.512695,4159.615234,4178.717773,4123.461426,4193.077148,4062.051270,2849.000000,4.000000,95.000000,,,,0.000000,4.000000,4.000000,4.000000,4.000000,4.000000,4.000000,4.000000,4.000000,4.000000,4.000000,4.000000,4.000000,4.000000,4.000000,100.000000,,,,,,,,,,,,,,,,
1645708005.144419,1645708005.145158,136.000000,0.000000,4192.179688,4144.102539,4202.820313,4148.846191,4191.153809,4209.358887,4223.589844,4231.794922,4213.461426,4156.025879,4172.307617,4120.128418,4192.820313,4056.153809,1481.000000,4.000000,95.000000,,,,0.000000,4.000000,4.000000,4.000000,4.000000,4.000000,4.000000,4.000000,4.000000,4.000000,4.000000,4.000000,4.000000,4.000000,4.000000,100.000000,,,,,,,,,,,,,,,,
1645708005.148358,1645708005.149098,137.000000,0.000000,4188.461426,4141.410156,4200.256348,4145.641113,4193.974121,4209.487305,4226.282227,4232.051270,4214.102539,4157.436035,4164.358887,4118.077148,4192.692383,4053.076904,3339.000000,4.000000,95.000000,,,,0.000000,4.000000,4.000000,4.000000,4.000000,4.000000,4.000000,4.000000,4.000000,4.000000,4.000000,4.000000,4.000000,4.000000,4.000000,100.000000,,,,,,,,,,,,,,,,
1645708005.152299,1645708005.153038,138.000000,0.000000,4184.871582,4141.282227,4195.512695,4143.589844,4191.025879,4210.641113,4226.410156,4227.563965,4211.666504,4160.256348,4157.820313,4115.512695,4191.410156,4052.179443,2708.000000,4.000000,95.000000,,,,0.000000,4.000000,4.000000,4.000000,4.000000,4.000000,4.000000,4.000000,4.000000,4.000000,4.000000,4.000000,4.000000,4.000000,4.000000,100.000000,,,,,,,,,,,,,,,,
1645708005.156239,1645708005.156978,139.000000,0.000000,4182.563965,4142.692383,4190.256348,4143.717773,4184.487305,4211.922852,4223.974121,4220.256348,4206.666504,4158.589844,4152.820313,4111.794922,4188.205078,4051.538574,3259.000000,4.000000,95.000000,,,,0.000000,4.000000,4.000000,4.000000,4.000000,4.000000,4.000000,4.000000,4.000000,4.000000,4.000000,4.000000,4.000000,4.000000,4.000000,100.000000,,,,,,,,,,,,,,,,
1645708005.160179,1645708005.160918,140.000000,0.000000,4181.794922,4143.717773,4187.051270,4145.641113,4178.846191,4211.666504,4220.897461,4213.461426,4201.282227,4151.025879,4149.358887,4107.820313,4183.717773,4050.000000,3453.000000,4.000000,95.000000,,,,0.000000,4.000000,4.000000,4.000000,4.000000,4.000000,4.000000,4.000000,4.000000,4.000000,4.000000,4.000000,4.000000,4.000000,4.000000,100.000000,,,,,,,,,,,,,,,,
1645708005.164119,1645708005.164858,141.000000,0.000000,4181.794922,4143.717773,4186.410156,4148.077148,4178.205078,4210.000000,4219.102539,4209.487305,4197.563965,4141.794922,4148.077148,4105.512695,4179.487305,4047.820557,3296.000000,4.000000,95.000000,,,,0.000000,4.000000,4.000000,4.000000,4.000000,4.000000,4.000000,4.000000,4.000000,4.000000,4.000000,4.000000,4.000000,4.000000,4.000000,100.000000,,,,,,,,,,,,,,,,
1645708005.168059,1645708005.168798,142.000000,0.000000,4181.025879,4142.692383,4187.436035,4148.974121,4182.179688,4208.077148,4219.102539,4208.974121,4197.179688,4136.538574,4149.230957,4105.641113,4176.794922,4046.153809,2708.000000,4.000000,95.000000,,,,0.000000,4.000000,4.000000,4.000000,4.000000,4.000000,4.000000,4.000000,4.000000,4.000000,4.000000,4.000000,4.000000,4.000000,4.000000,100.000000,,,,,,,,,,,,,,,,
1645708005.171999,1645708005.172739,143.000000,0.000000,4178.461426,4141.153809,4187.820313,4147.179688,4185.512695,4206.922852,4220.512695,4210.897461,4199.871582,4137.179688,4151.153809,4106.666504,4175.128418,4045.128174,3259.000000,4.000000,95.000000,,,,0.000000,4.000000,4.000000,4.000000,4.000000,4.000000,4.000000,4.000000,4.000000,4.000000,4.000000,4.000000,4.000000,4.000000,4.000000,100.000000,,,,,,,,,,,,,,,,
1645708005.175939,1645708005.176679,144.000000,0.000000,4174.615234,4139.487305,4187.051270,4143.974121,4183.077148,4206.538574,4221.794922,4214.358887,4204.358887,4140.769043,4151.666504,4106.538574,4173.974121,4043.974365,3453.000000,4.000000,95.000000,,,,0.000000,4.000000,4.000000,4.000000,4.000000,4.000000,4.000000,4.000000,4.000000,4.000000,4.000000,4.000000,4.000000,4.000000,4.000000,100.000000,,,,,,,,,,,,,,,,
1645708005.179879,1645708005.180619,145.000000,0.000000,4172.179688,4138.717773,4186.025879,4142.436035,4175.897461,4206.538574,4222.820313,4218.589844,4208.974121,4144.230957,4150.512695,4104.871582,4173.589844,4042.692383,3296.000000,4.000000,95.000000,,,,0.000000,4.000000,4.000000,4.000000,4.000000,4.000000,4.000000,4.000000,4.000000,4.000000,4.000000,4.000000,4.000000,4.000000,4.000000,100.000000,,,,,,,,,,,,,,,,
1645708005.183819,1645708005.184559,146.000000,0.000000,4173.461426,4140.128418,4187.051270,4145.000000,4171.025879,4207.051270,4223.589844,4222.563965,4212.692383,4147.436035,4150.128418,4103.589844,4175.897461,4042.948730,2708.000000,4.000000,95.000000,,,,0.000000,4.000000,4.000000,4.000000,4.000000,4.000000,4.000000,4.000000,4.000000,4.000000,4.000000,4.000000,4.000000,4.000000,4.000000,100.000000,,,,,,,,,,,,,,,,
1645708005.187759,1645708005.188499,147.000000,0.000000,4178.333496,4143.974121,4191.282227,4151.538574,4174.230957,4208.461426,4224.743652,4225.256348,4214.102539,4152.179688,4152.820313,4104.871582,4182.051270,4046.538574,3259.000000,4.000000,95.000000,,,,0.000000,4.000000,4.000000,4.000000,4.000000,4.000000,4.000000,4.000000,4.000000,4.000000,4.000000,4.000000,4.000000,4.000000,4.000000,100.000000,,,,,,,,,,,,,,,,
1645708005.191699,1645708005.192439,148.000000,0.000000,4184.102539,4148.589844,4197.563965,4158.333496,4182.948730,4210.641113,4226.282227,4225.384766,4212.179688,4158.461426,4158.077148,4108.333496,4189.102539,4052.435791,3453.000000,4.000000,95.000000,,,,0.000000,4.000000,4.000000,4.000000,4.000000,4.000000,4.000000,4.000000,4.000000,4.000000,4.000000,4.000000,4.000000,4.000000,4.000000,100.000000,,,,,,,,,,,,,,,,
1645708005.195639,1645708005.196379,149.000000,0.000000,4187.051270,4150.897461,4202.948730,4160.769043,4189.230957,4212.051270,4227.563965,4222.948730,4207.179688,4163.333496,4162.436035,4111.410156,4192.307617,4057.179443,3296.000000,4.000000,95.000000,,,,0.000000,4.000000,4.000000,4.000000,4.000000,4.000000,4.000000,4.000000,4.000000,4.000000,4.000000,4.000000,4.000000,4.000000,4.000000,100.000000,,,,,,,,,,,,,,,,
1645708005.199579,1645708005.200219,150.000000,0.000000,4185.897461,4149.487305,4205.256348,4157.307617,4187.436035,4211.794922,4227.563965,4219.871582,4201.794922,4163.589844,4162.948730,4111.666504,4188.974121,4056.923096,2708.000000,4.000000,95.000000,,,,0.000000,4.000000,4.000000,4.000000,4.000000,4.000000,4.000000,4.000000,4.000000,4.000000,4.000000,4.000000,4.000000,4.000000,4.000000,100.000000,1.000000,25.000000,4.000000,4.000000,1.000000,1.000000,1.000000,3.000000,4.000000,4.000000,4.000000,3.000000,3.000000,3.000000,4.000000,1.000000
1645708005.203519,1645708005.204159,151.000000,0.000000,4183.333496,4146.025879,4204.871582,4150.384766,4179.230957,4210.384766,4225.641113,4217.820313,4198.974121,4158.717773,4159.743652,4108.974121,4182.307617,4052.179443,3259.000000,4.000000,95.000000,,,,0.000000,4.000000,4.000000,4.000000,4.000000,4.000000,4.000000,4.000000,4.000000,4.000000,4.000000,4.000000,4.000000,4.000000,4.000000,100.000000,,,,,,,,,,,,,,,,
1645708005.207459,1645708005.208099,152.000000,0.000000,4182.820313,4143.333496,4203.461426,4144.743652,4170.512695,4208.846191,4222.051270,4217.179688,4199.487305,4150.769043,4155.897461,4105.897461,4178.077148,4046.410156,3453.000000,4.000000,95.000000,,,,0.000000,4.000000,4.000000,4.000000,4.000000,4.000000,4.000000,4.000000,4.000000,4.000000,4.000000,4.000000,4.000000,4.000000,4.000000,100.000000,,,,,,,,,,,,,,,,
1645708005.211399,1645708005.212039,153.000000,0.000000,4185.000000,4142.692383,4202.948730,4143.333496,4165.897461,4207.436035,4218.077148,4216.794922,4201.666504,4142.051270,4155.128418,4104.615234,4179.102539,4043.333252,3296.000000,4.000000,95.000000,,,,0.000000,4.000000,4.000000,4.000000,4.000000,4.000000,4.000000,4.000000,4.000000,4.000000,4.000000,4.000000,4.000000,4.000000,4.000000,100.000000,,,,,,,,,,,,,,,,
1645708005.215340,1645708005.215979,154.000000,0.000000,4187.436035,4143.077148,4203.333496,4144.871582,4166.153809,4205.384766,4215.128418,4215.769043,4203.461426,4133.974121,4158.717773,4105.512695,4183.333496,4043.718018,2708.000000,4.000000,95.000000,,,,0.000000,4.000000,4.000000,4.000000,4.000000,4.000000,4.000000,4.000000,4.000000,4.000000,4.000000,4.000000,4.000000,4.000000,4.000000,100.000000,,,,,,,,,,,,,,,,
1645708005.219279,1645708005.219919,155.000000,0.000000,4187.179688,4142.692383,4204.102539,4145.769043,4170.384766,4202.436035,4214.358887,4213.717773,4203.333496,4128.333496,4163.717773,4106.794922,4185.769043,4045.000000,3259.000000,4.000000,95.000000,,,,0.000000,4.000000,4.000000,4.000000,4.000000,4.000000,4.000000,4.000000,4.000000,4.000000,4.000000,4.000000,4.000000,4.000000,4.000000,100.000000,,,,,,,,,,,,,,,,
1645708005.223220,1645708005.223858,156.000000,0.000000,4183.461426,4141.025879,4204.230957,4144.230957,4176.794922,4199.615234,4215.641113,4211.410156,4201.538574,4127.307617,4165.512695,4106.153809,4183.205078,4044.743652,3453.000000,4.000000,95.000000,,,,0.000000,4.000000,4.000000,4.000000,4.000000,4.000000,4.000000,4.000000,4.000000,4.000000,4.000000,4.000000,4.000000,4.000000,4.000000,100.000000,,,,,,,,,,,,,,,,
1645708005.227160,1645708005.227798,157.000000,0.000000,4178.461426,4138.717773,4203.333496,4140.512695,4183.974121,4200.000000,4217.563965,4210.384766,4199.743652,4131.666504,4161.025879,4103.717773,4176.922852,4042.435791,3296.000000,4.000000,95.000000,,,,0.000000,4.000000,4.000000,4.000000,4.000000,4.000000,4.000000,4.000000,4.000000,4.000000,4.000000,4.000000,4.000000,4.000000,4.000000,100.000000,,,,,,,,,,,,,,,,
1645708005.231100,1645708005.231738,158.000000,0.000000,4175.256348,4136.666504,4201.794922,4137.179688,4190.256348,4205.000000,4219.102539,4211.282227,4199.358887,4139.743652,4152.563965,4101.538574,4171.282227,4039.230713,2708.000000,4.000000,95.000000,,,,0.000000,4.000000,4.000000,4.000000,4.000000,4.000000,4.000000,4.000000,4.000000,4.000000,4.000000,4.000000,4.000000,4.000000,4.000000,100.000000,,,,,,,,,,,,,,,,
1645708005.235040,1645708005.235678,159.000000,0.000000,4174.615234,4135.641113,4200.512695,4136.282227,4194.358887,4213.333496,4220.128418,4213.846191,4200.897461,4148.461426,4145.512695,4101.922852,4170.384766,4037.435791,3259.000000,4.000000,95.000000,,,,0.000000,4.000000,4.000000,4.000000,4.000000,4.000000,4.000000,4.000000,4.000000,4.000000,4.000000,4.000000,4.000000,4.000000,4.000000,100.000000,,,,,,,,,,,,,,,,
1645708005.238980,1645708005.239618,160.000000,0.000000,4176.025879,4136.282227,4200.641113,4138.461426,4196.153809,4220.384766,4221.538574,4217.051270,4203.846191,4155.384766,4145.256348,4105.128418,4175.000000,4038.974365,3453.000000,4.000000,95.000000,,,,0.000000,4.000000,4.000000,4.000000,4.000000,4.000000,4.000000,4.000000,4.000000,4.000000,4.000000,4.000000,4.000000,4.000000,4.000000,100.000000,,,,,,,,,,,,,,,,
1645708005.242920,1645708005.243558,161.000000,0.000000,4178.205078,4138.717773,4202.692383,4142.307617,4196.025879,4221.794922,4223.333496,4219.615234,4207.307617,4159.743652,4153.205078,4109.230957,4182.948730,4044.102539,3296.000000,4.000000,95.000000,,,,0.000000,4.000000,4.000000,4.000000,4.000000,4.000000,4.000000,4.000000,4.000000,4.000000,4.000000,4.000000,4.000000,4.000000,4.000000,100.000000,,,,,,,,,,,,,,,,
1645708005.246860,1645708005.247498,162.000000,0.000000,4180.128418,4141.282227,4205.512695,4145.512695,4194.230957,4217.692383,4224.487305,4220.384766,4210.256348,4161.666504,4165.000000,4112.051270,4189.871582,4050.512939,2708.000000,4.000000,95.000000,,,,0.000000,4.000000,4.000000,4.000000,4.000000,4.000000,4.000000,4.000000,4.000000,4.000000,4.000000,4.000000,4.000000,4.000000,4.000000,100.000000,,,,,,,,,,,,,,,,
1645708005.250800,1645708005.251437,163.000000,0.000000,4181.153809,4141.794922,4207.820313,4145.897461,4190.512695,4211.666504,4223.846191,4219.358887,4211.025879,4161.922852,4173.846191,4113.077148,4192.820313,4054.230713,3259.000000,4.000000,95.000000,,,,0.000000,4.000000,4.000000,4.000000,4.000000,4.000000,4.000000,4.000000,4.000000,4.000000,4.000000,4.000000,4.000000,4.000000,4.000000,100.000000,,,,,,,,,,,,,,,,
1645708005.254740,1645708005.255377,164.000000,0.000000,4180.384766,4138.974121,4207.948730,4142.563965,4185.256348,4208.846191,4221.666504,4217.563965,4208.846191,4161.410156,4174.743652,4112.948730,4191.538574,4052.692383,3453.000000,4.000000,95.000000,,,,0.000000,4.000000,4.000000,4.000000,4.000000,4.000000,4.000000,4.000000,4.000000,4.000000,4.000000,4.000000,4.000000,4.000000,4.000000,100.000000,,,,,,,,,,,,,,,,
1645708005.258680,1645708005.259317,165.000000,0.000000,4177.563965,4133.717773,4205.512695,4137.051270,4179.230957,4211.922852,4219.871582,4216.282227,4204.358887,4160.641113,4168.205078,4113.077148,4188.333496,4047.051270,3296.000000,4.000000,95.000000,,,,0.000000,4.000000,4.000000,4.000000,4.000000,4.000000,4.000000,4.000000,4.000000,4.000000,4.000000,4.000000,4.000000,4.000000,4.000000,100.000000,,,,,,,,,,,,,,,,
1645708005.262620,1645708005.263257,166.000000,0.000000,4174.102539,4128.717773,4201.538574,4131.794922,4174.230957,4218.589844,4220.128418,4216.153809,4200.000000,4159.102539,4159.615234,4113.461426,4185.641113,4041.410156,2708.000000,4.000000,95.000000,,,,0.000000,4.000000,4.000000,4.000000,4.000000,4.000000,4.000000,4.000000,4.000000,4.000000,4.000000,4.000000,4.000000,4.000000,4.000000,100.000000,,,,,,,,,,,,,,,,
1645708005.266560,1645708005.267197,167.000000,0.000000,4172.436035,4127.051270,4198.333496,4129.487305,4171.794922,4223.205078,4221.922852,4216.794922,4198.589844,4155.384766,4155.512695,4114.102539,4185.128418,4040.256348,3259.000000,4.000000,95.000000,,,,0.000000,4.000000,4.000000,4.000000,4.000000,4.000000,4.000000,4.000000,4.000000,4.000000,4.000000,4.000000,4.000000,4.000000,4.000000,100.000000,,,,,,,,,,,,,,,,
1645708005.270500,1645708005.271037,168.000000,0.000000,4174.358887,4129.615234,4198.589844,4130.384766,4172.948730,4221.025879,4223.205078,4217.179688,4201.153809,4150.000000,4158.717773,4115.641113,4187.563965,4044.871826,3453.000000,4.000000,95.000000,,,,0.000000,4.000000,4.000000,4.000000,4.000000,4.000000,4.000000,4.000000,4.000000,4.000000,4.000000,4.000000,4.000000,4.000000,4.000000,100.000000,,,,,,,,,,,,,,,,
1645708005.274440,1645708005.274977,169.000000,0.000000,4179.615234,4134.871582,4202.948730,4132.948730,4176.794922,4212.948730,4222.307617,4216.666504,4206.153809,4145.769043,4166.794922,4118.974121,4192.051270,4053.076904,3296.000000,4.000000,95.000000,,,,0.000000,4.000000,4.000000,4.000000,4.000000,4.000000,4.000000,4.000000,4.000000,4.000000,4.000000,4.000000,4.000000,4.000000,4.000000,100.000000,,,,,,,,,,,,,,,,
1645708005.278380,1645708005.278917,170.000000,0.000000,4185.512695,4139.743652,4209.871582,4135.384766,4180.512695,4204.871582,4220.128418,4216.538574,4211.153809,4147.179688,4174.615234,4123.846191,4196.666504,4061.153809,2708.000000,4.000000,95.000000,,,,0.000000,4.000000,4.000000,4.000000,4.000000,4.000000,4.000000,4.000000,4.000000,4.000000,4.000000,4.000000,4.000000,4.000000,4.000000,100.000000,,,,,,,,,,,,,,,,
1645708005.282320,1645708005.282857,171.000000,0.000000,4189.871582,4142.307617,4216.153809,4136.922852,4181.794922,4203.333496,4219.358887,4218.461426,4214.230957,4155.769043,4177.820313,4128.717773,4199.615234,4066.666748,3259.000000,4.000000,95.000000,,,,0.000000,4.000000,4.000000,4.000000,4.000000,4.000000,4.000000,4.000000,4.000000,4.000000,4.000000,4.000000,4.000000,4.000000,4.000000,100.000000,,,,,,,,,,,,,,,,
1645708005.286260,1645708005.286796,172.000000,0.000000,4191.666504,4142.179688,4218.974121,4138.589844,4180.256348,4209.615234,4221.538574,4222.820313,4215.769043,4168.333496,4176.538574,4132.692383,4200.128418,4069.102539,3453.000000,4.000000,95.000000,,,,0.000000,4.000000,4.000000,4.000000,4.000000,4.000000,4.000000,4.000000,4.000000,4.000000,4.000000,4.000000,4.000000,4.000000,4.000000,100.000000,,,,,,,,,,,,,,,,
1645708005.290200,1645708005.290736,173.000000,0.000000,4192.307617,4140.384766,4217.820313,4140.512695,4178.333496,4218.717773,4225.000000,4228.333496,4217.179688,4178.461426,4174.102539,4135.128418,4198.846191,4068.846191,3296.000000,4.000000,95.000000,,,,0.000000,4.000000,4.000000,4.000000,4.000000,4.000000,4.000000,4.000000,4.000000,4.000000,4.000000,4.000000,4.000000,4.000000,4.000000,100.000000,,,,,,,,,,,,,,,,
1645708005.294140,1645708005.294676,174.000000,0.000000,4192.692383,4138.589844,4214.743652,4142.051270,4179.230957,4223.333496,4227.051270,4232.307617,4218.333496,4180.897461,4172.820313,4135.512695,4196.794922,4066.153809,2708.000000,4.000000,95.000000,,,,0.000000,4.000000,4.000000,4.000000,4.000000,4.000000,4.000000,4.000000,4.000000,4.000000,4.000000,4.000000,4.000000,4.000000,4.000000,100.000000,,,,,,,,,,,,,,,,
1645708005.298081,1645708005.298616,175.000000,0.000000,4193.461426,4137.948730,4213.333496,4142.179688,4183.974121,4220.384766,4226.538574,4232.820313,4217.820313,4175.128418,4172.563965,4133.589844,4194.743652,4062.179443,3259.000000,4.000000,95.000000,,,,0.000000,4.000000,4.000000,4.000000,4.000000,4.000000,4.000000,4.000000,4.000000,4.000000,4.000000,4.000000,4.000000,4.000000,4.000000,100.000000,,,,,,,,,,,,,,,,
1645708005.302021,1645708005.302556,176.000000,0.000000,4194.102539,4138.974121,4215.384766,4141.153809,4190.769043,4212.948730,4223.717773,4229.871582,4214.487305,4164.871582,4171.410156,4130.769043,4192.692383,4058.333252,3453.000000,4.000000,95.000000,,,,0.000000,4.000000,4.000000,4.000000,4.000000,4.000000,4.000000,4.000000,4.000000,4.000000,4.000000,4.000000,4.000000,4.000000,4.000000,100.000000,,,,,,,,,,,,,,,,
1645708005.305961,1645708005.306496,177.000000,0.000000,4194.615234,4141.153809,4219.230957,4140.256348,4196.538574,4207.563965,4220.512695,4224.871582,4210.256348,4155.769043,4168.717773,4128.974121,4191.538574,4056.410156,3296.000000,4.000000,95.000000,,,,0.000000,4.000000,4.000000,4.000000,4.000000,4.000000,4.000000,4.000000,4.000000,4.000000,4.000000,4.000000,4.000000,4.000000,4.000000,100.000000,,,,,,,,,,,,,,,,
1645708005.309901,1645708005.310436,178.000000,0.000000,4194.871582,4143.589844,4222.051270,4140.897461,4198.717773,4208.461426,4219.102539,4220.128418,4208.333496,4152.307617,4165.897461,4129.743652,4191.410156,4057.051270,2708.000000,4.000000,95.000000,,,,0.000000,4.000000,4.000000,4.000000,4.000000,4.000000,4.000000,4.000000,4.000000,4.000000,4.000000,4.000000,4.000000,4.000000,4.000000,100.000000,,,,,,,,,,,,,,,,
1645708005.313841,1645708005.314375,179.000000,0.000000,4194.871582,4144.871582,4222.820313,4143.974121,4197.179688,4214.358887,4221.025879,4217.820313,4210.128418,4155.769043,4165.000000,4132.179688,4191.922852,4058.846191,3259.000000,4.000000,95.000000,,,,0.000000,4.000000,4.000000,4.000000,4.000000,4.000000,4.000000,4.000000,4.000000,4.000000,4.000000,4.000000,4.000000,4.000000,4.000000,100.000000,,,,,,,,,,,,,,,,
1645708005.317781,1645708005.318315,180.000000,0.000000,4194.871582,4144.743652,4222.820313,4148.205078,4193.974121,4220.000000,4225.512695,4218.974121,4213.333496,4162.948730,4166.666504,4133.974121,4192.307617,4059.358887,3453.000000,4.000000,95.000000,,,,0.000000,4.000000,4.000000,4.000000,4.000000,4.000000,4.000000,4.000000,4.000000,4.000000,4.000000,4.000000,4.000000,4.000000,4.000000,100.000000,,,,,,,,,,,,,,,,
1645708005.321721,1645708005.322255,181.000000,0.000000,4195.128418,4144.102539,4223.461426,4151.410156,4192.436035,4222.307617,4229.615234,4222.307617,4214.743652,4168.205078,4169.871582,4133.589844,4192.692383,4057.307617,3296.000000,4.000000,95.000000,,,,0.000000,4.000000,4.000000,4.000000,4.000000,4.000000,4.000000,4.000000,4.000000,4.000000,4.000000,4.000000,4.000000,4.000000,4.000000,100.000000,,,,,,,,,,,,,,,,
1645708005.325661,1645708005.326095,182.000000,0.000000,4195.641113,4144.487305,4225.256348,4152.179688,4194.230957,4221.538574,4230.769043,4225.256348,4212.436035,4167.436035,4172.307617,4131.282227,4192.948730,4053.718018,2708.000000,4.000000,95.000000,,,,0.000000,4.000000,4.000000,4.000000,4.000000,4.000000,4.000000,4.000000,4.000000,4.000000,4.000000,4.000000,4.000000,4.000000,4.000000,100.000000,,,,,,,,,,,,,,,,
1645708005.329601,1645708005.330035,183.000000,0.000000,4195.769043,4145.897461,4226.282227,4150.769043,4197.948730,4221.025879,4228.974121,4225.256348,4207.820313,4161.282227,4171.794922,4127.820313,4193.974121,4050.641113,3259.000000,4.000000,95.000000,,,,0.000000,4.000000,4.000000,4.000000,4.000000,4.000000,4.000000,4.000000,4.000000,4.000000,4.000000,4.000000,4.000000,4.000000,4.000000,100.000000,,,,,,,,,,,,,,,,
1645708005.333541,1645708005.333976,184.000000,0.000000,4195.000000,4146.922852,4225.000000,4148.589844,4200.512695,4222.436035,4227.051270,4222.179688,4203.974121,4153.461426,4167.563965,4124.230957,4195.256348,4049.615479,3453.000000,4.000000,95.000000,,,,0.000000,4.000000,4.000000,4.000000,4.000000,4.000000,4.000000,4.000000,4.000000,4.000000,4.000000,4.000000,4.000000,4.000000,4.000000,100.000000,,,,,,,,,,,,,,,,
1645708005.337481,1645708005.337916,185.000000,0.000000,4193.846191,4145.769043,4221.666504,4146.794922,4199.615234,4225.000000,4227.563965,4218.461426,4203.461426,4148.077148,4161.794922,4121.666504,4196.282227,4050.384521,3296.000000,4.000000,95.000000,,,,0.000000,4.000000,4.000000,4.000000,4.000000,4.000000,4.000000,4.000000,4.000000,4.000000,4.000000,4.000000,4.000000,4.000000,4.000000,100.000000,,,,,,,,,,,,,,,,
1645708005.341421,1645708005.341856,186.000000,0.000000,4193.461426,4142.820313,4218.077148,4145.641113,4195.512695,4226.922852,4230.384766,4217.307617,4206.794922,4146.922852,4158.461426,4120.897461,4196.922852,4052.307617,2708.000000,4.000000,95.000000,,,,0.000000,4.000000,4.000000,4.000000,4.000000,4.000000,4.000000,4.000000,4.000000,4.000000,4.000000,4.000000,4.000000,4.000000,4.000000,100.000000,,,,,,,,,,,,,,,,
1645708005.345361,1645708005.345796,187.000000,0.000000,4194.615234,4140.897461,4215.641113,4145.384766,4191.922852,4227.051270,4232.563965,4219.230957,4211.794922,4150.128418,4161.282227,4122.307617,4197.948730,4054.743652,3259.000000,4.000000,95.000000,,,,0.000000,4.000000,4.000000,4.000000,4.000000,4.000000,4.000000,4.000000,4.000000,4.000000,4.000000,4.000000,4.000000,4.000000,4.000000,100.000000,,,,,,,,,,,,,,,,
1645708005.349301,1645708005.349736,188.000000,0.000000,4196.410156,4141.922852,4215.128418,4145.897461,4193.077148,4226.794922,4232.436035,4222.563965,4215.128418,4156.538574,4169.743652,4125.256348,4200.128418,4057.564209,3453.000000,4.000000,95.000000,,,,0.000000,4.000000,4.000000,4.000000,4.000000,4.000000,4.000000,4.000000,4.000000,4.000000,4.000000,4.000000,4.000000,4.000000,4.000000,100.000000,,,,,,,,,,,,,,,,
1645708005.353241,1645708005.353676,189.000000,0.000000,4197.051270,4145.128418,4216.153809,4146.794922,4199.615234,4227.948730,4231.282227,4224.615234,4215.384766,4163.974121,4178.461426,4128.077148,4203.205078,4060.256348,3296.000000,4.000000,95.000000,,,,0.000000,4.000000,4.000000,4.000000,4.000000,4.000000,4.000000,4.000000,4.000000,4.000000,4.000000,4.000000,4.000000,4.000000,4.000000,100.000000,,,,,,,,,,,,,,,,
1645708005.357181,1645708005.357616,190.000000,0.000000,4196.153809,4147.820313,4218.333496,4147.179688,4207.436035,4231.410156,4231.025879,4223.974121,4213.717773,4169.615234,4181.153809,4129.743652,4205.384766,4062.051270,2708.000000,4.000000,95.000000,,,,0.000000,4.000000,4.000000,4.000000,4.000000,4.000000,4.000000,4.000000,4.000000,4.000000,4.000000,4.000000,4.000000,4.000000,4.000000,100.000000,,,,,,,,,,,,,,,,
1645708005.361121,1645708005.361556,191.000000,0.000000,4195.000000,4148.717773,4221.025879,4146.794922,4210.512695,4235.897461,4232.563965,4221.922852,4212.692383,4171.794922,4176.282227,4130.641113,4205.384766,4062.692383,3259.000000,4.000000,95.000000,,,,0.000000,4.000000,4.000000,4.000000,4.000000,4.000000,4.000000,4.000000,4.000000,4.000000,4.000000,4.000000,4.000000,4.000000,4.000000,100.000000,,,,,,,,,,,,,,,,
1645708005.365061,1645708005.365496,192.000000,0.000000,4195.384766,4148.205078,4222.948730,4146.538574,4206.025879,4238.333496,4233.974121,4220.256348,4213.846191,4170.897461,4170.000000,4132.307617,4203.974121,4063.333252,3453.000000,4.000000,95.000000,,,,0.000000,4.000000,4.000000,4.000000,4.000000,4.000000,4.000000,4.000000,4.000000,4.000000,4.000000,4.000000,4.000000,4.000000,4.000000,100.000000,,,,,,,,,,,,,,,,
1645708005.369002,1645708005.369437,193.000000,0.000000,4197.820313,4147.179688,4223.717773,4146.922852,4196.025879,4236.666504,4233.205078,4220.769043,4216.410156,4169.487305,4169.743652,4134.871582,4203.205078,4064.871826,3296.000000,4.000000,95.000000,,,,0.000000,4.000000,4.000000,4.000000,4.000000,4.000000,4.000000,4.000000,4.000000,4.000000,4.000000,4.000000,4.000000,4.000000,4.000000,100.000000,,,,,,,,,,,,,,,,
1645708005.372942,1645708005.373377,194.000000,0.000000,4200.256348,4146.410156,4223.589844,4147.436035,4186.153809,4231.538574,4230.641113,4223.846191,4218.077148,4168.846191,4176.025879,4137.179688,4204.487305,4067.179443,2708.000000,4.000000,95.000000,,,,0.000000,4.000000,4.000000,4.000000,4.000000,4.000000,4.000000,4.000000,4.000000,4.000000,4.000000,4.000000,4.000000,4.000000,4.000000,100.000000,,,,,,,,,,,,,,,,
1645708005.376881,1645708005.377217,195.000000,0.000000,4200.769043,4145.128418,4223.461426,4146.410156,4181.922852,4225.769043,4228.333496,4228.205078,4217.692383,4167.563965,4181.794922,4138.077148,4206.538574,4068.846191,3259.000000,4.000000,95.000000,,,,0.000000,4.000000,4.000000,4.000000,4.000000,4.000000,4.000000,4.000000,4.000000,4.000000,4.000000,4.000000,4.000000,4.000000,4.000000,100.000000,,,,,,,,,,,,,,,,
1645708005.380822,1645708005.381157,196.000000,0.000000,4199.487305,4143.717773,4224.358887,4143.461426,4186.794922,4223.077148,4228.589844,4231.410156,4216.153809,4163.846191,4178.717773,4138.077148,4207.307617,4068.589844,3453.000000,4.000000,95.000000,,,,0.000000,4.000000,4.000000,4.000000,4.000000,4.000000,4.000000,4.000000,4.000000,4.000000,4.000000,4.000000,4.000000,4.000000,4.000000,100.000000,,,,,,,,,,,,,,,,
1645708005.384762,1645708005.385097,197.000000,0.000000,4198.461426,4143.589844,4226.282227,4141.153809,4199.743652,4225.769043,4231.410156,4232.179688,4215.384766,4159.615234,4166.922852,4138.717773,4205.897461,4066.794922,3296.000000,4.000000,95.000000,,,,0.000000,4.000000,4.000000,4.000000,4.000000,4.000000,4.000000,4.000000,4.000000,4.000000,4.000000,4.000000,4.000000,4.000000,4.000000,100.000000,,,,,,,,,,,,,,,,
1645708005.388702,1645708005.389037,198.000000,0.000000,4200.000000,4146.282227,4229.358887,4142.436035,4215.769043,4232.563965,4235.512695,4231.025879,4216.025879,4159.743652,4155.384766,4140.384766,4203.461426,4065.641113,2708.000000,4.000000,95.000000,,,,0.000000,4.000000,4.000000,4.000000,4.000000,4.000000,4.000000,4.000000,4.000000,4.000000,4.000000,4.000000,4.000000,4.000000,4.000000,100.000000,,,,,,,,,,,,,,,,
1645708005.392642,1645708005.392977,199.000000,0.000000,4203.846191,4150.769043,4232.948730,4148.077148,4227.051270,4239.358887,4238.717773,4230.512695,4217.307617,4166.153809,4155.000000,4142.436035,4202.179688,4066.923096,3259.000000,4.000000,95.000000,,,,0.000000,4.000000,4.000000,4.000000,4.000000,4.000000,4.000000,4.000000,4.000000,4.000000,4.000000,4.000000,4.000000,4.000000,4.000000,100.000000,,,,,,,,,,,,,,,,
1645708005.396582,1645708005.396917,200.000000,0.000000,4206.922852,4154.358887,4235.769043,4155.000000,4227.563965,4241.538574,4239.871582,4231.410156,4217.692383,4174.102539,4168.717773,4143.717773,4203.333496,4070.128174,3453.000000,4.000000,95.000000,,,,0.000000,4.000000,4.000000,4.000000,4.000000,4.000000,4.000000,4.000000,4.000000,4.000000,4.000000,4.000000,4.000000,4.000000,4.000000,100.000000,,,,,,,,,,,,,,,,
1645708005.400522,1645708005.400857,201.000000,0.000000,4206.922852,4155.000000,4236.282227,4158.974121,4216.922852,4238.205078,4238.589844,4232.948730,4217.051270,4175.897461,4188.974121,4142.948730,4206.282227,4073.205078,3296.000000,4.000000,95.000000,,,,0.000000,4.000000,4.000000,4.000000,4.000000,4.000000,4.000000,4.000000,4.000000,4.000000,4.000000,4.000000,4.000000,4.000000,4.000000,100.000000,,,,,,,,,,,,,,,,
1645708005.404462,1645708005.404798,202.000000,0.000000,4204.358887,4152.948730,4234.358887,4157.563965,4201.666504,4232.179688,4235.769043,4232.820313,4216.410156,4168.717773,4203.205078,4140.897461,4209.487305,4073.974365,2708.000000,4.000000,95.000000,,,,0.000000,4.000000,4.000000,4.000000,4.000000,4.000000,4.000000,4.000000,4.000000,4.000000,4.000000,4.000000,4.000000,4.000000,4.000000,100.000000,,,,,,,,,,,,,,,,
1645708005.408402,1645708005.408738,203.000000,0.000000,4202.051270,4150.384766,4231.282227,4152.179688,4190.897461,4228.333496,4233.205078,4230.897461,4216.410156,4157.820313,4203.461426,4138.974121,4211.538574,4072.564209,3259.000000,4.000000,95.000000,,,,0.000000,4.000000,4.000000,4.000000,4.000000,4.000000,4.000000,4.000000,4.000000,4.000000,4.000000,4.000000,4.000000,4.000000,4.000000,100.000000,,,,,,,,,,,,,,,,
1645708005.412342,1645708005.412678,204.000000,0.000000,4202.179688,4149.230957,4229.102539,4146.666504,4190.512695,4228.461426,4231.538574,4228.974121,4216.922852,4151.794922,4192.051270,4138.974121,4212.051270,4070.384521,3453.000000,4.000000,95.000000,,,,0.000000,4.000000,4.000000,4.000000,4.000000,4.000000,4.000000,4.000000,4.000000,4.000000,4.000000,4.000000,4.000000,4.000000,4.000000,100.000000,,,,,,,,,,,,,,,,
1645708005.416282,1645708005.416618,205.000000,0.000000,4204.487305,4150.384766,4228.077148,4144.871582,4199.358887,4230.897461,4230.769043,4229.102539,4217.307617,4156.025879,4178.461426,4140.000000,4211.410156,4068.974365,3296.000000,4.000000,95.000000,,,,0.000000,4.000000,4.000000,4.000000,4.000000,4.000000,4.000000,4.000000,4.000000,4.000000,4.000000,4.000000,4.000000,4.000000,4.000000,100.000000,,,,,,,,,,,,,,,,
1645708005.420222,1645708005.420558,206.000000,0.000000,4206.282227,4153.205078,4227.179688,4147.692383,4210.641113,4232.948730,4230.256348,4230.769043,4216.922852,4168.717773,4171.538574,4140.256348,4210.384766,4068.589844,2708.000000,4.000000,95.000000,,,,0.000000,4.000000,4.000000,4.000000,4.000000,4.000000,4.000000,4.000000,4.000000,4.000000,4.000000,4.000000,4.000000,4.000000,4.000000,100.000000,,,,,,,,,,,,,,,,
1645708005.424162,1645708005.424498,207.000000,0.000000,4205.256348,4156.153809,4224.871582,4153.077148,4216.410156,4233.461426,4229.487305,4231.666504,4215.641113,4182.436035,4173.589844,4138.077148,4209.871582,4068.589844,3259.000000,4.000000,95.000000,,,,0.000000,4.000000,4.000000,4.000000,4.000000,4.000000,4.000000,4.000000,4.000000,4.000000,4.000000,4.000000,4.000000,4.000000,4.000000,100.000000,,,,,,,,,,,,,,,,
1645708005.428102,1645708005.428438,208.000000,0.000000,4200.769043,4156.922852,4221.025879,4156.794922,4213.077148,4232.948730,4228.589844,4230.128418,4214.102539,4189.358887,4180.128418,4134.102539,4210.000000,4067.692383,3453.000000,4.000000,95.000000,,,,0.000000,4.000000,4.000000,4.000000,4.000000,4.000000,4.000000,4.000000,4.000000,4.000000,4.000000,4.000000,4.000000,4.000000,4.000000,100.000000,,,,,,,,,,,,,,,,
1645708005.432042,1645708005.432378,209.000000,0.000000,4195.384766,4154.871582,4216.922852,4156.282227,4202.436035,4232.051270,4227.820313,4227.051270,4213.589844,4186.794922,4185.128418,4130.384766,4210.000000,4065.512939,3296.000000,4.000000,95.000000,,,,0.000000,4.000000,4.000000,4.000000,4.000000,4.000000,4.000000,4.000000,4.000000,4.000000,4.000000,4.000000,4.000000,4.000000,4.000000,100.000000,,,,,,,,,,,,,,,,
1645708005.435982,1645708005.436318,210.000000,0.000000,4192.051270,4150.897461,4214.871582,4151.666504,4191.282227,4231.410156,4227.563965,4225.128418,4214.358887,4178.077148,4185.256348,4128.333496,4209.615234,4062.820557,2708.000000,4.000000,95.000000,,,,0.000000,4.000000,4.000000,4.000000,4.000000,4.000000,4.000000,4.000000,4.000000,4.000000,4.000000,4.000000,4.000000,4.000000,4.000000,100.000000,,,,,,,,,,,,,,,,
1645708005.439922,1645708005.440259,211.000000,0.000000,4192.436035,4147.692383,4215.641113,4146.666504,4186.922852,4231.153809,4228.205078,4225.897461,4215.641113,4169.358887,4181.538574,4128.333496,4209.358887,4061.281982,3259.000000,4.000000,95.000000,,,,0.000000,4.000000,4.000000,4.000000,4.000000,4.000000,4.000000,4.000000,4.000000,4.000000,4.000000,4.000000,4.000000,4.000000,4.000000,100.000000,,,,,,,,,,,,,,,,
1645708005.443863,1645708005.444199,212.000000,0.000000,4195.256348,4147.563965,4218.205078,4145.128418,4192.692383,4231.794922,4229.615234,4228.717773,4216.666504,4165.512695,4177.563965,4129.358887,4210.512695,4062.179443,3453.000000,4.000000,95.000000,,,,0.000000,4.000000,4.000000,4.000000,4.000000,4.000000,4.000000,4.000000,4.000000,4.000000,4.000000,4.000000,4.000000,4.000000,4.000000,100.000000,,,,,,,,,,,,,,,,
1645708005.447802,1645708005.448239,213.000000,0.000000,4197.692383,4149.487305,4220.128418,4147.692383,4204.487305,4233.974121,4230.769043,4231.282227,4216.794922,4166.025879,4174.743652,4130.256348,4212.307617,4064.358887,3296.000000,4.000000,95.000000,,,,0.000000,4.000000,4.000000,4.000000,4.000000,4.000000,4.000000,4.000000,4.000000,4.000000,4.000000,4.000000,4.000000,4.000000,4.000000,100.000000,,,,,,,,,,,,,,,,
1645708005.451743,1645708005.452179,214.000000,0.000000,4197.307617,4150.641113,4219.871582,4151.410156,4213.846191,4237.307617,4230.897461,4232.051270,4216.538574,4166.666504,4172.307617,4129.230957,4212.051270,4065.000000,2708.000000,4.000000,95.000000,,,,0.000000,4.000000,4.000000,4.000000,4.000000,4.000000,4.000000,4.000000,4.000000,4.000000,4.000000,4.000000,4.000000,4.000000,4.000000,100.000000,,,,,,,,,,,,,,,,
1645708005.455683,1645708005.456119,215.000000,0.000000,4193.333496,4148.461426,4217.051270,4152.436035,4214.102539,4240.000000,4230.384766,4231.153809,4216.153809,4162.948730,4168.589844,4125.769043,4207.692383,4061.666748,3259.000000,4.000000,95.000000,,,,0.000000,4.000000,4.000000,4.000000,4.000000,4.000000,4.000000,4.000000,4.000000,4.000000,4.000000,4.000000,4.000000,4.000000,4.000000,100.000000,,,,,,,,,,,,,,,,
1645708005.459623,1645708005.460059,216.000000,0.000000,4187.307617,4142.948730,4212.948730,4149.743652,4205.769043,4240.128418,4230.000000,4229.358887,4215.769043,4155.769043,4164.615234,4120.256348,4199.871582,4055.128174,3453.000000,4.000000,95.000000,,,,0.000000,4.000000,4.000000,4.000000,4.000000,4.000000,4.000000,4.000000,4.000000,4.000000,4.000000,4.000000,4.000000,4.000000,4.000000,100.000000,,,,,,,,,,,,,,,,
1645708005.463563,1645708005.463999,217.000000,0.000000,4183.077148,4137.179688,4209.743652,4145.641113,4194.743652,4238.205078,4230.256348,4227.948730,4215.128418,4151.153809,4163.717773,4114.615234,4193.077148,4049.230713,3296.000000,4.000000,95.000000,,,,0.000000,4.000000,4.000000,4.000000,4.000000,4.000000,4.000000,4.000000,4.000000,4.000000,4.000000,4.000000,4.000000,4.000000,4.000000,100.000000,,,,,,,,,,,,,,,,
1645708005.467503,1645708005.467839,218.000000,0.000000,4183.461426,4134.743652,4208.717773,4143.717773,4188.333496,4236.794922,4231.410156,4227.820313,4214.487305,4154.230957,4167.948730,4111.922852,4191.794922,4047.692383,2708.000000,4.000000,95.000000,,,,0.000000,4.000000,4.000000,4.000000,4.000000,4.000000,4.000000,4.000000,4.000000,4.000000,4.000000,4.000000,4.000000,4.000000,4.000000,100.000000,,,,,,,,,,,,,,,,
1645708005.471443,1645708005.471779,219.000000,0.000000,4188.333496,4136.794922,4210.384766,4145.256348,4189.871582,4237.692383,4233.461426,4229.615234,4215.128418,4163.333496,4175.128418,4114.230957,4196.922852,4051.794922,3259.000000,4.000000,95.000000,,,,0.000000,4.000000,4.000000,4.000000,4.000000,4.000000,4.000000,4.000000,4.000000,4.000000,4.000000,4.000000,4.000000,4.000000,4.000000,100.000000,,,,,,,,,,,,,,,,
1645708005.475383,1645708005.475720,220.000000,0.000000,4194.487305,4141.538574,4214.102539,4148.589844,4197.563965,4240.512695,4235.897461,4233.461426,4217.692383,4171.410156,4180.641113,4120.512695,4204.743652,4058.589844,3453.000000,4.000000,95.000000,,,,0.000000,4.000000,4.000000,4.000000,4.000000,4.000000,4.000000,4.000000,4.000000,4.000000,4.000000,4.000000,4.000000,4.000000,4.000000,100.000000,,,,,,,,,,,,,,,,
1645708005.479323,1645708005.479660,221.000000,0.000000,4198.461426,4145.000000,4217.563965,4151.025879,4206.282227,4242.563965,4238.205078,4237.820313,4221.025879,4172.436035,4181.538574,4127.307617,4210.256348,4063.076904,3296.000000,4.000000,95.000000,,,,0.000000,4.000000,4.000000,4.000000,4.000000,4.000000,4.000000,4.000000,4.000000,4.000000,4.000000,4.000000,4.000000,4.000000,4.000000,100.000000,,,,,,,,,,,,,,,,
1645708005.483263,1645708005.483600,222.000000,0.000000,4197.820313,4144.358887,4217.692383,4150.512695,4209.743652,4241.282227,4238.589844,4239.487305,4221.922852,4166.153809,4178.077148,4129.871582,4210.256348,4062.307617,2708.000000,4.000000,95.000000,1,1,1,0.000000,4.000000,4.000000,4.000000,4.000000,4.000000,4.000000,4.000000,4.000000,4.000000,4.000000,4.000000,4.000000,4.000000,4.000000,100.000000,,,,,,,,,,,,,,,,
1645708005.487203,1645708005.487540,223.000000,0.000000,4193.077148,4140.384766,4212.820313,4148.077148,4204.871582,4235.384766,4235.512695,4235.769043,4218.717773,4157.179688,4173.205078,4126.153809,4205.256348,4056.923096,3259.000000,4.000000,95.000000,,,,0.000000,4.000000,4.000000,4.000000,4.000000,4.000000,4.000000,4.000000,4.000000,4.000000,4.000000,4.000000,4.000000,4.000000,4.000000,100.000000,,,,,,,,,,,,,,,,
1645708005.491143,1645708005.491480,224.000000,0.000000,4186.410156,4136.410156,4205.256348,4145.897461,4193.461426,4226.922852,4229.615234,4227.051270,4212.948730,4150.641113,4168.974121,4118.077148,4198.974121,4049.743652,3453.000000,4.000000,95.000000,,,,0.000000,4.000000,4.000000,4.000000,4.000000,4.000000,4.000000,4.000000,4.000000,4.000000,4.000000,4.000000,4.000000,4.000000,4.000000,100.000000,,,,,,,,,,,,,,,,
1645708005.495083,1645708005.495420,225.000000,0.000000,4180.897461,4135.256348,4199.615234,4146.025879,4181.922852,4219.871582,4224.358887,4217.563965,4207.948730,4149.358887,4165.769043,4110.000000,4194.487305,4043.846191,3296.000000,4.000000,95.000000,,,,0.000000,4.000000,4.000000,4.000000,4.000000,4.000000,4.000000,4.000000,4.000000,4.000000,4.000000,4.000000,4.000000,4.000000,4.000000,100.000000,,,,,,,,,,,,,,,,
1645708005.499023,1645708005.499360,226.000000,0.000000,4178.846191,4137.051270,4199.743652,4147.692383,4177.563965,4218.589844,4223.461426,4212.948730,4205.897461,4152.307617,4163.461426,4105.769043,4193.461426,4041.281982,2708.000000,4.000000,95.000000,,,,0.000000,4.000000,4.000000,4.000000,4.000000,4.000000,4.000000,4.000000,4.000000,4.000000,4.000000,4.000000,4.000000,4.000000,4.000000,100.000000,,,,,,,,,,,,,,,,
1645708005.502963,1645708005.503300,227.000000,0.000000,4180.512695,4140.000000,4205.256348,4149.358887,4184.102539,4224.871582,4227.307617,4215.897461,4206.922852,4157.563965,4162.692383,4106.794922,4195.128418,4042.692383,3259.000000,4.000000,95.000000,,,,0.000000,4.000000,4.000000,4.000000,4.000000,4.000000,4.000000,4.000000,4.000000,4.000000,4.000000,4.000000,4.000000,4.000000,4.000000,100.000000,,,,,,,,,,,,,,,,
1645708005.506903,1645708005.507240,228.000000,0.000000,4184.358887,4141.794922,4211.666504,4149.743652,4198.333496,4235.000000,4232.051270,4223.461426,4209.102539,4163.077148,4164.871582,4111.794922,4198.333496,4047.692383,3453.000000,4.000000,95.000000,,,,0.000000,4.000000,4.000000,4.000000,4.000000,4.000000,4.000000,4.000000,4.000000,4.000000,4.000000,4.000000,4.000000,4.000000,4.000000,100.000000,,,,,,,,,,,,,,,,
1645708005.510843,1645708005.511180,229.000000,0.000000,4187.820313,4141.794922,4214.358887,4148.461426,4211.410156,4242.179688,4232.436035,4229.230957,4211.025879,4166.922852,4169.230957,4117.051270,4201.794922,4053.974365,3296.000000,4.000000,95.000000,,,,0.000000,4.000000,4.000000,4.000000,4.000000,4.000000,4.000000,4.000000,4.000000,4.000000,4.000000,4.000000,4.000000,4.000000,4.000000,100.000000,,,,,,,,,,,,,,,,
1645708005.514783,1645708005.515121,230.000000,0.000000,4188.846191,4140.512695,4211.794922,4146.282227,4215.000000,4240.512695,4227.179688,4228.333496,4211.153809,4167.179688,4172.563965,4119.487305,4205.256348,4058.974365,2708.000000,4.000000,95.000000,,,,0.000000,4.000000,4.000000,4.000000,4.000000,4.000000,4.000000,4.000000,4.000000,4.000000,4.000000,4.000000,4.000000,4.000000,4.000000,100.000000,,,,,,,,,,,,,,,,
1645708005.518723,1645708005.519061,231.000000,0.000000,4187.436035,4139.102539,4206.538574,4144.743652,4207.179688,4230.641113,4219.871582,4221.538574,4209.358887,4163.077148,4172.051270,4118.461426,4208.077148,4060.128174,3259.000000,4.000000,95.000000,,,,0.000000,4.000000,4.000000,4.000000,4.000000,4.000000,4.000000,4.000000,4.000000,4.000000,4.000000,4.000000,4.000000,4.000000,4.000000,100.000000,,,,,,,,,,,,,,,,
1645708005.522663,1645708005.523001,232.000000,0.000000,4185.641113,4139.102539,4202.692383,4145.128418,4193.846191,4219.102539,4215.897461,4214.487305,4207.179688,4156.794922,4168.205078,4115.897461,4209.615234,4057.948730,3453.000000,4.000000,95.000000,,,,0.000000,4.000000,4.000000,4.000000,4.000000,4.000000,4.000000,4.000000,4.000000,4.000000,4.000000,4.000000,4.000000,4.000000,4.000000,100.000000,,,,,,,,,,,,,,,,
1645708005.526604,1645708005.527041,233.000000,0.000000,4186.025879,4141.282227,4203.077148,4147.692383,4185.000000,4213.717773,4218.333496,4213.846191,4206.666504,4152.563965,4164.871582,4114.487305,4209.487305,4055.256348,3296.000000,4.000000,95.000000,,,,0.000000,4.000000,4.000000,4.000000,4.000000,4.000000,4.000000,4.000000,4.000000,4.000000,4.000000,4.000000,4.000000,4.000000,4.000000,100.000000,,,,,,,,,,,,,,,,
1645708005.530544,1645708005.530981,234.000000,0.000000,4189.230957,4144.743652,4207.820313,4150.769043,4186.153809,4216.666504,4224.871582,4221.153809,4209.102539,4153.205078,4165.256348,4115.256348,4207.692383,4054.615479,2708.000000,4.000000,95.000000,,,,0.000000,4.000000,4.000000,4.000000,4.000000,4.000000,4.000000,4.000000,4.000000,4.000000,4.000000,4.000000,4.000000,4.000000,4.000000,100.000000,,,,,,,,,,,,,,,,
1645708005.534484,1645708005.534922,235.000000,0.000000,4193.205078,4147.820313,4214.102539,4152.563965,4193.205078,4223.589844,4230.384766,4231.410156,4213.077148,4157.563965,4168.589844,4117.820313,4205.128418,4056.794922,3259.000000,4.000000,95.000000,,,,0.000000,4.000000,4.000000,4.000000,4.000000,4.000000,4.000000,4.000000,4.000000,4.000000,4.000000,4.000000,4.000000,4.000000,4.000000,100.000000,,,,,,,,,,,,,,,,
1645708005.538424,1645708005.538862,236.000000,0.000000,4195.512695,4148.589844,4218.461426,4152.436035,4196.922852,4228.205078,4230.897461,4236.282227,4215.897461,4161.922852,4170.897461,4120.512695,4203.461426,4060.384521,3453.000000,4.000000,95.000000,,,,0.000000,4.000000,4.000000,4.000000,4.000000,4.000000,4.000000,4.000000,4.000000,4.000000,4.000000,4.000000,4.000000,4.000000,4.000000,100.000000,,,,,,,,,,,,,,,,
1645708005.542364,1645708005.542802,237.000000,0.000000,4195.000000,4146.538574,4218.974121,4151.666504,4191.410156,4227.563965,4226.794922,4231.794922,4215.512695,4163.589844,4169.743652,4122.307617,4203.974121,4063.589844,3296.000000,4.000000,95.000000,,,,0.000000,4.000000,4.000000,4.000000,4.000000,4.000000,4.000000,4.000000,4.000000,4.000000,4.000000,4.000000,4.000000,4.000000,4.000000,100.000000,,,,,,,,,,,,,,,,
1645708005.546304,1645708005.546743,238.000000,0.000000,4192.563965,4142.948730,4216.666504,4151.538574,4180.512695,4223.589844,4221.794922,4220.897461,4212.820313,4162.436035,4166.410156,4123.205078,4206.538574,4065.512939,2708.000000,4.000000,95.000000,,,,0.000000,4.000000,4.000000,4.000000,4.000000,4.000000,4.000000,4.000000,4.000000,4.000000,4.000000,4.000000,4.000000,4.000000,4.000000,100.000000,,,,,,,,,,,,,,,,
1645708005.550244,1645708005.550683,239.000000,0.000000,4189.615234,4139.102539,4213.974121,4152.307617,4173.589844,4220.384766,4219.871582,4211.922852,4209.871582,4159.743652,4163.974121,4123.717773,4208.974121,4065.897461,3259.000000,4.000000,95.000000,,,,0.000000,4.000000,4.000000,4.000000,4.000000,4.000000,4.000000,4.000000,4.000000,4.000000,4.000000,4.000000,4.000000,4.000000,4.000000,100.000000,,,,,,,,,,,,,,,,
1645708005.554184,1645708005.554623,240.000000,0.000000,4186.794922,4135.897461,4212.948730,4153.077148,4177.179688,4220.512695,4222.307617,4211.282227,4208.333496,4157.179688,4164.487305,4124.230957,4208.846191,4063.974365,3453.000000,4.000000,95.000000,,,,0.000000,4.000000,4.000000,4.000000,4.000000,4.000000,4.000000,4.000000,4.000000,4.000000,4.000000,4.000000,4.000000,4.000000,4.000000,100.000000,,,,,,,,,,,,,,,,
1645708005.558124,1645708005.558564,241.000000,0.000000,4184.871582,4132.820313,4213.846191,4152.948730,4189.102539,4223.846191,4227.692383,4219.230957,4208.717773,4155.512695,4167.436035,4124.487305,4205.384766,4060.000000,3296.000000,4.000000,95.000000,,,,0.000000,4.000000,4.000000,4.000000,4.000000,4.000000,4.000000,4.000000,4.000000,4.000000,4.000000,4.000000,4.000000,4.000000,4.000000,100.000000,,,,,,,,,,,,,,,,
1645708005.562064,1645708005.562504,242.000000,0.000000,4184.230957,4130.769043,4215.256348,4152.692383,4201.794922,4228.205078,4233.205078,4230.128418,4211.282227,4156.025879,4170.769043,4124.230957,4200.897461,4055.769287,2708.000000,4.000000,95.000000,,,,0.000000,4.000000,4.000000,4.000000,4.000000,4.000000,4.000000,4.000000,4.000000,4.000000,4.000000,4.000000,4.000000,4.000000,4.000000,100.000000,,,,,,,,,,,,,,,,
1645708005.566004,1645708005.566444,243.000000,0.000000,4185.641113,4130.512695,4215.897461,4153.461426,4208.717773,4231.922852,4237.051270,4237.436035,4215.256348,4159.230957,4172.948730,4124.102539,4198.589844,4053.846191,3259.000000,4.000000,95.000000,,,,0.000000,4.000000,4.000000,4.000000,4.000000,4.000000,4.000000,4.000000,4.000000,4.000000,4.000000,4.000000,4.000000,4.000000,4.000000,100.000000,,,,,,,,,,,,,,,,
1645708005.569944,1645708005.570385,244.000000,0.000000,4188.461426,4132.307617,4215.256348,4155.512695,4207.820313,4233.717773,4238.846191,4238.717773,4219.230957,4164.743652,4173.333496,4124.358887,4200.512695,4055.256348,3453.000000,4.000000,95.000000,,,,0.000000,4.000000,4.000000,4.000000,4.000000,4.000000,4.000000,4.000000,4.000000,4.000000,4.000000,4.000000,4.000000,4.000000,4.000000,100.000000,,,,,,,,,,,,,,,,
1645708005.573884,1645708005.574325,245.000000,0.000000,4190.256348,4134.358887,4212.948730,4157.307617,4201.025879,4233.974121,4239.102539,4235.641113,4220.384766,4169.871582,4171.666504,4123.846191,4204.358887,4057.564209,3296.000000,4.000000,95.000000,,,,0.000000,4.000000,4.000000,4.000000,4.000000,4.000000,4.000000,4.000000,4.000000,4.000000,4.000000,4.000000,4.000000,4.000000,4.000000,100.000000,,,,,,,,,,,,,,,,
1645708005.577824,1645708005.578265,246.000000,0.000000,4188.333496,4135.128418,4208.974121,4157.179688,4191.922852,4233.717773,4238.077148,4232.051270,4217.563965,4171.538574,4168.461426,4121.025879,4206.410156,4057.564209,2708.000000,4.000000,95.000000,,,,0.000000,4.000000,4.000000,4.000000,4.000000,4.000000,4.000000,4.000000,4.000000,4.000000,4.000000,4.000000,4.000000,4.000000,4.000000,100.000000,,,,,,,,,,,,,,,,
1645708005.581764,1645708005.582206,247.000000,0.000000,4182.692383,4134.743652,4204.358887,4155.128418,4186.153809,4234.102539,4236.410156,4230.897461,4213.205078,4169.230957,4165.512695,4116.922852,4205.000000,4054.358887,3259.000000,4.000000,95.000000,,,,0.000000,4.000000,4.000000,4.000000,4.000000,4.000000,4.000000,4.000000,4.000000,4.000000,4.000000,4.000000,4.000000,4.000000,4.000000,100.000000,,,,,,,,,,,,,,,,
1645708005.585704,1645708005.586146,248.000000,0.000000,4176.922852,4135.128418,4201.410156,4153.333496,4187.820313,4235.512695,4234.615234,4233.461426,4211.410156,4166.922852,4165.000000,4113.974121,4202.563965,4050.769287,3453.000000,4.000000,95.000000,,,,0.000000,4.000000,4.000000,4.000000,4.000000,4.000000,4.000000,4.000000,4.000000,4.000000,4.000000,4.000000,4.000000,4.000000,4.000000,100.000000,,,,,,,,,,,,,,,,
1645708005.589644,1645708005.590087,249.000000,0.000000,4174.615234,4136.922852,4201.153809,4153.717773,4195.256348,4237.051270,4233.461426,4237.307617,4214.230957,4168.846191,4167.051270,4113.846191,4202.692383,4049.743652,3296.000000,4.000000,95.000000,,,,0.000000,4.000000,4.000000,4.000000,4.000000,4.000000,4.000000,4.000000,4.000000,4.000000,4.000000,4.000000,4.000000,4.000000,4.000000,100.000000,,,,,,,,,,,,,,,,
1645708005.593584,1645708005.594027,250.000000,0.000000,4176.153809,4139.230957,4202.307617,4155.897461,4200.897461,4237.051270,4232.436035,4238.589844,4218.717773,4174.487305,4169.102539,4115.256348,4205.769043,4051.281982,2708.000000,4.000000,95.000000,,,,0.000000,4.000000,4.000000,4.000000,4.000000,4.000000,4.000000,4.000000,4.000000,4.000000,4.000000,4.000000,4.000000,4.000000,4.000000,100.000000,,,,,,,,,,,,,,,,
1645708005.597525,1645708005.597867,251.000000,0.000000,4178.589844,4139.358887,4201.922852,4156.922852,4197.436035,4234.615234,4230.384766,4234.230957,4220.384766,4177.692383,4167.563965,4115.256348,4208.717773,4052.435791,3259.000000,4.000000,95.000000,,,,0.000000,4.000000,4.000000,4.000000,4.000000,4.000000,4.000000,4.000000,4.000000,4.000000,4.000000,4.000000,4.000000,4.000000,4.000000,100.000000,,,,,,,,,,,,,,,,
1645708005.601465,1645708005.601807,252.000000,0.000000,4178.333496,4136.922852,4198.205078,4155.000000,4186.025879,4230.128418,4226.153809,4224.743652,4216.410156,4172.179688,4161.922852,4111.410156,4207.692383,4050.769287,3453.000000,4.000000,95.000000,,,,0.000000,4.000000,4.000000,4.000000,4.000000,4.000000,4.000000,4.000000,4.000000,4.000000,4.000000,4.000000,4.000000,4.000000,4.000000,100.000000,,,,,,,,,,,,,,,,
1645708005.605405,1645708005.605747,253.000000,0.000000,4174.615234,4133.717773,4192.436035,4151.025879,4175.641113,4225.256348,4220.000000,4213.974121,4208.589844,4157.051270,4154.487305,4104.358887,4201.794922,4046.410156,3296.000000,4.000000,95.000000,,,,0.000000,4.000000,4.000000,4.000000,4.000000,4.000000,4.000000,4.000000,4.000000,4.000000,4.000000,4.000000,4.000000,4.000000,4.000000,100.000000,,,,,,,,,,,,,,,,
1645708005.609345,1645708005.609687,254.000000,0.000000,4169.743652,4132.563965,4188.205078,4148.077148,4175.769043,4221.666504,4214.102539,4206.282227,4201.794922,4139.358887,4148.205078,4097.179688,4193.846191,4041.794922,2708.000000,4.000000,95.000000,,,,0.000000,4.000000,4.000000,4.000000,4.000000,4.000000,4.000000,4.000000,4.000000,4.000000,4.000000,4.000000,4.000000,4.000000,4.000000,100.000000,,,,,,,,,,,,,,,,
1645708005.613285,1645708005.613528,255.000000,0.000000,4167.179688,4134.743652,4188.077148,4148.589844,4187.692383,4220.128418,4211.153809,4203.717773,4198.717773,4128.461426,4144.615234,4093.461426,4187.692383,4039.358887,115.000000,4.000000,95.000000,,,,0.000000,4.000000,4.000000,4.000000,4.000000,4.000000,4.000000,4.000000,4.000000,4.000000,4.000000,4.000000,4.000000,4.000000,4.000000,100.000000,,,,,,,,,,,,,,,,
1645708005.617225,1645708005.617468,0.000000,0.000000,4169.487305,4139.102539,4192.436035,4152.307617,4204.487305,4219.743652,4212.179688,4205.384766,4199.615234,4131.282227,4145.256348,4094.743652,4186.794922,4041.153809,3254.000000,4.000000,95.000000,,,,0.000000,4.000000,4.000000,4.000000,4.000000,4.000000,4.000000,4.000000,4.000000,4.000000,4.000000,4.000000,4.000000,4.000000,4.000000,100.000000,,,,,,,,,,,,,,,,
1645708005.621165,1645708005.621408,1.000000,0.000000,4176.153809,4143.205078,4198.717773,4157.051270,4217.051270,4219.487305,4215.641113,4208.717773,4202.820313,4147.563965,4151.153809,4099.615234,4191.153809,4047.179443,3417.000000,4.000000,95.000000,,,,0.000000,4.000000,4.000000,4.000000,4.000000,4.000000,4.000000,4.000000,4.000000,4.000000,4.000000,4.000000,4.000000,4.000000,4.000000,100.000000,,,,,,,,,,,,,,,,
1645708005.625105,1645708005.625348,2.000000,0.000000,4183.846191,4145.128418,4203.205078,4160.769043,4219.358887,4218.717773,4218.461426,4211.538574,4206.410156,4170.384766,4160.384766,4105.128418,4198.333496,4055.000000,3483.000000,4.000000,95.000000,,,,0.000000,4.000000,4.000000,4.000000,4.000000,4.000000,4.000000,4.000000,4.000000,4.000000,4.000000,4.000000,4.000000,4.000000,4.000000,100.000000,,,,,,,,,,,,,,,,
1645708005.629045,1645708005.629288,3.000000,0.000000,4188.077148,4143.717773,4203.589844,4162.820313,4211.025879,4218.077148,4218.461426,4212.692383,4209.102539,4188.077148,4166.794922,4108.717773,4204.871582,4060.897461,3672.000000,4.000000,95.000000,2,1,1,0.000000,4.000000,4.000000,4.000000,4.000000,4.000000,4.000000,4.000000,4.000000,4.000000,4.000000,4.000000,4.000000,4.000000,4.000000,100.000000,,,,,,,,,,,,,,,,
1645708005.632985,1645708005.633228,4.000000,0.000000,4187.051270,4139.743652,4201.025879,4163.333496,4197.436035,4218.974121,4216.025879,4212.692383,4210.384766,4191.666504,4164.487305,4110.000000,4208.205078,4062.051270,3660.000000,4.000000,95.000000,,,,0.000000,4.000000,4.000000,4.000000,4.000000,4.000000,4.000000,4.000000,4.000000,4.000000,4.000000,4.000000,4.000000,4.000000,4.000000,100.000000,,,,,,,,,,,,,,,,
1645708005.636925,1645708005.637168,5.000000,0.000000,4182.563965,4135.256348,4198.717773,4163.461426,4186.666504,4221.410156,4214.230957,4212.307617,4210.000000,4180.000000,4153.974121,4110.128418,4206.794922,4058.718018,3440.000000,4.000000,95.000000,,,,0.000000,4.000000,4.000000,4.000000,4.000000,4.000000,4.000000,4.000000,4.000000,4.000000,4.000000,4.000000,4.000000,4.000000,4.000000,100.000000,,,,,,,,,,,,,,,,
1645708005.640865,1645708005.641108,6.000000,0.000000,4178.461426,4132.563965,4199.615234,4163.717773,4184.487305,4224.487305,4215.641113,4212.179688,4208.717773,4161.282227,4143.077148,4110.897461,4201.666504,4054.487061,3045.000000,4.000000,95.000000,,,,0.000000,4.000000,4.000000,4.000000,4.000000,4.000000,4.000000,4.000000,4.000000,4.000000,4.000000,4.000000,4.000000,4.000000,4.000000,100.000000,,,,,,,,,,,,,,,,
1645708005.644805,1645708005.645048,7.000000,0.000000,4177.179688,4132.307617,4202.948730,4164.487305,4189.615234,4226.153809,4219.743652,4212.563965,4206.794922,4146.410156,4140.641113,4112.820313,4195.641113,4053.333252,2976.000000,4.000000,95.000000,,,,0.000000,4.000000,4.000000,4.000000,4.000000,4.000000,4.000000,4.000000,4.000000,4.000000,4.000000,4.000000,4.000000,4.000000,4.000000,100.000000,,,,,,,,,,,,,,,,
1645708005.648745,1645708005.648989,8.000000,0.000000,4177.948730,4132.436035,4206.025879,4164.487305,4195.000000,4225.000000,4223.333496,4213.205078,4204.487305,4142.179688,4148.205078,4114.358887,4191.410156,4055.769287,1450.000000,4.000000,95.000000,,,,0.000000,4.000000,4.000000,4.000000,4.000000,4.000000,4.000000,4.000000,4.000000,4.000000,4.000000,4.000000,4.000000,4.000000,4.000000,100.000000,,,,,,,,,,,,,,,,
1645708005.652685,1645708005.652929,9.000000,0.000000,4177.436035,4129.743652,4205.641113,4161.922852,4193.846191,4221.025879,4223.333496,4213.589844,4202.436035,4146.794922,4159.102539,4113.846191,4189.743652,4058.461426,3317.000000,4.000000,95.000000,,,,0.000000,4.000000,4.000000,4.000000,4.000000,4.000000,4.000000,4.000000,4.000000,4.000000,4.000000,4.000000,4.000000,4.000000,4.000000,100.000000,,,,,,,,,,,,,,,,
1645708005.656625,1645708005.656869,10.000000,0.000000,4173.717773,4123.333496,4201.282227,4156.666504,4185.512695,4216.410156,4220.000000,4213.717773,4200.641113,4153.333496,4163.974121,4110.256348,4189.615234,4057.435791,2701.000000,4.000000,95.000000,,,,0.000000,4.000000,4.000000,4.000000,4.000000,4.000000,4.000000,4.000000,4.000000,4.000000,4.000000,4.000000,4.000000,4.000000,4.000000,100.000000,,,,,,,,,,,,,,,,
1645708005.660565,1645708005.660809,11.000000,0.000000,4168.077148,4115.769043,4195.000000,4150.897461,4176.025879,4213.717773,4216.666504,4214.230957,4199.615234,4155.256348,4159.230957,4105.256348,4189.743652,4051.923096,3571.000000,4.000000,95.000000,,,,0.000000,4.000000,4.000000,4.000000,4.000000,4.000000,4.000000,4.000000,4.000000,4.000000,4.000000,4.000000,4.000000,4.000000,4.000000,100.000000,,,,,,,,,,,,,,,,
1645708005.664505,1645708005.664749,12.000000,0.000000,4164.230957,4112.307617,4189.487305,4147.820313,4172.563965,4214.487305,4216.410156,4215.641113,4200.128418,4151.282227,4149.743652,4101.282227,4189.743652,4045.641113,3383.000000,4.000000,95.000000,,,,0.000000,4.000000,4.000000,4.000000,4.000000,4.000000,4.000000,4.000000,4.000000,4.000000,4.000000,4.000000,4.000000,4.000000,4.000000,100.000000,,,,,,,,,,,,,,,,
1645708005.668445,1645708005.668689,13.000000,0.000000,4165.000000,4115.512695,4186.410156,4149.102539,4177.179688,4218.461426,4219.615234,4217.948730,4202.948730,4145.128418,4144.102539,4100.384766,4190.641113,4043.333252,3458.000000,4.000000,95.000000,,,,0.000000,4.000000,4.000000,4.000000,4.000000,4.000000,4.000000,4.000000,4.000000,4.000000,4.000000,4.000000,4.000000,4.000000,4.000000,100.000000,,,,,,,,,,,,,,,,
1645708005.672385,1645708005.672629,14.000000,0.000000,4169.615234,4123.717773,4185.769043,4152.820313,4185.256348,4223.077148,4223.846191,4220.769043,4207.563965,4142.307617,4147.692383,4102.179688,4192.692383,4046.923096,2701.000000,4.000000,95.000000,,,,0.000000,4.000000,4.000000,4.000000,4.000000,4.000000,4.000000,4.000000,4.000000,4.000000,4.000000,4.000000,4.000000,4.000000,4.000000,100.000000,,,,,,,,,,,,,,,,
1645708005.676325,1645708005.676569,15.000000,0.000000,4174.487305,4131.666504,4186.538574,4155.384766,4189.743652,4224.615234,4226.282227,4224.487305,4211.794922,4145.641113,4157.820313,4105.000000,4195.128418,4053.718018,3571.000000,4.000000,95.000000,,,,0.000000,4.000000,4.000000,4.000000,4.000000,4.000000,4.000000,4.000000,4.000000,4.000000,4.000000,4.000000,4.000000,4.000000,4.000000,100.000000,,,,,,,,,,,,,,,,
1645708005.680266,1645708005.680509,16.000000,0.000000,4176.538574,4134.615234,4187.563965,4154.615234,4186.410156,4221.922852,4225.897461,4229.230957,4213.077148,4154.487305,4166.922852,4106.538574,4196.282227,4058.461426,3383.000000,4.000000,95.000000,,,,0.000000,4.000000,4.000000,4.000000,4.000000,4.000000,4.000000,4.000000,4.000000,4.000000,4.000000,4.000000,4.000000,4.000000,4.000000,100.000000,,,,,,,,,,,,,,,,
1645708005.684206,1645708005.684449,17.000000,0.000000,4175.384766,4132.179688,4187.820313,4151.922852,4177.692383,4217.436035,4223.974121,4234.230957,4211.282227,4164.358887,4168.333496,4105.641113,4195.641113,4057.820557,3458.000000,4.000000,95.000000,,,,0.000000,4.000000,4.000000,4.000000,4.000000,4.000000,4.000000,4.000000,4.000000,4.000000,4.000000,4.000000,4.000000,4.000000,4.000000,100.000000,,,,,,,,,,,,,,,,
1645708005.688146,1645708005.688290,18.000000,0.000000,4172.820313,4128.077148,4186.922852,4150.128418,4171.410156,4215.641113,4222.692383,4237.436035,4208.461426,4170.512695,4161.922852,4102.692383,4193.846191,4052.820557,2701.000000,4.000000,95.000000,,,,0.000000,4.000000,4.000000,4.000000,4.000000,4.000000,4.000000,4.000000,4.000000,4.000000,4.000000,4.000000,4.000000,4.000000,4.000000,100.000000,,,,,,,,,,,,,,,,
1645708005.692086,1645708005.692230,19.000000,0.000000,4171.538574,4126.282227,4185.769043,4151.025879,4174.615234,4218.846191,4223.333496,4236.922852,4206.666504,4170.512695,4153.077148,4098.846191,4192.436035,4046.666748,3571.000000,4.000000,95.000000,,,,0.000000,4.000000,4.000000,4.000000,4.000000,4.000000,4.000000,4.000000,4.000000,4.000000,4.000000,4.000000,4.000000,4.000000,4.000000,100.000000,,,,,,,,,,,,,,,,
1645708005.696026,1645708005.696170,20.000000,0.000000,4171.666504,4128.077148,4185.256348,4153.461426,4187.436035,4225.256348,4225.512695,4232.563965,4206.794922,4165.384766,4147.307617,4094.743652,4191.666504,4042.692383,3383.000000,4.000000,95.000000,,,,0.000000,4.000000,4.000000,4.000000,4.000000,4.000000,4.000000,4.000000,4.000000,4.000000,4.000000,4.000000,4.000000,4.000000,4.000000,100.000000,,,,,,,,,,,,,,,,
1645708005.699966,1645708005.700110,21.000000,0.000000,4171.922852,4131.025879,4185.897461,4155.128418,4202.307617,4230.897461,4227.051270,4226.153809,4207.820313,4158.846191,4146.282227,4090.512939,4190.256348,4041.410156,3458.000000,4.000000,95.000000,,,,0.000000,4.000000,4.000000,4.000000,4.000000,4.000000,4.000000,4.000000,4.000000,4.000000,4.000000,4.000000,4.000000,4.000000,4.000000,100.000000,,,,,,,,,,,,,,,,
1645708005.703906,1645708005.704050,22.000000,0.000000,4171.025879,4132.436035,4187.563965,4155.000000,4209.743652,4232.179688,4225.512695,4220.256348,4208.205078,4154.230957,4146.922852,4086.281982,4187.179688,4041.538574,2701.000000,4.000000,95.000000,,,,0.000000,4.000000,4.000000,4.000000,4.000000,4.000000,4.000000,4.000000,4.000000,4.000000,4.000000,4.000000,4.000000,4.000000,4.000000,100.000000,1.000000,25.000000,4.000000,4.000000,1.000000,1.000000,1.000000,4.000000,4.000000,4.000000,4.000000,3.000000,3.000000,4.000000,4.000000,1.000000
1645708005.707846,1645708005.707990,23.000000,0.000000,4169.743652,4131.922852,4189.358887,4153.205078,4206.666504,4229.230957,4220.897461,4216.794922,4207.436035,4153.333496,4146.666504,4082.948730,4183.077148,4041.666748,3571.000000,4.000000,95.000000,,,,0.000000,4.000000,4.000000,4.000000,4.000000,4.000000,4.000000,4.000000,4.000000,4.000000,4.000000,4.000000,4.000000,4.000000,4.000000,100.000000,,,,,,,,,,,,,,,,
1645708005.711786,1645708005.711930,24.000000,0.000000,4169.871582,4130.769043,4191.282227,4151.025879,4198.846191,4224.871582,4215.641113,4215.897461,4206.666504,4155.769043,4145.256348,4081.923096,4180.128418,4042.179443,3383.000000,4.000000,95.000000,,,,0.000000,4.000000,4.000000,4.000000,4.000000,4.000000,4.000000,4.000000,4.000000,4.000000,4.000000,4.000000,4.000000,4.000000,4.000000,100.000000,,,,,,,,,,,,,,,,
1645708005.715726,1645708005.715870,25.000000,0.000000,4172.179688,4130.384766,4193.846191,4149.358887,4193.717773,4222.307617,4213.589844,4216.282227,4207.948730,4160.000000,4144.358887,4083.718018,4180.256348,4043.974365,3458.000000,4.000000,95.000000,,,,0.000000,4.000000,4.000000,4.000000,4.000000,4.000000,4.000000,4.000000,4.000000,4.000000,4.000000,4.000000,4.000000,4.000000,4.000000,100.000000,,,,,,,,,,,,,,,,
1645708005.719666,1645708005.719811,26.000000,0.000000,4175.641113,4131.025879,4196.538574,4148.717773,4193.333496,4222.436035,4215.769043,4215.769043,4210.897461,4163.589844,4144.615234,4087.435791,4183.461426,4047.051270,2701.000000,4.000000,95.000000,,,,0.000000,4.000000,4.000000,4.000000,4.000000,4.000000,4.000000,4.000000,4.000000,4.000000,4.000000,4.000000,4.000000,4.000000,4.000000,100.000000,,,,,,,,,,,,,,,,
1645708005.723606,1645708005.723751,27.000000,0.000000,4177.948730,4131.025879,4198.205078,4148.461426,4193.333496,4223.717773,4219.102539,4212.692383,4213.077148,4163.717773,4144.487305,4091.538574,4186.922852,4050.128174,3571.000000,4.000000,95.000000,,,,0.000000,4.000000,4.000000,4.000000,4.000000,4.000000,4.000000,4.000000,4.000000,4.000000,4.000000,4.000000,4.000000,4.000000,4.000000,100.000000,,,,,,,,,,,,,,,,
1645708005.727546,1645708005.727691,28.000000,0.000000,4177.307617,4128.717773,4197.692383,4148.589844,4189.230957,4223.589844,4219.487305,4206.282227,4211.794922,4158.846191,4142.692383,4094.743652,4186.922852,4051.410156,3383.000000,4.000000,95.000000,,,,0.000000,4.000000,4.000000,4.000000,4.000000,4.000000,4.000000,4.000000,4.000000,4.000000,4.000000,4.000000,4.000000,4.000000,4.000000,100.000000,,,,,,,,,,,,,,,,
1645708005.731486,1645708005.731631,29.000000,0.000000,4174.487305,4124.871582,4195.512695,4148.974121,4182.179688,4221.666504,4215.897461,4198.589844,4206.794922,4149.743652,4139.358887,4096.410156,4182.051270,4050.000000,3458.000000,4.000000,95.000000,,,,0.000000,4.000000,4.000000,4.000000,4.000000,4.000000,4.000000,4.000000,4.000000,4.000000,4.000000,4.000000,4.000000,4.000000,4.000000,100.000000,,,,,,,,,,,,,,,,
1645708005.735426,1645708005.735571,30.000000,0.000000,4172.179688,4122.179688,4194.487305,4150.000000,4177.179688,4219.615234,4211.410156,4193.717773,4201.025879,4140.897461,4136.794922,4097.307617,4175.384766,4047.435791,2701.000000,4.000000,95.000000,,,,0.000000,4.000000,4.000000,4.000000,4.000000,4.000000,4.000000,4.000000,4.000000,4.000000,4.000000,4.000000,4.000000,4.000000,4.000000,100.000000,,,,,,,,,,,,,,,,
1645708005.739366,1645708005.739511,31.000000,0.000000,4173.077148,4124.102539,4197.436035,4152.307617,4179.102539,4220.256348,4210.641113,4195.641113,4198.846191,4138.205078,4138.077148,4098.461426,4173.205078,4046.666748,3571.000000,4.000000,95.000000,,,,0.000000,4.000000,4.000000,4.000000,4.000000,4.000000,4.000000,4.000000,4.000000,4.000000,4.000000,4.000000,4.000000,4.000000,4.000000,100.000000,,,,,,,,,,,,,,,,
1645708005.743306,1645708005.743451,32.000000,0.000000,4178.461426,4131.410156,4204.615234,4156.025879,4188.461426,4225.000000,4215.769043,4205.000000,4202.179688,4146.025879,4144.230957,4101.153809,4179.615234,4050.384521,0.000000,4.000000,95.000000,,,,0.000000,4.000000,4.000000,4.000000,4.000000,4.000000,4.000000,4.000000,4.000000,4.000000,4.000000,4.000000,4.000000,4.000000,4.000000,100.000000,,,,,,,,,,,,,,,,
1645708005.747246,1645708005.747391,33.000000,0.000000,4186.153809,4140.897461,4212.948730,4160.384766,4200.512695,4231.922852,4223.717773,4217.179688,4208.589844,4162.051270,4153.461426,4106.153809,4192.307617,4058.333252,0.000000,4.000000,95.000000,,,,0.000000,4.000000,4.000000,4.000000,4.000000,4.000000,4.000000,4.000000,4.000000,4.000000,4.000000,4.000000,4.000000,4.000000,4.000000,100.000000,,,,,,,,,,,,,,,,
1645708005.751186,1645708005.751331,34.000000,0.000000,4191.666504,4147.563965,4217.948730,4164.102539,4207.948730,4236.794922,4230.128418,4226.282227,4213.461426,4177.820313,4161.666504,4111.922852,4204.230957,4066.794922,0.000000,4.000000,95.000000,,,,0.000000,4.000000,4.000000,4.000000,4.000000,4.000000,4.000000,4.000000,4.000000,4.000000,4.000000,4.000000,4.000000,4.000000,4.000000,100.000000,,,,,,,,,,,,,,,,
1645708005.755127,1645708005.755271,35.000000,0.000000,4191.666504,4147.436035,4217.051270,4165.256348,4206.410156,4236.282227,4231.794922,4229.871582,4214.102539,4183.974121,4165.128418,4116.538574,4208.846191,4071.538574,0.000000,4.000000,95.000000,,,,0.000000,4.000000,4.000000,4.000000,4.000000,4.000000,4.000000,4.000000,4.000000,4.000000,4.000000,4.000000,4.000000,4.000000,4.000000,100.000000,,,,,,,,,,,,,,,,
1645708005.759066,1645708005.759312,36.000000,0.000000,4187.307617,4141.666504,4211.410156,4163.846191,4198.461426,4230.897461,4229.743652,4230.384766,4211.922852,4179.102539,4163.974121,4118.717773,4205.769043,4071.666748,0.000000,4.000000,95.000000,,,,0.000000,4.000000,4.000000,4.000000,4.000000,4.000000,4.000000,4.000000,4.000000,4.000000,4.000000,4.000000,4.000000,4.000000,4.000000,100.000000,,,,,,,,,,,,,,,,
1645708005.763007,1645708005.763252,37.000000,0.000000,4183.205078,4135.384766,4205.128418,4161.666504,4191.666504,4224.871582,4227.179688,4231.666504,4210.769043,4170.769043,4161.922852,4119.230957,4201.025879,4069.487061,0.000000,4.000000,95.000000,,,,0.000000,4.000000,4.000000,4.000000,4.000000,4.000000,4.000000,4.000000,4.000000,4.000000,4.000000,4.000000,4.000000,4.000000,4.000000,100.000000,,,,,,,,,,,,,,,,
1645708005.766947,1645708005.767192,38.000000,0.000000,4183.333496,4133.846191,4202.307617,4160.384766,4191.922852,4222.820313,4227.051270,4235.128418,4213.461426,4168.717773,4162.692383,4118.846191,4200.641113,4068.461426,0.000000,4.000000,95.000000,,,,0.000000,4.000000,4.000000,4.000000,4.000000,4.000000,4.000000,4.000000,4.000000,4.000000,4.000000,4.000000,4.000000,4.000000,4.000000,100.000000,,,,,,,,,,,,,,,,
1645708005.770887,1645708005.771133,39.000000,0.000000,4186.794922,4137.179688,4203.717773,4160.128418,4197.179688,4225.384766,4229.102539,4238.974121,4218.205078,4175.256348,4165.128418,4117.051270,4205.128418,4069.102539,0.000000,4.000000,95.000000,,,,0.000000,4.000000,4.000000,4.000000,4.000000,4.000000,4.000000,4.000000,4.000000,4.000000,4.000000,4.000000,4.000000,4.000000,4.000000,100.000000,,,,,,,,,,,,,,,,
1645708005.774827,1645708005.775073,40.000000,0.000000,4189.358887,4140.641113,4206.922852,4158.717773,4199.743652,4228.589844,4230.769043,4240.128418,4220.897461,4183.461426,4165.384766,4112.179688,4209.102539,4068.846191,0.000000,4.000000,95.000000,,,,0.000000,4.000000,4.000000,4.000000,4.000000,4.000000,4.000000,4.000000,4.000000,4.000000,4.000000,4.000000,4.000000,4.000000,4.000000,100.000000,,,,,,,,,,,,,,,,
1645708005.778767,1645708005.779013,41.000000,0.000000,4187.179688,4139.358887,4208.333496,4154.615234,4193.461426,4228.589844,4230.000000,4237.179688,4218.846191,4184.615234,4160.384766,4104.230957,4206.538574,4065.512939,0.000000,4.000000,95.000000,,,,0.000000,4.000000,4.000000,4.000000,4.000000,4.000000,4.000000,4.000000,4.000000,4.000000,4.000000,4.000000,4.000000,4.000000,4.000000,100.000000,,,,,,,,,,,,,,,,
1645708005.782707,1645708005.782954,42.000000,0.000000,4180.641113,4132.820313,4206.153809,4148.589844,4181.025879,4225.000000,4226.666504,4231.282227,4213.461426,4176.922852,4152.051270,4095.769287,4197.563965,4059.871826,0.000000,4.000000,95.000000,,,,0.000000,4.000000,4.000000,4.000000,4.000000,4.000000,4.000000,4.000000,4.000000,4.000000,4.000000,4.000000,4.000000,4.000000,4.000000,100.000000,,,,,,,,,,,,,,,,
1645708005.786647,1645708005.786894,43.000000,0.000000,4173.846191,4125.384766,4201.153809,4143.589844,4171.153809,4220.128418,4222.563965,4225.384766,4208.717773,4166.922852,4145.256348,4090.512939,4186.922852,4054.871826,0.000000,4.000000,95.000000,,,,0.000000,4.000000,4.000000,4.000000,4.000000,4.000000,4.000000,4.000000,4.000000,4.000000,4.000000,4.000000,4.000000,4.000000,4.000000,100.000000,,,,,,,,,,,,,,,,
1645708005.790587,1645708005.790834,44.000000,0.000000,4170.769043,4121.922852,4195.897461,4141.410156,4171.153809,4217.436035,4220.128418,4222.692383,4207.563965,4162.820313,4143.717773,4090.641113,4180.641113,4052.692383,0.000000,4.000000,95.000000,,,,0.000000,4.000000,4.000000,4.000000,4.000000,4.000000,4.000000,4.000000,4.000000,4.000000,4.000000,4.000000,4.000000,4.000000,4.000000,100.000000,,,,,,,,,,,,,,,,
1645708005.794527,1645708005.794775,45.000000,0.000000,4173.077148,4123.717773,4193.717773,4143.333496,4180.512695,4218.077148,4220.512695,4224.871582,4209.871582,4166.538574,4146.410156,4094.871826,4180.897461,4053.205078,0.000000,4.000000,95.000000,,,,0.000000,4.000000,4.000000,4.000000,4.000000,4.000000,4.000000,4.000000,4.000000,4.000000,4.000000,4.000000,4.000000,4.000000,4.000000,100.000000,,,,,,,,,,,,,,,,
1645708005.798467,1645708005.798715,46.000000,0.000000,4178.974121,4128.589844,4195.641113,4148.333496,4192.692383,4221.666504,4223.333496,4230.384766,4213.846191,4173.077148,4149.871582,4099.358887,4185.641113,4054.743652,0.000000,4.000000,95.000000,,,,0.000000,4.000000,4.000000,4.000000,4.000000,4.000000,4.000000,4.000000,4.000000,4.000000,4.000000,4.000000,4.000000,4.000000,4.000000,100.000000,,,,,,,,,,,,,,,,
1645708005.802407,1645708005.802656,47.000000,0.000000,4185.512695,4133.205078,4200.769043,4154.743652,4202.051270,4226.666504,4227.051270,4235.384766,4216.922852,4176.153809,4150.384766,4101.025879,4190.256348,4056.025635,0.000000,4.000000,95.000000,,,,0.000000,4.000000,4.000000,4.000000,4.000000,4.000000,4.000000,4.000000,4.000000,4.000000,4.000000,4.000000,4.000000,4.000000,4.000000,100.000000,,,,,,,,,,,,,,,,
1645708005.806347,1645708005.806596,48.000000,0.000000,4189.615234,4135.128418,4206.025879,4159.871582,4206.922852,4231.538574,4230.256348,4236.922852,4217.948730,4173.974121,4147.179688,4098.974121,4191.794922,4056.923096,0.000000,4.000000,95.000000,,,,0.000000,4.000000,4.000000,4.000000,4.000000,4.000000,4.000000,4.000000,4.000000,4.000000,4.000000,4.000000,4.000000,4.000000,4.000000,100.000000,,,,,,,,,,,,,,,,
1645708005.810287,1645708005.810536,49.000000,0.000000,4189.871582,4134.615234,4208.717773,4161.025879,4207.051270,4234.871582,4231.922852,4235.128418,4217.307617,4169.358887,4142.179688,4095.000000,4189.871582,4057.948730,0.000000,4.000000,95.000000,,,,0.000000,4.000000,4.000000,4.000000,4.000000,4.000000,4.000000,4.000000,4.000000,4.000000,4.000000,4.000000,4.000000,4.000000,4.000000,100.000000,,,,,,,,,,,,,,,,
1645708005.814227,1645708005.814477,50.000000,0.000000,4187.051270,4132.692383,4208.205078,4158.077148,4201.410156,4235.128418,4232.051270,4232.436035,4215.641113,4165.897461,4138.077148,4091.666748,4185.897461,4058.461426,0.000000,4.000000,95.000000,,,,0.000000,4.000000,4.000000,4.000000,4.000000,4.000000,4.000000,4.000000,4.000000,4.000000,4.000000,4.000000,4.000000,4.000000,4.000000,100.000000,,,,,,,,,,,,,,,,
1645708005.818167,1645708005.818417,51.000000,0.000000,4182.692383,4130.512695,4206.025879,4153.461426,4190.641113,4231.538574,4232.051270,4231.282227,4214.230957,4165.128418,4136.666504,4091.410156,4181.538574,4057.564209,0.000000,4.000000,95.000000,,,,0.000000,4.000000,4.000000,4.000000,4.000000,4.000000,4.000000,4.000000,4.000000,4.000000,4.000000,4.000000,4.000000,4.000000,4.000000,100.000000,,,,,,,,,,,,,,,,
1645708005.822107,1645708005.822357,52.000000,0.000000,4179.230957,4128.589844,4203.974121,4150.897461,4179.487305,4226.666504,4232.820313,4232.563965,4213.589844,4166.410156,4138.589844,4095.256348,4178.077148,4055.256348,0.000000,4.000000,95.000000,,,,0.000000,4.000000,4.000000,4.000000,4.000000,4.000000,4.000000,4.000000,4.000000,4.000000,4.000000,4.000000,4.000000,4.000000,4.000000,100.000000,,,,,,,,,,,,,,,,
1645708005.826048,1645708005.826298,53.000000,0.000000,4178.333496,4128.077148,4203.461426,4152.179688,4174.615234,4223.974121,4235.000000,4234.871582,4213.589844,4168.461426,4143.333496,4102.051270,4177.563965,4053.974365,0.000000,4.000000,95.000000,,,,0.000000,4.000000,4.000000,4.000000,4.000000,4.000000,4.000000,4.000000,4.000000,4.000000,4.000000,4.000000,4.000000,4.000000,4.000000,100.000000,,,,,,,,,,,,,,,,
1645708005.829987,1645708005.830338,54.000000,0.000000,4180.512695,4129.230957,4204.615234,4155.897461,4178.717773,4225.897461,4237.436035,4235.897461,4213.589844,4170.384766,4149.230957,4108.461426,4180.769043,4055.384521,0.000000,4.000000,95.000000,,,,0.000000,4.000000,4.000000,4.000000,4.000000,4.000000,4.000000,4.000000,4.000000,4.000000,4.000000,4.000000,4.000000,4.000000,4.000000,100.000000,,,,,,,,,,,,,,,,
1645708005.833928,1645708005.834278,55.000000,0.000000,4183.846191,4131.025879,4206.922852,4158.589844,4187.307617,4230.256348,4238.461426,4234.358887,4212.563965,4172.051270,4153.589844,4111.666504,4186.666504,4059.102539,0.000000,4.000000,95.000000,,,,0.000000,4.000000,4.000000,4.000000,4.000000,4.000000,4.000000,4.000000,4.000000,4.000000,4.000000,4.000000,4.000000,4.000000,4.000000,100.000000,,,,,,,,,,,,,,,,
1645708005.837868,1645708005.838218,56.000000,0.000000,4185.897461,4131.666504,4208.589844,4157.436035,4192.051270,4232.820313,4237.051270,4230.769043,4210.000000,4172.948730,4154.358887,4110.384766,4192.179688,4063.076904,0.000000,4.000000,95.000000,,,,0.000000,4.000000,4.000000,4.000000,4.000000,4.000000,4.000000,4.000000,4.000000,4.000000,4.000000,4.000000,4.000000,4.000000,4.000000,100.000000,,,,,,,,,,,,,,,,
1645708005.841808,1645708005.842159,57.000000,0.000000,4184.871582,4130.384766,4207.436035,4152.436035,4188.974121,4231.153809,4232.820313,4226.153809,4206.153809,4172.692383,4151.538574,4106.282227,4194.871582,4064.871826,0.000000,4.000000,95.000000,,,,0.000000,4.000000,4.000000,4.000000,4.000000,4.000000,4.000000,4.000000,4.000000,4.000000,4.000000,4.000000,4.000000,4.000000,4.000000,100.000000,,,,,,,,,,,,,,,,
1645708005.845748,1645708005.846099,58.000000,0.000000,4181.410156,4128.205078,4203.589844,4146.538574,4181.538574,4226.282227,4227.436035,4222.179688,4202.820313,4171.410156,4147.179688,4102.179688,4194.358887,4064.487061,0.000000,4.000000,95.000000,,,,0.000000,4.000000,4.000000,4.000000,4.000000,4.000000,4.000000,4.000000,4.000000,4.000000,4.000000,4.000000,4.000000,4.000000,4.000000,100.000000,,,,,,,,,,,,,,,,
1645708005.849688,1645708005.850040,59.000000,0.000000,4178.333496,4126.794922,4199.358887,4142.436035,4176.794922,4221.794922,4223.461426,4220.641113,4202.179688,4170.128418,4144.487305,4100.512695,4193.077148,4063.718018,0.000000,4.000000,95.000000,,,,0.000000,4.000000,4.000000,4.000000,4.000000,4.000000,4.000000,4.000000,4.000000,4.000000,4.000000,4.000000,4.000000,4.000000,4.000000,100.000000,,,,,,,,,,,,,,,,
1645708005.853628,1645708005.853980,60.000000,0.000000,4177.692383,4126.538574,4197.436035,4142.179688,4179.102539,4220.641113,4223.077148,4221.922852,4204.871582,4169.743652,4144.615234,4101.922852,4192.820313,4064.358887,0.000000,4.000000,95.000000,,,,0.000000,4.000000,4.000000,4.000000,4.000000,4.000000,4.000000,4.000000,4.000000,4.000000,4.000000,4.000000,4.000000,4.000000,4.000000,100.000000,,,,,,,,,,,,,,,,
1645708005.857568,1645708005.857920,61.000000,0.000000,4179.743652,4126.794922,4198.717773,4145.256348,4186.025879,4222.948730,4226.538574,4224.230957,4208.846191,4170.256348,4146.922852,4105.000000,4193.717773,4066.794922,0.000000,4.000000,95.000000,,,,0.000000,4.000000,4.000000,4.000000,4.000000,4.000000,4.000000,4.000000,4.000000,4.000000,4.000000,4.000000,4.000000,4.000000,4.000000,100.000000,,,,,,,,,,,,,,,,
1645708005.861508,1645708005.861861,62.000000,0.000000,4182.563965,4127.307617,4201.025879,4149.743652,4191.282227,4226.025879,4231.282227,4224.358887,4211.025879,4171.153809,4149.358887,4107.948730,4195.128418,4069.871826,0.000000,4.000000,95.000000,,,,0.000000,4.000000,4.000000,4.000000,4.000000,4.000000,4.000000,4.000000,4.000000,4.000000,4.000000,4.000000,4.000000,4.000000,4.000000,100.000000,,,,,,,,,,,,,,,,
1645708005.865448,1645708005.865801,63.000000,0.000000,4184.358887,4128.461426,4201.922852,4153.589844,4191.153809,4227.179688,4233.333496,4220.512695,4209.487305,4172.692383,4150.897461,4109.102539,4196.794922,4072.179443,0.000000,4.000000,95.000000,,,,0.000000,4.000000,4.000000,4.000000,4.000000,4.000000,4.000000,4.000000,4.000000,4.000000,4.000000,4.000000,4.000000,4.000000,4.000000,100.000000,,,,,,,,,,,,,,,,
1645708005.869388,1645708005.869741,64.000000,0.000000,4184.743652,4131.153809,4200.384766,4155.897461,4187.307617,4225.769043,4231.666504,4214.743652,4205.000000,4174.230957,4151.025879,4108.205078,4198.717773,4072.948730,0.000000,4.000000,95.000000,,,,0.000000,4.000000,4.000000,4.000000,4.000000,4.000000,4.000000,4.000000,4.000000,4.000000,4.000000,4.000000,4.000000,4.000000,4.000000,100.000000,,,,,,,,,,,,,,,,
1645708005.873328,1645708005.873682,65.000000,0.000000,4185.000000,4134.743652,4198.461426,4156.666504,4184.230957,4223.077148,4228.077148,4211.794922,4201.025879,4175.128418,4149.743652,4106.025879,4200.641113,4071.923096,0.000000,4.000000,95.000000,,,,0.000000,4.000000,4.000000,4.000000,4.000000,4.000000,4.000000,4.000000,4.000000,4.000000,4.000000,4.000000,4.000000,4.000000,4.000000,100.000000,,,,,,,,,,,,,,,,
1645708005.877268,1645708005.877622,66.000000,0.000000,4185.512695,4137.692383,4198.205078,4156.282227,4186.153809,4220.897461,4225.384766,4214.871582,4201.410156,4175.000000,4146.153809,4102.948730,4200.256348,4069.871826,0.000000,4.000000,95.000000,,,,0.000000,4.000000,4.000000,4.000000,4.000000,4.000000,4.000000,4.000000,4.000000,4.000000,4.000000,4.000000,4.000000,4.000000,4.000000,100.000000,,,,,,,,,,,,,,,,
1645708005.881208,1645708005.881562,67.000000,0.000000,4185.897461,4138.846191,4199.871582,4154.743652,4192.820313,4220.512695,4225.384766,4222.436035,4206.922852,4174.358887,4140.641113,4099.230957,4195.897461,4067.435791,0.000000,4.000000,95.000000,,,,0.000000,4.000000,4.000000,4.000000,4.000000,4.000000,4.000000,4.000000,4.000000,4.000000,4.000000,4.000000,4.000000,4.000000,4.000000,100.000000,,,,,,,,,,,,,,,,
1645708005.885148,1645708005.885503,68.000000,0.000000,4185.769043,4138.077148,4201.282227,4152.436035,4199.358887,4221.922852,4227.179688,4229.230957,4213.461426,4172.948730,4134.487305,4094.743652,4188.461426,4065.000000,0.000000,4.000000,95.000000,,,,0.000000,4.000000,4.000000,4.000000,4.000000,4.000000,4.000000,4.000000,4.000000,4.000000,4.000000,4.000000,4.000000,4.000000,4.000000,100.000000,,,,,,,,,,,,,,,,
1645708005.889088,1645708005.889443,69.000000,0.000000,4184.487305,4135.897461,4200.384766,4150.128418,4200.128418,4224.230957,4228.846191,4230.256348,4216.282227,4169.871582,4129.743652,4090.256348,4180.897461,4062.307617,0.000000,4.000000,95.000000,,,,0.000000,4.000000,4.000000,4.000000,4.000000,4.000000,4.000000,4.000000,4.000000,4.000000,4.000000,4.000000,4.000000,4.000000,4.000000,100.000000,,,,,,,,,,,,,,,,
1645708005.893028,1645708005.893383,70.000000,0.000000,4182.179688,4132.563965,4197.563965,4148.717773,4193.333496,4226.153809,4229.230957,4225.384766,4212.820313,4164.743652,4126.666504,4086.666748,4175.384766,4058.589844,0.000000,4.000000,95.000000,,,,0.000000,4.000000,4.000000,4.000000,4.000000,4.000000,4.000000,4.000000,4.000000,4.000000,4.000000,4.000000,4.000000,4.000000,4.000000,100.000000,,,,,,,,,,,,,,,,
1645708005.896968,1645708005.897324,71.000000,0.000000,4178.846191,4128.461426,4194.743652,4148.333496,4182.436035,4226.538574,4229.358887,4219.615234,4205.512695,4159.615234,4124.615234,4084.615479,4171.922852,4053.589844,0.000000,4.000000,95.000000,,,,0.000000,4.000000,4.000000,4.000000,4.000000,4.000000,4.000000,4.000000,4.000000,4.000000,4.000000,4.000000,4.000000,4.000000,4.000000,100.000000,,,,,,,,,,,,,,,,
1645708005.900908,1645708005.901264,72.000000,0.000000,4176.282227,4125.128418,4193.846191,4148.717773,4173.846191,4225.512695,4230.641113,4218.589844,4199.487305,4158.077148,4122.948730,4084.743652,4169.743652,4048.974365,0.000000,4.000000,95.000000,,,,0.000000,4.000000,4.000000,4.000000,4.000000,4.000000,4.000000,4.000000,4.000000,4.000000,4.000000,4.000000,4.000000,4.000000,4.000000,100.000000,,,,,,,,,,,,,,,,
1645708005.904848,1645708005.905304,73.000000,0.000000,4176.025879,4124.743652,4195.897461,4150.000000,4172.436035,4224.871582,4233.589844,4224.230957,4199.102539,4162.948730,4123.077148,4087.179443,4169.743652,4048.076904,0.000000,4.000000,95.000000,,,,0.000000,4.000000,4.000000,4.000000,4.000000,4.000000,4.000000,4.000000,4.000000,4.000000,4.000000,4.000000,4.000000,4.000000,4.000000,100.000000,,,,,,,,,,,,,,,,
1645708005.908789,1645708005.909244,74.000000,0.000000,4179.102539,4127.948730,4200.256348,4152.563965,4178.077148,4225.512695,4237.179688,4234.230957,4205.641113,4173.589844,4127.948730,4092.564209,4173.461426,4053.461426,0.000000,4.000000,95.000000,,,,0.000000,4.000000,4.000000,4.000000,4.000000,4.000000,4.000000,4.000000,4.000000,4.000000,4.000000,4.000000,4.000000,4.000000,4.000000,100.000000,,,,,,,,,,,,,,,,
1645708005.912729,1645708005.913184,75.000000,0.000000,4184.743652,4133.077148,4205.384766,4156.153809,4187.051270,4227.307617,4240.128418,4243.846191,4215.128418,4185.512695,4138.717773,4100.641113,4182.307617,4065.641113,0.000000,4.000000,95.000000,,,,0.000000,4.000000,4.000000,4.000000,4.000000,4.000000,4.000000,4.000000,4.000000,4.000000,4.000000,4.000000,4.000000,4.000000,4.000000,100.000000,,,,,,,,,,,,,,,,
1645708005.916669,1645708005.917124,76.000000,0.000000,4191.282227,4137.820313,4210.384766,4159.230957,4195.000000,4228.974121,4242.179688,4248.974121,4221.794922,4193.205078,4153.077148,4109.871582,4195.000000,4081.410156,0.000000,4.000000,95.000000,,,,0.000000,4.000000,4.000000,4.000000,4.000000,4.000000,4.000000,4.000000,4.000000,4.000000,4.000000,4.000000,4.000000,4.000000,4.000000,100.000000,,,,,,,,,,,,,,,,
1645708005.920609,1645708005.921064,77.000000,0.000000,4197.051270,4140.641113,4213.974121,4160.641113,4200.256348,4230.512695,4244.102539,4249.102539,4222.692383,4194.615234,4166.538574,4117.820313,4208.333496,4095.897461,0.000000,4.000000,95.000000,,,,0.000000,4.000000,4.000000,4.000000,4.000000,4.000000,4.000000,4.000000,4.000000,4.000000,4.000000,4.000000,4.000000,4.000000,4.000000,100.000000,,,,,,,,,,,,,,,,
1645708005.924549,1645708005.925005,78.000000,0.000000,4201.410156,4141.410156,4215.512695,4159.871582,4202.563965,4233.205078,4246.410156,4246.666504,4219.230957,4192.692383,4175.000000,4122.692383,4218.461426,4105.000000,0.000000,4.000000,95.000000,,,,0.000000,4.000000,4.000000,4.000000,4.000000,4.000000,4.000000,4.000000,4.000000,4.000000,4.000000,4.000000,4.000000,4.000000,4.000000,100.000000,,,,,,,,,,,,,,,,
1645708005.928489,1645708005.928945,79.000000,0.000000,4203.974121,4140.512695,4215.128418,4158.461426,4202.820313,4237.179688,4248.333496,4245.512695,4216.282227,4191.666504,4177.692383,4123.846191,4223.205078,4106.922852,0.000000,4.000000,95.000000,,,,0.000000,4.000000,4.000000,4.000000,4.000000,4.000000,4.000000,4.000000,4.000000,4.000000,4.000000,4.000000,4.000000,4.000000,4.000000,100.000000,,,,,,,,,,,,,,,,
1645708005.932429,1645708005.932885,80.000000,0.000000,4204.743652,4138.846191,4213.589844,4157.692383,4201.153809,4240.256348,4248.205078,4247.307617,4217.051270,4194.230957,4176.538574,4122.436035,4223.077148,4103.205078,0.000000,4.000000,95.000000,,,,0.000000,4.000000,4.000000,4.000000,4.000000,4.000000,4.000000,4.000000,4.000000,4.000000,4.000000,4.000000,4.000000,4.000000,4.000000,100.000000,,,,,,,,,,,,,,,,
1645708005.936369,1645708005.936825,81.000000,0.000000,4203.846191,4137.051270,4211.794922,4158.333496,4198.333496,4240.641113,4245.897461,4250.128418,4221.410156,4199.358887,4174.230957,4120.128418,4221.282227,4097.948730,0.000000,4.000000,95.000000,,,,0.000000,4.000000,4.000000,4.000000,4.000000,4.000000,4.000000,4.000000,4.000000,4.000000,4.000000,4.000000,4.000000,4.000000,4.000000,100.000000,,,,,,,,,,,,,,,,
1645708005.940309,1645708005.940765,82.000000,0.000000,4202.307617,4136.153809,4210.512695,4159.102539,4195.769043,4237.820313,4242.692383,4250.897461,4226.282227,4203.717773,4173.077148,4118.333496,4221.153809,4094.743652,0.000000,4.000000,95.000000,,,,0.000000,4.000000,4.000000,4.000000,4.000000,4.000000,4.000000,4.000000,4.000000,4.000000,4.000000,4.000000,4.000000,4.000000,4.000000,100.000000,,,,,,,,,,,,,,,,
1645708005.944249,1645708005.944705,83.000000,0.000000,4200.641113,4135.897461,4209.615234,4158.589844,4195.000000,4233.717773,4240.384766,4247.820313,4228.589844,4205.000000,4173.589844,4117.436035,4223.461426,4095.128174,0.000000,4.000000,95.000000,,,,0.000000,4.000000,4.000000,4.000000,4.000000,4.000000,4.000000,4.000000,4.000000,4.000000,4.000000,4.000000,4.000000,4.000000,4.000000,100.000000,,,,,,,,,,,,,,,,
1645708005.948189,1645708005.948645,84.000000,0.000000,4198.846191,4134.871582,4207.948730,4156.410156,4195.641113,4230.384766,4238.974121,4241.538574,4227.051270,4202.692383,4174.358887,4116.410156,4225.897461,4097.436035,0.000000,4.000000,95.000000,,,,0.000000,4.000000,4.000000,4.000000,4.000000,4.000000,4.000000,4.000000,4.000000,4.000000,4.000000,4.000000,4.000000,4.000000,4.000000,100.000000,,,,,,,,,,,,,,,,
1645708005.952129,1645708005.952585,85.000000,0.000000,4195.897461,4131.794922,4205.000000,4152.820313,4195.384766,4228.205078,4237.436035,4235.000000,4222.307617,4197.948730,4172.563965,4113.717773,4225.000000,4097.692383,0.000000,4.000000,95.000000,,,,0.000000,4.000000,4.000000,4.000000,4.000000,4.000000,4.000000,4.000000,4.000000,4.000000,4.000000,4.000000,4.000000,4.000000,4.000000,100.000000,,,,,,,,,,,,,,,,
1645708005.956069,1645708005.956525,86.000000,0.000000,4191.410156,4126.794922,4200.897461,4148.205078,4192.563965,4226.922852,4235.000000,4230.256348,4216.922852,4192.051270,4166.538574,4109.230957,4219.743652,4093.333252,0.000000,4.000000,95.000000,,,,0.000000,4.000000,4.000000,4.000000,4.000000,4.000000,4.000000,4.000000,4.000000,4.000000,4.000000,4.000000,4.000000,4.000000,4.000000,100.000000,,,,,,,,,,,,,,,,
1645708005.960009,1645708005.960465,87.000000,0.000000,4186.794922,4122.820313,4197.436035,4143.974121,4188.461426,4226.410156,4232.307617,4228.333496,4213.205078,4186.025879,4158.461426,4104.615234,4212.820313,4086.025635,0.000000,4.000000,95.000000,,,,0.000000,4.000000,4.000000,4.000000,4.000000,4.000000,4.000000,4.000000,4.000000,4.000000,4.000000,4.000000,4.000000,4.000000,4.000000,100.000000,,,,,,,,,,,,,,,,
1645708005.963949,1645708005.964406,88.000000,0.000000,4184.358887,4122.563965,4196.153809,4142.051270,4186.282227,4227.051270,4230.128418,4228.846191,4212.436035,4180.512695,4153.461426,4102.436035,4208.589844,4080.769287,0.000000,4.000000,95.000000,,,,0.000000,4.000000,4.000000,4.000000,4.000000,4.000000,4.000000,4.000000,4.000000,4.000000,4.000000,4.000000,4.000000,4.000000,4.000000,100.000000,,,,,,,,,,,,,,,,
1645708005.967889,1645708005.968346,89.000000,0.000000,4185.000000,4126.025879,4197.307617,4143.077148,4186.666504,4228.846191,4228.589844,4230.384766,4214.615234,4177.563965,4154.487305,4103.333496,4209.102539,4081.538574,0.000000,4.000000,95.000000,,,,0.000000,4.000000,4.000000,4.000000,4.000000,4.000000,4.000000,4.000000,4.000000,4.000000,4.000000,4.000000,4.000000,4.000000,4.000000,100.000000,,,,,,,,,,,,,,,,
1645708005.971829,1645708005.972286,90.000000,0.000000,4186.922852,4128.589844,4199.615234,4145.256348,4186.410156,4230.256348,4227.179688,4231.282227,4217.948730,4179.102539,4159.487305,4105.641113,4212.051270,4087.179443,0.000000,4.000000,95.000000,,,,0.000000,4.000000,4.000000,4.000000,4.000000,4.000000,4.000000,4.000000,4.000000,4.000000,4.000000,4.000000,4.000000,4.000000,4.000000,100.000000,,,,,,,,,,,,,,,,
1645708005.975769,1645708005.976226,91.000000,0.000000,4187.436035,4126.153809,4200.897461,4145.641113,4182.436035,4229.230957,4225.897461,4231.025879,4220.512695,4185.512695,4163.589844,4106.410156,4213.077148,4092.564209,0.000000,4.000000,95.000000,,,,0.000000,4.000000,4.000000,4.000000,4.000000,4.000000,4.000000,4.000000,4.000000,4.000000,4.000000,4.000000,4.000000,4.000000,4.000000,100.000000,,,,,,,,,,,,,,,,
1645708005.979710,1645708005.980066,92.000000,0.000000,4185.897461,4119.230957,4200.000000,4143.333496,4175.512695,4225.128418,4225.256348,4231.025879,4221.282227,4194.487305,4163.333496,4105.000000,4210.512695,4093.846191,0.000000,4.000000,95.000000,,,,0.000000,4.000000,4.000000,4.000000,4.000000,4.000000,4.000000,4.000000,4.000000,4.000000,4.000000,4.000000,4.000000,4.000000,4.000000,100.000000,,,,,,,,,,,,,,,,
1645708005.983650,1645708005.984006,93.000000,0.000000,4184.487305,4112.948730,4198.205078,4140.897461,4170.128418,4220.128418,4225.641113,4233.205078,4220.512695,4202.307617,4160.000000,4103.461426,4206.410156,4090.897461,0.000000,4.000000,95.000000,,,,0.000000,4.000000,4.000000,4.000000,4.000000,4.000000,4.000000,4.000000,4.000000,4.000000,4.000000,4.000000,4.000000,4.000000,4.000000,100.000000,,,,,,,,,,,,,,,,
1645708005.987589,1645708005.987946,94.000000,0.000000,4185.256348,4112.563965,4197.307617,4141.410156,4169.743652,4217.436035,4227.307617,4237.948730,4219.230957,4204.743652,4157.436035,4104.358887,4204.743652,4087.179443,0.000000,4.000000,95.000000,,,,0.000000,4.000000,4.000000,4.000000,4.000000,4.000000,4.000000,4.000000,4.000000,4.000000,4.000000,4.000000,4.000000,4.000000,4.000000,100.000000,,,,,,,,,,,,,,,,
1645708005.991530,1645708005.991886,95.000000,0.000000,4188.333496,4118.589844,4198.589844,4145.256348,4173.205078,4218.717773,4229.358887,4242.820313,4218.461426,4200.769043,4157.820313,4107.436035,4207.179688,4085.897461,0.000000,4.000000,95.000000,,,,0.000000,4.000000,4.000000,4.000000,4.000000,4.000000,4.000000,4.000000,4.000000,4.000000,4.000000,4.000000,4.000000,4.000000,4.000000,100.000000,,,,,,,,,,,,,,,,
1645708005.995470,1645708005.995827,96.000000,0.000000,4191.153809,4125.897461,4201.410156,4149.487305,4177.563965,4223.333496,4231.922852,4244.487305,4217.820313,4192.948730,4159.615234,4110.128418,4211.794922,4087.179443,0.000000,4.000000,95.000000,,,,0.000000,4.000000,4.000000,4.000000,4.000000,4.000000,4.000000,4.000000,4.000000,4.000000,4.000000,4.000000,4.000000,4.000000,4.000000,100.000000,,,,,,,,,,,,,,,,
1645708005.999410,1645708005.999767,97.000000,0.000000,4190.769043,4128.333496,4203.589844,4150.897461,4180.641113,4228.974121,4234.615234,4242.179688,4217.820313,4187.051270,4160.384766,4109.487305,4214.743652,4089.102539,0.000000,4.000000,95.000000,,,,0.000000,4.000000,4.000000,4.000000,4.000000,4.000000,4.000000,4.000000,4.000000,4.000000,4.000000,4.000000,4.000000,4.000000,4.000000,100.000000,,,,,,,,,,,,,,,,
1645708006.003350,1645708006.003707,98.000000,0.000000,4186.922852,4123.846191,4203.589844,4148.846191,4183.077148,4233.077148,4236.794922,4237.436035,4218.589844,4187.051270,4159.102539,4105.897461,4213.717773,4090.000000,0.000000,4.000000,95.000000,,,,0.000000,4.000000,4.000000,4.000000,4.000000,4.000000,4.000000,4.000000,4.000000,4.000000,4.000000,4.000000,4.000000,4.000000,4.000000,100.000000,,,,,,,,,,,,,,,,
1645708006.007290,1645708006.007647,99.000000,0.000000,4182.307617,4115.897461,4200.897461,4144.871582,4185.769043,4233.717773,4237.307617,4233.333496,4219.743652,4191.922852,4157.179688,4101.666504,4209.230957,4089.743652,0.000000,4.000000,95.000000,,,,0.000000,4.000000,4.000000,4.000000,4.000000,4.000000,4.000000,4.000000,4.000000,4.000000,4.000000,4.000000,4.000000,4.000000,4.000000,100.000000,,,,,,,,,,,,,,,,
1645708006.011230,1645708006.011587,100.000000,0.000000,4180.256348,4110.769043,4197.436035,4141.666504,4188.717773,4230.384766,4236.025879,4231.922852,4220.000000,4196.282227,4156.666504,4099.230957,4204.487305,4089.487061,0.000000,4.000000,95.000000,,,,0.000000,4.000000,4.000000,4.000000,4.000000,4.000000,4.000000,4.000000,4.000000,4.000000,4.000000,4.000000,4.000000,4.000000,4.000000,100.000000,,,,,,,,,,,,,,,,
1645708006.015170,1645708006.015527,101.000000,0.000000,4181.794922,4111.922852,4195.512695,4141.282227,4191.282227,4225.897461,4235.000000,4233.974121,4218.717773,4195.384766,4157.692383,4100.384766,4202.692383,4090.512939,0.000000,4.000000,95.000000,,,,0.000000,4.000000,4.000000,4.000000,4.000000,4.000000,4.000000,4.000000,4.000000,4.000000,4.000000,4.000000,4.000000,4.000000,4.000000,100.000000,,,,,,,,,,,,,,,,
1645708006.019110,1645708006.019467,102.000000,0.000000,4185.512695,4118.077148,4196.666504,4144.615234,4192.820313,4223.461426,4236.153809,4238.333496,4216.410156,4189.358887,4158.974121,4104.615234,4204.871582,4092.820557,0.000000,4.000000,95.000000,,,,0.000000,4.000000,4.000000,4.000000,4.000000,4.000000,4.000000,4.000000,4.000000,4.000000,4.000000,4.000000,4.000000,4.000000,4.000000,100.000000,,,,,,,,,,,,,,,,
1645708006.023050,1645708006.023407,103.000000,0.000000,4189.230957,4125.769043,4200.512695,4150.641113,4193.333496,4224.871582,4239.102539,4241.922852,4214.615234,4183.461426,4158.717773,4109.871582,4209.230957,4095.512939,0.000000,4.000000,95.000000,,,,0.000000,4.000000,4.000000,4.000000,4.000000,4.000000,4.000000,4.000000,4.000000,4.000000,4.000000,4.000000,4.000000,4.000000,4.000000,100.000000,,,,,,,,,,,,,,,,
1645708006.026990,1645708006.027347,104.000000,0.000000,4192.179688,4131.410156,4204.871582,4156.666504,4192.948730,4229.358887,4241.153809,4241.153809,4215.000000,4183.205078,4156.410156,4113.205078,4212.692383,4097.563965,0.000000,4.000000,95.000000,,,,0.000000,4.000000,4.000000,4.000000,4.000000,4.000000,4.000000,4.000000,4.000000,4.000000,4.000000,4.000000,4.000000,4.000000,4.000000,100.000000,,,,,,,,,,,,,,,,
1645708006.030930,1645708006.031287,105.000000,0.000000,4193.717773,4133.205078,4207.051270,4159.358887,4191.666504,4234.230957,4239.743652,4234.871582,4217.179688,4189.487305,4153.333496,4112.692383,4213.461426,4097.820313,0.000000,4.000000,95.000000,,,,0.000000,4.000000,4.000000,4.000000,4.000000,4.000000,4.000000,4.000000,4.000000,4.000000,4.000000,4.000000,4.000000,4.000000,4.000000,100.000000,,,,,,,,,,,,,,,,
1645708006.034870,1645708006.035228,106.000000,0.000000,4193.974121,4131.538574,4206.410156,4157.563965,4190.128418,4236.282227,4235.641113,4225.769043,4218.717773,4197.563965,4151.282227,4108.974121,4211.922852,4096.282227,0.000000,4.000000,95.000000,,,,0.000000,4.000000,4.000000,4.000000,4.000000,4.000000,4.000000,4.000000,4.000000,4.000000,4.000000,4.000000,4.000000,4.000000,4.000000,100.000000,,,,,,,,,,,,,,,,
1645708006.038810,1645708006.039168,107.000000,0.000000,4192.820313,4128.077148,4203.974121,4152.948730,4190.128418,4234.230957,4231.410156,4219.230957,4217.563965,4201.666504,4151.794922,4104.615234,4210.512695,4094.358887,0.000000,4.000000,95.000000,,,,0.000000,4.000000,4.000000,4.000000,4.000000,4.000000,4.000000,4.000000,4.000000,4.000000,4.000000,4.000000,4.000000,4.000000,4.000000,100.000000,,,,,,,,,,,,,,,,
1645708006.042750,1645708006.043108,108.000000,0.000000,4191.153809,4124.358887,4201.538574,4148.717773,4192.563965,4230.000000,4229.358887,4218.717773,4214.102539,4199.487305,4155.000000,4102.692383,4210.897461,4093.846191,0.000000,4.000000,95.000000,,,,0.000000,4.000000,4.000000,4.000000,4.000000,4.000000,4.000000,4.000000,4.000000,4.000000,4.000000,4.000000,4.000000,4.000000,4.000000,100.000000,,,,,,,,,,,,,,,,
1645708006.046690,1645708006.047048,109.000000,0.000000,4190.256348,4121.794922,4200.256348,4147.436035,4196.410156,4227.051270,4229.487305,4222.820313,4210.641113,4193.077148,4158.846191,4103.846191,4212.307617,4095.769287,0.000000,4.000000,95.000000,,,,0.000000,4.000000,4.000000,4.000000,4.000000,4.000000,4.000000,4.000000,4.000000,4.000000,4.000000,4.000000,4.000000,4.000000,4.000000,100.000000,,,,,,,,,,,,,,,,
1645708006.050630,1645708006.050988,110.000000,0.000000,4190.641113,4119.871582,4200.000000,4148.589844,4197.948730,4226.922852,4230.128418,4227.179688,4208.846191,4186.153809,4160.128418,4106.538574,4212.307617,4098.846191,0.000000,4.000000,95.000000,,,,0.000000,4.000000,4.000000,4.000000,4.000000,4.000000,4.000000,4.000000,4.000000,4.000000,4.000000,4.000000,4.000000,4.000000,4.000000,100.000000,,,,,,,,,,,,,,,,
1645708006.054571,1645708006.054828,111.000000,0.000000,4191.410156,4118.205078,4200.256348,4150.384766,4194.487305,4228.461426,4229.615234,4227.820313,4208.846191,4181.153809,4156.666504,4108.461426,4209.230957,4100.512695,0.000000,4.000000,95.000000,,,,0.000000,4.000000,4.000000,4.000000,4.000000,4.000000,4.000000,4.000000,4.000000,4.000000,4.000000,4.000000,4.000000,4.000000,4.000000,100.000000,,,,,,,,,,,,,,,,
1645708006.058510,1645708006.058768,112.000000,0.000000,4192.051270,4116.794922,4201.282227,4151.410156,4186.538574,4228.846191,4227.948730,4225.000000,4209.615234,4178.333496,4149.615234,4107.820313,4203.974121,4099.230957,0.000000,4.000000,95.000000,,,,0.000000,4.000000,4.000000,4.000000,4.000000,4.000000,4.000000,4.000000,4.000000,4.000000,4.000000,4.000000,4.000000,4.000000,4.000000,100.000000,,,,,,,,,,,,,,,,
1645708006.062451,1645708006.062708,113.000000,0.000000,4192.692383,4116.922852,4203.205078,4152.051270,4177.948730,4226.794922,4225.897461,4220.769043,4210.128418,4177.820313,4143.333496,4105.000000,4199.743652,4095.384521,0.000000,4.000000,95.000000,,,,0.000000,4.000000,4.000000,4.000000,4.000000,4.000000,4.000000,4.000000,4.000000,4.000000,4.000000,4.000000,4.000000,4.000000,4.000000,100.000000,,,,,,,,,,,,,,,,
1645708006.066391,1645708006.066649,114.000000,0.000000,4193.974121,4119.615234,4205.641113,4152.820313,4173.589844,4223.589844,4224.743652,4218.333496,4210.128418,4180.512695,4141.922852,4102.563965,4199.230957,4091.923096,0.000000,4.000000,95.000000,,,,0.000000,4.000000,4.000000,4.000000,4.000000,4.000000,4.000000,4.000000,4.000000,4.000000,4.000000,4.000000,4.000000,4.000000,4.000000,100.000000,,,,,,,,,,,,,,,,
1645708006.070331,1645708006.070489,115.000000,0.000000,4197.051270,4124.871582,4208.333496,4154.230957,4176.538574,4222.436035,4225.000000,4219.487305,4210.641113,4187.179688,4146.666504,4103.333496,4202.948730,4091.794922,0.000000,4.000000,95.000000,,,,0.000000,4.000000,4.000000,4.000000,4.000000,4.000000,4.000000,4.000000,4.000000,4.000000,4.000000,4.000000,4.000000,4.000000,4.000000,100.000000,,,,,,,,,,,,,,,,
1645708006.074271,1645708006.074429,116.000000,0.000000,4202.179688,4131.153809,4211.794922,4156.538574,4185.769043,4225.641113,4226.922852,4224.487305,4212.179688,4196.153809,4155.256348,4109.102539,4209.230957,4096.538574,0.000000,4.000000,95.000000,,,,0.000000,4.000000,4.000000,4.000000,4.000000,4.000000,4.000000,4.000000,4.000000,4.000000,4.000000,4.000000,4.000000,4.000000,4.000000,100.000000,,,,,,,,,,,,,,,,
1645708006.078211,1645708006.078369,117.000000,0.000000,4208.461426,4136.410156,4216.153809,4159.743652,4197.307617,4232.692383,4230.769043,4231.538574,4214.358887,4202.948730,4163.846191,4119.102539,4215.256348,4104.871582,0.000000,4.000000,95.000000,,,,0.000000,4.000000,4.000000,4.000000,4.000000,4.000000,4.000000,4.000000,4.000000,4.000000,4.000000,4.000000,4.000000,4.000000,4.000000,100.000000,,,,,,,,,,,,,,,,
1645708006.082151,1645708006.082309,118.000000,0.000000,4213.717773,4139.230957,4220.512695,4162.948730,4205.897461,4240.512695,4236.025879,4238.205078,4216.153809,4204.487305,4169.871582,4129.487305,4219.487305,4114.358887,0.000000,4.000000,95.000000,,,,0.000000,4.000000,4.000000,4.000000,4.000000,4.000000,4.000000,4.000000,4.000000,4.000000,4.000000,4.000000,4.000000,4.000000,4.000000,100.000000,,,,,,,,,,,,,,,,
1645708006.086091,1645708006.086249,119.000000,0.000000,4216.666504,4139.743652,4223.589844,4165.512695,4209.358887,4245.384766,4240.769043,4242.820313,4217.563965,4202.820313,4173.589844,4136.410156,4222.436035,4121.538574,0.000000,4.000000,95.000000,,,,0.000000,4.000000,4.000000,4.000000,4.000000,4.000000,4.000000,4.000000,4.000000,4.000000,4.000000,4.000000,4.000000,4.000000,4.000000,100.000000,,,,,,,,,,,,,,,,
1645708006.090031,1645708006.090189,120.000000,0.000000,4217.563965,4139.615234,4225.000000,4166.794922,4209.358887,4245.512695,4242.948730,4245.641113,4219.358887,4203.205078,4176.410156,4138.974121,4225.897461,4125.128418,0.000000,4.000000,95.000000,,,,0.000000,4.000000,4.000000,4.000000,4.000000,4.000000,4.000000,4.000000,4.000000,4.000000,4.000000,4.000000,4.000000,4.000000,4.000000,100.000000,,,,,,,,,,,,,,,,
1645708006.093971,1645708006.094129,121.000000,0.000000,4217.820313,4140.512695,4226.153809,4167.051270,4209.487305,4242.307617,4242.307617,4247.820313,4222.436035,4208.717773,4180.128418,4138.589844,4230.769043,4125.769043,0.000000,4.000000,95.000000,,,,0.000000,4.000000,4.000000,4.000000,4.000000,4.000000,4.000000,4.000000,4.000000,4.000000,4.000000,4.000000,4.000000,4.000000,4.000000,100.000000,,,,,,,,,,,,,,,,
1645708006.097911,1645708006.098069,122.000000,0.000000,4218.589844,4142.948730,4228.077148,4167.179688,4211.153809,4239.102539,4240.641113,4249.615234,4225.384766,4216.666504,4184.615234,4138.205078,4235.256348,4125.384766,0.000000,4.000000,95.000000,,,,0.000000,4.000000,4.000000,4.000000,4.000000,4.000000,4.000000,4.000000,4.000000,4.000000,4.000000,4.000000,4.000000,4.000000,4.000000,100.000000,,,,,,,,,,,,,,,,
1645708006.101851,1645708006.102010,123.000000,0.000000,4219.871582,4145.769043,4230.384766,4167.436035,4213.333496,4237.948730,4240.000000,4250.256348,4225.897461,4221.410156,4188.333496,4138.846191,4237.051270,4125.641113,0.000000,4.000000,95.000000,,,,0.000000,4.000000,4.000000,4.000000,4.000000,4.000000,4.000000,4.000000,4.000000,4.000000,4.000000,4.000000,4.000000,4.000000,4.000000,100.000000,,,,,,,,,,,,,,,,
1645708006.105791,1645708006.105950,124.000000,0.000000,4220.128418,4147.307617,4231.794922,4167.820313,4215.000000,4239.487305,4240.641113,4249.230957,4223.461426,4220.000000,4188.717773,4139.743652,4234.871582,4127.179688,0.000000,4.000000,95.000000,,,,0.000000,4.000000,4.000000,4.000000,4.000000,4.000000,4.000000,4.000000,4.000000,4.000000,4.000000,4.000000,4.000000,4.000000,4.000000,100.000000,,,,,,,,,,,,,,,,
1645708006.109731,1645708006.109890,125.000000,0.000000,4218.205078,4146.666504,4231.538574,4167.436035,4214.871582,4241.666504,4241.666504,4247.436035,4219.871582,4214.102539,4184.871582,4139.487305,4230.256348,4128.974121,0.000000,4.000000,95.000000,,,,0.000000,4.000000,4.000000,4.000000,4.000000,4.000000,4.000000,4.000000,4.000000,4.000000,4.000000,4.000000,4.000000,4.000000,4.000000,100.000000,,,,,,,,,,,,,,,,
1645708006.113671,1645708006.113830,126.000000,0.000000,4214.230957,4144.615234,4229.871582,4166.282227,4211.794922,4242.179688,4241.666504,4246.538574,4218.077148,4207.820313,4178.205078,4137.563965,4225.512695,4129.615234,0.000000,4.000000,95.000000,,,,0.000000,4.000000,4.000000,4.000000,4.000000,4.000000,4.000000,4.000000,4.000000,4.000000,4.000000,4.000000,4.000000,4.000000,4.000000,100.000000,,,,,,,,,,,,,,,,
1645708006.117611,1645708006.117770,127.000000,0.000000,4210.000000,4142.948730,4228.077148,4165.000000,4205.128418,4240.256348,4240.384766,4246.922852,4219.487305,4204.487305,4172.692383,4135.256348,4222.820313,4128.205078,0.000000,4.000000,95.000000,,,,0.000000,4.000000,4.000000,4.000000,4.000000,4.000000,4.000000,4.000000,4.000000,4.000000,4.000000,4.000000,4.000000,4.000000,4.000000,100.000000,,,,,,,,,,,,,,,,
1645708006.121551,1645708006.121710,128.000000,0.000000,4207.692383,4143.717773,4227.179688,4164.871582,4196.922852,4238.717773,4239.230957,4247.436035,4223.077148,4205.512695,4171.538574,4133.974121,4222.820313,4125.769043,3065.000000,4.000000,95.000000,,,,0.000000,4.000000,4.000000,4.000000,4.000000,4.000000,4.000000,4.000000,4.000000,4.000000,4.000000,4.000000,4.000000,4.000000,4.000000,100.000000,,,,,,,,,,,,,,,,
1645708006.125491,1645708006.125650,129.000000,0.000000,4209.230957,4146.794922,4227.820313,4166.922852,4192.692383,4240.641113,4240.128418,4247.179688,4226.538574,4210.128418,4176.153809,4135.000000,4225.512695,4124.743652,3414.000000,4.000000,95.000000,,,,0.000000,4.000000,4.000000,4.000000,4.000000,4.000000,4.000000,4.000000,4.000000,4.000000,4.000000,4.000000,4.000000,4.000000,4.000000,100.000000,,,,,,,,,,,,,,,,
1645708006.129431,1645708006.129590,130.000000,0.000000,4213.846191,4150.769043,4230.128418,4170.769043,4197.948730,4246.538574,4244.102539,4246.794922,4228.077148,4216.025879,4184.230957,4138.205078,4229.743652,4126.153809,3474.000000,4.000000,95.000000,,,,0.000000,4.000000,4.000000,4.000000,4.000000,4.000000,4.000000,4.000000,4.000000,4.000000,4.000000,4.000000,4.000000,4.000000,4.000000,100.000000,,,,,,,,,,,,,,,,
1645708006.133371,1645708006.133630,131.000000,0.000000,4218.974121,4153.077148,4233.205078,4174.615234,4212.179688,4253.589844,4250.256348,4247.692383,4228.205078,4220.256348,4191.282227,4141.538574,4233.205078,4128.974121,3522.000000,4.000000,95.000000,,,,0.000000,4.000000,4.000000,4.000000,4.000000,4.000000,4.000000,4.000000,4.000000,4.000000,4.000000,4.000000,4.000000,4.000000,4.000000,100.000000,,,,,,,,,,,,,,,,
1645708006.137312,1645708006.137570,132.000000,0.000000,4221.794922,4152.179688,4235.512695,4175.897461,4227.051270,4258.077148,4255.384766,4250.000000,4228.333496,4221.538574,4193.205078,4142.563965,4234.615234,4130.384766,3360.000000,4.000000,95.000000,,,,0.000000,4.000000,4.000000,4.000000,4.000000,4.000000,4.000000,4.000000,4.000000,4.000000,4.000000,4.000000,4.000000,4.000000,4.000000,100.000000,,,,,,,,,,,,,,,,
1645708006.141252,1645708006.141511,133.000000,0.000000,4221.025879,4148.333496,4235.384766,4173.205078,4232.563965,4258.589844,4256.282227,4252.051270,4228.974121,4221.282227,4189.743652,4140.512695,4234.102539,4128.589844,3439.000000,4.000000,95.000000,,,,0.000000,4.000000,4.000000,4.000000,4.000000,4.000000,4.000000,4.000000,4.000000,4.000000,4.000000,4.000000,4.000000,4.000000,4.000000,100.000000,,,,,,,,,,,,,,,,
1645708006.145192,1645708006.145451,134.000000,0.000000,4217.563965,4143.974121,4232.948730,4167.948730,4225.128418,4256.538574,4252.307617,4252.436035,4229.871582,4221.922852,4184.358887,4136.922852,4233.461426,4124.871582,2891.000000,4.000000,95.000000,,,,0.000000,4.000000,4.000000,4.000000,4.000000,4.000000,4.000000,4.000000,4.000000,4.000000,4.000000,4.000000,4.000000,4.000000,4.000000,100.000000,,,,,,,,,,,,,,,,
1645708006.149132,1645708006.149391,135.000000,0.000000,4213.717773,4141.666504,4230.256348,4163.461426,4210.384766,4253.461426,4246.153809,4250.769043,4230.384766,4223.717773,4181.153809,4134.871582,4233.717773,4121.538574,2643.000000,4.000000,95.000000,,,,0.000000,4.000000,4.000000,4.000000,4.000000,4.000000,4.000000,4.000000,4.000000,4.000000,4.000000,4.000000,4.000000,4.000000,4.000000,100.000000,,,,,,,,,,,,,,,,
1645708006.153072,1645708006.153331,136.000000,0.000000,4211.410156,4142.307617,4229.487305,4161.922852,4197.820313,4250.000000,4242.179688,4248.077148,4230.384766,4224.743652,4182.051270,4136.538574,4234.102539,4120.769043,1256.000000,4.000000,95.000000,,,,0.000000,4.000000,4.000000,4.000000,4.000000,4.000000,4.000000,4.000000,4.000000,4.000000,4.000000,4.000000,4.000000,4.000000,4.000000,100.000000,,,,,,,,,,,,,,,,
1645708006.157012,1645708006.157271,137.000000,0.000000,4211.153809,4144.358887,4230.897461,4163.333496,4193.077148,4246.538574,4242.692383,4246.410156,4229.743652,4223.846191,4185.897461,4140.769043,4233.461426,4122.563965,3314.000000,4.000000,95.000000,,,,0.000000,4.000000,4.000000,4.000000,4.000000,4.000000,4.000000,4.000000,4.000000,4.000000,4.000000,4.000000,4.000000,4.000000,4.000000,100.000000,,,,,,,,,,,,,,,,
1645708006.160952,1645708006.161211,138.000000,0.000000,4212.563965,4146.153809,4232.436035,4166.153809,4195.641113,4243.846191,4246.794922,4246.538574,4228.333496,4222.948730,4190.641113,4144.487305,4231.153809,4125.512695,2701.000000,4.000000,95.000000,,,,0.000000,4.000000,4.000000,4.000000,4.000000,4.000000,4.000000,4.000000,4.000000,4.000000,4.000000,4.000000,4.000000,4.000000,4.000000,100.000000,,,,,,,,,,,,,,,,
1645708006.164892,1645708006.165151,139.000000,0.000000,4214.615234,4147.179688,4232.563965,4169.102539,4202.179688,4244.102539,4251.153809,4248.077148,4227.051270,4224.230957,4193.846191,4145.128418,4228.846191,4127.948730,3472.000000,4.000000,95.000000,,,,0.000000,4.000000,4.000000,4.000000,4.000000,4.000000,4.000000,4.000000,4.000000,4.000000,4.000000,4.000000,4.000000,4.000000,4.000000,100.000000,,,,,,,,,,,,,,,,
1645708006.168832,1645708006.169091,140.000000,0.000000,4216.410156,4148.205078,4231.153809,4171.922852,4209.230957,4247.820313,4252.307617,4248.974121,4226.410156,4227.051270,4194.487305,4143.077148,4228.205078,4128.461426,3409.000000,4.000000,95.000000,,,,0.000000,4.000000,4.000000,4.000000,4.000000,4.000000,4.000000,4.000000,4.000000,4.000000,4.000000,4.000000,4.000000,4.000000,4.000000,100.000000,,,,,,,,,,,,,,,,
1645708006.172772,1645708006.173031,141.000000,0.000000,4216.922852,4149.615234,4230.000000,4174.743652,4215.256348,4252.692383,4249.358887,4247.563965,4226.025879,4227.820313,4192.051270,4140.897461,4229.487305,4126.282227,3324.000000,4.000000,95.000000,,,,0.000000,4.000000,4.000000,4.000000,4.000000,4.000000,4.000000,4.000000,4.000000,4.000000,4.000000,4.000000,4.000000,4.000000,4.000000,100.000000,,,,,,,,,,,,,,,,
1645708006.176712,1645708006.176971,142.000000,0.000000,4215.897461,4150.897461,4230.384766,4176.666504,4218.589844,4254.230957,4244.102539,4243.717773,4224.871582,4223.974121,4186.538574,4141.025879,4231.153809,4122.179688,2701.000000,4.000000,95.000000,,,,0.000000,4.000000,4.000000,4.000000,4.000000,4.000000,4.000000,4.000000,4.000000,4.000000,4.000000,4.000000,4.000000,4.000000,4.000000,100.000000,,,,,,,,,,,,,,,,
1645708006.180652,1645708006.180912,143.000000,0.000000,4213.717773,4151.153809,4232.051270,4177.051270,4218.333496,4250.128418,4239.230957,4239.487305,4222.563965,4216.794922,4179.743652,4143.846191,4232.436035,4118.333496,3472.000000,4.000000,95.000000,,,,0.000000,4.000000,4.000000,4.000000,4.000000,4.000000,4.000000,4.000000,4.000000,4.000000,4.000000,4.000000,4.000000,4.000000,4.000000,100.000000,,,,,,,,,,,,,,,,
