title:Alex-APTSQOr3H75vFqcebPoAKw, start timestamp:1645710256.984552, stop timestamp:1645710282.784078, headset type:EPOCPLUS, headset serial:3B9AEBFF, headset firmware:626, channels:55, sampling rate:eeg_256, samples:6549      , version:2.1, 
Timestamp,OriginalTimestamp,EEG.Counter,EEG.Interpolated,EEG.AF3,EEG.F7,EEG.F3,EEG.FC5,EEG.T7,EEG.P7,EEG.O1,EEG.O2,EEG.P8,EEG.T8,EEG.FC6,EEG.F4,EEG.F8,EEG.AF4,EEG.RawCq,EEG.Battery,EEG.BatteryPercent,MarkerIndex,MarkerType,MarkerValueInt,EEG.MarkerHardware,CQ.AF3,CQ.F7,CQ.F3,CQ.FC5,CQ.T7,CQ.P7,CQ.O1,CQ.O2,CQ.P8,CQ.T8,CQ.FC6,CQ.F4,CQ.F8,CQ.AF4,CQ.Overall,EQ.SampleRateQuality,EQ.OVERALL,EQ.AF3,EQ.F7,EQ.F3,EQ.FC5,EQ.T7,EQ.P7,EQ.O1,EQ.O2,EQ.P8,EQ.T8,EQ.FC6,EQ.F4,EQ.F8,EQ.AF4
1645710256.984552,1645710256.986215,158.000000,0.000000,4271.666504,4323.077148,4243.077148,4349.743652,4230.641113,4239.871582,4207.563965,4215.512695,4220.769043,4224.615234,4242.948730,4277.436035,4257.051270,4232.820313,2364.000000,4.000000,86.000000,,,,0.000000,4.000000,4.000000,4.000000,4.000000,4.000000,4.000000,4.000000,4.000000,4.000000,4.000000,4.000000,4.000000,4.000000,4.000000,100.000000,,,,,,,,,,,,,,,,
1645710256.988492,1645710256.990255,159.000000,0.000000,4273.846191,4323.974121,4246.025879,4344.487305,4222.948730,4240.769043,4211.794922,4217.179688,4221.410156,4224.230957,4246.410156,4276.666504,4259.102539,4233.461426,2777.000000,4.000000,86.000000,,,,0.000000,4.000000,4.000000,4.000000,4.000000,4.000000,4.000000,4.000000,4.000000,4.000000,4.000000,4.000000,4.000000,4.000000,4.000000,100.000000,,,,,,,,,,,,,,,,
1645710256.992432,1645710256.994195,160.000000,0.000000,4277.051270,4323.205078,4251.922852,4343.333496,4229.615234,4243.846191,4216.153809,4219.230957,4221.538574,4223.205078,4251.153809,4278.461426,4261.410156,4236.538574,2936.000000,4.000000,86.000000,,,,0.000000,4.000000,4.000000,4.000000,4.000000,4.000000,4.000000,4.000000,4.000000,4.000000,4.000000,4.000000,4.000000,4.000000,4.000000,100.000000,,,,,,,,,,,,,,,,
1645710256.996372,1645710256.998136,161.000000,0.000000,4279.871582,4321.282227,4258.333496,4350.256348,4248.717773,4248.205078,4219.230957,4221.025879,4222.051270,4222.692383,4256.410156,4283.333496,4263.205078,4242.051270,2967.000000,4.000000,86.000000,,,,0.000000,4.000000,4.000000,4.000000,4.000000,4.000000,4.000000,4.000000,4.000000,4.000000,4.000000,4.000000,4.000000,4.000000,4.000000,100.000000,,,,,,,,,,,,,,,,
1645710257.000312,1645710257.002076,162.000000,0.000000,4282.436035,4318.333496,4262.820313,4360.384766,4267.820313,4251.025879,4220.256348,4221.666504,4223.077148,4223.846191,4260.384766,4289.871582,4264.743652,4248.461426,2364.000000,4.000000,86.000000,,,,0.000000,4.000000,4.000000,4.000000,4.000000,4.000000,4.000000,4.000000,4.000000,4.000000,4.000000,4.000000,4.000000,4.000000,4.000000,100.000000,,,,,,,,,,,,,,,,
1645710257.004252,1645710257.006016,163.000000,0.000000,4284.871582,4315.256348,4264.102539,4364.743652,4273.717773,4251.025879,4220.000000,4221.282227,4224.743652,4226.538574,4262.307617,4294.871582,4265.769043,4253.461426,2777.000000,4.000000,86.000000,,,,0.000000,4.000000,4.000000,4.000000,4.000000,4.000000,4.000000,4.000000,4.000000,4.000000,4.000000,4.000000,4.000000,4.000000,4.000000,100.000000,,,,,,,,,,,,,,,,
1645710257.008192,1645710257.009957,164.000000,0.000000,4286.025879,4313.717773,4261.794922,4358.717773,4262.436035,4249.102539,4219.871582,4220.512695,4226.666504,4229.743652,4262.692383,4295.897461,4266.794922,4254.871582,2936.000000,4.000000,86.000000,,,,0.000000,4.000000,4.000000,4.000000,4.000000,4.000000,4.000000,4.000000,4.000000,4.000000,4.000000,4.000000,4.000000,4.000000,4.000000,100.000000,,,,,,,,,,,,,,,,
1645710257.012132,1645710257.013897,165.000000,0.000000,4283.333496,4314.615234,4256.153809,4346.794922,4242.820313,4247.692383,4220.512695,4219.487305,4228.333496,4232.051270,4262.563965,4292.179688,4268.077148,4251.922852,2967.000000,4.000000,86.000000,,,,0.000000,4.000000,4.000000,4.000000,4.000000,4.000000,4.000000,4.000000,4.000000,4.000000,4.000000,4.000000,4.000000,4.000000,4.000000,100.000000,,,,,,,,,,,,,,,,
1645710257.016072,1645710257.017837,166.000000,0.000000,4277.563965,4316.538574,4249.230957,4338.589844,4228.077148,4247.820313,4221.153809,4217.692383,4229.230957,4232.820313,4262.436035,4286.282227,4269.230957,4246.538574,2364.000000,4.000000,86.000000,,,,0.000000,4.000000,4.000000,4.000000,4.000000,4.000000,4.000000,4.000000,4.000000,4.000000,4.000000,4.000000,4.000000,4.000000,4.000000,100.000000,,,,,,,,,,,,,,,,
1645710257.020013,1645710257.021778,167.000000,0.000000,4272.820313,4317.051270,4244.102539,4339.615234,4226.666504,4248.974121,4220.512695,4215.641113,4228.717773,4233.205078,4261.922852,4282.051270,4269.358887,4242.563965,2777.000000,4.000000,86.000000,,,,0.000000,4.000000,4.000000,4.000000,4.000000,4.000000,4.000000,4.000000,4.000000,4.000000,4.000000,4.000000,4.000000,4.000000,4.000000,100.000000,,,,,,,,,,,,,,,,
1645710257.023953,1645710257.025718,168.000000,0.000000,4274.102539,4316.153809,4244.230957,4346.922852,4237.436035,4250.000000,4218.589844,4215.128418,4227.436035,4234.615234,4261.538574,4283.205078,4268.077148,4243.589844,2936.000000,4.000000,86.000000,,,,0.000000,4.000000,4.000000,4.000000,4.000000,4.000000,4.000000,4.000000,4.000000,4.000000,4.000000,4.000000,4.000000,4.000000,4.000000,100.000000,,,,,,,,,,,,,,,,
1645710257.027893,1645710257.029658,169.000000,0.000000,4281.794922,4315.897461,4250.641113,4352.307617,4252.692383,4250.512695,4217.051270,4217.820313,4226.794922,4238.205078,4262.948730,4290.384766,4267.307617,4250.000000,2967.000000,4.000000,86.000000,,,,0.000000,4.000000,4.000000,4.000000,4.000000,4.000000,4.000000,4.000000,4.000000,4.000000,4.000000,4.000000,4.000000,4.000000,4.000000,100.000000,,,,,,,,,,,,,,,,
1645710257.031833,1645710257.033599,170.000000,0.000000,4291.153809,4318.205078,4260.256348,4350.769043,4264.230957,4251.666504,4217.948730,4222.692383,4227.948730,4243.846191,4266.794922,4299.743652,4268.974121,4257.820313,2364.000000,4.000000,86.000000,,,,0.000000,4.000000,4.000000,4.000000,4.000000,4.000000,4.000000,4.000000,4.000000,4.000000,4.000000,4.000000,4.000000,4.000000,4.000000,100.000000,,,,,,,,,,,,,,,,
1645710257.035773,1645710257.037539,171.000000,0.000000,4296.666504,4322.948730,4267.563965,4344.487305,4268.077148,4254.230957,4221.410156,4226.282227,4231.282227,4249.487305,4271.538574,4305.897461,4273.077148,4261.153809,2777.000000,4.000000,86.000000,,,,0.000000,4.000000,4.000000,4.000000,4.000000,4.000000,4.000000,4.000000,4.000000,4.000000,4.000000,4.000000,4.000000,4.000000,4.000000,100.000000,,,,,,,,,,,,,,,,
1645710257.039713,1645710257.041479,172.000000,0.000000,4296.666504,4326.922852,4268.333496,4340.128418,4264.615234,4257.436035,4225.512695,4226.538574,4235.256348,4251.410156,4273.974121,4305.256348,4276.538574,4257.179688,2936.000000,4.000000,86.000000,,,,0.000000,4.000000,4.000000,4.000000,4.000000,4.000000,4.000000,4.000000,4.000000,4.000000,4.000000,4.000000,4.000000,4.000000,4.000000,100.000000,,,,,,,,,,,,,,,,
1645710257.043653,1645710257.045420,173.000000,0.000000,4293.205078,4325.512695,4262.179688,4342.307617,4257.436035,4258.974121,4227.563965,4223.846191,4236.794922,4247.179688,4271.410156,4298.717773,4276.025879,4248.461426,2967.000000,4.000000,86.000000,,,,0.000000,4.000000,4.000000,4.000000,4.000000,4.000000,4.000000,4.000000,4.000000,4.000000,4.000000,4.000000,4.000000,4.000000,4.000000,100.000000,,,,,,,,,,,,,,,,
1645710257.047593,1645710257.049360,174.000000,0.000000,4289.358887,4317.051270,4252.820313,4348.974121,4250.384766,4257.179688,4226.794922,4221.025879,4233.974121,4237.692383,4264.358887,4290.128418,4271.666504,4240.512695,2364.000000,4.000000,86.000000,,,,0.000000,4.000000,4.000000,4.000000,4.000000,4.000000,4.000000,4.000000,4.000000,4.000000,4.000000,4.000000,4.000000,4.000000,4.000000,100.000000,,,,,,,,,,,,,,,,
1645710257.051533,1645710257.053300,175.000000,0.000000,4286.282227,4304.230957,4245.641113,4353.974121,4245.512695,4252.948730,4223.846191,4220.128418,4227.948730,4228.077148,4255.897461,4282.948730,4265.641113,4237.948730,2777.000000,4.000000,86.000000,,,,0.000000,4.000000,4.000000,4.000000,4.000000,4.000000,4.000000,4.000000,4.000000,4.000000,4.000000,4.000000,4.000000,4.000000,4.000000,100.000000,,,,,,,,,,,,,,,,
1645710257.055473,1645710257.057241,176.000000,0.000000,4283.333496,4292.051270,4243.589844,4352.179688,4241.922852,4248.589844,4220.769043,4220.897461,4222.563965,4223.333496,4248.717773,4278.461426,4260.769043,4240.769043,2936.000000,4.000000,86.000000,,,,0.000000,4.000000,4.000000,4.000000,4.000000,4.000000,4.000000,4.000000,4.000000,4.000000,4.000000,4.000000,4.000000,4.000000,4.000000,100.000000,,,,,,,,,,,,,,,,
1645710257.059413,1645710257.061181,177.000000,0.000000,4280.512695,4285.769043,4245.512695,4343.717773,4238.205078,4246.666504,4218.846191,4221.666504,4220.512695,4224.615234,4242.820313,4275.897461,4257.563965,4245.384766,2967.000000,4.000000,86.000000,,,,0.000000,4.000000,4.000000,4.000000,4.000000,4.000000,4.000000,4.000000,4.000000,4.000000,4.000000,4.000000,4.000000,4.000000,4.000000,100.000000,,,,,,,,,,,,,,,,
1645710257.063353,1645710257.065121,178.000000,0.000000,4278.974121,4286.922852,4247.179688,4334.487305,4235.641113,4247.692383,4218.461426,4221.153809,4221.410156,4228.717773,4236.922852,4274.871582,4256.025879,4248.461426,2364.000000,4.000000,86.000000,,,,0.000000,4.000000,4.000000,4.000000,4.000000,4.000000,4.000000,4.000000,4.000000,4.000000,4.000000,4.000000,4.000000,4.000000,4.000000,100.000000,,,,,,,,,,,,,,,,
1645710257.067293,1645710257.069062,179.000000,0.000000,4279.871582,4293.974121,4246.025879,4332.051270,4237.948730,4250.897461,4220.000000,4219.871582,4223.205078,4231.922852,4231.794922,4275.897461,4256.282227,4249.743652,2777.000000,4.000000,86.000000,,,,0.000000,4.000000,4.000000,4.000000,4.000000,4.000000,4.000000,4.000000,4.000000,4.000000,4.000000,4.000000,4.000000,4.000000,4.000000,100.000000,,,,,,,,,,,,,,,,
1645710257.071233,1645710257.073002,180.000000,0.000000,4283.589844,4302.820313,4243.461426,4337.948730,4246.025879,4255.000000,4222.692383,4219.358887,4224.102539,4233.846191,4231.025879,4279.743652,4258.717773,4251.153809,2936.000000,4.000000,86.000000,,,,0.000000,4.000000,4.000000,4.000000,4.000000,4.000000,4.000000,4.000000,4.000000,4.000000,4.000000,4.000000,4.000000,4.000000,4.000000,100.000000,,,,,,,,,,,,,,,,
1645710257.075173,1645710257.076842,181.000000,0.000000,4288.717773,4309.871582,4243.205078,4346.025879,4255.256348,4258.333496,4225.641113,4220.641113,4224.358887,4236.666504,4236.410156,4285.512695,4263.077148,4255.000000,2967.000000,4.000000,86.000000,,,,0.000000,4.000000,4.000000,4.000000,4.000000,4.000000,4.000000,4.000000,4.000000,4.000000,4.000000,4.000000,4.000000,4.000000,4.000000,100.000000,,,,,,,,,,,,,,,,
1645710257.079113,1645710257.080782,182.000000,0.000000,4293.333496,4313.333496,4246.666504,4347.051270,4258.717773,4259.487305,4227.692383,4223.589844,4225.000000,4241.538574,4245.512695,4290.128418,4267.307617,4260.256348,2364.000000,4.000000,86.000000,,,,0.000000,4.000000,4.000000,4.000000,4.000000,4.000000,4.000000,4.000000,4.000000,4.000000,4.000000,4.000000,4.000000,4.000000,4.000000,100.000000,,,,,,,,,,,,,,,,
1645710257.083053,1645710257.084723,183.000000,0.000000,4295.256348,4312.436035,4250.512695,4336.794922,4254.230957,4257.948730,4228.589844,4226.666504,4226.538574,4246.538574,4252.436035,4290.769043,4268.846191,4263.846191,2777.000000,4.000000,86.000000,,,,0.000000,4.000000,4.000000,4.000000,4.000000,4.000000,4.000000,4.000000,4.000000,4.000000,4.000000,4.000000,4.000000,4.000000,4.000000,100.000000,,,,,,,,,,,,,,,,
1645710257.086994,1645710257.088663,184.000000,0.000000,4293.974121,4307.436035,4251.025879,4321.025879,4245.769043,4254.487305,4228.333496,4228.077148,4227.948730,4247.692383,4252.820313,4287.051270,4266.538574,4262.436035,2936.000000,4.000000,86.000000,,,,0.000000,4.000000,4.000000,4.000000,4.000000,4.000000,4.000000,4.000000,4.000000,4.000000,4.000000,4.000000,4.000000,4.000000,4.000000,100.000000,,,,,,,,,,,,,,,,
1645710257.090934,1645710257.092603,185.000000,0.000000,4290.128418,4299.487305,4246.794922,4311.794922,4240.000000,4252.051270,4227.436035,4226.794922,4227.820313,4243.205078,4247.563965,4281.282227,4261.922852,4256.538574,2967.000000,4.000000,86.000000,,,,0.000000,4.000000,4.000000,4.000000,4.000000,4.000000,4.000000,4.000000,4.000000,4.000000,4.000000,4.000000,4.000000,4.000000,4.000000,100.000000,,,,,,,,,,,,,,,,
1645710257.094874,1645710257.096543,186.000000,0.000000,4285.641113,4291.282227,4240.512695,4317.563965,4241.025879,4252.563965,4225.897461,4223.205078,4225.384766,4235.769043,4241.538574,4276.922852,4257.692383,4250.000000,2364.000000,4.000000,86.000000,,,,0.000000,4.000000,4.000000,4.000000,4.000000,4.000000,4.000000,4.000000,4.000000,4.000000,4.000000,4.000000,4.000000,4.000000,4.000000,100.000000,,,,,,,,,,,,,,,,
1645710257.098814,1645710257.100483,187.000000,0.000000,4282.563965,4285.384766,4234.871582,4335.384766,4246.666504,4254.871582,4223.205078,4219.871582,4222.051270,4229.743652,4239.102539,4275.897461,4255.897461,4246.666504,2777.000000,4.000000,86.000000,,,,0.000000,4.000000,4.000000,4.000000,4.000000,4.000000,4.000000,4.000000,4.000000,4.000000,4.000000,4.000000,4.000000,4.000000,4.000000,100.000000,,,,,,,,,,,,,,,,
1645710257.102754,1645710257.104423,188.000000,0.000000,4281.666504,4282.307617,4231.282227,4353.461426,4251.666504,4255.769043,4218.974121,4218.717773,4220.000000,4227.948730,4240.000000,4277.563965,4255.769043,4246.794922,2936.000000,4.000000,86.000000,,,,0.000000,4.000000,4.000000,4.000000,4.000000,4.000000,4.000000,4.000000,4.000000,4.000000,4.000000,4.000000,4.000000,4.000000,4.000000,100.000000,,,,,,,,,,,,,,,,
1645710257.106694,1645710257.108263,189.000000,0.000000,4282.307617,4281.282227,4229.358887,4361.025879,4251.538574,4253.205078,4214.743652,4219.487305,4220.128418,4230.256348,4240.897461,4279.743652,4255.512695,4248.461426,2967.000000,4.000000,86.000000,,,,0.000000,4.000000,4.000000,4.000000,4.000000,4.000000,4.000000,4.000000,4.000000,4.000000,4.000000,4.000000,4.000000,4.000000,4.000000,100.000000,,,,,,,,,,,,,,,,
1645710257.110634,1645710257.112104,190.000000,0.000000,4282.820313,4280.897461,4228.846191,4355.256348,4245.384766,4248.589844,4212.948730,4220.128418,4221.794922,4234.615234,4239.230957,4280.256348,4254.358887,4249.615234,2364.000000,4.000000,86.000000,,,,0.000000,4.000000,4.000000,4.000000,4.000000,4.000000,4.000000,4.000000,4.000000,4.000000,4.000000,4.000000,4.000000,4.000000,4.000000,100.000000,,,,,,,,,,,,,,,,
1645710257.114574,1645710257.116044,191.000000,0.000000,4282.436035,4281.025879,4230.128418,4340.769043,4236.282227,4245.512695,4215.128418,4218.717773,4222.948730,4238.461426,4235.897461,4279.102539,4252.820313,4251.410156,2777.000000,4.000000,86.000000,,,,0.000000,4.000000,4.000000,4.000000,4.000000,4.000000,4.000000,4.000000,4.000000,4.000000,4.000000,4.000000,4.000000,4.000000,4.000000,100.000000,,,,,,,,,,,,,,,,
1645710257.118514,1645710257.119984,192.000000,0.000000,4282.436035,4281.922852,4233.717773,4325.000000,4230.256348,4246.410156,4219.871582,4216.025879,4222.051270,4239.615234,4233.461426,4278.205078,4252.436035,4255.897461,2936.000000,4.000000,86.000000,,,,0.000000,4.000000,4.000000,4.000000,4.000000,4.000000,4.000000,4.000000,4.000000,4.000000,4.000000,4.000000,4.000000,4.000000,4.000000,100.000000,,,,,,,,,,,,,,,,
1645710257.122454,1645710257.123924,193.000000,0.000000,4284.358887,4284.615234,4238.846191,4314.358887,4232.820313,4250.641113,4223.974121,4214.358887,4220.000000,4238.461426,4233.974121,4279.358887,4254.358887,4262.692383,2967.000000,4.000000,86.000000,,,,0.000000,4.000000,4.000000,4.000000,4.000000,4.000000,4.000000,4.000000,4.000000,4.000000,4.000000,4.000000,4.000000,4.000000,4.000000,100.000000,,,,,,,,,,,,,,,,
1645710257.126394,1645710257.127864,194.000000,0.000000,4287.948730,4289.487305,4242.692383,4312.436035,4243.333496,4255.000000,4225.000000,4215.769043,4219.102539,4236.794922,4237.307617,4282.179688,4257.563965,4267.820313,2364.000000,4.000000,86.000000,,,,0.000000,4.000000,4.000000,4.000000,4.000000,4.000000,4.000000,4.000000,4.000000,4.000000,4.000000,4.000000,4.000000,4.000000,4.000000,100.000000,,,,,,,,,,,,,,,,
1645710257.130334,1645710257.131804,195.000000,0.000000,4290.000000,4294.230957,4242.692383,4318.974121,4254.871582,4257.051270,4222.948730,4219.743652,4221.282227,4236.666504,4241.666504,4284.102539,4259.615234,4266.794922,2777.000000,4.000000,86.000000,,,,0.000000,4.000000,4.000000,4.000000,4.000000,4.000000,4.000000,4.000000,4.000000,4.000000,4.000000,4.000000,4.000000,4.000000,4.000000,100.000000,,,,,,,,,,,,,,,,
1645710257.134274,1645710257.135744,196.000000,0.000000,4288.205078,4295.256348,4238.589844,4329.871582,4258.846191,4256.153809,4219.358887,4223.461426,4226.153809,4237.948730,4244.615234,4281.922852,4258.461426,4259.358887,2936.000000,4.000000,86.000000,,,,0.000000,4.000000,4.000000,4.000000,4.000000,4.000000,4.000000,4.000000,4.000000,4.000000,4.000000,4.000000,4.000000,4.000000,4.000000,100.000000,,,,,,,,,,,,,,,,
1645710257.138214,1645710257.139684,197.000000,0.000000,4283.461426,4290.641113,4232.436035,4340.384766,4253.846191,4253.717773,4216.666504,4224.615234,4230.384766,4238.974121,4244.230957,4275.512695,4254.871582,4250.256348,2967.000000,4.000000,86.000000,,,,0.000000,4.000000,4.000000,4.000000,4.000000,4.000000,4.000000,4.000000,4.000000,4.000000,4.000000,4.000000,4.000000,4.000000,4.000000,100.000000,,,,,,,,,,,,,,,,
1645710257.142154,1645710257.143624,198.000000,0.000000,4280.000000,4283.077148,4228.077148,4348.077148,4245.769043,4252.051270,4216.922852,4223.205078,4231.410156,4238.205078,4240.512695,4268.333496,4251.282227,4246.282227,2364.000000,4.000000,86.000000,,,,0.000000,4.000000,4.000000,4.000000,4.000000,4.000000,4.000000,4.000000,4.000000,4.000000,4.000000,4.000000,4.000000,4.000000,4.000000,100.000000,,,,,,,,,,,,,,,,
1645710257.146094,1645710257.147564,199.000000,0.000000,4281.538574,4277.820313,4228.205078,4351.922852,4241.282227,4252.563965,4220.000000,4221.410156,4229.615234,4236.153809,4236.025879,4265.256348,4250.512695,4250.384766,2777.000000,4.000000,86.000000,,,,0.000000,4.000000,4.000000,4.000000,4.000000,4.000000,4.000000,4.000000,4.000000,4.000000,4.000000,4.000000,4.000000,4.000000,4.000000,100.000000,,,,,,,,,,,,,,,,
1645710257.150035,1645710257.151505,200.000000,0.000000,4286.538574,4277.692383,4232.692383,4349.871582,4241.410156,4254.615234,4223.846191,4221.282227,4227.563965,4235.000000,4233.717773,4268.461426,4253.205078,4260.128418,2936.000000,4.000000,86.000000,,,,0.000000,4.000000,4.000000,4.000000,4.000000,4.000000,4.000000,4.000000,4.000000,4.000000,4.000000,4.000000,4.000000,4.000000,4.000000,100.000000,,,,,,,,,,,,,,,,
1645710257.153975,1645710257.155445,201.000000,0.000000,4290.641113,4281.538574,4238.205078,4341.025879,4242.563965,4255.769043,4225.256348,4222.563965,4227.820313,4236.282227,4234.871582,4275.641113,4258.077148,4269.230957,2967.000000,4.000000,86.000000,,,,0.000000,4.000000,4.000000,4.000000,4.000000,4.000000,4.000000,4.000000,4.000000,4.000000,4.000000,4.000000,4.000000,4.000000,4.000000,100.000000,,,,,,,,,,,,,,,,
1645710257.157915,1645710257.159385,202.000000,0.000000,4291.153809,4286.025879,4240.384766,4328.077148,4241.922852,4253.717773,4222.692383,4223.589844,4230.128418,4238.846191,4237.820313,4281.666504,4262.692383,4272.436035,2364.000000,4.000000,86.000000,,,,0.000000,4.000000,4.000000,4.000000,4.000000,4.000000,4.000000,4.000000,4.000000,4.000000,4.000000,4.000000,4.000000,4.000000,4.000000,100.000000,,,,,,,,,,,,,,,,
1645710257.161855,1645710257.163325,203.000000,0.000000,4289.102539,4288.333496,4237.563965,4316.666504,4240.128418,4248.461426,4218.077148,4222.563965,4232.051270,4240.000000,4239.615234,4282.307617,4264.102539,4268.846191,2777.000000,4.000000,86.000000,,,,0.000000,4.000000,4.000000,4.000000,4.000000,4.000000,4.000000,4.000000,4.000000,4.000000,4.000000,4.000000,4.000000,4.000000,4.000000,100.000000,,,,,,,,,,,,,,,,
1645710257.165795,1645710257.167265,204.000000,0.000000,4287.820313,4288.589844,4232.563965,4312.179688,4239.230957,4243.077148,4214.615234,4219.615234,4231.282227,4237.436035,4238.717773,4277.051270,4261.153809,4262.179688,2936.000000,4.000000,86.000000,,,,0.000000,4.000000,4.000000,4.000000,4.000000,4.000000,4.000000,4.000000,4.000000,4.000000,4.000000,4.000000,4.000000,4.000000,4.000000,100.000000,,,,,,,,,,,,,,,,
1645710257.169735,1645710257.171105,205.000000,0.000000,4288.461426,4288.461426,4229.487305,4316.153809,4240.769043,4240.897461,4214.615234,4216.922852,4227.436035,4231.922852,4235.769043,4269.487305,4255.512695,4257.307617,2967.000000,4.000000,86.000000,,,,0.000000,4.000000,4.000000,4.000000,4.000000,4.000000,4.000000,4.000000,4.000000,4.000000,4.000000,4.000000,4.000000,4.000000,4.000000,100.000000,,,,,,,,,,,,,,,,
1645710257.173675,1645710257.175045,206.000000,0.000000,4289.871582,4288.846191,4230.384766,4326.153809,4245.000000,4242.948730,4217.179688,4216.666504,4222.820313,4226.666504,4233.205078,4264.230957,4250.000000,4256.794922,2364.000000,4.000000,86.000000,,,,0.000000,4.000000,4.000000,4.000000,4.000000,4.000000,4.000000,4.000000,4.000000,4.000000,4.000000,4.000000,4.000000,4.000000,4.000000,100.000000,,,,,,,,,,,,,,,,
1645710257.177615,1645710257.178985,207.000000,0.000000,4290.641113,4288.846191,4233.717773,4337.692383,4249.743652,4246.794922,4219.487305,4218.717773,4220.000000,4223.974121,4232.563965,4264.615234,4247.179688,4259.230957,2777.000000,4.000000,86.000000,,,,0.000000,4.000000,4.000000,4.000000,4.000000,4.000000,4.000000,4.000000,4.000000,4.000000,4.000000,4.000000,4.000000,4.000000,4.000000,100.000000,,,,,,,,,,,,,,,,
1645710257.181555,1645710257.182926,208.000000,0.000000,4291.410156,4286.025879,4237.307617,4345.512695,4251.410156,4248.974121,4218.974121,4221.025879,4219.743652,4224.102539,4233.717773,4269.743652,4247.692383,4262.051270,2936.000000,4.000000,86.000000,,,,0.000000,4.000000,4.000000,4.000000,4.000000,4.000000,4.000000,4.000000,4.000000,4.000000,4.000000,4.000000,4.000000,4.000000,4.000000,100.000000,,,,,,,,,,,,,,,,
1645710257.185495,1645710257.186866,209.000000,0.000000,4293.846191,4279.487305,4240.641113,4345.897461,4246.538574,4247.692383,4216.666504,4221.794922,4221.666504,4225.769043,4235.256348,4276.410156,4251.025879,4264.230957,2967.000000,4.000000,86.000000,,,,0.000000,4.000000,4.000000,4.000000,4.000000,4.000000,4.000000,4.000000,4.000000,4.000000,4.000000,4.000000,4.000000,4.000000,4.000000,100.000000,,,,,,,,,,,,,,,,
1645710257.189435,1645710257.190806,210.000000,0.000000,4297.820313,4272.692383,4244.102539,4339.102539,4237.307617,4245.256348,4215.384766,4220.769043,4224.743652,4227.436035,4236.922852,4280.769043,4255.897461,4267.051270,2364.000000,4.000000,86.000000,,,,0.000000,4.000000,4.000000,4.000000,4.000000,4.000000,4.000000,4.000000,4.000000,4.000000,4.000000,4.000000,4.000000,4.000000,4.000000,100.000000,,,,,,,,,,,,,,,,
1645710257.193375,1645710257.194746,211.000000,0.000000,4301.025879,4270.897461,4247.179688,4331.025879,4231.666504,4245.128418,4217.692383,4220.000000,4228.333496,4229.871582,4239.871582,4281.666504,4261.538574,4271.666504,2777.000000,4.000000,86.000000,,,,0.000000,4.000000,4.000000,4.000000,4.000000,4.000000,4.000000,4.000000,4.000000,4.000000,4.000000,4.000000,4.000000,4.000000,4.000000,100.000000,,,,,,,,,,,,,,,,
1645710257.197315,1645710257.198686,212.000000,0.000000,4301.666504,4276.922852,4248.589844,4328.717773,4236.666504,4248.717773,4223.205078,4221.794922,4232.179688,4233.974121,4245.000000,4280.384766,4266.666504,4276.922852,2936.000000,4.000000,86.000000,,,,0.000000,4.000000,4.000000,4.000000,4.000000,4.000000,4.000000,4.000000,4.000000,4.000000,4.000000,4.000000,4.000000,4.000000,4.000000,100.000000,,,,,,,,,,,,,,,,
1645710257.201255,1645710257.202626,213.000000,0.000000,4299.743652,4287.820313,4247.436035,4333.717773,4248.846191,4253.461426,4228.461426,4225.897461,4235.256348,4239.871582,4250.128418,4278.974121,4269.358887,4279.358887,2967.000000,4.000000,86.000000,,,,0.000000,4.000000,4.000000,4.000000,4.000000,4.000000,4.000000,4.000000,4.000000,4.000000,4.000000,4.000000,4.000000,4.000000,4.000000,100.000000,,,,,,,,,,,,,,,,
1645710257.205195,1645710257.206566,214.000000,0.000000,4296.922852,4295.512695,4243.205078,4340.641113,4256.410156,4254.743652,4229.487305,4229.743652,4236.282227,4245.641113,4250.769043,4277.436035,4267.436035,4276.538574,2364.000000,4.000000,86.000000,,,,0.000000,4.000000,4.000000,4.000000,4.000000,4.000000,4.000000,4.000000,4.000000,4.000000,4.000000,4.000000,4.000000,4.000000,4.000000,100.000000,,,,,,,,,,,,,,,,
1645710257.209135,1645710257.210506,215.000000,0.000000,4293.717773,4294.358887,4236.666504,4341.538574,4250.000000,4250.256348,4224.743652,4229.871582,4233.717773,4248.333496,4243.589844,4275.384766,4260.769043,4268.846191,2777.000000,4.000000,86.000000,,,,0.000000,4.000000,4.000000,4.000000,4.000000,4.000000,4.000000,4.000000,4.000000,4.000000,4.000000,4.000000,4.000000,4.000000,4.000000,100.000000,,,,,,,,,,,,,,,,
1645710257.213076,1645710257.214446,216.000000,0.000000,4290.384766,4285.512695,4229.743652,4334.230957,4233.333496,4242.692383,4216.410156,4224.615234,4228.589844,4246.282227,4230.897461,4272.307617,4252.307617,4260.641113,2936.000000,4.000000,86.000000,,,,0.000000,4.000000,4.000000,4.000000,4.000000,4.000000,4.000000,4.000000,4.000000,4.000000,4.000000,4.000000,4.000000,4.000000,4.000000,100.000000,,,,,,,,,,,,,,,,
1645710257.217016,1645710257.218386,217.000000,0.000000,4287.307617,4275.256348,4224.871582,4324.358887,4219.615234,4236.922852,4209.743652,4216.794922,4223.846191,4239.743652,4220.128418,4268.974121,4246.666504,4257.051270,2967.000000,4.000000,86.000000,,,,0.000000,4.000000,4.000000,4.000000,4.000000,4.000000,4.000000,4.000000,4.000000,4.000000,4.000000,4.000000,4.000000,4.000000,4.000000,100.000000,,,,,,,,,,,,,,,,
1645710257.220956,1645710257.222327,218.000000,0.000000,4286.538574,4269.487305,4224.615234,4320.128418,4219.230957,4236.666504,4209.487305,4211.794922,4221.922852,4231.282227,4219.102539,4266.922852,4247.179688,4261.282227,2364.000000,4.000000,86.000000,,,,0.000000,4.000000,4.000000,4.000000,4.000000,4.000000,4.000000,4.000000,4.000000,4.000000,4.000000,4.000000,4.000000,4.000000,4.000000,100.000000,,,,,,,,,,,,,,,,
1645710257.224896,1645710257.226267,219.000000,0.000000,4289.102539,4269.230957,4230.000000,4324.487305,4230.769043,4241.666504,4215.769043,4212.948730,4223.333496,4224.102539,4229.230957,4267.692383,4253.333496,4271.282227,2777.000000,4.000000,86.000000,,,,0.000000,4.000000,4.000000,4.000000,4.000000,4.000000,4.000000,4.000000,4.000000,4.000000,4.000000,4.000000,4.000000,4.000000,4.000000,100.000000,,,,,,,,,,,,,,,,
1645710257.228836,1645710257.230207,220.000000,0.000000,4292.948730,4272.179688,4238.461426,4333.589844,4244.743652,4247.820313,4224.102539,4219.358887,4226.282227,4221.153809,4244.358887,4270.384766,4261.922852,4281.153809,2936.000000,4.000000,86.000000,,,,0.000000,4.000000,4.000000,4.000000,4.000000,4.000000,4.000000,4.000000,4.000000,4.000000,4.000000,4.000000,4.000000,4.000000,4.000000,100.000000,,,,,,,,,,,,,,,,
1645710257.232776,1645710257.234147,221.000000,0.000000,4294.358887,4275.384766,4245.128418,4340.897461,4252.820313,4250.897461,4228.589844,4225.641113,4227.820313,4222.948730,4254.358887,4271.794922,4267.948730,4284.230957,2967.000000,4.000000,86.000000,,,,0.000000,4.000000,4.000000,4.000000,4.000000,4.000000,4.000000,4.000000,4.000000,4.000000,4.000000,4.000000,4.000000,4.000000,4.000000,100.000000,,,,,,,,,,,,,,,,
1645710257.236716,1645710257.238187,222.000000,0.000000,4291.922852,4276.666504,4245.641113,4342.179688,4252.436035,4249.487305,4226.025879,4227.179688,4226.922852,4227.563965,4252.820313,4269.615234,4268.589844,4278.205078,2364.000000,4.000000,86.000000,,,,0.000000,4.000000,4.000000,4.000000,4.000000,4.000000,4.000000,4.000000,4.000000,4.000000,4.000000,4.000000,4.000000,4.000000,4.000000,100.000000,,,,,,,,,,,,,,,,
1645710257.240656,1645710257.242127,223.000000,0.000000,4287.563965,4276.025879,4239.102539,4336.794922,4247.563965,4244.615234,4219.102539,4223.974121,4224.230957,4231.538574,4240.769043,4263.461426,4263.846191,4266.538574,2777.000000,4.000000,86.000000,,,,0.000000,4.000000,4.000000,4.000000,4.000000,4.000000,4.000000,4.000000,4.000000,4.000000,4.000000,4.000000,4.000000,4.000000,4.000000,100.000000,,,,,,,,,,,,,,,,
1645710257.244596,1645710257.246068,224.000000,0.000000,4284.358887,4274.871582,4229.615234,4328.717773,4242.820313,4239.615234,4213.077148,4219.871582,4221.794922,4232.051270,4226.538574,4256.282227,4257.179688,4256.666504,2936.000000,4.000000,86.000000,,,,0.000000,4.000000,4.000000,4.000000,4.000000,4.000000,4.000000,4.000000,4.000000,4.000000,4.000000,4.000000,4.000000,4.000000,4.000000,100.000000,,,,,,,,,,,,,,,,
1645710257.248536,1645710257.250008,225.000000,0.000000,4283.333496,4274.358887,4221.538574,4323.461426,4241.025879,4237.051270,4211.922852,4218.205078,4221.025879,4228.589844,4218.846191,4251.410156,4252.820313,4253.461426,2967.000000,4.000000,86.000000,,,,0.000000,4.000000,4.000000,4.000000,4.000000,4.000000,4.000000,4.000000,4.000000,4.000000,4.000000,4.000000,4.000000,4.000000,4.000000,100.000000,,,,,,,,,,,,,,,,
1645710257.252476,1645710257.253948,226.000000,0.000000,4282.436035,4273.717773,4217.179688,4324.230957,4240.897461,4237.948730,4215.128418,4219.230957,4222.179688,4222.692383,4219.487305,4249.615234,4251.410156,4256.282227,2364.000000,4.000000,86.000000,1,1,0,0.000000,4.000000,4.000000,4.000000,4.000000,4.000000,4.000000,4.000000,4.000000,4.000000,4.000000,4.000000,4.000000,4.000000,4.000000,100.000000,,,,,,,,,,,,,,,,
1645710257.256416,1645710257.257889,227.000000,0.000000,4279.871582,4270.897461,4215.641113,4327.948730,4239.615234,4240.769043,4218.589844,4220.000000,4223.717773,4216.922852,4223.461426,4249.358887,4250.897461,4260.512695,2777.000000,4.000000,86.000000,,,,0.000000,4.000000,4.000000,4.000000,4.000000,4.000000,4.000000,4.000000,4.000000,4.000000,4.000000,4.000000,4.000000,4.000000,4.000000,100.000000,,,,,,,,,,,,,,,,
1645710257.260356,1645710257.261829,228.000000,0.000000,4276.922852,4265.384766,4215.641113,4327.307617,4235.769043,4243.461426,4219.102539,4218.589844,4223.717773,4213.589844,4223.077148,4248.589844,4248.717773,4262.179688,2936.000000,4.000000,86.000000,,,,0.000000,4.000000,4.000000,4.000000,4.000000,4.000000,4.000000,4.000000,4.000000,4.000000,4.000000,4.000000,4.000000,4.000000,4.000000,100.000000,,,,,,,,,,,,,,,,
1645710257.264296,1645710257.265770,229.000000,0.000000,4276.282227,4259.230957,4216.794922,4319.230957,4231.410156,4244.358887,4217.179688,4215.512695,4221.666504,4214.230957,4216.282227,4246.666504,4245.769043,4261.025879,2967.000000,4.000000,86.000000,,,,0.000000,4.000000,4.000000,4.000000,4.000000,4.000000,4.000000,4.000000,4.000000,4.000000,4.000000,4.000000,4.000000,4.000000,4.000000,100.000000,,,,,,,,,,,,,,,,
1645710257.268237,1645710257.269710,230.000000,0.000000,4278.974121,4256.025879,4219.230957,4309.615234,4230.384766,4243.589844,4215.384766,4212.820313,4219.102539,4218.846191,4208.205078,4245.128418,4245.000000,4259.615234,2364.000000,4.000000,86.000000,,,,0.000000,4.000000,4.000000,4.000000,4.000000,4.000000,4.000000,4.000000,4.000000,4.000000,4.000000,4.000000,4.000000,4.000000,4.000000,100.000000,,,,,,,,,,,,,,,,
1645710257.272176,1645710257.273550,231.000000,0.000000,4283.205078,4257.820313,4222.563965,4308.077148,4234.358887,4242.307617,4215.641113,4211.922852,4218.589844,4225.897461,4206.538574,4246.282227,4248.461426,4259.871582,2777.000000,4.000000,86.000000,,,,0.000000,4.000000,4.000000,4.000000,4.000000,4.000000,4.000000,4.000000,4.000000,4.000000,4.000000,4.000000,4.000000,4.000000,4.000000,100.000000,,,,,,,,,,,,,,,,
1645710257.276116,1645710257.277490,232.000000,0.000000,4286.282227,4262.692383,4225.641113,4318.077148,4240.256348,4241.538574,4217.307617,4212.692383,4221.666504,4231.922852,4213.461426,4250.128418,4254.487305,4261.666504,2936.000000,4.000000,86.000000,,,,0.000000,4.000000,4.000000,4.000000,4.000000,4.000000,4.000000,4.000000,4.000000,4.000000,4.000000,4.000000,4.000000,4.000000,4.000000,100.000000,,,,,,,,,,,,,,,,
1645710257.280057,1645710257.281430,233.000000,0.000000,4286.794922,4266.538574,4227.051270,4331.282227,4242.563965,4240.128418,4218.205078,4214.102539,4226.922852,4233.461426,4223.461426,4254.230957,4258.205078,4263.589844,2967.000000,4.000000,86.000000,,,,0.000000,4.000000,4.000000,4.000000,4.000000,4.000000,4.000000,4.000000,4.000000,4.000000,4.000000,4.000000,4.000000,4.000000,4.000000,100.000000,,,,,,,,,,,,,,,,
1645710257.283997,1645710257.285370,234.000000,0.000000,4285.512695,4266.153809,4225.512695,4335.897461,4238.717773,4237.436035,4216.794922,4215.000000,4230.769043,4229.230957,4228.205078,4255.384766,4255.897461,4264.615234,2364.000000,4.000000,86.000000,,,,0.000000,4.000000,4.000000,4.000000,4.000000,4.000000,4.000000,4.000000,4.000000,4.000000,4.000000,4.000000,4.000000,4.000000,4.000000,100.000000,1.000000,66.666664,4.000000,4.000000,4.000000,3.000000,3.000000,4.000000,4.000000,4.000000,2.000000,4.000000,4.000000,4.000000,4.000000,4.000000
1645710257.287937,1645710257.289311,235.000000,0.000000,4283.589844,4262.307617,4221.410156,4328.205078,4232.692383,4234.487305,4214.230957,4214.230957,4230.256348,4221.794922,4224.487305,4252.436035,4248.461426,4265.000000,2777.000000,4.000000,86.000000,,,,0.000000,4.000000,4.000000,4.000000,4.000000,4.000000,4.000000,4.000000,4.000000,4.000000,4.000000,4.000000,4.000000,4.000000,4.000000,100.000000,,,,,,,,,,,,,,,,
1645710257.291877,1645710257.293251,236.000000,0.000000,4282.051270,4258.846191,4216.922852,4315.256348,4231.538574,4233.846191,4212.692383,4211.666504,4226.282227,4216.666504,4217.307617,4247.563965,4241.410156,4266.025879,2936.000000,4.000000,86.000000,,,,0.000000,4.000000,4.000000,4.000000,4.000000,4.000000,4.000000,4.000000,4.000000,4.000000,4.000000,4.000000,4.000000,4.000000,4.000000,100.000000,,,,,,,,,,,,,,,,
1645710257.295817,1645710257.297191,237.000000,0.000000,4281.666504,4259.230957,4214.615234,4308.205078,4238.077148,4237.179688,4213.846191,4208.974121,4222.563965,4217.692383,4214.230957,4244.358887,4240.512695,4268.333496,2967.000000,4.000000,86.000000,,,,0.000000,4.000000,4.000000,4.000000,4.000000,4.000000,4.000000,4.000000,4.000000,4.000000,4.000000,4.000000,4.000000,4.000000,4.000000,100.000000,,,,,,,,,,,,,,,,
1645710257.299757,1645710257.301131,238.000000,0.000000,4283.333496,4263.077148,4215.769043,4312.948730,4247.563965,4242.563965,4216.538574,4208.077148,4221.794922,4223.974121,4217.692383,4244.615234,4246.025879,4272.179688,2364.000000,4.000000,86.000000,,,,0.000000,4.000000,4.000000,4.000000,4.000000,4.000000,4.000000,4.000000,4.000000,4.000000,4.000000,4.000000,4.000000,4.000000,4.000000,100.000000,,,,,,,,,,,,,,,,
1645710257.303697,1645710257.305071,239.000000,0.000000,4286.410156,4266.538574,4218.846191,4325.897461,4251.794922,4246.025879,4218.077148,4209.615234,4223.589844,4230.000000,4222.436035,4247.307617,4253.205078,4276.666504,2777.000000,4.000000,86.000000,,,,0.000000,4.000000,4.000000,4.000000,4.000000,4.000000,4.000000,4.000000,4.000000,4.000000,4.000000,4.000000,4.000000,4.000000,4.000000,100.000000,,,,,,,,,,,,,,,,
1645710257.307637,1645710257.309011,240.000000,0.000000,4288.333496,4266.282227,4221.025879,4336.666504,4246.794922,4244.615234,4217.051270,4211.794922,4225.897461,4230.128418,4221.282227,4249.358887,4256.025879,4279.871582,2936.000000,4.000000,86.000000,,,,0.000000,4.000000,4.000000,4.000000,4.000000,4.000000,4.000000,4.000000,4.000000,4.000000,4.000000,4.000000,4.000000,4.000000,4.000000,100.000000,,,,,,,,,,,,,,,,
1645710257.311577,1645710257.312951,241.000000,0.000000,4286.282227,4262.563965,4220.256348,4336.922852,4236.025879,4240.000000,4214.358887,4212.820313,4227.436035,4224.102539,4212.179688,4248.589844,4252.436035,4279.487305,2967.000000,4.000000,86.000000,,,,0.000000,4.000000,4.000000,4.000000,4.000000,4.000000,4.000000,4.000000,4.000000,4.000000,4.000000,4.000000,4.000000,4.000000,4.000000,100.000000,,,,,,,,,,,,,,,,
1645710257.315517,1645710257.316891,242.000000,0.000000,4280.641113,4258.846191,4216.794922,4326.410156,4227.436035,4236.538574,4212.820313,4212.692383,4228.333496,4216.538574,4200.641113,4246.025879,4245.512695,4274.615234,2364.000000,4.000000,86.000000,,,,0.000000,4.000000,4.000000,4.000000,4.000000,4.000000,4.000000,4.000000,4.000000,4.000000,4.000000,4.000000,4.000000,4.000000,4.000000,100.000000,,,,,,,,,,,,,,,,
1645710257.319457,1645710257.320831,243.000000,0.000000,4275.641113,4259.102539,4213.077148,4312.563965,4226.922852,4237.692383,4214.487305,4213.205078,4229.230957,4212.948730,4194.743652,4244.230957,4240.384766,4266.282227,2777.000000,4.000000,86.000000,,,,0.000000,4.000000,4.000000,4.000000,4.000000,4.000000,4.000000,4.000000,4.000000,4.000000,4.000000,4.000000,4.000000,4.000000,4.000000,100.000000,,,,,,,,,,,,,,,,
1645710257.323397,1645710257.324771,244.000000,0.000000,4275.512695,4263.205078,4212.051270,4305.000000,4233.461426,4243.077148,4218.077148,4215.256348,4229.871582,4214.487305,4198.461426,4243.846191,4239.871582,4257.563965,2936.000000,4.000000,86.000000,,,,0.000000,4.000000,4.000000,4.000000,4.000000,4.000000,4.000000,4.000000,4.000000,4.000000,4.000000,4.000000,4.000000,4.000000,4.000000,100.000000,,,,,,,,,,,,,,,,
1645710257.327337,1645710257.328712,245.000000,0.000000,4280.769043,4267.307617,4213.974121,4307.563965,4241.666504,4248.589844,4220.384766,4218.077148,4228.717773,4218.461426,4208.205078,4243.846191,4242.307617,4252.563965,2967.000000,4.000000,86.000000,,,,0.000000,4.000000,4.000000,4.000000,4.000000,4.000000,4.000000,4.000000,4.000000,4.000000,4.000000,4.000000,4.000000,4.000000,4.000000,100.000000,,,,,,,,,,,,,,,,
1645710257.331277,1645710257.332652,246.000000,0.000000,4286.794922,4266.666504,4216.538574,4316.410156,4246.282227,4250.256348,4218.589844,4219.230957,4225.641113,4220.897461,4216.410156,4241.538574,4244.230957,4254.358887,2364.000000,4.000000,86.000000,,,,0.000000,4.000000,4.000000,4.000000,4.000000,4.000000,4.000000,4.000000,4.000000,4.000000,4.000000,4.000000,4.000000,4.000000,4.000000,100.000000,,,,,,,,,,,,,,,,
1645710257.335217,1645710257.336492,247.000000,0.000000,4288.461426,4260.641113,4216.666504,4322.948730,4246.025879,4246.666504,4213.205078,4217.563965,4222.051270,4219.487305,4217.436035,4236.282227,4244.102539,4262.436035,2777.000000,4.000000,86.000000,,,,0.000000,4.000000,4.000000,4.000000,4.000000,4.000000,4.000000,4.000000,4.000000,4.000000,4.000000,4.000000,4.000000,4.000000,4.000000,100.000000,,,,,,,,,,,,,,,,
1645710257.339157,1645710257.340432,248.000000,0.000000,4285.000000,4252.563965,4214.102539,4320.512695,4241.025879,4239.615234,4207.563965,4214.358887,4220.128418,4215.000000,4211.666504,4230.128418,4242.948730,4272.307617,2936.000000,4.000000,86.000000,,,,0.000000,4.000000,4.000000,4.000000,4.000000,4.000000,4.000000,4.000000,4.000000,4.000000,4.000000,4.000000,4.000000,4.000000,4.000000,100.000000,,,,,,,,,,,,,,,,
1645710257.343098,1645710257.344372,249.000000,0.000000,4280.128418,4247.051270,4210.641113,4309.871582,4232.692383,4232.948730,4205.128418,4211.666504,4221.025879,4209.871582,4203.846191,4226.282227,4242.179688,4278.461426,2967.000000,4.000000,86.000000,,,,0.000000,4.000000,4.000000,4.000000,4.000000,4.000000,4.000000,4.000000,4.000000,4.000000,4.000000,4.000000,4.000000,4.000000,4.000000,100.000000,,,,,,,,,,,,,,,,
1645710257.347038,1645710257.348312,250.000000,0.000000,4278.077148,4246.922852,4208.717773,4298.205078,4224.230957,4230.128418,4207.563965,4211.666504,4223.461426,4207.307617,4199.230957,4226.282227,4242.051270,4277.692383,2364.000000,4.000000,86.000000,,,,0.000000,4.000000,4.000000,4.000000,4.000000,4.000000,4.000000,4.000000,4.000000,4.000000,4.000000,4.000000,4.000000,4.000000,4.000000,100.000000,,,,,,,,,,,,,,,,
1645710257.350978,1645710257.352252,251.000000,0.000000,4279.358887,4251.410156,4209.102539,4293.461426,4220.769043,4233.077148,4213.205078,4214.615234,4226.153809,4208.717773,4200.000000,4228.974121,4241.410156,4271.538574,2777.000000,4.000000,86.000000,2,1,0,0.000000,4.000000,4.000000,4.000000,4.000000,4.000000,4.000000,4.000000,4.000000,4.000000,4.000000,4.000000,4.000000,4.000000,4.000000,100.000000,,,,,,,,,,,,,,,,
1645710257.354918,1645710257.356192,252.000000,0.000000,4281.922852,4257.307617,4210.128418,4297.692383,4224.230957,4240.128418,4218.846191,4219.230957,4227.692383,4213.461426,4204.358887,4232.179688,4240.256348,4264.230957,2936.000000,4.000000,86.000000,,,,0.000000,4.000000,4.000000,4.000000,4.000000,4.000000,4.000000,4.000000,4.000000,4.000000,4.000000,4.000000,4.000000,4.000000,4.000000,100.000000,,,,,,,,,,,,,,,,
1645710257.358858,1645710257.360133,253.000000,0.000000,4282.820313,4259.871582,4209.487305,4305.128418,4230.000000,4246.410156,4221.025879,4223.717773,4227.563965,4218.205078,4208.461426,4234.102539,4238.974121,4259.102539,2967.000000,4.000000,86.000000,,,,0.000000,4.000000,4.000000,4.000000,4.000000,4.000000,4.000000,4.000000,4.000000,4.000000,4.000000,4.000000,4.000000,4.000000,4.000000,100.000000,,,,,,,,,,,,,,,,
1645710257.362798,1645710257.364073,254.000000,0.000000,4281.666504,4255.769043,4206.666504,4308.589844,4230.128418,4247.436035,4218.974121,4225.641113,4225.641113,4218.717773,4209.358887,4234.358887,4238.077148,4257.051270,2364.000000,4.000000,86.000000,,,,0.000000,4.000000,4.000000,4.000000,4.000000,4.000000,4.000000,4.000000,4.000000,4.000000,4.000000,4.000000,4.000000,4.000000,4.000000,100.000000,,,,,,,,,,,,,,,,
1645710257.366738,1645710257.368013,255.000000,0.000000,4280.512695,4246.282227,4203.205078,4305.000000,4222.436035,4242.692383,4214.487305,4224.230957,4222.692383,4214.358887,4207.179688,4233.717773,4237.692383,4257.692383,113.000000,4.000000,86.000000,,,,0.000000,4.000000,4.000000,4.000000,4.000000,4.000000,4.000000,4.000000,4.000000,4.000000,4.000000,4.000000,4.000000,4.000000,4.000000,100.000000,,,,,,,,,,,,,,,,
1645710257.370678,1645710257.371953,0.000000,0.000000,4281.666504,4238.333496,4202.436035,4298.333496,4214.230957,4236.282227,4211.794922,4220.256348,4220.384766,4208.333496,4205.384766,4233.077148,4238.077148,4261.025879,3265.000000,4.000000,86.000000,,,,0.000000,4.000000,4.000000,4.000000,4.000000,4.000000,4.000000,4.000000,4.000000,4.000000,4.000000,4.000000,4.000000,4.000000,4.000000,100.000000,,,,,,,,,,,,,,,,
1645710257.374618,1645710257.375893,1.000000,0.000000,4285.512695,4239.230957,4206.025879,4295.256348,4215.897461,4233.205078,4213.205078,4216.538574,4220.512695,4206.666504,4207.436035,4233.205078,4239.743652,4267.563965,3405.000000,4.000000,86.000000,,,,0.000000,4.000000,4.000000,4.000000,4.000000,4.000000,4.000000,4.000000,4.000000,4.000000,4.000000,4.000000,4.000000,4.000000,4.000000,100.000000,,,,,,,,,,,,,,,,
1645710257.378558,1645710257.379833,2.000000,0.000000,4291.153809,4250.000000,4212.179688,4298.974121,4230.000000,4235.897461,4217.563965,4215.641113,4222.563965,4211.538574,4213.077148,4233.974121,4242.051270,4275.384766,2294.000000,4.000000,86.000000,,,,0.000000,4.000000,4.000000,4.000000,4.000000,4.000000,4.000000,4.000000,4.000000,4.000000,4.000000,4.000000,4.000000,4.000000,4.000000,100.000000,,,,,,,,,,,,,,,,
1645710257.382498,1645710257.383773,3.000000,0.000000,4296.538574,4262.948730,4217.051270,4306.538574,4247.436035,4241.922852,4221.538574,4217.692383,4224.743652,4220.128418,4217.692383,4235.000000,4243.461426,4280.256348,3293.000000,4.000000,86.000000,,,,0.000000,4.000000,4.000000,4.000000,4.000000,4.000000,4.000000,4.000000,4.000000,4.000000,4.000000,4.000000,4.000000,4.000000,4.000000,100.000000,,,,,,,,,,,,,,,,
1645710257.386438,1645710257.387713,4.000000,0.000000,4300.512695,4268.077148,4217.820313,4312.179688,4255.128418,4247.179688,4222.436035,4220.384766,4225.512695,4226.794922,4216.922852,4235.641113,4242.948730,4278.333496,3695.000000,4.000000,86.000000,,,,0.000000,4.000000,4.000000,4.000000,4.000000,4.000000,4.000000,4.000000,4.000000,4.000000,4.000000,4.000000,4.000000,4.000000,4.000000,100.000000,,,,,,,,,,,,,,,,
1645710257.390378,1645710257.391653,5.000000,0.000000,4302.051270,4261.538574,4215.256348,4312.307617,4247.563965,4248.205078,4220.256348,4221.282227,4225.000000,4228.077148,4210.512695,4235.384766,4240.641113,4269.871582,3392.000000,4.000000,86.000000,,,,0.000000,4.000000,4.000000,4.000000,4.000000,4.000000,4.000000,4.000000,4.000000,4.000000,4.000000,4.000000,4.000000,4.000000,4.000000,100.000000,,,,,,,,,,,,,,,,
1645710257.394318,1645710257.395593,6.000000,0.000000,4301.410156,4248.846191,4212.820313,4309.230957,4231.282227,4245.384766,4217.307617,4219.358887,4224.102539,4224.615234,4202.179688,4233.333496,4238.461426,4260.769043,3421.000000,4.000000,86.000000,,,,0.000000,4.000000,4.000000,4.000000,4.000000,4.000000,4.000000,4.000000,4.000000,4.000000,4.000000,4.000000,4.000000,4.000000,4.000000,100.000000,,,,,,,,,,,,,,,,
1645710257.398259,1645710257.399534,7.000000,0.000000,4300.769043,4239.358887,4213.205078,4307.307617,4218.846191,4241.410156,4215.769043,4216.025879,4223.205078,4220.128418,4196.794922,4229.615234,4237.563965,4257.692383,1898.000000,4.000000,86.000000,,,,0.000000,4.000000,4.000000,4.000000,4.000000,4.000000,4.000000,4.000000,4.000000,4.000000,4.000000,4.000000,4.000000,4.000000,4.000000,100.000000,,,,,,,,,,,,,,,,
1645710257.402198,1645710257.403474,8.000000,0.000000,4301.922852,4238.717773,4215.256348,4307.563965,4218.077148,4238.974121,4215.769043,4213.846191,4222.051270,4217.436035,4196.794922,4225.256348,4237.820313,4262.692383,1568.000000,4.000000,86.000000,,,,0.000000,4.000000,4.000000,4.000000,4.000000,4.000000,4.000000,4.000000,4.000000,4.000000,4.000000,4.000000,4.000000,4.000000,4.000000,100.000000,,,,,,,,,,,,,,,,
1645710257.406139,1645710257.407514,9.000000,0.000000,4304.230957,4244.871582,4214.871582,4306.282227,4226.282227,4238.974121,4216.410156,4213.846191,4220.641113,4217.179688,4201.025879,4221.794922,4237.051270,4271.025879,3020.000000,4.000000,86.000000,,,,0.000000,4.000000,4.000000,4.000000,4.000000,4.000000,4.000000,4.000000,4.000000,4.000000,4.000000,4.000000,4.000000,4.000000,4.000000,100.000000,,,,,,,,,,,,,,,,
1645710257.410079,1645710257.411454,10.000000,0.000000,4304.487305,4251.282227,4209.487305,4299.615234,4234.230957,4240.128418,4216.666504,4215.769043,4219.487305,4218.077148,4205.897461,4219.615234,4233.846191,4275.384766,2547.000000,4.000000,86.000000,,,,0.000000,4.000000,4.000000,4.000000,4.000000,4.000000,4.000000,4.000000,4.000000,4.000000,4.000000,4.000000,4.000000,4.000000,4.000000,100.000000,,,,,,,,,,,,,,,,
1645710257.414019,1645710257.415394,11.000000,0.000000,4301.025879,4253.205078,4201.794922,4288.717773,4234.230957,4241.153809,4216.282227,4217.692383,4219.615234,4218.846191,4208.205078,4218.589844,4229.102539,4272.179688,2731.000000,4.000000,86.000000,,,,0.000000,4.000000,4.000000,4.000000,4.000000,4.000000,4.000000,4.000000,4.000000,4.000000,4.000000,4.000000,4.000000,4.000000,4.000000,100.000000,,,,,,,,,,,,,,,,
1645710257.417959,1645710257.419334,12.000000,0.000000,4296.153809,4250.256348,4197.820313,4279.615234,4226.538574,4240.384766,4215.641113,4218.589844,4221.282227,4218.717773,4206.922852,4218.205078,4224.871582,4264.487305,3154.000000,4.000000,86.000000,,,,0.000000,4.000000,4.000000,4.000000,4.000000,4.000000,4.000000,4.000000,4.000000,4.000000,4.000000,4.000000,4.000000,4.000000,4.000000,100.000000,,,,,,,,,,,,,,,,
1645710257.421899,1645710257.423274,13.000000,0.000000,4294.615234,4246.153809,4201.410156,4279.102539,4217.820313,4237.563965,4215.128418,4218.974121,4223.717773,4217.179688,4203.461426,4218.205078,4223.461426,4259.230957,2957.000000,4.000000,86.000000,,,,0.000000,4.000000,4.000000,4.000000,4.000000,4.000000,4.000000,4.000000,4.000000,4.000000,4.000000,4.000000,4.000000,4.000000,4.000000,100.000000,,,,,,,,,,,,,,,,
1645710257.425839,1645710257.427214,14.000000,0.000000,4298.461426,4243.846191,4210.000000,4288.461426,4214.487305,4234.615234,4215.000000,4219.230957,4226.153809,4214.102539,4200.256348,4218.461426,4225.256348,4260.897461,2547.000000,4.000000,86.000000,,,,0.000000,4.000000,4.000000,4.000000,4.000000,4.000000,4.000000,4.000000,4.000000,4.000000,4.000000,4.000000,4.000000,4.000000,4.000000,100.000000,,,,,,,,,,,,,,,,
1645710257.429779,1645710257.431154,15.000000,0.000000,4303.717773,4243.333496,4216.025879,4302.179688,4216.666504,4233.461426,4214.487305,4219.230957,4227.948730,4209.871582,4199.102539,4218.205078,4229.358887,4268.077148,2731.000000,4.000000,86.000000,,,,0.000000,4.000000,4.000000,4.000000,4.000000,4.000000,4.000000,4.000000,4.000000,4.000000,4.000000,4.000000,4.000000,4.000000,4.000000,100.000000,,,,,,,,,,,,,,,,
1645710257.433719,1645710257.435094,16.000000,0.000000,4305.256348,4242.820313,4214.487305,4312.051270,4220.000000,4235.384766,4213.461426,4218.461426,4227.563965,4206.282227,4200.384766,4216.922852,4233.461426,4275.512695,3154.000000,4.000000,86.000000,,,,0.000000,4.000000,4.000000,4.000000,4.000000,4.000000,4.000000,4.000000,4.000000,4.000000,4.000000,4.000000,4.000000,4.000000,4.000000,100.000000,,,,,,,,,,,,,,,,
1645710257.437659,1645710257.439035,17.000000,0.000000,4301.922852,4241.538574,4207.436035,4312.820313,4222.307617,4239.102539,4212.307617,4216.794922,4224.615234,4206.025879,4203.589844,4215.128418,4236.025879,4278.974121,2957.000000,4.000000,86.000000,,,,0.000000,4.000000,4.000000,4.000000,4.000000,4.000000,4.000000,4.000000,4.000000,4.000000,4.000000,4.000000,4.000000,4.000000,4.000000,100.000000,,,,,,,,,,,,,,,,
1645710257.441599,1645710257.442975,18.000000,0.000000,4298.077148,4241.538574,4202.051270,4306.410156,4225.512695,4242.179688,4212.051270,4215.512695,4220.000000,4210.769043,4206.922852,4214.871582,4236.922852,4278.974121,2547.000000,4.000000,86.000000,,,,0.000000,4.000000,4.000000,4.000000,4.000000,4.000000,4.000000,4.000000,4.000000,4.000000,4.000000,4.000000,4.000000,4.000000,4.000000,100.000000,,,,,,,,,,,,,,,,
1645710257.445539,1645710257.446915,19.000000,0.000000,4298.077148,4244.743652,4203.205078,4297.948730,4231.282227,4242.563965,4213.461426,4216.153809,4216.410156,4219.358887,4208.589844,4216.794922,4237.307617,4278.077148,2731.000000,4.000000,86.000000,,,,0.000000,4.000000,4.000000,4.000000,4.000000,4.000000,4.000000,4.000000,4.000000,4.000000,4.000000,4.000000,4.000000,4.000000,4.000000,100.000000,,,,,,,,,,,,,,,,
1645710257.449479,1645710257.450855,20.000000,0.000000,4301.922852,4250.897461,4209.230957,4291.922852,4236.025879,4240.384766,4215.897461,4218.589844,4215.512695,4227.179688,4207.692383,4219.615234,4237.948730,4277.563965,3154.000000,4.000000,86.000000,,,,0.000000,4.000000,4.000000,4.000000,4.000000,4.000000,4.000000,4.000000,4.000000,4.000000,4.000000,4.000000,4.000000,4.000000,4.000000,100.000000,,,,,,,,,,,,,,,,
1645710257.453419,1645710257.454795,21.000000,0.000000,4305.128418,4256.666504,4214.358887,4289.230957,4234.871582,4237.563965,4217.948730,4220.384766,4216.922852,4229.743652,4205.000000,4221.025879,4238.461426,4277.051270,2957.000000,4.000000,86.000000,,,,0.000000,4.000000,4.000000,4.000000,4.000000,4.000000,4.000000,4.000000,4.000000,4.000000,4.000000,4.000000,4.000000,4.000000,4.000000,100.000000,,,,,,,,,,,,,,,,
1645710257.457359,1645710257.458735,22.000000,0.000000,4304.102539,4258.846191,4213.974121,4288.333496,4226.922852,4236.410156,4218.205078,4219.487305,4219.102539,4224.615234,4202.307617,4220.256348,4237.948730,4276.025879,2547.000000,4.000000,86.000000,,,,0.000000,4.000000,4.000000,4.000000,4.000000,4.000000,4.000000,4.000000,4.000000,4.000000,4.000000,4.000000,4.000000,4.000000,4.000000,100.000000,,,,,,,,,,,,,,,,
1645710257.461300,1645710257.462675,23.000000,0.000000,4300.000000,4256.153809,4208.717773,4287.563965,4218.717773,4237.051270,4216.666504,4216.025879,4220.512695,4215.128418,4201.794922,4218.717773,4236.153809,4275.128418,2731.000000,4.000000,86.000000,,,,0.000000,4.000000,4.000000,4.000000,4.000000,4.000000,4.000000,4.000000,4.000000,4.000000,4.000000,4.000000,4.000000,4.000000,4.000000,100.000000,,,,,,,,,,,,,,,,
1645710257.465239,1645710257.466615,24.000000,0.000000,4297.307617,4250.512695,4203.974121,4287.692383,4218.077148,4238.717773,4215.000000,4212.436035,4221.025879,4208.205078,4204.743652,4218.717773,4234.615234,4276.153809,3154.000000,4.000000,86.000000,,,,0.000000,4.000000,4.000000,4.000000,4.000000,4.000000,4.000000,4.000000,4.000000,4.000000,4.000000,4.000000,4.000000,4.000000,4.000000,100.000000,,,,,,,,,,,,,,,,
1645710257.469180,1645710257.470555,25.000000,0.000000,4298.077148,4245.641113,4204.615234,4290.897461,4227.692383,4240.128418,4215.000000,4212.179688,4221.282227,4210.256348,4210.512695,4221.666504,4234.871582,4280.512695,2957.000000,4.000000,86.000000,,,,0.000000,4.000000,4.000000,4.000000,4.000000,4.000000,4.000000,4.000000,4.000000,4.000000,4.000000,4.000000,4.000000,4.000000,4.000000,100.000000,,,,,,,,,,,,,,,,
1645710257.473120,1645710257.474495,26.000000,0.000000,4301.025879,4243.589844,4211.410156,4296.922852,4241.538574,4241.282227,4217.563965,4215.769043,4221.922852,4220.897461,4217.051270,4226.538574,4237.820313,4286.666504,2547.000000,4.000000,86.000000,,,,0.000000,4.000000,4.000000,4.000000,4.000000,4.000000,4.000000,4.000000,4.000000,4.000000,4.000000,4.000000,4.000000,4.000000,4.000000,100.000000,,,,,,,,,,,,,,,,
1645710257.477060,1645710257.478436,27.000000,0.000000,4303.333496,4242.692383,4220.384766,4301.410156,4248.717773,4241.794922,4220.897461,4220.769043,4222.563965,4232.436035,4220.769043,4230.897461,4241.666504,4290.897461,2731.000000,4.000000,86.000000,,,,0.000000,4.000000,4.000000,4.000000,4.000000,4.000000,4.000000,4.000000,4.000000,4.000000,4.000000,4.000000,4.000000,4.000000,4.000000,100.000000,,,,,,,,,,,,,,,,
1645710257.481000,1645710257.482376,28.000000,0.000000,4303.461426,4240.128418,4225.769043,4298.846191,4242.436035,4241.282227,4222.436035,4223.974121,4223.205078,4235.256348,4218.589844,4232.307617,4243.077148,4289.358887,3154.000000,4.000000,86.000000,,,,0.000000,4.000000,4.000000,4.000000,4.000000,4.000000,4.000000,4.000000,4.000000,4.000000,4.000000,4.000000,4.000000,4.000000,4.000000,100.000000,,,,,,,,,,,,,,,,
1645710257.484940,1645710257.486316,29.000000,0.000000,4302.179688,4236.410156,4224.615234,4288.589844,4227.563965,4240.000000,4221.282227,4223.589844,4224.230957,4226.282227,4210.512695,4229.358887,4239.615234,4282.051270,2957.000000,4.000000,86.000000,,,,0.000000,4.000000,4.000000,4.000000,4.000000,4.000000,4.000000,4.000000,4.000000,4.000000,4.000000,4.000000,4.000000,4.000000,4.000000,100.000000,,,,,,,,,,,,,,,,
1645710257.488880,1645710257.490256,30.000000,0.000000,4300.000000,4234.871582,4219.230957,4276.410156,4216.538574,4239.230957,4218.717773,4221.282227,4226.538574,4212.051270,4199.743652,4223.333496,4232.179688,4272.307617,2547.000000,4.000000,86.000000,,,,0.000000,4.000000,4.000000,4.000000,4.000000,4.000000,4.000000,4.000000,4.000000,4.000000,4.000000,4.000000,4.000000,4.000000,4.000000,100.000000,,,,,,,,,,,,,,,,
1645710257.492820,1645710257.494196,31.000000,0.000000,4297.051270,4237.692383,4213.589844,4268.461426,4218.461426,4239.358887,4217.307617,4218.974121,4229.358887,4203.333496,4190.769043,4216.666504,4224.358887,4265.512695,2731.000000,4.000000,86.000000,,,,0.000000,4.000000,4.000000,4.000000,4.000000,4.000000,4.000000,4.000000,4.000000,4.000000,4.000000,4.000000,4.000000,4.000000,4.000000,100.000000,,,,,,,,,,,,,,,,
1645710257.496760,1645710257.498136,32.000000,0.000000,4292.948730,4242.820313,4210.128418,4266.282227,4229.487305,4238.717773,4217.563965,4217.179688,4230.384766,4205.256348,4185.641113,4211.025879,4219.615234,4263.461426,0.000000,4.000000,86.000000,,,,0.000000,4.000000,4.000000,4.000000,4.000000,4.000000,4.000000,4.000000,4.000000,4.000000,4.000000,4.000000,4.000000,4.000000,4.000000,100.000000,,,,,,,,,,,,,,,,
1645710257.500700,1645710257.502076,33.000000,0.000000,4288.333496,4245.128418,4207.820313,4265.769043,4236.282227,4235.384766,4218.205078,4215.641113,4228.205078,4213.461426,4183.461426,4206.538574,4218.717773,4264.358887,0.000000,4.000000,86.000000,,,,0.000000,4.000000,4.000000,4.000000,4.000000,4.000000,4.000000,4.000000,4.000000,4.000000,4.000000,4.000000,4.000000,4.000000,4.000000,100.000000,,,,,,,,,,,,,,,,
1645710257.504640,1645710257.506016,34.000000,0.000000,4284.487305,4241.410156,4204.358887,4263.077148,4229.102539,4230.000000,4216.922852,4213.846191,4223.077148,4218.846191,4181.922852,4202.307617,4219.230957,4264.743652,0.000000,4.000000,86.000000,,,,0.000000,4.000000,4.000000,4.000000,4.000000,4.000000,4.000000,4.000000,4.000000,4.000000,4.000000,4.000000,4.000000,4.000000,4.000000,100.000000,,,,,,,,,,,,,,,,
1645710257.508580,1645710257.509956,35.000000,0.000000,4282.436035,4232.948730,4199.871582,4259.487305,4211.538574,4226.025879,4213.461426,4211.922852,4217.948730,4214.871582,4180.897461,4198.717773,4218.717773,4262.820313,0.000000,4.000000,86.000000,,,,0.000000,4.000000,4.000000,4.000000,4.000000,4.000000,4.000000,4.000000,4.000000,4.000000,4.000000,4.000000,4.000000,4.000000,4.000000,100.000000,,,,,,,,,,,,,,,,
1645710257.512520,1645710257.513897,36.000000,0.000000,4281.922852,4224.102539,4196.410156,4259.102539,4197.179688,4226.153809,4209.871582,4210.256348,4215.256348,4203.333496,4181.794922,4196.922852,4216.794922,4260.128418,0.000000,4.000000,86.000000,,,,0.000000,4.000000,4.000000,4.000000,4.000000,4.000000,4.000000,4.000000,4.000000,4.000000,4.000000,4.000000,4.000000,4.000000,4.000000,100.000000,,,,,,,,,,,,,,,,
1645710257.516460,1645710257.517837,37.000000,0.000000,4282.692383,4218.717773,4195.897461,4263.717773,4197.436035,4230.641113,4208.974121,4209.102539,4215.512695,4192.179688,4185.128418,4197.692383,4214.358887,4258.589844,0.000000,4.000000,86.000000,,,,0.000000,4.000000,4.000000,4.000000,4.000000,4.000000,4.000000,4.000000,4.000000,4.000000,4.000000,4.000000,4.000000,4.000000,4.000000,100.000000,,,,,,,,,,,,,,,,
1645710257.520400,1645710257.521777,38.000000,0.000000,4284.102539,4217.563965,4198.077148,4270.128418,4211.282227,4236.153809,4211.282227,4208.461426,4217.051270,4188.333496,4189.230957,4199.871582,4212.307617,4259.487305,0.000000,4.000000,86.000000,,,,0.000000,4.000000,4.000000,4.000000,4.000000,4.000000,4.000000,4.000000,4.000000,4.000000,4.000000,4.000000,4.000000,4.000000,4.000000,100.000000,,,,,,,,,,,,,,,,
1645710257.524341,1645710257.525717,39.000000,0.000000,4285.641113,4218.461426,4200.897461,4272.692383,4226.666504,4238.333496,4215.000000,4208.974121,4217.948730,4192.948730,4191.410156,4201.153809,4211.153809,4261.922852,0.000000,4.000000,86.000000,,,,0.000000,4.000000,4.000000,4.000000,4.000000,4.000000,4.000000,4.000000,4.000000,4.000000,4.000000,4.000000,4.000000,4.000000,4.000000,100.000000,,,,,,,,,,,,,,,,
1645710257.528281,1645710257.529657,40.000000,0.000000,4286.538574,4219.487305,4202.179688,4268.846191,4232.307617,4234.871582,4216.922852,4210.897461,4217.820313,4201.794922,4191.282227,4200.641113,4210.641113,4263.846191,0.000000,4.000000,86.000000,,,,0.000000,4.000000,4.000000,4.000000,4.000000,4.000000,4.000000,4.000000,4.000000,4.000000,4.000000,4.000000,4.000000,4.000000,4.000000,100.000000,,,,,,,,,,,,,,,,
1645710257.532220,1645710257.533597,41.000000,0.000000,4285.641113,4221.538574,4201.410156,4261.025879,4227.307617,4227.563965,4215.769043,4213.333496,4217.563965,4208.974121,4190.384766,4199.230957,4211.025879,4264.358887,0.000000,4.000000,86.000000,,,,0.000000,4.000000,4.000000,4.000000,4.000000,4.000000,4.000000,4.000000,4.000000,4.000000,4.000000,4.000000,4.000000,4.000000,4.000000,100.000000,,,,,,,,,,,,,,,,
1645710257.536161,1645710257.537537,42.000000,0.000000,4283.974121,4226.538574,4200.000000,4253.461426,4220.512695,4221.282227,4213.077148,4215.000000,4218.333496,4211.666504,4190.769043,4198.846191,4212.436035,4263.974121,0.000000,4.000000,86.000000,,,,0.000000,4.000000,4.000000,4.000000,4.000000,4.000000,4.000000,4.000000,4.000000,4.000000,4.000000,4.000000,4.000000,4.000000,4.000000,100.000000,,,,,,,,,,,,,,,,
1645710257.540101,1645710257.541477,43.000000,0.000000,4283.461426,4234.487305,4199.358887,4249.102539,4219.871582,4220.128418,4211.282227,4215.000000,4219.615234,4210.384766,4192.051270,4200.000000,4214.487305,4264.102539,0.000000,4.000000,86.000000,,,,0.000000,4.000000,4.000000,4.000000,4.000000,4.000000,4.000000,4.000000,4.000000,4.000000,4.000000,4.000000,4.000000,4.000000,4.000000,100.000000,,,,,,,,,,,,,,,,
1645710257.544041,1645710257.545417,44.000000,0.000000,4285.384766,4240.897461,4200.128418,4247.820313,4224.871582,4224.358887,4211.538574,4213.846191,4219.743652,4206.794922,4191.922852,4201.025879,4215.512695,4265.256348,0.000000,4.000000,86.000000,,,,0.000000,4.000000,4.000000,4.000000,4.000000,4.000000,4.000000,4.000000,4.000000,4.000000,4.000000,4.000000,4.000000,4.000000,4.000000,100.000000,,,,,,,,,,,,,,,,
1645710257.547981,1645710257.549357,45.000000,0.000000,4287.820313,4241.282227,4201.153809,4247.948730,4227.948730,4230.256348,4212.563965,4211.794922,4218.461426,4202.179688,4188.589844,4199.230957,4214.358887,4266.025879,0.000000,4.000000,86.000000,,,,0.000000,4.000000,4.000000,4.000000,4.000000,4.000000,4.000000,4.000000,4.000000,4.000000,4.000000,4.000000,4.000000,4.000000,4.000000,100.000000,,,,,,,,,,,,,,,,
1645710257.551921,1645710257.553298,46.000000,0.000000,4287.436035,4234.615234,4200.641113,4248.205078,4222.051270,4233.333496,4212.051270,4209.615234,4216.282227,4197.436035,4183.205078,4193.846191,4210.769043,4263.846191,0.000000,4.000000,86.000000,,,,0.000000,4.000000,4.000000,4.000000,4.000000,4.000000,4.000000,4.000000,4.000000,4.000000,4.000000,4.000000,4.000000,4.000000,4.000000,100.000000,,,,,,,,,,,,,,,,
1645710257.555861,1645710257.557138,47.000000,0.000000,4282.820313,4223.589844,4197.179688,4247.692383,4208.717773,4231.794922,4209.615234,4207.820313,4215.128418,4194.102539,4179.102539,4186.153809,4206.153809,4257.436035,0.000000,4.000000,86.000000,,,,0.000000,4.000000,4.000000,4.000000,4.000000,4.000000,4.000000,4.000000,4.000000,4.000000,4.000000,4.000000,4.000000,4.000000,4.000000,100.000000,,,,,,,,,,,,,,,,
1645710257.559801,1645710257.561078,48.000000,0.000000,4276.025879,4212.436035,4190.897461,4246.666504,4196.153809,4227.436035,4206.410156,4206.922852,4215.128418,4193.205078,4178.333496,4179.487305,4201.922852,4249.230957,0.000000,4.000000,86.000000,,,,0.000000,4.000000,4.000000,4.000000,4.000000,4.000000,4.000000,4.000000,4.000000,4.000000,4.000000,4.000000,4.000000,4.000000,4.000000,100.000000,,,,,,,,,,,,,,,,
1645710257.563741,1645710257.565018,49.000000,0.000000,4271.666504,4204.871582,4184.102539,4245.384766,4193.589844,4223.717773,4205.000000,4207.307617,4215.384766,4194.743652,4180.128418,4176.666504,4200.000000,4243.974121,0.000000,4.000000,86.000000,,,,0.000000,4.000000,4.000000,4.000000,4.000000,4.000000,4.000000,4.000000,4.000000,4.000000,4.000000,4.000000,4.000000,4.000000,4.000000,100.000000,,,,,,,,,,,,,,,,
1645710257.567681,1645710257.568958,50.000000,0.000000,4272.692383,4202.948730,4180.512695,4244.230957,4203.461426,4223.205078,4206.410156,4208.589844,4214.743652,4198.077148,4182.563965,4179.102539,4202.051270,4245.128418,0.000000,4.000000,86.000000,,,,0.000000,4.000000,4.000000,4.000000,4.000000,4.000000,4.000000,4.000000,4.000000,4.000000,4.000000,4.000000,4.000000,4.000000,4.000000,100.000000,,,,,,,,,,,,,,,,
1645710257.571621,1645710257.572898,51.000000,0.000000,4277.820313,4208.077148,4182.051270,4243.461426,4219.871582,4226.025879,4210.128418,4210.000000,4213.974121,4202.692383,4185.641113,4185.769043,4208.205078,4252.563965,0.000000,4.000000,86.000000,,,,0.000000,4.000000,4.000000,4.000000,4.000000,4.000000,4.000000,4.000000,4.000000,4.000000,4.000000,4.000000,4.000000,4.000000,4.000000,100.000000,,,,,,,,,,,,,,,,
1645710257.575561,1645710257.576838,52.000000,0.000000,4283.461426,4219.102539,4187.692383,4242.820313,4233.589844,4230.769043,4213.846191,4211.666504,4215.128418,4207.948730,4190.000000,4193.974121,4216.794922,4261.794922,0.000000,4.000000,86.000000,,,,0.000000,4.000000,4.000000,4.000000,4.000000,4.000000,4.000000,4.000000,4.000000,4.000000,4.000000,4.000000,4.000000,4.000000,4.000000,100.000000,,,,,,,,,,,,,,,,
1645710257.579501,1645710257.580778,53.000000,0.000000,4287.307617,4231.666504,4194.487305,4242.436035,4237.948730,4236.153809,4216.025879,4213.974121,4218.589844,4213.077148,4195.769043,4200.512695,4223.717773,4268.077148,0.000000,4.000000,86.000000,,,,0.000000,4.000000,4.000000,4.000000,4.000000,4.000000,4.000000,4.000000,4.000000,4.000000,4.000000,4.000000,4.000000,4.000000,4.000000,100.000000,,,,,,,,,,,,,,,,
1645710257.583441,1645710257.584719,54.000000,0.000000,4288.974121,4239.230957,4199.230957,4242.563965,4234.102539,4239.743652,4216.794922,4216.922852,4222.692383,4216.666504,4200.769043,4203.589844,4224.871582,4268.974121,0.000000,4.000000,86.000000,,,,0.000000,4.000000,4.000000,4.000000,4.000000,4.000000,4.000000,4.000000,4.000000,4.000000,4.000000,4.000000,4.000000,4.000000,4.000000,100.000000,,,,,,,,,,,,,,,,
1645710257.587381,1645710257.588659,55.000000,0.000000,4289.358887,4236.666504,4200.769043,4244.102539,4227.820313,4240.128418,4216.922852,4219.102539,4224.358887,4217.179688,4202.051270,4203.077148,4219.230957,4265.769043,0.000000,4.000000,86.000000,,,,0.000000,4.000000,4.000000,4.000000,4.000000,4.000000,4.000000,4.000000,4.000000,4.000000,4.000000,4.000000,4.000000,4.000000,4.000000,100.000000,,,,,,,,,,,,,,,,
1645710257.591322,1645710257.592599,56.000000,0.000000,4288.846191,4225.256348,4199.743652,4247.307617,4224.102539,4237.948730,4217.179688,4219.358887,4222.436035,4214.743652,4198.717773,4200.128418,4210.384766,4262.436035,0.000000,4.000000,86.000000,,,,0.000000,4.000000,4.000000,4.000000,4.000000,4.000000,4.000000,4.000000,4.000000,4.000000,4.000000,4.000000,4.000000,4.000000,4.000000,100.000000,,,,,,,,,,,,,,,,
1645710257.595261,1645710257.596539,57.000000,0.000000,4287.948730,4212.179688,4198.205078,4251.282227,4223.717773,4236.025879,4217.563965,4217.563965,4219.230957,4210.897461,4193.205078,4196.538574,4204.487305,4262.820313,0.000000,4.000000,86.000000,,,,0.000000,4.000000,4.000000,4.000000,4.000000,4.000000,4.000000,4.000000,4.000000,4.000000,4.000000,4.000000,4.000000,4.000000,4.000000,100.000000,,,,,,,,,,,,,,,,
1645710257.599202,1645710257.600479,58.000000,0.000000,4287.692383,4205.384766,4197.692383,4254.743652,4224.743652,4236.794922,4217.692383,4215.000000,4218.717773,4208.077148,4188.717773,4194.743652,4205.256348,4267.307617,0.000000,4.000000,86.000000,,,,0.000000,4.000000,4.000000,4.000000,4.000000,4.000000,4.000000,4.000000,4.000000,4.000000,4.000000,4.000000,4.000000,4.000000,4.000000,100.000000,,,,,,,,,,,,,,,,
1645710257.603142,1645710257.604419,59.000000,0.000000,4288.717773,4207.948730,4198.846191,4256.282227,4224.743652,4239.102539,4217.436035,4213.846191,4222.563965,4207.563965,4186.794922,4195.512695,4211.922852,4273.205078,0.000000,4.000000,86.000000,,,,0.000000,4.000000,4.000000,4.000000,4.000000,4.000000,4.000000,4.000000,4.000000,4.000000,4.000000,4.000000,4.000000,4.000000,4.000000,100.000000,,,,,,,,,,,,,,,,
1645710257.607082,1645710257.608359,60.000000,0.000000,4290.256348,4216.922852,4200.384766,4254.871582,4222.948730,4240.256348,4216.922852,4215.512695,4228.077148,4209.743652,4186.922852,4198.333496,4220.384766,4276.922852,0.000000,4.000000,86.000000,,,,0.000000,4.000000,4.000000,4.000000,4.000000,4.000000,4.000000,4.000000,4.000000,4.000000,4.000000,4.000000,4.000000,4.000000,4.000000,100.000000,,,,,,,,,,,,,,,,
1645710257.611022,1645710257.612299,61.000000,0.000000,4290.512695,4226.794922,4201.410156,4250.000000,4221.025879,4238.461426,4217.051270,4219.358887,4231.410156,4214.102539,4189.230957,4201.282227,4226.153809,4276.922852,0.000000,4.000000,86.000000,,,,0.000000,4.000000,4.000000,4.000000,4.000000,4.000000,4.000000,4.000000,4.000000,4.000000,4.000000,4.000000,4.000000,4.000000,4.000000,100.000000,,,,,,,,,,,,,,,,
1645710257.614962,1645710257.616239,62.000000,0.000000,4289.487305,4232.948730,4201.410156,4242.948730,4220.897461,4234.615234,4218.589844,4223.589844,4230.641113,4219.487305,4194.102539,4202.692383,4227.179688,4274.743652,0.000000,4.000000,86.000000,,,,0.000000,4.000000,4.000000,4.000000,4.000000,4.000000,4.000000,4.000000,4.000000,4.000000,4.000000,4.000000,4.000000,4.000000,4.000000,100.000000,,,,,,,,,,,,,,,,
1645710257.618902,1645710257.620179,63.000000,0.000000,4288.846191,4233.077148,4200.897461,4236.794922,4222.948730,4230.897461,4220.897461,4226.410156,4227.436035,4223.333496,4200.769043,4202.307617,4224.487305,4272.820313,0.000000,4.000000,86.000000,,,,0.000000,4.000000,4.000000,4.000000,4.000000,4.000000,4.000000,4.000000,4.000000,4.000000,4.000000,4.000000,4.000000,4.000000,4.000000,100.000000,,,,,,,,,,,,,,,,
1645710257.622842,1645710257.624120,64.000000,0.000000,4290.256348,4227.563965,4200.128418,4235.256348,4225.512695,4228.846191,4222.179688,4226.794922,4224.358887,4223.589844,4205.769043,4200.769043,4220.512695,4272.179688,0.000000,4.000000,86.000000,,,,0.000000,4.000000,4.000000,4.000000,4.000000,4.000000,4.000000,4.000000,4.000000,4.000000,4.000000,4.000000,4.000000,4.000000,4.000000,100.000000,,,,,,,,,,,,,,,,
1645710257.626782,1645710257.627960,65.000000,0.000000,4293.333496,4220.256348,4199.102539,4240.000000,4227.179688,4228.974121,4221.794922,4224.871582,4223.589844,4220.897461,4205.512695,4199.230957,4217.692383,4271.794922,0.000000,4.000000,86.000000,,,,0.000000,4.000000,4.000000,4.000000,4.000000,4.000000,4.000000,4.000000,4.000000,4.000000,4.000000,4.000000,4.000000,4.000000,4.000000,100.000000,,,,,,,,,,,,,,,,
1645710257.630722,1645710257.631900,66.000000,0.000000,4295.641113,4215.769043,4198.333496,4247.820313,4227.692383,4231.794922,4221.410156,4222.563965,4225.000000,4218.846191,4199.487305,4198.205078,4216.922852,4270.256348,0.000000,4.000000,86.000000,,,,0.000000,4.000000,4.000000,4.000000,4.000000,4.000000,4.000000,4.000000,4.000000,4.000000,4.000000,4.000000,4.000000,4.000000,4.000000,100.000000,,,,,,,,,,,,,,,,
1645710257.634662,1645710257.635840,67.000000,0.000000,4294.615234,4216.538574,4198.205078,4253.461426,4227.948730,4237.051270,4222.948730,4222.179688,4227.051270,4220.256348,4191.282227,4198.205078,4217.051270,4267.051270,0.000000,4.000000,86.000000,,,,0.000000,4.000000,4.000000,4.000000,4.000000,4.000000,4.000000,4.000000,4.000000,4.000000,4.000000,4.000000,4.000000,4.000000,4.000000,100.000000,,,,,,,,,,,,,,,,
1645710257.638602,1645710257.639780,68.000000,0.000000,4290.897461,4220.769043,4198.846191,4253.205078,4228.205078,4242.179688,4225.897461,4224.871582,4228.077148,4224.230957,4185.897461,4198.846191,4215.897461,4263.205078,0.000000,4.000000,86.000000,,,,0.000000,4.000000,4.000000,4.000000,4.000000,4.000000,4.000000,4.000000,4.000000,4.000000,4.000000,4.000000,4.000000,4.000000,4.000000,100.000000,,,,,,,,,,,,,,,,
1645710257.642542,1645710257.643720,69.000000,0.000000,4287.436035,4225.256348,4200.000000,4248.974121,4228.205078,4244.102539,4228.461426,4229.102539,4227.692383,4227.307617,4186.794922,4199.358887,4212.948730,4260.256348,0.000000,4.000000,86.000000,,,,0.000000,4.000000,4.000000,4.000000,4.000000,4.000000,4.000000,4.000000,4.000000,4.000000,4.000000,4.000000,4.000000,4.000000,4.000000,100.000000,,,,,,,,,,,,,,,,
1645710257.646482,1645710257.647660,70.000000,0.000000,4286.794922,4227.692383,4201.282227,4245.256348,4227.948730,4241.410156,4229.230957,4232.179688,4227.307617,4227.051270,4194.230957,4199.487305,4209.615234,4260.128418,0.000000,4.000000,86.000000,,,,0.000000,4.000000,4.000000,4.000000,4.000000,4.000000,4.000000,4.000000,4.000000,4.000000,4.000000,4.000000,4.000000,4.000000,4.000000,100.000000,,,,,,,,,,,,,,,,
1645710257.650422,1645710257.651600,71.000000,0.000000,4288.205078,4227.820313,4202.563965,4244.871582,4226.666504,4236.153809,4228.333496,4232.692383,4228.846191,4224.487305,4204.487305,4198.846191,4208.846191,4263.077148,0.000000,4.000000,86.000000,,,,0.000000,4.000000,4.000000,4.000000,4.000000,4.000000,4.000000,4.000000,4.000000,4.000000,4.000000,4.000000,4.000000,4.000000,4.000000,100.000000,,,,,,,,,,,,,,,,
1645710257.654363,1645710257.655541,72.000000,0.000000,4288.589844,4225.897461,4203.333496,4247.051270,4223.205078,4231.282227,4226.922852,4231.282227,4232.563965,4222.307617,4211.410156,4197.820313,4212.307617,4267.307617,0.000000,4.000000,86.000000,,,,0.000000,4.000000,4.000000,4.000000,4.000000,4.000000,4.000000,4.000000,4.000000,4.000000,4.000000,4.000000,4.000000,4.000000,4.000000,100.000000,,,,,,,,,,,,,,,,
1645710257.658303,1645710257.659481,73.000000,0.000000,4287.179688,4223.205078,4203.333496,4249.102539,4216.666504,4228.589844,4226.410156,4229.871582,4236.025879,4221.922852,4210.256348,4197.051270,4218.461426,4269.358887,0.000000,4.000000,86.000000,,,,0.000000,4.000000,4.000000,4.000000,4.000000,4.000000,4.000000,4.000000,4.000000,4.000000,4.000000,4.000000,4.000000,4.000000,4.000000,100.000000,,,,,,,,,,,,,,,,
1645710257.662243,1645710257.663421,74.000000,0.000000,4286.153809,4220.897461,4202.692383,4249.615234,4209.487305,4227.563965,4227.051270,4229.871582,4237.179688,4222.307617,4201.794922,4197.436035,4223.333496,4267.563965,0.000000,4.000000,86.000000,,,,0.000000,4.000000,4.000000,4.000000,4.000000,4.000000,4.000000,4.000000,4.000000,4.000000,4.000000,4.000000,4.000000,4.000000,4.000000,100.000000,,,,,,,,,,,,,,,,
1645710257.666183,1645710257.667361,75.000000,0.000000,4288.205078,4220.897461,4201.794922,4249.358887,4206.410156,4227.820313,4228.846191,4231.538574,4236.025879,4222.179688,4192.692383,4198.974121,4223.717773,4263.333496,0.000000,4.000000,86.000000,,,,0.000000,4.000000,4.000000,4.000000,4.000000,4.000000,4.000000,4.000000,4.000000,4.000000,4.000000,4.000000,4.000000,4.000000,4.000000,100.000000,,,,,,,,,,,,,,,,
1645710257.670123,1645710257.671301,76.000000,0.000000,4292.563965,4223.333496,4201.410156,4250.256348,4211.282227,4229.743652,4230.897461,4233.333496,4233.846191,4221.538574,4189.743652,4200.769043,4219.871582,4260.384766,0.000000,4.000000,86.000000,,,,0.000000,4.000000,4.000000,4.000000,4.000000,4.000000,4.000000,4.000000,4.000000,4.000000,4.000000,4.000000,4.000000,4.000000,4.000000,100.000000,,,,,,,,,,,,,,,,
1645710257.674063,1645710257.675241,77.000000,0.000000,4296.153809,4226.410156,4201.794922,4253.333496,4223.461426,4233.589844,4232.692383,4233.205078,4232.692383,4221.794922,4194.102539,4201.153809,4215.128418,4261.410156,0.000000,4.000000,86.000000,,,,0.000000,4.000000,4.000000,4.000000,4.000000,4.000000,4.000000,4.000000,4.000000,4.000000,4.000000,4.000000,4.000000,4.000000,4.000000,100.000000,,,,,,,,,,,,,,,,
1645710257.678003,1645710257.679181,78.000000,0.000000,4296.282227,4227.307617,4202.563965,4257.948730,4236.282227,4238.333496,4232.948730,4231.153809,4232.820313,4223.461426,4200.384766,4199.230957,4212.820313,4265.384766,0.000000,4.000000,86.000000,,,,0.000000,4.000000,4.000000,4.000000,4.000000,4.000000,4.000000,4.000000,4.000000,4.000000,4.000000,4.000000,4.000000,4.000000,4.000000,100.000000,,,,,,,,,,,,,,,,
1645710257.681943,1645710257.683121,79.000000,0.000000,4293.717773,4224.743652,4202.436035,4260.897461,4241.538574,4241.282227,4231.153809,4229.230957,4233.846191,4225.641113,4200.769043,4194.743652,4212.692383,4268.333496,0.000000,4.000000,86.000000,,,,0.000000,4.000000,4.000000,4.000000,4.000000,4.000000,4.000000,4.000000,4.000000,4.000000,4.000000,4.000000,4.000000,4.000000,4.000000,100.000000,,,,,,,,,,,,,,,,
1645710257.685883,1645710257.687061,80.000000,0.000000,4290.512695,4219.615234,4200.256348,4257.948730,4236.153809,4240.128418,4227.563965,4229.358887,4234.487305,4226.794922,4192.692383,4188.846191,4212.692383,4266.410156,0.000000,4.000000,86.000000,,,,0.000000,4.000000,4.000000,4.000000,4.000000,4.000000,4.000000,4.000000,4.000000,4.000000,4.000000,4.000000,4.000000,4.000000,4.000000,100.000000,,,,,,,,,,,,,,,,
1645710257.689823,1645710257.691001,81.000000,0.000000,4287.948730,4213.974121,4196.282227,4247.436035,4224.871582,4235.384766,4223.589844,4231.025879,4234.487305,4226.153809,4180.769043,4183.333496,4211.282227,4259.487305,0.000000,4.000000,86.000000,,,,0.000000,4.000000,4.000000,4.000000,4.000000,4.000000,4.000000,4.000000,4.000000,4.000000,4.000000,4.000000,4.000000,4.000000,4.000000,100.000000,,,,,,,,,,,,,,,,
1645710257.693763,1645710257.694942,82.000000,0.000000,4286.153809,4210.384766,4192.051270,4233.589844,4217.179688,4230.128418,4220.897461,4231.666504,4233.974121,4224.487305,4172.948730,4180.512695,4208.846191,4251.410156,0.000000,4.000000,86.000000,,,,0.000000,4.000000,4.000000,4.000000,4.000000,4.000000,4.000000,4.000000,4.000000,4.000000,4.000000,4.000000,4.000000,4.000000,4.000000,100.000000,,,,,,,,,,,,,,,,
1645710257.697703,1645710257.698882,83.000000,0.000000,4285.256348,4209.615234,4189.358887,4223.589844,4218.205078,4227.436035,4219.487305,4229.230957,4233.077148,4222.436035,4174.102539,4181.025879,4207.307617,4247.563965,0.000000,4.000000,86.000000,,,,0.000000,4.000000,4.000000,4.000000,4.000000,4.000000,4.000000,4.000000,4.000000,4.000000,4.000000,4.000000,4.000000,4.000000,4.000000,100.000000,,,,,,,,,,,,,,,,
1645710257.701643,1645710257.702822,84.000000,0.000000,4285.128418,4210.512695,4188.846191,4221.282227,4224.615234,4228.333496,4218.461426,4224.487305,4231.922852,4221.153809,4182.436035,4183.461426,4207.820313,4250.769043,0.000000,4.000000,86.000000,,,,0.000000,4.000000,4.000000,4.000000,4.000000,4.000000,4.000000,4.000000,4.000000,4.000000,4.000000,4.000000,4.000000,4.000000,4.000000,100.000000,,,,,,,,,,,,,,,,
1645710257.705583,1645710257.706662,85.000000,0.000000,4285.256348,4210.641113,4189.230957,4224.102539,4228.077148,4230.641113,4216.922852,4220.128418,4230.000000,4220.384766,4191.794922,4185.256348,4209.871582,4258.333496,0.000000,4.000000,86.000000,,,,0.000000,4.000000,4.000000,4.000000,4.000000,4.000000,4.000000,4.000000,4.000000,4.000000,4.000000,4.000000,4.000000,4.000000,4.000000,100.000000,,,,,,,,,,,,,,,,
1645710257.709523,1645710257.710602,86.000000,0.000000,4284.358887,4208.717773,4188.846191,4226.282227,4223.974121,4231.794922,4215.512695,4218.589844,4227.179688,4219.230957,4196.538574,4184.615234,4211.282227,4264.102539,0.000000,4.000000,86.000000,,,,0.000000,4.000000,4.000000,4.000000,4.000000,4.000000,4.000000,4.000000,4.000000,4.000000,4.000000,4.000000,4.000000,4.000000,4.000000,100.000000,,,,,,,,,,,,,,,,
1645710257.713463,1645710257.714542,87.000000,0.000000,4280.769043,4205.641113,4186.410156,4224.871582,4215.128418,4230.512695,4215.769043,4219.615234,4224.230957,4216.922852,4195.256348,4181.538574,4210.128418,4263.333496,0.000000,4.000000,86.000000,,,,0.000000,4.000000,4.000000,4.000000,4.000000,4.000000,4.000000,4.000000,4.000000,4.000000,4.000000,4.000000,4.000000,4.000000,4.000000,100.000000,,,,,,,,,,,,,,,,
1645710257.717404,1645710257.718482,88.000000,0.000000,4276.025879,4203.589844,4182.563965,4222.051270,4208.589844,4227.948730,4218.461426,4221.666504,4223.077148,4213.589844,4190.256348,4176.922852,4206.282227,4255.897461,0.000000,4.000000,86.000000,,,,0.000000,4.000000,4.000000,4.000000,4.000000,4.000000,4.000000,4.000000,4.000000,4.000000,4.000000,4.000000,4.000000,4.000000,4.000000,100.000000,,,,,,,,,,,,,,,,
1645710257.721344,1645710257.722422,89.000000,0.000000,4273.461426,4203.333496,4180.384766,4222.820313,4208.846191,4226.538574,4223.077148,4223.205078,4224.230957,4210.641113,4185.769043,4172.436035,4201.666504,4247.436035,0.000000,4.000000,86.000000,,,,0.000000,4.000000,4.000000,4.000000,4.000000,4.000000,4.000000,4.000000,4.000000,4.000000,4.000000,4.000000,4.000000,4.000000,4.000000,100.000000,,,,,,,,,,,,,,,,
1645710257.725284,1645710257.726363,90.000000,0.000000,4275.256348,4203.717773,4182.692383,4228.846191,4214.871582,4228.077148,4227.692383,4223.974121,4227.051270,4209.615234,4183.589844,4169.230957,4198.846191,4243.846191,0.000000,4.000000,86.000000,,,,0.000000,4.000000,4.000000,4.000000,4.000000,4.000000,4.000000,4.000000,4.000000,4.000000,4.000000,4.000000,4.000000,4.000000,4.000000,100.000000,,,,,,,,,,,,,,,,
1645710257.729224,1645710257.730303,91.000000,0.000000,4280.000000,4202.307617,4189.487305,4237.051270,4222.179688,4232.179688,4230.000000,4224.102539,4229.487305,4211.410156,4183.461426,4168.333496,4199.102539,4247.051270,0.000000,4.000000,86.000000,,,,0.000000,4.000000,4.000000,4.000000,4.000000,4.000000,4.000000,4.000000,4.000000,4.000000,4.000000,4.000000,4.000000,4.000000,4.000000,100.000000,,,,,,,,,,,,,,,,
1645710257.733164,1645710257.734243,92.000000,0.000000,4283.717773,4198.205078,4197.307617,4241.794922,4227.179688,4236.538574,4229.358887,4223.717773,4230.000000,4215.384766,4183.717773,4169.871582,4201.794922,4253.077148,0.000000,4.000000,86.000000,,,,0.000000,4.000000,4.000000,4.000000,4.000000,4.000000,4.000000,4.000000,4.000000,4.000000,4.000000,4.000000,4.000000,4.000000,4.000000,100.000000,,,,,,,,,,,,,,,,
1645710257.737104,1645710257.738183,93.000000,0.000000,4284.102539,4192.948730,4201.153809,4238.333496,4228.461426,4237.820313,4226.794922,4222.563965,4228.333496,4219.102539,4183.461426,4173.205078,4204.615234,4256.025879,0.000000,4.000000,86.000000,,,,0.000000,4.000000,4.000000,4.000000,4.000000,4.000000,4.000000,4.000000,4.000000,4.000000,4.000000,4.000000,4.000000,4.000000,4.000000,100.000000,,,,,,,,,,,,,,,,
1645710257.741044,1645710257.742123,94.000000,0.000000,4282.179688,4188.846191,4198.589844,4227.051270,4227.051270,4234.487305,4223.974121,4220.769043,4225.512695,4220.384766,4182.307617,4176.538574,4205.000000,4253.589844,0.000000,4.000000,86.000000,,,,0.000000,4.000000,4.000000,4.000000,4.000000,4.000000,4.000000,4.000000,4.000000,4.000000,4.000000,4.000000,4.000000,4.000000,4.000000,100.000000,,,,,,,,,,,,,,,,
1645710257.744984,1645710257.746063,95.000000,0.000000,4280.256348,4188.717773,4191.538574,4213.846191,4225.000000,4228.077148,4222.179688,4219.230957,4222.692383,4218.077148,4181.153809,4177.563965,4202.563965,4248.846191,0.000000,4.000000,86.000000,,,,0.000000,4.000000,4.000000,4.000000,4.000000,4.000000,4.000000,4.000000,4.000000,4.000000,4.000000,4.000000,4.000000,4.000000,4.000000,100.000000,,,,,,,,,,,,,,,,
1645710257.748924,1645710257.750003,96.000000,0.000000,4279.615234,4193.717773,4184.743652,4207.563965,4223.846191,4222.179688,4221.410156,4217.563965,4220.641113,4213.333496,4180.512695,4175.897461,4199.358887,4247.563965,0.000000,4.000000,86.000000,,,,0.000000,4.000000,4.000000,4.000000,4.000000,4.000000,4.000000,4.000000,4.000000,4.000000,4.000000,4.000000,4.000000,4.000000,4.000000,100.000000,,,,,,,,,,,,,,,,
1645710257.752864,1645710257.753943,97.000000,0.000000,4279.358887,4202.563965,4181.666504,4212.948730,4223.589844,4220.384766,4220.641113,4215.384766,4219.230957,4208.589844,4180.128418,4172.307617,4197.563965,4252.692383,0.000000,4.000000,86.000000,,,,0.000000,4.000000,4.000000,4.000000,4.000000,4.000000,4.000000,4.000000,4.000000,4.000000,4.000000,4.000000,4.000000,4.000000,4.000000,100.000000,,,,,,,,,,,,,,,,
1645710257.756804,1645710257.757883,98.000000,0.000000,4278.461426,4210.769043,4182.179688,4226.282227,4221.922852,4223.333496,4219.102539,4212.563965,4218.333496,4206.153809,4179.358887,4168.589844,4197.307617,4260.769043,0.000000,4.000000,86.000000,,,,0.000000,4.000000,4.000000,4.000000,4.000000,4.000000,4.000000,4.000000,4.000000,4.000000,4.000000,4.000000,4.000000,4.000000,4.000000,100.000000,,,,,,,,,,,,,,,,
1645710257.760744,1645710257.761823,99.000000,0.000000,4277.307617,4212.179688,4183.461426,4236.922852,4216.410156,4228.077148,4217.307617,4210.384766,4217.692383,4205.897461,4178.333496,4166.794922,4197.436035,4265.641113,0.000000,4.000000,86.000000,,,,0.000000,4.000000,4.000000,4.000000,4.000000,4.000000,4.000000,4.000000,4.000000,4.000000,4.000000,4.000000,4.000000,4.000000,4.000000,100.000000,,,,,,,,,,,,,,,,
1645710257.764684,1645710257.765764,100.000000,0.000000,4277.307617,4203.846191,4183.974121,4236.538574,4207.563965,4230.641113,4216.153809,4209.487305,4217.307617,4206.282227,4177.948730,4167.820313,4197.179688,4263.077148,0.000000,4.000000,86.000000,,,,0.000000,4.000000,4.000000,4.000000,4.000000,4.000000,4.000000,4.000000,4.000000,4.000000,4.000000,4.000000,4.000000,4.000000,4.000000,100.000000,,,,,,,,,,,,,,,,
1645710257.768624,1645710257.769704,101.000000,0.000000,4279.743652,4190.256348,4185.128418,4226.410156,4201.025879,4230.256348,4216.794922,4210.256348,4217.820313,4206.025879,4178.974121,4171.538574,4197.307617,4255.384766,0.000000,4.000000,86.000000,,,,0.000000,4.000000,4.000000,4.000000,4.000000,4.000000,4.000000,4.000000,4.000000,4.000000,4.000000,4.000000,4.000000,4.000000,4.000000,100.000000,,,,,,,,,,,,,,,,
1645710257.772564,1645710257.773644,102.000000,0.000000,4283.205078,4180.384766,4189.102539,4216.282227,4203.461426,4228.717773,4218.717773,4211.922852,4219.743652,4205.769043,4181.153809,4175.769043,4199.230957,4249.102539,0.000000,4.000000,86.000000,,,,0.000000,4.000000,4.000000,4.000000,4.000000,4.000000,4.000000,4.000000,4.000000,4.000000,4.000000,4.000000,4.000000,4.000000,4.000000,100.000000,,,,,,,,,,,,,,,,
1645710257.776504,1645710257.777484,103.000000,0.000000,4285.512695,4180.512695,4195.000000,4215.128418,4215.897461,4228.077148,4220.769043,4214.102539,4222.179688,4206.794922,4182.820313,4178.077148,4202.307617,4249.102539,0.000000,4.000000,86.000000,,,,0.000000,4.000000,4.000000,4.000000,4.000000,4.000000,4.000000,4.000000,4.000000,4.000000,4.000000,4.000000,4.000000,4.000000,4.000000,100.000000,,,,,,,,,,,,,,,,
1645710257.780445,1645710257.781424,104.000000,0.000000,4285.512695,4188.589844,4199.871582,4223.589844,4230.256348,4228.333496,4221.153809,4216.410156,4222.948730,4208.974121,4182.307617,4177.563965,4204.487305,4254.487305,0.000000,4.000000,86.000000,,,,0.000000,4.000000,4.000000,4.000000,4.000000,4.000000,4.000000,4.000000,4.000000,4.000000,4.000000,4.000000,4.000000,4.000000,4.000000,100.000000,,,,,,,,,,,,,,,,
1645710257.784385,1645710257.785364,105.000000,0.000000,4284.102539,4196.794922,4201.153809,4233.461426,4236.666504,4227.948730,4219.487305,4218.077148,4220.512695,4210.769043,4179.487305,4175.641113,4203.717773,4260.512695,0.000000,4.000000,86.000000,,,,0.000000,4.000000,4.000000,4.000000,4.000000,4.000000,4.000000,4.000000,4.000000,4.000000,4.000000,4.000000,4.000000,4.000000,4.000000,100.000000,,,,,,,,,,,,,,,,
1645710257.788325,1645710257.789304,106.000000,0.000000,4283.205078,4200.256348,4199.230957,4235.512695,4231.666504,4226.538574,4217.436035,4218.461426,4216.153809,4210.512695,4176.666504,4175.256348,4200.512695,4262.563965,0.000000,4.000000,86.000000,,,,0.000000,4.000000,4.000000,4.000000,4.000000,4.000000,4.000000,4.000000,4.000000,4.000000,4.000000,4.000000,4.000000,4.000000,4.000000,100.000000,1.000000,66.666664,4.000000,4.000000,3.000000,3.000000,3.000000,4.000000,4.000000,4.000000,2.000000,4.000000,4.000000,4.000000,4.000000,4.000000
1645710257.792265,1645710257.793244,107.000000,0.000000,4283.589844,4199.102539,4196.025879,4226.794922,4220.897461,4224.871582,4217.051270,4217.051270,4212.948730,4208.461426,4176.153809,4177.179688,4197.051270,4259.487305,0.000000,4.000000,86.000000,,,,0.000000,4.000000,4.000000,4.000000,4.000000,4.000000,4.000000,4.000000,4.000000,4.000000,4.000000,4.000000,4.000000,4.000000,4.000000,100.000000,,,,,,,,,,,,,,,,
1645710257.796205,1645710257.797185,108.000000,0.000000,4283.974121,4196.410156,4192.948730,4212.692383,4211.922852,4224.102539,4219.230957,4214.743652,4213.461426,4206.538574,4178.589844,4179.615234,4195.256348,4253.333496,0.000000,4.000000,86.000000,,,,0.000000,4.000000,4.000000,4.000000,4.000000,4.000000,4.000000,4.000000,4.000000,4.000000,4.000000,4.000000,4.000000,4.000000,4.000000,100.000000,,,,,,,,,,,,,,,,
1645710257.800145,1645710257.801125,109.000000,0.000000,4283.589844,4194.487305,4190.512695,4202.820313,4208.333496,4223.717773,4222.692383,4213.333496,4216.666504,4206.282227,4181.666504,4180.256348,4194.615234,4247.307617,0.000000,4.000000,86.000000,,,,0.000000,4.000000,4.000000,4.000000,4.000000,4.000000,4.000000,4.000000,4.000000,4.000000,4.000000,4.000000,4.000000,4.000000,4.000000,100.000000,,,,,,,,,,,,,,,,
1645710257.804085,1645710257.805065,110.000000,0.000000,4282.436035,4193.333496,4189.358887,4203.461426,4207.563965,4223.333496,4225.256348,4214.230957,4220.128418,4208.077148,4182.948730,4178.846191,4194.230957,4244.358887,0.000000,4.000000,86.000000,,,,0.000000,4.000000,4.000000,4.000000,4.000000,4.000000,4.000000,4.000000,4.000000,4.000000,4.000000,4.000000,4.000000,4.000000,4.000000,100.000000,,,,,,,,,,,,,,,,
1645710257.808025,1645710257.809005,111.000000,0.000000,4281.410156,4192.436035,4189.871582,4213.589844,4206.153809,4223.205078,4226.538574,4217.692383,4221.538574,4210.641113,4182.051270,4177.051270,4193.717773,4246.025879,0.000000,4.000000,86.000000,,,,0.000000,4.000000,4.000000,4.000000,4.000000,4.000000,4.000000,4.000000,4.000000,4.000000,4.000000,4.000000,4.000000,4.000000,4.000000,100.000000,,,,,,,,,,,,,,,,
1645710257.811965,1645710257.812945,112.000000,0.000000,4280.897461,4191.153809,4192.436035,4225.897461,4203.974121,4223.717773,4227.051270,4222.179688,4220.897461,4212.948730,4180.769043,4176.153809,4193.974121,4251.282227,0.000000,4.000000,86.000000,,,,0.000000,4.000000,4.000000,4.000000,4.000000,4.000000,4.000000,4.000000,4.000000,4.000000,4.000000,4.000000,4.000000,4.000000,4.000000,100.000000,,,,,,,,,,,,,,,,
1645710257.815905,1645710257.816885,113.000000,0.000000,4280.512695,4190.000000,4195.897461,4232.692383,4203.589844,4224.358887,4226.410156,4224.871582,4219.615234,4214.358887,4182.051270,4176.410156,4196.410156,4257.436035,0.000000,4.000000,86.000000,,,,0.000000,4.000000,4.000000,4.000000,4.000000,4.000000,4.000000,4.000000,4.000000,4.000000,4.000000,4.000000,4.000000,4.000000,4.000000,100.000000,,,,,,,,,,,,,,,,
1645710257.819845,1645710257.820825,114.000000,0.000000,4280.897461,4190.384766,4198.461426,4230.128418,4207.692383,4224.230957,4223.974121,4224.358887,4219.102539,4214.487305,4186.666504,4176.538574,4201.538574,4261.282227,0.000000,4.000000,86.000000,,,,0.000000,4.000000,4.000000,4.000000,4.000000,4.000000,4.000000,4.000000,4.000000,4.000000,4.000000,4.000000,4.000000,4.000000,4.000000,100.000000,,,,,,,,,,,,,,,,
1645710257.823785,1645710257.824765,115.000000,0.000000,4282.563965,4193.077148,4198.846191,4221.153809,4215.512695,4223.333496,4220.000000,4221.538574,4219.871582,4213.717773,4192.820313,4175.641113,4207.692383,4262.563965,0.000000,4.000000,86.000000,,,,0.000000,4.000000,4.000000,4.000000,4.000000,4.000000,4.000000,4.000000,4.000000,4.000000,4.000000,4.000000,4.000000,4.000000,4.000000,100.000000,,,,,,,,,,,,,,,,
1645710257.827725,1645710257.828705,116.000000,0.000000,4285.256348,4197.436035,4197.307617,4212.179688,4222.820313,4223.077148,4216.794922,4219.230957,4222.051270,4213.846191,4198.205078,4174.615234,4212.692383,4263.205078,0.000000,4.000000,86.000000,,,,0.000000,4.000000,4.000000,4.000000,4.000000,4.000000,4.000000,4.000000,4.000000,4.000000,4.000000,4.000000,4.000000,4.000000,4.000000,100.000000,,,,,,,,,,,,,,,,
1645710257.831665,1645710257.832645,117.000000,0.000000,4287.307617,4201.410156,4195.641113,4208.589844,4226.282227,4225.769043,4217.179688,4219.743652,4225.897461,4217.820313,4202.307617,4175.256348,4215.512695,4265.512695,0.000000,4.000000,86.000000,,,,0.000000,4.000000,4.000000,4.000000,4.000000,4.000000,4.000000,4.000000,4.000000,4.000000,4.000000,4.000000,4.000000,4.000000,4.000000,100.000000,,,,,,,,,,,,,,,,
1645710257.835605,1645710257.836586,118.000000,0.000000,4287.051270,4202.436035,4196.153809,4210.512695,4226.025879,4231.538574,4221.922852,4223.333496,4231.666504,4226.025879,4205.897461,4178.974121,4217.563965,4270.256348,0.000000,4.000000,86.000000,,,,0.000000,4.000000,4.000000,4.000000,4.000000,4.000000,4.000000,4.000000,4.000000,4.000000,4.000000,4.000000,4.000000,4.000000,4.000000,100.000000,,,,,,,,,,,,,,,,
1645710257.839545,1645710257.840526,119.000000,0.000000,4285.128418,4199.487305,4198.974121,4214.487305,4224.743652,4237.820313,4228.589844,4227.692383,4238.333496,4235.000000,4209.358887,4184.871582,4220.128418,4275.512695,0.000000,4.000000,86.000000,,,,0.000000,4.000000,4.000000,4.000000,4.000000,4.000000,4.000000,4.000000,4.000000,4.000000,4.000000,4.000000,4.000000,4.000000,4.000000,100.000000,,,,,,,,,,,,,,,,
1645710257.843485,1645710257.844466,120.000000,0.000000,4283.205078,4193.205078,4201.922852,4216.410156,4224.487305,4240.769043,4232.563965,4230.000000,4243.974121,4238.589844,4211.282227,4188.974121,4222.692383,4278.077148,0.000000,4.000000,86.000000,,,,0.000000,4.000000,4.000000,4.000000,4.000000,4.000000,4.000000,4.000000,4.000000,4.000000,4.000000,4.000000,4.000000,4.000000,4.000000,100.000000,,,,,,,,,,,,,,,,
1645710257.847426,1645710257.848406,121.000000,0.000000,4282.307617,4186.282227,4201.538574,4215.128418,4223.846191,4238.205078,4231.282227,4228.717773,4245.769043,4233.589844,4209.871582,4187.436035,4223.205078,4275.256348,0.000000,4.000000,86.000000,,,,0.000000,4.000000,4.000000,4.000000,4.000000,4.000000,4.000000,4.000000,4.000000,4.000000,4.000000,4.000000,4.000000,4.000000,4.000000,100.000000,,,,,,,,,,,,,,,,
1645710257.851366,1645710257.852346,122.000000,0.000000,4281.153809,4180.897461,4196.794922,4211.922852,4220.128418,4232.307617,4226.025879,4224.871582,4242.948730,4222.820313,4205.769043,4180.384766,4220.128418,4267.692383,0.000000,4.000000,86.000000,,,,0.000000,4.000000,4.000000,4.000000,4.000000,4.000000,4.000000,4.000000,4.000000,4.000000,4.000000,4.000000,4.000000,4.000000,4.000000,100.000000,,,,,,,,,,,,,,,,
1645710257.855306,1645710257.856186,123.000000,0.000000,4278.717773,4178.333496,4190.256348,4209.487305,4212.948730,4227.051270,4221.025879,4221.282227,4237.948730,4213.974121,4201.538574,4172.307617,4214.743652,4259.102539,0.000000,4.000000,86.000000,,,,0.000000,4.000000,4.000000,4.000000,4.000000,4.000000,4.000000,4.000000,4.000000,4.000000,4.000000,4.000000,4.000000,4.000000,4.000000,100.000000,,,,,,,,,,,,,,,,
1645710257.859246,1645710257.860126,124.000000,0.000000,4275.897461,4178.077148,4185.897461,4209.615234,4205.897461,4225.769043,4219.615234,4219.871582,4234.487305,4212.820313,4200.128418,4168.461426,4210.512695,4254.102539,0.000000,4.000000,86.000000,,,,0.000000,4.000000,4.000000,4.000000,4.000000,4.000000,4.000000,4.000000,4.000000,4.000000,4.000000,4.000000,4.000000,4.000000,4.000000,100.000000,,,,,,,,,,,,,,,,
1645710257.863186,1645710257.864066,125.000000,0.000000,4274.743652,4178.974121,4186.538574,4212.563965,4204.487305,4228.333496,4221.794922,4220.512695,4234.615234,4218.846191,4201.666504,4170.897461,4209.615234,4255.384766,0.000000,4.000000,86.000000,,,,0.000000,4.000000,4.000000,4.000000,4.000000,4.000000,4.000000,4.000000,4.000000,4.000000,4.000000,4.000000,4.000000,4.000000,4.000000,100.000000,,,,,,,,,,,,,,,,
1645710257.867126,1645710257.868007,126.000000,0.000000,4276.410156,4180.128418,4190.384766,4216.025879,4211.153809,4231.538574,4225.897461,4221.666504,4237.563965,4226.666504,4205.000000,4177.307617,4211.410156,4261.410156,0.000000,4.000000,86.000000,,,,0.000000,4.000000,4.000000,4.000000,4.000000,4.000000,4.000000,4.000000,4.000000,4.000000,4.000000,4.000000,4.000000,4.000000,4.000000,100.000000,,,,,,,,,,,,,,,,
1645710257.871066,1645710257.871947,127.000000,0.000000,4278.717773,4180.897461,4193.205078,4216.666504,4222.563965,4232.692383,4229.358887,4221.922852,4240.769043,4231.025879,4208.077148,4183.589844,4213.333496,4267.436035,0.000000,4.000000,86.000000,,,,0.000000,4.000000,4.000000,4.000000,4.000000,4.000000,4.000000,4.000000,4.000000,4.000000,4.000000,4.000000,4.000000,4.000000,4.000000,100.000000,,,,,,,,,,,,,,,,
1645710257.875006,1645710257.875887,128.000000,0.000000,4278.846191,4181.282227,4192.307617,4212.563965,4231.410156,4230.769043,4230.641113,4221.153809,4242.307617,4231.025879,4209.487305,4186.666504,4213.077148,4269.102539,3257.000000,4.000000,86.000000,,,,0.000000,4.000000,4.000000,4.000000,4.000000,4.000000,4.000000,4.000000,4.000000,4.000000,4.000000,4.000000,4.000000,4.000000,4.000000,100.000000,,,,,,,,,,,,,,,,
1645710257.878946,1645710257.879827,129.000000,0.000000,4276.410156,4181.538574,4188.717773,4205.384766,4233.077148,4227.051270,4229.230957,4220.384766,4241.922852,4229.615234,4208.717773,4186.025879,4210.641113,4266.025879,3156.000000,4.000000,86.000000,,,,0.000000,4.000000,4.000000,4.000000,4.000000,4.000000,4.000000,4.000000,4.000000,4.000000,4.000000,4.000000,4.000000,4.000000,4.000000,100.000000,,,,,,,,,,,,,,,,
1645710257.882886,1645710257.883767,130.000000,0.000000,4274.102539,4181.922852,4185.512695,4200.000000,4228.589844,4223.333496,4225.641113,4220.384766,4240.512695,4229.743652,4205.512695,4182.948730,4207.820313,4261.282227,2285.000000,4.000000,86.000000,,,,0.000000,4.000000,4.000000,4.000000,4.000000,4.000000,4.000000,4.000000,4.000000,4.000000,4.000000,4.000000,4.000000,4.000000,4.000000,100.000000,,,,,,,,,,,,,,,,
1645710257.886826,1645710257.887707,131.000000,0.000000,4274.358887,4182.436035,4184.358887,4200.384766,4222.179688,4221.282227,4221.922852,4221.025879,4239.230957,4231.282227,4200.384766,4179.102539,4206.538574,4259.230957,3090.000000,4.000000,86.000000,,,,0.000000,4.000000,4.000000,4.000000,4.000000,4.000000,4.000000,4.000000,4.000000,4.000000,4.000000,4.000000,4.000000,4.000000,4.000000,100.000000,,,,,,,,,,,,,,,,
1645710257.890766,1645710257.891647,132.000000,0.000000,4276.410156,4181.922852,4185.128418,4206.538574,4217.948730,4221.538574,4220.128418,4220.897461,4238.589844,4232.563965,4195.000000,4175.897461,4206.666504,4261.153809,3533.000000,4.000000,86.000000,,,,0.000000,4.000000,4.000000,4.000000,4.000000,4.000000,4.000000,4.000000,4.000000,4.000000,4.000000,4.000000,4.000000,4.000000,4.000000,100.000000,,,,,,,,,,,,,,,,
1645710257.894706,1645710257.895587,133.000000,0.000000,4278.333496,4180.384766,4186.538574,4213.846191,4217.948730,4224.487305,4220.897461,4218.974121,4238.589844,4232.307617,4192.179688,4173.974121,4207.307617,4265.384766,3193.000000,4.000000,86.000000,,,,0.000000,4.000000,4.000000,4.000000,4.000000,4.000000,4.000000,4.000000,4.000000,4.000000,4.000000,4.000000,4.000000,4.000000,4.000000,100.000000,,,,,,,,,,,,,,,,
1645710257.898646,1645710257.899527,134.000000,0.000000,4279.102539,4177.820313,4187.436035,4216.922852,4222.051270,4229.358887,4223.461426,4216.153809,4237.948730,4230.384766,4193.205078,4172.692383,4207.307617,4268.077148,3254.000000,4.000000,86.000000,,,,0.000000,4.000000,4.000000,4.000000,4.000000,4.000000,4.000000,4.000000,4.000000,4.000000,4.000000,4.000000,4.000000,4.000000,4.000000,100.000000,,,,,,,,,,,,,,,,
1645710257.902586,1645710257.903467,135.000000,0.000000,4278.589844,4173.846191,4186.666504,4213.077148,4227.179688,4234.102539,4226.153809,4214.102539,4236.153809,4226.538574,4195.256348,4170.897461,4205.769043,4266.153809,1774.000000,4.000000,86.000000,,,,0.000000,4.000000,4.000000,4.000000,4.000000,4.000000,4.000000,4.000000,4.000000,4.000000,4.000000,4.000000,4.000000,4.000000,4.000000,100.000000,,,,,,,,,,,,,,,,
1645710257.906526,1645710257.907408,136.000000,0.000000,4276.538574,4168.846191,4183.974121,4203.846191,4229.230957,4236.922852,4227.563965,4214.102539,4233.077148,4220.641113,4195.128418,4167.563965,4202.436035,4259.615234,1390.000000,4.000000,86.000000,,,,0.000000,4.000000,4.000000,4.000000,4.000000,4.000000,4.000000,4.000000,4.000000,4.000000,4.000000,4.000000,4.000000,4.000000,4.000000,100.000000,,,,,,,,,,,,,,,,
1645710257.910467,1645710257.911348,137.000000,0.000000,4271.922852,4164.230957,4179.871582,4193.589844,4226.794922,4237.948730,4227.948730,4215.641113,4230.641113,4213.974121,4191.922852,4162.692383,4198.077148,4251.153809,3037.000000,4.000000,86.000000,,,,0.000000,4.000000,4.000000,4.000000,4.000000,4.000000,4.000000,4.000000,4.000000,4.000000,4.000000,4.000000,4.000000,4.000000,4.000000,100.000000,,,,,,,,,,,,,,,,
1645710257.914407,1645710257.915288,138.000000,0.000000,4264.871582,4161.922852,4175.897461,4186.794922,4222.179688,4238.333496,4227.948730,4217.948730,4230.512695,4208.333496,4188.589844,4157.563965,4194.615234,4244.358887,2395.000000,4.000000,86.000000,,,,0.000000,4.000000,4.000000,4.000000,4.000000,4.000000,4.000000,4.000000,4.000000,4.000000,4.000000,4.000000,4.000000,4.000000,4.000000,100.000000,,,,,,,,,,,,,,,,
1645710257.918347,1645710257.919228,139.000000,0.000000,4257.948730,4161.794922,4172.820313,4185.000000,4218.205078,4237.948730,4228.077148,4220.256348,4233.333496,4205.512695,4188.077148,4154.102539,4193.205078,4242.307617,2736.000000,4.000000,86.000000,,,,0.000000,4.000000,4.000000,4.000000,4.000000,4.000000,4.000000,4.000000,4.000000,4.000000,4.000000,4.000000,4.000000,4.000000,4.000000,100.000000,,,,,,,,,,,,,,,,
1645710257.922287,1645710257.923168,140.000000,0.000000,4254.871582,4162.179688,4171.410156,4186.153809,4215.512695,4235.256348,4227.820313,4221.666504,4237.436035,4206.025879,4190.000000,4153.205078,4193.333496,4244.871582,3211.000000,4.000000,86.000000,,,,0.000000,4.000000,4.000000,4.000000,4.000000,4.000000,4.000000,4.000000,4.000000,4.000000,4.000000,4.000000,4.000000,4.000000,4.000000,100.000000,,,,,,,,,,,,,,,,
1645710257.926227,1645710257.927008,141.000000,0.000000,4256.410156,4162.179688,4171.410156,4187.179688,4213.589844,4229.487305,4226.794922,4221.410156,4240.256348,4208.333496,4191.153809,4154.615234,4193.461426,4248.589844,2776.000000,4.000000,86.000000,,,,0.000000,4.000000,4.000000,4.000000,4.000000,4.000000,4.000000,4.000000,4.000000,4.000000,4.000000,4.000000,4.000000,4.000000,4.000000,100.000000,,,,,,,,,,,,,,,,
1645710257.930167,1645710257.930948,142.000000,0.000000,4259.871582,4162.179688,4171.794922,4187.563965,4212.051270,4222.563965,4224.615234,4220.000000,4240.256348,4210.512695,4189.358887,4156.282227,4192.948730,4249.230957,2395.000000,4.000000,86.000000,,,,0.000000,4.000000,4.000000,4.000000,4.000000,4.000000,4.000000,4.000000,4.000000,4.000000,4.000000,4.000000,4.000000,4.000000,4.000000,100.000000,,,,,,,,,,,,,,,,
1645710257.934107,1645710257.934888,143.000000,0.000000,4261.410156,4162.692383,4171.666504,4190.000000,4211.666504,4217.563965,4222.436035,4218.205078,4238.333496,4211.410156,4184.871582,4156.282227,4192.307617,4246.153809,2736.000000,4.000000,86.000000,,,,0.000000,4.000000,4.000000,4.000000,4.000000,4.000000,4.000000,4.000000,4.000000,4.000000,4.000000,4.000000,4.000000,4.000000,4.000000,100.000000,,,,,,,,,,,,,,,,
1645710257.938047,1645710257.938829,144.000000,0.000000,4260.128418,4163.589844,4171.794922,4195.641113,4212.179688,4216.794922,4221.153809,4216.794922,4236.153809,4210.641113,4180.769043,4155.128418,4192.051270,4242.563965,3211.000000,4.000000,86.000000,,,,0.000000,4.000000,4.000000,4.000000,4.000000,4.000000,4.000000,4.000000,4.000000,4.000000,4.000000,4.000000,4.000000,4.000000,4.000000,100.000000,,,,,,,,,,,,,,,,
1645710257.941987,1645710257.942769,145.000000,0.000000,4258.717773,4163.974121,4174.102539,4200.000000,4212.051270,4219.615234,4222.436035,4216.538574,4235.128418,4209.102539,4179.743652,4155.641113,4192.563965,4242.436035,2776.000000,4.000000,86.000000,,,,0.000000,4.000000,4.000000,4.000000,4.000000,4.000000,4.000000,4.000000,4.000000,4.000000,4.000000,4.000000,4.000000,4.000000,4.000000,100.000000,,,,,,,,,,,,,,,,
1645710257.945927,1645710257.946709,146.000000,0.000000,4260.128418,4163.717773,4179.358887,4196.794922,4210.384766,4223.589844,4226.025879,4217.436035,4236.153809,4207.948730,4182.307617,4159.615234,4193.205078,4246.922852,2395.000000,4.000000,86.000000,,,,0.000000,4.000000,4.000000,4.000000,4.000000,4.000000,4.000000,4.000000,4.000000,4.000000,4.000000,4.000000,4.000000,4.000000,4.000000,100.000000,,,,,,,,,,,,,,,,
1645710257.949867,1645710257.950649,147.000000,0.000000,4264.102539,4163.333496,4186.410156,4184.871582,4208.717773,4226.410156,4229.871582,4219.230957,4238.589844,4209.102539,4186.410156,4165.897461,4193.717773,4253.589844,2736.000000,4.000000,86.000000,,,,0.000000,4.000000,4.000000,4.000000,4.000000,4.000000,4.000000,4.000000,4.000000,4.000000,4.000000,4.000000,4.000000,4.000000,4.000000,100.000000,,,,,,,,,,,,,,,,
1645710257.953807,1645710257.954589,148.000000,0.000000,4267.051270,4163.077148,4191.538574,4171.922852,4209.615234,4226.282227,4230.769043,4221.153809,4240.897461,4213.333496,4189.358887,4170.384766,4193.333496,4258.461426,3211.000000,4.000000,86.000000,,,,0.000000,4.000000,4.000000,4.000000,4.000000,4.000000,4.000000,4.000000,4.000000,4.000000,4.000000,4.000000,4.000000,4.000000,4.000000,100.000000,,,,,,,,,,,,,,,,
1645710257.957747,1645710257.958529,149.000000,0.000000,4266.410156,4162.563965,4191.922852,4167.820313,4212.692383,4223.205078,4226.794922,4222.692383,4241.153809,4218.717773,4189.615234,4170.384766,4191.666504,4258.589844,2776.000000,4.000000,86.000000,,,,0.000000,4.000000,4.000000,4.000000,4.000000,4.000000,4.000000,4.000000,4.000000,4.000000,4.000000,4.000000,4.000000,4.000000,4.000000,100.000000,,,,,,,,,,,,,,,,
1645710257.961687,1645710257.962469,150.000000,0.000000,4263.461426,4161.410156,4187.307617,4174.743652,4213.333496,4218.205078,4219.871582,4223.205078,4238.846191,4221.922852,4187.436035,4166.538574,4189.230957,4254.743652,2395.000000,4.000000,86.000000,,,,0.000000,4.000000,4.000000,4.000000,4.000000,4.000000,4.000000,4.000000,4.000000,4.000000,4.000000,4.000000,4.000000,4.000000,4.000000,100.000000,,,,,,,,,,,,,,,,
1645710257.965627,1645710257.966409,151.000000,0.000000,4262.051270,4160.128418,4181.153809,4186.282227,4209.230957,4213.589844,4214.358887,4222.563965,4235.384766,4220.512695,4185.769043,4162.563965,4188.077148,4250.769043,2736.000000,4.000000,86.000000,,,,0.000000,4.000000,4.000000,4.000000,4.000000,4.000000,4.000000,4.000000,4.000000,4.000000,4.000000,4.000000,4.000000,4.000000,4.000000,100.000000,,,,,,,,,,,,,,,,
1645710257.969567,1645710257.970349,152.000000,0.000000,4264.230957,4161.282227,4178.461426,4194.487305,4202.820313,4212.307617,4213.589844,4221.025879,4232.820313,4215.769043,4187.692383,4162.436035,4190.128418,4250.897461,3211.000000,4.000000,86.000000,,,,0.000000,4.000000,4.000000,4.000000,4.000000,4.000000,4.000000,4.000000,4.000000,4.000000,4.000000,4.000000,4.000000,4.000000,4.000000,100.000000,,,,,,,,,,,,,,,,
1645710257.973508,1645710257.974289,153.000000,0.000000,4268.205078,4166.666504,4181.538574,4197.436035,4200.000000,4215.128418,4216.666504,4218.846191,4232.563965,4211.794922,4194.230957,4166.282227,4196.282227,4256.410156,2776.000000,4.000000,86.000000,,,,0.000000,4.000000,4.000000,4.000000,4.000000,4.000000,4.000000,4.000000,4.000000,4.000000,4.000000,4.000000,4.000000,4.000000,4.000000,100.000000,,,,,,,,,,,,,,,,
1645710257.977448,1645710257.978230,154.000000,0.000000,4270.641113,4174.358887,4187.179688,4198.589844,4203.205078,4219.358887,4219.615234,4216.538574,4233.717773,4211.282227,4202.436035,4171.025879,4204.358887,4264.102539,2395.000000,4.000000,86.000000,,,,0.000000,4.000000,4.000000,4.000000,4.000000,4.000000,4.000000,4.000000,4.000000,4.000000,4.000000,4.000000,4.000000,4.000000,4.000000,100.000000,,,,,,,,,,,,,,,,
1645710257.981388,1645710257.982170,155.000000,0.000000,4269.102539,4178.974121,4190.000000,4199.871582,4208.589844,4221.410156,4219.743652,4215.384766,4234.487305,4213.077148,4207.307617,4173.205078,4210.000000,4268.717773,2736.000000,4.000000,86.000000,,,,0.000000,4.000000,4.000000,4.000000,4.000000,4.000000,4.000000,4.000000,4.000000,4.000000,4.000000,4.000000,4.000000,4.000000,4.000000,100.000000,,,,,,,,,,,,,,,,
1645710257.985328,1645710257.986110,156.000000,0.000000,4264.358887,4176.153809,4186.922852,4198.717773,4210.897461,4219.743652,4217.820313,4216.666504,4233.589844,4213.846191,4206.153809,4171.538574,4209.615234,4267.179688,3211.000000,4.000000,86.000000,,,,0.000000,4.000000,4.000000,4.000000,4.000000,4.000000,4.000000,4.000000,4.000000,4.000000,4.000000,4.000000,4.000000,4.000000,4.000000,100.000000,,,,,,,,,,,,,,,,
1645710257.989268,1645710257.990050,157.000000,0.000000,4259.230957,4166.666504,4180.256348,4191.666504,4208.589844,4216.410156,4216.410156,4219.358887,4231.153809,4211.538574,4200.128418,4168.077148,4203.846191,4260.512695,2776.000000,4.000000,86.000000,,,,0.000000,4.000000,4.000000,4.000000,4.000000,4.000000,4.000000,4.000000,4.000000,4.000000,4.000000,4.000000,4.000000,4.000000,4.000000,100.000000,,,,,,,,,,,,,,,,
1645710257.993208,1645710257.993990,158.000000,0.000000,4256.153809,4155.769043,4175.256348,4179.743652,4204.743652,4214.871582,4216.794922,4220.384766,4227.948730,4207.051270,4192.179688,4165.256348,4196.922852,4252.692383,2395.000000,4.000000,86.000000,,,,0.000000,4.000000,4.000000,4.000000,4.000000,4.000000,4.000000,4.000000,4.000000,4.000000,4.000000,4.000000,4.000000,4.000000,4.000000,100.000000,,,,,,,,,,,,,,,,
1645710257.997148,1645710257.997930,159.000000,0.000000,4255.512695,4149.102539,4175.128418,4169.230957,4203.077148,4216.282227,4217.692383,4216.922852,4224.358887,4201.794922,4184.487305,4164.358887,4192.563965,4246.922852,2736.000000,4.000000,86.000000,,,,0.000000,4.000000,4.000000,4.000000,4.000000,4.000000,4.000000,4.000000,4.000000,4.000000,4.000000,4.000000,4.000000,4.000000,4.000000,100.000000,,,,,,,,,,,,,,,,
1645710258.001088,1645710258.001870,160.000000,0.000000,4257.051270,4149.358887,4178.717773,4166.025879,4205.384766,4218.717773,4217.179688,4209.358887,4220.641113,4197.692383,4178.974121,4164.487305,4191.282227,4245.000000,3211.000000,4.000000,86.000000,,,,0.000000,4.000000,4.000000,4.000000,4.000000,4.000000,4.000000,4.000000,4.000000,4.000000,4.000000,4.000000,4.000000,4.000000,4.000000,100.000000,,,,,,,,,,,,,,,,
1645710258.005028,1645710258.005710,161.000000,0.000000,4260.000000,4155.000000,4182.436035,4172.692383,4210.769043,4219.871582,4215.384766,4202.563965,4217.179688,4195.769043,4177.179688,4164.102539,4191.538574,4245.897461,2776.000000,4.000000,86.000000,,,,0.000000,4.000000,4.000000,4.000000,4.000000,4.000000,4.000000,4.000000,4.000000,4.000000,4.000000,4.000000,4.000000,4.000000,4.000000,100.000000,,,,,,,,,,,,,,,,
1645710258.008968,1645710258.009651,162.000000,0.000000,4262.051270,4162.436035,4182.948730,4186.282227,4215.769043,4218.974121,4213.717773,4201.153809,4215.769043,4196.794922,4180.000000,4162.179688,4191.922852,4247.692383,2395.000000,4.000000,86.000000,,,,0.000000,4.000000,4.000000,4.000000,4.000000,4.000000,4.000000,4.000000,4.000000,4.000000,4.000000,4.000000,4.000000,4.000000,4.000000,100.000000,,,,,,,,,,,,,,,,
1645710258.012908,1645710258.013591,163.000000,0.000000,4260.769043,4167.948730,4179.102539,4199.615234,4215.897461,4216.794922,4213.974121,4205.000000,4216.922852,4199.871582,4185.512695,4158.717773,4191.538574,4248.589844,2736.000000,4.000000,86.000000,,,,0.000000,4.000000,4.000000,4.000000,4.000000,4.000000,4.000000,4.000000,4.000000,4.000000,4.000000,4.000000,4.000000,4.000000,4.000000,100.000000,,,,,,,,,,,,,,,,
1645710258.016848,1645710258.017531,164.000000,0.000000,4255.897461,4169.871582,4173.461426,4204.871582,4209.230957,4214.358887,4215.897461,4209.871582,4219.615234,4202.948730,4190.769043,4155.128418,4190.897461,4247.692383,3211.000000,4.000000,86.000000,,,,0.000000,4.000000,4.000000,4.000000,4.000000,4.000000,4.000000,4.000000,4.000000,4.000000,4.000000,4.000000,4.000000,4.000000,4.000000,100.000000,,,,,,,,,,,,,,,,
1645710258.020788,1645710258.021471,165.000000,0.000000,4250.897461,4169.487305,4169.871582,4198.717773,4198.589844,4212.436035,4217.820313,4211.922852,4222.051270,4203.846191,4192.948730,4153.333496,4190.897461,4245.641113,2776.000000,4.000000,86.000000,,,,0.000000,4.000000,4.000000,4.000000,4.000000,4.000000,4.000000,4.000000,4.000000,4.000000,4.000000,4.000000,4.000000,4.000000,4.000000,100.000000,,,,,,,,,,,,,,,,
1645710258.024728,1645710258.025411,166.000000,0.000000,4250.256348,4169.102539,4171.153809,4186.666504,4191.025879,4211.410156,4217.948730,4211.025879,4223.461426,4203.205078,4192.307617,4154.487305,4192.051270,4244.871582,2395.000000,4.000000,86.000000,,,,0.000000,4.000000,4.000000,4.000000,4.000000,4.000000,4.000000,4.000000,4.000000,4.000000,4.000000,4.000000,4.000000,4.000000,4.000000,100.000000,,,,,,,,,,,,,,,,
1645710258.028668,1645710258.029351,167.000000,0.000000,4255.256348,4168.846191,4176.922852,4178.589844,4192.563965,4211.153809,4216.282227,4210.256348,4224.487305,4204.102539,4191.025879,4158.205078,4194.487305,4247.820313,2736.000000,4.000000,86.000000,,,,0.000000,4.000000,4.000000,4.000000,4.000000,4.000000,4.000000,4.000000,4.000000,4.000000,4.000000,4.000000,4.000000,4.000000,4.000000,100.000000,,,,,,,,,,,,,,,,
1645710258.032608,1645710258.033291,168.000000,0.000000,4263.077148,4166.922852,4183.846191,4180.641113,4203.333496,4212.307617,4215.128418,4212.307617,4226.538574,4208.974121,4191.538574,4162.692383,4198.077148,4254.615234,3211.000000,4.000000,86.000000,,,,0.000000,4.000000,4.000000,4.000000,4.000000,4.000000,4.000000,4.000000,4.000000,4.000000,4.000000,4.000000,4.000000,4.000000,4.000000,100.000000,,,,,,,,,,,,,,,,
1645710258.036549,1645710258.037231,169.000000,0.000000,4269.102539,4162.307617,4188.589844,4190.769043,4217.436035,4215.256348,4216.922852,4217.051270,4230.256348,4217.436035,4194.487305,4166.025879,4202.948730,4262.436035,2776.000000,4.000000,86.000000,,,,0.000000,4.000000,4.000000,4.000000,4.000000,4.000000,4.000000,4.000000,4.000000,4.000000,4.000000,4.000000,4.000000,4.000000,4.000000,100.000000,,,,,,,,,,,,,,,,
1645710258.040489,1645710258.041171,170.000000,0.000000,4271.282227,4157.563965,4190.000000,4201.410156,4227.179688,4219.871582,4222.051270,4222.563965,4234.487305,4226.410156,4199.358887,4167.820313,4207.948730,4267.051270,2395.000000,4.000000,86.000000,,,,0.000000,4.000000,4.000000,4.000000,4.000000,4.000000,4.000000,4.000000,4.000000,4.000000,4.000000,4.000000,4.000000,4.000000,4.000000,100.000000,,,,,,,,,,,,,,,,
1645710258.044429,1645710258.045111,171.000000,0.000000,4271.025879,4156.922852,4189.358887,4206.282227,4228.333496,4224.102539,4227.948730,4226.794922,4237.563965,4232.307617,4204.102539,4169.230957,4211.666504,4266.410156,2736.000000,4.000000,86.000000,,,,0.000000,4.000000,4.000000,4.000000,4.000000,4.000000,4.000000,4.000000,4.000000,4.000000,4.000000,4.000000,4.000000,4.000000,4.000000,100.000000,,,,,,,,,,,,,,,,
1645710258.048369,1645710258.049052,172.000000,0.000000,4270.128418,4163.205078,4189.487305,4204.615234,4222.436035,4226.153809,4231.282227,4228.333496,4238.461426,4232.692383,4206.410156,4170.897461,4212.051270,4261.153809,3211.000000,4.000000,86.000000,,,,0.000000,4.000000,4.000000,4.000000,4.000000,4.000000,4.000000,4.000000,4.000000,4.000000,4.000000,4.000000,4.000000,4.000000,4.000000,100.000000,,,,,,,,,,,,,,,,
1645710258.052309,1645710258.052992,173.000000,0.000000,4268.589844,4174.358887,4190.769043,4199.487305,4215.128418,4225.000000,4230.769043,4226.922852,4237.307617,4228.205078,4205.128418,4172.179688,4208.589844,4254.102539,2776.000000,4.000000,86.000000,,,,0.000000,4.000000,4.000000,4.000000,4.000000,4.000000,4.000000,4.000000,4.000000,4.000000,4.000000,4.000000,4.000000,4.000000,4.000000,100.000000,,,,,,,,,,,,,,,,
1645710258.056249,1645710258.056932,174.000000,0.000000,4266.153809,4183.846191,4191.025879,4193.589844,4212.692383,4222.307617,4228.077148,4223.333496,4235.000000,4221.538574,4200.641113,4171.153809,4202.820313,4248.205078,2395.000000,4.000000,86.000000,,,,0.000000,4.000000,4.000000,4.000000,4.000000,4.000000,4.000000,4.000000,4.000000,4.000000,4.000000,4.000000,4.000000,4.000000,4.000000,100.000000,,,,,,,,,,,,,,,,
1645710258.060189,1645710258.060872,175.000000,0.000000,4263.589844,4186.153809,4188.077148,4188.205078,4216.794922,4220.769043,4225.897461,4220.128418,4232.563965,4215.897461,4195.641113,4166.922852,4197.692383,4245.384766,2736.000000,4.000000,86.000000,,,,0.000000,4.000000,4.000000,4.000000,4.000000,4.000000,4.000000,4.000000,4.000000,4.000000,4.000000,4.000000,4.000000,4.000000,4.000000,100.000000,,,,,,,,,,,,,,,,
1645710258.064129,1645710258.064812,176.000000,0.000000,4262.307617,4180.641113,4181.794922,4183.077148,4223.205078,4221.538574,4225.641113,4219.615234,4231.153809,4213.205078,4192.563965,4161.538574,4195.897461,4246.025879,3211.000000,4.000000,86.000000,,,,0.000000,4.000000,4.000000,4.000000,4.000000,4.000000,4.000000,4.000000,4.000000,4.000000,4.000000,4.000000,4.000000,4.000000,4.000000,100.000000,,,,,,,,,,,,,,,,
1645710258.068069,1645710258.068752,177.000000,0.000000,4262.179688,4170.512695,4175.000000,4178.974121,4225.000000,4223.974121,4226.410156,4221.410156,4231.025879,4212.692383,4192.436035,4157.563965,4197.948730,4249.230957,2776.000000,4.000000,86.000000,,,,0.000000,4.000000,4.000000,4.000000,4.000000,4.000000,4.000000,4.000000,4.000000,4.000000,4.000000,4.000000,4.000000,4.000000,4.000000,100.000000,,,,,,,,,,,,,,,,
1645710258.072009,1645710258.072692,178.000000,0.000000,4261.153809,4160.256348,4170.512695,4177.948730,4219.358887,4225.769043,4226.538574,4223.333496,4231.666504,4212.820313,4194.102539,4156.025879,4202.179688,4252.692383,2395.000000,4.000000,86.000000,,,,0.000000,4.000000,4.000000,4.000000,4.000000,4.000000,4.000000,4.000000,4.000000,4.000000,4.000000,4.000000,4.000000,4.000000,4.000000,100.000000,,,,,,,,,,,,,,,,
1645710258.075949,1645710258.076632,179.000000,0.000000,4257.948730,4153.717773,4169.871582,4181.410156,4211.538574,4226.025879,4225.769043,4223.461426,4232.051270,4212.563965,4196.282227,4156.666504,4205.641113,4254.230957,2736.000000,4.000000,86.000000,,,,0.000000,4.000000,4.000000,4.000000,4.000000,4.000000,4.000000,4.000000,4.000000,4.000000,4.000000,4.000000,4.000000,4.000000,4.000000,100.000000,,,,,,,,,,,,,,,,
1645710258.079889,1645710258.080473,180.000000,0.000000,4254.487305,4152.692383,4172.948730,4188.333496,4209.615234,4225.128418,4225.384766,4221.794922,4231.666504,4212.948730,4197.563965,4158.333496,4206.153809,4252.436035,3211.000000,4.000000,86.000000,,,,0.000000,4.000000,4.000000,4.000000,4.000000,4.000000,4.000000,4.000000,4.000000,4.000000,4.000000,4.000000,4.000000,4.000000,4.000000,100.000000,,,,,,,,,,,,,,,,
1645710258.083829,1645710258.084413,181.000000,0.000000,4253.846191,4157.563965,4178.461426,4194.615234,4216.538574,4224.102539,4226.922852,4220.512695,4231.153809,4214.743652,4197.051270,4160.128418,4203.717773,4247.563965,2776.000000,4.000000,86.000000,,,,0.000000,4.000000,4.000000,4.000000,4.000000,4.000000,4.000000,4.000000,4.000000,4.000000,4.000000,4.000000,4.000000,4.000000,4.000000,100.000000,,,,,,,,,,,,,,,,
1645710258.087769,1645710258.088353,182.000000,0.000000,4256.666504,4165.384766,4182.820313,4196.153809,4227.179688,4224.102539,4230.256348,4221.282227,4231.410156,4217.307617,4194.615234,4161.153809,4199.871582,4241.153809,2395.000000,4.000000,86.000000,,,,0.000000,4.000000,4.000000,4.000000,4.000000,4.000000,4.000000,4.000000,4.000000,4.000000,4.000000,4.000000,4.000000,4.000000,4.000000,100.000000,,,,,,,,,,,,,,,,
1645710258.091710,1645710258.092293,183.000000,0.000000,4259.487305,4172.179688,4182.948730,4191.794922,4233.717773,4224.743652,4233.589844,4223.974121,4232.692383,4218.589844,4191.666504,4160.641113,4195.769043,4235.384766,2736.000000,4.000000,86.000000,,,,0.000000,4.000000,4.000000,4.000000,4.000000,4.000000,4.000000,4.000000,4.000000,4.000000,4.000000,4.000000,4.000000,4.000000,4.000000,100.000000,,,,,,,,,,,,,,,,
1645710258.095649,1645710258.096233,184.000000,0.000000,4258.974121,4174.358887,4178.205078,4184.871582,4232.820313,4225.769043,4234.743652,4227.307617,4234.871582,4216.666504,4190.641113,4158.205078,4192.563965,4232.307617,3211.000000,4.000000,86.000000,,,,0.000000,4.000000,4.000000,4.000000,4.000000,4.000000,4.000000,4.000000,4.000000,4.000000,4.000000,4.000000,4.000000,4.000000,4.000000,100.000000,,,,,,,,,,,,,,,,
1645710258.099589,1645710258.100173,185.000000,0.000000,4255.256348,4171.282227,4170.641113,4179.487305,4227.179688,4226.410156,4232.692383,4229.871582,4236.282227,4212.051270,4192.436035,4153.717773,4190.256348,4234.230957,2776.000000,4.000000,86.000000,,,,0.000000,4.000000,4.000000,4.000000,4.000000,4.000000,4.000000,4.000000,4.000000,4.000000,4.000000,4.000000,4.000000,4.000000,4.000000,100.000000,,,,,,,,,,,,,,,,
