title:Alex-S7pIv4NeCjrzs9za5TaB-w, start timestamp:1645711465.000506, stop timestamp:1645711491.043904, headset type:EPOCPLUS, headset serial:3B9AEBFF, headset firmware:626, channels:55, sampling rate:eeg_256, samples:6611      , version:2.1, 
Timestamp,EEG.Counter,EEG.Interpolated,EEG.AF3,EEG.F7,EEG.F3,EEG.FC5,EEG.T7,EEG.P7,EEG.O1,EEG.O2,EEG.P8,EEG.T8,EEG.FC6,EEG.F4,EEG.F8,EEG.AF4,EEG.RawCq,EEG.Battery,EEG.BatteryPercent,MarkerIndex,MarkerType,MarkerValueInt,EEG.MarkerHardware,CQ.AF3,CQ.F7,CQ.F3,CQ.FC5,CQ.T7,CQ.P7,CQ.O1,CQ.O2,CQ.P8,CQ.T8,CQ.FC6,CQ.F4,CQ.F8,CQ.AF4,CQ.Overall,EQ.SampleRateQuality,EQ.OVERALL,EQ.AF3,EQ.F7,EQ.F3,EQ.FC5,EQ.T7,EQ.P7,EQ.O1,EQ.O2,EQ.P8,EQ.T8,EQ.FC6,EQ.F4,EQ.F8,EQ.AF4
1645711465.000506,199.000000,0.000000,4218.846191,4201.410156,4215.000000,4205.384766,4176.025879,4218.333496,4226.666504,4216.922852,4214.743652,4221.410156,4214.102539,4154.230957,4209.487305,4214.615234,2686.000000,4.000000,86.000000,,,,0.000000,4.000000,4.000000,4.000000,4.000000,4.000000,4.000000,4.000000,4.000000,4.000000,4.000000,4.000000,4.000000,4.000000,4.000000,100.000000,,,,,,,,,,,,,,,,
1645711465.004546,200.000000,0.000000,4209.615234,4204.230957,4217.948730,4207.692383,4181.282227,4222.820313,4230.769043,4221.794922,4216.666504,4225.769043,4216.538574,4158.589844,4212.307617,4211.666504,3291.000000,4.000000,86.000000,,,,0.000000,4.000000,4.000000,4.000000,4.000000,4.000000,4.000000,4.000000,4.000000,4.000000,4.000000,4.000000,4.000000,4.000000,4.000000,100.000000,,,,,,,,,,,,,,,,
1645711465.008487,201.000000,0.000000,4201.282227,4210.256348,4221.410156,4214.743652,4190.000000,4226.282227,4232.307617,4226.666504,4218.077148,4230.512695,4221.538574,4161.794922,4216.538574,4205.000000,3200.000000,4.000000,86.000000,,,,0.000000,4.000000,4.000000,4.000000,4.000000,4.000000,4.000000,4.000000,4.000000,4.000000,4.000000,4.000000,4.000000,4.000000,4.000000,100.000000,,,,,,,,,,,,,,,,
1645711465.012427,202.000000,0.000000,4204.102539,4212.436035,4222.307617,4219.230957,4192.563965,4223.974121,4228.846191,4226.025879,4216.666504,4228.589844,4220.897461,4160.512695,4217.436035,4200.384766,2054.000000,4.000000,86.000000,,,,0.000000,4.000000,4.000000,4.000000,4.000000,4.000000,4.000000,4.000000,4.000000,4.000000,4.000000,4.000000,4.000000,4.000000,4.000000,100.000000,,,,,,,,,,,,,,,,
1645711465.016367,203.000000,0.000000,4213.717773,4209.358887,4220.512695,4219.615234,4188.205078,4218.846191,4223.333496,4219.871582,4213.974121,4221.410156,4214.358887,4156.538574,4214.615234,4201.666504,2686.000000,4.000000,86.000000,,,,0.000000,4.000000,4.000000,4.000000,4.000000,4.000000,4.000000,4.000000,4.000000,4.000000,4.000000,4.000000,4.000000,4.000000,4.000000,100.000000,,,,,,,,,,,,,,,,
1645711465.020307,204.000000,0.000000,4216.410156,4205.512695,4218.205078,4219.743652,4184.743652,4217.948730,4220.128418,4213.717773,4213.589844,4218.077148,4208.717773,4154.230957,4211.410156,4206.153809,3291.000000,4.000000,86.000000,,,,0.000000,4.000000,4.000000,4.000000,4.000000,4.000000,4.000000,4.000000,4.000000,4.000000,4.000000,4.000000,4.000000,4.000000,4.000000,100.000000,,,,,,,,,,,,,,,,
1645711465.024247,205.000000,0.000000,4208.205078,4204.358887,4216.922852,4221.153809,4186.538574,4223.077148,4220.000000,4212.179688,4216.794922,4223.333496,4208.846191,4155.512695,4210.897461,4207.563965,3200.000000,4.000000,86.000000,,,,0.000000,4.000000,4.000000,4.000000,4.000000,4.000000,4.000000,4.000000,4.000000,4.000000,4.000000,4.000000,4.000000,4.000000,4.000000,100.000000,,,,,,,,,,,,,,,,
1645711465.028187,206.000000,0.000000,4200.128418,4203.333496,4215.256348,4220.384766,4188.717773,4227.948730,4220.512695,4214.230957,4220.384766,4230.384766,4211.410156,4157.820313,4211.922852,4203.461426,2054.000000,4.000000,86.000000,,,,0.000000,4.000000,4.000000,4.000000,4.000000,4.000000,4.000000,4.000000,4.000000,4.000000,4.000000,4.000000,4.000000,4.000000,4.000000,100.000000,,,,,,,,,,,,,,,,
1645711465.032127,207.000000,0.000000,4204.102539,4199.102539,4212.692383,4214.615234,4185.128418,4226.282227,4219.871582,4215.897461,4219.871582,4229.615234,4210.769043,4158.333496,4211.538574,4198.974121,2686.000000,4.000000,86.000000,,,,0.000000,4.000000,4.000000,4.000000,4.000000,4.000000,4.000000,4.000000,4.000000,4.000000,4.000000,4.000000,4.000000,4.000000,4.000000,100.000000,,,,,,,,,,,,,,,,
1645711465.036067,208.000000,0.000000,4216.282227,4193.846191,4211.025879,4208.461426,4178.461426,4220.384766,4220.256348,4215.512695,4215.897461,4220.897461,4208.205078,4157.692383,4210.000000,4200.128418,3291.000000,4.000000,86.000000,,,,0.000000,4.000000,4.000000,4.000000,4.000000,4.000000,4.000000,4.000000,4.000000,4.000000,4.000000,4.000000,4.000000,4.000000,4.000000,100.000000,,,,,,,,,,,,,,,,
1645711465.040007,209.000000,0.000000,4221.794922,4193.974121,4213.589844,4210.512695,4178.333496,4217.692383,4223.717773,4215.641113,4212.948730,4214.743652,4210.512695,4158.974121,4210.256348,4206.410156,3200.000000,4.000000,86.000000,,,,0.000000,4.000000,4.000000,4.000000,4.000000,4.000000,4.000000,4.000000,4.000000,4.000000,4.000000,4.000000,4.000000,4.000000,4.000000,100.000000,,,,,,,,,,,,,,,,
1645711465.043948,210.000000,0.000000,4213.974121,4201.153809,4219.487305,4221.666504,4188.077148,4221.025879,4228.077148,4217.820313,4214.487305,4218.846191,4219.230957,4162.692383,4212.692383,4211.794922,2054.000000,4.000000,86.000000,,,,0.000000,4.000000,4.000000,4.000000,4.000000,4.000000,4.000000,4.000000,4.000000,4.000000,4.000000,4.000000,4.000000,4.000000,4.000000,100.000000,,,,,,,,,,,,,,,,
1645711465.047888,211.000000,0.000000,4202.563965,4209.230957,4223.974121,4232.436035,4198.461426,4224.358887,4228.461426,4220.256348,4218.461426,4228.589844,4226.410156,4165.000000,4213.974121,4211.666504,2686.000000,4.000000,86.000000,,,,0.000000,4.000000,4.000000,4.000000,4.000000,4.000000,4.000000,4.000000,4.000000,4.000000,4.000000,4.000000,4.000000,4.000000,4.000000,100.000000,,,,,,,,,,,,,,,,
1645711465.051828,212.000000,0.000000,4201.410156,4210.769043,4223.333496,4232.436035,4198.333496,4222.051270,4223.846191,4220.128418,4220.641113,4233.205078,4223.333496,4162.820313,4211.410156,4207.948730,3291.000000,4.000000,86.000000,,,,0.000000,4.000000,4.000000,4.000000,4.000000,4.000000,4.000000,4.000000,4.000000,4.000000,4.000000,4.000000,4.000000,4.000000,4.000000,100.000000,,,,,,,,,,,,,,,,
1645711465.055768,213.000000,0.000000,4209.871582,4207.051270,4219.615234,4222.563965,4188.974121,4216.666504,4218.846191,4218.333496,4219.743652,4229.358887,4212.436035,4158.333496,4207.563965,4205.128418,3200.000000,4.000000,86.000000,,,,0.000000,4.000000,4.000000,4.000000,4.000000,4.000000,4.000000,4.000000,4.000000,4.000000,4.000000,4.000000,4.000000,4.000000,4.000000,100.000000,,,,,,,,,,,,,,,,
1645711465.059708,214.000000,0.000000,4215.512695,4205.512695,4217.307617,4213.205078,4182.051270,4216.410156,4219.358887,4218.589844,4219.230957,4224.871582,4205.769043,4156.538574,4207.948730,4204.615234,2054.000000,4.000000,86.000000,,,,0.000000,4.000000,4.000000,4.000000,4.000000,4.000000,4.000000,4.000000,4.000000,4.000000,4.000000,4.000000,4.000000,4.000000,4.000000,100.000000,,,,,,,,,,,,,,,,
1645711465.063648,215.000000,0.000000,4211.025879,4210.256348,4218.461426,4212.948730,4186.025879,4223.974121,4225.128418,4222.692383,4221.794922,4226.282227,4210.897461,4159.743652,4214.230957,4203.717773,2686.000000,4.000000,86.000000,,,,0.000000,4.000000,4.000000,4.000000,4.000000,4.000000,4.000000,4.000000,4.000000,4.000000,4.000000,4.000000,4.000000,4.000000,4.000000,100.000000,,,,,,,,,,,,,,,,
1645711465.067588,216.000000,0.000000,4203.846191,4216.153809,4220.512695,4219.102539,4194.743652,4232.051270,4230.128418,4227.179688,4225.641113,4230.641113,4221.410156,4164.358887,4221.153809,4200.641113,3291.000000,4.000000,86.000000,,,,0.000000,4.000000,4.000000,4.000000,4.000000,4.000000,4.000000,4.000000,4.000000,4.000000,4.000000,4.000000,4.000000,4.000000,4.000000,100.000000,,,,,,,,,,,,,,,,
1645711465.071528,217.000000,0.000000,4204.871582,4215.897461,4219.615234,4223.205078,4196.666504,4231.282227,4229.487305,4227.948730,4226.538574,4230.000000,4225.000000,4164.743652,4221.922852,4197.692383,3200.000000,4.000000,86.000000,,,,0.000000,4.000000,4.000000,4.000000,4.000000,4.000000,4.000000,4.000000,4.000000,4.000000,4.000000,4.000000,4.000000,4.000000,4.000000,100.000000,,,,,,,,,,,,,,,,
1645711465.075468,218.000000,0.000000,4212.820313,4209.743652,4216.025879,4221.666504,4189.487305,4222.307617,4225.000000,4225.641113,4223.461426,4223.333496,4218.589844,4159.615234,4216.153809,4198.846191,2054.000000,4.000000,86.000000,,,,0.000000,4.000000,4.000000,4.000000,4.000000,4.000000,4.000000,4.000000,4.000000,4.000000,4.000000,4.000000,4.000000,4.000000,4.000000,100.000000,,,,,,,,,,,,,,,,
1645711465.079508,219.000000,0.000000,4215.256348,4205.897461,4213.589844,4219.487305,4183.717773,4215.641113,4222.436035,4225.256348,4220.384766,4219.230957,4210.897461,4153.333496,4210.641113,4204.743652,2686.000000,4.000000,86.000000,,,,0.000000,4.000000,4.000000,4.000000,4.000000,4.000000,4.000000,4.000000,4.000000,4.000000,4.000000,4.000000,4.000000,4.000000,4.000000,100.000000,,,,,,,,,,,,,,,,
1645711465.083448,220.000000,0.000000,4206.922852,4210.512695,4215.000000,4222.179688,4188.205078,4218.333496,4224.871582,4230.000000,4221.153809,4224.615234,4211.666504,4151.153809,4211.666504,4211.538574,3291.000000,4.000000,86.000000,,,,0.000000,4.000000,4.000000,4.000000,4.000000,4.000000,4.000000,4.000000,4.000000,4.000000,4.000000,4.000000,4.000000,4.000000,4.000000,100.000000,,,,,,,,,,,,,,,,
1645711465.087389,221.000000,0.000000,4197.692383,4219.871582,4219.230957,4228.077148,4199.487305,4227.179688,4229.743652,4237.051270,4225.384766,4235.256348,4219.615234,4154.358887,4218.717773,4215.769043,3200.000000,4.000000,86.000000,,,,0.000000,4.000000,4.000000,4.000000,4.000000,4.000000,4.000000,4.000000,4.000000,4.000000,4.000000,4.000000,4.000000,4.000000,4.000000,100.000000,,,,,,,,,,,,,,,,
1645711465.091329,222.000000,0.000000,4200.769043,4225.000000,4223.077148,4231.410156,4206.410156,4233.077148,4233.077148,4241.282227,4228.846191,4240.769043,4225.897461,4160.641113,4225.897461,4217.563965,2054.000000,4.000000,86.000000,,,,0.000000,4.000000,4.000000,4.000000,4.000000,4.000000,4.000000,4.000000,4.000000,4.000000,4.000000,4.000000,4.000000,4.000000,4.000000,100.000000,,,,,,,,,,,,,,,,
1645711465.095269,223.000000,0.000000,4215.128418,4222.436035,4225.384766,4230.256348,4204.358887,4233.205078,4234.487305,4241.666504,4228.974121,4238.077148,4226.538574,4167.307617,4228.717773,4218.974121,2686.000000,4.000000,86.000000,,,,0.000000,4.000000,4.000000,4.000000,4.000000,4.000000,4.000000,4.000000,4.000000,4.000000,4.000000,4.000000,4.000000,4.000000,4.000000,100.000000,,,,,,,,,,,,,,,,
1645711465.099209,224.000000,0.000000,4225.769043,4217.307617,4227.051270,4228.974121,4199.358887,4232.179688,4236.025879,4241.922852,4227.563965,4234.743652,4226.282227,4173.077148,4228.333496,4220.641113,3291.000000,4.000000,86.000000,,,,0.000000,4.000000,4.000000,4.000000,4.000000,4.000000,4.000000,4.000000,4.000000,4.000000,4.000000,4.000000,4.000000,4.000000,4.000000,100.000000,,,,,,,,,,,,,,,,
1645711465.103149,225.000000,0.000000,4222.563965,4215.897461,4228.846191,4230.897461,4198.077148,4233.974121,4237.563965,4244.871582,4227.436035,4237.692383,4229.743652,4176.282227,4227.948730,4220.128418,3200.000000,4.000000,86.000000,,,,0.000000,4.000000,4.000000,4.000000,4.000000,4.000000,4.000000,4.000000,4.000000,4.000000,4.000000,4.000000,4.000000,4.000000,4.000000,100.000000,,,,,,,,,,,,,,,,
1645711465.107089,226.000000,0.000000,4212.692383,4217.820313,4228.974121,4232.179688,4198.461426,4235.256348,4236.025879,4247.948730,4228.205078,4242.948730,4233.589844,4174.615234,4227.563965,4216.794922,2054.000000,4.000000,86.000000,,,,0.000000,4.000000,4.000000,4.000000,4.000000,4.000000,4.000000,4.000000,4.000000,4.000000,4.000000,4.000000,4.000000,4.000000,4.000000,100.000000,,,,,,,,,,,,,,,,
1645711465.110929,227.000000,0.000000,4210.512695,4217.820313,4225.641113,4227.051270,4194.487305,4230.000000,4229.871582,4246.666504,4226.922852,4241.282227,4230.384766,4168.717773,4224.743652,4213.461426,2686.000000,4.000000,86.000000,,,,0.000000,4.000000,4.000000,4.000000,4.000000,4.000000,4.000000,4.000000,4.000000,4.000000,4.000000,4.000000,4.000000,4.000000,4.000000,100.000000,,,,,,,,,,,,,,,,
1645711465.114869,228.000000,0.000000,4218.589844,4214.743652,4221.410156,4217.436035,4186.538574,4219.230957,4222.692383,4240.641113,4222.563965,4231.025879,4220.384766,4163.461426,4219.358887,4214.615234,3291.000000,4.000000,86.000000,,,,0.000000,4.000000,4.000000,4.000000,4.000000,4.000000,4.000000,4.000000,4.000000,4.000000,4.000000,4.000000,4.000000,4.000000,4.000000,100.000000,,,,,,,,,,,,,,,,
1645711465.118810,229.000000,0.000000,4225.256348,4213.846191,4220.384766,4213.205078,4183.461426,4211.538574,4220.128418,4235.769043,4218.461426,4222.307617,4212.820313,4164.743652,4215.512695,4219.743652,3200.000000,4.000000,86.000000,,,,0.000000,4.000000,4.000000,4.000000,4.000000,4.000000,4.000000,4.000000,4.000000,4.000000,4.000000,4.000000,4.000000,4.000000,4.000000,100.000000,,,,,,,,,,,,,,,,
1645711465.122750,230.000000,0.000000,4221.666504,4218.846191,4224.358887,4220.384766,4190.641113,4213.077148,4223.717773,4236.666504,4218.461426,4224.487305,4215.256348,4172.563965,4216.538574,4223.846191,2054.000000,4.000000,86.000000,,,,0.000000,4.000000,4.000000,4.000000,4.000000,4.000000,4.000000,4.000000,4.000000,4.000000,4.000000,4.000000,4.000000,4.000000,4.000000,100.000000,,,,,,,,,,,,,,,,
1645711465.126690,231.000000,0.000000,4213.846191,4225.641113,4229.230957,4233.589844,4201.794922,4219.871582,4227.948730,4241.666504,4222.436035,4234.230957,4223.846191,4179.871582,4221.153809,4221.666504,2686.000000,4.000000,86.000000,,,,0.000000,4.000000,4.000000,4.000000,4.000000,4.000000,4.000000,4.000000,4.000000,4.000000,4.000000,4.000000,4.000000,4.000000,4.000000,100.000000,,,,,,,,,,,,,,,,
1645711465.130630,232.000000,0.000000,4214.102539,4226.538574,4229.487305,4240.256348,4204.871582,4222.820313,4226.794922,4244.230957,4226.153809,4238.717773,4227.563965,4179.230957,4223.974121,4214.487305,3291.000000,4.000000,86.000000,,,,0.000000,4.000000,4.000000,4.000000,4.000000,4.000000,4.000000,4.000000,4.000000,4.000000,4.000000,4.000000,4.000000,4.000000,4.000000,100.000000,,,,,,,,,,,,,,,,
1645711465.134570,233.000000,0.000000,4223.717773,4219.743652,4224.230957,4235.000000,4196.922852,4218.846191,4220.769043,4241.410156,4226.794922,4231.794922,4222.307617,4170.641113,4222.436035,4208.846191,3200.000000,4.000000,86.000000,,,,0.000000,4.000000,4.000000,4.000000,4.000000,4.000000,4.000000,4.000000,4.000000,4.000000,4.000000,4.000000,4.000000,4.000000,4.000000,100.000000,,,,,,,,,,,,,,,,
1645711465.138510,234.000000,0.000000,4229.615234,4212.436035,4217.948730,4225.256348,4188.077148,4215.256348,4215.897461,4236.410156,4225.512695,4221.153809,4215.256348,4161.922852,4219.358887,4209.358887,2054.000000,4.000000,86.000000,,,,0.000000,4.000000,4.000000,4.000000,4.000000,4.000000,4.000000,4.000000,4.000000,4.000000,4.000000,4.000000,4.000000,4.000000,4.000000,100.000000,,,,,,,,,,,,,,,,
1645711465.142450,235.000000,0.000000,4222.179688,4212.436035,4215.897461,4220.897461,4189.230957,4218.717773,4216.538574,4234.871582,4225.256348,4218.717773,4216.025879,4160.384766,4218.846191,4214.743652,2686.000000,4.000000,86.000000,,,,0.000000,4.000000,4.000000,4.000000,4.000000,4.000000,4.000000,4.000000,4.000000,4.000000,4.000000,4.000000,4.000000,4.000000,4.000000,100.000000,,,,,,,,,,,,,,,,
1645711465.146390,236.000000,0.000000,4208.205078,4218.974121,4218.333496,4223.461426,4198.461426,4227.179688,4220.641113,4238.077148,4226.410156,4226.025879,4223.846191,4165.384766,4221.666504,4220.384766,3291.000000,4.000000,86.000000,,,,0.000000,4.000000,4.000000,4.000000,4.000000,4.000000,4.000000,4.000000,4.000000,4.000000,4.000000,4.000000,4.000000,4.000000,4.000000,100.000000,,,,,,,,,,,,,,,,
1645711465.150330,237.000000,0.000000,4203.846191,4224.102539,4221.794922,4226.153809,4204.487305,4231.410156,4223.589844,4241.794922,4226.538574,4233.589844,4228.974121,4169.871582,4224.102539,4223.717773,3200.000000,4.000000,86.000000,,,,0.000000,4.000000,4.000000,4.000000,4.000000,4.000000,4.000000,4.000000,4.000000,4.000000,4.000000,4.000000,4.000000,4.000000,4.000000,100.000000,,,,,,,,,,,,,,,,
1645711465.154270,238.000000,0.000000,4213.333496,4222.563965,4222.563965,4224.358887,4201.025879,4227.948730,4223.333496,4242.820313,4224.487305,4233.589844,4225.000000,4168.717773,4223.846191,4225.641113,2054.000000,4.000000,86.000000,,,,0.000000,4.000000,4.000000,4.000000,4.000000,4.000000,4.000000,4.000000,4.000000,4.000000,4.000000,4.000000,4.000000,4.000000,4.000000,100.000000,,,,,,,,,,,,,,,,
1645711465.158211,239.000000,0.000000,4224.102539,4217.948730,4221.153809,4221.666504,4194.743652,4222.948730,4222.820313,4242.179688,4222.307617,4229.230957,4217.436035,4163.461426,4222.692383,4227.051270,2686.000000,4.000000,86.000000,,,,0.000000,4.000000,4.000000,4.000000,4.000000,4.000000,4.000000,4.000000,4.000000,4.000000,4.000000,4.000000,4.000000,4.000000,4.000000,100.000000,,,,,,,,,,,,,,,,
1645711465.162151,240.000000,0.000000,4222.948730,4216.922852,4219.743652,4223.846191,4195.384766,4224.102539,4225.000000,4243.077148,4223.205078,4227.948730,4215.256348,4158.846191,4223.461426,4225.641113,3291.000000,4.000000,86.000000,,,,0.000000,4.000000,4.000000,4.000000,4.000000,4.000000,4.000000,4.000000,4.000000,4.000000,4.000000,4.000000,4.000000,4.000000,4.000000,100.000000,,,,,,,,,,,,,,,,
1645711465.166091,241.000000,0.000000,4213.205078,4220.384766,4219.358887,4230.000000,4202.820313,4230.769043,4228.333496,4245.256348,4226.666504,4231.153809,4219.358887,4157.436035,4225.769043,4219.358887,3200.000000,4.000000,86.000000,,,,0.000000,4.000000,4.000000,4.000000,4.000000,4.000000,4.000000,4.000000,4.000000,4.000000,4.000000,4.000000,4.000000,4.000000,4.000000,100.000000,,,,,,,,,,,,,,,,
1645711465.170031,242.000000,0.000000,4209.358887,4222.948730,4218.846191,4232.563965,4207.307617,4235.384766,4229.871582,4245.256348,4228.717773,4231.922852,4222.307617,4157.563965,4225.641113,4210.384766,2054.000000,4.000000,86.000000,,,,0.000000,4.000000,4.000000,4.000000,4.000000,4.000000,4.000000,4.000000,4.000000,4.000000,4.000000,4.000000,4.000000,4.000000,4.000000,100.000000,,,,,,,,,,,,,,,,
1645711465.173971,243.000000,0.000000,4217.051270,4220.512695,4217.820313,4228.205078,4202.563965,4233.333496,4228.846191,4241.922852,4227.307617,4226.666504,4219.102539,4157.051270,4221.538574,4204.487305,2686.000000,4.000000,86.000000,,,,0.000000,4.000000,4.000000,4.000000,4.000000,4.000000,4.000000,4.000000,4.000000,4.000000,4.000000,4.000000,4.000000,4.000000,4.000000,100.000000,,,,,,,,,,,,,,,,
1645711465.177911,244.000000,0.000000,4225.384766,4215.128418,4217.948730,4222.051270,4193.846191,4229.102539,4227.820313,4238.077148,4224.487305,4221.025879,4213.846191,4156.410156,4216.794922,4204.743652,3291.000000,4.000000,86.000000,,,,0.000000,4.000000,4.000000,4.000000,4.000000,4.000000,4.000000,4.000000,4.000000,4.000000,4.000000,4.000000,4.000000,4.000000,4.000000,100.000000,,,,,,,,,,,,,,,,
1645711465.181851,245.000000,0.000000,4221.410156,4211.794922,4219.743652,4221.282227,4190.641113,4228.589844,4228.205078,4237.820313,4223.974121,4222.563965,4213.717773,4156.282227,4216.025879,4208.077148,3200.000000,4.000000,86.000000,,,,0.000000,4.000000,4.000000,4.000000,4.000000,4.000000,4.000000,4.000000,4.000000,4.000000,4.000000,4.000000,4.000000,4.000000,4.000000,100.000000,,,,,,,,,,,,,,,,
1645711465.185691,246.000000,0.000000,4207.563965,4211.410156,4221.538574,4225.128418,4194.743652,4231.282227,4228.205078,4241.025879,4225.384766,4230.000000,4218.333496,4155.512695,4218.461426,4208.974121,2054.000000,4.000000,86.000000,,,,0.000000,4.000000,4.000000,4.000000,4.000000,4.000000,4.000000,4.000000,4.000000,4.000000,4.000000,4.000000,4.000000,4.000000,4.000000,100.000000,,,,,,,,,,,,,,,,
1645711465.189632,247.000000,0.000000,4198.846191,4210.256348,4220.641113,4225.641113,4198.461426,4231.153809,4225.512695,4242.948730,4225.000000,4233.717773,4220.128418,4152.563965,4219.358887,4206.666504,2686.000000,4.000000,86.000000,,,,0.000000,4.000000,4.000000,4.000000,4.000000,4.000000,4.000000,4.000000,4.000000,4.000000,4.000000,4.000000,4.000000,4.000000,4.000000,100.000000,,,,,,,,,,,,,,,,
1645711465.193572,248.000000,0.000000,4203.846191,4207.436035,4217.692383,4218.589844,4196.794922,4226.666504,4222.179688,4240.897461,4221.410156,4228.717773,4215.641113,4149.358887,4215.897461,4205.641113,3291.000000,4.000000,86.000000,,,,0.000000,4.000000,4.000000,4.000000,4.000000,4.000000,4.000000,4.000000,4.000000,4.000000,4.000000,4.000000,4.000000,4.000000,4.000000,100.000000,,,,,,,,,,,,,,,,
1645711465.197512,249.000000,0.000000,4214.487305,4207.051270,4216.794922,4210.128418,4194.102539,4223.589844,4223.205078,4237.179688,4217.563965,4221.538574,4210.769043,4149.615234,4211.538574,4208.974121,3200.000000,4.000000,86.000000,,,,0.000000,4.000000,4.000000,4.000000,4.000000,4.000000,4.000000,4.000000,4.000000,4.000000,4.000000,4.000000,4.000000,4.000000,4.000000,100.000000,,,,,,,,,,,,,,,,
1645711465.201452,250.000000,0.000000,4217.436035,4213.077148,4219.615234,4209.358887,4197.179688,4227.436035,4229.487305,4236.666504,4217.948730,4222.436035,4213.205078,4155.000000,4211.538574,4213.461426,2054.000000,4.000000,86.000000,,,,0.000000,4.000000,4.000000,4.000000,4.000000,4.000000,4.000000,4.000000,4.000000,4.000000,4.000000,4.000000,4.000000,4.000000,4.000000,100.000000,,,,,,,,,,,,,,,,
1645711465.205392,251.000000,0.000000,4211.025879,4221.025879,4222.692383,4216.922852,4203.974121,4234.230957,4235.512695,4239.487305,4221.922852,4230.769043,4220.384766,4161.282227,4215.512695,4212.692383,2686.000000,4.000000,86.000000,,,,0.000000,4.000000,4.000000,4.000000,4.000000,4.000000,4.000000,4.000000,4.000000,4.000000,4.000000,4.000000,4.000000,4.000000,4.000000,100.000000,,,,,,,,,,,,,,,,
1645711465.209332,252.000000,0.000000,4206.025879,4221.538574,4221.410156,4223.717773,4204.102539,4233.974121,4234.871582,4241.282227,4224.615234,4234.487305,4221.410156,4162.179688,4217.692383,4205.128418,3291.000000,4.000000,86.000000,,,,0.000000,4.000000,4.000000,4.000000,4.000000,4.000000,4.000000,4.000000,4.000000,4.000000,4.000000,4.000000,4.000000,4.000000,4.000000,100.000000,,,,,,,,,,,,,,,,
1645711465.213272,253.000000,0.000000,4209.487305,4211.282227,4215.384766,4222.563965,4192.820313,4223.077148,4227.179688,4238.205078,4222.179688,4225.128418,4210.897461,4156.282227,4214.358887,4197.051270,3200.000000,4.000000,86.000000,,,,0.000000,4.000000,4.000000,4.000000,4.000000,4.000000,4.000000,4.000000,4.000000,4.000000,4.000000,4.000000,4.000000,4.000000,4.000000,100.000000,,,,,,,,,,,,,,,,
1645711465.217212,254.000000,0.000000,4214.743652,4198.974121,4209.871582,4216.794922,4179.743652,4210.256348,4219.487305,4232.436035,4216.666504,4209.358887,4197.436035,4149.230957,4208.077148,4195.512695,2054.000000,4.000000,86.000000,,,,0.000000,4.000000,4.000000,4.000000,4.000000,4.000000,4.000000,4.000000,4.000000,4.000000,4.000000,4.000000,4.000000,4.000000,4.000000,100.000000,,,,,,,,,,,,,,,,
1645711465.221152,255.000000,0.000000,4211.666504,4196.666504,4210.256348,4214.615234,4179.358887,4207.692383,4218.461426,4229.358887,4213.589844,4202.051270,4194.102539,4147.436035,4205.641113,4200.641113,113.000000,4.000000,86.000000,,,,0.000000,4.000000,4.000000,4.000000,4.000000,4.000000,4.000000,4.000000,4.000000,4.000000,4.000000,4.000000,4.000000,4.000000,4.000000,100.000000,,,,,,,,,,,,,,,,
1645711465.225092,0.000000,0.000000,4202.179688,4206.666504,4216.153809,4218.717773,4193.205078,4217.179688,4223.846191,4231.153809,4215.128418,4209.871582,4204.102539,4151.666504,4209.743652,4206.794922,3308.000000,4.000000,86.000000,,,,0.000000,4.000000,4.000000,4.000000,4.000000,4.000000,4.000000,4.000000,4.000000,4.000000,4.000000,4.000000,4.000000,4.000000,4.000000,100.000000,,,,,,,,,,,,,,,,
1645711465.229033,1.000000,0.000000,4199.102539,4218.717773,4221.794922,4223.205078,4207.179688,4228.333496,4229.743652,4234.102539,4218.461426,4223.589844,4217.179688,4156.794922,4216.282227,4209.102539,3377.000000,4.000000,86.000000,,,,0.000000,4.000000,4.000000,4.000000,4.000000,4.000000,4.000000,4.000000,4.000000,4.000000,4.000000,4.000000,4.000000,4.000000,4.000000,100.000000,,,,,,,,,,,,,,,,
1645711465.232973,2.000000,0.000000,4208.461426,4221.282227,4222.692383,4222.051270,4206.922852,4230.641113,4231.538574,4233.589844,4219.358887,4230.128418,4222.179688,4158.077148,4219.358887,4208.974121,2198.000000,4.000000,86.000000,,,,0.000000,4.000000,4.000000,4.000000,4.000000,4.000000,4.000000,4.000000,4.000000,4.000000,4.000000,4.000000,4.000000,4.000000,4.000000,100.000000,,,,,,,,,,,,,,,,
1645711465.236913,3.000000,0.000000,4220.512695,4214.615234,4220.000000,4217.307617,4193.974121,4224.230957,4230.000000,4230.256348,4217.948730,4227.051270,4219.102539,4156.410156,4217.948730,4209.871582,3258.000000,4.000000,86.000000,,,,0.000000,4.000000,4.000000,4.000000,4.000000,4.000000,4.000000,4.000000,4.000000,4.000000,4.000000,4.000000,4.000000,4.000000,4.000000,100.000000,,,,,,,,,,,,,,,,
1645711465.240853,4.000000,0.000000,4221.794922,4207.948730,4218.461426,4215.512695,4181.922852,4218.077148,4228.077148,4228.589844,4217.692383,4222.051270,4215.897461,4156.153809,4215.769043,4212.179688,3673.000000,4.000000,86.000000,,,,0.000000,4.000000,4.000000,4.000000,4.000000,4.000000,4.000000,4.000000,4.000000,4.000000,4.000000,4.000000,4.000000,4.000000,4.000000,100.000000,,,,,,,,,,,,,,,,
1645711465.244793,5.000000,0.000000,4212.948730,4208.205078,4220.384766,4219.102539,4180.512695,4217.692383,4226.666504,4231.025879,4220.512695,4221.794922,4217.820313,4159.358887,4215.512695,4212.820313,3334.000000,4.000000,86.000000,,,,0.000000,4.000000,4.000000,4.000000,4.000000,4.000000,4.000000,4.000000,4.000000,4.000000,4.000000,4.000000,4.000000,4.000000,4.000000,100.000000,,,,,,,,,,,,,,,,
1645711465.248733,6.000000,0.000000,4208.333496,4213.333496,4224.487305,4222.820313,4185.641113,4220.128418,4224.230957,4235.128418,4223.589844,4223.717773,4221.282227,4163.974121,4216.153809,4210.641113,3156.000000,4.000000,86.000000,,,,0.000000,4.000000,4.000000,4.000000,4.000000,4.000000,4.000000,4.000000,4.000000,4.000000,4.000000,4.000000,4.000000,4.000000,4.000000,100.000000,,,,,,,,,,,,,,,,
1645711465.252673,7.000000,0.000000,4216.922852,4217.307617,4227.820313,4221.794922,4188.589844,4220.000000,4221.282227,4237.179688,4223.589844,4222.948730,4220.897461,4166.410156,4215.897461,4208.589844,2737.000000,4.000000,86.000000,,,,0.000000,4.000000,4.000000,4.000000,4.000000,4.000000,4.000000,4.000000,4.000000,4.000000,4.000000,4.000000,4.000000,4.000000,4.000000,100.000000,,,,,,,,,,,,,,,,
1645711465.256713,8.000000,0.000000,4229.743652,4218.333496,4229.230957,4218.717773,4187.820313,4218.077148,4220.897461,4236.922852,4220.897461,4220.384766,4217.948730,4165.641113,4215.128418,4210.000000,1526.000000,4.000000,86.000000,,,,0.000000,4.000000,4.000000,4.000000,4.000000,4.000000,4.000000,4.000000,4.000000,4.000000,4.000000,4.000000,4.000000,4.000000,4.000000,100.000000,,,,,,,,,,,,,,,,
1645711465.260653,9.000000,0.000000,4231.410156,4219.230957,4230.000000,4219.871582,4189.230957,4218.974121,4225.128418,4236.922852,4219.230957,4222.307617,4218.077148,4163.333496,4216.025879,4213.846191,3127.000000,4.000000,86.000000,,,,0.000000,4.000000,4.000000,4.000000,4.000000,4.000000,4.000000,4.000000,4.000000,4.000000,4.000000,4.000000,4.000000,4.000000,4.000000,100.000000,,,,,,,,,,,,,,,,
1645711465.264593,10.000000,0.000000,4219.871582,4221.025879,4230.384766,4226.025879,4195.128418,4223.589844,4230.384766,4238.589844,4220.897461,4230.000000,4222.051270,4160.256348,4217.436035,4216.153809,2450.000000,4.000000,86.000000,,,,0.000000,4.000000,4.000000,4.000000,4.000000,4.000000,4.000000,4.000000,4.000000,4.000000,4.000000,4.000000,4.000000,4.000000,4.000000,100.000000,,,,,,,,,,,,,,,,
1645711465.268534,11.000000,0.000000,4209.743652,4220.769043,4229.615234,4230.769043,4198.589844,4226.282227,4230.897461,4239.487305,4223.589844,4236.025879,4223.974121,4156.538574,4216.153809,4215.000000,2677.000000,4.000000,86.000000,,,,0.000000,4.000000,4.000000,4.000000,4.000000,4.000000,4.000000,4.000000,4.000000,4.000000,4.000000,4.000000,4.000000,4.000000,4.000000,100.000000,,,,,,,,,,,,,,,,
1645711465.272474,12.000000,0.000000,4213.205078,4215.897461,4227.179688,4228.333496,4192.563965,4222.563965,4224.871582,4237.436035,4223.974121,4232.820313,4218.974121,4152.563965,4210.256348,4212.179688,3456.000000,4.000000,86.000000,,,,0.000000,4.000000,4.000000,4.000000,4.000000,4.000000,4.000000,4.000000,4.000000,4.000000,4.000000,4.000000,4.000000,4.000000,4.000000,100.000000,,,,,,,,,,,,,,,,
1645711465.276414,13.000000,0.000000,4224.871582,4210.000000,4225.128418,4222.051270,4180.897461,4215.384766,4217.563965,4233.974121,4221.794922,4222.436035,4211.282227,4151.153809,4203.974121,4210.256348,3205.000000,4.000000,86.000000,,,,0.000000,4.000000,4.000000,4.000000,4.000000,4.000000,4.000000,4.000000,4.000000,4.000000,4.000000,4.000000,4.000000,4.000000,4.000000,100.000000,,,,,,,,,,,,,,,,
1645711465.280354,14.000000,0.000000,4229.102539,4209.743652,4225.256348,4220.256348,4175.384766,4212.051270,4215.256348,4233.333496,4220.512695,4214.871582,4209.487305,4153.846191,4202.948730,4209.102539,2450.000000,4.000000,86.000000,,,,0.000000,4.000000,4.000000,4.000000,4.000000,4.000000,4.000000,4.000000,4.000000,4.000000,4.000000,4.000000,4.000000,4.000000,4.000000,100.000000,1.000000,58.333332,1.000000,3.000000,3.000000,4.000000,3.000000,4.000000,4.000000,3.000000,3.000000,3.000000,3.000000,4.000000,3.000000,3.000000
1645711465.284294,15.000000,0.000000,4220.769043,4216.410156,4226.794922,4224.871582,4181.282227,4215.256348,4218.589844,4236.282227,4222.307617,4216.025879,4215.512695,4158.205078,4208.589844,4207.692383,2677.000000,4.000000,86.000000,,,,0.000000,4.000000,4.000000,4.000000,4.000000,4.000000,4.000000,4.000000,4.000000,4.000000,4.000000,4.000000,4.000000,4.000000,4.000000,100.000000,,,,,,,,,,,,,,,,
1645711465.288234,16.000000,0.000000,4211.666504,4223.717773,4227.051270,4229.615234,4191.410156,4219.358887,4222.820313,4239.230957,4225.128418,4221.794922,4221.922852,4159.230957,4215.256348,4207.051270,3456.000000,4.000000,86.000000,,,,0.000000,4.000000,4.000000,4.000000,4.000000,4.000000,4.000000,4.000000,4.000000,4.000000,4.000000,4.000000,4.000000,4.000000,4.000000,100.000000,,,,,,,,,,,,,,,,
1645711465.292174,17.000000,0.000000,4214.102539,4224.871582,4225.641113,4228.077148,4195.769043,4219.102539,4224.230957,4238.846191,4225.769043,4225.000000,4220.897461,4155.000000,4216.922852,4210.512695,3205.000000,4.000000,86.000000,,,,0.000000,4.000000,4.000000,4.000000,4.000000,4.000000,4.000000,4.000000,4.000000,4.000000,4.000000,4.000000,4.000000,4.000000,4.000000,100.000000,,,,,,,,,,,,,,,,
1645711465.296114,18.000000,0.000000,4225.256348,4221.025879,4225.256348,4223.333496,4193.461426,4217.179688,4224.615234,4236.922852,4223.974121,4225.256348,4214.871582,4149.871582,4212.692383,4217.692383,2450.000000,4.000000,86.000000,,,,0.000000,4.000000,4.000000,4.000000,4.000000,4.000000,4.000000,4.000000,4.000000,4.000000,4.000000,4.000000,4.000000,4.000000,4.000000,100.000000,,,,,,,,,,,,,,,,
1645711465.300054,19.000000,0.000000,4230.641113,4219.230957,4228.333496,4223.461426,4192.692383,4220.512695,4228.333496,4237.820313,4223.589844,4228.205078,4213.333496,4149.871582,4207.820313,4223.205078,2677.000000,4.000000,86.000000,,,,0.000000,4.000000,4.000000,4.000000,4.000000,4.000000,4.000000,4.000000,4.000000,4.000000,4.000000,4.000000,4.000000,4.000000,4.000000,100.000000,,,,,,,,,,,,,,,,
1645711465.303994,20.000000,0.000000,4224.615234,4222.948730,4233.077148,4230.897461,4197.307617,4230.128418,4235.384766,4242.563965,4227.051270,4235.641113,4219.743652,4156.282227,4206.538574,4221.666504,3456.000000,4.000000,86.000000,,,,0.000000,4.000000,4.000000,4.000000,4.000000,4.000000,4.000000,4.000000,4.000000,4.000000,4.000000,4.000000,4.000000,4.000000,4.000000,100.000000,,,,,,,,,,,,,,,,
1645711465.307935,21.000000,0.000000,4216.538574,4227.563965,4234.871582,4238.205078,4201.410156,4238.333496,4241.025879,4246.025879,4231.794922,4240.512695,4226.922852,4163.717773,4208.077148,4214.871582,3205.000000,4.000000,86.000000,,,,0.000000,4.000000,4.000000,4.000000,4.000000,4.000000,4.000000,4.000000,4.000000,4.000000,4.000000,4.000000,4.000000,4.000000,4.000000,100.000000,,,,,,,,,,,,,,,,
1645711465.311875,22.000000,0.000000,4217.692383,4226.922852,4231.282227,4236.922852,4197.820313,4237.179688,4240.897461,4243.974121,4232.948730,4235.769043,4225.256348,4166.153809,4208.589844,4210.512695,2450.000000,4.000000,86.000000,,,,0.000000,4.000000,4.000000,4.000000,4.000000,4.000000,4.000000,4.000000,4.000000,4.000000,4.000000,4.000000,4.000000,4.000000,4.000000,100.000000,,,,,,,,,,,,,,,,
1645711465.315815,23.000000,0.000000,4225.769043,4221.794922,4225.512695,4228.846191,4188.589844,4228.974121,4236.410156,4237.692383,4229.487305,4224.615234,4215.897461,4163.974121,4207.307617,4214.102539,2677.000000,4.000000,86.000000,,,,0.000000,4.000000,4.000000,4.000000,4.000000,4.000000,4.000000,4.000000,4.000000,4.000000,4.000000,4.000000,4.000000,4.000000,4.000000,100.000000,,,,,,,,,,,,,,,,
1645711465.319755,24.000000,0.000000,4227.563965,4218.846191,4223.333496,4223.461426,4183.974121,4223.333496,4232.948730,4233.846191,4224.871582,4218.717773,4209.615234,4161.922852,4207.307617,4221.666504,3456.000000,4.000000,86.000000,,,,0.000000,4.000000,4.000000,4.000000,4.000000,4.000000,4.000000,4.000000,4.000000,4.000000,4.000000,4.000000,4.000000,4.000000,4.000000,100.000000,,,,,,,,,,,,,,,,
1645711465.323695,25.000000,0.000000,4217.563965,4220.384766,4225.897461,4226.282227,4188.205078,4224.871582,4232.692383,4235.897461,4222.692383,4224.102539,4213.205078,4162.948730,4210.128418,4223.846191,3205.000000,4.000000,86.000000,,,,0.000000,4.000000,4.000000,4.000000,4.000000,4.000000,4.000000,4.000000,4.000000,4.000000,4.000000,4.000000,4.000000,4.000000,4.000000,100.000000,,,,,,,,,,,,,,,,
1645711465.327635,26.000000,0.000000,4205.512695,4221.025879,4228.205078,4231.282227,4193.974121,4228.333496,4233.333496,4240.384766,4223.077148,4233.717773,4221.282227,4163.974121,4212.436035,4216.666504,2450.000000,4.000000,86.000000,,,,0.000000,4.000000,4.000000,4.000000,4.000000,4.000000,4.000000,4.000000,4.000000,4.000000,4.000000,4.000000,4.000000,4.000000,4.000000,100.000000,,,,,,,,,,,,,,,,
1645711465.331675,27.000000,0.000000,4203.974121,4215.000000,4224.871582,4228.974121,4191.538574,4226.666504,4232.436035,4241.025879,4223.461426,4236.025879,4222.692383,4161.153809,4210.512695,4205.897461,2677.000000,4.000000,86.000000,,,,0.000000,4.000000,4.000000,4.000000,4.000000,4.000000,4.000000,4.000000,4.000000,4.000000,4.000000,4.000000,4.000000,4.000000,4.000000,100.000000,,,,,,,,,,,,,,,,
1645711465.335615,28.000000,0.000000,4212.179688,4204.743652,4216.794922,4218.589844,4182.563965,4221.153809,4231.153809,4237.179688,4222.948730,4229.230957,4215.256348,4155.384766,4205.000000,4201.538574,3456.000000,4.000000,86.000000,,,,0.000000,4.000000,4.000000,4.000000,4.000000,4.000000,4.000000,4.000000,4.000000,4.000000,4.000000,4.000000,4.000000,4.000000,4.000000,100.000000,,,,,,,,,,,,,,,,
1645711465.339555,29.000000,0.000000,4217.307617,4199.487305,4210.256348,4208.974121,4178.205078,4220.000000,4232.307617,4233.846191,4223.461426,4223.333496,4207.948730,4152.179688,4201.282227,4207.179688,3205.000000,4.000000,86.000000,,,,0.000000,4.000000,4.000000,4.000000,4.000000,4.000000,4.000000,4.000000,4.000000,4.000000,4.000000,4.000000,4.000000,4.000000,4.000000,100.000000,,,,,,,,,,,,,,,,
1645711465.343495,30.000000,0.000000,4212.179688,4204.743652,4210.000000,4207.948730,4184.358887,4226.666504,4235.000000,4234.615234,4225.769043,4226.794922,4209.487305,4154.487305,4202.948730,4216.538574,2450.000000,4.000000,86.000000,1,1,3,0.000000,4.000000,4.000000,4.000000,4.000000,4.000000,4.000000,4.000000,4.000000,4.000000,4.000000,4.000000,4.000000,4.000000,4.000000,100.000000,,,,,,,,,,,,,,,,
1645711465.347436,31.000000,0.000000,4204.743652,4215.000000,4214.743652,4213.077148,4193.974121,4234.615234,4234.487305,4237.179688,4226.794922,4235.000000,4217.179688,4159.871582,4207.179688,4221.666504,2677.000000,4.000000,86.000000,,,,0.000000,4.000000,4.000000,4.000000,4.000000,4.000000,4.000000,4.000000,4.000000,4.000000,4.000000,4.000000,4.000000,4.000000,4.000000,100.000000,,,,,,,,,,,,,,,,
1645711465.351376,32.000000,0.000000,4206.282227,4219.743652,4219.743652,4216.666504,4194.743652,4234.102539,4228.333496,4235.897461,4223.846191,4236.538574,4221.794922,4163.461426,4208.846191,4219.743652,0.000000,4.000000,86.000000,,,,0.000000,4.000000,4.000000,4.000000,4.000000,4.000000,4.000000,4.000000,4.000000,4.000000,4.000000,4.000000,4.000000,4.000000,4.000000,100.000000,,,,,,,,,,,,,,,,
1645711465.355316,33.000000,0.000000,4215.769043,4216.025879,4222.436035,4215.512695,4185.897461,4224.871582,4220.512695,4229.743652,4218.333496,4228.205078,4220.128418,4163.589844,4206.538574,4214.743652,0.000000,4.000000,86.000000,,,,0.000000,4.000000,4.000000,4.000000,4.000000,4.000000,4.000000,4.000000,4.000000,4.000000,4.000000,4.000000,4.000000,4.000000,4.000000,100.000000,,,,,,,,,,,,,,,,
1645711465.359256,34.000000,0.000000,4220.641113,4210.641113,4224.230957,4214.743652,4178.717773,4216.538574,4217.307617,4224.487305,4216.153809,4219.615234,4218.461426,4162.948730,4204.487305,4211.794922,0.000000,4.000000,86.000000,,,,0.000000,4.000000,4.000000,4.000000,4.000000,4.000000,4.000000,4.000000,4.000000,4.000000,4.000000,4.000000,4.000000,4.000000,4.000000,100.000000,,,,,,,,,,,,,,,,
1645711465.363196,35.000000,0.000000,4214.358887,4212.051270,4227.692383,4219.230957,4182.820313,4216.922852,4220.769043,4225.384766,4220.897461,4221.538574,4222.948730,4164.615234,4206.794922,4212.820313,0.000000,4.000000,86.000000,,,,0.000000,4.000000,4.000000,4.000000,4.000000,4.000000,4.000000,4.000000,4.000000,4.000000,4.000000,4.000000,4.000000,4.000000,4.000000,100.000000,,,,,,,,,,,,,,,,
1645711465.367136,36.000000,0.000000,4207.179688,4220.384766,4232.692383,4226.410156,4194.230957,4223.717773,4226.538574,4232.179688,4230.128418,4233.333496,4230.512695,4168.077148,4211.794922,4216.666504,0.000000,4.000000,86.000000,,,,0.000000,4.000000,4.000000,4.000000,4.000000,4.000000,4.000000,4.000000,4.000000,4.000000,4.000000,4.000000,4.000000,4.000000,4.000000,100.000000,,,,,,,,,,,,,,,,
1645711465.371076,37.000000,0.000000,4212.436035,4229.102539,4237.051270,4230.128418,4201.025879,4228.077148,4229.615234,4239.230957,4237.436035,4244.358887,4233.461426,4170.769043,4214.487305,4221.666504,0.000000,4.000000,86.000000,,,,0.000000,4.000000,4.000000,4.000000,4.000000,4.000000,4.000000,4.000000,4.000000,4.000000,4.000000,4.000000,4.000000,4.000000,4.000000,100.000000,,,,,,,,,,,,,,,,
1645711465.375016,38.000000,0.000000,4228.846191,4233.077148,4239.615234,4228.846191,4197.820313,4225.897461,4228.974121,4242.307617,4238.717773,4246.922852,4229.615234,4171.666504,4213.077148,4225.897461,0.000000,4.000000,86.000000,,,,0.000000,4.000000,4.000000,4.000000,4.000000,4.000000,4.000000,4.000000,4.000000,4.000000,4.000000,4.000000,4.000000,4.000000,4.000000,100.000000,,,,,,,,,,,,,,,,
1645711465.378956,39.000000,0.000000,4239.871582,4233.333496,4240.512695,4227.948730,4191.282227,4221.410156,4227.179688,4241.666504,4235.512695,4243.589844,4225.000000,4171.538574,4210.512695,4226.538574,0.000000,4.000000,86.000000,,,,0.000000,4.000000,4.000000,4.000000,4.000000,4.000000,4.000000,4.000000,4.000000,4.000000,4.000000,4.000000,4.000000,4.000000,4.000000,100.000000,,,,,,,,,,,,,,,,
1645711465.382896,40.000000,0.000000,4234.102539,4232.436035,4239.871582,4231.666504,4189.358887,4219.487305,4225.256348,4239.358887,4231.282227,4240.641113,4225.000000,4171.153809,4210.000000,4221.794922,0.000000,4.000000,86.000000,,,,0.000000,4.000000,4.000000,4.000000,4.000000,4.000000,4.000000,4.000000,4.000000,4.000000,4.000000,4.000000,4.000000,4.000000,4.000000,100.000000,,,,,,,,,,,,,,,,
1645711465.386837,41.000000,0.000000,4219.743652,4228.974121,4236.922852,4236.025879,4190.769043,4218.846191,4221.153809,4235.128418,4227.436035,4237.179688,4226.538574,4168.974121,4209.743652,4213.461426,0.000000,4.000000,86.000000,,,,0.000000,4.000000,4.000000,4.000000,4.000000,4.000000,4.000000,4.000000,4.000000,4.000000,4.000000,4.000000,4.000000,4.000000,4.000000,100.000000,,,,,,,,,,,,,,,,
1645711465.390777,42.000000,0.000000,4213.461426,4221.410156,4231.538574,4233.461426,4187.692383,4215.256348,4214.102539,4228.333496,4222.820313,4228.077148,4222.051270,4163.333496,4205.512695,4207.051270,0.000000,4.000000,86.000000,,,,0.000000,4.000000,4.000000,4.000000,4.000000,4.000000,4.000000,4.000000,4.000000,4.000000,4.000000,4.000000,4.000000,4.000000,4.000000,100.000000,,,,,,,,,,,,,,,,
1645711465.394717,43.000000,0.000000,4220.128418,4212.820313,4225.769043,4223.333496,4178.717773,4209.743652,4208.077148,4221.410156,4217.692383,4213.461426,4210.256348,4155.769043,4196.153809,4206.282227,0.000000,4.000000,86.000000,,,,0.000000,4.000000,4.000000,4.000000,4.000000,4.000000,4.000000,4.000000,4.000000,4.000000,4.000000,4.000000,4.000000,4.000000,4.000000,100.000000,,,,,,,,,,,,,,,,
1645711465.398657,44.000000,0.000000,4227.307617,4210.256348,4223.205078,4213.974121,4172.563965,4208.589844,4208.717773,4219.358887,4215.128418,4202.692383,4198.461426,4149.615234,4187.179688,4209.487305,0.000000,4.000000,86.000000,,,,0.000000,4.000000,4.000000,4.000000,4.000000,4.000000,4.000000,4.000000,4.000000,4.000000,4.000000,4.000000,4.000000,4.000000,4.000000,100.000000,,,,,,,,,,,,,,,,
1645711465.402597,45.000000,0.000000,4223.077148,4216.282227,4224.615234,4213.461426,4176.666504,4215.256348,4216.922852,4224.487305,4216.410156,4203.589844,4194.230957,4146.282227,4183.717773,4210.256348,0.000000,4.000000,86.000000,,,,0.000000,4.000000,4.000000,4.000000,4.000000,4.000000,4.000000,4.000000,4.000000,4.000000,4.000000,4.000000,4.000000,4.000000,4.000000,100.000000,,,,,,,,,,,,,,,,
1645711465.406437,46.000000,0.000000,4211.922852,4224.487305,4227.051270,4219.358887,4186.666504,4223.589844,4225.769043,4232.179688,4219.358887,4211.666504,4196.025879,4144.358887,4185.384766,4205.384766,0.000000,4.000000,86.000000,,,,0.000000,4.000000,4.000000,4.000000,4.000000,4.000000,4.000000,4.000000,4.000000,4.000000,4.000000,4.000000,4.000000,4.000000,4.000000,100.000000,,,,,,,,,,,,,,,,
1645711465.410377,47.000000,0.000000,4208.205078,4224.615234,4227.179688,4222.563965,4190.512695,4223.717773,4227.820313,4235.512695,4219.615234,4214.871582,4196.025879,4142.051270,4187.436035,4198.589844,0.000000,4.000000,86.000000,,,,0.000000,4.000000,4.000000,4.000000,4.000000,4.000000,4.000000,4.000000,4.000000,4.000000,4.000000,4.000000,4.000000,4.000000,4.000000,100.000000,,,,,,,,,,,,,,,,
1645711465.414317,48.000000,0.000000,4216.538574,4214.743652,4225.000000,4218.974121,4183.205078,4214.102539,4222.179688,4231.794922,4216.538574,4208.333496,4191.666504,4140.384766,4186.794922,4196.922852,0.000000,4.000000,86.000000,,,,0.000000,4.000000,4.000000,4.000000,4.000000,4.000000,4.000000,4.000000,4.000000,4.000000,4.000000,4.000000,4.000000,4.000000,4.000000,100.000000,,,,,,,,,,,,,,,,
1645711465.418258,49.000000,0.000000,4225.641113,4204.102539,4224.230957,4214.358887,4173.461426,4204.358887,4215.256348,4226.153809,4213.846191,4201.282227,4189.358887,4143.077148,4185.769043,4202.307617,0.000000,4.000000,86.000000,,,,0.000000,4.000000,4.000000,4.000000,4.000000,4.000000,4.000000,4.000000,4.000000,4.000000,4.000000,4.000000,4.000000,4.000000,4.000000,100.000000,,,,,,,,,,,,,,,,
1645711465.422198,50.000000,0.000000,4223.589844,4203.205078,4227.307617,4216.794922,4172.692383,4204.102539,4213.077148,4224.743652,4214.871582,4204.615234,4195.769043,4150.641113,4187.948730,4209.871582,0.000000,4.000000,86.000000,,,,0.000000,4.000000,4.000000,4.000000,4.000000,4.000000,4.000000,4.000000,4.000000,4.000000,4.000000,4.000000,4.000000,4.000000,4.000000,100.000000,,,,,,,,,,,,,,,,
1645711465.426138,51.000000,0.000000,4214.230957,4212.436035,4231.922852,4224.871582,4181.153809,4211.794922,4215.897461,4227.948730,4218.205078,4216.794922,4207.436035,4158.461426,4192.820313,4212.948730,0.000000,4.000000,86.000000,,,,0.000000,4.000000,4.000000,4.000000,4.000000,4.000000,4.000000,4.000000,4.000000,4.000000,4.000000,4.000000,4.000000,4.000000,4.000000,100.000000,,,,,,,,,,,,,,,,
1645711465.430078,52.000000,0.000000,4211.410156,4222.179688,4233.589844,4230.128418,4188.077148,4217.692383,4219.615234,4230.769043,4219.743652,4224.615234,4213.974121,4160.641113,4196.410156,4211.153809,0.000000,4.000000,86.000000,,,,0.000000,4.000000,4.000000,4.000000,4.000000,4.000000,4.000000,4.000000,4.000000,4.000000,4.000000,4.000000,4.000000,4.000000,4.000000,100.000000,,,,,,,,,,,,,,,,
1645711465.434018,53.000000,0.000000,4220.256348,4224.230957,4230.769043,4227.179688,4186.282227,4216.153809,4221.922852,4229.743652,4218.077148,4219.743652,4210.641113,4156.666504,4196.922852,4210.000000,0.000000,4.000000,86.000000,,,,0.000000,4.000000,4.000000,4.000000,4.000000,4.000000,4.000000,4.000000,4.000000,4.000000,4.000000,4.000000,4.000000,4.000000,4.000000,100.000000,,,,,,,,,,,,,,,,
1645711465.437858,54.000000,0.000000,4229.871582,4219.615234,4226.538574,4220.384766,4180.256348,4211.666504,4223.333496,4226.794922,4216.538574,4209.487305,4204.487305,4152.307617,4196.666504,4213.846191,0.000000,4.000000,86.000000,,,,0.000000,4.000000,4.000000,4.000000,4.000000,4.000000,4.000000,4.000000,4.000000,4.000000,4.000000,4.000000,4.000000,4.000000,4.000000,100.000000,,,,,,,,,,,,,,,,
1645711465.441798,55.000000,0.000000,4227.948730,4215.000000,4224.487305,4218.077148,4179.102539,4211.666504,4224.615234,4226.410156,4219.230957,4207.307617,4205.384766,4152.820313,4199.487305,4220.512695,0.000000,4.000000,86.000000,,,,0.000000,4.000000,4.000000,4.000000,4.000000,4.000000,4.000000,4.000000,4.000000,4.000000,4.000000,4.000000,4.000000,4.000000,4.000000,100.000000,,,,,,,,,,,,,,,,
1645711465.445738,56.000000,0.000000,4217.051270,4213.333496,4224.615234,4221.538574,4183.717773,4215.641113,4224.487305,4228.846191,4225.128418,4217.307617,4213.974121,4158.077148,4204.743652,4224.230957,0.000000,4.000000,86.000000,,,,0.000000,4.000000,4.000000,4.000000,4.000000,4.000000,4.000000,4.000000,4.000000,4.000000,4.000000,4.000000,4.000000,4.000000,4.000000,100.000000,,,,,,,,,,,,,,,,
1645711465.449678,57.000000,0.000000,4210.769043,4211.282227,4223.974121,4224.615234,4186.153809,4216.410156,4221.666504,4230.128418,4228.589844,4229.615234,4221.153809,4162.692383,4207.948730,4222.051270,0.000000,4.000000,86.000000,,,,0.000000,4.000000,4.000000,4.000000,4.000000,4.000000,4.000000,4.000000,4.000000,4.000000,4.000000,4.000000,4.000000,4.000000,4.000000,100.000000,,,,,,,,,,,,,,,,
1645711465.453619,58.000000,0.000000,4215.256348,4206.794922,4221.153809,4222.051270,4182.179688,4211.282227,4218.333496,4227.436035,4226.025879,4233.461426,4219.871582,4162.948730,4205.897461,4218.077148,0.000000,4.000000,86.000000,,,,0.000000,4.000000,4.000000,4.000000,4.000000,4.000000,4.000000,4.000000,4.000000,4.000000,4.000000,4.000000,4.000000,4.000000,4.000000,100.000000,,,,,,,,,,,,,,,,
1645711465.457559,59.000000,0.000000,4221.410156,4203.461426,4218.846191,4216.538574,4178.461426,4206.666504,4218.846191,4222.948730,4220.128418,4228.974121,4213.974121,4160.512695,4201.153809,4217.436035,0.000000,4.000000,86.000000,,,,0.000000,4.000000,4.000000,4.000000,4.000000,4.000000,4.000000,4.000000,4.000000,4.000000,4.000000,4.000000,4.000000,4.000000,4.000000,100.000000,,,,,,,,,,,,,,,,
1645711465.461499,60.000000,0.000000,4217.820313,4206.282227,4220.128418,4214.487305,4184.102539,4210.256348,4224.743652,4221.282227,4216.922852,4225.000000,4211.922852,4159.487305,4198.333496,4220.384766,0.000000,4.000000,86.000000,,,,0.000000,4.000000,4.000000,4.000000,4.000000,4.000000,4.000000,4.000000,4.000000,4.000000,4.000000,4.000000,4.000000,4.000000,4.000000,100.000000,,,,,,,,,,,,,,,,
1645711465.465439,61.000000,0.000000,4207.179688,4213.205078,4223.717773,4217.179688,4197.051270,4220.769043,4231.794922,4223.717773,4219.102539,4226.025879,4215.256348,4161.282227,4199.230957,4222.820313,0.000000,4.000000,86.000000,,,,0.000000,4.000000,4.000000,4.000000,4.000000,4.000000,4.000000,4.000000,4.000000,4.000000,4.000000,4.000000,4.000000,4.000000,4.000000,100.000000,,,,,,,,,,,,,,,,
1645711465.469379,62.000000,0.000000,4203.077148,4216.410156,4226.153809,4220.128418,4206.153809,4228.846191,4234.358887,4227.307617,4223.717773,4228.077148,4217.051270,4163.846191,4200.769043,4222.051270,0.000000,4.000000,86.000000,,,,0.000000,4.000000,4.000000,4.000000,4.000000,4.000000,4.000000,4.000000,4.000000,4.000000,4.000000,4.000000,4.000000,4.000000,4.000000,100.000000,,,,,,,,,,,,,,,,
1645711465.473319,63.000000,0.000000,4211.922852,4212.179688,4225.641113,4219.871582,4203.717773,4228.077148,4231.410156,4229.615234,4226.538574,4226.538574,4212.692383,4165.641113,4200.000000,4219.487305,0.000000,4.000000,86.000000,,,,0.000000,4.000000,4.000000,4.000000,4.000000,4.000000,4.000000,4.000000,4.000000,4.000000,4.000000,4.000000,4.000000,4.000000,4.000000,100.000000,,,,,,,,,,,,,,,,
1645711465.477259,64.000000,0.000000,4224.358887,4206.410156,4225.128418,4219.487305,4196.153809,4222.563965,4227.820313,4231.153809,4226.666504,4224.358887,4207.179688,4168.461426,4198.974121,4218.077148,0.000000,4.000000,86.000000,,,,0.000000,4.000000,4.000000,4.000000,4.000000,4.000000,4.000000,4.000000,4.000000,4.000000,4.000000,4.000000,4.000000,4.000000,4.000000,100.000000,,,,,,,,,,,,,,,,
1645711465.481199,65.000000,0.000000,4226.666504,4207.307617,4227.820313,4223.333496,4195.000000,4220.512695,4227.820313,4234.230957,4226.922852,4227.307617,4209.615234,4173.717773,4200.641113,4217.307617,0.000000,4.000000,86.000000,2,1,3,0.000000,4.000000,4.000000,4.000000,4.000000,4.000000,4.000000,4.000000,4.000000,4.000000,4.000000,4.000000,4.000000,4.000000,4.000000,100.000000,,,,,,,,,,,,,,,,
1645711465.485139,66.000000,0.000000,4218.717773,4215.641113,4232.692383,4229.487305,4202.436035,4223.461426,4230.128418,4237.436035,4228.589844,4234.487305,4220.384766,4178.461426,4204.487305,4215.000000,0.000000,4.000000,86.000000,,,,0.000000,4.000000,4.000000,4.000000,4.000000,4.000000,4.000000,4.000000,4.000000,4.000000,4.000000,4.000000,4.000000,4.000000,4.000000,100.000000,,,,,,,,,,,,,,,,
1645711465.489080,67.000000,0.000000,4213.205078,4223.333496,4235.512695,4231.153809,4209.230957,4225.641113,4229.871582,4236.922852,4229.871582,4237.051270,4229.487305,4178.077148,4205.512695,4211.922852,0.000000,4.000000,86.000000,,,,0.000000,4.000000,4.000000,4.000000,4.000000,4.000000,4.000000,4.000000,4.000000,4.000000,4.000000,4.000000,4.000000,4.000000,4.000000,100.000000,,,,,,,,,,,,,,,,
1645711465.493020,68.000000,0.000000,4218.461426,4223.846191,4233.974121,4225.897461,4207.179688,4222.563965,4226.153809,4231.282227,4228.205078,4229.743652,4228.846191,4171.410156,4200.384766,4212.307617,0.000000,4.000000,86.000000,,,,0.000000,4.000000,4.000000,4.000000,4.000000,4.000000,4.000000,4.000000,4.000000,4.000000,4.000000,4.000000,4.000000,4.000000,4.000000,100.000000,,,,,,,,,,,,,,,,
1645711465.496960,69.000000,0.000000,4227.051270,4219.743652,4230.769043,4220.128418,4200.512695,4218.333496,4222.820313,4225.641113,4224.743652,4219.615234,4221.410156,4163.974121,4192.051270,4218.077148,0.000000,4.000000,86.000000,,,,0.000000,4.000000,4.000000,4.000000,4.000000,4.000000,4.000000,4.000000,4.000000,4.000000,4.000000,4.000000,4.000000,4.000000,4.000000,100.000000,,,,,,,,,,,,,,,,
1645711465.500900,70.000000,0.000000,4227.051270,4218.974121,4229.871582,4222.307617,4199.615234,4219.743652,4223.589844,4226.666504,4223.333496,4218.077148,4216.666504,4161.666504,4186.666504,4224.743652,0.000000,4.000000,86.000000,,,,0.000000,4.000000,4.000000,4.000000,4.000000,4.000000,4.000000,4.000000,4.000000,4.000000,4.000000,4.000000,4.000000,4.000000,4.000000,100.000000,,,,,,,,,,,,,,,,
1645711465.504840,71.000000,0.000000,4218.589844,4223.846191,4231.794922,4231.410156,4206.538574,4226.410156,4226.538574,4234.871582,4226.153809,4227.307617,4218.077148,4164.615234,4186.922852,4225.000000,0.000000,4.000000,86.000000,,,,0.000000,4.000000,4.000000,4.000000,4.000000,4.000000,4.000000,4.000000,4.000000,4.000000,4.000000,4.000000,4.000000,4.000000,4.000000,100.000000,,,,,,,,,,,,,,,,
1645711465.508780,72.000000,0.000000,4214.487305,4228.205078,4233.077148,4237.692383,4211.538574,4230.128418,4226.282227,4243.589844,4230.641113,4237.051270,4220.256348,4167.051270,4189.358887,4216.922852,0.000000,4.000000,86.000000,,,,0.000000,4.000000,4.000000,4.000000,4.000000,4.000000,4.000000,4.000000,4.000000,4.000000,4.000000,4.000000,4.000000,4.000000,4.000000,100.000000,,,,,,,,,,,,,,,,
1645711465.512620,73.000000,0.000000,4221.794922,4226.282227,4230.769043,4233.589844,4206.282227,4225.256348,4221.153809,4245.512695,4232.563965,4237.436035,4217.179688,4163.974121,4189.358887,4207.307617,0.000000,4.000000,86.000000,,,,0.000000,4.000000,4.000000,4.000000,4.000000,4.000000,4.000000,4.000000,4.000000,4.000000,4.000000,4.000000,4.000000,4.000000,4.000000,100.000000,,,,,,,,,,,,,,,,
1645711465.516560,74.000000,0.000000,4232.051270,4219.871582,4226.794922,4223.461426,4195.256348,4216.410156,4215.384766,4240.641113,4230.641113,4230.512695,4211.538574,4157.307617,4186.922852,4203.974121,0.000000,4.000000,86.000000,,,,0.000000,4.000000,4.000000,4.000000,4.000000,4.000000,4.000000,4.000000,4.000000,4.000000,4.000000,4.000000,4.000000,4.000000,4.000000,100.000000,,,,,,,,,,,,,,,,
1645711465.520500,75.000000,0.000000,4230.769043,4215.897461,4225.000000,4217.820313,4191.025879,4212.692383,4213.974121,4234.230957,4227.436035,4226.153809,4210.512695,4152.948730,4185.769043,4207.563965,0.000000,4.000000,86.000000,,,,0.000000,4.000000,4.000000,4.000000,4.000000,4.000000,4.000000,4.000000,4.000000,4.000000,4.000000,4.000000,4.000000,4.000000,4.000000,100.000000,,,,,,,,,,,,,,,,
1645711465.524441,76.000000,0.000000,4217.692383,4217.179688,4226.153809,4220.512695,4197.820313,4216.922852,4216.794922,4230.384766,4225.384766,4228.846191,4214.615234,4153.717773,4187.692383,4212.051270,0.000000,4.000000,86.000000,,,,0.000000,4.000000,4.000000,4.000000,4.000000,4.000000,4.000000,4.000000,4.000000,4.000000,4.000000,4.000000,4.000000,4.000000,4.000000,100.000000,,,,,,,,,,,,,,,,
1645711465.528381,77.000000,0.000000,4207.436035,4218.589844,4227.436035,4224.871582,4206.922852,4222.307617,4218.974121,4228.461426,4224.102539,4232.563965,4216.282227,4156.794922,4189.615234,4212.307617,0.000000,4.000000,86.000000,,,,0.000000,4.000000,4.000000,4.000000,4.000000,4.000000,4.000000,4.000000,4.000000,4.000000,4.000000,4.000000,4.000000,4.000000,4.000000,100.000000,,,,,,,,,,,,,,,,
1645711465.532321,78.000000,0.000000,4210.897461,4215.641113,4225.641113,4222.820313,4207.179688,4221.794922,4217.948730,4226.410156,4222.436035,4230.256348,4209.871582,4157.692383,4187.820313,4210.256348,0.000000,4.000000,86.000000,,,,0.000000,4.000000,4.000000,4.000000,4.000000,4.000000,4.000000,4.000000,4.000000,4.000000,4.000000,4.000000,4.000000,4.000000,4.000000,100.000000,,,,,,,,,,,,,,,,
1645711465.536261,79.000000,0.000000,4222.051270,4210.641113,4221.922852,4215.897461,4199.230957,4216.666504,4215.641113,4224.615234,4220.897461,4224.102539,4200.769043,4154.871582,4183.461426,4210.128418,0.000000,4.000000,86.000000,,,,0.000000,4.000000,4.000000,4.000000,4.000000,4.000000,4.000000,4.000000,4.000000,4.000000,4.000000,4.000000,4.000000,4.000000,4.000000,100.000000,,,,,,,,,,,,,,,,
1645711465.540201,80.000000,0.000000,4226.282227,4210.769043,4219.743652,4212.563965,4193.717773,4213.846191,4215.897461,4225.256348,4222.051270,4223.077148,4199.102539,4150.769043,4181.025879,4212.948730,0.000000,4.000000,86.000000,,,,0.000000,4.000000,4.000000,4.000000,4.000000,4.000000,4.000000,4.000000,4.000000,4.000000,4.000000,4.000000,4.000000,4.000000,4.000000,100.000000,,,,,,,,,,,,,,,,
1645711465.544141,81.000000,0.000000,4219.102539,4217.948730,4221.025879,4217.436035,4196.666504,4216.410156,4218.461426,4228.077148,4225.384766,4229.230957,4207.179688,4147.436035,4182.820313,4216.025879,0.000000,4.000000,86.000000,,,,0.000000,4.000000,4.000000,4.000000,4.000000,4.000000,4.000000,4.000000,4.000000,4.000000,4.000000,4.000000,4.000000,4.000000,4.000000,100.000000,,,,,,,,,,,,,,,,
1645711465.548081,82.000000,0.000000,4211.794922,4226.025879,4223.846191,4225.512695,4203.205078,4220.128418,4220.384766,4229.487305,4227.563965,4234.358887,4216.153809,4145.384766,4186.153809,4217.436035,0.000000,4.000000,86.000000,,,,0.000000,4.000000,4.000000,4.000000,4.000000,4.000000,4.000000,4.000000,4.000000,4.000000,4.000000,4.000000,4.000000,4.000000,4.000000,100.000000,,,,,,,,,,,,,,,,
1645711465.552021,83.000000,0.000000,4215.512695,4228.333496,4225.384766,4229.487305,4205.128418,4220.384766,4220.512695,4226.794922,4225.128418,4230.000000,4216.410156,4144.871582,4186.794922,4218.974121,0.000000,4.000000,86.000000,,,,0.000000,4.000000,4.000000,4.000000,4.000000,4.000000,4.000000,4.000000,4.000000,4.000000,4.000000,4.000000,4.000000,4.000000,4.000000,100.000000,,,,,,,,,,,,,,,,
1645711465.555961,84.000000,0.000000,4225.769043,4225.769043,4225.512695,4228.846191,4202.692383,4218.974121,4221.794922,4222.436035,4220.000000,4219.871582,4209.615234,4147.820313,4184.871582,4222.051270,0.000000,4.000000,86.000000,,,,0.000000,4.000000,4.000000,4.000000,4.000000,4.000000,4.000000,4.000000,4.000000,4.000000,4.000000,4.000000,4.000000,4.000000,4.000000,100.000000,,,,,,,,,,,,,,,,
1645711465.559902,85.000000,0.000000,4228.974121,4225.128418,4226.153809,4229.230957,4203.589844,4221.538574,4226.282227,4221.666504,4217.820313,4216.282227,4206.410156,4155.000000,4183.846191,4223.974121,0.000000,4.000000,86.000000,,,,0.000000,4.000000,4.000000,4.000000,4.000000,4.000000,4.000000,4.000000,4.000000,4.000000,4.000000,4.000000,4.000000,4.000000,4.000000,100.000000,,,,,,,,,,,,,,,,
1645711465.563842,86.000000,0.000000,4220.769043,4229.615234,4227.563965,4233.461426,4210.384766,4228.461426,4231.666504,4226.153809,4221.153809,4224.615234,4212.179688,4163.717773,4185.769043,4220.641113,0.000000,4.000000,86.000000,,,,0.000000,4.000000,4.000000,4.000000,4.000000,4.000000,4.000000,4.000000,4.000000,4.000000,4.000000,4.000000,4.000000,4.000000,4.000000,100.000000,,,,,,,,,,,,,,,,
1645711465.567782,87.000000,0.000000,4212.692383,4234.871582,4228.077148,4236.794922,4216.282227,4233.205078,4232.948730,4231.153809,4226.666504,4236.922852,4220.512695,4168.461426,4187.692383,4212.563965,0.000000,4.000000,86.000000,,,,0.000000,4.000000,4.000000,4.000000,4.000000,4.000000,4.000000,4.000000,4.000000,4.000000,4.000000,4.000000,4.000000,4.000000,4.000000,100.000000,,,,,,,,,,,,,,,,
1645711465.571722,88.000000,0.000000,4216.410156,4234.358887,4225.897461,4233.205078,4213.333496,4230.512695,4229.358887,4231.538574,4228.974121,4240.128418,4221.025879,4165.897461,4186.153809,4206.025879,0.000000,4.000000,86.000000,,,,0.000000,4.000000,4.000000,4.000000,4.000000,4.000000,4.000000,4.000000,4.000000,4.000000,4.000000,4.000000,4.000000,4.000000,4.000000,100.000000,,,,,,,,,,,,,,,,
1645711465.575662,89.000000,0.000000,4227.948730,4227.692383,4222.051270,4224.358887,4203.974121,4223.717773,4225.641113,4227.692383,4226.282227,4232.051270,4212.051270,4158.717773,4181.794922,4206.282227,0.000000,4.000000,86.000000,,,,0.000000,4.000000,4.000000,4.000000,4.000000,4.000000,4.000000,4.000000,4.000000,4.000000,4.000000,4.000000,4.000000,4.000000,4.000000,100.000000,,,,,,,,,,,,,,,,
1645711465.579602,90.000000,0.000000,4232.179688,4221.794922,4219.487305,4218.333496,4198.589844,4220.769043,4226.666504,4224.230957,4222.563965,4221.922852,4202.563965,4153.205078,4178.717773,4211.282227,0.000000,4.000000,86.000000,,,,0.000000,4.000000,4.000000,4.000000,4.000000,4.000000,4.000000,4.000000,4.000000,4.000000,4.000000,4.000000,4.000000,4.000000,4.000000,100.000000,,,,,,,,,,,,,,,,
1645711465.583442,91.000000,0.000000,4222.948730,4221.410156,4220.000000,4219.615234,4202.307617,4224.102539,4231.282227,4224.615234,4221.282227,4218.846191,4200.641113,4153.205078,4179.487305,4214.102539,0.000000,4.000000,86.000000,,,,0.000000,4.000000,4.000000,4.000000,4.000000,4.000000,4.000000,4.000000,4.000000,4.000000,4.000000,4.000000,4.000000,4.000000,4.000000,100.000000,,,,,,,,,,,,,,,,
1645711465.587382,92.000000,0.000000,4211.410156,4223.846191,4221.922852,4224.102539,4208.077148,4227.051270,4233.077148,4226.538574,4221.922852,4221.794922,4204.743652,4157.307617,4182.051270,4211.410156,0.000000,4.000000,86.000000,,,,0.000000,4.000000,4.000000,4.000000,4.000000,4.000000,4.000000,4.000000,4.000000,4.000000,4.000000,4.000000,4.000000,4.000000,4.000000,100.000000,,,,,,,,,,,,,,,,
1645711465.591322,93.000000,0.000000,4211.153809,4223.077148,4223.461426,4225.641113,4206.153809,4223.205078,4228.717773,4226.410156,4222.436035,4223.205078,4207.820313,4162.179688,4181.922852,4207.051270,0.000000,4.000000,86.000000,,,,0.000000,4.000000,4.000000,4.000000,4.000000,4.000000,4.000000,4.000000,4.000000,4.000000,4.000000,4.000000,4.000000,4.000000,4.000000,100.000000,,,,,,,,,,,,,,,,
1645711465.595263,94.000000,0.000000,4220.512695,4218.717773,4224.487305,4223.846191,4197.307617,4215.769043,4222.051270,4224.230957,4222.563965,4220.256348,4207.436035,4166.025879,4178.589844,4207.307617,0.000000,4.000000,86.000000,,,,0.000000,4.000000,4.000000,4.000000,4.000000,4.000000,4.000000,4.000000,4.000000,4.000000,4.000000,4.000000,4.000000,4.000000,4.000000,100.000000,,,,,,,,,,,,,,,,
1645711465.599203,95.000000,0.000000,4225.384766,4215.512695,4225.769043,4223.846191,4191.794922,4213.333496,4218.974121,4223.589844,4224.102539,4217.563965,4207.563965,4168.461426,4175.512695,4212.307617,0.000000,4.000000,86.000000,,,,0.000000,4.000000,4.000000,4.000000,4.000000,4.000000,4.000000,4.000000,4.000000,4.000000,4.000000,4.000000,4.000000,4.000000,4.000000,100.000000,,,,,,,,,,,,,,,,
1645711465.603143,96.000000,0.000000,4217.692383,4216.538574,4226.538574,4226.794922,4195.641113,4219.102539,4220.897461,4226.153809,4226.538574,4218.333496,4210.128418,4168.077148,4174.743652,4216.666504,0.000000,4.000000,86.000000,,,,0.000000,4.000000,4.000000,4.000000,4.000000,4.000000,4.000000,4.000000,4.000000,4.000000,4.000000,4.000000,4.000000,4.000000,4.000000,100.000000,,,,,,,,,,,,,,,,
1645711465.607083,97.000000,0.000000,4205.897461,4217.820313,4224.358887,4226.538574,4202.563965,4225.641113,4223.077148,4228.205078,4226.410156,4218.846191,4210.000000,4162.563965,4173.974121,4215.769043,0.000000,4.000000,86.000000,,,,0.000000,4.000000,4.000000,4.000000,4.000000,4.000000,4.000000,4.000000,4.000000,4.000000,4.000000,4.000000,4.000000,4.000000,4.000000,100.000000,,,,,,,,,,,,,,,,
1645711465.611023,98.000000,0.000000,4203.846191,4214.102539,4219.230957,4218.077148,4201.922852,4223.589844,4221.666504,4225.512695,4220.897461,4213.077148,4201.666504,4152.692383,4170.256348,4211.282227,0.000000,4.000000,86.000000,,,,0.000000,4.000000,4.000000,4.000000,4.000000,4.000000,4.000000,4.000000,4.000000,4.000000,4.000000,4.000000,4.000000,4.000000,4.000000,100.000000,,,,,,,,,,,,,,,,
1645711465.614963,99.000000,0.000000,4212.563965,4207.563965,4215.128418,4206.153809,4193.589844,4214.487305,4218.717773,4219.487305,4213.077148,4203.846191,4189.743652,4145.000000,4165.128418,4208.205078,0.000000,4.000000,86.000000,,,,0.000000,4.000000,4.000000,4.000000,4.000000,4.000000,4.000000,4.000000,4.000000,4.000000,4.000000,4.000000,4.000000,4.000000,4.000000,100.000000,,,,,,,,,,,,,,,,
1645711465.618903,100.000000,0.000000,4220.128418,4206.282227,4217.179688,4202.179688,4187.820313,4208.589844,4218.717773,4216.538574,4210.256348,4201.666504,4186.153809,4146.666504,4164.487305,4208.205078,0.000000,4.000000,86.000000,,,,0.000000,4.000000,4.000000,4.000000,4.000000,4.000000,4.000000,4.000000,4.000000,4.000000,4.000000,4.000000,4.000000,4.000000,4.000000,100.000000,,,,,,,,,,,,,,,,
1645711465.622843,101.000000,0.000000,4218.974121,4214.358887,4225.384766,4211.282227,4192.179688,4212.692383,4222.820313,4220.769043,4215.769043,4212.307617,4196.666504,4157.692383,4171.282227,4209.358887,0.000000,4.000000,86.000000,,,,0.000000,4.000000,4.000000,4.000000,4.000000,4.000000,4.000000,4.000000,4.000000,4.000000,4.000000,4.000000,4.000000,4.000000,4.000000,100.000000,,,,,,,,,,,,,,,,
1645711465.626783,102.000000,0.000000,4215.128418,4225.256348,4234.358887,4225.000000,4201.666504,4221.538574,4227.307617,4228.974121,4225.897461,4228.461426,4212.692383,4170.000000,4181.153809,4209.743652,0.000000,4.000000,86.000000,,,,0.000000,4.000000,4.000000,4.000000,4.000000,4.000000,4.000000,4.000000,4.000000,4.000000,4.000000,4.000000,4.000000,4.000000,4.000000,100.000000,,,,,,,,,,,,,,,,
1645711465.630724,103.000000,0.000000,4219.358887,4228.333496,4238.333496,4230.512695,4205.384766,4225.128418,4228.461426,4233.974121,4232.692383,4237.179688,4220.128418,4174.871582,4186.794922,4211.153809,0.000000,4.000000,86.000000,,,,0.000000,4.000000,4.000000,4.000000,4.000000,4.000000,4.000000,4.000000,4.000000,4.000000,4.000000,4.000000,4.000000,4.000000,4.000000,100.000000,,,,,,,,,,,,,,,,
1645711465.634664,104.000000,0.000000,4229.743652,4221.410156,4237.051270,4224.358887,4200.641113,4221.282227,4227.307617,4233.333496,4233.205078,4234.358887,4215.000000,4171.410156,4185.128418,4215.384766,0.000000,4.000000,86.000000,,,,0.000000,4.000000,4.000000,4.000000,4.000000,4.000000,4.000000,4.000000,4.000000,4.000000,4.000000,4.000000,4.000000,4.000000,4.000000,100.000000,,,,,,,,,,,,,,,,
1645711465.638604,105.000000,0.000000,4233.974121,4213.333496,4234.743652,4215.769043,4196.282227,4217.179688,4228.333496,4231.025879,4231.025879,4229.230957,4207.436035,4165.769043,4180.897461,4220.897461,0.000000,4.000000,86.000000,,,,0.000000,4.000000,4.000000,4.000000,4.000000,4.000000,4.000000,4.000000,4.000000,4.000000,4.000000,4.000000,4.000000,4.000000,4.000000,100.000000,,,,,,,,,,,,,,,,
1645711465.642544,106.000000,0.000000,4225.897461,4213.717773,4235.256348,4215.256348,4200.128418,4220.000000,4233.077148,4232.436035,4231.153809,4232.051270,4208.717773,4164.871582,4180.384766,4223.077148,0.000000,4.000000,86.000000,,,,0.000000,4.000000,4.000000,4.000000,4.000000,4.000000,4.000000,4.000000,4.000000,4.000000,4.000000,4.000000,4.000000,4.000000,4.000000,100.000000,,,,,,,,,,,,,,,,
1645711465.646484,107.000000,0.000000,4216.025879,4222.051270,4237.563965,4222.436035,4208.461426,4227.051270,4237.563965,4237.179688,4233.589844,4241.538574,4218.461426,4168.589844,4184.230957,4220.384766,0.000000,4.000000,86.000000,,,,0.000000,4.000000,4.000000,4.000000,4.000000,4.000000,4.000000,4.000000,4.000000,4.000000,4.000000,4.000000,4.000000,4.000000,4.000000,100.000000,,,,,,,,,,,,,,,,
1645711465.650424,108.000000,0.000000,4217.563965,4229.615234,4237.820313,4228.461426,4210.128418,4229.871582,4236.794922,4240.384766,4234.615234,4246.922852,4226.153809,4172.051270,4187.436035,4216.025879,0.000000,4.000000,86.000000,,,,0.000000,4.000000,4.000000,4.000000,4.000000,4.000000,4.000000,4.000000,4.000000,4.000000,4.000000,4.000000,4.000000,4.000000,4.000000,100.000000,,,,,,,,,,,,,,,,
1645711465.654364,109.000000,0.000000,4228.974121,4229.615234,4234.871582,4227.436035,4201.282227,4224.871582,4231.025879,4238.333496,4232.051270,4241.666504,4225.256348,4171.410156,4186.666504,4215.641113,0.000000,4.000000,86.000000,,,,0.000000,4.000000,4.000000,4.000000,4.000000,4.000000,4.000000,4.000000,4.000000,4.000000,4.000000,4.000000,4.000000,4.000000,4.000000,100.000000,,,,,,,,,,,,,,,,
1645711465.658204,110.000000,0.000000,4234.615234,4224.230957,4231.282227,4223.205078,4190.641113,4217.820313,4225.384766,4232.436035,4227.820313,4232.051270,4220.128418,4167.436035,4183.461426,4220.000000,0.000000,4.000000,86.000000,,,,0.000000,4.000000,4.000000,4.000000,4.000000,4.000000,4.000000,4.000000,4.000000,4.000000,4.000000,4.000000,4.000000,4.000000,4.000000,100.000000,,,,,,,,,,,,,,,,
1645711465.662144,111.000000,0.000000,4225.256348,4220.000000,4230.128418,4222.563965,4189.230957,4216.410156,4223.846191,4226.794922,4224.871582,4227.563965,4218.461426,4163.333496,4181.922852,4225.128418,0.000000,4.000000,86.000000,,,,0.000000,4.000000,4.000000,4.000000,4.000000,4.000000,4.000000,4.000000,4.000000,4.000000,4.000000,4.000000,4.000000,4.000000,4.000000,100.000000,,,,,,,,,,,,,,,,
1645711465.666085,112.000000,0.000000,4211.410156,4219.487305,4231.794922,4226.538574,4197.179688,4220.769043,4225.897461,4223.205078,4223.461426,4229.615234,4221.025879,4161.282227,4182.948730,4226.666504,0.000000,4.000000,86.000000,,,,0.000000,4.000000,4.000000,4.000000,4.000000,4.000000,4.000000,4.000000,4.000000,4.000000,4.000000,4.000000,4.000000,4.000000,4.000000,100.000000,,,,,,,,,,,,,,,,
1645711465.670025,113.000000,0.000000,4210.512695,4220.769043,4233.974121,4231.025879,4205.128418,4225.769043,4228.717773,4221.282227,4221.794922,4230.769043,4221.922852,4161.410156,4183.717773,4225.128418,0.000000,4.000000,86.000000,,,,0.000000,4.000000,4.000000,4.000000,4.000000,4.000000,4.000000,4.000000,4.000000,4.000000,4.000000,4.000000,4.000000,4.000000,4.000000,100.000000,,,,,,,,,,,,,,,,
1645711465.673965,114.000000,0.000000,4225.641113,4222.436035,4235.128418,4233.205078,4206.922852,4228.589844,4231.025879,4221.153809,4219.230957,4226.410156,4218.589844,4163.589844,4182.563965,4224.102539,0.000000,4.000000,86.000000,,,,0.000000,4.000000,4.000000,4.000000,4.000000,4.000000,4.000000,4.000000,4.000000,4.000000,4.000000,4.000000,4.000000,4.000000,4.000000,100.000000,,,,,,,,,,,,,,,,
1645711465.677905,115.000000,0.000000,4240.128418,4226.025879,4235.897461,4235.512695,4206.794922,4231.282227,4233.717773,4224.615234,4217.692383,4221.410156,4215.256348,4167.051270,4181.025879,4225.000000,0.000000,4.000000,86.000000,,,,0.000000,4.000000,4.000000,4.000000,4.000000,4.000000,4.000000,4.000000,4.000000,4.000000,4.000000,4.000000,4.000000,4.000000,4.000000,100.000000,,,,,,,,,,,,,,,,
1645711465.681845,116.000000,0.000000,4238.077148,4230.512695,4236.025879,4238.974121,4210.384766,4235.128418,4235.897461,4231.794922,4218.717773,4222.179688,4216.153809,4169.487305,4180.641113,4224.743652,0.000000,4.000000,86.000000,,,,0.000000,4.000000,4.000000,4.000000,4.000000,4.000000,4.000000,4.000000,4.000000,4.000000,4.000000,4.000000,4.000000,4.000000,4.000000,100.000000,,,,,,,,,,,,,,,,
1645711465.685785,117.000000,0.000000,4222.820313,4230.641113,4233.974121,4239.230957,4214.743652,4236.282227,4234.487305,4239.358887,4220.512695,4226.025879,4217.692383,4167.436035,4179.743652,4220.128418,0.000000,4.000000,86.000000,,,,0.000000,4.000000,4.000000,4.000000,4.000000,4.000000,4.000000,4.000000,4.000000,4.000000,4.000000,4.000000,4.000000,4.000000,4.000000,100.000000,,,,,,,,,,,,,,,,
1645711465.689725,118.000000,0.000000,4211.282227,4221.538574,4228.205078,4231.410156,4211.922852,4230.000000,4228.077148,4245.000000,4219.871582,4224.102539,4212.436035,4159.871582,4175.897461,4212.692383,0.000000,4.000000,86.000000,,,,0.000000,4.000000,4.000000,4.000000,4.000000,4.000000,4.000000,4.000000,4.000000,4.000000,4.000000,4.000000,4.000000,4.000000,4.000000,100.000000,,,,,,,,,,,,,,,,
1645711465.693665,119.000000,0.000000,4213.077148,4207.179688,4220.641113,4218.717773,4201.153809,4219.358887,4220.384766,4251.025879,4216.282227,4214.230957,4200.512695,4150.897461,4170.128418,4208.077148,0.000000,4.000000,86.000000,,,,0.000000,4.000000,4.000000,4.000000,4.000000,4.000000,4.000000,4.000000,4.000000,4.000000,4.000000,4.000000,4.000000,4.000000,4.000000,100.000000,,,,,,,,,,,,,,,,
1645711465.697605,120.000000,0.000000,4220.384766,4199.743652,4216.410156,4211.922852,4192.948730,4214.102539,4217.820313,4262.820313,4213.717773,4206.025879,4191.538574,4147.563965,4167.948730,4209.871582,0.000000,4.000000,86.000000,,,,0.000000,4.000000,4.000000,4.000000,4.000000,4.000000,4.000000,4.000000,4.000000,4.000000,4.000000,4.000000,4.000000,4.000000,4.000000,100.000000,,,,,,,,,,,,,,,,
1645711465.701546,121.000000,0.000000,4221.666504,4207.563965,4218.333496,4217.948730,4197.692383,4220.512695,4222.820313,4282.948730,4216.410156,4209.871582,4194.871582,4152.307617,4172.307617,4215.384766,0.000000,4.000000,86.000000,,,,0.000000,4.000000,4.000000,4.000000,4.000000,4.000000,4.000000,4.000000,4.000000,4.000000,4.000000,4.000000,4.000000,4.000000,4.000000,100.000000,,,,,,,,,,,,,,,,
1645711465.705486,122.000000,0.000000,4217.563965,4225.128418,4223.846191,4231.025879,4211.538574,4232.692383,4231.666504,4305.641113,4223.205078,4224.102539,4207.436035,4161.025879,4180.256348,4219.487305,0.000000,4.000000,86.000000,,,,0.000000,4.000000,4.000000,4.000000,4.000000,4.000000,4.000000,4.000000,4.000000,4.000000,4.000000,4.000000,4.000000,4.000000,4.000000,100.000000,,,,,,,,,,,,,,,,
1645711465.709426,123.000000,0.000000,4218.205078,4238.461426,4227.436035,4238.077148,4220.128418,4238.974121,4237.948730,4321.538574,4228.846191,4235.897461,4217.820313,4166.794922,4184.487305,4220.512695,0.000000,4.000000,86.000000,,,,0.000000,4.000000,4.000000,4.000000,4.000000,4.000000,4.000000,4.000000,4.000000,4.000000,4.000000,4.000000,4.000000,4.000000,4.000000,100.000000,,,,,,,,,,,,,,,,
1645711465.713366,124.000000,0.000000,4226.922852,4238.333496,4226.922852,4233.333496,4214.743652,4235.128418,4239.102539,4325.897461,4229.358887,4236.538574,4218.846191,4166.666504,4182.179688,4221.282227,0.000000,4.000000,86.000000,,,,0.000000,4.000000,4.000000,4.000000,4.000000,4.000000,4.000000,4.000000,4.000000,4.000000,4.000000,4.000000,4.000000,4.000000,4.000000,100.000000,,,,,,,,,,,,,,,,
1645711465.717306,125.000000,0.000000,4233.589844,4229.358887,4224.871582,4223.589844,4203.077148,4228.205078,4238.205078,4323.205078,4226.666504,4230.256348,4215.512695,4164.358887,4177.692383,4223.974121,0.000000,4.000000,86.000000,,,,0.000000,4.000000,4.000000,4.000000,4.000000,4.000000,4.000000,4.000000,4.000000,4.000000,4.000000,4.000000,4.000000,4.000000,4.000000,100.000000,,,,,,,,,,,,,,,,
1645711465.721246,126.000000,0.000000,4228.717773,4222.051270,4224.487305,4219.487305,4198.077148,4227.563965,4238.461426,4322.307617,4225.384766,4227.692383,4216.153809,4164.358887,4177.820313,4226.794922,0.000000,4.000000,86.000000,,,,0.000000,4.000000,4.000000,4.000000,4.000000,4.000000,4.000000,4.000000,4.000000,4.000000,4.000000,4.000000,4.000000,4.000000,4.000000,100.000000,,,,,,,,,,,,,,,,
1645711465.725186,127.000000,0.000000,4216.922852,4221.794922,4225.769043,4223.333496,4203.333496,4233.205078,4239.487305,4327.307617,4227.307617,4231.153809,4221.538574,4166.666504,4183.205078,4226.282227,0.000000,4.000000,86.000000,,,,0.000000,4.000000,4.000000,4.000000,4.000000,4.000000,4.000000,4.000000,4.000000,4.000000,4.000000,4.000000,4.000000,4.000000,4.000000,100.000000,,,,,,,,,,,,,,,,
1645711465.729126,128.000000,0.000000,4212.436035,4224.871582,4226.153809,4227.692383,4209.615234,4236.922852,4238.717773,4334.230957,4229.871582,4233.333496,4224.358887,4167.563965,4188.077148,4222.820313,3081.000000,4.000000,86.000000,,,,0.000000,4.000000,4.000000,4.000000,4.000000,4.000000,4.000000,4.000000,4.000000,4.000000,4.000000,4.000000,4.000000,4.000000,4.000000,100.000000,,,,,,,,,,,,,,,,
1645711465.732966,129.000000,0.000000,4220.769043,4225.384766,4225.000000,4226.538574,4209.230957,4233.846191,4236.794922,4337.307617,4230.000000,4228.717773,4220.384766,4165.000000,4187.051270,4220.000000,3373.000000,4.000000,86.000000,,,,0.000000,4.000000,4.000000,4.000000,4.000000,4.000000,4.000000,4.000000,4.000000,4.000000,4.000000,4.000000,4.000000,4.000000,4.000000,100.000000,,,,,,,,,,,,,,,,
1645711465.736907,130.000000,0.000000,4231.153809,4223.589844,4224.743652,4222.436035,4205.000000,4228.589844,4237.307617,4336.025879,4228.589844,4222.563965,4214.743652,4162.179688,4181.794922,4220.384766,2208.000000,4.000000,86.000000,,,,0.000000,4.000000,4.000000,4.000000,4.000000,4.000000,4.000000,4.000000,4.000000,4.000000,4.000000,4.000000,4.000000,4.000000,4.000000,100.000000,,,,,,,,,,,,,,,,
1645711465.740847,131.000000,0.000000,4230.512695,4223.077148,4227.179688,4222.563965,4204.871582,4228.077148,4241.282227,4333.974121,4228.846191,4224.487305,4215.000000,4163.333496,4177.820313,4221.538574,3315.000000,4.000000,86.000000,,,,0.000000,4.000000,4.000000,4.000000,4.000000,4.000000,4.000000,4.000000,4.000000,4.000000,4.000000,4.000000,4.000000,4.000000,4.000000,100.000000,,,,,,,,,,,,,,,,
1645711465.744787,132.000000,0.000000,4220.897461,4224.615234,4230.384766,4227.692383,4209.102539,4232.051270,4245.512695,4333.461426,4231.410156,4235.512695,4220.512695,4168.333496,4178.333496,4220.384766,3535.000000,4.000000,86.000000,,,,0.000000,4.000000,4.000000,4.000000,4.000000,4.000000,4.000000,4.000000,4.000000,4.000000,4.000000,4.000000,4.000000,4.000000,4.000000,100.000000,,,,,,,,,,,,,,,,
1645711465.748727,133.000000,0.000000,4216.153809,4224.230957,4230.641113,4231.282227,4209.615234,4233.333496,4244.871582,4332.948730,4233.333496,4245.256348,4222.820313,4172.051270,4180.897461,4217.563965,3080.000000,4.000000,86.000000,,,,0.000000,4.000000,4.000000,4.000000,4.000000,4.000000,4.000000,4.000000,4.000000,4.000000,4.000000,4.000000,4.000000,4.000000,4.000000,100.000000,,,,,,,,,,,,,,,,
1645711465.752667,134.000000,0.000000,4223.589844,4220.384766,4227.307617,4228.205078,4202.307617,4227.820313,4239.743652,4330.512695,4232.563965,4244.615234,4217.563965,4171.538574,4182.051270,4217.948730,3213.000000,4.000000,86.000000,,,,0.000000,4.000000,4.000000,4.000000,4.000000,4.000000,4.000000,4.000000,4.000000,4.000000,4.000000,4.000000,4.000000,4.000000,4.000000,100.000000,,,,,,,,,,,,,,,,
1645711465.756607,135.000000,0.000000,4233.461426,4217.051270,4224.102539,4221.794922,4194.358887,4221.025879,4235.641113,4328.205078,4230.897461,4236.410156,4210.897461,4168.717773,4181.922852,4223.333496,2334.000000,4.000000,86.000000,,,,0.000000,4.000000,4.000000,4.000000,4.000000,4.000000,4.000000,4.000000,4.000000,4.000000,4.000000,4.000000,4.000000,4.000000,4.000000,100.000000,,,,,,,,,,,,,,,,
1645711465.760547,136.000000,0.000000,4231.922852,4219.743652,4224.871582,4219.615234,4196.025879,4221.153809,4236.794922,4329.230957,4232.179688,4231.666504,4212.307617,4168.077148,4183.077148,4228.974121,1565.000000,4.000000,86.000000,,,,0.000000,4.000000,4.000000,4.000000,4.000000,4.000000,4.000000,4.000000,4.000000,4.000000,4.000000,4.000000,4.000000,4.000000,4.000000,100.000000,,,,,,,,,,,,,,,,
1645711465.764487,137.000000,0.000000,4219.615234,4226.794922,4228.589844,4223.461426,4206.666504,4227.820313,4241.410156,4333.333496,4236.794922,4234.871582,4222.051270,4170.384766,4185.512695,4228.461426,2931.000000,4.000000,86.000000,,,,0.000000,4.000000,4.000000,4.000000,4.000000,4.000000,4.000000,4.000000,4.000000,4.000000,4.000000,4.000000,4.000000,4.000000,4.000000,100.000000,,,,,,,,,,,,,,,,
1645711465.768427,138.000000,0.000000,4211.025879,4229.615234,4230.128418,4226.794922,4214.230957,4232.051270,4243.589844,4335.641113,4240.641113,4239.615234,4230.128418,4171.922852,4186.025879,4220.769043,2327.000000,4.000000,86.000000,,,,0.000000,4.000000,4.000000,4.000000,4.000000,4.000000,4.000000,4.000000,4.000000,4.000000,4.000000,4.000000,4.000000,4.000000,4.000000,100.000000,,,,,,,,,,,,,,,,
1645711465.772368,139.000000,0.000000,4215.641113,4222.692383,4226.922852,4223.333496,4209.102539,4227.179688,4240.128418,4332.307617,4239.487305,4237.692383,4228.461426,4169.743652,4182.563965,4212.051270,2674.000000,4.000000,86.000000,,,,0.000000,4.000000,4.000000,4.000000,4.000000,4.000000,4.000000,4.000000,4.000000,4.000000,4.000000,4.000000,4.000000,4.000000,4.000000,100.000000,,,,,,,,,,,,,,,,
1645711465.776308,140.000000,0.000000,4226.025879,4210.897461,4221.538574,4215.256348,4196.153809,4218.077148,4235.128418,4325.000000,4234.487305,4230.384766,4220.384766,4165.256348,4178.205078,4209.102539,3279.000000,4.000000,86.000000,,,,0.000000,4.000000,4.000000,4.000000,4.000000,4.000000,4.000000,4.000000,4.000000,4.000000,4.000000,4.000000,4.000000,4.000000,4.000000,100.000000,,,,,,,,,,,,,,,,
1645711465.780248,141.000000,0.000000,4228.333496,4204.743652,4218.717773,4210.512695,4188.717773,4214.358887,4233.717773,4319.230957,4230.384766,4225.897461,4215.769043,4163.205078,4177.692383,4212.307617,2985.000000,4.000000,86.000000,,,,0.000000,4.000000,4.000000,4.000000,4.000000,4.000000,4.000000,4.000000,4.000000,4.000000,4.000000,4.000000,4.000000,4.000000,4.000000,100.000000,,,,,,,,,,,,,,,,
1645711465.784188,142.000000,0.000000,4221.025879,4207.948730,4220.000000,4213.461426,4192.436035,4219.358887,4236.666504,4318.077148,4230.128418,4227.692383,4218.589844,4165.641113,4182.179688,4217.307617,2327.000000,4.000000,86.000000,,,,0.000000,4.000000,4.000000,4.000000,4.000000,4.000000,4.000000,4.000000,4.000000,4.000000,4.000000,4.000000,4.000000,4.000000,4.000000,100.000000,1.000000,58.333332,1.000000,4.000000,4.000000,4.000000,3.000000,3.000000,4.000000,3.000000,3.000000,3.000000,3.000000,4.000000,3.000000,3.000000
1645711465.788128,143.000000,0.000000,4216.922852,4214.230957,4223.205078,4220.512695,4200.000000,4225.897461,4239.871582,4319.102539,4232.051270,4230.256348,4222.948730,4170.256348,4186.922852,4220.897461,2674.000000,4.000000,86.000000,,,,0.000000,4.000000,4.000000,4.000000,4.000000,4.000000,4.000000,4.000000,4.000000,4.000000,4.000000,4.000000,4.000000,4.000000,4.000000,100.000000,,,,,,,,,,,,,,,,
1645711465.792068,144.000000,0.000000,4225.128418,4216.410156,4226.282227,4225.897461,4201.794922,4227.307617,4240.384766,4318.846191,4232.436035,4228.205078,4222.692383,4173.717773,4188.077148,4223.974121,3279.000000,4.000000,86.000000,,,,0.000000,4.000000,4.000000,4.000000,4.000000,4.000000,4.000000,4.000000,4.000000,4.000000,4.000000,4.000000,4.000000,4.000000,4.000000,100.000000,,,,,,,,,,,,,,,,
1645711465.796008,145.000000,0.000000,4237.948730,4214.871582,4229.358887,4228.974121,4198.205078,4224.487305,4239.358887,4316.666504,4230.897461,4224.230957,4220.128418,4175.769043,4186.666504,4227.692383,2985.000000,4.000000,86.000000,,,,0.000000,4.000000,4.000000,4.000000,4.000000,4.000000,4.000000,4.000000,4.000000,4.000000,4.000000,4.000000,4.000000,4.000000,4.000000,100.000000,,,,,,,,,,,,,,,,
1645711465.799948,146.000000,0.000000,4241.025879,4216.153809,4233.205078,4232.820313,4197.051270,4223.846191,4239.358887,4315.256348,4229.871582,4226.410156,4222.051270,4177.563965,4187.051270,4229.871582,2327.000000,4.000000,86.000000,,,,0.000000,4.000000,4.000000,4.000000,4.000000,4.000000,4.000000,4.000000,4.000000,4.000000,4.000000,4.000000,4.000000,4.000000,4.000000,100.000000,,,,,,,,,,,,,,,,
1645711465.803988,147.000000,0.000000,4231.410156,4221.922852,4236.538574,4236.922852,4201.153809,4227.436035,4239.230957,4314.871582,4230.384766,4235.641113,4228.589844,4178.717773,4190.000000,4226.794922,2674.000000,4.000000,86.000000,,,,0.000000,4.000000,4.000000,4.000000,4.000000,4.000000,4.000000,4.000000,4.000000,4.000000,4.000000,4.000000,4.000000,4.000000,4.000000,100.000000,,,,,,,,,,,,,,,,
1645711465.807928,148.000000,0.000000,4221.410156,4226.538574,4235.256348,4235.641113,4203.461426,4229.487305,4236.666504,4312.436035,4230.384766,4242.436035,4230.897461,4176.153809,4190.897461,4217.948730,3279.000000,4.000000,86.000000,,,,0.000000,4.000000,4.000000,4.000000,4.000000,4.000000,4.000000,4.000000,4.000000,4.000000,4.000000,4.000000,4.000000,4.000000,4.000000,100.000000,,,,,,,,,,,,,,,,
1645711465.811868,149.000000,0.000000,4221.922852,4223.589844,4228.461426,4226.025879,4197.563965,4225.000000,4231.538574,4305.641113,4227.307617,4237.563965,4221.666504,4169.102539,4185.897461,4208.461426,2985.000000,4.000000,86.000000,,,,0.000000,4.000000,4.000000,4.000000,4.000000,4.000000,4.000000,4.000000,4.000000,4.000000,4.000000,4.000000,4.000000,4.000000,4.000000,100.000000,,,,,,,,,,,,,,,,
1645711465.815809,150.000000,0.000000,4228.589844,4215.641113,4220.256348,4215.000000,4188.077148,4217.436035,4227.692383,4297.307617,4222.563965,4224.230957,4206.025879,4160.641113,4177.820313,4203.589844,2327.000000,4.000000,86.000000,,,,0.000000,4.000000,4.000000,4.000000,4.000000,4.000000,4.000000,4.000000,4.000000,4.000000,4.000000,4.000000,4.000000,4.000000,4.000000,100.000000,,,,,,,,,,,,,,,,
1645711465.819749,151.000000,0.000000,4228.846191,4211.538574,4216.538574,4213.333496,4186.666504,4215.128418,4228.717773,4292.436035,4219.871582,4215.256348,4197.179688,4155.641113,4173.846191,4204.230957,2674.000000,4.000000,86.000000,,,,0.000000,4.000000,4.000000,4.000000,4.000000,4.000000,4.000000,4.000000,4.000000,4.000000,4.000000,4.000000,4.000000,4.000000,4.000000,100.000000,,,,,,,,,,,,,,,,
1645711465.823689,152.000000,0.000000,4219.743652,4215.256348,4219.102539,4222.948730,4197.051270,4220.512695,4232.563965,4292.820313,4221.025879,4217.436035,4201.538574,4155.256348,4177.563965,4206.794922,3279.000000,4.000000,86.000000,,,,0.000000,4.000000,4.000000,4.000000,4.000000,4.000000,4.000000,4.000000,4.000000,4.000000,4.000000,4.000000,4.000000,4.000000,4.000000,100.000000,,,,,,,,,,,,,,,,
1645711465.827629,153.000000,0.000000,4211.922852,4221.538574,4223.461426,4233.589844,4208.589844,4227.051270,4234.102539,4294.615234,4223.589844,4224.487305,4211.538574,4155.769043,4184.487305,4208.333496,2985.000000,4.000000,86.000000,,,,0.000000,4.000000,4.000000,4.000000,4.000000,4.000000,4.000000,4.000000,4.000000,4.000000,4.000000,4.000000,4.000000,4.000000,4.000000,100.000000,,,,,,,,,,,,,,,,
1645711465.831569,154.000000,0.000000,4214.743652,4222.307617,4223.974121,4233.333496,4208.846191,4227.436035,4231.025879,4293.717773,4224.102539,4225.897461,4214.743652,4154.230957,4187.179688,4208.846191,2327.000000,4.000000,86.000000,,,,0.000000,4.000000,4.000000,4.000000,4.000000,4.000000,4.000000,4.000000,4.000000,4.000000,4.000000,4.000000,4.000000,4.000000,4.000000,100.000000,,,,,,,,,,,,,,,,
1645711465.835509,155.000000,0.000000,4222.820313,4217.051270,4220.256348,4223.205078,4198.461426,4222.307617,4227.179688,4290.512695,4222.436035,4220.512695,4208.333496,4151.282227,4183.461426,4209.487305,2674.000000,4.000000,86.000000,,,,0.000000,4.000000,4.000000,4.000000,4.000000,4.000000,4.000000,4.000000,4.000000,4.000000,4.000000,4.000000,4.000000,4.000000,4.000000,100.000000,,,,,,,,,,,,,,,,
1645711465.839449,156.000000,0.000000,4222.692383,4212.820313,4216.025879,4214.743652,4190.128418,4219.871582,4227.692383,4288.717773,4222.051270,4217.820313,4200.769043,4150.128418,4177.692383,4210.000000,3279.000000,4.000000,86.000000,,,,0.000000,4.000000,4.000000,4.000000,4.000000,4.000000,4.000000,4.000000,4.000000,4.000000,4.000000,4.000000,4.000000,4.000000,4.000000,100.000000,,,,,,,,,,,,,,,,
1645711465.843389,157.000000,0.000000,4212.307617,4214.230957,4214.358887,4215.897461,4192.563965,4223.717773,4232.948730,4290.256348,4224.615234,4223.717773,4200.512695,4151.538574,4174.871582,4208.846191,2985.000000,4.000000,86.000000,,,,0.000000,4.000000,4.000000,4.000000,4.000000,4.000000,4.000000,4.000000,4.000000,4.000000,4.000000,4.000000,4.000000,4.000000,4.000000,100.000000,,,,,,,,,,,,,,,,
1645711465.847329,158.000000,0.000000,4204.102539,4218.077148,4214.871582,4222.948730,4200.384766,4228.461426,4237.307617,4292.051270,4227.307617,4232.436035,4205.897461,4153.205078,4175.128418,4207.051270,2327.000000,4.000000,86.000000,,,,0.000000,4.000000,4.000000,4.000000,4.000000,4.000000,4.000000,4.000000,4.000000,4.000000,4.000000,4.000000,4.000000,4.000000,4.000000,100.000000,,,,,,,,,,,,,,,,
1645711465.851270,159.000000,0.000000,4209.743652,4217.820313,4215.512695,4227.179688,4202.307617,4227.307617,4236.538574,4290.384766,4226.282227,4233.077148,4209.615234,4152.307617,4175.384766,4207.820313,2674.000000,4.000000,86.000000,,,,0.000000,4.000000,4.000000,4.000000,4.000000,4.000000,4.000000,4.000000,4.000000,4.000000,4.000000,4.000000,4.000000,4.000000,4.000000,100.000000,,,,,,,,,,,,,,,,
1645711465.855210,160.000000,0.000000,4223.205078,4212.948730,4215.897461,4225.512695,4196.153809,4220.769043,4232.179688,4285.769043,4221.538574,4224.102539,4209.615234,4149.743652,4174.615234,4212.436035,3279.000000,4.000000,86.000000,,,,0.000000,4.000000,4.000000,4.000000,4.000000,4.000000,4.000000,4.000000,4.000000,4.000000,4.000000,4.000000,4.000000,4.000000,4.000000,100.000000,,,,,,,,,,,,,,,,
1645711465.859150,161.000000,0.000000,4228.461426,4209.615234,4217.563965,4223.205078,4190.512695,4216.666504,4228.974121,4281.922852,4217.563965,4214.358887,4210.000000,4149.102539,4175.384766,4217.948730,2985.000000,4.000000,86.000000,,,,0.000000,4.000000,4.000000,4.000000,4.000000,4.000000,4.000000,4.000000,4.000000,4.000000,4.000000,4.000000,4.000000,4.000000,4.000000,100.000000,,,,,,,,,,,,,,,,
1645711465.863090,162.000000,0.000000,4219.102539,4211.794922,4220.128418,4224.358887,4192.179688,4219.358887,4228.589844,4281.153809,4217.948730,4212.307617,4213.333496,4151.922852,4178.974121,4219.487305,2327.000000,4.000000,86.000000,,,,0.000000,4.000000,4.000000,4.000000,4.000000,4.000000,4.000000,4.000000,4.000000,4.000000,4.000000,4.000000,4.000000,4.000000,4.000000,100.000000,,,,,,,,,,,,,,,,
1645711465.867030,163.000000,0.000000,4207.051270,4216.666504,4221.410156,4225.897461,4196.922852,4224.230957,4228.077148,4280.641113,4220.769043,4216.153809,4215.000000,4155.512695,4183.333496,4216.410156,2674.000000,4.000000,86.000000,,,,0.000000,4.000000,4.000000,4.000000,4.000000,4.000000,4.000000,4.000000,4.000000,4.000000,4.000000,4.000000,4.000000,4.000000,4.000000,100.000000,,,,,,,,,,,,,,,,
1645711465.870970,164.000000,0.000000,4207.307617,4218.717773,4220.000000,4222.948730,4196.794922,4224.743652,4225.641113,4276.922852,4221.025879,4217.948730,4210.000000,4156.922852,4185.512695,4213.077148,3279.000000,4.000000,86.000000,,,,0.000000,4.000000,4.000000,4.000000,4.000000,4.000000,4.000000,4.000000,4.000000,4.000000,4.000000,4.000000,4.000000,4.000000,4.000000,100.000000,,,,,,,,,,,,,,,,
1645711465.874910,165.000000,0.000000,4218.846191,4218.205078,4218.589844,4217.307617,4192.051270,4221.282227,4223.589844,4271.922852,4217.692383,4215.000000,4201.666504,4157.179688,4185.769043,4214.230957,2985.000000,4.000000,86.000000,,,,0.000000,4.000000,4.000000,4.000000,4.000000,4.000000,4.000000,4.000000,4.000000,4.000000,4.000000,4.000000,4.000000,4.000000,4.000000,100.000000,,,,,,,,,,,,,,,,
1645711465.878950,166.000000,0.000000,4227.179688,4220.256348,4221.025879,4216.538574,4191.282227,4220.897461,4225.897461,4271.025879,4214.615234,4213.974121,4200.897461,4159.743652,4187.179688,4219.102539,2327.000000,4.000000,86.000000,,,,0.000000,4.000000,4.000000,4.000000,4.000000,4.000000,4.000000,4.000000,4.000000,4.000000,4.000000,4.000000,4.000000,4.000000,4.000000,100.000000,,,,,,,,,,,,,,,,
1645711465.882890,167.000000,0.000000,4223.974121,4226.666504,4227.692383,4223.717773,4199.743652,4226.922852,4232.051270,4276.282227,4216.025879,4219.871582,4212.307617,4165.512695,4191.410156,4222.692383,2674.000000,4.000000,86.000000,,,,0.000000,4.000000,4.000000,4.000000,4.000000,4.000000,4.000000,4.000000,4.000000,4.000000,4.000000,4.000000,4.000000,4.000000,4.000000,100.000000,,,,,,,,,,,,,,,,
1645711465.886830,168.000000,0.000000,4217.307617,4232.179688,4234.358887,4231.794922,4210.512695,4233.205078,4236.538574,4282.948730,4221.282227,4228.717773,4227.948730,4171.025879,4195.384766,4221.794922,3279.000000,4.000000,86.000000,,,,0.000000,4.000000,4.000000,4.000000,4.000000,4.000000,4.000000,4.000000,4.000000,4.000000,4.000000,4.000000,4.000000,4.000000,4.000000,100.000000,,,,,,,,,,,,,,,,
1645711465.890770,169.000000,0.000000,4219.358887,4230.000000,4235.897461,4232.307617,4212.692383,4231.794922,4234.871582,4284.743652,4225.897461,4231.666504,4234.615234,4172.051270,4194.615234,4218.846191,2985.000000,4.000000,86.000000,,,,0.000000,4.000000,4.000000,4.000000,4.000000,4.000000,4.000000,4.000000,4.000000,4.000000,4.000000,4.000000,4.000000,4.000000,4.000000,100.000000,,,,,,,,,,,,,,,,
1645711465.894711,170.000000,0.000000,4228.846191,4221.538574,4232.436035,4225.897461,4205.128418,4223.205078,4229.102539,4281.794922,4226.922852,4226.922852,4228.333496,4169.102539,4189.615234,4218.077148,2327.000000,4.000000,86.000000,,,,0.000000,4.000000,4.000000,4.000000,4.000000,4.000000,4.000000,4.000000,4.000000,4.000000,4.000000,4.000000,4.000000,4.000000,4.000000,100.000000,,,,,,,,,,,,,,,,
1645711465.898651,171.000000,0.000000,4232.179688,4215.000000,4228.077148,4221.922852,4197.820313,4216.794922,4225.641113,4281.025879,4226.025879,4222.436035,4218.077148,4167.051270,4186.025879,4219.358887,2674.000000,4.000000,86.000000,,,,0.000000,4.000000,4.000000,4.000000,4.000000,4.000000,4.000000,4.000000,4.000000,4.000000,4.000000,4.000000,4.000000,4.000000,4.000000,100.000000,,,,,,,,,,,,,,,,
1645711465.902591,172.000000,0.000000,4221.794922,4216.282227,4226.282227,4226.410156,4198.846191,4219.358887,4228.333496,4288.717773,4225.769043,4225.384766,4213.589844,4168.717773,4187.820313,4218.461426,3279.000000,4.000000,86.000000,,,,0.000000,4.000000,4.000000,4.000000,4.000000,4.000000,4.000000,4.000000,4.000000,4.000000,4.000000,4.000000,4.000000,4.000000,4.000000,100.000000,,,,,,,,,,,,,,,,
1645711465.906531,173.000000,0.000000,4207.692383,4222.436035,4226.153809,4234.615234,4204.871582,4226.666504,4234.230957,4302.820313,4226.538574,4232.563965,4215.641113,4171.794922,4192.692383,4213.077148,2985.000000,4.000000,86.000000,,,,0.000000,4.000000,4.000000,4.000000,4.000000,4.000000,4.000000,4.000000,4.000000,4.000000,4.000000,4.000000,4.000000,4.000000,4.000000,100.000000,,,,,,,,,,,,,,,,
1645711465.910471,174.000000,0.000000,4205.384766,4225.384766,4225.512695,4237.051270,4206.282227,4230.128418,4238.077148,4315.384766,4226.025879,4234.358887,4217.436035,4171.922852,4194.358887,4207.307617,2327.000000,4.000000,86.000000,,,,0.000000,4.000000,4.000000,4.000000,4.000000,4.000000,4.000000,4.000000,4.000000,4.000000,4.000000,4.000000,4.000000,4.000000,4.000000,100.000000,,,,,,,,,,,,,,,,
1645711465.914411,175.000000,0.000000,4216.538574,4221.794922,4223.974121,4231.410156,4200.769043,4227.436035,4238.333496,4320.256348,4224.102539,4228.205078,4215.512695,4168.461426,4190.897461,4207.436035,2674.000000,4.000000,86.000000,,,,0.000000,4.000000,4.000000,4.000000,4.000000,4.000000,4.000000,4.000000,4.000000,4.000000,4.000000,4.000000,4.000000,4.000000,4.000000,100.000000,,,,,,,,,,,,,,,,
1645711465.918351,176.000000,0.000000,4226.794922,4216.794922,4223.717773,4225.128418,4196.282227,4224.487305,4237.051270,4319.102539,4222.820313,4221.794922,4213.461426,4164.743652,4186.153809,4214.230957,3279.000000,4.000000,86.000000,,,,0.000000,4.000000,4.000000,4.000000,4.000000,4.000000,4.000000,4.000000,4.000000,4.000000,4.000000,4.000000,4.000000,4.000000,4.000000,100.000000,,,,,,,,,,,,,,,,
1645711465.922291,177.000000,0.000000,4224.358887,4215.897461,4225.384766,4225.384766,4199.743652,4226.153809,4236.025879,4317.307617,4224.102539,4223.205078,4215.512695,4163.589844,4184.743652,4220.769043,2985.000000,4.000000,86.000000,,,,0.000000,4.000000,4.000000,4.000000,4.000000,4.000000,4.000000,4.000000,4.000000,4.000000,4.000000,4.000000,4.000000,4.000000,4.000000,100.000000,,,,,,,,,,,,,,,,
1645711465.926231,178.000000,0.000000,4214.358887,4218.717773,4227.692383,4230.128418,4207.051270,4229.102539,4234.487305,4318.461426,4226.410156,4230.641113,4218.974121,4164.230957,4186.282227,4221.282227,2327.000000,4.000000,86.000000,,,,0.000000,4.000000,4.000000,4.000000,4.000000,4.000000,4.000000,4.000000,4.000000,4.000000,4.000000,4.000000,4.000000,4.000000,4.000000,100.000000,,,,,,,,,,,,,,,,
1645711465.930172,179.000000,0.000000,4211.153809,4220.256348,4228.461426,4232.307617,4209.230957,4226.922852,4232.179688,4322.563965,4227.179688,4235.384766,4218.205078,4164.230957,4187.563965,4217.179688,2674.000000,4.000000,86.000000,,,,0.000000,4.000000,4.000000,4.000000,4.000000,4.000000,4.000000,4.000000,4.000000,4.000000,4.000000,4.000000,4.000000,4.000000,4.000000,100.000000,,,,,,,,,,,,,,,,
1645711465.934112,180.000000,0.000000,4219.358887,4219.358887,4228.077148,4229.230957,4203.846191,4220.384766,4231.282227,4328.589844,4226.922852,4233.846191,4213.846191,4163.974121,4186.922852,4215.897461,3279.000000,4.000000,86.000000,,,,0.000000,4.000000,4.000000,4.000000,4.000000,4.000000,4.000000,4.000000,4.000000,4.000000,4.000000,4.000000,4.000000,4.000000,4.000000,100.000000,,,,,,,,,,,,,,,,
1645711465.938052,181.000000,0.000000,4228.333496,4220.128418,4228.846191,4226.538574,4199.743652,4217.820313,4234.358887,4336.794922,4228.333496,4232.820313,4213.333496,4166.025879,4187.051270,4221.025879,2985.000000,4.000000,86.000000,,,,0.000000,4.000000,4.000000,4.000000,4.000000,4.000000,4.000000,4.000000,4.000000,4.000000,4.000000,4.000000,4.000000,4.000000,4.000000,100.000000,,,,,,,,,,,,,,,,
1645711465.941992,182.000000,0.000000,4227.563965,4225.000000,4231.410156,4229.615234,4204.487305,4224.358887,4239.487305,4346.282227,4232.820313,4237.948730,4221.153809,4171.282227,4190.641113,4227.948730,2327.000000,4.000000,86.000000,,,,0.000000,4.000000,4.000000,4.000000,4.000000,4.000000,4.000000,4.000000,4.000000,4.000000,4.000000,4.000000,4.000000,4.000000,4.000000,100.000000,,,,,,,,,,,,,,,,
1645711465.945932,183.000000,0.000000,4220.641113,4229.743652,4233.461426,4236.025879,4214.230957,4234.487305,4240.512695,4352.563965,4236.538574,4244.871582,4231.794922,4175.897461,4195.384766,4229.358887,2674.000000,4.000000,86.000000,,,,0.000000,4.000000,4.000000,4.000000,4.000000,4.000000,4.000000,4.000000,4.000000,4.000000,4.000000,4.000000,4.000000,4.000000,4.000000,100.000000,,,,,,,,,,,,,,,,
1645711465.949872,184.000000,0.000000,4219.487305,4227.820313,4231.666504,4237.692383,4217.820313,4237.179688,4234.358887,4351.153809,4234.487305,4242.692383,4234.230957,4175.000000,4196.922852,4223.974121,3279.000000,4.000000,86.000000,,,,0.000000,4.000000,4.000000,4.000000,4.000000,4.000000,4.000000,4.000000,4.000000,4.000000,4.000000,4.000000,4.000000,4.000000,4.000000,100.000000,,,,,,,,,,,,,,,,
1645711465.953912,185.000000,0.000000,4226.794922,4219.615234,4226.794922,4232.563965,4211.153809,4229.743652,4224.743652,4343.205078,4226.410156,4228.846191,4225.769043,4168.846191,4193.461426,4217.948730,2985.000000,4.000000,86.000000,,,,0.000000,4.000000,4.000000,4.000000,4.000000,4.000000,4.000000,4.000000,4.000000,4.000000,4.000000,4.000000,4.000000,4.000000,4.000000,100.000000,,,,,,,,,,,,,,,,
1645711465.957852,186.000000,0.000000,4231.538574,4213.461426,4222.948730,4227.563965,4203.333496,4220.769043,4219.743652,4335.384766,4218.589844,4213.974121,4215.128418,4162.563965,4188.461426,4217.051270,2327.000000,4.000000,86.000000,,,,0.000000,4.000000,4.000000,4.000000,4.000000,4.000000,4.000000,4.000000,4.000000,4.000000,4.000000,4.000000,4.000000,4.000000,4.000000,100.000000,,,,,,,,,,,,,,,,
1645711465.961792,187.000000,0.000000,4224.358887,4215.512695,4223.589844,4229.358887,4204.743652,4219.358887,4222.563965,4334.230957,4217.179688,4210.641113,4212.307617,4161.153809,4186.282227,4220.128418,2674.000000,4.000000,86.000000,,,,0.000000,4.000000,4.000000,4.000000,4.000000,4.000000,4.000000,4.000000,4.000000,4.000000,4.000000,4.000000,4.000000,4.000000,4.000000,100.000000,,,,,,,,,,,,,,,,
1645711465.965732,188.000000,0.000000,4211.666504,4222.563965,4227.307617,4235.641113,4213.974121,4225.000000,4228.846191,4339.487305,4222.563965,4219.230957,4216.922852,4164.230957,4187.179688,4221.538574,3279.000000,4.000000,86.000000,,,,0.000000,4.000000,4.000000,4.000000,4.000000,4.000000,4.000000,4.000000,4.000000,4.000000,4.000000,4.000000,4.000000,4.000000,4.000000,100.000000,,,,,,,,,,,,,,,,
1645711465.969672,189.000000,0.000000,4208.205078,4225.000000,4229.487305,4237.692383,4219.358887,4228.974121,4231.922852,4344.871582,4228.846191,4228.461426,4220.000000,4167.179688,4187.563965,4218.717773,2985.000000,4.000000,86.000000,,,,0.000000,4.000000,4.000000,4.000000,4.000000,4.000000,4.000000,4.000000,4.000000,4.000000,4.000000,4.000000,4.000000,4.000000,4.000000,100.000000,,,,,,,,,,,,,,,,
1645711465.973613,190.000000,0.000000,4218.461426,4219.230957,4227.692383,4232.179688,4213.717773,4226.025879,4229.743652,4345.769043,4231.153809,4229.615234,4217.179688,4167.563965,4186.410156,4214.743652,2327.000000,4.000000,86.000000,,,,0.000000,4.000000,4.000000,4.000000,4.000000,4.000000,4.000000,4.000000,4.000000,4.000000,4.000000,4.000000,4.000000,4.000000,4.000000,100.000000,,,,,,,,,,,,,,,,
1645711465.977553,191.000000,0.000000,4229.871582,4212.563965,4224.358887,4224.743652,4203.846191,4220.128418,4226.666504,4343.589844,4230.000000,4226.666504,4213.846191,4166.922852,4187.436035,4213.589844,2674.000000,4.000000,86.000000,,,,0.000000,4.000000,4.000000,4.000000,4.000000,4.000000,4.000000,4.000000,4.000000,4.000000,4.000000,4.000000,4.000000,4.000000,4.000000,100.000000,,,,,,,,,,,,,,,,
1645711465.981493,192.000000,0.000000,4229.358887,4213.333496,4222.563965,4222.820313,4200.641113,4218.077148,4226.282227,4342.179688,4229.358887,4228.589844,4218.077148,4167.563965,4194.358887,4215.384766,3279.000000,4.000000,86.000000,,,,0.000000,4.000000,4.000000,4.000000,4.000000,4.000000,4.000000,4.000000,4.000000,4.000000,4.000000,4.000000,4.000000,4.000000,4.000000,100.000000,,,,,,,,,,,,,,,,
1645711465.985433,193.000000,0.000000,4219.358887,4221.025879,4222.563965,4225.897461,4205.512695,4220.256348,4227.436035,4342.692383,4230.897461,4236.410156,4228.077148,4168.461426,4204.615234,4217.179688,2985.000000,4.000000,86.000000,,,,0.000000,4.000000,4.000000,4.000000,4.000000,4.000000,4.000000,4.000000,4.000000,4.000000,4.000000,4.000000,4.000000,4.000000,4.000000,100.000000,,,,,,,,,,,,,,,,
1645711465.989373,194.000000,0.000000,4213.589844,4225.897461,4221.538574,4226.794922,4209.358887,4221.922852,4227.051270,4341.922852,4232.563965,4241.538574,4233.974121,4166.538574,4211.282227,4217.948730,2327.000000,4.000000,86.000000,,,,0.000000,4.000000,4.000000,4.000000,4.000000,4.000000,4.000000,4.000000,4.000000,4.000000,4.000000,4.000000,4.000000,4.000000,4.000000,100.000000,,,,,,,,,,,,,,,,
1645711465.993313,195.000000,0.000000,4218.205078,4220.384766,4217.820313,4221.410156,4205.641113,4220.641113,4225.128418,4337.948730,4232.051270,4237.692383,4230.256348,4161.282227,4210.000000,4219.615234,2674.000000,4.000000,86.000000,,,,0.000000,4.000000,4.000000,4.000000,4.000000,4.000000,4.000000,4.000000,4.000000,4.000000,4.000000,4.000000,4.000000,4.000000,4.000000,100.000000,,,,,,,,,,,,,,,,
1645711465.997253,196.000000,0.000000,4223.461426,4208.846191,4213.589844,4214.615234,4199.358887,4220.128418,4225.256348,4333.846191,4230.384766,4230.641113,4223.077148,4157.436035,4204.615234,4223.589844,3279.000000,4.000000,86.000000,,,,0.000000,4.000000,4.000000,4.000000,4.000000,4.000000,4.000000,4.000000,4.000000,4.000000,4.000000,4.000000,4.000000,4.000000,4.000000,100.000000,,,,,,,,,,,,,,,,
1645711466.001193,197.000000,0.000000,4218.077148,4201.410156,4211.922852,4213.461426,4199.871582,4224.871582,4229.487305,4333.717773,4230.769043,4230.384766,4222.692383,4159.102539,4202.179688,4226.922852,2985.000000,4.000000,86.000000,,,,0.000000,4.000000,4.000000,4.000000,4.000000,4.000000,4.000000,4.000000,4.000000,4.000000,4.000000,4.000000,4.000000,4.000000,4.000000,100.000000,,,,,,,,,,,,,,,,
1645711466.005133,198.000000,0.000000,4205.897461,4202.692383,4213.717773,4217.820313,4207.436035,4232.307617,4234.615234,4336.794922,4233.461426,4238.589844,4230.384766,4165.128418,4205.641113,4225.769043,2327.000000,4.000000,86.000000,,,,0.000000,4.000000,4.000000,4.000000,4.000000,4.000000,4.000000,4.000000,4.000000,4.000000,4.000000,4.000000,4.000000,4.000000,4.000000,100.000000,,,,,,,,,,,,,,,,
1645711466.009074,199.000000,0.000000,4201.922852,4207.307617,4216.025879,4220.384766,4213.077148,4235.128418,4236.410156,4337.563965,4235.128418,4246.153809,4236.794922,4169.871582,4210.897461,4220.512695,2674.000000,4.000000,86.000000,,,,0.000000,4.000000,4.000000,4.000000,4.000000,4.000000,4.000000,4.000000,4.000000,4.000000,4.000000,4.000000,4.000000,4.000000,4.000000,100.000000,,,,,,,,,,,,,,,,
1645711466.013014,200.000000,0.000000,4212.179688,4208.333496,4216.922852,4216.153809,4210.256348,4230.641113,4233.974121,4332.820313,4233.205078,4244.487305,4234.358887,4169.230957,4212.692383,4216.025879,3279.000000,4.000000,86.000000,,,,0.000000,4.000000,4.000000,4.000000,4.000000,4.000000,4.000000,4.000000,4.000000,4.000000,4.000000,4.000000,4.000000,4.000000,4.000000,100.000000,,,,,,,,,,,,,,,,
1645711466.016954,201.000000,0.000000,4225.128418,4204.615234,4216.666504,4209.487305,4203.333496,4224.615234,4231.410156,4326.025879,4229.487305,4236.794922,4226.538574,4164.743652,4210.128418,4215.256348,2985.000000,4.000000,86.000000,,,,0.000000,4.000000,4.000000,4.000000,4.000000,4.000000,4.000000,4.000000,4.000000,4.000000,4.000000,4.000000,4.000000,4.000000,4.000000,100.000000,,,,,,,,,,,,,,,,
1645711466.020894,202.000000,0.000000,4225.000000,4200.769043,4216.794922,4207.563965,4201.025879,4224.102539,4231.666504,4323.974121,4228.077148,4232.692383,4222.563965,4160.512695,4206.538574,4216.410156,2327.000000,4.000000,86.000000,,,,0.000000,4.000000,4.000000,4.000000,4.000000,4.000000,4.000000,4.000000,4.000000,4.000000,4.000000,4.000000,4.000000,4.000000,4.000000,100.000000,,,,,,,,,,,,,,,,
1645711466.024734,203.000000,0.000000,4212.436035,4198.717773,4216.922852,4211.538574,4204.358887,4228.333496,4233.205078,4328.589844,4230.256348,4235.641113,4225.256348,4159.102539,4204.358887,4215.897461,2674.000000,4.000000,86.000000,,,,0.000000,4.000000,4.000000,4.000000,4.000000,4.000000,4.000000,4.000000,4.000000,4.000000,4.000000,4.000000,4.000000,4.000000,4.000000,100.000000,,,,,,,,,,,,,,,,
1645711466.028674,204.000000,0.000000,4203.205078,4196.666504,4215.512695,4214.871582,4205.512695,4229.743652,4232.051270,4335.256348,4232.948730,4238.846191,4228.205078,4159.615234,4202.820313,4213.846191,3279.000000,4.000000,86.000000,,,,0.000000,4.000000,4.000000,4.000000,4.000000,4.000000,4.000000,4.000000,4.000000,4.000000,4.000000,4.000000,4.000000,4.000000,4.000000,100.000000,,,,,,,,,,,,,,,,
1645711466.032614,205.000000,0.000000,4207.948730,4193.205078,4213.205078,4213.077148,4199.871582,4224.615234,4227.820313,4338.589844,4232.436035,4235.641113,4225.897461,4161.153809,4200.769043,4214.615234,2985.000000,4.000000,86.000000,,,,0.000000,4.000000,4.000000,4.000000,4.000000,4.000000,4.000000,4.000000,4.000000,4.000000,4.000000,4.000000,4.000000,4.000000,4.000000,100.000000,,,,,,,,,,,,,,,,
1645711466.036554,206.000000,0.000000,4219.743652,4192.051270,4213.461426,4209.871582,4193.717773,4218.589844,4225.128418,4337.563965,4229.615234,4229.102539,4222.179688,4165.641113,4200.769043,4220.256348,2327.000000,4.000000,86.000000,,,,0.000000,4.000000,4.000000,4.000000,4.000000,4.000000,4.000000,4.000000,4.000000,4.000000,4.000000,4.000000,4.000000,4.000000,4.000000,100.000000,,,,,,,,,,,,,,,,
1645711466.040494,207.000000,0.000000,4224.615234,4197.820313,4218.205078,4212.436035,4196.153809,4219.615234,4227.948730,4335.641113,4227.948730,4228.974121,4225.000000,4173.846191,4205.256348,4226.666504,2674.000000,4.000000,86.000000,,,,0.000000,4.000000,4.000000,4.000000,4.000000,4.000000,4.000000,4.000000,4.000000,4.000000,4.000000,4.000000,4.000000,4.000000,4.000000,100.000000,,,,,,,,,,,,,,,,
1645711466.044435,208.000000,0.000000,4219.743652,4208.717773,4225.256348,4221.153809,4206.025879,4227.051270,4233.589844,4333.974121,4228.717773,4237.179688,4235.000000,4182.692383,4212.307617,4228.205078,3279.000000,4.000000,86.000000,,,,0.000000,4.000000,4.000000,4.000000,4.000000,4.000000,4.000000,4.000000,4.000000,4.000000,4.000000,4.000000,4.000000,4.000000,4.000000,100.000000,,,,,,,,,,,,,,,,
1645711466.048375,209.000000,0.000000,4216.153809,4216.025879,4228.846191,4227.948730,4211.410156,4232.179688,4236.282227,4331.410156,4229.615234,4244.743652,4242.820313,4186.153809,4215.769043,4224.487305,2985.000000,4.000000,86.000000,,,,0.000000,4.000000,4.000000,4.000000,4.000000,4.000000,4.000000,4.000000,4.000000,4.000000,4.000000,4.000000,4.000000,4.000000,4.000000,100.000000,,,,,,,,,,,,,,,,
1645711466.052315,210.000000,0.000000,4222.307617,4214.230957,4227.307617,4226.282227,4204.358887,4228.846191,4233.461426,4326.538574,4228.077148,4242.436035,4241.153809,4182.820313,4212.179688,4221.282227,2327.000000,4.000000,86.000000,,,,0.000000,4.000000,4.000000,4.000000,4.000000,4.000000,4.000000,4.000000,4.000000,4.000000,4.000000,4.000000,4.000000,4.000000,4.000000,100.000000,,,,,,,,,,,,,,,,
1645711466.056255,211.000000,0.000000,4231.666504,4207.307617,4224.487305,4218.589844,4191.538574,4221.538574,4228.589844,4321.922852,4225.256348,4233.333496,4233.717773,4178.205078,4205.641113,4222.948730,2674.000000,4.000000,86.000000,,,,0.000000,4.000000,4.000000,4.000000,4.000000,4.000000,4.000000,4.000000,4.000000,4.000000,4.000000,4.000000,4.000000,4.000000,4.000000,100.000000,,,,,,,,,,,,,,,,
1645711466.060195,212.000000,0.000000,4232.179688,4204.358887,4225.641113,4213.846191,4187.820313,4219.102539,4226.282227,4321.410156,4224.102539,4228.589844,4230.897461,4178.846191,4203.205078,4228.077148,3279.000000,4.000000,86.000000,,,,0.000000,4.000000,4.000000,4.000000,4.000000,4.000000,4.000000,4.000000,4.000000,4.000000,4.000000,4.000000,4.000000,4.000000,4.000000,100.000000,,,,,,,,,,,,,,,,
1645711466.064135,213.000000,0.000000,4223.077148,4208.461426,4231.153809,4216.538574,4197.051270,4223.077148,4227.051270,4324.487305,4225.512695,4232.948730,4236.410156,4184.743652,4207.563965,4231.794922,2985.000000,4.000000,86.000000,,,,0.000000,4.000000,4.000000,4.000000,4.000000,4.000000,4.000000,4.000000,4.000000,4.000000,4.000000,4.000000,4.000000,4.000000,4.000000,100.000000,,,,,,,,,,,,,,,,
1645711466.068075,214.000000,0.000000,4216.794922,4213.846191,4235.897461,4221.538574,4207.948730,4225.897461,4226.794922,4326.282227,4226.153809,4238.846191,4242.436035,4189.230957,4213.717773,4231.538574,2327.000000,4.000000,86.000000,,,,0.000000,4.000000,4.000000,4.000000,4.000000,4.000000,4.000000,4.000000,4.000000,4.000000,4.000000,4.000000,4.000000,4.000000,4.000000,100.000000,,,,,,,,,,,,,,,,
1645711466.072015,215.000000,0.000000,4221.922852,4213.461426,4235.641113,4222.051270,4207.179688,4220.897461,4223.589844,4322.948730,4222.948730,4236.922852,4240.128418,4187.051270,4215.256348,4229.871582,2674.000000,4.000000,86.000000,,,,0.000000,4.000000,4.000000,4.000000,4.000000,4.000000,4.000000,4.000000,4.000000,4.000000,4.000000,4.000000,4.000000,4.000000,4.000000,100.000000,,,,,,,,,,,,,,,,
1645711466.075955,216.000000,0.000000,4231.025879,4207.948730,4231.025879,4217.948730,4195.512695,4211.666504,4220.128418,4316.794922,4218.077148,4228.974121,4230.641113,4180.000000,4212.179688,4229.230957,3279.000000,4.000000,86.000000,,,,0.000000,4.000000,4.000000,4.000000,4.000000,4.000000,4.000000,4.000000,4.000000,4.000000,4.000000,4.000000,4.000000,4.000000,4.000000,100.000000,,,,,,,,,,,,,,,,
1645711466.079796,217.000000,0.000000,4230.897461,4203.974121,4225.897461,4215.384766,4185.769043,4207.692383,4220.641113,4313.974121,4216.666504,4226.025879,4223.717773,4174.102539,4209.487305,4228.461426,2985.000000,4.000000,86.000000,,,,0.000000,4.000000,4.000000,4.000000,4.000000,4.000000,4.000000,4.000000,4.000000,4.000000,4.000000,4.000000,4.000000,4.000000,4.000000,100.000000,,,,,,,,,,,,,,,,
1645711466.083736,218.000000,0.000000,4220.128418,4205.128418,4222.948730,4217.051270,4187.307617,4212.436035,4224.615234,4317.179688,4220.769043,4233.205078,4225.384766,4172.820313,4210.512695,4225.000000,2327.000000,4.000000,86.000000,,,,0.000000,4.000000,4.000000,4.000000,4.000000,4.000000,4.000000,4.000000,4.000000,4.000000,4.000000,4.000000,4.000000,4.000000,4.000000,100.000000,,,,,,,,,,,,,,,,
1645711466.087676,219.000000,0.000000,4211.794922,4207.692383,4221.666504,4218.974121,4196.153809,4219.615234,4228.077148,4323.077148,4226.922852,4242.179688,4231.794922,4174.230957,4213.333496,4219.743652,2674.000000,4.000000,86.000000,,,,0.000000,4.000000,4.000000,4.000000,4.000000,4.000000,4.000000,4.000000,4.000000,4.000000,4.000000,4.000000,4.000000,4.000000,4.000000,100.000000,,,,,,,,,,,,,,,,
1645711466.091616,220.000000,0.000000,4216.538574,4206.666504,4220.512695,4216.666504,4201.794922,4221.538574,4228.333496,4326.282227,4230.000000,4242.307617,4234.871582,4174.615234,4213.974121,4217.179688,3279.000000,4.000000,86.000000,,,,0.000000,4.000000,4.000000,4.000000,4.000000,4.000000,4.000000,4.000000,4.000000,4.000000,4.000000,4.000000,4.000000,4.000000,4.000000,100.000000,,,,,,,,,,,,,,,,
1645711466.095556,221.000000,0.000000,4228.077148,4203.589844,4220.641113,4213.205078,4201.282227,4219.487305,4227.692383,4325.256348,4229.230957,4233.974121,4233.461426,4172.692383,4211.538574,4220.769043,2985.000000,4.000000,86.000000,,,,0.000000,4.000000,4.000000,4.000000,4.000000,4.000000,4.000000,4.000000,4.000000,4.000000,4.000000,4.000000,4.000000,4.000000,4.000000,100.000000,,,,,,,,,,,,,,,,
1645711466.099496,222.000000,0.000000,4231.153809,4204.230957,4223.461426,4215.512695,4200.384766,4220.897461,4229.743652,4323.333496,4228.205078,4227.436035,4233.333496,4170.384766,4209.358887,4227.307617,2327.000000,4.000000,86.000000,,,,0.000000,4.000000,4.000000,4.000000,4.000000,4.000000,4.000000,4.000000,4.000000,4.000000,4.000000,4.000000,4.000000,4.000000,4.000000,100.000000,,,,,,,,,,,,,,,,
1645711466.103436,223.000000,0.000000,4221.025879,4210.512695,4227.820313,4224.487305,4203.717773,4228.205078,4233.846191,4322.948730,4229.487305,4230.128418,4237.307617,4168.974121,4209.871582,4230.384766,2674.000000,4.000000,86.000000,,,,0.000000,4.000000,4.000000,4.000000,4.000000,4.000000,4.000000,4.000000,4.000000,4.000000,4.000000,4.000000,4.000000,4.000000,4.000000,100.000000,,,,,,,,,,,,,,,,
1645711466.107376,224.000000,0.000000,4210.128418,4216.666504,4230.256348,4231.794922,4207.179688,4235.256348,4236.025879,4323.461426,4231.794922,4237.436035,4241.410156,4168.077148,4211.666504,4226.794922,3279.000000,4.000000,86.000000,,,,0.000000,4.000000,4.000000,4.000000,4.000000,4.000000,4.000000,4.000000,4.000000,4.000000,4.000000,4.000000,4.000000,4.000000,4.000000,100.000000,,,,,,,,,,,,,,,,
1645711466.111316,225.000000,0.000000,4211.922852,4216.025879,4228.846191,4229.230957,4205.512695,4234.871582,4233.846191,4323.077148,4232.436035,4240.384766,4240.000000,4166.922852,4211.794922,4220.641113,2985.000000,4.000000,86.000000,,,,0.000000,4.000000,4.000000,4.000000,4.000000,4.000000,4.000000,4.000000,4.000000,4.000000,4.000000,4.000000,4.000000,4.000000,4.000000,100.000000,,,,,,,,,,,,,,,,
1645711466.115257,226.000000,0.000000,4223.717773,4210.512695,4226.282227,4219.615234,4201.538574,4229.358887,4230.384766,4322.692383,4231.538574,4238.461426,4234.615234,4167.051270,4210.128418,4217.948730,2327.000000,4.000000,86.000000,,,,0.000000,4.000000,4.000000,4.000000,4.000000,4.000000,4.000000,4.000000,4.000000,4.000000,4.000000,4.000000,4.000000,4.000000,4.000000,100.000000,,,,,,,,,,,,,,,,
1645711466.119197,227.000000,0.000000,4231.282227,4207.563965,4226.282227,4213.846191,4203.077148,4227.051270,4229.871582,4324.871582,4232.307617,4238.974121,4232.820313,4170.000000,4209.358887,4220.256348,2674.000000,4.000000,86.000000,,,,0.000000,4.000000,4.000000,4.000000,4.000000,4.000000,4.000000,4.000000,4.000000,4.000000,4.000000,4.000000,4.000000,4.000000,4.000000,100.000000,,,,,,,,,,,,,,,,
1645711466.123137,228.000000,0.000000,4227.692383,4211.025879,4229.487305,4218.461426,4211.922852,4231.666504,4232.307617,4329.358887,4235.897461,4245.128418,4237.692383,4174.487305,4210.769043,4223.846191,3279.000000,4.000000,86.000000,,,,0.000000,4.000000,4.000000,4.000000,4.000000,4.000000,4.000000,4.000000,4.000000,4.000000,4.000000,4.000000,4.000000,4.000000,4.000000,100.000000,,,,,,,,,,,,,,,,
1645711466.127077,229.000000,0.000000,4220.897461,4215.384766,4231.922852,4228.333496,4218.974121,4236.922852,4233.846191,4331.538574,4239.230957,4249.871582,4243.077148,4176.538574,4212.051270,4224.358887,2985.000000,4.000000,86.000000,,,,0.000000,4.000000,4.000000,4.000000,4.000000,4.000000,4.000000,4.000000,4.000000,4.000000,4.000000,4.000000,4.000000,4.000000,4.000000,100.000000,,,,,,,,,,,,,,,,
1645711466.131017,230.000000,0.000000,4222.436035,4213.974121,4230.128418,4233.461426,4214.358887,4235.128418,4231.794922,4327.563965,4237.948730,4245.128418,4241.025879,4174.358887,4210.641113,4222.307617,2327.000000,4.000000,86.000000,,,,0.000000,4.000000,4.000000,4.000000,4.000000,4.000000,4.000000,4.000000,4.000000,4.000000,4.000000,4.000000,4.000000,4.000000,4.000000,100.000000,,,,,,,,,,,,,,,,
1645711466.134957,231.000000,0.000000,4230.256348,4208.461426,4225.641113,4231.025879,4201.794922,4227.820313,4228.974121,4319.871582,4232.307617,4233.461426,4233.205078,4170.641113,4207.692383,4221.025879,2674.000000,4.000000,86.000000,,,,0.000000,4.000000,4.000000,4.000000,4.000000,4.000000,4.000000,4.000000,4.000000,4.000000,4.000000,4.000000,4.000000,4.000000,4.000000,100.000000,,,,,,,,,,,,,,,,
1645711466.138897,232.000000,0.000000,4232.179688,4207.307617,4223.461426,4227.179688,4195.641113,4223.974121,4229.871582,4315.000000,4227.307617,4226.538574,4228.717773,4170.128418,4207.563965,4222.051270,3279.000000,4.000000,86.000000,,,,0.000000,4.000000,4.000000,4.000000,4.000000,4.000000,4.000000,4.000000,4.000000,4.000000,4.000000,4.000000,4.000000,4.000000,4.000000,100.000000,,,,,,,,,,,,,,,,
1645711466.142737,233.000000,0.000000,4223.205078,4215.000000,4225.769043,4227.307617,4204.102539,4228.846191,4234.358887,4315.512695,4227.436035,4231.410156,4232.307617,4173.205078,4211.794922,4223.333496,2985.000000,4.000000,86.000000,,,,0.000000,4.000000,4.000000,4.000000,4.000000,4.000000,4.000000,4.000000,4.000000,4.000000,4.000000,4.000000,4.000000,4.000000,4.000000,100.000000,,,,,,,,,,,,,,,,
1645711466.146678,234.000000,0.000000,4213.589844,4224.871582,4229.615234,4228.974121,4218.846191,4236.922852,4237.307617,4317.051270,4231.282227,4241.538574,4237.179688,4175.256348,4216.153809,4222.563965,2327.000000,4.000000,86.000000,,,,0.000000,4.000000,4.000000,4.000000,4.000000,4.000000,4.000000,4.000000,4.000000,4.000000,4.000000,4.000000,4.000000,4.000000,4.000000,100.000000,,,,,,,,,,,,,,,,
1645711466.150618,235.000000,0.000000,4215.897461,4226.410156,4230.512695,4226.538574,4224.871582,4238.717773,4234.743652,4313.077148,4233.205078,4244.102539,4233.717773,4172.051270,4215.769043,4220.641113,2674.000000,4.000000,86.000000,,,,0.000000,4.000000,4.000000,4.000000,4.000000,4.000000,4.000000,4.000000,4.000000,4.000000,4.000000,4.000000,4.000000,4.000000,4.000000,100.000000,,,,,,,,,,,,,,,,
1645711466.154558,236.000000,0.000000,4227.563965,4218.077148,4227.820313,4220.512695,4217.563965,4232.692383,4228.333496,4303.333496,4230.256348,4235.256348,4222.692383,4165.128418,4210.641113,4220.769043,3279.000000,4.000000,86.000000,,,,0.000000,4.000000,4.000000,4.000000,4.000000,4.000000,4.000000,4.000000,4.000000,4.000000,4.000000,4.000000,4.000000,4.000000,4.000000,100.000000,,,,,,,,,,,,,,,,
1645711466.158498,237.000000,0.000000,4234.102539,4208.846191,4225.000000,4217.692383,4207.051270,4226.153809,4223.717773,4294.358887,4225.641113,4223.974121,4215.384766,4160.384766,4206.922852,4223.077148,2985.000000,4.000000,86.000000,,,,0.000000,4.000000,4.000000,4.000000,4.000000,4.000000,4.000000,4.000000,4.000000,4.000000,4.000000,4.000000,4.000000,4.000000,4.000000,100.000000,,,,,,,,,,,,,,,,
1645711466.162438,238.000000,0.000000,4227.307617,4207.820313,4224.615234,4221.922852,4204.230957,4225.769043,4222.948730,4292.307617,4223.846191,4220.641113,4220.384766,4161.410156,4208.589844,4223.589844,2327.000000,4.000000,86.000000,,,,0.000000,4.000000,4.000000,4.000000,4.000000,4.000000,4.000000,4.000000,4.000000,4.000000,4.000000,4.000000,4.000000,4.000000,4.000000,100.000000,,,,,,,,,,,,,,,,
1645711466.166378,239.000000,0.000000,4215.897461,4214.102539,4225.512695,4228.461426,4208.205078,4229.230957,4223.333496,4296.538574,4225.641113,4225.256348,4232.179688,4165.512695,4213.333496,4219.230957,2674.000000,4.000000,86.000000,,,,0.000000,4.000000,4.000000,4.000000,4.000000,4.000000,4.000000,4.000000,4.000000,4.000000,4.000000,4.000000,4.000000,4.000000,4.000000,100.000000,,,,,,,,,,,,,,,,
