title:Alex-FAjcXhEkWLgKujchQ-9acA, start timestamp:1645709789.353788, stop timestamp:1645709815.155692, headset type:EPOCPLUS, headset serial:3B9AEBFF, headset firmware:626, channels:55, sampling rate:eeg_256, samples:6550      , version:2.1, 
Timestamp,EEG.Counter,EEG.Interpolated,EEG.AF3,EEG.F7,EEG.F3,EEG.FC5,EEG.T7,EEG.P7,EEG.O1,EEG.O2,EEG.P8,EEG.T8,EEG.FC6,EEG.F4,EEG.F8,EEG.AF4,EEG.RawCq,EEG.Battery,EEG.BatteryPercent,MarkerIndex,MarkerType,MarkerValueInt,EEG.MarkerHardware,CQ.AF3,CQ.F7,CQ.F3,CQ.FC5,CQ.T7,CQ.P7,CQ.O1,CQ.O2,CQ.P8,CQ.T8,CQ.FC6,CQ.F4,CQ.F8,CQ.AF4,CQ.Overall,EQ.SampleRateQuality,EQ.OVERALL,EQ.AF3,EQ.F7,EQ.F3,EQ.FC5,EQ.T7,EQ.P7,EQ.O1,EQ.O2,EQ.P8,EQ.T8,EQ.FC6,EQ.F4,EQ.F8,EQ.AF4
1645709789.353788,6.000000,0.000000,4220.769043,4229.358887,4218.077148,4235.897461,4236.025879,4240.769043,4237.563965,4227.307617,4223.077148,4230.512695,4219.230957,4173.846191,4227.436035,4226.153809,3433.000000,4.000000,91.000000,,,,0.000000,4.000000,4.000000,4.000000,4.000000,4.000000,4.000000,4.000000,4.000000,4.000000,4.000000,4.000000,4.000000,4.000000,4.000000,100.000000,,,,,,,,,,,,,,,,
1645709789.357628,7.000000,0.000000,4218.717773,4226.794922,4217.948730,4234.487305,4236.025879,4239.102539,4237.820313,4225.512695,4224.487305,4231.922852,4220.897461,4175.128418,4226.794922,4226.025879,2602.000000,4.000000,91.000000,,,,0.000000,4.000000,4.000000,4.000000,4.000000,4.000000,4.000000,4.000000,4.000000,4.000000,4.000000,4.000000,4.000000,4.000000,4.000000,100.000000,,,,,,,,,,,,,,,,
1645709789.361568,8.000000,0.000000,4216.922852,4227.179688,4219.358887,4233.589844,4236.025879,4237.692383,4236.666504,4222.820313,4224.487305,4233.461426,4223.077148,4177.307617,4226.538574,4225.000000,1479.000000,4.000000,91.000000,,,,0.000000,4.000000,4.000000,4.000000,4.000000,4.000000,4.000000,4.000000,4.000000,4.000000,4.000000,4.000000,4.000000,4.000000,4.000000,100.000000,,,,,,,,,,,,,,,,
1645709789.365509,9.000000,0.000000,4218.461426,4229.743652,4223.461426,4233.846191,4235.256348,4236.153809,4235.128418,4222.307617,4223.333496,4234.230957,4225.256348,4180.256348,4227.051270,4224.615234,3207.000000,4.000000,91.000000,,,,0.000000,4.000000,4.000000,4.000000,4.000000,4.000000,4.000000,4.000000,4.000000,4.000000,4.000000,4.000000,4.000000,4.000000,4.000000,100.000000,,,,,,,,,,,,,,,,
1645709789.369449,10.000000,0.000000,4223.333496,4232.563965,4229.230957,4235.384766,4234.230957,4235.128418,4235.000000,4225.128418,4221.922852,4234.358887,4226.922852,4183.461426,4228.589844,4226.282227,2432.000000,4.000000,91.000000,,,,0.000000,4.000000,4.000000,4.000000,4.000000,4.000000,4.000000,4.000000,4.000000,4.000000,4.000000,4.000000,4.000000,4.000000,4.000000,100.000000,,,,,,,,,,,,,,,,
1645709789.373390,11.000000,0.000000,4227.820313,4234.102539,4234.230957,4237.179688,4233.846191,4235.128418,4236.794922,4230.000000,4221.282227,4235.128418,4228.589844,4186.025879,4231.153809,4229.871582,3092.000000,4.000000,91.000000,,,,0.000000,4.000000,4.000000,4.000000,4.000000,4.000000,4.000000,4.000000,4.000000,4.000000,4.000000,4.000000,4.000000,4.000000,4.000000,100.000000,,,,,,,,,,,,,,,,
1645709789.377330,12.000000,0.000000,4228.077148,4233.461426,4236.153809,4237.563965,4233.974121,4236.538574,4238.974121,4233.846191,4221.538574,4237.436035,4230.128418,4187.051270,4233.846191,4233.333496,3561.000000,4.000000,91.000000,,,,0.000000,4.000000,4.000000,4.000000,4.000000,4.000000,4.000000,4.000000,4.000000,4.000000,4.000000,4.000000,4.000000,4.000000,4.000000,100.000000,,,,,,,,,,,,,,,,
1645709789.381270,13.000000,0.000000,4224.230957,4230.897461,4234.358887,4234.871582,4233.205078,4237.948730,4239.743652,4234.615234,4222.051270,4239.358887,4230.897461,4185.769043,4234.615234,4234.102539,3228.000000,4.000000,91.000000,,,,0.000000,4.000000,4.000000,4.000000,4.000000,4.000000,4.000000,4.000000,4.000000,4.000000,4.000000,4.000000,4.000000,4.000000,4.000000,100.000000,,,,,,,,,,,,,,,,
1645709789.385211,14.000000,0.000000,4219.743652,4227.436035,4230.641113,4229.615234,4230.897461,4237.820313,4238.077148,4232.692383,4221.666504,4238.846191,4229.743652,4182.820313,4232.179688,4231.153809,2432.000000,4.000000,91.000000,,,,0.000000,4.000000,4.000000,4.000000,4.000000,4.000000,4.000000,4.000000,4.000000,4.000000,4.000000,4.000000,4.000000,4.000000,4.000000,100.000000,,,,,,,,,,,,,,,,
1645709789.389151,15.000000,0.000000,4218.077148,4225.641113,4227.179688,4225.128418,4228.461426,4236.666504,4235.897461,4230.384766,4220.384766,4235.641113,4227.563965,4179.871582,4227.563965,4225.641113,3092.000000,4.000000,91.000000,,,,0.000000,4.000000,4.000000,4.000000,4.000000,4.000000,4.000000,4.000000,4.000000,4.000000,4.000000,4.000000,4.000000,4.000000,4.000000,100.000000,,,,,,,,,,,,,,,,
1645709789.393091,16.000000,0.000000,4219.871582,4227.307617,4225.897461,4225.641113,4228.717773,4236.666504,4235.512695,4230.000000,4220.000000,4233.333496,4227.563965,4179.230957,4224.487305,4221.538574,3561.000000,4.000000,91.000000,,,,0.000000,4.000000,4.000000,4.000000,4.000000,4.000000,4.000000,4.000000,4.000000,4.000000,4.000000,4.000000,4.000000,4.000000,4.000000,100.000000,,,,,,,,,,,,,,,,
1645709789.397032,17.000000,0.000000,4223.717773,4232.563965,4227.692383,4231.410156,4233.461426,4239.358887,4238.077148,4232.307617,4221.794922,4235.000000,4231.282227,4181.410156,4225.641113,4222.307617,3228.000000,4.000000,91.000000,,,,0.000000,4.000000,4.000000,4.000000,4.000000,4.000000,4.000000,4.000000,4.000000,4.000000,4.000000,4.000000,4.000000,4.000000,4.000000,100.000000,,,,,,,,,,,,,,,,
1645709789.400972,18.000000,0.000000,4227.820313,4238.461426,4232.307617,4238.205078,4240.512695,4243.461426,4241.410156,4235.512695,4225.128418,4240.384766,4237.179688,4184.358887,4230.256348,4228.205078,2432.000000,4.000000,91.000000,,,,0.000000,4.000000,4.000000,4.000000,4.000000,4.000000,4.000000,4.000000,4.000000,4.000000,4.000000,4.000000,4.000000,4.000000,4.000000,100.000000,,,,,,,,,,,,,,,,
1645709789.404912,19.000000,0.000000,4231.153809,4240.897461,4236.794922,4240.256348,4245.256348,4245.769043,4242.436035,4236.666504,4227.692383,4245.384766,4240.897461,4185.256348,4234.615234,4235.512695,3092.000000,4.000000,91.000000,,,,0.000000,4.000000,4.000000,4.000000,4.000000,4.000000,4.000000,4.000000,4.000000,4.000000,4.000000,4.000000,4.000000,4.000000,4.000000,100.000000,,,,,,,,,,,,,,,,
1645709789.408853,20.000000,0.000000,4231.794922,4238.717773,4237.563965,4236.282227,4245.000000,4243.974121,4239.743652,4234.102539,4227.307617,4246.153809,4239.487305,4182.820313,4235.384766,4239.358887,3561.000000,4.000000,91.000000,,,,0.000000,4.000000,4.000000,4.000000,4.000000,4.000000,4.000000,4.000000,4.000000,4.000000,4.000000,4.000000,4.000000,4.000000,4.000000,100.000000,,,,,,,,,,,,,,,,
1645709789.412793,21.000000,0.000000,4228.333496,4234.102539,4233.333496,4230.000000,4240.512695,4239.487305,4235.000000,4228.846191,4224.743652,4242.436035,4233.974121,4178.205078,4232.820313,4236.922852,3228.000000,4.000000,91.000000,,,,0.000000,4.000000,4.000000,4.000000,4.000000,4.000000,4.000000,4.000000,4.000000,4.000000,4.000000,4.000000,4.000000,4.000000,4.000000,100.000000,,,,,,,,,,,,,,,,
1645709789.416733,22.000000,0.000000,4221.666504,4230.512695,4226.153809,4226.794922,4235.512695,4235.897461,4231.282227,4224.102539,4222.436035,4237.307617,4228.077148,4174.487305,4229.871582,4230.256348,2432.000000,4.000000,91.000000,,,,0.000000,4.000000,4.000000,4.000000,4.000000,4.000000,4.000000,4.000000,4.000000,4.000000,4.000000,4.000000,4.000000,4.000000,4.000000,100.000000,,,,,,,,,,,,,,,,
1645709789.420774,23.000000,0.000000,4216.410156,4229.487305,4220.000000,4228.077148,4232.692383,4235.641113,4230.512695,4222.692383,4222.179688,4234.230957,4224.871582,4173.589844,4228.974121,4223.974121,3092.000000,4.000000,91.000000,,,,0.000000,4.000000,4.000000,4.000000,4.000000,4.000000,4.000000,4.000000,4.000000,4.000000,4.000000,4.000000,4.000000,4.000000,4.000000,100.000000,,,,,,,,,,,,,,,,
1645709789.424714,24.000000,0.000000,4216.410156,4230.256348,4217.563965,4231.666504,4232.436035,4237.820313,4231.794922,4224.615234,4223.974121,4234.102539,4224.871582,4175.000000,4230.769043,4222.051270,3561.000000,4.000000,91.000000,,,,0.000000,4.000000,4.000000,4.000000,4.000000,4.000000,4.000000,4.000000,4.000000,4.000000,4.000000,4.000000,4.000000,4.000000,4.000000,100.000000,,,,,,,,,,,,,,,,
1645709789.428654,25.000000,0.000000,4221.282227,4231.282227,4219.102539,4234.230957,4233.589844,4240.000000,4233.333496,4227.307617,4226.282227,4236.153809,4227.307617,4177.179688,4233.589844,4224.102539,3228.000000,4.000000,91.000000,,,,0.000000,4.000000,4.000000,4.000000,4.000000,4.000000,4.000000,4.000000,4.000000,4.000000,4.000000,4.000000,4.000000,4.000000,4.000000,100.000000,,,,,,,,,,,,,,,,
1645709789.432595,26.000000,0.000000,4226.025879,4232.051270,4222.436035,4234.230957,4235.128418,4240.512695,4233.333496,4228.589844,4227.436035,4238.974121,4230.769043,4178.589844,4235.256348,4226.922852,2432.000000,4.000000,91.000000,,,,0.000000,4.000000,4.000000,4.000000,4.000000,4.000000,4.000000,4.000000,4.000000,4.000000,4.000000,4.000000,4.000000,4.000000,4.000000,100.000000,,,,,,,,,,,,,,,,
1645709789.436535,27.000000,0.000000,4225.769043,4232.051270,4225.000000,4232.179688,4236.282227,4238.974121,4231.538574,4228.077148,4226.666504,4241.410156,4233.846191,4178.974121,4234.487305,4226.538574,3092.000000,4.000000,91.000000,,,,0.000000,4.000000,4.000000,4.000000,4.000000,4.000000,4.000000,4.000000,4.000000,4.000000,4.000000,4.000000,4.000000,4.000000,4.000000,100.000000,,,,,,,,,,,,,,,,
1645709789.440475,28.000000,0.000000,4220.769043,4231.025879,4225.384766,4228.589844,4235.897461,4235.641113,4228.461426,4226.922852,4224.487305,4241.794922,4234.487305,4178.077148,4231.410156,4222.179688,3561.000000,4.000000,91.000000,,,,0.000000,4.000000,4.000000,4.000000,4.000000,4.000000,4.000000,4.000000,4.000000,4.000000,4.000000,4.000000,4.000000,4.000000,4.000000,100.000000,,,,,,,,,,,,,,,,
1645709789.444416,29.000000,0.000000,4215.512695,4228.717773,4223.974121,4224.358887,4233.077148,4231.153809,4225.000000,4225.769043,4222.436035,4239.487305,4232.051270,4176.282227,4227.563965,4217.051270,3228.000000,4.000000,91.000000,,,,0.000000,4.000000,4.000000,4.000000,4.000000,4.000000,4.000000,4.000000,4.000000,4.000000,4.000000,4.000000,4.000000,4.000000,4.000000,100.000000,,,,,,,,,,,,,,,,
1645709789.448356,30.000000,0.000000,4214.230957,4225.897461,4222.820313,4221.410156,4228.205078,4226.794922,4222.820313,4225.512695,4221.410156,4235.769043,4228.461426,4174.871582,4225.384766,4215.384766,2432.000000,4.000000,91.000000,,,,0.000000,4.000000,4.000000,4.000000,4.000000,4.000000,4.000000,4.000000,4.000000,4.000000,4.000000,4.000000,4.000000,4.000000,4.000000,100.000000,,,,,,,,,,,,,,,,
1645709789.452296,31.000000,0.000000,4216.410156,4224.102539,4223.589844,4221.794922,4224.487305,4224.615234,4222.820313,4226.153809,4222.179688,4233.589844,4226.794922,4175.128418,4225.769043,4218.205078,3092.000000,4.000000,91.000000,,,,0.000000,4.000000,4.000000,4.000000,4.000000,4.000000,4.000000,4.000000,4.000000,4.000000,4.000000,4.000000,4.000000,4.000000,4.000000,100.000000,,,,,,,,,,,,,,,,
1645709789.456237,32.000000,0.000000,4219.358887,4224.102539,4225.769043,4225.512695,4223.717773,4225.128418,4224.615234,4227.563965,4223.846191,4234.230957,4228.846191,4177.948730,4227.563965,4222.692383,0.000000,4.000000,91.000000,,,,0.000000,4.000000,4.000000,4.000000,4.000000,4.000000,4.000000,4.000000,4.000000,4.000000,4.000000,4.000000,4.000000,4.000000,4.000000,100.000000,,,,,,,,,,,,,,,,
1645709789.460177,33.000000,0.000000,4220.769043,4224.871582,4227.692383,4229.102539,4225.384766,4226.538574,4225.641113,4228.333496,4224.871582,4236.410156,4232.820313,4182.051270,4228.077148,4224.102539,0.000000,4.000000,91.000000,,,,0.000000,4.000000,4.000000,4.000000,4.000000,4.000000,4.000000,4.000000,4.000000,4.000000,4.000000,4.000000,4.000000,4.000000,4.000000,100.000000,,,,,,,,,,,,,,,,
1645709789.464117,34.000000,0.000000,4221.410156,4224.871582,4228.077148,4228.974121,4226.282227,4226.538574,4224.615234,4226.794922,4224.102539,4236.410156,4234.487305,4185.128418,4225.512695,4220.897461,0.000000,4.000000,91.000000,,,,0.000000,4.000000,4.000000,4.000000,4.000000,4.000000,4.000000,4.000000,4.000000,4.000000,4.000000,4.000000,4.000000,4.000000,4.000000,100.000000,,,,,,,,,,,,,,,,
1645709789.468058,35.000000,0.000000,4222.179688,4223.589844,4227.436035,4224.102539,4224.743652,4224.871582,4222.436035,4222.820313,4221.922852,4233.077148,4232.179688,4185.512695,4221.153809,4215.384766,0.000000,4.000000,91.000000,,,,0.000000,4.000000,4.000000,4.000000,4.000000,4.000000,4.000000,4.000000,4.000000,4.000000,4.000000,4.000000,4.000000,4.000000,4.000000,100.000000,,,,,,,,,,,,,,,,
1645709789.471998,36.000000,0.000000,4222.436035,4222.563965,4227.179688,4217.948730,4222.179688,4223.077148,4221.282227,4219.102539,4220.256348,4228.589844,4227.820313,4183.974121,4218.461426,4211.794922,0.000000,4.000000,91.000000,,,,0.000000,4.000000,4.000000,4.000000,4.000000,4.000000,4.000000,4.000000,4.000000,4.000000,4.000000,4.000000,4.000000,4.000000,4.000000,100.000000,,,,,,,,,,,,,,,,
1645709789.475938,37.000000,0.000000,4221.153809,4222.948730,4228.205078,4214.871582,4221.538574,4222.948730,4222.436035,4218.461426,4221.025879,4226.410156,4225.128418,4182.179688,4219.743652,4212.307617,0.000000,4.000000,91.000000,,,,0.000000,4.000000,4.000000,4.000000,4.000000,4.000000,4.000000,4.000000,4.000000,4.000000,4.000000,4.000000,4.000000,4.000000,4.000000,100.000000,,,,,,,,,,,,,,,,
1645709789.479879,38.000000,0.000000,4219.487305,4223.974121,4229.743652,4217.436035,4223.589844,4224.230957,4224.102539,4221.410156,4224.102539,4227.692383,4225.000000,4181.794922,4223.974121,4215.000000,0.000000,4.000000,91.000000,,,,0.000000,4.000000,4.000000,4.000000,4.000000,4.000000,4.000000,4.000000,4.000000,4.000000,4.000000,4.000000,4.000000,4.000000,4.000000,100.000000,,,,,,,,,,,,,,,,
1645709789.483819,39.000000,0.000000,4219.358887,4224.743652,4230.769043,4223.846191,4226.025879,4224.871582,4224.358887,4225.512695,4227.436035,4230.384766,4225.897461,4182.692383,4227.307617,4216.794922,0.000000,4.000000,91.000000,,,,0.000000,4.000000,4.000000,4.000000,4.000000,4.000000,4.000000,4.000000,4.000000,4.000000,4.000000,4.000000,4.000000,4.000000,4.000000,100.000000,,,,,,,,,,,,,,,,
1645709789.487759,40.000000,0.000000,4221.538574,4224.871582,4230.769043,4230.128418,4226.410156,4223.717773,4223.077148,4228.077148,4228.717773,4231.794922,4226.153809,4184.230957,4227.307617,4216.666504,0.000000,4.000000,91.000000,,,,0.000000,4.000000,4.000000,4.000000,4.000000,4.000000,4.000000,4.000000,4.000000,4.000000,4.000000,4.000000,4.000000,4.000000,4.000000,100.000000,,,,,,,,,,,,,,,,
1645709789.491800,41.000000,0.000000,4223.846191,4225.641113,4231.282227,4232.820313,4225.000000,4222.692383,4222.307617,4227.948730,4227.307617,4231.794922,4226.410156,4185.897461,4224.743652,4216.282227,0.000000,4.000000,91.000000,,,,0.000000,4.000000,4.000000,4.000000,4.000000,4.000000,4.000000,4.000000,4.000000,4.000000,4.000000,4.000000,4.000000,4.000000,4.000000,100.000000,,,,,,,,,,,,,,,,
1645709789.495740,42.000000,0.000000,4223.974121,4227.948730,4232.436035,4231.410156,4224.102539,4224.358887,4223.461426,4225.641113,4224.871582,4232.179688,4228.333496,4187.948730,4223.205078,4217.692383,0.000000,4.000000,91.000000,,,,0.000000,4.000000,4.000000,4.000000,4.000000,4.000000,4.000000,4.000000,4.000000,4.000000,4.000000,4.000000,4.000000,4.000000,4.000000,100.000000,,,,,,,,,,,,,,,,
1645709789.499680,43.000000,0.000000,4221.666504,4231.025879,4233.205078,4227.436035,4225.512695,4228.974121,4226.794922,4223.077148,4223.077148,4233.589844,4231.794922,4190.256348,4225.128418,4221.282227,0.000000,4.000000,91.000000,,,,0.000000,4.000000,4.000000,4.000000,4.000000,4.000000,4.000000,4.000000,4.000000,4.000000,4.000000,4.000000,4.000000,4.000000,4.000000,100.000000,,,,,,,,,,,,,,,,
1645709789.503621,44.000000,0.000000,4219.615234,4232.563965,4232.179688,4222.948730,4228.077148,4234.102539,4231.410156,4222.051270,4222.307617,4235.256348,4234.358887,4191.666504,4229.871582,4224.743652,0.000000,4.000000,91.000000,,,,0.000000,4.000000,4.000000,4.000000,4.000000,4.000000,4.000000,4.000000,4.000000,4.000000,4.000000,4.000000,4.000000,4.000000,4.000000,100.000000,1.000000,91.666664,4.000000,4.000000,4.000000,4.000000,4.000000,4.000000,4.000000,4.000000,3.000000,4.000000,4.000000,4.000000,4.000000,4.000000
1645709789.507561,45.000000,0.000000,4219.743652,4231.666504,4230.384766,4220.000000,4230.256348,4237.436035,4236.025879,4223.974121,4222.179688,4236.153809,4234.358887,4191.410156,4234.358887,4225.641113,0.000000,4.000000,91.000000,,,,0.000000,4.000000,4.000000,4.000000,4.000000,4.000000,4.000000,4.000000,4.000000,4.000000,4.000000,4.000000,4.000000,4.000000,4.000000,100.000000,,,,,,,,,,,,,,,,
1645709789.511501,46.000000,0.000000,4221.410156,4230.512695,4230.256348,4220.512695,4231.922852,4239.102539,4239.358887,4228.589844,4222.820313,4237.051270,4232.948730,4190.641113,4236.538574,4224.230957,0.000000,4.000000,91.000000,,,,0.000000,4.000000,4.000000,4.000000,4.000000,4.000000,4.000000,4.000000,4.000000,4.000000,4.000000,4.000000,4.000000,4.000000,4.000000,100.000000,,,,,,,,,,,,,,,,
1645709789.515442,47.000000,0.000000,4222.820313,4232.051270,4233.077148,4225.384766,4234.230957,4240.384766,4240.256348,4233.589844,4224.615234,4239.743652,4232.948730,4191.410156,4236.922852,4222.307617,0.000000,4.000000,91.000000,,,,0.000000,4.000000,4.000000,4.000000,4.000000,4.000000,4.000000,4.000000,4.000000,4.000000,4.000000,4.000000,4.000000,4.000000,4.000000,100.000000,,,,,,,,,,,,,,,,
1645709789.519382,48.000000,0.000000,4223.333496,4237.179688,4237.436035,4232.563965,4237.436035,4241.153809,4238.077148,4236.153809,4226.922852,4244.358887,4235.769043,4194.358887,4237.051270,4221.538574,0.000000,4.000000,91.000000,,,,0.000000,4.000000,4.000000,4.000000,4.000000,4.000000,4.000000,4.000000,4.000000,4.000000,4.000000,4.000000,4.000000,4.000000,4.000000,100.000000,,,,,,,,,,,,,,,,
1645709789.523322,49.000000,0.000000,4224.487305,4242.948730,4241.410156,4238.333496,4239.487305,4240.384766,4233.589844,4234.230957,4228.205078,4248.333496,4239.615234,4197.563965,4237.436035,4221.922852,0.000000,4.000000,91.000000,,,,0.000000,4.000000,4.000000,4.000000,4.000000,4.000000,4.000000,4.000000,4.000000,4.000000,4.000000,4.000000,4.000000,4.000000,4.000000,100.000000,,,,,,,,,,,,,,,,
1645709789.527263,50.000000,0.000000,4226.922852,4244.487305,4242.820313,4239.487305,4238.717773,4237.179688,4228.589844,4228.974121,4226.922852,4248.333496,4241.410156,4197.948730,4237.436035,4222.051270,0.000000,4.000000,91.000000,,,,0.000000,4.000000,4.000000,4.000000,4.000000,4.000000,4.000000,4.000000,4.000000,4.000000,4.000000,4.000000,4.000000,4.000000,4.000000,100.000000,,,,,,,,,,,,,,,,
1645709789.531203,51.000000,0.000000,4228.589844,4239.743652,4240.512695,4235.256348,4234.871582,4232.692383,4225.128418,4223.205078,4223.846191,4243.846191,4239.102539,4193.846191,4236.410156,4220.897461,0.000000,4.000000,91.000000,,,,0.000000,4.000000,4.000000,4.000000,4.000000,4.000000,4.000000,4.000000,4.000000,4.000000,4.000000,4.000000,4.000000,4.000000,4.000000,100.000000,,,,,,,,,,,,,,,,
1645709789.535143,52.000000,0.000000,4226.410156,4231.025879,4235.128418,4227.563965,4230.000000,4229.102539,4223.333496,4219.487305,4221.282227,4238.077148,4234.358887,4187.179688,4234.615234,4219.102539,0.000000,4.000000,91.000000,,,,0.000000,4.000000,4.000000,4.000000,4.000000,4.000000,4.000000,4.000000,4.000000,4.000000,4.000000,4.000000,4.000000,4.000000,4.000000,100.000000,,,,,,,,,,,,,,,,
1645709789.539084,53.000000,0.000000,4221.025879,4223.205078,4228.974121,4220.000000,4226.025879,4227.436035,4222.436035,4218.589844,4220.769043,4234.871582,4230.256348,4181.538574,4232.948730,4218.461426,0.000000,4.000000,91.000000,,,,0.000000,4.000000,4.000000,4.000000,4.000000,4.000000,4.000000,4.000000,4.000000,4.000000,4.000000,4.000000,4.000000,4.000000,4.000000,100.000000,,,,,,,,,,,,,,,,
1645709789.543024,54.000000,0.000000,4216.153809,4219.230957,4224.871582,4215.000000,4224.230957,4227.307617,4221.666504,4219.358887,4221.794922,4235.897461,4229.230957,4179.615234,4232.307617,4219.743652,0.000000,4.000000,91.000000,,,,0.000000,4.000000,4.000000,4.000000,4.000000,4.000000,4.000000,4.000000,4.000000,4.000000,4.000000,4.000000,4.000000,4.000000,4.000000,100.000000,,,,,,,,,,,,,,,,
1645709789.546964,55.000000,0.000000,4215.512695,4219.743652,4224.743652,4213.974121,4224.871582,4227.820313,4220.897461,4220.897461,4222.563965,4239.358887,4231.410156,4181.666504,4233.077148,4221.666504,0.000000,4.000000,91.000000,,,,0.000000,4.000000,4.000000,4.000000,4.000000,4.000000,4.000000,4.000000,4.000000,4.000000,4.000000,4.000000,4.000000,4.000000,4.000000,100.000000,,,,,,,,,,,,,,,,
1645709789.550905,56.000000,0.000000,4218.589844,4222.820313,4227.948730,4216.410156,4228.077148,4228.846191,4221.025879,4222.563965,4221.922852,4242.948730,4235.512695,4186.025879,4235.128418,4222.179688,0.000000,4.000000,91.000000,,,,0.000000,4.000000,4.000000,4.000000,4.000000,4.000000,4.000000,4.000000,4.000000,4.000000,4.000000,4.000000,4.000000,4.000000,4.000000,100.000000,,,,,,,,,,,,,,,,
1645709789.554845,57.000000,0.000000,4222.051270,4226.410156,4232.051270,4220.512695,4232.436035,4230.641113,4222.051270,4224.230957,4220.384766,4244.743652,4239.487305,4189.743652,4238.077148,4220.512695,0.000000,4.000000,91.000000,,,,0.000000,4.000000,4.000000,4.000000,4.000000,4.000000,4.000000,4.000000,4.000000,4.000000,4.000000,4.000000,4.000000,4.000000,4.000000,100.000000,,,,,,,,,,,,,,,,
1645709789.558785,58.000000,0.000000,4223.333496,4228.333496,4234.230957,4223.333496,4235.512695,4232.563965,4223.077148,4225.384766,4219.102539,4244.487305,4241.410156,4190.512695,4240.641113,4217.307617,0.000000,4.000000,91.000000,,,,0.000000,4.000000,4.000000,4.000000,4.000000,4.000000,4.000000,4.000000,4.000000,4.000000,4.000000,4.000000,4.000000,4.000000,4.000000,100.000000,,,,,,,,,,,,,,,,
1645709789.562726,59.000000,0.000000,4222.820313,4227.692383,4233.461426,4221.922852,4234.743652,4233.205078,4222.948730,4225.769043,4219.230957,4242.563965,4240.000000,4187.563965,4241.410156,4214.871582,0.000000,4.000000,91.000000,,,,0.000000,4.000000,4.000000,4.000000,4.000000,4.000000,4.000000,4.000000,4.000000,4.000000,4.000000,4.000000,4.000000,4.000000,4.000000,100.000000,,,,,,,,,,,,,,,,
1645709789.566566,60.000000,0.000000,4222.692383,4225.384766,4230.512695,4217.051270,4230.256348,4231.538574,4222.307617,4226.025879,4220.512695,4239.871582,4235.641113,4182.948730,4240.128418,4214.871582,0.000000,4.000000,91.000000,,,,0.000000,4.000000,4.000000,4.000000,4.000000,4.000000,4.000000,4.000000,4.000000,4.000000,4.000000,4.000000,4.000000,4.000000,4.000000,100.000000,,,,,,,,,,,,,,,,
1645709789.570507,61.000000,0.000000,4222.948730,4223.589844,4227.692383,4212.307617,4225.512695,4229.230957,4222.436035,4227.307617,4222.307617,4238.461426,4230.897461,4180.128418,4238.077148,4217.948730,0.000000,4.000000,91.000000,,,,0.000000,4.000000,4.000000,4.000000,4.000000,4.000000,4.000000,4.000000,4.000000,4.000000,4.000000,4.000000,4.000000,4.000000,4.000000,100.000000,,,,,,,,,,,,,,,,
1645709789.574447,62.000000,0.000000,4222.436035,4223.974121,4226.282227,4211.922852,4224.487305,4228.974121,4224.487305,4229.743652,4224.230957,4239.358887,4229.358887,4181.666504,4237.051270,4222.563965,0.000000,4.000000,91.000000,,,,0.000000,4.000000,4.000000,4.000000,4.000000,4.000000,4.000000,4.000000,4.000000,4.000000,4.000000,4.000000,4.000000,4.000000,4.000000,100.000000,,,,,,,,,,,,,,,,
1645709789.578387,63.000000,0.000000,4220.897461,4225.769043,4226.666504,4216.538574,4227.820313,4231.025879,4228.205078,4232.051270,4225.384766,4241.922852,4231.922852,4186.666504,4237.948730,4226.538574,0.000000,4.000000,91.000000,,,,0.000000,4.000000,4.000000,4.000000,4.000000,4.000000,4.000000,4.000000,4.000000,4.000000,4.000000,4.000000,4.000000,4.000000,4.000000,100.000000,,,,,,,,,,,,,,,,
1645709789.582328,64.000000,0.000000,4220.128418,4226.538574,4227.948730,4222.436035,4231.153809,4233.461426,4231.410156,4232.436035,4224.743652,4243.205078,4235.897461,4191.153809,4239.358887,4227.307617,0.000000,4.000000,91.000000,,,,0.000000,4.000000,4.000000,4.000000,4.000000,4.000000,4.000000,4.000000,4.000000,4.000000,4.000000,4.000000,4.000000,4.000000,4.000000,100.000000,,,,,,,,,,,,,,,,
1645709789.586268,65.000000,0.000000,4221.922852,4224.615234,4229.358887,4225.256348,4230.641113,4233.333496,4231.666504,4229.487305,4222.307617,4241.153809,4237.179688,4191.794922,4239.615234,4224.487305,0.000000,4.000000,91.000000,,,,0.000000,4.000000,4.000000,4.000000,4.000000,4.000000,4.000000,4.000000,4.000000,4.000000,4.000000,4.000000,4.000000,4.000000,4.000000,100.000000,,,,,,,,,,,,,,,,
1645709789.590208,66.000000,0.000000,4225.256348,4221.666504,4230.384766,4224.102539,4226.666504,4230.384766,4228.717773,4224.615234,4219.743652,4236.922852,4235.256348,4189.358887,4238.461426,4220.512695,0.000000,4.000000,91.000000,,,,0.000000,4.000000,4.000000,4.000000,4.000000,4.000000,4.000000,4.000000,4.000000,4.000000,4.000000,4.000000,4.000000,4.000000,4.000000,100.000000,,,,,,,,,,,,,,,,
1645709789.594149,67.000000,0.000000,4227.948730,4220.769043,4231.025879,4221.794922,4223.589844,4227.179688,4224.358887,4220.641113,4218.717773,4234.615234,4232.948730,4188.077148,4237.692383,4219.102539,0.000000,4.000000,91.000000,,,,0.000000,4.000000,4.000000,4.000000,4.000000,4.000000,4.000000,4.000000,4.000000,4.000000,4.000000,4.000000,4.000000,4.000000,4.000000,100.000000,,,,,,,,,,,,,,,,
1645709789.598089,68.000000,0.000000,4228.717773,4224.358887,4231.666504,4221.538574,4225.000000,4226.410156,4221.794922,4219.871582,4219.615234,4236.666504,4233.717773,4190.897461,4238.589844,4222.051270,0.000000,4.000000,91.000000,,,,0.000000,4.000000,4.000000,4.000000,4.000000,4.000000,4.000000,4.000000,4.000000,4.000000,4.000000,4.000000,4.000000,4.000000,4.000000,100.000000,,,,,,,,,,,,,,,,
1645709789.602029,69.000000,0.000000,4228.846191,4230.641113,4232.563965,4223.974121,4229.871582,4227.692383,4222.051270,4221.666504,4221.666504,4241.025879,4237.436035,4196.538574,4240.128418,4227.692383,0.000000,4.000000,91.000000,,,,0.000000,4.000000,4.000000,4.000000,4.000000,4.000000,4.000000,4.000000,4.000000,4.000000,4.000000,4.000000,4.000000,4.000000,4.000000,100.000000,,,,,,,,,,,,,,,,
1645709789.605970,70.000000,0.000000,4229.615234,4235.897461,4233.589844,4227.179688,4233.846191,4229.358887,4224.230957,4223.461426,4222.948730,4243.461426,4240.897461,4201.282227,4239.871582,4231.794922,0.000000,4.000000,91.000000,,,,0.000000,4.000000,4.000000,4.000000,4.000000,4.000000,4.000000,4.000000,4.000000,4.000000,4.000000,4.000000,4.000000,4.000000,4.000000,100.000000,,,,,,,,,,,,,,,,
1645709789.609910,71.000000,0.000000,4230.128418,4237.692383,4234.102539,4228.974121,4234.487305,4230.128418,4226.538574,4223.461426,4223.077148,4242.051270,4241.282227,4202.436035,4236.794922,4232.179688,0.000000,4.000000,91.000000,,,,0.000000,4.000000,4.000000,4.000000,4.000000,4.000000,4.000000,4.000000,4.000000,4.000000,4.000000,4.000000,4.000000,4.000000,4.000000,100.000000,,,,,,,,,,,,,,,,
1645709789.613850,72.000000,0.000000,4228.717773,4236.922852,4233.974121,4228.589844,4233.077148,4230.512695,4227.692383,4221.666504,4221.922852,4239.230957,4239.230957,4200.128418,4232.179688,4229.871582,0.000000,4.000000,91.000000,,,,0.000000,4.000000,4.000000,4.000000,4.000000,4.000000,4.000000,4.000000,4.000000,4.000000,4.000000,4.000000,4.000000,4.000000,4.000000,100.000000,,,,,,,,,,,,,,,,
1645709789.617791,73.000000,0.000000,4225.128418,4236.025879,4233.205078,4226.922852,4232.436035,4231.538574,4227.179688,4219.743652,4220.769043,4238.333496,4236.794922,4196.794922,4228.077148,4227.307617,0.000000,4.000000,91.000000,,,,0.000000,4.000000,4.000000,4.000000,4.000000,4.000000,4.000000,4.000000,4.000000,4.000000,4.000000,4.000000,4.000000,4.000000,4.000000,100.000000,,,,,,,,,,,,,,,,
1645709789.621731,74.000000,0.000000,4222.179688,4236.410156,4232.436035,4225.384766,4234.102539,4232.692383,4225.512695,4219.230957,4220.512695,4240.000000,4235.256348,4194.358887,4225.897461,4226.025879,0.000000,4.000000,91.000000,,,,0.000000,4.000000,4.000000,4.000000,4.000000,4.000000,4.000000,4.000000,4.000000,4.000000,4.000000,4.000000,4.000000,4.000000,4.000000,100.000000,,,,,,,,,,,,,,,,
1645709789.625671,75.000000,0.000000,4222.307617,4237.051270,4231.794922,4224.743652,4236.282227,4232.692383,4223.846191,4221.153809,4221.410156,4242.051270,4234.230957,4193.205078,4225.128418,4225.897461,0.000000,4.000000,91.000000,,,,0.000000,4.000000,4.000000,4.000000,4.000000,4.000000,4.000000,4.000000,4.000000,4.000000,4.000000,4.000000,4.000000,4.000000,4.000000,100.000000,,,,,,,,,,,,,,,,
1645709789.629612,76.000000,0.000000,4224.743652,4236.666504,4231.666504,4225.256348,4237.307617,4231.153809,4223.717773,4224.615234,4223.461426,4242.179688,4233.461426,4192.948730,4224.487305,4226.153809,0.000000,4.000000,91.000000,,,,0.000000,4.000000,4.000000,4.000000,4.000000,4.000000,4.000000,4.000000,4.000000,4.000000,4.000000,4.000000,4.000000,4.000000,4.000000,100.000000,,,,,,,,,,,,,,,,
1645709789.633552,77.000000,0.000000,4226.282227,4235.384766,4231.922852,4227.051270,4236.922852,4229.615234,4225.128418,4227.436035,4226.025879,4240.512695,4233.333496,4193.461426,4222.820313,4227.179688,0.000000,4.000000,91.000000,,,,0.000000,4.000000,4.000000,4.000000,4.000000,4.000000,4.000000,4.000000,4.000000,4.000000,4.000000,4.000000,4.000000,4.000000,4.000000,100.000000,,,,,,,,,,,,,,,,
1645709789.637393,78.000000,0.000000,4224.743652,4233.846191,4232.307617,4228.846191,4236.410156,4229.615234,4226.922852,4227.820313,4227.820313,4238.846191,4234.358887,4195.256348,4220.256348,4228.717773,0.000000,4.000000,91.000000,,,,0.000000,4.000000,4.000000,4.000000,4.000000,4.000000,4.000000,4.000000,4.000000,4.000000,4.000000,4.000000,4.000000,4.000000,4.000000,100.000000,,,,,,,,,,,,,,,,
1645709789.641333,79.000000,0.000000,4221.666504,4232.051270,4232.436035,4228.846191,4235.897461,4231.153809,4227.692383,4226.153809,4227.820313,4238.077148,4235.769043,4197.563965,4217.307617,4229.487305,0.000000,4.000000,91.000000,,,,0.000000,4.000000,4.000000,4.000000,4.000000,4.000000,4.000000,4.000000,4.000000,4.000000,4.000000,4.000000,4.000000,4.000000,4.000000,100.000000,,,,,,,,,,,,,,,,
1645709789.645273,80.000000,0.000000,4220.384766,4229.615234,4232.436035,4225.897461,4234.871582,4232.948730,4227.692383,4224.871582,4225.512695,4237.820313,4235.769043,4199.487305,4215.256348,4228.461426,0.000000,4.000000,91.000000,,,,0.000000,4.000000,4.000000,4.000000,4.000000,4.000000,4.000000,4.000000,4.000000,4.000000,4.000000,4.000000,4.000000,4.000000,4.000000,100.000000,,,,,,,,,,,,,,,,
1645709789.649214,81.000000,0.000000,4222.179688,4226.922852,4232.436035,4221.282227,4233.333496,4234.102539,4228.333496,4226.153809,4222.692383,4238.333496,4234.230957,4200.128418,4215.384766,4226.025879,0.000000,4.000000,91.000000,,,,0.000000,4.000000,4.000000,4.000000,4.000000,4.000000,4.000000,4.000000,4.000000,4.000000,4.000000,4.000000,4.000000,4.000000,4.000000,100.000000,,,,,,,,,,,,,,,,
1645709789.653154,82.000000,0.000000,4224.743652,4225.641113,4233.077148,4218.205078,4233.077148,4234.743652,4230.641113,4230.000000,4221.538574,4240.897461,4233.077148,4200.128418,4217.948730,4224.102539,0.000000,4.000000,91.000000,,,,0.000000,4.000000,4.000000,4.000000,4.000000,4.000000,4.000000,4.000000,4.000000,4.000000,4.000000,4.000000,4.000000,4.000000,4.000000,100.000000,,,,,,,,,,,,,,,,
1645709789.657094,83.000000,0.000000,4225.641113,4227.307617,4234.102539,4218.846191,4234.871582,4235.512695,4233.846191,4234.487305,4223.333496,4245.897461,4233.974121,4200.128418,4222.307617,4224.615234,0.000000,4.000000,91.000000,,,,0.000000,4.000000,4.000000,4.000000,4.000000,4.000000,4.000000,4.000000,4.000000,4.000000,4.000000,4.000000,4.000000,4.000000,4.000000,100.000000,,,,,,,,,,,,,,,,
1645709789.661035,84.000000,0.000000,4224.871582,4230.000000,4234.743652,4221.538574,4237.179688,4235.769043,4236.025879,4236.794922,4226.538574,4250.641113,4236.666504,4200.128418,4226.153809,4227.307617,0.000000,4.000000,91.000000,1,1,1,0.000000,4.000000,4.000000,4.000000,4.000000,4.000000,4.000000,4.000000,4.000000,4.000000,4.000000,4.000000,4.000000,4.000000,4.000000,100.000000,,,,,,,,,,,,,,,,
1645709789.664975,85.000000,0.000000,4224.358887,4230.897461,4234.487305,4222.051270,4237.179688,4234.615234,4235.512695,4235.256348,4228.589844,4251.410156,4238.974121,4199.487305,4227.948730,4230.000000,0.000000,4.000000,91.000000,,,,0.000000,4.000000,4.000000,4.000000,4.000000,4.000000,4.000000,4.000000,4.000000,4.000000,4.000000,4.000000,4.000000,4.000000,4.000000,100.000000,,,,,,,,,,,,,,,,
1645709789.668915,86.000000,0.000000,4225.256348,4228.717773,4233.589844,4218.461426,4234.743652,4232.179688,4232.820313,4230.897461,4227.692383,4246.794922,4239.230957,4198.205078,4227.563965,4230.769043,0.000000,4.000000,91.000000,,,,0.000000,4.000000,4.000000,4.000000,4.000000,4.000000,4.000000,4.000000,4.000000,4.000000,4.000000,4.000000,4.000000,4.000000,4.000000,100.000000,,,,,,,,,,,,,,,,
1645709789.672856,87.000000,0.000000,4226.153809,4226.025879,4233.077148,4213.333496,4232.179688,4230.384766,4230.000000,4226.666504,4224.871582,4240.384766,4238.205078,4196.666504,4226.410156,4228.974121,0.000000,4.000000,91.000000,,,,0.000000,4.000000,4.000000,4.000000,4.000000,4.000000,4.000000,4.000000,4.000000,4.000000,4.000000,4.000000,4.000000,4.000000,4.000000,100.000000,,,,,,,,,,,,,,,,
1645709789.676796,88.000000,0.000000,4225.256348,4225.641113,4233.333496,4211.282227,4232.563965,4230.769043,4228.589844,4225.512695,4222.307617,4236.794922,4237.179688,4194.615234,4225.512695,4226.025879,0.000000,4.000000,91.000000,,,,0.000000,4.000000,4.000000,4.000000,4.000000,4.000000,4.000000,4.000000,4.000000,4.000000,4.000000,4.000000,4.000000,4.000000,4.000000,100.000000,,,,,,,,,,,,,,,,
1645709789.680736,89.000000,0.000000,4222.563965,4227.179688,4233.589844,4214.102539,4235.128418,4232.051270,4228.077148,4227.436035,4221.282227,4237.051270,4235.512695,4191.025879,4224.102539,4222.820313,0.000000,4.000000,91.000000,,,,0.000000,4.000000,4.000000,4.000000,4.000000,4.000000,4.000000,4.000000,4.000000,4.000000,4.000000,4.000000,4.000000,4.000000,4.000000,100.000000,,,,,,,,,,,,,,,,
1645709789.684677,90.000000,0.000000,4220.000000,4228.333496,4232.436035,4218.846191,4236.794922,4232.307617,4227.307617,4229.871582,4221.666504,4238.461426,4231.410156,4185.256348,4221.410156,4220.000000,0.000000,4.000000,91.000000,,,,0.000000,4.000000,4.000000,4.000000,4.000000,4.000000,4.000000,4.000000,4.000000,4.000000,4.000000,4.000000,4.000000,4.000000,4.000000,100.000000,,,,,,,,,,,,,,,,
1645709789.688617,91.000000,0.000000,4218.717773,4227.692383,4229.615234,4221.666504,4235.256348,4230.512695,4225.641113,4230.000000,4222.307617,4238.077148,4225.000000,4178.589844,4218.077148,4218.461426,0.000000,4.000000,91.000000,,,,0.000000,4.000000,4.000000,4.000000,4.000000,4.000000,4.000000,4.000000,4.000000,4.000000,4.000000,4.000000,4.000000,4.000000,4.000000,100.000000,,,,,,,,,,,,,,,,
1645709789.692557,92.000000,0.000000,4218.461426,4226.410156,4226.410156,4221.282227,4231.794922,4228.333496,4223.846191,4227.051270,4222.692383,4235.897461,4219.743652,4173.974121,4216.410156,4219.102539,0.000000,4.000000,91.000000,,,,0.000000,4.000000,4.000000,4.000000,4.000000,4.000000,4.000000,4.000000,4.000000,4.000000,4.000000,4.000000,4.000000,4.000000,4.000000,100.000000,,,,,,,,,,,,,,,,
1645709789.696498,93.000000,0.000000,4218.717773,4227.179688,4225.000000,4220.000000,4229.615234,4227.307617,4222.692383,4223.333496,4223.077148,4233.333496,4219.358887,4173.974121,4218.077148,4221.538574,0.000000,4.000000,91.000000,,,,0.000000,4.000000,4.000000,4.000000,4.000000,4.000000,4.000000,4.000000,4.000000,4.000000,4.000000,4.000000,4.000000,4.000000,4.000000,100.000000,,,,,,,,,,,,,,,,
1645709789.700438,94.000000,0.000000,4220.128418,4230.897461,4226.282227,4220.384766,4230.512695,4227.692383,4222.307617,4221.025879,4223.077148,4231.282227,4223.846191,4178.333496,4221.794922,4224.230957,0.000000,4.000000,91.000000,,,,0.000000,4.000000,4.000000,4.000000,4.000000,4.000000,4.000000,4.000000,4.000000,4.000000,4.000000,4.000000,4.000000,4.000000,4.000000,100.000000,,,,,,,,,,,,,,,,
1645709789.704478,95.000000,0.000000,4223.589844,4236.153809,4229.102539,4222.307617,4233.333496,4227.948730,4222.820313,4221.538574,4222.307617,4229.358887,4228.717773,4184.102539,4224.615234,4225.641113,0.000000,4.000000,91.000000,,,,0.000000,4.000000,4.000000,4.000000,4.000000,4.000000,4.000000,4.000000,4.000000,4.000000,4.000000,4.000000,4.000000,4.000000,4.000000,100.000000,,,,,,,,,,,,,,,,
1645709789.708419,96.000000,0.000000,4228.461426,4241.025879,4231.666504,4224.102539,4236.282227,4227.436035,4224.102539,4223.974121,4220.769043,4227.563965,4230.384766,4188.333496,4224.487305,4225.769043,0.000000,4.000000,91.000000,,,,0.000000,4.000000,4.000000,4.000000,4.000000,4.000000,4.000000,4.000000,4.000000,4.000000,4.000000,4.000000,4.000000,4.000000,4.000000,100.000000,,,,,,,,,,,,,,,,
1645709789.712359,97.000000,0.000000,4231.922852,4244.358887,4233.461426,4225.000000,4237.820313,4227.179688,4225.641113,4226.794922,4219.743652,4227.051270,4228.846191,4190.384766,4222.692383,4225.512695,0.000000,4.000000,91.000000,,,,0.000000,4.000000,4.000000,4.000000,4.000000,4.000000,4.000000,4.000000,4.000000,4.000000,4.000000,4.000000,4.000000,4.000000,4.000000,100.000000,,,,,,,,,,,,,,,,
1645709789.716299,98.000000,0.000000,4232.179688,4245.641113,4234.743652,4225.769043,4238.589844,4228.333496,4226.666504,4228.205078,4219.871582,4228.974121,4226.922852,4191.794922,4222.436035,4225.897461,0.000000,4.000000,91.000000,,,,0.000000,4.000000,4.000000,4.000000,4.000000,4.000000,4.000000,4.000000,4.000000,4.000000,4.000000,4.000000,4.000000,4.000000,4.000000,100.000000,,,,,,,,,,,,,,,,
1645709789.720240,99.000000,0.000000,4230.641113,4244.615234,4235.769043,4227.179688,4238.974121,4230.256348,4226.410156,4227.051270,4220.384766,4231.794922,4226.538574,4193.077148,4225.256348,4226.538574,0.000000,4.000000,91.000000,,,,0.000000,4.000000,4.000000,4.000000,4.000000,4.000000,4.000000,4.000000,4.000000,4.000000,4.000000,4.000000,4.000000,4.000000,4.000000,100.000000,,,,,,,,,,,,,,,,
1645709789.724180,100.000000,0.000000,4230.384766,4242.179688,4236.538574,4229.358887,4238.461426,4231.153809,4225.000000,4223.205078,4220.128418,4232.307617,4226.794922,4193.333496,4229.743652,4226.538574,0.000000,4.000000,91.000000,,,,0.000000,4.000000,4.000000,4.000000,4.000000,4.000000,4.000000,4.000000,4.000000,4.000000,4.000000,4.000000,4.000000,4.000000,4.000000,100.000000,,,,,,,,,,,,,,,,
1645709789.728120,101.000000,0.000000,4232.436035,4239.871582,4236.538574,4231.922852,4237.563965,4230.384766,4224.102539,4218.461426,4218.589844,4229.102539,4226.666504,4192.179688,4233.077148,4226.153809,0.000000,4.000000,91.000000,,,,0.000000,4.000000,4.000000,4.000000,4.000000,4.000000,4.000000,4.000000,4.000000,4.000000,4.000000,4.000000,4.000000,4.000000,4.000000,100.000000,,,,,,,,,,,,,,,,
1645709789.732061,102.000000,0.000000,4234.871582,4239.615234,4235.897461,4234.487305,4237.436035,4230.128418,4225.897461,4215.897461,4216.794922,4225.256348,4227.307617,4190.641113,4233.717773,4226.153809,0.000000,4.000000,91.000000,,,,0.000000,4.000000,4.000000,4.000000,4.000000,4.000000,4.000000,4.000000,4.000000,4.000000,4.000000,4.000000,4.000000,4.000000,4.000000,100.000000,,,,,,,,,,,,,,,,
1645709789.736001,103.000000,0.000000,4235.256348,4241.922852,4235.897461,4236.666504,4239.102539,4232.179688,4230.641113,4217.820313,4216.666504,4225.256348,4230.897461,4191.153809,4232.820313,4227.820313,0.000000,4.000000,91.000000,,,,0.000000,4.000000,4.000000,4.000000,4.000000,4.000000,4.000000,4.000000,4.000000,4.000000,4.000000,4.000000,4.000000,4.000000,4.000000,100.000000,,,,,,,,,,,,,,,,
1645709789.739941,104.000000,0.000000,4234.615234,4245.769043,4237.948730,4237.436035,4242.307617,4236.282227,4235.897461,4223.717773,4218.846191,4231.025879,4237.563965,4194.871582,4232.820313,4231.153809,0.000000,4.000000,91.000000,,,,0.000000,4.000000,4.000000,4.000000,4.000000,4.000000,4.000000,4.000000,4.000000,4.000000,4.000000,4.000000,4.000000,4.000000,4.000000,100.000000,,,,,,,,,,,,,,,,
1645709789.743882,105.000000,0.000000,4235.897461,4248.717773,4243.205078,4237.051270,4244.871582,4239.615234,4238.846191,4230.512695,4222.179688,4239.871582,4244.487305,4200.769043,4234.487305,4235.128418,0.000000,4.000000,91.000000,,,,0.000000,4.000000,4.000000,4.000000,4.000000,4.000000,4.000000,4.000000,4.000000,4.000000,4.000000,4.000000,4.000000,4.000000,4.000000,100.000000,,,,,,,,,,,,,,,,
1645709789.747822,106.000000,0.000000,4240.512695,4250.000000,4250.769043,4237.179688,4245.769043,4240.769043,4238.589844,4235.384766,4224.615234,4247.051270,4248.077148,4206.794922,4237.307617,4238.461426,0.000000,4.000000,91.000000,,,,0.000000,4.000000,4.000000,4.000000,4.000000,4.000000,4.000000,4.000000,4.000000,4.000000,4.000000,4.000000,4.000000,4.000000,4.000000,100.000000,,,,,,,,,,,,,,,,
1645709789.751762,107.000000,0.000000,4245.897461,4250.256348,4258.589844,4239.487305,4246.025879,4240.641113,4236.922852,4237.307617,4225.641113,4250.128418,4248.461426,4211.410156,4240.128418,4241.025879,0.000000,4.000000,91.000000,,,,0.000000,4.000000,4.000000,4.000000,4.000000,4.000000,4.000000,4.000000,4.000000,4.000000,4.000000,4.000000,4.000000,4.000000,4.000000,100.000000,,,,,,,,,,,,,,,,
1645709789.755703,108.000000,0.000000,4248.589844,4250.769043,4264.230957,4243.589844,4247.563965,4241.794922,4236.410156,4236.794922,4226.025879,4250.128418,4247.820313,4213.974121,4241.794922,4242.436035,0.000000,4.000000,91.000000,,,,0.000000,4.000000,4.000000,4.000000,4.000000,4.000000,4.000000,4.000000,4.000000,4.000000,4.000000,4.000000,4.000000,4.000000,4.000000,100.000000,,,,,,,,,,,,,,,,
1645709789.759643,109.000000,0.000000,4247.436035,4251.538574,4266.282227,4246.153809,4250.256348,4244.743652,4237.820313,4235.512695,4227.436035,4248.974121,4247.307617,4214.487305,4242.051270,4242.307617,0.000000,4.000000,91.000000,,,,0.000000,4.000000,4.000000,4.000000,4.000000,4.000000,4.000000,4.000000,4.000000,4.000000,4.000000,4.000000,4.000000,4.000000,4.000000,100.000000,,,,,,,,,,,,,,,,
1645709789.763583,110.000000,0.000000,4244.871582,4251.538574,4264.487305,4244.743652,4251.666504,4247.820313,4240.128418,4234.230957,4229.743652,4247.948730,4246.282227,4213.333496,4240.641113,4240.512695,0.000000,4.000000,91.000000,,,,0.000000,4.000000,4.000000,4.000000,4.000000,4.000000,4.000000,4.000000,4.000000,4.000000,4.000000,4.000000,4.000000,4.000000,4.000000,100.000000,,,,,,,,,,,,,,,,
1645709789.767524,111.000000,0.000000,4242.820313,4249.615234,4260.512695,4240.128418,4250.384766,4248.974121,4242.179688,4233.974121,4231.922852,4246.794922,4243.846191,4211.025879,4238.077148,4237.692383,0.000000,4.000000,91.000000,,,,0.000000,4.000000,4.000000,4.000000,4.000000,4.000000,4.000000,4.000000,4.000000,4.000000,4.000000,4.000000,4.000000,4.000000,4.000000,100.000000,,,,,,,,,,,,,,,,
1645709789.771464,112.000000,0.000000,4241.282227,4246.282227,4256.410156,4236.538574,4247.820313,4248.717773,4243.717773,4234.871582,4232.820313,4245.512695,4241.153809,4209.102539,4235.256348,4235.897461,0.000000,4.000000,91.000000,,,,0.000000,4.000000,4.000000,4.000000,4.000000,4.000000,4.000000,4.000000,4.000000,4.000000,4.000000,4.000000,4.000000,4.000000,4.000000,100.000000,,,,,,,,,,,,,,,,
1645709789.775405,113.000000,0.000000,4239.358887,4243.333496,4253.461426,4237.436035,4247.436035,4249.102539,4245.384766,4236.666504,4231.666504,4244.743652,4240.128418,4208.846191,4233.589844,4235.512695,0.000000,4.000000,91.000000,,,,0.000000,4.000000,4.000000,4.000000,4.000000,4.000000,4.000000,4.000000,4.000000,4.000000,4.000000,4.000000,4.000000,4.000000,4.000000,100.000000,,,,,,,,,,,,,,,,
1645709789.779245,114.000000,0.000000,4237.051270,4242.436035,4252.307617,4243.205078,4250.769043,4251.282227,4246.922852,4238.205078,4229.230957,4244.743652,4241.153809,4209.871582,4233.846191,4235.769043,0.000000,4.000000,91.000000,,,,0.000000,4.000000,4.000000,4.000000,4.000000,4.000000,4.000000,4.000000,4.000000,4.000000,4.000000,4.000000,4.000000,4.000000,4.000000,100.000000,,,,,,,,,,,,,,,,
1645709789.783185,115.000000,0.000000,4236.282227,4243.846191,4251.922852,4249.615234,4255.769043,4253.974121,4247.436035,4238.846191,4226.794922,4244.743652,4242.307617,4210.256348,4235.256348,4234.871582,0.000000,4.000000,91.000000,,,,0.000000,4.000000,4.000000,4.000000,4.000000,4.000000,4.000000,4.000000,4.000000,4.000000,4.000000,4.000000,4.000000,4.000000,4.000000,100.000000,,,,,,,,,,,,,,,,
1645709789.787126,116.000000,0.000000,4237.820313,4245.897461,4251.922852,4252.563965,4258.717773,4255.256348,4246.666504,4238.333496,4225.512695,4244.230957,4241.794922,4208.461426,4235.897461,4232.563965,0.000000,4.000000,91.000000,,,,0.000000,4.000000,4.000000,4.000000,4.000000,4.000000,4.000000,4.000000,4.000000,4.000000,4.000000,4.000000,4.000000,4.000000,4.000000,100.000000,,,,,,,,,,,,,,,,
1645709789.791066,117.000000,0.000000,4239.871582,4247.051270,4251.794922,4251.025879,4257.820313,4254.615234,4245.000000,4237.948730,4225.641113,4243.717773,4240.000000,4205.000000,4235.256348,4230.641113,0.000000,4.000000,91.000000,,,,0.000000,4.000000,4.000000,4.000000,4.000000,4.000000,4.000000,4.000000,4.000000,4.000000,4.000000,4.000000,4.000000,4.000000,4.000000,100.000000,,,,,,,,,,,,,,,,
1645709789.795006,118.000000,0.000000,4239.871582,4247.179688,4251.410156,4247.436035,4254.487305,4253.333496,4243.461426,4238.333496,4227.179688,4244.487305,4238.589844,4202.436035,4233.974121,4231.025879,0.000000,4.000000,91.000000,,,,0.000000,4.000000,4.000000,4.000000,4.000000,4.000000,4.000000,4.000000,4.000000,4.000000,4.000000,4.000000,4.000000,4.000000,4.000000,100.000000,,,,,,,,,,,,,,,,
1645709789.798947,119.000000,0.000000,4238.077148,4246.794922,4250.512695,4245.000000,4250.897461,4252.051270,4243.077148,4239.615234,4228.717773,4246.666504,4238.589844,4201.794922,4232.563965,4233.461426,0.000000,4.000000,91.000000,,,,0.000000,4.000000,4.000000,4.000000,4.000000,4.000000,4.000000,4.000000,4.000000,4.000000,4.000000,4.000000,4.000000,4.000000,4.000000,100.000000,,,,,,,,,,,,,,,,
1645709789.802887,120.000000,0.000000,4236.666504,4245.769043,4248.846191,4244.487305,4247.948730,4250.128418,4243.846191,4241.282227,4229.358887,4248.333496,4239.230957,4202.051270,4231.025879,4236.025879,0.000000,4.000000,91.000000,,,,0.000000,4.000000,4.000000,4.000000,4.000000,4.000000,4.000000,4.000000,4.000000,4.000000,4.000000,4.000000,4.000000,4.000000,4.000000,100.000000,,,,,,,,,,,,,,,,
1645709789.806827,121.000000,0.000000,4237.307617,4243.717773,4246.794922,4244.487305,4246.025879,4247.820313,4245.000000,4242.307617,4228.333496,4247.563965,4239.358887,4201.025879,4228.846191,4237.051270,0.000000,4.000000,91.000000,,,,0.000000,4.000000,4.000000,4.000000,4.000000,4.000000,4.000000,4.000000,4.000000,4.000000,4.000000,4.000000,4.000000,4.000000,4.000000,100.000000,,,,,,,,,,,,,,,,
1645709789.810668,122.000000,0.000000,4238.589844,4241.153809,4244.743652,4243.333496,4245.769043,4245.897461,4246.282227,4242.563965,4226.538574,4245.128418,4238.589844,4197.948730,4226.282227,4236.794922,0.000000,4.000000,91.000000,,,,0.000000,4.000000,4.000000,4.000000,4.000000,4.000000,4.000000,4.000000,4.000000,4.000000,4.000000,4.000000,4.000000,4.000000,4.000000,100.000000,,,,,,,,,,,,,,,,
1645709789.814608,123.000000,0.000000,4238.077148,4239.358887,4243.589844,4240.384766,4247.948730,4245.769043,4247.563965,4241.794922,4225.512695,4243.589844,4238.461426,4194.743652,4224.743652,4236.666504,0.000000,4.000000,91.000000,,,,0.000000,4.000000,4.000000,4.000000,4.000000,4.000000,4.000000,4.000000,4.000000,4.000000,4.000000,4.000000,4.000000,4.000000,4.000000,100.000000,,,,,,,,,,,,,,,,
1645709789.818548,124.000000,0.000000,4235.769043,4238.846191,4243.333496,4236.410156,4251.666504,4247.436035,4248.461426,4240.256348,4226.153809,4244.615234,4239.871582,4193.974121,4225.000000,4238.077148,0.000000,4.000000,91.000000,,,,0.000000,4.000000,4.000000,4.000000,4.000000,4.000000,4.000000,4.000000,4.000000,4.000000,4.000000,4.000000,4.000000,4.000000,4.000000,100.000000,,,,,,,,,,,,,,,,
1645709789.822489,125.000000,0.000000,4234.615234,4239.615234,4243.589844,4233.333496,4253.846191,4248.846191,4248.461426,4238.333496,4227.820313,4247.179688,4241.794922,4196.538574,4226.666504,4240.641113,0.000000,4.000000,91.000000,,,,0.000000,4.000000,4.000000,4.000000,4.000000,4.000000,4.000000,4.000000,4.000000,4.000000,4.000000,4.000000,4.000000,4.000000,4.000000,100.000000,,,,,,,,,,,,,,,,
1645709789.826329,126.000000,0.000000,4236.794922,4240.769043,4244.102539,4232.692383,4252.563965,4248.077148,4247.563965,4236.922852,4228.461426,4248.974121,4242.820313,4200.512695,4228.846191,4243.717773,0.000000,4.000000,91.000000,,,,0.000000,4.000000,4.000000,4.000000,4.000000,4.000000,4.000000,4.000000,4.000000,4.000000,4.000000,4.000000,4.000000,4.000000,4.000000,100.000000,,,,,,,,,,,,,,,,
1645709789.830270,127.000000,0.000000,4241.025879,4242.436035,4245.000000,4235.512695,4249.230957,4245.512695,4245.769043,4236.922852,4227.563965,4249.358887,4242.436035,4202.948730,4230.512695,4246.538574,0.000000,4.000000,91.000000,,,,0.000000,4.000000,4.000000,4.000000,4.000000,4.000000,4.000000,4.000000,4.000000,4.000000,4.000000,4.000000,4.000000,4.000000,4.000000,100.000000,,,,,,,,,,,,,,,,
1645709789.834210,128.000000,0.000000,4243.205078,4244.102539,4246.282227,4240.769043,4247.436035,4243.461426,4243.974121,4237.820313,4225.897461,4249.102539,4241.153809,4202.179688,4231.538574,4248.589844,3261.000000,4.000000,91.000000,,,,0.000000,4.000000,4.000000,4.000000,4.000000,4.000000,4.000000,4.000000,4.000000,4.000000,4.000000,4.000000,4.000000,4.000000,4.000000,100.000000,,,,,,,,,,,,,,,,
1645709789.838150,129.000000,0.000000,4241.282227,4244.487305,4246.538574,4245.897461,4248.717773,4243.717773,4242.307617,4238.461426,4225.128418,4249.102539,4239.871582,4198.846191,4231.282227,4249.230957,3391.000000,4.000000,91.000000,,,,0.000000,4.000000,4.000000,4.000000,4.000000,4.000000,4.000000,4.000000,4.000000,4.000000,4.000000,4.000000,4.000000,4.000000,4.000000,100.000000,,,,,,,,,,,,,,,,
1645709789.842091,130.000000,0.000000,4237.051270,4242.436035,4245.128418,4247.307617,4251.282227,4245.384766,4240.897461,4237.948730,4225.897461,4248.205078,4237.948730,4195.000000,4229.358887,4247.563965,2232.000000,4.000000,91.000000,,,,0.000000,4.000000,4.000000,4.000000,4.000000,4.000000,4.000000,4.000000,4.000000,4.000000,4.000000,4.000000,4.000000,4.000000,4.000000,100.000000,,,,,,,,,,,,,,,,
1645709789.846031,131.000000,0.000000,4234.230957,4237.948730,4242.179688,4243.974121,4251.794922,4246.538574,4240.641113,4236.538574,4227.692383,4245.641113,4235.384766,4191.794922,4226.153809,4243.333496,3383.000000,4.000000,91.000000,,,,0.000000,4.000000,4.000000,4.000000,4.000000,4.000000,4.000000,4.000000,4.000000,4.000000,4.000000,4.000000,4.000000,4.000000,4.000000,100.000000,,,,,,,,,,,,,,,,
1645709789.849971,132.000000,0.000000,4233.974121,4233.461426,4238.589844,4238.205078,4248.974121,4246.538574,4241.410156,4235.512695,4229.871582,4241.794922,4232.820313,4190.384766,4222.948730,4238.333496,3510.000000,4.000000,91.000000,,,,0.000000,4.000000,4.000000,4.000000,4.000000,4.000000,4.000000,4.000000,4.000000,4.000000,4.000000,4.000000,4.000000,4.000000,4.000000,100.000000,,,,,,,,,,,,,,,,
1645709789.853912,133.000000,0.000000,4233.974121,4231.538574,4235.256348,4233.589844,4244.615234,4245.897461,4242.820313,4235.128418,4231.794922,4238.077148,4231.025879,4190.128418,4221.666504,4235.000000,3437.000000,4.000000,91.000000,,,,0.000000,4.000000,4.000000,4.000000,4.000000,4.000000,4.000000,4.000000,4.000000,4.000000,4.000000,4.000000,4.000000,4.000000,4.000000,100.000000,,,,,,,,,,,,,,,,
1645709789.857752,134.000000,0.000000,4231.922852,4232.051270,4232.820313,4231.666504,4240.769043,4244.743652,4242.436035,4234.230957,4232.436035,4235.000000,4229.487305,4190.384766,4222.051270,4234.615234,3260.000000,4.000000,91.000000,,,,0.000000,4.000000,4.000000,4.000000,4.000000,4.000000,4.000000,4.000000,4.000000,4.000000,4.000000,4.000000,4.000000,4.000000,4.000000,100.000000,,,,,,,,,,,,,,,,
1645709789.861692,135.000000,0.000000,4228.205078,4231.922852,4231.025879,4230.128418,4238.589844,4242.948730,4239.358887,4232.051270,4231.153809,4231.794922,4226.922852,4189.743652,4222.436035,4236.410156,2412.000000,4.000000,91.000000,,,,0.000000,4.000000,4.000000,4.000000,4.000000,4.000000,4.000000,4.000000,4.000000,4.000000,4.000000,4.000000,4.000000,4.000000,4.000000,100.000000,,,,,,,,,,,,,,,,
1645709789.865633,136.000000,0.000000,4225.256348,4228.589844,4229.358887,4226.922852,4237.436035,4240.128418,4234.615234,4229.102539,4228.077148,4227.948730,4223.077148,4188.974121,4221.025879,4238.077148,1269.000000,4.000000,91.000000,,,,0.000000,4.000000,4.000000,4.000000,4.000000,4.000000,4.000000,4.000000,4.000000,4.000000,4.000000,4.000000,4.000000,4.000000,4.000000,100.000000,,,,,,,,,,,,,,,,
1645709789.869573,137.000000,0.000000,4224.743652,4223.589844,4228.461426,4223.846191,4237.692383,4238.077148,4231.410156,4227.563965,4224.743652,4225.384766,4220.256348,4189.358887,4219.102539,4238.205078,3258.000000,4.000000,91.000000,,,,0.000000,4.000000,4.000000,4.000000,4.000000,4.000000,4.000000,4.000000,4.000000,4.000000,4.000000,4.000000,4.000000,4.000000,4.000000,100.000000,,,,,,,,,,,,,,,,
1645709789.873514,138.000000,0.000000,4226.666504,4221.153809,4229.615234,4224.743652,4240.000000,4238.846191,4231.922852,4228.846191,4222.692383,4227.051270,4221.410156,4191.922852,4219.743652,4237.051270,2432.000000,4.000000,91.000000,,,,0.000000,4.000000,4.000000,4.000000,4.000000,4.000000,4.000000,4.000000,4.000000,4.000000,4.000000,4.000000,4.000000,4.000000,4.000000,100.000000,,,,,,,,,,,,,,,,
1645709789.877454,139.000000,0.000000,4229.871582,4224.358887,4233.205078,4231.282227,4244.102539,4242.692383,4235.512695,4232.436035,4223.077148,4232.436035,4226.794922,4195.897461,4223.717773,4236.538574,3083.000000,4.000000,91.000000,,,,0.000000,4.000000,4.000000,4.000000,4.000000,4.000000,4.000000,4.000000,4.000000,4.000000,4.000000,4.000000,4.000000,4.000000,4.000000,100.000000,,,,,,,,,,,,,,,,
1645709789.881394,140.000000,0.000000,4233.846191,4231.922852,4238.333496,4240.641113,4247.436035,4247.051270,4239.358887,4235.384766,4224.871582,4237.436035,4232.820313,4198.974121,4228.846191,4237.820313,3176.000000,4.000000,91.000000,,,,0.000000,4.000000,4.000000,4.000000,4.000000,4.000000,4.000000,4.000000,4.000000,4.000000,4.000000,4.000000,4.000000,4.000000,4.000000,100.000000,,,,,,,,,,,,,,,,
1645709789.885335,141.000000,0.000000,4238.333496,4240.000000,4243.205078,4247.563965,4247.692383,4248.205078,4240.769043,4235.384766,4226.153809,4238.077148,4235.000000,4199.615234,4230.384766,4241.025879,3272.000000,4.000000,91.000000,,,,0.000000,4.000000,4.000000,4.000000,4.000000,4.000000,4.000000,4.000000,4.000000,4.000000,4.000000,4.000000,4.000000,4.000000,4.000000,100.000000,,,,,,,,,,,,,,,,
1645709789.889275,142.000000,0.000000,4241.666504,4245.000000,4245.897461,4248.717773,4245.384766,4245.512695,4239.230957,4232.820313,4225.641113,4234.102539,4232.051270,4197.820313,4226.538574,4244.358887,2432.000000,4.000000,91.000000,,,,0.000000,4.000000,4.000000,4.000000,4.000000,4.000000,4.000000,4.000000,4.000000,4.000000,4.000000,4.000000,4.000000,4.000000,4.000000,100.000000,,,,,,,,,,,,,,,,
1645709789.893215,143.000000,0.000000,4241.922852,4246.025879,4246.025879,4245.641113,4243.077148,4241.282227,4236.538574,4229.871582,4224.102539,4230.000000,4227.051270,4195.128418,4219.102539,4245.641113,3083.000000,4.000000,91.000000,,,,0.000000,4.000000,4.000000,4.000000,4.000000,4.000000,4.000000,4.000000,4.000000,4.000000,4.000000,4.000000,4.000000,4.000000,4.000000,100.000000,,,,,,,,,,,,,,,,
1645709789.897156,144.000000,0.000000,4238.846191,4244.230957,4243.589844,4242.436035,4243.205078,4238.589844,4234.615234,4228.589844,4222.820313,4229.487305,4223.846191,4192.563965,4212.948730,4243.846191,3176.000000,4.000000,91.000000,,,,0.000000,4.000000,4.000000,4.000000,4.000000,4.000000,4.000000,4.000000,4.000000,4.000000,4.000000,4.000000,4.000000,4.000000,4.000000,100.000000,,,,,,,,,,,,,,,,
1645709789.901096,145.000000,0.000000,4235.256348,4242.307617,4240.384766,4242.051270,4245.384766,4238.333496,4233.974121,4229.358887,4222.563965,4232.948730,4223.461426,4190.384766,4211.153809,4239.487305,3272.000000,4.000000,91.000000,,,,0.000000,4.000000,4.000000,4.000000,4.000000,4.000000,4.000000,4.000000,4.000000,4.000000,4.000000,4.000000,4.000000,4.000000,4.000000,100.000000,,,,,,,,,,,,,,,,
1645709789.905036,146.000000,0.000000,4234.615234,4241.922852,4238.205078,4244.487305,4247.436035,4239.230957,4233.974121,4231.794922,4222.948730,4236.922852,4224.102539,4188.461426,4213.846191,4234.230957,2432.000000,4.000000,91.000000,,,,0.000000,4.000000,4.000000,4.000000,4.000000,4.000000,4.000000,4.000000,4.000000,4.000000,4.000000,4.000000,4.000000,4.000000,4.000000,100.000000,,,,,,,,,,,,,,,,
1645709789.908977,147.000000,0.000000,4237.179688,4243.461426,4237.820313,4247.179688,4248.077148,4239.871582,4233.333496,4234.487305,4223.461426,4238.461426,4224.102539,4187.179688,4218.717773,4230.256348,3083.000000,4.000000,91.000000,,,,0.000000,4.000000,4.000000,4.000000,4.000000,4.000000,4.000000,4.000000,4.000000,4.000000,4.000000,4.000000,4.000000,4.000000,4.000000,100.000000,,,,,,,,,,,,,,,,
1645709789.912917,148.000000,0.000000,4239.230957,4245.897461,4238.205078,4247.692383,4247.692383,4239.743652,4231.666504,4235.897461,4223.974121,4237.692383,4223.461426,4187.051270,4223.205078,4228.717773,3176.000000,4.000000,91.000000,,,,0.000000,4.000000,4.000000,4.000000,4.000000,4.000000,4.000000,4.000000,4.000000,4.000000,4.000000,4.000000,4.000000,4.000000,4.000000,100.000000,,,,,,,,,,,,,,,,
1645709789.916857,149.000000,0.000000,4237.948730,4247.307617,4237.692383,4245.128418,4246.666504,4238.974121,4228.974121,4235.128418,4224.743652,4236.410156,4222.692383,4187.436035,4225.641113,4228.589844,3272.000000,4.000000,91.000000,,,,0.000000,4.000000,4.000000,4.000000,4.000000,4.000000,4.000000,4.000000,4.000000,4.000000,4.000000,4.000000,4.000000,4.000000,4.000000,100.000000,,,,,,,,,,,,,,,,
1645709789.920798,150.000000,0.000000,4233.717773,4245.384766,4235.641113,4240.000000,4245.000000,4237.179688,4226.025879,4232.692383,4225.256348,4235.256348,4220.641113,4186.410156,4225.128418,4227.692383,2432.000000,4.000000,91.000000,,,,0.000000,4.000000,4.000000,4.000000,4.000000,4.000000,4.000000,4.000000,4.000000,4.000000,4.000000,4.000000,4.000000,4.000000,4.000000,100.000000,,,,,,,,,,,,,,,,
1645709789.924738,151.000000,0.000000,4230.128418,4240.256348,4232.820313,4234.230957,4242.051270,4233.717773,4223.461426,4229.358887,4225.128418,4232.948730,4215.897461,4182.563965,4222.179688,4224.230957,3083.000000,4.000000,91.000000,,,,0.000000,4.000000,4.000000,4.000000,4.000000,4.000000,4.000000,4.000000,4.000000,4.000000,4.000000,4.000000,4.000000,4.000000,4.000000,100.000000,,,,,,,,,,,,,,,,
1645709789.928578,152.000000,0.000000,4228.974121,4234.230957,4230.128418,4230.384766,4238.461426,4229.615234,4222.179688,4226.282227,4224.230957,4228.589844,4209.358887,4176.794922,4218.589844,4219.358887,3176.000000,4.000000,91.000000,,,,0.000000,4.000000,4.000000,4.000000,4.000000,4.000000,4.000000,4.000000,4.000000,4.000000,4.000000,4.000000,4.000000,4.000000,4.000000,100.000000,,,,,,,,,,,,,,,,
1645709789.932519,153.000000,0.000000,4228.589844,4230.641113,4228.077148,4230.512695,4236.153809,4227.179688,4222.179688,4225.384766,4223.974121,4223.846191,4204.615234,4172.563965,4216.922852,4215.897461,3272.000000,4.000000,91.000000,,,,0.000000,4.000000,4.000000,4.000000,4.000000,4.000000,4.000000,4.000000,4.000000,4.000000,4.000000,4.000000,4.000000,4.000000,4.000000,100.000000,,,,,,,,,,,,,,,,
1645709789.936459,154.000000,0.000000,4226.666504,4230.641113,4226.282227,4233.846191,4236.153809,4227.948730,4223.333496,4227.436035,4225.256348,4222.051270,4204.230957,4172.051270,4218.077148,4215.769043,2432.000000,4.000000,91.000000,,,,0.000000,4.000000,4.000000,4.000000,4.000000,4.000000,4.000000,4.000000,4.000000,4.000000,4.000000,4.000000,4.000000,4.000000,4.000000,100.000000,,,,,,,,,,,,,,,,
1645709789.940399,155.000000,0.000000,4223.333496,4231.538574,4223.717773,4236.538574,4237.307617,4231.538574,4224.871582,4232.179688,4227.948730,4223.717773,4206.794922,4174.615234,4219.871582,4216.794922,3083.000000,4.000000,91.000000,,,,0.000000,4.000000,4.000000,4.000000,4.000000,4.000000,4.000000,4.000000,4.000000,4.000000,4.000000,4.000000,4.000000,4.000000,4.000000,100.000000,,,,,,,,,,,,,,,,
1645709789.944340,156.000000,0.000000,4220.769043,4229.358887,4220.128418,4234.743652,4237.051270,4235.256348,4226.666504,4237.692383,4231.153809,4226.666504,4208.333496,4177.179688,4219.487305,4215.128418,3176.000000,4.000000,91.000000,,,,0.000000,4.000000,4.000000,4.000000,4.000000,4.000000,4.000000,4.000000,4.000000,4.000000,4.000000,4.000000,4.000000,4.000000,4.000000,100.000000,,,,,,,,,,,,,,,,
1645709789.948280,157.000000,0.000000,4220.512695,4223.461426,4216.794922,4228.333496,4234.487305,4237.179688,4229.487305,4241.410156,4233.846191,4228.589844,4206.794922,4177.563965,4216.538574,4209.743652,3272.000000,4.000000,91.000000,,,,0.000000,4.000000,4.000000,4.000000,4.000000,4.000000,4.000000,4.000000,4.000000,4.000000,4.000000,4.000000,4.000000,4.000000,4.000000,100.000000,,,,,,,,,,,,,,,,
1645709789.952220,158.000000,0.000000,4221.282227,4217.051270,4215.641113,4221.025879,4231.538574,4237.307617,4233.589844,4242.820313,4236.410156,4229.230957,4204.743652,4176.922852,4214.102539,4203.974121,2432.000000,4.000000,91.000000,,,,0.000000,4.000000,4.000000,4.000000,4.000000,4.000000,4.000000,4.000000,4.000000,4.000000,4.000000,4.000000,4.000000,4.000000,4.000000,100.000000,,,,,,,,,,,,,,,,
1645709789.956161,159.000000,0.000000,4221.538574,4214.743652,4217.051270,4217.820313,4231.153809,4237.051270,4237.820313,4242.820313,4238.205078,4231.025879,4206.666504,4178.077148,4216.282227,4203.333496,3083.000000,4.000000,91.000000,,,,0.000000,4.000000,4.000000,4.000000,4.000000,4.000000,4.000000,4.000000,4.000000,4.000000,4.000000,4.000000,4.000000,4.000000,4.000000,100.000000,,,,,,,,,,,,,,,,
1645709789.960101,160.000000,0.000000,4221.410156,4217.307617,4220.256348,4220.256348,4233.461426,4236.794922,4240.641113,4243.205078,4238.589844,4235.384766,4214.102539,4182.563965,4223.846191,4210.128418,3176.000000,4.000000,91.000000,,,,0.000000,4.000000,4.000000,4.000000,4.000000,4.000000,4.000000,4.000000,4.000000,4.000000,4.000000,4.000000,4.000000,4.000000,4.000000,100.000000,,,,,,,,,,,,,,,,
1645709789.964042,161.000000,0.000000,4222.692383,4221.410156,4223.461426,4225.512695,4235.641113,4235.641113,4241.025879,4244.743652,4236.794922,4241.025879,4224.743652,4188.846191,4234.102539,4221.153809,3272.000000,4.000000,91.000000,,,,0.000000,4.000000,4.000000,4.000000,4.000000,4.000000,4.000000,4.000000,4.000000,4.000000,4.000000,4.000000,4.000000,4.000000,4.000000,100.000000,,,,,,,,,,,,,,,,
1645709789.967982,162.000000,0.000000,4226.025879,4222.820313,4225.512695,4228.717773,4235.256348,4233.589844,4239.871582,4246.922852,4234.230957,4245.512695,4234.358887,4193.974121,4242.436035,4230.384766,2432.000000,4.000000,91.000000,,,,0.000000,4.000000,4.000000,4.000000,4.000000,4.000000,4.000000,4.000000,4.000000,4.000000,4.000000,4.000000,4.000000,4.000000,4.000000,100.000000,,,,,,,,,,,,,,,,
1645709789.971922,163.000000,0.000000,4229.230957,4220.769043,4226.153809,4227.563965,4232.820313,4231.666504,4238.461426,4248.333496,4233.333496,4247.179688,4240.384766,4196.282227,4246.538574,4234.102539,3083.000000,4.000000,91.000000,,,,0.000000,4.000000,4.000000,4.000000,4.000000,4.000000,4.000000,4.000000,4.000000,4.000000,4.000000,4.000000,4.000000,4.000000,4.000000,100.000000,,,,,,,,,,,,,,,,
1645709789.975863,164.000000,0.000000,4230.000000,4217.436035,4225.641113,4223.589844,4230.769043,4231.153809,4237.307617,4247.436035,4235.128418,4246.153809,4241.922852,4195.769043,4246.153809,4232.563965,3176.000000,4.000000,91.000000,,,,0.000000,4.000000,4.000000,4.000000,4.000000,4.000000,4.000000,4.000000,4.000000,4.000000,4.000000,4.000000,4.000000,4.000000,4.000000,100.000000,,,,,,,,,,,,,,,,
1645709789.979803,165.000000,0.000000,4227.948730,4215.384766,4223.461426,4219.743652,4230.128418,4231.538574,4236.025879,4244.230957,4237.692383,4242.692383,4239.102539,4193.333496,4243.205078,4228.717773,3272.000000,4.000000,91.000000,,,,0.000000,4.000000,4.000000,4.000000,4.000000,4.000000,4.000000,4.000000,4.000000,4.000000,4.000000,4.000000,4.000000,4.000000,4.000000,100.000000,,,,,,,,,,,,,,,,
1645709789.983743,166.000000,0.000000,4225.384766,4214.615234,4219.487305,4217.820313,4229.487305,4230.769043,4233.717773,4239.358887,4237.179688,4237.179688,4232.948730,4188.974121,4239.871582,4225.512695,2432.000000,4.000000,91.000000,,,,0.000000,4.000000,4.000000,4.000000,4.000000,4.000000,4.000000,4.000000,4.000000,4.000000,4.000000,4.000000,4.000000,4.000000,4.000000,100.000000,,,,,,,,,,,,,,,,
1645709789.987684,167.000000,0.000000,4223.717773,4214.230957,4214.230957,4217.948730,4226.538574,4228.205078,4230.384766,4234.230957,4231.922852,4230.769043,4225.128418,4183.205078,4237.563965,4224.358887,3083.000000,4.000000,91.000000,,,,0.000000,4.000000,4.000000,4.000000,4.000000,4.000000,4.000000,4.000000,4.000000,4.000000,4.000000,4.000000,4.000000,4.000000,4.000000,100.000000,,,,,,,,,,,,,,,,
1645709789.991624,168.000000,0.000000,4222.563965,4213.461426,4209.358887,4219.487305,4221.794922,4225.256348,4227.436035,4230.512695,4224.871582,4226.666504,4219.487305,4177.179688,4236.922852,4225.000000,3176.000000,4.000000,91.000000,,,,0.000000,4.000000,4.000000,4.000000,4.000000,4.000000,4.000000,4.000000,4.000000,4.000000,4.000000,4.000000,4.000000,4.000000,4.000000,100.000000,,,,,,,,,,,,,,,,
1645709789.995564,169.000000,0.000000,4221.025879,4213.205078,4206.794922,4222.307617,4218.333496,4224.358887,4226.410156,4229.871582,4220.897461,4227.179688,4218.846191,4173.846191,4237.563965,4225.897461,3272.000000,4.000000,91.000000,,,,0.000000,4.000000,4.000000,4.000000,4.000000,4.000000,4.000000,4.000000,4.000000,4.000000,4.000000,4.000000,4.000000,4.000000,4.000000,100.000000,,,,,,,,,,,,,,,,
1645709789.999605,170.000000,0.000000,4219.743652,4214.102539,4207.307617,4225.512695,4218.461426,4226.282227,4227.051270,4232.692383,4223.077148,4232.307617,4223.205078,4174.743652,4238.461426,4225.897461,2432.000000,4.000000,91.000000,,,,0.000000,4.000000,4.000000,4.000000,4.000000,4.000000,4.000000,4.000000,4.000000,4.000000,4.000000,4.000000,4.000000,4.000000,4.000000,100.000000,,,,,,,,,,,,,,,,
1645709790.003545,171.000000,0.000000,4220.769043,4215.256348,4210.128418,4227.692383,4221.922852,4229.487305,4228.205078,4237.307617,4230.000000,4238.461426,4229.358887,4179.102539,4238.589844,4225.384766,3083.000000,4.000000,91.000000,,,,0.000000,4.000000,4.000000,4.000000,4.000000,4.000000,4.000000,4.000000,4.000000,4.000000,4.000000,4.000000,4.000000,4.000000,4.000000,100.000000,,,,,,,,,,,,,,,,
1645709790.007485,172.000000,0.000000,4224.230957,4216.025879,4213.846191,4228.461426,4226.282227,4231.922852,4228.846191,4241.410156,4237.820313,4242.820313,4234.743652,4184.358887,4237.948730,4225.769043,3176.000000,4.000000,91.000000,,,,0.000000,4.000000,4.000000,4.000000,4.000000,4.000000,4.000000,4.000000,4.000000,4.000000,4.000000,4.000000,4.000000,4.000000,4.000000,100.000000,1.000000,75.000000,1.000000,4.000000,4.000000,4.000000,4.000000,4.000000,4.000000,4.000000,4.000000,4.000000,4.000000,4.000000,4.000000,4.000000
1645709790.011426,173.000000,0.000000,4227.692383,4216.025879,4217.179688,4229.230957,4229.871582,4233.205078,4228.717773,4243.461426,4243.205078,4245.128418,4238.333496,4188.077148,4237.820313,4227.307617,3272.000000,4.000000,91.000000,,,,0.000000,4.000000,4.000000,4.000000,4.000000,4.000000,4.000000,4.000000,4.000000,4.000000,4.000000,4.000000,4.000000,4.000000,4.000000,100.000000,,,,,,,,,,,,,,,,
1645709790.015366,174.000000,0.000000,4228.333496,4215.641113,4219.615234,4230.512695,4231.794922,4233.717773,4228.077148,4243.589844,4244.871582,4246.666504,4240.897461,4189.230957,4239.102539,4228.333496,2432.000000,4.000000,91.000000,,,,0.000000,4.000000,4.000000,4.000000,4.000000,4.000000,4.000000,4.000000,4.000000,4.000000,4.000000,4.000000,4.000000,4.000000,4.000000,100.000000,,,,,,,,,,,,,,,,
1645709790.019306,175.000000,0.000000,4225.897461,4214.743652,4219.871582,4230.769043,4231.410156,4233.205078,4226.410156,4241.794922,4243.461426,4247.436035,4241.538574,4187.307617,4241.025879,4226.538574,3083.000000,4.000000,91.000000,,,,0.000000,4.000000,4.000000,4.000000,4.000000,4.000000,4.000000,4.000000,4.000000,4.000000,4.000000,4.000000,4.000000,4.000000,4.000000,100.000000,,,,,,,,,,,,,,,,
1645709790.023247,176.000000,0.000000,4223.077148,4212.948730,4217.692383,4227.563965,4228.333496,4230.769043,4223.846191,4237.948730,4240.128418,4245.769043,4238.589844,4182.948730,4241.153809,4221.538574,3176.000000,4.000000,91.000000,,,,0.000000,4.000000,4.000000,4.000000,4.000000,4.000000,4.000000,4.000000,4.000000,4.000000,4.000000,4.000000,4.000000,4.000000,4.000000,100.000000,,,,,,,,,,,,,,,,
1645709790.027187,177.000000,0.000000,4221.922852,4210.512695,4213.589844,4221.025879,4223.846191,4227.051270,4221.410156,4232.948730,4235.897461,4241.538574,4231.794922,4177.820313,4238.333496,4215.256348,3272.000000,4.000000,91.000000,,,,0.000000,4.000000,4.000000,4.000000,4.000000,4.000000,4.000000,4.000000,4.000000,4.000000,4.000000,4.000000,4.000000,4.000000,4.000000,100.000000,,,,,,,,,,,,,,,,
1645709790.031127,178.000000,0.000000,4221.538574,4208.974121,4209.615234,4215.128418,4221.538574,4224.615234,4221.153809,4228.717773,4231.922852,4237.051270,4224.358887,4174.102539,4233.846191,4211.410156,2432.000000,4.000000,91.000000,,,,0.000000,4.000000,4.000000,4.000000,4.000000,4.000000,4.000000,4.000000,4.000000,4.000000,4.000000,4.000000,4.000000,4.000000,4.000000,100.000000,,,,,,,,,,,,,,,,
1645709790.035068,179.000000,0.000000,4220.128418,4209.615234,4206.922852,4214.102539,4223.717773,4225.384766,4223.461426,4226.666504,4228.717773,4235.000000,4220.384766,4173.846191,4230.128418,4211.794922,3083.000000,4.000000,91.000000,,,,0.000000,4.000000,4.000000,4.000000,4.000000,4.000000,4.000000,4.000000,4.000000,4.000000,4.000000,4.000000,4.000000,4.000000,4.000000,100.000000,,,,,,,,,,,,,,,,
1645709790.039008,180.000000,0.000000,4218.333496,4211.282227,4206.153809,4218.077148,4228.589844,4228.333496,4226.666504,4226.794922,4227.051270,4235.512695,4220.769043,4176.153809,4228.974121,4215.128418,3176.000000,4.000000,91.000000,,,,0.000000,4.000000,4.000000,4.000000,4.000000,4.000000,4.000000,4.000000,4.000000,4.000000,4.000000,4.000000,4.000000,4.000000,4.000000,100.000000,,,,,,,,,,,,,,,,
1645709790.042948,181.000000,0.000000,4218.461426,4212.436035,4206.794922,4223.077148,4230.769043,4230.000000,4228.205078,4227.051270,4226.538574,4235.512695,4222.820313,4178.461426,4229.871582,4218.333496,3272.000000,4.000000,91.000000,,,,0.000000,4.000000,4.000000,4.000000,4.000000,4.000000,4.000000,4.000000,4.000000,4.000000,4.000000,4.000000,4.000000,4.000000,4.000000,100.000000,,,,,,,,,,,,,,,,
1645709790.046889,182.000000,0.000000,4221.538574,4211.794922,4208.077148,4225.000000,4227.563965,4227.692383,4226.538574,4226.153809,4226.410156,4232.307617,4222.563965,4178.333496,4230.769043,4218.846191,2432.000000,4.000000,91.000000,,,,0.000000,4.000000,4.000000,4.000000,4.000000,4.000000,4.000000,4.000000,4.000000,4.000000,4.000000,4.000000,4.000000,4.000000,4.000000,100.000000,,,,,,,,,,,,,,,,
1645709790.050829,183.000000,0.000000,4224.871582,4210.384766,4208.846191,4222.820313,4221.153809,4222.692383,4222.692383,4224.487305,4225.512695,4226.410156,4218.589844,4175.384766,4229.743652,4216.025879,3083.000000,4.000000,91.000000,,,,0.000000,4.000000,4.000000,4.000000,4.000000,4.000000,4.000000,4.000000,4.000000,4.000000,4.000000,4.000000,4.000000,4.000000,4.000000,100.000000,,,,,,,,,,,,,,,,
1645709790.054769,184.000000,0.000000,4224.615234,4208.974121,4207.948730,4219.102539,4216.410156,4218.589844,4218.717773,4223.333496,4223.589844,4221.025879,4213.333496,4171.025879,4227.051270,4211.410156,3176.000000,4.000000,91.000000,,,,0.000000,4.000000,4.000000,4.000000,4.000000,4.000000,4.000000,4.000000,4.000000,4.000000,4.000000,4.000000,4.000000,4.000000,4.000000,100.000000,,,,,,,,,,,,,,,,
1645709790.058710,185.000000,0.000000,4220.384766,4208.077148,4204.743652,4216.282227,4216.025879,4217.051270,4215.897461,4223.333496,4221.282227,4217.820313,4209.358887,4166.410156,4224.102539,4206.666504,3272.000000,4.000000,91.000000,,,,0.000000,4.000000,4.000000,4.000000,4.000000,4.000000,4.000000,4.000000,4.000000,4.000000,4.000000,4.000000,4.000000,4.000000,4.000000,100.000000,,,,,,,,,,,,,,,,
1645709790.062650,186.000000,0.000000,4215.384766,4207.436035,4200.256348,4215.256348,4218.205078,4217.179688,4214.102539,4224.102539,4219.487305,4216.538574,4207.563965,4162.051270,4222.179688,4202.820313,2432.000000,4.000000,91.000000,,,,0.000000,4.000000,4.000000,4.000000,4.000000,4.000000,4.000000,4.000000,4.000000,4.000000,4.000000,4.000000,4.000000,4.000000,4.000000,100.000000,,,,,,,,,,,,,,,,
1645709790.066590,187.000000,0.000000,4213.205078,4206.922852,4196.922852,4215.384766,4219.487305,4216.922852,4213.077148,4225.256348,4218.974121,4215.897461,4206.666504,4158.589844,4221.794922,4200.641113,3083.000000,4.000000,91.000000,,,,0.000000,4.000000,4.000000,4.000000,4.000000,4.000000,4.000000,4.000000,4.000000,4.000000,4.000000,4.000000,4.000000,4.000000,4.000000,100.000000,,,,,,,,,,,,,,,,
1645709790.070531,188.000000,0.000000,4213.589844,4207.307617,4196.025879,4216.794922,4219.102539,4216.282227,4213.077148,4227.179688,4220.256348,4216.538574,4206.410156,4157.179688,4222.820313,4200.897461,3176.000000,4.000000,91.000000,,,,0.000000,4.000000,4.000000,4.000000,4.000000,4.000000,4.000000,4.000000,4.000000,4.000000,4.000000,4.000000,4.000000,4.000000,4.000000,100.000000,,,,,,,,,,,,,,,,
1645709790.074471,189.000000,0.000000,4214.230957,4209.487305,4197.563965,4220.000000,4218.846191,4217.436035,4215.384766,4229.871582,4223.333496,4219.871582,4207.563965,4158.717773,4225.128418,4203.846191,3272.000000,4.000000,91.000000,,,,0.000000,4.000000,4.000000,4.000000,4.000000,4.000000,4.000000,4.000000,4.000000,4.000000,4.000000,4.000000,4.000000,4.000000,4.000000,100.000000,,,,,,,,,,,,,,,,
1645709790.078411,190.000000,0.000000,4213.846191,4212.948730,4199.871582,4223.974121,4220.897461,4221.922852,4219.487305,4232.563965,4227.051270,4225.897461,4210.512695,4162.179688,4228.589844,4208.205078,2432.000000,4.000000,91.000000,,,,0.000000,4.000000,4.000000,4.000000,4.000000,4.000000,4.000000,4.000000,4.000000,4.000000,4.000000,4.000000,4.000000,4.000000,4.000000,100.000000,,,,,,,,,,,,,,,,
1645709790.082352,191.000000,0.000000,4213.333496,4216.410156,4200.897461,4226.282227,4224.358887,4227.692383,4223.589844,4233.717773,4229.743652,4231.538574,4213.589844,4164.487305,4231.922852,4211.922852,3083.000000,4.000000,91.000000,,,,0.000000,4.000000,4.000000,4.000000,4.000000,4.000000,4.000000,4.000000,4.000000,4.000000,4.000000,4.000000,4.000000,4.000000,4.000000,100.000000,,,,,,,,,,,,,,,,
1645709790.086192,192.000000,0.000000,4214.743652,4218.077148,4200.256348,4225.384766,4226.922852,4231.538574,4225.897461,4232.692383,4230.256348,4233.846191,4215.000000,4163.846191,4233.717773,4213.077148,3176.000000,4.000000,91.000000,,,,0.000000,4.000000,4.000000,4.000000,4.000000,4.000000,4.000000,4.000000,4.000000,4.000000,4.000000,4.000000,4.000000,4.000000,4.000000,100.000000,,,,,,,,,,,,,,,,
1645709790.090133,193.000000,0.000000,4217.692383,4217.563965,4198.974121,4222.820313,4227.563965,4231.538574,4225.769043,4230.384766,4228.846191,4232.820313,4214.102539,4161.538574,4233.461426,4211.666504,3272.000000,4.000000,91.000000,,,,0.000000,4.000000,4.000000,4.000000,4.000000,4.000000,4.000000,4.000000,4.000000,4.000000,4.000000,4.000000,4.000000,4.000000,4.000000,100.000000,,,,,,,,,,,,,,,,
1645709790.094073,194.000000,0.000000,4220.000000,4215.769043,4199.358887,4221.922852,4226.794922,4229.230957,4224.230957,4228.589844,4227.051270,4231.282227,4212.692383,4161.025879,4232.563965,4209.615234,2432.000000,4.000000,91.000000,,,,0.000000,4.000000,4.000000,4.000000,4.000000,4.000000,4.000000,4.000000,4.000000,4.000000,4.000000,4.000000,4.000000,4.000000,4.000000,100.000000,,,,,,,,,,,,,,,,
1645709790.098113,195.000000,0.000000,4220.512695,4213.589844,4202.563965,4224.487305,4225.641113,4226.794922,4222.692383,4228.974121,4226.282227,4231.538574,4212.436035,4164.102539,4232.051270,4208.846191,3083.000000,4.000000,91.000000,,,,0.000000,4.000000,4.000000,4.000000,4.000000,4.000000,4.000000,4.000000,4.000000,4.000000,4.000000,4.000000,4.000000,4.000000,4.000000,100.000000,,,,,,,,,,,,,,,,
1645709790.102053,196.000000,0.000000,4220.897461,4211.282227,4207.436035,4229.358887,4223.846191,4225.384766,4221.922852,4230.897461,4226.922852,4233.461426,4213.974121,4169.487305,4232.179688,4209.615234,3176.000000,4.000000,91.000000,,,,0.000000,4.000000,4.000000,4.000000,4.000000,4.000000,4.000000,4.000000,4.000000,4.000000,4.000000,4.000000,4.000000,4.000000,4.000000,100.000000,,,,,,,,,,,,,,,,
1645709790.105994,197.000000,0.000000,4222.948730,4208.717773,4211.794922,4232.948730,4220.897461,4224.743652,4222.179688,4232.692383,4227.820313,4234.743652,4216.410156,4174.358887,4231.922852,4210.769043,3272.000000,4.000000,91.000000,,,,0.000000,4.000000,4.000000,4.000000,4.000000,4.000000,4.000000,4.000000,4.000000,4.000000,4.000000,4.000000,4.000000,4.000000,4.000000,100.000000,,,,,,,,,,,,,,,,
1645709790.109934,198.000000,0.000000,4225.641113,4206.666504,4213.077148,4232.692383,4217.563965,4223.846191,4223.077148,4232.692383,4227.692383,4234.230957,4218.589844,4176.794922,4231.025879,4211.666504,2432.000000,4.000000,91.000000,,,,0.000000,4.000000,4.000000,4.000000,4.000000,4.000000,4.000000,4.000000,4.000000,4.000000,4.000000,4.000000,4.000000,4.000000,4.000000,100.000000,,,,,,,,,,,,,,,,
1645709790.113874,199.000000,0.000000,4226.153809,4205.256348,4210.256348,4228.717773,4214.743652,4222.307617,4223.974121,4230.641113,4226.538574,4232.307617,4219.487305,4177.436035,4229.358887,4212.307617,3083.000000,4.000000,91.000000,,,,0.000000,4.000000,4.000000,4.000000,4.000000,4.000000,4.000000,4.000000,4.000000,4.000000,4.000000,4.000000,4.000000,4.000000,4.000000,100.000000,,,,,,,,,,,,,,,,
1645709790.117815,200.000000,0.000000,4222.948730,4204.102539,4205.256348,4223.461426,4212.948730,4220.000000,4223.846191,4227.179688,4224.871582,4230.000000,4218.461426,4177.051270,4227.051270,4213.333496,3176.000000,4.000000,91.000000,,,,0.000000,4.000000,4.000000,4.000000,4.000000,4.000000,4.000000,4.000000,4.000000,4.000000,4.000000,4.000000,4.000000,4.000000,4.000000,100.000000,,,,,,,,,,,,,,,,
1645709790.121855,201.000000,0.000000,4218.333496,4202.692383,4201.794922,4220.384766,4211.538574,4217.179688,4222.948730,4223.846191,4223.205078,4227.948730,4215.384766,4176.794922,4224.487305,4214.230957,3272.000000,4.000000,91.000000,,,,0.000000,4.000000,4.000000,4.000000,4.000000,4.000000,4.000000,4.000000,4.000000,4.000000,4.000000,4.000000,4.000000,4.000000,4.000000,100.000000,,,,,,,,,,,,,,,,
1645709790.125795,202.000000,0.000000,4215.897461,4200.769043,4202.692383,4220.769043,4210.000000,4215.128418,4222.179688,4221.666504,4221.794922,4225.897461,4211.538574,4176.922852,4222.436035,4213.974121,2432.000000,4.000000,91.000000,,,,0.000000,4.000000,4.000000,4.000000,4.000000,4.000000,4.000000,4.000000,4.000000,4.000000,4.000000,4.000000,4.000000,4.000000,4.000000,100.000000,,,,,,,,,,,,,,,,
1645709790.129736,203.000000,0.000000,4216.282227,4199.743652,4207.692383,4224.102539,4209.230957,4215.512695,4222.436035,4221.538574,4221.282227,4224.743652,4209.615234,4177.948730,4222.436035,4212.692383,3083.000000,4.000000,91.000000,,,,0.000000,4.000000,4.000000,4.000000,4.000000,4.000000,4.000000,4.000000,4.000000,4.000000,4.000000,4.000000,4.000000,4.000000,4.000000,100.000000,,,,,,,,,,,,,,,,
1645709790.133676,204.000000,0.000000,4217.307617,4201.025879,4213.461426,4227.436035,4211.025879,4219.487305,4223.717773,4223.205078,4221.922852,4225.384766,4211.410156,4180.128418,4224.871582,4211.410156,3176.000000,4.000000,91.000000,,,,0.000000,4.000000,4.000000,4.000000,4.000000,4.000000,4.000000,4.000000,4.000000,4.000000,4.000000,4.000000,4.000000,4.000000,4.000000,100.000000,,,,,,,,,,,,,,,,
1645709790.137616,205.000000,0.000000,4216.410156,4204.358887,4216.282227,4227.436035,4215.128418,4225.384766,4225.256348,4225.384766,4223.333496,4227.436035,4215.769043,4181.922852,4228.205078,4210.897461,3272.000000,4.000000,91.000000,,,,0.000000,4.000000,4.000000,4.000000,4.000000,4.000000,4.000000,4.000000,4.000000,4.000000,4.000000,4.000000,4.000000,4.000000,4.000000,100.000000,,,,,,,,,,,,,,,,
1645709790.141557,206.000000,0.000000,4213.974121,4207.436035,4214.230957,4222.820313,4218.589844,4229.102539,4225.256348,4226.666504,4224.230957,4228.333496,4218.846191,4181.282227,4229.871582,4210.512695,2432.000000,4.000000,91.000000,,,,0.000000,4.000000,4.000000,4.000000,4.000000,4.000000,4.000000,4.000000,4.000000,4.000000,4.000000,4.000000,4.000000,4.000000,4.000000,100.000000,,,,,,,,,,,,,,,,
1645709790.145497,207.000000,0.000000,4212.179688,4207.820313,4208.589844,4215.769043,4218.717773,4227.820313,4223.461426,4225.897461,4223.461426,4225.769043,4217.692383,4177.051270,4228.077148,4209.615234,3083.000000,4.000000,91.000000,,,,0.000000,4.000000,4.000000,4.000000,4.000000,4.000000,4.000000,4.000000,4.000000,4.000000,4.000000,4.000000,4.000000,4.000000,4.000000,100.000000,,,,,,,,,,,,,,,,
1645709790.149437,208.000000,0.000000,4212.051270,4205.641113,4202.692383,4211.025879,4215.769043,4222.948730,4221.025879,4223.974121,4221.538574,4220.641113,4212.948730,4171.153809,4224.615234,4208.461426,3176.000000,4.000000,91.000000,,,,0.000000,4.000000,4.000000,4.000000,4.000000,4.000000,4.000000,4.000000,4.000000,4.000000,4.000000,4.000000,4.000000,4.000000,4.000000,100.000000,,,,,,,,,,,,,,,,
1645709790.153378,209.000000,0.000000,4212.948730,4203.974121,4200.128418,4212.563965,4213.461426,4219.230957,4219.615234,4222.820313,4219.871582,4216.153809,4208.717773,4166.794922,4222.436035,4208.589844,3272.000000,4.000000,91.000000,,,,0.000000,4.000000,4.000000,4.000000,4.000000,4.000000,4.000000,4.000000,4.000000,4.000000,4.000000,4.000000,4.000000,4.000000,4.000000,100.000000,,,,,,,,,,,,,,,,
1645709790.157318,210.000000,0.000000,4213.461426,4205.384766,4201.153809,4219.487305,4214.743652,4219.615234,4220.000000,4223.461426,4219.871582,4216.025879,4207.948730,4165.641113,4223.717773,4210.641113,2432.000000,4.000000,91.000000,,,,0.000000,4.000000,4.000000,4.000000,4.000000,4.000000,4.000000,4.000000,4.000000,4.000000,4.000000,4.000000,4.000000,4.000000,4.000000,100.000000,,,,,,,,,,,,,,,,
1645709790.161259,211.000000,0.000000,4213.589844,4209.102539,4202.948730,4226.410156,4218.846191,4222.820313,4220.897461,4225.256348,4221.025879,4220.000000,4210.000000,4166.410156,4226.666504,4213.205078,3083.000000,4.000000,91.000000,,,,0.000000,4.000000,4.000000,4.000000,4.000000,4.000000,4.000000,4.000000,4.000000,4.000000,4.000000,4.000000,4.000000,4.000000,4.000000,100.000000,,,,,,,,,,,,,,,,
1645709790.165199,212.000000,0.000000,4214.230957,4211.282227,4202.563965,4227.436035,4221.666504,4224.871582,4220.384766,4226.153809,4222.051270,4224.358887,4211.538574,4166.538574,4228.461426,4214.230957,3176.000000,4.000000,91.000000,,,,0.000000,4.000000,4.000000,4.000000,4.000000,4.000000,4.000000,4.000000,4.000000,4.000000,4.000000,4.000000,4.000000,4.000000,4.000000,100.000000,,,,,,,,,,,,,,,,
1645709790.169139,213.000000,0.000000,4214.743652,4209.487305,4199.615234,4221.666504,4220.512695,4223.589844,4217.948730,4225.000000,4222.051270,4225.897461,4210.512695,4164.615234,4227.563965,4212.436035,3272.000000,4.000000,91.000000,,,,0.000000,4.000000,4.000000,4.000000,4.000000,4.000000,4.000000,4.000000,4.000000,4.000000,4.000000,4.000000,4.000000,4.000000,4.000000,100.000000,,,,,,,,,,,,,,,,
1645709790.173080,214.000000,0.000000,4213.974121,4205.256348,4195.897461,4214.230957,4216.538574,4220.128418,4214.743652,4222.820313,4221.794922,4224.743652,4208.589844,4161.666504,4225.384766,4208.974121,2432.000000,4.000000,91.000000,,,,0.000000,4.000000,4.000000,4.000000,4.000000,4.000000,4.000000,4.000000,4.000000,4.000000,4.000000,4.000000,4.000000,4.000000,4.000000,100.000000,,,,,,,,,,,,,,,,
1645709790.177020,215.000000,0.000000,4211.666504,4201.922852,4194.102539,4211.025879,4212.820313,4217.307617,4212.179688,4221.538574,4221.922852,4222.563965,4208.205078,4160.128418,4223.589844,4206.538574,3083.000000,4.000000,91.000000,,,,0.000000,4.000000,4.000000,4.000000,4.000000,4.000000,4.000000,4.000000,4.000000,4.000000,4.000000,4.000000,4.000000,4.000000,4.000000,100.000000,,,,,,,,,,,,,,,,
1645709790.180960,216.000000,0.000000,4210.128418,4201.025879,4194.743652,4213.077148,4211.153809,4216.282227,4211.025879,4221.538574,4222.563965,4220.769043,4209.615234,4160.897461,4223.077148,4206.153809,3176.000000,4.000000,91.000000,,,,0.000000,4.000000,4.000000,4.000000,4.000000,4.000000,4.000000,4.000000,4.000000,4.000000,4.000000,4.000000,4.000000,4.000000,4.000000,100.000000,,,,,,,,,,,,,,,,
1645709790.184901,217.000000,0.000000,4211.282227,4201.025879,4197.307617,4216.282227,4210.897461,4216.153809,4210.897461,4222.179688,4222.820313,4218.717773,4210.641113,4162.436035,4223.333496,4207.179688,3272.000000,4.000000,91.000000,,,,0.000000,4.000000,4.000000,4.000000,4.000000,4.000000,4.000000,4.000000,4.000000,4.000000,4.000000,4.000000,4.000000,4.000000,4.000000,100.000000,,,,,,,,,,,,,,,,
1645709790.188841,218.000000,0.000000,4214.230957,4200.000000,4200.256348,4216.282227,4211.282227,4215.897461,4211.666504,4222.307617,4222.051270,4216.153809,4209.743652,4163.077148,4223.077148,4208.077148,2432.000000,4.000000,91.000000,,,,0.000000,4.000000,4.000000,4.000000,4.000000,4.000000,4.000000,4.000000,4.000000,4.000000,4.000000,4.000000,4.000000,4.000000,4.000000,100.000000,,,,,,,,,,,,,,,,
1645709790.192781,219.000000,0.000000,4215.769043,4197.820313,4202.563965,4212.948730,4212.692383,4216.025879,4213.589844,4222.307617,4220.769043,4214.743652,4207.820313,4162.563965,4222.820313,4207.820313,3083.000000,4.000000,91.000000,,,,0.000000,4.000000,4.000000,4.000000,4.000000,4.000000,4.000000,4.000000,4.000000,4.000000,4.000000,4.000000,4.000000,4.000000,4.000000,100.000000,,,,,,,,,,,,,,,,
1645709790.196622,220.000000,0.000000,4213.974121,4196.410156,4203.846191,4209.487305,4215.769043,4217.307617,4216.282227,4222.948730,4220.512695,4215.641113,4207.307617,4162.179688,4223.077148,4206.922852,3176.000000,4.000000,91.000000,,,,0.000000,4.000000,4.000000,4.000000,4.000000,4.000000,4.000000,4.000000,4.000000,4.000000,4.000000,4.000000,4.000000,4.000000,4.000000,100.000000,,,,,,,,,,,,,,,,
1645709790.200562,221.000000,0.000000,4210.384766,4195.769043,4203.589844,4208.461426,4219.102539,4219.102539,4218.846191,4224.358887,4221.282227,4218.461426,4207.948730,4162.692383,4224.102539,4206.025879,3272.000000,4.000000,91.000000,,,,0.000000,4.000000,4.000000,4.000000,4.000000,4.000000,4.000000,4.000000,4.000000,4.000000,4.000000,4.000000,4.000000,4.000000,4.000000,100.000000,,,,,,,,,,,,,,,,
1645709790.204502,222.000000,0.000000,4207.436035,4194.358887,4201.794922,4208.461426,4219.102539,4219.871582,4219.615234,4225.384766,4222.692383,4220.512695,4207.179688,4163.205078,4223.717773,4205.128418,2432.000000,4.000000,91.000000,,,,0.000000,4.000000,4.000000,4.000000,4.000000,4.000000,4.000000,4.000000,4.000000,4.000000,4.000000,4.000000,4.000000,4.000000,4.000000,100.000000,,,,,,,,,,,,,,,,
1645709790.208443,223.000000,0.000000,4205.384766,4190.384766,4198.205078,4206.153809,4213.846191,4217.692383,4217.436035,4225.000000,4223.333496,4219.230957,4203.077148,4162.563965,4220.384766,4203.461426,3083.000000,4.000000,91.000000,,,,0.000000,4.000000,4.000000,4.000000,4.000000,4.000000,4.000000,4.000000,4.000000,4.000000,4.000000,4.000000,4.000000,4.000000,4.000000,100.000000,,,,,,,,,,,,,,,,
1645709790.212383,224.000000,0.000000,4201.922852,4184.487305,4193.461426,4200.512695,4205.256348,4212.820313,4212.692383,4222.179688,4222.307617,4214.487305,4196.538574,4159.230957,4214.230957,4200.512695,3176.000000,4.000000,91.000000,,,,0.000000,4.000000,4.000000,4.000000,4.000000,4.000000,4.000000,4.000000,4.000000,4.000000,4.000000,4.000000,4.000000,4.000000,4.000000,100.000000,,,,,,,,,,,,,,,,
1645709790.216323,225.000000,0.000000,4196.153809,4179.230957,4187.948730,4193.589844,4197.692383,4207.179688,4207.307617,4216.666504,4218.974121,4208.461426,4190.769043,4153.205078,4207.948730,4196.282227,3272.000000,4.000000,91.000000,,,,0.000000,4.000000,4.000000,4.000000,4.000000,4.000000,4.000000,4.000000,4.000000,4.000000,4.000000,4.000000,4.000000,4.000000,4.000000,100.000000,,,,,,,,,,,,,,,,
1645709790.220264,226.000000,0.000000,4190.897461,4177.307617,4182.820313,4188.846191,4193.974121,4203.077148,4203.589844,4210.384766,4214.230957,4203.846191,4188.077148,4146.410156,4204.487305,4191.538574,2432.000000,4.000000,91.000000,,,,0.000000,4.000000,4.000000,4.000000,4.000000,4.000000,4.000000,4.000000,4.000000,4.000000,4.000000,4.000000,4.000000,4.000000,4.000000,100.000000,,,,,,,,,,,,,,,,
1645709790.224204,227.000000,0.000000,4190.256348,4179.230957,4179.743652,4187.948730,4194.102539,4201.666504,4202.692383,4206.025879,4209.871582,4202.179688,4188.333496,4141.410156,4205.128418,4188.717773,3083.000000,4.000000,91.000000,,,,0.000000,4.000000,4.000000,4.000000,4.000000,4.000000,4.000000,4.000000,4.000000,4.000000,4.000000,4.000000,4.000000,4.000000,4.000000,100.000000,,,,,,,,,,,,,,,,
1645709790.228144,228.000000,0.000000,4194.743652,4183.717773,4180.641113,4190.256348,4196.922852,4203.461426,4205.000000,4206.282227,4208.461426,4203.589844,4191.153809,4140.641113,4209.358887,4190.000000,3176.000000,4.000000,91.000000,,,,0.000000,4.000000,4.000000,4.000000,4.000000,4.000000,4.000000,4.000000,4.000000,4.000000,4.000000,4.000000,4.000000,4.000000,4.000000,100.000000,,,,,,,,,,,,,,,,
1645709790.232085,229.000000,0.000000,4201.153809,4189.102539,4185.769043,4194.230957,4201.153809,4207.563965,4209.358887,4211.410156,4211.025879,4208.205078,4196.153809,4145.000000,4215.128418,4195.769043,3272.000000,4.000000,91.000000,,,,0.000000,4.000000,4.000000,4.000000,4.000000,4.000000,4.000000,4.000000,4.000000,4.000000,4.000000,4.000000,4.000000,4.000000,4.000000,100.000000,,,,,,,,,,,,,,,,
1645709790.236025,230.000000,0.000000,4205.256348,4194.358887,4192.948730,4198.333496,4206.025879,4212.563965,4213.333496,4218.717773,4216.410156,4214.615234,4202.948730,4153.077148,4220.384766,4203.717773,2432.000000,4.000000,91.000000,,,,0.000000,4.000000,4.000000,4.000000,4.000000,4.000000,4.000000,4.000000,4.000000,4.000000,4.000000,4.000000,4.000000,4.000000,4.000000,100.000000,,,,,,,,,,,,,,,,
1645709790.239965,231.000000,0.000000,4206.282227,4197.948730,4198.974121,4201.794922,4210.000000,4216.282227,4215.256348,4224.102539,4221.538574,4220.256348,4209.358887,4161.538574,4223.205078,4209.743652,3083.000000,4.000000,91.000000,,,,0.000000,4.000000,4.000000,4.000000,4.000000,4.000000,4.000000,4.000000,4.000000,4.000000,4.000000,4.000000,4.000000,4.000000,4.000000,100.000000,,,,,,,,,,,,,,,,
1645709790.243906,232.000000,0.000000,4206.538574,4198.846191,4201.794922,4204.358887,4211.025879,4217.051270,4214.358887,4225.000000,4223.333496,4221.666504,4212.051270,4166.410156,4222.948730,4210.512695,3176.000000,4.000000,91.000000,,,,0.000000,4.000000,4.000000,4.000000,4.000000,4.000000,4.000000,4.000000,4.000000,4.000000,4.000000,4.000000,4.000000,4.000000,4.000000,100.000000,,,,,,,,,,,,,,,,
1645709790.247846,233.000000,0.000000,4207.692383,4197.820313,4201.538574,4206.538574,4209.230957,4215.384766,4212.051270,4221.922852,4221.025879,4218.589844,4210.128418,4166.153809,4220.512695,4206.666504,3272.000000,4.000000,91.000000,,,,0.000000,4.000000,4.000000,4.000000,4.000000,4.000000,4.000000,4.000000,4.000000,4.000000,4.000000,4.000000,4.000000,4.000000,4.000000,100.000000,,,,,,,,,,,,,,,,
1645709790.251787,234.000000,0.000000,4209.615234,4197.563965,4200.641113,4209.102539,4207.179688,4213.205078,4210.256348,4218.077148,4217.179688,4213.846191,4206.282227,4162.307617,4218.461426,4202.692383,2432.000000,4.000000,91.000000,,,,0.000000,4.000000,4.000000,4.000000,4.000000,4.000000,4.000000,4.000000,4.000000,4.000000,4.000000,4.000000,4.000000,4.000000,4.000000,100.000000,,,,,,,,,,,,,,,,
1645709790.255727,235.000000,0.000000,4211.025879,4199.871582,4201.666504,4212.436035,4207.692383,4212.436035,4209.871582,4216.666504,4215.641113,4212.436035,4205.128418,4159.615234,4219.358887,4202.563965,3083.000000,4.000000,91.000000,,,,0.000000,4.000000,4.000000,4.000000,4.000000,4.000000,4.000000,4.000000,4.000000,4.000000,4.000000,4.000000,4.000000,4.000000,4.000000,100.000000,,,,,,,,,,,,,,,,
1645709790.259667,236.000000,0.000000,4212.307617,4204.487305,4205.769043,4215.512695,4211.153809,4213.205078,4210.512695,4218.717773,4217.692383,4215.769043,4208.846191,4161.153809,4223.589844,4207.820313,3176.000000,4.000000,91.000000,,,,0.000000,4.000000,4.000000,4.000000,4.000000,4.000000,4.000000,4.000000,4.000000,4.000000,4.000000,4.000000,4.000000,4.000000,4.000000,100.000000,,,,,,,,,,,,,,,,
1645709790.263707,237.000000,0.000000,4214.487305,4208.461426,4212.051270,4216.666504,4214.743652,4213.846191,4211.282227,4222.692383,4221.922852,4221.410156,4215.384766,4166.794922,4228.589844,4216.410156,3272.000000,4.000000,91.000000,,,,0.000000,4.000000,4.000000,4.000000,4.000000,4.000000,4.000000,4.000000,4.000000,4.000000,4.000000,4.000000,4.000000,4.000000,4.000000,100.000000,,,,,,,,,,,,,,,,
1645709790.267648,238.000000,0.000000,4217.692383,4209.230957,4217.820313,4215.641113,4215.384766,4213.333496,4211.922852,4226.153809,4225.384766,4224.615234,4221.025879,4173.205078,4231.410156,4224.487305,2432.000000,4.000000,91.000000,,,,0.000000,4.000000,4.000000,4.000000,4.000000,4.000000,4.000000,4.000000,4.000000,4.000000,4.000000,4.000000,4.000000,4.000000,4.000000,100.000000,,,,,,,,,,,,,,,,
1645709790.271588,239.000000,0.000000,4219.358887,4206.410156,4220.512695,4213.589844,4212.948730,4211.922852,4213.077148,4226.922852,4225.897461,4223.846191,4223.717773,4177.563965,4230.897461,4229.358887,3083.000000,4.000000,91.000000,,,,0.000000,4.000000,4.000000,4.000000,4.000000,4.000000,4.000000,4.000000,4.000000,4.000000,4.000000,4.000000,4.000000,4.000000,4.000000,100.000000,,,,,,,,,,,,,,,,
1645709790.275528,240.000000,0.000000,4217.948730,4202.051270,4219.487305,4212.051270,4209.358887,4211.282227,4214.615234,4224.871582,4223.717773,4221.153809,4223.846191,4178.974121,4228.589844,4229.871582,3176.000000,4.000000,91.000000,,,,0.000000,4.000000,4.000000,4.000000,4.000000,4.000000,4.000000,4.000000,4.000000,4.000000,4.000000,4.000000,4.000000,4.000000,4.000000,100.000000,,,,,,,,,,,,,,,,
1645709790.279469,241.000000,0.000000,4214.487305,4198.205078,4216.538574,4211.025879,4206.538574,4211.666504,4215.641113,4221.025879,4220.512695,4219.358887,4222.948730,4177.563965,4226.538574,4226.666504,3272.000000,4.000000,91.000000,,,,0.000000,4.000000,4.000000,4.000000,4.000000,4.000000,4.000000,4.000000,4.000000,4.000000,4.000000,4.000000,4.000000,4.000000,4.000000,100.000000,,,,,,,,,,,,,,,,
1645709790.283409,242.000000,0.000000,4212.307617,4195.384766,4214.358887,4210.000000,4205.000000,4211.666504,4215.384766,4217.820313,4218.461426,4219.102539,4221.538574,4174.230957,4225.256348,4221.410156,2432.000000,4.000000,91.000000,,,,0.000000,4.000000,4.000000,4.000000,4.000000,4.000000,4.000000,4.000000,4.000000,4.000000,4.000000,4.000000,4.000000,4.000000,4.000000,100.000000,,,,,,,,,,,,,,,,
1645709790.287350,243.000000,0.000000,4213.589844,4193.974121,4214.358887,4209.615234,4204.743652,4210.769043,4214.230957,4217.307617,4218.589844,4219.102539,4219.615234,4170.128418,4223.846191,4216.666504,3083.000000,4.000000,91.000000,,,,0.000000,4.000000,4.000000,4.000000,4.000000,4.000000,4.000000,4.000000,4.000000,4.000000,4.000000,4.000000,4.000000,4.000000,4.000000,100.000000,,,,,,,,,,,,,,,,
1645709790.291290,244.000000,0.000000,4216.666504,4194.230957,4216.153809,4211.538574,4206.153809,4209.615234,4213.717773,4219.743652,4220.769043,4218.717773,4217.692383,4166.922852,4222.307617,4214.487305,3176.000000,4.000000,91.000000,,,,0.000000,4.000000,4.000000,4.000000,4.000000,4.000000,4.000000,4.000000,4.000000,4.000000,4.000000,4.000000,4.000000,4.000000,4.000000,100.000000,,,,,,,,,,,,,,,,
1645709790.295230,245.000000,0.000000,4218.461426,4196.410156,4217.692383,4216.153809,4209.102539,4209.743652,4214.358887,4223.333496,4223.589844,4218.717773,4216.666504,4166.025879,4221.025879,4214.358887,3272.000000,4.000000,91.000000,,,,0.000000,4.000000,4.000000,4.000000,4.000000,4.000000,4.000000,4.000000,4.000000,4.000000,4.000000,4.000000,4.000000,4.000000,4.000000,100.000000,,,,,,,,,,,,,,,,
1645709790.299171,246.000000,0.000000,4218.205078,4199.358887,4218.077148,4221.153809,4211.410156,4211.153809,4215.384766,4224.871582,4225.000000,4218.974121,4215.769043,4167.820313,4220.641113,4214.615234,2432.000000,4.000000,91.000000,,,,0.000000,4.000000,4.000000,4.000000,4.000000,4.000000,4.000000,4.000000,4.000000,4.000000,4.000000,4.000000,4.000000,4.000000,4.000000,100.000000,,,,,,,,,,,,,,,,
1645709790.303111,247.000000,0.000000,4217.692383,4201.666504,4218.077148,4223.461426,4210.641113,4212.051270,4215.384766,4222.563965,4222.948730,4217.820313,4213.205078,4170.384766,4220.512695,4213.589844,3083.000000,4.000000,91.000000,,,,0.000000,4.000000,4.000000,4.000000,4.000000,4.000000,4.000000,4.000000,4.000000,4.000000,4.000000,4.000000,4.000000,4.000000,4.000000,100.000000,,,,,,,,,,,,,,,,
1645709790.307051,248.000000,0.000000,4218.974121,4202.436035,4218.589844,4222.436035,4206.410156,4211.153809,4213.974121,4217.563965,4217.820313,4214.102539,4209.102539,4171.666504,4219.871582,4211.666504,3176.000000,4.000000,91.000000,,,,0.000000,4.000000,4.000000,4.000000,4.000000,4.000000,4.000000,4.000000,4.000000,4.000000,4.000000,4.000000,4.000000,4.000000,4.000000,100.000000,,,,,,,,,,,,,,,,
1645709790.310992,249.000000,0.000000,4221.410156,4202.179688,4219.487305,4220.897461,4201.282227,4209.230957,4212.307617,4212.948730,4212.051270,4208.717773,4205.512695,4170.897461,4218.846191,4210.000000,3272.000000,4.000000,91.000000,,,,0.000000,4.000000,4.000000,4.000000,4.000000,4.000000,4.000000,4.000000,4.000000,4.000000,4.000000,4.000000,4.000000,4.000000,4.000000,100.000000,,,,,,,,,,,,,,,,
1645709790.314932,250.000000,0.000000,4222.179688,4201.666504,4220.000000,4221.153809,4198.589844,4208.589844,4211.666504,4211.410156,4209.102539,4204.615234,4204.487305,4168.717773,4217.563965,4208.846191,2432.000000,4.000000,91.000000,,,,0.000000,4.000000,4.000000,4.000000,4.000000,4.000000,4.000000,4.000000,4.000000,4.000000,4.000000,4.000000,4.000000,4.000000,4.000000,100.000000,,,,,,,,,,,,,,,,
1645709790.318872,251.000000,0.000000,4220.384766,4201.025879,4219.102539,4222.820313,4199.487305,4209.743652,4212.051270,4213.077148,4210.256348,4203.077148,4205.000000,4165.641113,4216.282227,4207.179688,3083.000000,4.000000,91.000000,,,,0.000000,4.000000,4.000000,4.000000,4.000000,4.000000,4.000000,4.000000,4.000000,4.000000,4.000000,4.000000,4.000000,4.000000,4.000000,100.000000,,,,,,,,,,,,,,,,
1645709790.322813,252.000000,0.000000,4217.563965,4199.487305,4216.922852,4222.692383,4201.922852,4211.410156,4212.051270,4215.256348,4213.846191,4202.948730,4204.743652,4162.179688,4214.743652,4203.974121,3176.000000,4.000000,91.000000,,,,0.000000,4.000000,4.000000,4.000000,4.000000,4.000000,4.000000,4.000000,4.000000,4.000000,4.000000,4.000000,4.000000,4.000000,4.000000,100.000000,,,,,,,,,,,,,,,,
1645709790.326753,253.000000,0.000000,4216.153809,4197.563965,4215.128418,4219.743652,4203.589844,4212.051270,4211.666504,4215.641113,4217.051270,4202.692383,4201.794922,4159.102539,4212.692383,4199.871582,3272.000000,4.000000,91.000000,,,,0.000000,4.000000,4.000000,4.000000,4.000000,4.000000,4.000000,4.000000,4.000000,4.000000,4.000000,4.000000,4.000000,4.000000,4.000000,100.000000,,,,,,,,,,,,,,,,
1645709790.330693,254.000000,0.000000,4216.282227,4196.153809,4215.000000,4216.025879,4203.974121,4212.179688,4211.666504,4214.871582,4218.205078,4202.307617,4198.077148,4158.077148,4210.769043,4197.179688,2432.000000,4.000000,91.000000,,,,0.000000,4.000000,4.000000,4.000000,4.000000,4.000000,4.000000,4.000000,4.000000,4.000000,4.000000,4.000000,4.000000,4.000000,4.000000,100.000000,,,,,,,,,,,,,,,,
1645709790.334634,255.000000,0.000000,4216.666504,4196.410156,4216.666504,4215.000000,4204.487305,4213.461426,4212.820313,4214.871582,4218.077148,4203.333496,4197.179688,4160.000000,4210.000000,4197.563965,114.000000,4.000000,91.000000,,,,0.000000,4.000000,4.000000,4.000000,4.000000,4.000000,4.000000,4.000000,4.000000,4.000000,4.000000,4.000000,4.000000,4.000000,4.000000,100.000000,,,,,,,,,,,,,,,,
1645709790.338674,0.000000,0.000000,4215.897461,4197.436035,4218.589844,4217.436035,4205.641113,4215.512695,4213.846191,4215.897461,4217.307617,4205.512695,4200.128418,4163.589844,4210.512695,4200.256348,3261.000000,4.000000,91.000000,,,,0.000000,4.000000,4.000000,4.000000,4.000000,4.000000,4.000000,4.000000,4.000000,4.000000,4.000000,4.000000,4.000000,4.000000,4.000000,100.000000,,,,,,,,,,,,,,,,
1645709790.342614,1.000000,0.000000,4214.230957,4197.179688,4218.461426,4220.641113,4205.897461,4216.153809,4213.205078,4216.153809,4216.153809,4206.153809,4204.358887,4166.282227,4211.282227,4202.692383,3405.000000,4.000000,91.000000,,,,0.000000,4.000000,4.000000,4.000000,4.000000,4.000000,4.000000,4.000000,4.000000,4.000000,4.000000,4.000000,4.000000,4.000000,4.000000,100.000000,,,,,,,,,,,,,,,,
1645709790.346555,2.000000,0.000000,4212.692383,4194.743652,4215.897461,4220.641113,4203.461426,4213.974121,4210.512695,4213.846191,4214.230957,4203.461426,4206.025879,4166.153809,4211.025879,4202.692383,2413.000000,4.000000,91.000000,,,,0.000000,4.000000,4.000000,4.000000,4.000000,4.000000,4.000000,4.000000,4.000000,4.000000,4.000000,4.000000,4.000000,4.000000,4.000000,100.000000,,,,,,,,,,,,,,,,
1645709790.350495,3.000000,0.000000,4210.641113,4191.538574,4211.794922,4217.179688,4199.615234,4210.769043,4207.436035,4210.128418,4212.692383,4199.358887,4204.358887,4163.589844,4209.871582,4200.641113,3351.000000,4.000000,91.000000,,,,0.000000,4.000000,4.000000,4.000000,4.000000,4.000000,4.000000,4.000000,4.000000,4.000000,4.000000,4.000000,4.000000,4.000000,4.000000,100.000000,,,,,,,,,,,,,,,,
1645709790.354435,4.000000,0.000000,4207.307617,4190.384766,4207.948730,4212.692383,4197.820313,4210.000000,4206.666504,4207.692383,4212.948730,4197.563965,4202.436035,4160.641113,4210.000000,4198.589844,3696.000000,4.000000,91.000000,,,,0.000000,4.000000,4.000000,4.000000,4.000000,4.000000,4.000000,4.000000,4.000000,4.000000,4.000000,4.000000,4.000000,4.000000,4.000000,100.000000,,,,,,,,,,,,,,,,
1645709790.358376,5.000000,0.000000,4203.589844,4192.307617,4205.256348,4210.384766,4200.128418,4213.205078,4208.974121,4208.461426,4215.769043,4200.384766,4203.205078,4159.615234,4212.563965,4198.333496,3407.000000,4.000000,91.000000,,,,0.000000,4.000000,4.000000,4.000000,4.000000,4.000000,4.000000,4.000000,4.000000,4.000000,4.000000,4.000000,4.000000,4.000000,4.000000,100.000000,,,,,,,,,,,,,,,,
1645709790.362316,6.000000,0.000000,4201.666504,4195.641113,4203.205078,4210.512695,4205.000000,4217.436035,4212.179688,4212.436035,4220.000000,4206.025879,4207.051270,4160.769043,4216.922852,4199.358887,3411.000000,4.000000,91.000000,,,,0.000000,4.000000,4.000000,4.000000,4.000000,4.000000,4.000000,4.000000,4.000000,4.000000,4.000000,4.000000,4.000000,4.000000,4.000000,100.000000,,,,,,,,,,,,,,,,
1645709790.366256,7.000000,0.000000,4202.948730,4197.436035,4201.410156,4210.512695,4208.589844,4218.205078,4213.974121,4217.692383,4223.077148,4210.641113,4210.769043,4162.948730,4220.128418,4199.615234,2612.000000,4.000000,91.000000,,,,0.000000,4.000000,4.000000,4.000000,4.000000,4.000000,4.000000,4.000000,4.000000,4.000000,4.000000,4.000000,4.000000,4.000000,4.000000,100.000000,,,,,,,,,,,,,,,,
1645709790.370197,8.000000,0.000000,4205.256348,4196.282227,4200.384766,4208.205078,4209.102539,4214.487305,4213.333496,4222.051270,4223.717773,4212.179688,4211.922852,4164.102539,4220.512695,4197.820313,1626.000000,4.000000,91.000000,,,,0.000000,4.000000,4.000000,4.000000,4.000000,4.000000,4.000000,4.000000,4.000000,4.000000,4.000000,4.000000,4.000000,4.000000,4.000000,100.000000,,,,,,,,,,,,,,,,
1645709790.374137,9.000000,0.000000,4205.000000,4193.077148,4200.512695,4203.846191,4207.563965,4209.358887,4211.666504,4223.846191,4222.563965,4211.282227,4210.000000,4162.692383,4218.461426,4195.000000,3270.000000,4.000000,91.000000,,,,0.000000,4.000000,4.000000,4.000000,4.000000,4.000000,4.000000,4.000000,4.000000,4.000000,4.000000,4.000000,4.000000,4.000000,4.000000,100.000000,,,,,,,,,,,,,,,,
1645709790.378077,10.000000,0.000000,4201.025879,4190.000000,4201.410156,4200.128418,4205.769043,4206.410156,4210.512695,4222.820313,4222.051270,4209.743652,4206.282227,4158.846191,4215.256348,4192.948730,2586.000000,4.000000,91.000000,,,,0.000000,4.000000,4.000000,4.000000,4.000000,4.000000,4.000000,4.000000,4.000000,4.000000,4.000000,4.000000,4.000000,4.000000,4.000000,100.000000,,,,,,,,,,,,,,,,
1645709790.382018,11.000000,0.000000,4196.025879,4188.077148,4201.153809,4198.846191,4204.358887,4206.538574,4210.256348,4219.871582,4223.333496,4208.205078,4202.948730,4153.461426,4211.922852,4192.692383,3082.000000,4.000000,91.000000,,,,0.000000,4.000000,4.000000,4.000000,4.000000,4.000000,4.000000,4.000000,4.000000,4.000000,4.000000,4.000000,4.000000,4.000000,4.000000,100.000000,,,,,,,,,,,,,,,,
1645709790.385958,12.000000,0.000000,4193.077148,4187.436035,4198.461426,4200.256348,4202.692383,4208.077148,4210.000000,4216.794922,4225.641113,4206.666504,4201.666504,4148.717773,4209.615234,4193.974121,3336.000000,4.000000,91.000000,,,,0.000000,4.000000,4.000000,4.000000,4.000000,4.000000,4.000000,4.000000,4.000000,4.000000,4.000000,4.000000,4.000000,4.000000,4.000000,100.000000,,,,,,,,,,,,,,,,
1645709790.389898,13.000000,0.000000,4192.948730,4187.948730,4193.717773,4203.333496,4201.153809,4209.102539,4208.974121,4215.256348,4227.563965,4205.769043,4203.461426,4146.538574,4209.102539,4195.000000,3278.000000,4.000000,91.000000,,,,0.000000,4.000000,4.000000,4.000000,4.000000,4.000000,4.000000,4.000000,4.000000,4.000000,4.000000,4.000000,4.000000,4.000000,4.000000,100.000000,,,,,,,,,,,,,,,,
1645709790.393839,14.000000,0.000000,4193.846191,4190.128418,4189.743652,4206.794922,4201.282227,4209.487305,4207.948730,4216.153809,4228.205078,4206.922852,4208.461426,4147.948730,4211.410156,4195.000000,2586.000000,4.000000,91.000000,,,,0.000000,4.000000,4.000000,4.000000,4.000000,4.000000,4.000000,4.000000,4.000000,4.000000,4.000000,4.000000,4.000000,4.000000,4.000000,100.000000,,,,,,,,,,,,,,,,
1645709790.397779,15.000000,0.000000,4194.743652,4194.487305,4189.102539,4209.871582,4204.102539,4210.384766,4207.692383,4219.358887,4228.077148,4210.384766,4215.000000,4151.922852,4216.025879,4194.230957,3082.000000,4.000000,91.000000,,,,0.000000,4.000000,4.000000,4.000000,4.000000,4.000000,4.000000,4.000000,4.000000,4.000000,4.000000,4.000000,4.000000,4.000000,4.000000,100.000000,,,,,,,,,,,,,,,,
1645709790.401820,16.000000,0.000000,4197.307617,4199.871582,4192.436035,4211.922852,4208.077148,4212.179688,4208.974121,4222.820313,4227.948730,4214.615234,4220.128418,4156.410156,4221.153809,4193.846191,3336.000000,4.000000,91.000000,,,,0.000000,4.000000,4.000000,4.000000,4.000000,4.000000,4.000000,4.000000,4.000000,4.000000,4.000000,4.000000,4.000000,4.000000,4.000000,100.000000,,,,,,,,,,,,,,,,
1645709790.405760,17.000000,0.000000,4202.692383,4204.615234,4197.820313,4212.820313,4210.641113,4213.717773,4210.769043,4224.487305,4227.820313,4216.794922,4221.666504,4159.743652,4224.102539,4194.358887,3278.000000,4.000000,91.000000,,,,0.000000,4.000000,4.000000,4.000000,4.000000,4.000000,4.000000,4.000000,4.000000,4.000000,4.000000,4.000000,4.000000,4.000000,4.000000,100.000000,,,,,,,,,,,,,,,,
1645709790.409701,18.000000,0.000000,4208.589844,4207.307617,4202.820313,4212.563965,4210.384766,4213.974121,4211.922852,4222.820313,4227.179688,4215.641113,4220.256348,4161.282227,4223.205078,4196.410156,2586.000000,4.000000,91.000000,,,,0.000000,4.000000,4.000000,4.000000,4.000000,4.000000,4.000000,4.000000,4.000000,4.000000,4.000000,4.000000,4.000000,4.000000,4.000000,100.000000,,,,,,,,,,,,,,,,
1645709790.413641,19.000000,0.000000,4211.282227,4207.948730,4205.641113,4212.307617,4208.461426,4212.948730,4211.153809,4218.205078,4225.000000,4211.666504,4218.461426,4161.538574,4219.743652,4200.000000,3082.000000,4.000000,91.000000,,,,0.000000,4.000000,4.000000,4.000000,4.000000,4.000000,4.000000,4.000000,4.000000,4.000000,4.000000,4.000000,4.000000,4.000000,4.000000,100.000000,,,,,,,,,,,,,,,,
1645709790.417582,20.000000,0.000000,4209.487305,4207.692383,4206.538574,4213.333496,4206.666504,4211.410156,4208.333496,4212.051270,4221.282227,4207.179688,4217.948730,4161.666504,4216.153809,4204.102539,3336.000000,4.000000,91.000000,,,,0.000000,4.000000,4.000000,4.000000,4.000000,4.000000,4.000000,4.000000,4.000000,4.000000,4.000000,4.000000,4.000000,4.000000,4.000000,100.000000,,,,,,,,,,,,,,,,
1645709790.421522,21.000000,0.000000,4206.282227,4207.307617,4206.666504,4215.384766,4205.641113,4209.871582,4204.743652,4207.179688,4217.179688,4204.358887,4218.461426,4161.794922,4213.717773,4206.794922,3278.000000,4.000000,91.000000,,,,0.000000,4.000000,4.000000,4.000000,4.000000,4.000000,4.000000,4.000000,4.000000,4.000000,4.000000,4.000000,4.000000,4.000000,4.000000,100.000000,,,,,,,,,,,,,,,,
1645709790.425463,22.000000,0.000000,4206.282227,4206.922852,4207.948730,4216.794922,4205.256348,4208.461426,4202.948730,4206.025879,4213.974121,4203.974121,4218.846191,4162.307617,4211.922852,4207.051270,2586.000000,4.000000,91.000000,,,,0.000000,4.000000,4.000000,4.000000,4.000000,4.000000,4.000000,4.000000,4.000000,4.000000,4.000000,4.000000,4.000000,4.000000,4.000000,100.000000,,,,,,,,,,,,,,,,
1645709790.429404,23.000000,0.000000,4210.128418,4207.436035,4211.153809,4217.179688,4206.538574,4208.333496,4205.256348,4209.102539,4213.461426,4206.025879,4219.487305,4163.974121,4210.897461,4206.025879,3082.000000,4.000000,91.000000,,,,0.000000,4.000000,4.000000,4.000000,4.000000,4.000000,4.000000,4.000000,4.000000,4.000000,4.000000,4.000000,4.000000,4.000000,4.000000,100.000000,,,,,,,,,,,,,,,,
1645709790.433344,24.000000,0.000000,4215.256348,4210.128418,4215.769043,4217.692383,4210.512695,4211.025879,4211.410156,4214.743652,4216.025879,4210.512695,4222.563965,4167.563965,4211.410156,4206.282227,3336.000000,4.000000,91.000000,,,,0.000000,4.000000,4.000000,4.000000,4.000000,4.000000,4.000000,4.000000,4.000000,4.000000,4.000000,4.000000,4.000000,4.000000,4.000000,100.000000,,,,,,,,,,,,,,,,
1645709790.437285,25.000000,0.000000,4218.333496,4215.256348,4220.641113,4220.384766,4216.538574,4216.538574,4218.461426,4219.871582,4220.512695,4216.538574,4228.846191,4173.461426,4214.102539,4209.102539,3278.000000,4.000000,91.000000,,,,0.000000,4.000000,4.000000,4.000000,4.000000,4.000000,4.000000,4.000000,4.000000,4.000000,4.000000,4.000000,4.000000,4.000000,4.000000,100.000000,,,,,,,,,,,,,,,,
1645709790.441225,26.000000,0.000000,4219.358887,4220.641113,4224.358887,4225.000000,4221.025879,4222.179688,4222.820313,4223.077148,4224.743652,4221.794922,4235.256348,4179.230957,4217.692383,4213.077148,2586.000000,4.000000,91.000000,,,,0.000000,4.000000,4.000000,4.000000,4.000000,4.000000,4.000000,4.000000,4.000000,4.000000,4.000000,4.000000,4.000000,4.000000,4.000000,100.000000,,,,,,,,,,,,,,,,
1645709790.445166,27.000000,0.000000,4220.128418,4223.205078,4225.897461,4229.102539,4220.769043,4224.871582,4222.948730,4224.102539,4226.666504,4223.589844,4237.563965,4182.051270,4219.230957,4215.000000,3082.000000,4.000000,91.000000,,,,0.000000,4.000000,4.000000,4.000000,4.000000,4.000000,4.000000,4.000000,4.000000,4.000000,4.000000,4.000000,4.000000,4.000000,4.000000,100.000000,,,,,,,,,,,,,,,,
1645709790.449107,28.000000,0.000000,4221.410156,4221.794922,4225.512695,4231.153809,4216.666504,4224.102539,4221.153809,4224.358887,4226.666504,4221.794922,4234.230957,4180.769043,4217.307617,4213.333496,3336.000000,4.000000,91.000000,,,,0.000000,4.000000,4.000000,4.000000,4.000000,4.000000,4.000000,4.000000,4.000000,4.000000,4.000000,4.000000,4.000000,4.000000,4.000000,100.000000,,,,,,,,,,,,,,,,
1645709790.453047,29.000000,0.000000,4221.538574,4218.461426,4223.846191,4231.153809,4212.692383,4222.436035,4220.769043,4225.384766,4226.153809,4219.358887,4228.461426,4177.692383,4213.333496,4210.641113,3278.000000,4.000000,91.000000,,,,0.000000,4.000000,4.000000,4.000000,4.000000,4.000000,4.000000,4.000000,4.000000,4.000000,4.000000,4.000000,4.000000,4.000000,4.000000,100.000000,,,,,,,,,,,,,,,,
1645709790.456988,30.000000,0.000000,4219.358887,4215.641113,4221.922852,4229.871582,4212.307617,4222.307617,4222.948730,4227.563965,4226.666504,4219.358887,4225.384766,4176.025879,4210.384766,4210.512695,2586.000000,4.000000,91.000000,,,,0.000000,4.000000,4.000000,4.000000,4.000000,4.000000,4.000000,4.000000,4.000000,4.000000,4.000000,4.000000,4.000000,4.000000,4.000000,100.000000,,,,,,,,,,,,,,,,
1645709790.460928,31.000000,0.000000,4216.153809,4214.230957,4220.128418,4227.436035,4215.000000,4223.846191,4225.384766,4229.487305,4227.948730,4221.794922,4226.282227,4177.051270,4210.256348,4214.358887,3082.000000,4.000000,91.000000,,,,0.000000,4.000000,4.000000,4.000000,4.000000,4.000000,4.000000,4.000000,4.000000,4.000000,4.000000,4.000000,4.000000,4.000000,4.000000,100.000000,,,,,,,,,,,,,,,,
1645709790.464869,32.000000,0.000000,4214.743652,4213.333496,4218.846191,4223.717773,4217.179688,4224.743652,4225.897461,4229.487305,4228.717773,4223.717773,4228.461426,4179.743652,4212.051270,4219.743652,0.000000,4.000000,91.000000,,,,0.000000,4.000000,4.000000,4.000000,4.000000,4.000000,4.000000,4.000000,4.000000,4.000000,4.000000,4.000000,4.000000,4.000000,4.000000,100.000000,,,,,,,,,,,,,,,,
1645709790.468909,33.000000,0.000000,4216.538574,4212.436035,4218.589844,4220.256348,4216.922852,4223.846191,4224.102539,4227.563965,4227.692383,4223.205078,4228.846191,4182.179688,4214.102539,4222.948730,0.000000,4.000000,91.000000,,,,0.000000,4.000000,4.000000,4.000000,4.000000,4.000000,4.000000,4.000000,4.000000,4.000000,4.000000,4.000000,4.000000,4.000000,4.000000,100.000000,,,,,,,,,,,,,,,,
1645709790.472850,34.000000,0.000000,4219.871582,4213.077148,4219.487305,4219.871582,4215.384766,4222.179688,4222.307617,4225.384766,4225.512695,4221.282227,4227.436035,4183.846191,4215.512695,4221.922852,0.000000,4.000000,91.000000,,,,0.000000,4.000000,4.000000,4.000000,4.000000,4.000000,4.000000,4.000000,4.000000,4.000000,4.000000,4.000000,4.000000,4.000000,4.000000,100.000000,,,,,,,,,,,,,,,,
1645709790.476790,35.000000,0.000000,4222.179688,4215.897461,4221.410156,4223.717773,4214.871582,4221.922852,4222.436035,4224.358887,4223.461426,4220.000000,4226.794922,4184.871582,4215.769043,4217.563965,0.000000,4.000000,91.000000,,,,0.000000,4.000000,4.000000,4.000000,4.000000,4.000000,4.000000,4.000000,4.000000,4.000000,4.000000,4.000000,4.000000,4.000000,4.000000,100.000000,,,,,,,,,,,,,,,,
1645709790.480731,36.000000,0.000000,4222.692383,4220.128418,4223.974121,4229.487305,4216.538574,4223.974121,4224.743652,4224.615234,4222.563965,4219.743652,4227.692383,4185.256348,4214.871582,4212.436035,0.000000,4.000000,91.000000,,,,0.000000,4.000000,4.000000,4.000000,4.000000,4.000000,4.000000,4.000000,4.000000,4.000000,4.000000,4.000000,4.000000,4.000000,4.000000,100.000000,,,,,,,,,,,,,,,,
1645709790.484672,37.000000,0.000000,4223.077148,4223.589844,4226.922852,4233.205078,4219.230957,4226.922852,4227.820313,4225.384766,4222.692383,4219.102539,4228.589844,4183.717773,4213.077148,4208.974121,0.000000,4.000000,91.000000,,,,0.000000,4.000000,4.000000,4.000000,4.000000,4.000000,4.000000,4.000000,4.000000,4.000000,4.000000,4.000000,4.000000,4.000000,4.000000,100.000000,,,,,,,,,,,,,,,,
1645709790.488612,38.000000,0.000000,4224.487305,4224.615234,4229.230957,4232.820313,4221.410156,4229.743652,4230.769043,4226.666504,4223.717773,4217.563965,4227.692383,4180.512695,4211.282227,4208.077148,0.000000,4.000000,91.000000,,,,0.000000,4.000000,4.000000,4.000000,4.000000,4.000000,4.000000,4.000000,4.000000,4.000000,4.000000,4.000000,4.000000,4.000000,4.000000,100.000000,,,,,,,,,,,,,,,,
1645709790.492553,39.000000,0.000000,4226.153809,4224.871582,4230.256348,4230.128418,4223.333496,4232.820313,4233.589844,4228.461426,4225.384766,4216.794922,4225.384766,4177.820313,4210.641113,4209.615234,0.000000,4.000000,91.000000,,,,0.000000,4.000000,4.000000,4.000000,4.000000,4.000000,4.000000,4.000000,4.000000,4.000000,4.000000,4.000000,4.000000,4.000000,4.000000,100.000000,,,,,,,,,,,,,,,,
1645709790.496493,40.000000,0.000000,4226.538574,4226.410156,4230.256348,4228.717773,4226.153809,4236.794922,4236.025879,4231.025879,4228.205078,4219.230957,4224.230957,4178.589844,4212.692383,4212.948730,0.000000,4.000000,91.000000,,,,0.000000,4.000000,4.000000,4.000000,4.000000,4.000000,4.000000,4.000000,4.000000,4.000000,4.000000,4.000000,4.000000,4.000000,4.000000,100.000000,,,,,,,,,,,,,,,,
1645709790.500434,41.000000,0.000000,4226.153809,4230.128418,4230.384766,4230.384766,4230.256348,4240.897461,4238.077148,4234.102539,4231.538574,4225.128418,4226.153809,4183.589844,4216.794922,4217.051270,0.000000,4.000000,91.000000,,,,0.000000,4.000000,4.000000,4.000000,4.000000,4.000000,4.000000,4.000000,4.000000,4.000000,4.000000,4.000000,4.000000,4.000000,4.000000,100.000000,,,,,,,,,,,,,,,,
1645709790.504375,42.000000,0.000000,4227.179688,4234.487305,4231.794922,4234.102539,4234.102539,4243.333496,4239.615234,4236.794922,4234.615234,4231.538574,4230.128418,4190.256348,4220.897461,4221.025879,0.000000,4.000000,91.000000,,,,0.000000,4.000000,4.000000,4.000000,4.000000,4.000000,4.000000,4.000000,4.000000,4.000000,4.000000,4.000000,4.000000,4.000000,4.000000,100.000000,,,,,,,,,,,,,,,,
1645709790.508315,43.000000,0.000000,4230.000000,4236.922852,4233.974121,4237.436035,4235.769043,4243.077148,4241.025879,4238.461426,4236.666504,4235.000000,4233.461426,4194.743652,4223.205078,4222.948730,0.000000,4.000000,91.000000,,,,0.000000,4.000000,4.000000,4.000000,4.000000,4.000000,4.000000,4.000000,4.000000,4.000000,4.000000,4.000000,4.000000,4.000000,4.000000,100.000000,,,,,,,,,,,,,,,,
1645709790.512256,44.000000,0.000000,4231.794922,4235.897461,4235.256348,4238.717773,4234.487305,4241.282227,4241.922852,4238.717773,4237.051270,4234.615234,4234.102539,4194.487305,4223.205078,4221.538574,0.000000,4.000000,91.000000,,,,0.000000,4.000000,4.000000,4.000000,4.000000,4.000000,4.000000,4.000000,4.000000,4.000000,4.000000,4.000000,4.000000,4.000000,4.000000,100.000000,1.000000,75.000000,1.000000,4.000000,4.000000,4.000000,4.000000,4.000000,4.000000,4.000000,4.000000,4.000000,4.000000,4.000000,4.000000,4.000000
1645709790.516296,45.000000,0.000000,4229.487305,4231.666504,4233.589844,4237.179688,4230.897461,4239.487305,4241.282227,4237.692383,4235.256348,4231.666504,4231.922852,4190.256348,4221.025879,4216.410156,0.000000,4.000000,91.000000,,,,0.000000,4.000000,4.000000,4.000000,4.000000,4.000000,4.000000,4.000000,4.000000,4.000000,4.000000,4.000000,4.000000,4.000000,4.000000,100.000000,,,,,,,,,,,,,,,,
1645709790.520237,46.000000,0.000000,4223.333496,4225.769043,4228.846191,4232.948730,4226.282227,4237.692383,4238.205078,4235.384766,4231.794922,4228.077148,4227.948730,4184.102539,4217.820313,4210.000000,0.000000,4.000000,91.000000,,,,0.000000,4.000000,4.000000,4.000000,4.000000,4.000000,4.000000,4.000000,4.000000,4.000000,4.000000,4.000000,4.000000,4.000000,4.000000,100.000000,,,,,,,,,,,,,,,,
