title:Alex-C6IrOWNiGQrb9kli0bfsWw, start timestamp:1645709982.259498, stop timestamp:1645710008.360754, headset type:EPOCPLUS, headset serial:3B9AEBFF, headset firmware:626, channels:55, sampling rate:eeg_256, samples:6625      , version:2.1, 
Timestamp,EEG.Counter,EEG.Interpolated,EEG.AF3,EEG.F7,EEG.F3,EEG.FC5,EEG.T7,EEG.P7,EEG.O1,EEG.O2,EEG.P8,EEG.T8,EEG.FC6,EEG.F4,EEG.F8,EEG.AF4,EEG.RawCq,EEG.Battery,EEG.BatteryPercent,MarkerIndex,MarkerType,MarkerValueInt,EEG.MarkerHardware,CQ.AF3,CQ.F7,CQ.F3,CQ.FC5,CQ.T7,CQ.P7,CQ.O1,CQ.O2,CQ.P8,CQ.T8,CQ.FC6,CQ.F4,CQ.F8,CQ.AF4,CQ.Overall,EQ.SampleRateQuality,EQ.OVERALL,EQ.AF3,EQ.F7,EQ.F3,EQ.FC5,EQ.T7,EQ.P7,EQ.O1,EQ.O2,EQ.P8,EQ.T8,EQ.FC6,EQ.F4,EQ.F8,EQ.AF4
1645709982.259498,68.000000,0.000000,4170.000000,4162.307617,4213.333496,4181.153809,4205.256348,4210.000000,4230.512695,4227.563965,4216.153809,4221.538574,4158.974121,4093.461426,4214.358887,4204.487305,0.000000,4.000000,91.000000,,,,0.000000,4.000000,4.000000,4.000000,4.000000,4.000000,4.000000,4.000000,4.000000,4.000000,4.000000,4.000000,4.000000,4.000000,4.000000,100.000000,,,,,,,,,,,,,,,,
1645709982.263338,69.000000,0.000000,4170.256348,4159.102539,4216.025879,4180.897461,4207.692383,4209.743652,4231.410156,4229.743652,4217.179688,4219.487305,4159.102539,4094.615479,4215.512695,4199.487305,0.000000,4.000000,91.000000,,,,0.000000,4.000000,4.000000,4.000000,4.000000,4.000000,4.000000,4.000000,4.000000,4.000000,4.000000,4.000000,4.000000,4.000000,4.000000,100.000000,,,,,,,,,,,,,,,,
1645709982.267278,70.000000,0.000000,4171.410156,4158.717773,4217.436035,4182.436035,4210.641113,4211.282227,4231.153809,4233.205078,4219.487305,4218.461426,4159.487305,4097.948730,4219.487305,4200.256348,0.000000,4.000000,91.000000,,,,0.000000,4.000000,4.000000,4.000000,4.000000,4.000000,4.000000,4.000000,4.000000,4.000000,4.000000,4.000000,4.000000,4.000000,4.000000,100.000000,,,,,,,,,,,,,,,,
1645709982.271218,71.000000,0.000000,4173.077148,4160.641113,4216.410156,4182.948730,4210.641113,4212.436035,4229.358887,4234.615234,4221.666504,4218.717773,4159.358887,4100.384766,4223.589844,4205.769043,0.000000,4.000000,91.000000,,,,0.000000,4.000000,4.000000,4.000000,4.000000,4.000000,4.000000,4.000000,4.000000,4.000000,4.000000,4.000000,4.000000,4.000000,4.000000,100.000000,,,,,,,,,,,,,,,,
1645709982.275158,72.000000,0.000000,4173.205078,4161.922852,4212.563965,4180.384766,4206.025879,4210.769043,4225.897461,4231.410156,4221.922852,4218.974121,4158.589844,4099.358887,4224.615234,4212.307617,0.000000,4.000000,91.000000,,,,0.000000,4.000000,4.000000,4.000000,4.000000,4.000000,4.000000,4.000000,4.000000,4.000000,4.000000,4.000000,4.000000,4.000000,4.000000,100.000000,,,,,,,,,,,,,,,,
1645709982.279098,73.000000,0.000000,4170.512695,4160.000000,4207.179688,4175.256348,4198.205078,4206.666504,4220.897461,4223.846191,4220.000000,4217.307617,4156.794922,4094.487061,4221.410156,4216.410156,0.000000,4.000000,91.000000,,,,0.000000,4.000000,4.000000,4.000000,4.000000,4.000000,4.000000,4.000000,4.000000,4.000000,4.000000,4.000000,4.000000,4.000000,4.000000,100.000000,,,,,,,,,,,,,,,,
1645709982.283038,74.000000,0.000000,4165.897461,4154.615234,4202.051270,4170.256348,4191.025879,4202.307617,4215.128418,4215.512695,4217.307617,4212.179688,4154.230957,4088.718018,4216.025879,4217.179688,0.000000,4.000000,91.000000,,,,0.000000,4.000000,4.000000,4.000000,4.000000,4.000000,4.000000,4.000000,4.000000,4.000000,4.000000,4.000000,4.000000,4.000000,4.000000,100.000000,,,,,,,,,,,,,,,,
1645709982.286979,75.000000,0.000000,4162.436035,4148.205078,4198.717773,4167.820313,4187.692383,4200.000000,4210.769043,4210.897461,4215.641113,4204.615234,4151.282227,4085.897461,4211.666504,4215.897461,0.000000,4.000000,91.000000,,,,0.000000,4.000000,4.000000,4.000000,4.000000,4.000000,4.000000,4.000000,4.000000,4.000000,4.000000,4.000000,4.000000,4.000000,4.000000,100.000000,,,,,,,,,,,,,,,,
1645709982.290919,76.000000,0.000000,4162.051270,4144.102539,4197.563965,4167.948730,4188.974121,4200.256348,4209.487305,4211.666504,4215.256348,4198.077148,4149.230957,4087.307617,4210.641113,4214.615234,0.000000,4.000000,91.000000,,,,0.000000,4.000000,4.000000,4.000000,4.000000,4.000000,4.000000,4.000000,4.000000,4.000000,4.000000,4.000000,4.000000,4.000000,4.000000,100.000000,,,,,,,,,,,,,,,,
1645709982.294859,77.000000,0.000000,4163.974121,4144.358887,4198.461426,4170.256348,4193.077148,4202.051270,4211.666504,4215.512695,4215.128418,4196.282227,4149.743652,4090.897461,4213.205078,4214.102539,0.000000,4.000000,91.000000,,,,0.000000,4.000000,4.000000,4.000000,4.000000,4.000000,4.000000,4.000000,4.000000,4.000000,4.000000,4.000000,4.000000,4.000000,4.000000,100.000000,,,,,,,,,,,,,,,,
1645709982.298799,78.000000,0.000000,4165.256348,4148.205078,4200.256348,4173.461426,4197.436035,4203.589844,4215.256348,4218.461426,4214.487305,4200.256348,4153.461426,4092.820557,4217.563965,4214.230957,0.000000,4.000000,91.000000,,,,0.000000,4.000000,4.000000,4.000000,4.000000,4.000000,4.000000,4.000000,4.000000,4.000000,4.000000,4.000000,4.000000,4.000000,4.000000,100.000000,,,,,,,,,,,,,,,,
1645709982.302739,79.000000,0.000000,4164.615234,4153.205078,4201.794922,4176.666504,4199.230957,4203.846191,4217.436035,4218.461426,4213.333496,4206.666504,4157.948730,4092.051270,4221.153809,4214.102539,0.000000,4.000000,91.000000,,,,0.000000,4.000000,4.000000,4.000000,4.000000,4.000000,4.000000,4.000000,4.000000,4.000000,4.000000,4.000000,4.000000,4.000000,4.000000,100.000000,,,,,,,,,,,,,,,,
1645709982.306679,80.000000,0.000000,4163.461426,4156.794922,4201.922852,4177.563965,4197.436035,4202.436035,4216.538574,4215.769043,4211.794922,4209.871582,4159.871582,4089.871826,4221.538574,4213.589844,0.000000,4.000000,91.000000,,,,0.000000,4.000000,4.000000,4.000000,4.000000,4.000000,4.000000,4.000000,4.000000,4.000000,4.000000,4.000000,4.000000,4.000000,4.000000,100.000000,,,,,,,,,,,,,,,,
1645709982.310619,81.000000,0.000000,4163.589844,4158.333496,4200.897461,4174.615234,4193.461426,4200.384766,4213.846191,4212.051270,4210.000000,4206.025879,4156.794922,4088.589844,4218.461426,4212.820313,0.000000,4.000000,91.000000,,,,0.000000,4.000000,4.000000,4.000000,4.000000,4.000000,4.000000,4.000000,4.000000,4.000000,4.000000,4.000000,4.000000,4.000000,4.000000,100.000000,,,,,,,,,,,,,,,,
1645709982.314559,82.000000,0.000000,4165.384766,4158.077148,4200.000000,4168.717773,4190.512695,4199.102539,4211.794922,4208.717773,4208.333496,4196.794922,4150.512695,4089.102539,4213.846191,4212.307617,0.000000,4.000000,91.000000,,,,0.000000,4.000000,4.000000,4.000000,4.000000,4.000000,4.000000,4.000000,4.000000,4.000000,4.000000,4.000000,4.000000,4.000000,4.000000,100.000000,,,,,,,,,,,,,,,,
1645709982.318499,83.000000,0.000000,4167.307617,4157.179688,4200.384766,4163.974121,4191.282227,4200.000000,4211.922852,4207.051270,4207.692383,4188.461426,4145.256348,4090.128174,4210.384766,4212.307617,0.000000,4.000000,91.000000,,,,0.000000,4.000000,4.000000,4.000000,4.000000,4.000000,4.000000,4.000000,4.000000,4.000000,4.000000,4.000000,4.000000,4.000000,4.000000,100.000000,,,,,,,,,,,,,,,,
1645709982.322439,84.000000,0.000000,4167.692383,4156.410156,4201.794922,4164.102539,4195.512695,4202.563965,4213.589844,4207.692383,4208.077148,4186.666504,4144.230957,4090.128174,4209.743652,4212.307617,0.000000,4.000000,91.000000,,,,0.000000,4.000000,4.000000,4.000000,4.000000,4.000000,4.000000,4.000000,4.000000,4.000000,4.000000,4.000000,4.000000,4.000000,4.000000,100.000000,,,,,,,,,,,,,,,,
1645709982.326380,85.000000,0.000000,4167.179688,4155.512695,4202.563965,4168.717773,4199.487305,4204.102539,4214.871582,4210.384766,4209.743652,4191.794922,4146.538574,4088.718018,4211.153809,4211.410156,0.000000,4.000000,91.000000,,,,0.000000,4.000000,4.000000,4.000000,4.000000,4.000000,4.000000,4.000000,4.000000,4.000000,4.000000,4.000000,4.000000,4.000000,4.000000,100.000000,,,,,,,,,,,,,,,,
1645709982.330320,86.000000,0.000000,4167.051270,4154.358887,4202.051270,4173.974121,4198.974121,4202.436035,4214.743652,4213.974121,4211.922852,4199.615234,4148.717773,4087.435791,4212.820313,4210.256348,0.000000,4.000000,91.000000,,,,0.000000,4.000000,4.000000,4.000000,4.000000,4.000000,4.000000,4.000000,4.000000,4.000000,4.000000,4.000000,4.000000,4.000000,4.000000,100.000000,,,,,,,,,,,,,,,,
1645709982.334360,87.000000,0.000000,4167.820313,4152.820313,4201.666504,4176.666504,4193.974121,4198.205078,4213.846191,4217.179688,4214.230957,4205.384766,4149.358887,4088.205078,4213.589844,4210.384766,0.000000,4.000000,91.000000,,,,0.000000,4.000000,4.000000,4.000000,4.000000,4.000000,4.000000,4.000000,4.000000,4.000000,4.000000,4.000000,4.000000,4.000000,4.000000,100.000000,,,,,,,,,,,,,,,,
1645709982.338300,88.000000,0.000000,4168.846191,4151.922852,4203.333496,4176.410156,4188.846191,4194.487305,4213.846191,4218.461426,4215.897461,4207.436035,4149.487305,4092.051270,4214.102539,4213.077148,0.000000,4.000000,91.000000,,,,0.000000,4.000000,4.000000,4.000000,4.000000,4.000000,4.000000,4.000000,4.000000,4.000000,4.000000,4.000000,4.000000,4.000000,4.000000,100.000000,,,,,,,,,,,,,,,,
1645709982.342240,89.000000,0.000000,4169.487305,4151.794922,4207.307617,4175.000000,4188.205078,4194.102539,4215.256348,4217.307617,4216.410156,4207.307617,4151.538574,4098.077148,4215.769043,4217.563965,0.000000,4.000000,91.000000,,,,0.000000,4.000000,4.000000,4.000000,4.000000,4.000000,4.000000,4.000000,4.000000,4.000000,4.000000,4.000000,4.000000,4.000000,4.000000,100.000000,,,,,,,,,,,,,,,,
1645709982.346180,90.000000,0.000000,4170.512695,4152.051270,4212.436035,4173.974121,4192.179688,4197.179688,4217.051270,4214.871582,4215.512695,4207.436035,4156.922852,4103.846191,4218.974121,4221.025879,0.000000,4.000000,91.000000,,,,0.000000,4.000000,4.000000,4.000000,4.000000,4.000000,4.000000,4.000000,4.000000,4.000000,4.000000,4.000000,4.000000,4.000000,4.000000,100.000000,,,,,,,,,,,,,,,,
1645709982.350120,91.000000,0.000000,4172.948730,4152.820313,4217.179688,4174.102539,4196.794922,4201.410156,4217.948730,4213.974121,4214.358887,4208.717773,4164.487305,4107.563965,4222.563965,4221.794922,0.000000,4.000000,91.000000,,,,0.000000,4.000000,4.000000,4.000000,4.000000,4.000000,4.000000,4.000000,4.000000,4.000000,4.000000,4.000000,4.000000,4.000000,4.000000,100.000000,,,,,,,,,,,,,,,,
1645709982.354060,92.000000,0.000000,4176.410156,4155.512695,4220.256348,4176.153809,4198.077148,4204.871582,4217.820313,4216.666504,4214.358887,4211.666504,4171.794922,4109.102539,4225.384766,4220.897461,0.000000,4.000000,91.000000,,,,0.000000,4.000000,4.000000,4.000000,4.000000,4.000000,4.000000,4.000000,4.000000,4.000000,4.000000,4.000000,4.000000,4.000000,4.000000,100.000000,,,,,,,,,,,,,,,,
1645709982.358000,93.000000,0.000000,4179.615234,4161.153809,4222.179688,4179.487305,4196.282227,4206.922852,4218.205078,4222.179688,4215.897461,4215.769043,4176.538574,4110.128418,4226.282227,4220.256348,0.000000,4.000000,91.000000,,,,0.000000,4.000000,4.000000,4.000000,4.000000,4.000000,4.000000,4.000000,4.000000,4.000000,4.000000,4.000000,4.000000,4.000000,4.000000,100.000000,,,,,,,,,,,,,,,,
1645709982.361940,94.000000,0.000000,4180.897461,4168.333496,4223.461426,4183.333496,4195.000000,4208.333496,4220.000000,4227.563965,4218.974121,4220.897461,4178.077148,4112.307617,4224.871582,4221.538574,0.000000,4.000000,91.000000,,,,0.000000,4.000000,4.000000,4.000000,4.000000,4.000000,4.000000,4.000000,4.000000,4.000000,4.000000,4.000000,4.000000,4.000000,4.000000,100.000000,,,,,,,,,,,,,,,,
1645709982.365881,95.000000,0.000000,4180.769043,4173.717773,4224.487305,4186.666504,4197.179688,4208.717773,4223.077148,4230.256348,4221.666504,4226.025879,4176.922852,4115.769043,4222.307617,4223.974121,0.000000,4.000000,91.000000,,,,0.000000,4.000000,4.000000,4.000000,4.000000,4.000000,4.000000,4.000000,4.000000,4.000000,4.000000,4.000000,4.000000,4.000000,4.000000,100.000000,,,,,,,,,,,,,,,,
1645709982.369821,96.000000,0.000000,4180.256348,4173.846191,4224.487305,4189.230957,4201.666504,4207.179688,4225.384766,4229.487305,4222.051270,4229.487305,4173.461426,4118.461426,4220.384766,4225.128418,0.000000,4.000000,91.000000,,,,0.000000,4.000000,4.000000,4.000000,4.000000,4.000000,4.000000,4.000000,4.000000,4.000000,4.000000,4.000000,4.000000,4.000000,4.000000,100.000000,,,,,,,,,,,,,,,,
1645709982.373761,97.000000,0.000000,4179.615234,4168.717773,4222.563965,4191.282227,4204.743652,4203.846191,4225.128418,4226.025879,4220.000000,4228.717773,4168.846191,4118.717773,4219.871582,4223.974121,0.000000,4.000000,91.000000,,,,0.000000,4.000000,4.000000,4.000000,4.000000,4.000000,4.000000,4.000000,4.000000,4.000000,4.000000,4.000000,4.000000,4.000000,4.000000,100.000000,,,,,,,,,,,,,,,,
1645709982.377701,98.000000,0.000000,4177.948730,4162.179688,4218.846191,4193.333496,4203.589844,4200.897461,4222.436035,4221.666504,4217.051270,4223.077148,4164.743652,4115.769043,4220.769043,4221.153809,0.000000,4.000000,91.000000,,,,0.000000,4.000000,4.000000,4.000000,4.000000,4.000000,4.000000,4.000000,4.000000,4.000000,4.000000,4.000000,4.000000,4.000000,4.000000,100.000000,,,,,,,,,,,,,,,,
1645709982.381641,99.000000,0.000000,4175.256348,4158.846191,4215.512695,4195.256348,4199.358887,4200.256348,4218.974121,4218.461426,4215.641113,4215.128418,4162.948730,4111.153809,4222.307617,4218.717773,0.000000,4.000000,91.000000,,,,0.000000,4.000000,4.000000,4.000000,4.000000,4.000000,4.000000,4.000000,4.000000,4.000000,4.000000,4.000000,4.000000,4.000000,4.000000,100.000000,,,,,,,,,,,,,,,,
1645709982.385581,100.000000,0.000000,4172.436035,4160.256348,4214.102539,4195.897461,4195.128418,4201.538574,4216.538574,4218.077148,4216.922852,4209.615234,4163.974121,4107.692383,4223.077148,4217.563965,0.000000,4.000000,91.000000,,,,0.000000,4.000000,4.000000,4.000000,4.000000,4.000000,4.000000,4.000000,4.000000,4.000000,4.000000,4.000000,4.000000,4.000000,4.000000,100.000000,,,,,,,,,,,,,,,,
1645709982.389521,101.000000,0.000000,4171.538574,4163.846191,4214.871582,4194.871582,4193.333496,4202.436035,4215.128418,4220.000000,4219.487305,4208.717773,4165.769043,4107.307617,4221.666504,4217.051270,0.000000,4.000000,91.000000,,,,0.000000,4.000000,4.000000,4.000000,4.000000,4.000000,4.000000,4.000000,4.000000,4.000000,4.000000,4.000000,4.000000,4.000000,4.000000,100.000000,,,,,,,,,,,,,,,,
1645709982.393461,102.000000,0.000000,4172.563965,4165.897461,4215.897461,4192.179688,4194.230957,4201.410156,4213.717773,4221.282227,4220.641113,4210.256348,4165.000000,4109.230957,4217.307617,4216.153809,0.000000,4.000000,91.000000,,,,0.000000,4.000000,4.000000,4.000000,4.000000,4.000000,4.000000,4.000000,4.000000,4.000000,4.000000,4.000000,4.000000,4.000000,4.000000,100.000000,,,,,,,,,,,,,,,,
1645709982.397401,103.000000,0.000000,4173.333496,4163.974121,4215.256348,4188.846191,4195.769043,4199.102539,4211.538574,4218.974121,4217.563965,4210.641113,4160.512695,4110.128418,4211.282227,4213.717773,0.000000,4.000000,91.000000,,,,0.000000,4.000000,4.000000,4.000000,4.000000,4.000000,4.000000,4.000000,4.000000,4.000000,4.000000,4.000000,4.000000,4.000000,4.000000,100.000000,,,,,,,,,,,,,,,,
1645709982.401341,104.000000,0.000000,4172.051270,4159.615234,4212.179688,4185.256348,4196.153809,4197.563965,4209.487305,4213.077148,4210.897461,4206.922852,4153.333496,4107.820313,4206.282227,4209.615234,0.000000,4.000000,91.000000,,,,0.000000,4.000000,4.000000,4.000000,4.000000,4.000000,4.000000,4.000000,4.000000,4.000000,4.000000,4.000000,4.000000,4.000000,4.000000,100.000000,,,,,,,,,,,,,,,,
1645709982.405282,105.000000,0.000000,4169.487305,4155.512695,4208.717773,4181.666504,4195.256348,4198.333496,4209.102539,4206.410156,4204.102539,4199.615234,4146.410156,4102.820313,4204.230957,4205.128418,0.000000,4.000000,91.000000,,,,0.000000,4.000000,4.000000,4.000000,4.000000,4.000000,4.000000,4.000000,4.000000,4.000000,4.000000,4.000000,4.000000,4.000000,4.000000,100.000000,,,,,,,,,,,,,,,,
1645709982.409322,106.000000,0.000000,4168.846191,4154.230957,4207.692383,4178.974121,4194.102539,4201.538574,4211.666504,4202.948730,4201.153809,4192.436035,4141.666504,4098.717773,4204.743652,4203.205078,0.000000,4.000000,91.000000,,,,0.000000,4.000000,4.000000,4.000000,4.000000,4.000000,4.000000,4.000000,4.000000,4.000000,4.000000,4.000000,4.000000,4.000000,4.000000,100.000000,,,,,,,,,,,,,,,,
1645709982.413262,107.000000,0.000000,4172.179688,4156.282227,4210.769043,4179.358887,4194.871582,4205.897461,4216.666504,4205.128418,4202.692383,4189.487305,4140.384766,4098.717773,4205.769043,4206.025879,0.000000,4.000000,91.000000,,,,0.000000,4.000000,4.000000,4.000000,4.000000,4.000000,4.000000,4.000000,4.000000,4.000000,4.000000,4.000000,4.000000,4.000000,4.000000,100.000000,,,,,,,,,,,,,,,,
1645709982.417202,108.000000,0.000000,4177.563965,4160.512695,4216.410156,4184.102539,4199.230957,4209.615234,4222.563965,4211.282227,4206.666504,4192.692383,4142.179688,4102.692383,4206.538574,4212.436035,0.000000,4.000000,91.000000,,,,0.000000,4.000000,4.000000,4.000000,4.000000,4.000000,4.000000,4.000000,4.000000,4.000000,4.000000,4.000000,4.000000,4.000000,4.000000,100.000000,,,,,,,,,,,,,,,,
1645709982.421142,109.000000,0.000000,4181.666504,4165.256348,4220.769043,4191.410156,4206.410156,4211.410156,4227.179688,4217.563965,4210.384766,4200.769043,4146.153809,4107.563965,4208.077148,4217.820313,0.000000,4.000000,91.000000,,,,0.000000,4.000000,4.000000,4.000000,4.000000,4.000000,4.000000,4.000000,4.000000,4.000000,4.000000,4.000000,4.000000,4.000000,4.000000,100.000000,,,,,,,,,,,,,,,,
1645709982.425082,110.000000,0.000000,4182.948730,4168.717773,4220.384766,4197.436035,4212.820313,4211.025879,4228.717773,4220.769043,4211.922852,4209.615234,4150.512695,4110.256348,4210.769043,4217.948730,0.000000,4.000000,91.000000,,,,0.000000,4.000000,4.000000,4.000000,4.000000,4.000000,4.000000,4.000000,4.000000,4.000000,4.000000,4.000000,4.000000,4.000000,4.000000,100.000000,,,,,,,,,,,,,,,,
1645709982.429022,111.000000,0.000000,4181.922852,4169.615234,4215.256348,4198.333496,4214.615234,4209.102539,4226.410156,4220.512695,4211.410156,4215.256348,4153.717773,4109.871582,4213.461426,4212.692383,0.000000,4.000000,91.000000,,,,0.000000,4.000000,4.000000,4.000000,4.000000,4.000000,4.000000,4.000000,4.000000,4.000000,4.000000,4.000000,4.000000,4.000000,4.000000,100.000000,,,,,,,,,,,,,,,,
1645709982.432962,112.000000,0.000000,4180.000000,4167.820313,4208.333496,4194.487305,4210.897461,4206.922852,4222.051270,4219.230957,4210.256348,4215.769043,4154.871582,4107.307617,4213.717773,4206.153809,0.000000,4.000000,91.000000,,,,0.000000,4.000000,4.000000,4.000000,4.000000,4.000000,4.000000,4.000000,4.000000,4.000000,4.000000,4.000000,4.000000,4.000000,4.000000,100.000000,,,,,,,,,,,,,,,,
1645709982.436902,113.000000,0.000000,4177.563965,4164.102539,4203.333496,4189.230957,4204.743652,4205.897461,4218.333496,4218.974121,4209.615234,4212.307617,4154.871582,4104.358887,4210.897461,4202.820313,0.000000,4.000000,91.000000,,,,0.000000,4.000000,4.000000,4.000000,4.000000,4.000000,4.000000,4.000000,4.000000,4.000000,4.000000,4.000000,4.000000,4.000000,4.000000,100.000000,,,,,,,,,,,,,,,,
1645709982.440842,114.000000,0.000000,4174.358887,4160.384766,4202.436035,4187.051270,4200.000000,4206.794922,4217.692383,4220.128418,4210.512695,4208.461426,4155.128418,4102.307617,4207.563965,4203.717773,0.000000,4.000000,91.000000,,,,0.000000,4.000000,4.000000,4.000000,4.000000,4.000000,4.000000,4.000000,4.000000,4.000000,4.000000,4.000000,4.000000,4.000000,4.000000,100.000000,,,,,,,,,,,,,,,,
1645709982.444783,115.000000,0.000000,4171.922852,4158.205078,4205.641113,4188.589844,4198.461426,4208.974121,4220.256348,4221.794922,4212.692383,4207.179688,4156.025879,4101.922852,4207.179688,4207.051270,0.000000,4.000000,91.000000,,,,0.000000,4.000000,4.000000,4.000000,4.000000,4.000000,4.000000,4.000000,4.000000,4.000000,4.000000,4.000000,4.000000,4.000000,4.000000,100.000000,,,,,,,,,,,,,,,,
1645709982.448723,116.000000,0.000000,4172.179688,4158.589844,4210.897461,4191.153809,4199.102539,4211.025879,4224.102539,4222.692383,4215.128418,4209.102539,4156.794922,4103.461426,4210.512695,4210.641113,0.000000,4.000000,91.000000,,,,0.000000,4.000000,4.000000,4.000000,4.000000,4.000000,4.000000,4.000000,4.000000,4.000000,4.000000,4.000000,4.000000,4.000000,4.000000,100.000000,,,,,,,,,,,,,,,,
1645709982.452663,117.000000,0.000000,4176.025879,4160.897461,4215.641113,4191.922852,4200.512695,4211.922852,4226.666504,4223.077148,4216.666504,4213.333496,4156.922852,4107.307617,4216.153809,4213.974121,0.000000,4.000000,91.000000,,,,0.000000,4.000000,4.000000,4.000000,4.000000,4.000000,4.000000,4.000000,4.000000,4.000000,4.000000,4.000000,4.000000,4.000000,4.000000,100.000000,,,,,,,,,,,,,,,,
1645709982.456603,118.000000,0.000000,4181.410156,4164.615234,4217.948730,4191.282227,4202.307617,4212.307617,4227.051270,4224.102539,4217.179688,4219.358887,4158.077148,4112.820313,4221.666504,4217.820313,0.000000,4.000000,91.000000,,,,0.000000,4.000000,4.000000,4.000000,4.000000,4.000000,4.000000,4.000000,4.000000,4.000000,4.000000,4.000000,4.000000,4.000000,4.000000,100.000000,,,,,,,,,,,,,,,,
1645709982.460543,119.000000,0.000000,4185.128418,4169.358887,4217.820313,4191.282227,4205.256348,4212.692383,4226.410156,4226.282227,4217.820313,4226.794922,4161.922852,4118.589844,4225.641113,4222.436035,0.000000,4.000000,91.000000,,,,0.000000,4.000000,4.000000,4.000000,4.000000,4.000000,4.000000,4.000000,4.000000,4.000000,4.000000,4.000000,4.000000,4.000000,4.000000,100.000000,,,,,,,,,,,,,,,,
1645709982.464483,120.000000,0.000000,4185.897461,4174.358887,4216.153809,4192.307617,4208.974121,4213.077148,4226.025879,4228.589844,4219.487305,4234.102539,4168.589844,4123.205078,4227.692383,4227.179688,0.000000,4.000000,91.000000,,,,0.000000,4.000000,4.000000,4.000000,4.000000,4.000000,4.000000,4.000000,4.000000,4.000000,4.000000,4.000000,4.000000,4.000000,4.000000,100.000000,,,,,,,,,,,,,,,,
1645709982.468423,121.000000,0.000000,4185.000000,4177.820313,4215.000000,4192.307617,4212.051270,4212.820313,4226.025879,4228.846191,4221.922852,4238.461426,4175.641113,4125.769043,4228.077148,4230.512695,0.000000,4.000000,91.000000,,,,0.000000,4.000000,4.000000,4.000000,4.000000,4.000000,4.000000,4.000000,4.000000,4.000000,4.000000,4.000000,4.000000,4.000000,4.000000,100.000000,,,,,,,,,,,,,,,,
1645709982.472363,122.000000,0.000000,4185.000000,4178.461426,4215.769043,4190.384766,4213.333496,4212.051270,4226.153809,4226.538574,4223.717773,4237.948730,4180.897461,4126.282227,4227.563965,4230.641113,0.000000,4.000000,91.000000,,,,0.000000,4.000000,4.000000,4.000000,4.000000,4.000000,4.000000,4.000000,4.000000,4.000000,4.000000,4.000000,4.000000,4.000000,4.000000,100.000000,,,,,,,,,,,,,,,,
1645709982.476303,123.000000,0.000000,4186.922852,4176.538574,4218.461426,4188.333496,4212.563965,4211.410156,4226.282227,4223.589844,4224.358887,4233.717773,4182.692383,4126.025879,4227.307617,4227.563965,0.000000,4.000000,91.000000,,,,0.000000,4.000000,4.000000,4.000000,4.000000,4.000000,4.000000,4.000000,4.000000,4.000000,4.000000,4.000000,4.000000,4.000000,4.000000,100.000000,,,,,,,,,,,,,,,,
1645709982.480243,124.000000,0.000000,4189.230957,4173.205078,4221.666504,4189.743652,4211.410156,4211.410156,4226.666504,4222.307617,4224.487305,4228.589844,4181.282227,4126.410156,4227.051270,4222.307617,0.000000,4.000000,91.000000,,,,0.000000,4.000000,4.000000,4.000000,4.000000,4.000000,4.000000,4.000000,4.000000,4.000000,4.000000,4.000000,4.000000,4.000000,4.000000,100.000000,,,,,,,,,,,,,,,,
1645709982.484084,125.000000,0.000000,4190.384766,4170.512695,4223.205078,4196.153809,4210.512695,4211.538574,4226.410156,4222.948730,4224.358887,4224.487305,4177.307617,4127.948730,4225.512695,4217.692383,0.000000,4.000000,91.000000,,,,0.000000,4.000000,4.000000,4.000000,4.000000,4.000000,4.000000,4.000000,4.000000,4.000000,4.000000,4.000000,4.000000,4.000000,4.000000,100.000000,,,,,,,,,,,,,,,,
1645709982.488024,126.000000,0.000000,4190.384766,4169.358887,4222.436035,4204.358887,4210.128418,4210.897461,4224.871582,4223.461426,4222.692383,4221.025879,4171.794922,4130.000000,4221.794922,4215.897461,0.000000,4.000000,91.000000,,,,0.000000,4.000000,4.000000,4.000000,4.000000,4.000000,4.000000,4.000000,4.000000,4.000000,4.000000,4.000000,4.000000,4.000000,4.000000,100.000000,,,,,,,,,,,,,,,,
1645709982.491964,127.000000,0.000000,4190.256348,4170.512695,4220.512695,4209.230957,4209.743652,4209.358887,4222.179688,4221.282227,4218.717773,4217.307617,4166.282227,4130.897461,4216.410156,4217.051270,0.000000,4.000000,91.000000,,,,0.000000,4.000000,4.000000,4.000000,4.000000,4.000000,4.000000,4.000000,4.000000,4.000000,4.000000,4.000000,4.000000,4.000000,4.000000,100.000000,,,,,,,,,,,,,,,,
1645709982.495904,128.000000,0.000000,4189.871582,4172.948730,4219.230957,4207.307617,4209.487305,4208.461426,4220.128418,4216.282227,4213.205078,4213.589844,4162.820313,4129.358887,4212.051270,4218.974121,3262.000000,4.000000,91.000000,,,,0.000000,4.000000,4.000000,4.000000,4.000000,4.000000,4.000000,4.000000,4.000000,4.000000,4.000000,4.000000,4.000000,4.000000,4.000000,100.000000,,,,,,,,,,,,,,,,
1645709982.499844,129.000000,0.000000,4188.205078,4174.871582,4218.846191,4200.512695,4209.102539,4209.743652,4220.000000,4210.512695,4209.230957,4211.410156,4162.436035,4126.025879,4210.128418,4219.615234,3430.000000,4.000000,91.000000,,,,0.000000,4.000000,4.000000,4.000000,4.000000,4.000000,4.000000,4.000000,4.000000,4.000000,4.000000,4.000000,4.000000,4.000000,4.000000,100.000000,,,,,,,,,,,,,,,,
1645709982.503784,130.000000,0.000000,4185.128418,4174.358887,4218.717773,4193.205078,4207.692383,4212.948730,4221.153809,4207.051270,4208.333496,4210.897461,4163.717773,4122.179688,4210.000000,4218.974121,2335.000000,4.000000,91.000000,,,,0.000000,4.000000,4.000000,4.000000,4.000000,4.000000,4.000000,4.000000,4.000000,4.000000,4.000000,4.000000,4.000000,4.000000,4.000000,100.000000,,,,,,,,,,,,,,,,
1645709982.507724,131.000000,0.000000,4182.948730,4171.282227,4218.589844,4188.974121,4204.615234,4215.384766,4222.307617,4207.692383,4210.000000,4210.128418,4163.461426,4119.743652,4209.487305,4218.461426,3344.000000,4.000000,91.000000,,,,0.000000,4.000000,4.000000,4.000000,4.000000,4.000000,4.000000,4.000000,4.000000,4.000000,4.000000,4.000000,4.000000,4.000000,4.000000,100.000000,,,,,,,,,,,,,,,,
1645709982.511664,132.000000,0.000000,4183.974121,4168.461426,4218.077148,4188.589844,4201.666504,4214.230957,4222.563965,4211.922852,4211.666504,4206.922852,4160.384766,4120.000000,4206.538574,4218.974121,3377.000000,4.000000,91.000000,,,,0.000000,4.000000,4.000000,4.000000,4.000000,4.000000,4.000000,4.000000,4.000000,4.000000,4.000000,4.000000,4.000000,4.000000,4.000000,100.000000,,,,,,,,,,,,,,,,
1645709982.515605,133.000000,0.000000,4188.333496,4168.846191,4217.563965,4191.025879,4201.538574,4210.384766,4222.307617,4216.538574,4211.538574,4202.563965,4156.538574,4122.051270,4201.666504,4219.871582,3403.000000,4.000000,91.000000,,,,0.000000,4.000000,4.000000,4.000000,4.000000,4.000000,4.000000,4.000000,4.000000,4.000000,4.000000,4.000000,4.000000,4.000000,4.000000,100.000000,,,,,,,,,,,,,,,,
1645709982.519545,134.000000,0.000000,4193.589844,4173.077148,4217.692383,4195.384766,4205.384766,4207.563965,4222.692383,4218.461426,4209.487305,4200.641113,4155.256348,4124.230957,4197.563965,4220.512695,3067.000000,4.000000,91.000000,,,,0.000000,4.000000,4.000000,4.000000,4.000000,4.000000,4.000000,4.000000,4.000000,4.000000,4.000000,4.000000,4.000000,4.000000,4.000000,100.000000,,,,,,,,,,,,,,,,
1645709982.523485,135.000000,0.000000,4196.794922,4177.692383,4218.333496,4200.384766,4211.538574,4208.846191,4223.974121,4217.179688,4207.179688,4203.974121,4157.692383,4124.615234,4196.410156,4220.641113,2021.000000,4.000000,91.000000,,,,0.000000,4.000000,4.000000,4.000000,4.000000,4.000000,4.000000,4.000000,4.000000,4.000000,4.000000,4.000000,4.000000,4.000000,4.000000,100.000000,,,,,,,,,,,,,,,,
1645709982.527425,136.000000,0.000000,4197.692383,4178.333496,4218.846191,4204.871582,4216.153809,4213.846191,4225.512695,4215.512695,4206.282227,4210.641113,4161.538574,4122.563965,4198.333496,4220.769043,1379.000000,4.000000,91.000000,,,,0.000000,4.000000,4.000000,4.000000,4.000000,4.000000,4.000000,4.000000,4.000000,4.000000,4.000000,4.000000,4.000000,4.000000,4.000000,100.000000,,,,,,,,,,,,,,,,
1645709982.531365,137.000000,0.000000,4197.179688,4174.102539,4218.333496,4208.077148,4216.282227,4218.461426,4226.666504,4216.153809,4207.692383,4216.282227,4163.589844,4119.230957,4201.410156,4220.128418,3067.000000,4.000000,91.000000,,,,0.000000,4.000000,4.000000,4.000000,4.000000,4.000000,4.000000,4.000000,4.000000,4.000000,4.000000,4.000000,4.000000,4.000000,4.000000,100.000000,,,,,,,,,,,,,,,,
1645709982.535305,138.000000,0.000000,4196.282227,4168.846191,4216.794922,4208.974121,4212.179688,4220.000000,4227.436035,4219.743652,4211.410156,4218.333496,4162.692383,4116.794922,4203.717773,4218.077148,2368.000000,4.000000,91.000000,,,,0.000000,4.000000,4.000000,4.000000,4.000000,4.000000,4.000000,4.000000,4.000000,4.000000,4.000000,4.000000,4.000000,4.000000,4.000000,100.000000,,,,,,,,,,,,,,,,
1645709982.539245,139.000000,0.000000,4195.128418,4168.333496,4214.871582,4207.436035,4208.205078,4218.589844,4228.333496,4223.846191,4215.769043,4217.948730,4160.641113,4116.538574,4203.974121,4215.256348,2816.000000,4.000000,91.000000,,,,0.000000,4.000000,4.000000,4.000000,4.000000,4.000000,4.000000,4.000000,4.000000,4.000000,4.000000,4.000000,4.000000,4.000000,4.000000,100.000000,,,,,,,,,,,,,,,,
1645709982.543185,140.000000,0.000000,4193.974121,4173.717773,4213.846191,4203.846191,4208.461426,4216.538574,4229.487305,4226.794922,4218.589844,4218.205078,4160.641113,4118.461426,4202.307617,4213.333496,3144.000000,4.000000,91.000000,,,,0.000000,4.000000,4.000000,4.000000,4.000000,4.000000,4.000000,4.000000,4.000000,4.000000,4.000000,4.000000,4.000000,4.000000,4.000000,100.000000,,,,,,,,,,,,,,,,
1645709982.547125,141.000000,0.000000,4193.846191,4181.025879,4214.358887,4199.230957,4213.333496,4215.384766,4230.000000,4228.717773,4218.717773,4221.153809,4163.846191,4121.410156,4199.358887,4213.333496,2847.000000,4.000000,91.000000,,,,0.000000,4.000000,4.000000,4.000000,4.000000,4.000000,4.000000,4.000000,4.000000,4.000000,4.000000,4.000000,4.000000,4.000000,4.000000,100.000000,,,,,,,,,,,,,,,,
1645709982.551065,142.000000,0.000000,4194.871582,4184.102539,4215.512695,4195.512695,4218.333496,4214.743652,4229.743652,4230.769043,4217.051270,4225.641113,4168.974121,4123.717773,4196.410156,4214.487305,2368.000000,4.000000,91.000000,,,,0.000000,4.000000,4.000000,4.000000,4.000000,4.000000,4.000000,4.000000,4.000000,4.000000,4.000000,4.000000,4.000000,4.000000,4.000000,100.000000,,,,,,,,,,,,,,,,
1645709982.555006,143.000000,0.000000,4195.769043,4180.384766,4215.897461,4193.333496,4218.461426,4214.487305,4228.974121,4232.563965,4215.897461,4229.102539,4172.692383,4124.230957,4194.358887,4214.615234,2816.000000,4.000000,91.000000,,,,0.000000,4.000000,4.000000,4.000000,4.000000,4.000000,4.000000,4.000000,4.000000,4.000000,4.000000,4.000000,4.000000,4.000000,4.000000,100.000000,,,,,,,,,,,,,,,,
1645709982.558846,144.000000,0.000000,4194.358887,4172.820313,4215.128418,4192.307617,4213.205078,4214.871582,4227.692383,4232.051270,4216.410156,4229.230957,4173.077148,4122.692383,4193.974121,4212.563965,3144.000000,4.000000,91.000000,,,,0.000000,4.000000,4.000000,4.000000,4.000000,4.000000,4.000000,4.000000,4.000000,4.000000,4.000000,4.000000,4.000000,4.000000,4.000000,100.000000,,,,,,,,,,,,,,,,
1645709982.562786,145.000000,0.000000,4191.282227,4167.307617,4213.717773,4191.410156,4207.051270,4216.282227,4226.282227,4228.205078,4218.205078,4226.153809,4170.000000,4120.256348,4195.000000,4209.358887,2847.000000,4.000000,91.000000,,,,0.000000,4.000000,4.000000,4.000000,4.000000,4.000000,4.000000,4.000000,4.000000,4.000000,4.000000,4.000000,4.000000,4.000000,4.000000,100.000000,,,,,,,,,,,,,,,,
1645709982.566726,146.000000,0.000000,4189.102539,4167.436035,4212.436035,4190.512695,4205.128418,4217.948730,4224.871582,4222.820313,4218.974121,4221.538574,4165.000000,4118.333496,4196.666504,4207.436035,2368.000000,4.000000,91.000000,,,,0.000000,4.000000,4.000000,4.000000,4.000000,4.000000,4.000000,4.000000,4.000000,4.000000,4.000000,4.000000,4.000000,4.000000,4.000000,100.000000,,,,,,,,,,,,,,,,
1645709982.570666,147.000000,0.000000,4190.384766,4172.051270,4212.179688,4190.897461,4208.589844,4218.333496,4223.974121,4219.358887,4218.333496,4217.692383,4160.641113,4118.589844,4198.205078,4209.230957,2816.000000,4.000000,91.000000,,,,0.000000,4.000000,4.000000,4.000000,4.000000,4.000000,4.000000,4.000000,4.000000,4.000000,4.000000,4.000000,4.000000,4.000000,4.000000,100.000000,,,,,,,,,,,,,,,,
1645709982.574606,148.000000,0.000000,4194.102539,4177.179688,4213.205078,4194.358887,4213.717773,4216.794922,4224.358887,4220.000000,4217.051270,4217.179688,4159.358887,4121.538574,4199.487305,4214.487305,3144.000000,4.000000,91.000000,,,,0.000000,4.000000,4.000000,4.000000,4.000000,4.000000,4.000000,4.000000,4.000000,4.000000,4.000000,4.000000,4.000000,4.000000,4.000000,100.000000,,,,,,,,,,,,,,,,
1645709982.578546,149.000000,0.000000,4197.179688,4179.358887,4215.256348,4200.641113,4216.794922,4214.487305,4225.256348,4223.846191,4217.179688,4221.025879,4163.077148,4126.282227,4201.410156,4221.153809,2847.000000,4.000000,91.000000,,,,0.000000,4.000000,4.000000,4.000000,4.000000,4.000000,4.000000,4.000000,4.000000,4.000000,4.000000,4.000000,4.000000,4.000000,4.000000,100.000000,,,,,,,,,,,,,,,,
1645709982.582486,150.000000,0.000000,4198.205078,4178.589844,4218.333496,4206.922852,4216.153809,4212.692383,4225.512695,4227.563965,4218.589844,4227.307617,4171.025879,4131.025879,4204.230957,4226.410156,2368.000000,4.000000,91.000000,,,,0.000000,4.000000,4.000000,4.000000,4.000000,4.000000,4.000000,4.000000,4.000000,4.000000,4.000000,4.000000,4.000000,4.000000,4.000000,100.000000,,,,,,,,,,,,,,,,
1645709982.586427,151.000000,0.000000,4198.717773,4176.666504,4222.051270,4209.358887,4213.333496,4211.922852,4224.487305,4227.436035,4219.743652,4231.922852,4179.102539,4134.487305,4207.051270,4228.589844,2816.000000,4.000000,91.000000,,,,0.000000,4.000000,4.000000,4.000000,4.000000,4.000000,4.000000,4.000000,4.000000,4.000000,4.000000,4.000000,4.000000,4.000000,4.000000,100.000000,,,,,,,,,,,,,,,,
1645709982.590367,152.000000,0.000000,4200.641113,4175.769043,4226.410156,4205.512695,4210.384766,4212.563965,4223.077148,4222.820313,4219.230957,4231.410156,4182.820313,4136.410156,4208.077148,4228.205078,3144.000000,4.000000,91.000000,,,,0.000000,4.000000,4.000000,4.000000,4.000000,4.000000,4.000000,4.000000,4.000000,4.000000,4.000000,4.000000,4.000000,4.000000,4.000000,100.000000,,,,,,,,,,,,,,,,
1645709982.594307,153.000000,0.000000,4203.205078,4176.794922,4230.512695,4197.692383,4210.000000,4214.487305,4223.333496,4216.282227,4217.051270,4226.410156,4181.410156,4137.820313,4207.179688,4227.563965,2847.000000,4.000000,91.000000,,,,0.000000,4.000000,4.000000,4.000000,4.000000,4.000000,4.000000,4.000000,4.000000,4.000000,4.000000,4.000000,4.000000,4.000000,4.000000,100.000000,,,,,,,,,,,,,,,,
1645709982.598247,154.000000,0.000000,4203.974121,4180.000000,4233.461426,4191.410156,4213.461426,4217.948730,4226.153809,4212.692383,4215.512695,4221.666504,4178.333496,4139.230957,4205.897461,4229.102539,2368.000000,4.000000,91.000000,,,,0.000000,4.000000,4.000000,4.000000,4.000000,4.000000,4.000000,4.000000,4.000000,4.000000,4.000000,4.000000,4.000000,4.000000,4.000000,100.000000,,,,,,,,,,,,,,,,
1645709982.602187,155.000000,0.000000,4201.666504,4185.128418,4234.615234,4191.025879,4219.487305,4221.794922,4230.641113,4215.128418,4216.025879,4221.794922,4177.948730,4140.897461,4206.153809,4232.436035,2816.000000,4.000000,91.000000,,,,0.000000,4.000000,4.000000,4.000000,4.000000,4.000000,4.000000,4.000000,4.000000,4.000000,4.000000,4.000000,4.000000,4.000000,4.000000,100.000000,,,,,,,,,,,,,,,,
1645709982.606127,156.000000,0.000000,4198.461426,4190.769043,4233.846191,4196.025879,4224.102539,4224.230957,4234.615234,4222.948730,4219.358887,4226.922852,4180.897461,4142.179688,4207.692383,4235.512695,3144.000000,4.000000,91.000000,,,,0.000000,4.000000,4.000000,4.000000,4.000000,4.000000,4.000000,4.000000,4.000000,4.000000,4.000000,4.000000,4.000000,4.000000,4.000000,100.000000,,,,,,,,,,,,,,,,
1645709982.610067,157.000000,0.000000,4197.692383,4194.487305,4232.179688,4202.563965,4223.589844,4224.358887,4236.410156,4231.410156,4224.358887,4233.461426,4184.743652,4142.692383,4209.358887,4236.922852,2847.000000,4.000000,91.000000,,,,0.000000,4.000000,4.000000,4.000000,4.000000,4.000000,4.000000,4.000000,4.000000,4.000000,4.000000,4.000000,4.000000,4.000000,4.000000,100.000000,,,,,,,,,,,,,,,,
1645709982.614007,158.000000,0.000000,4200.000000,4194.487305,4231.282227,4206.410156,4217.948730,4222.820313,4236.025879,4235.897461,4229.230957,4237.051270,4186.153809,4142.436035,4210.128418,4236.794922,2368.000000,4.000000,91.000000,,,,0.000000,4.000000,4.000000,4.000000,4.000000,4.000000,4.000000,4.000000,4.000000,4.000000,4.000000,4.000000,4.000000,4.000000,4.000000,100.000000,,,,,,,,,,,,,,,,
1645709982.617947,159.000000,0.000000,4203.461426,4190.897461,4231.922852,4206.410156,4211.794922,4221.922852,4234.615234,4235.128418,4232.563965,4236.922852,4185.256348,4142.563965,4210.128418,4236.538574,2816.000000,4.000000,91.000000,,,,0.000000,4.000000,4.000000,4.000000,4.000000,4.000000,4.000000,4.000000,4.000000,4.000000,4.000000,4.000000,4.000000,4.000000,4.000000,100.000000,,,,,,,,,,,,,,,,
1645709982.621887,160.000000,0.000000,4206.025879,4185.641113,4233.589844,4204.230957,4210.256348,4222.563965,4233.974121,4231.922852,4233.717773,4235.256348,4184.230957,4143.974121,4209.487305,4236.922852,3144.000000,4.000000,91.000000,,,,0.000000,4.000000,4.000000,4.000000,4.000000,4.000000,4.000000,4.000000,4.000000,4.000000,4.000000,4.000000,4.000000,4.000000,4.000000,100.000000,,,,,,,,,,,,,,,,
1645709982.625828,161.000000,0.000000,4207.179688,4182.051270,4235.384766,4202.692383,4215.000000,4224.230957,4234.358887,4229.871582,4233.205078,4234.230957,4184.871582,4146.666504,4207.948730,4237.051270,2847.000000,4.000000,91.000000,,,,0.000000,4.000000,4.000000,4.000000,4.000000,4.000000,4.000000,4.000000,4.000000,4.000000,4.000000,4.000000,4.000000,4.000000,4.000000,100.000000,,,,,,,,,,,,,,,,
1645709982.629868,162.000000,0.000000,4207.820313,4182.051270,4236.282227,4203.205078,4222.820313,4225.641113,4235.384766,4230.256348,4232.051270,4235.000000,4187.179688,4150.384766,4205.897461,4236.153809,2368.000000,4.000000,91.000000,,,,0.000000,4.000000,4.000000,4.000000,4.000000,4.000000,4.000000,4.000000,4.000000,4.000000,4.000000,4.000000,4.000000,4.000000,4.000000,100.000000,,,,,,,,,,,,,,,,
1645709982.633808,163.000000,0.000000,4208.846191,4185.512695,4236.538574,4205.000000,4229.743652,4226.794922,4236.666504,4232.179688,4231.410156,4237.436035,4189.615234,4154.102539,4204.358887,4234.487305,2816.000000,4.000000,91.000000,,,,0.000000,4.000000,4.000000,4.000000,4.000000,4.000000,4.000000,4.000000,4.000000,4.000000,4.000000,4.000000,4.000000,4.000000,4.000000,100.000000,,,,,,,,,,,,,,,,
1645709982.637748,164.000000,0.000000,4209.358887,4190.000000,4236.282227,4206.666504,4233.461426,4228.077148,4237.820313,4233.717773,4231.538574,4239.871582,4190.128418,4156.025879,4203.974121,4232.948730,3144.000000,4.000000,91.000000,,,,0.000000,4.000000,4.000000,4.000000,4.000000,4.000000,4.000000,4.000000,4.000000,4.000000,4.000000,4.000000,4.000000,4.000000,4.000000,100.000000,,,,,,,,,,,,,,,,
1645709982.641688,165.000000,0.000000,4208.205078,4192.820313,4235.256348,4206.794922,4233.717773,4229.358887,4238.333496,4233.846191,4232.436035,4240.512695,4187.948730,4154.743652,4203.974121,4232.179688,2847.000000,4.000000,91.000000,,,,0.000000,4.000000,4.000000,4.000000,4.000000,4.000000,4.000000,4.000000,4.000000,4.000000,4.000000,4.000000,4.000000,4.000000,4.000000,100.000000,,,,,,,,,,,,,,,,
1645709982.645628,166.000000,0.000000,4205.641113,4192.563965,4233.333496,4205.512695,4231.794922,4229.743652,4238.077148,4233.461426,4233.589844,4237.948730,4183.846191,4150.384766,4203.333496,4232.051270,2368.000000,4.000000,91.000000,,,,0.000000,4.000000,4.000000,4.000000,4.000000,4.000000,4.000000,4.000000,4.000000,4.000000,4.000000,4.000000,4.000000,4.000000,4.000000,100.000000,,,,,,,,,,,,,,,,
1645709982.649568,167.000000,0.000000,4202.820313,4189.871582,4230.897461,4203.717773,4228.846191,4229.102539,4238.077148,4233.333496,4233.974121,4232.948730,4179.743652,4145.512695,4201.410156,4232.179688,2816.000000,4.000000,91.000000,,,,0.000000,4.000000,4.000000,4.000000,4.000000,4.000000,4.000000,4.000000,4.000000,4.000000,4.000000,4.000000,4.000000,4.000000,4.000000,100.000000,,,,,,,,,,,,,,,,
1645709982.653508,168.000000,0.000000,4201.410156,4187.436035,4229.230957,4202.820313,4226.153809,4228.205078,4238.974121,4234.102539,4233.205078,4228.461426,4177.307617,4143.077148,4199.743652,4232.051270,3144.000000,4.000000,91.000000,,,,0.000000,4.000000,4.000000,4.000000,4.000000,4.000000,4.000000,4.000000,4.000000,4.000000,4.000000,4.000000,4.000000,4.000000,4.000000,100.000000,,,,,,,,,,,,,,,,
1645709982.657448,169.000000,0.000000,4201.025879,4187.307617,4229.487305,4203.974121,4224.487305,4228.461426,4240.000000,4234.615234,4231.922852,4227.820313,4177.820313,4144.487305,4199.615234,4231.538574,2847.000000,4.000000,91.000000,,,,0.000000,4.000000,4.000000,4.000000,4.000000,4.000000,4.000000,4.000000,4.000000,4.000000,4.000000,4.000000,4.000000,4.000000,4.000000,100.000000,,,,,,,,,,,,,,,,
1645709982.661388,170.000000,0.000000,4200.897461,4189.871582,4231.282227,4207.436035,4223.461426,4229.615234,4239.358887,4233.461426,4231.794922,4231.794922,4180.384766,4148.205078,4201.666504,4230.384766,2368.000000,4.000000,91.000000,,,,0.000000,4.000000,4.000000,4.000000,4.000000,4.000000,4.000000,4.000000,4.000000,4.000000,4.000000,4.000000,4.000000,4.000000,4.000000,100.000000,,,,,,,,,,,,,,,,
1645709982.665329,171.000000,0.000000,4200.769043,4192.948730,4232.948730,4211.282227,4221.410156,4229.871582,4236.282227,4229.871582,4233.333496,4236.794922,4182.948730,4150.769043,4204.230957,4228.974121,2816.000000,4.000000,91.000000,,,,0.000000,4.000000,4.000000,4.000000,4.000000,4.000000,4.000000,4.000000,4.000000,4.000000,4.000000,4.000000,4.000000,4.000000,4.000000,100.000000,,,,,,,,,,,,,,,,
1645709982.669269,172.000000,0.000000,4201.153809,4194.358887,4232.948730,4212.820313,4218.205078,4227.820313,4232.436035,4225.000000,4234.615234,4238.589844,4184.102539,4150.641113,4205.128418,4227.948730,3144.000000,4.000000,91.000000,,,,0.000000,4.000000,4.000000,4.000000,4.000000,4.000000,4.000000,4.000000,4.000000,4.000000,4.000000,4.000000,4.000000,4.000000,4.000000,100.000000,,,,,,,,,,,,,,,,
1645709982.673209,173.000000,0.000000,4202.051270,4193.846191,4231.410156,4210.769043,4216.282227,4224.487305,4230.128418,4220.384766,4233.077148,4235.897461,4183.717773,4148.461426,4203.461426,4229.358887,2847.000000,4.000000,91.000000,1,1,0,0.000000,4.000000,4.000000,4.000000,4.000000,4.000000,4.000000,4.000000,4.000000,4.000000,4.000000,4.000000,4.000000,4.000000,4.000000,100.000000,,,,,,,,,,,,,,,,
1645709982.677149,174.000000,0.000000,4202.948730,4192.948730,4229.871582,4207.179688,4218.717773,4221.922852,4230.512695,4217.051270,4228.205078,4230.769043,4182.692383,4146.538574,4200.256348,4233.077148,2368.000000,4.000000,91.000000,,,,0.000000,4.000000,4.000000,4.000000,4.000000,4.000000,4.000000,4.000000,4.000000,4.000000,4.000000,4.000000,4.000000,4.000000,4.000000,100.000000,,,,,,,,,,,,,,,,
1645709982.681089,175.000000,0.000000,4203.461426,4193.974121,4230.256348,4205.000000,4225.641113,4222.179688,4232.692383,4214.358887,4222.436035,4226.538574,4181.410156,4145.769043,4197.563965,4236.538574,2816.000000,4.000000,91.000000,,,,0.000000,4.000000,4.000000,4.000000,4.000000,4.000000,4.000000,4.000000,4.000000,4.000000,4.000000,4.000000,4.000000,4.000000,4.000000,100.000000,,,,,,,,,,,,,,,,
1645709982.685029,176.000000,0.000000,4204.230957,4196.794922,4233.333496,4206.025879,4232.692383,4224.615234,4234.358887,4212.563965,4219.871582,4224.871582,4179.487305,4145.897461,4196.666504,4236.538574,3144.000000,4.000000,91.000000,,,,0.000000,4.000000,4.000000,4.000000,4.000000,4.000000,4.000000,4.000000,4.000000,4.000000,4.000000,4.000000,4.000000,4.000000,4.000000,100.000000,,,,,,,,,,,,,,,,
1645709982.688969,177.000000,0.000000,4206.153809,4199.358887,4237.436035,4210.128418,4235.128418,4226.922852,4234.102539,4212.692383,4222.179688,4225.384766,4177.051270,4145.897461,4197.051270,4231.666504,2847.000000,4.000000,91.000000,,,,0.000000,4.000000,4.000000,4.000000,4.000000,4.000000,4.000000,4.000000,4.000000,4.000000,4.000000,4.000000,4.000000,4.000000,4.000000,100.000000,,,,,,,,,,,,,,,,
1645709982.692909,178.000000,0.000000,4208.333496,4199.743652,4240.384766,4215.769043,4231.794922,4227.179688,4232.563965,4216.153809,4227.307617,4226.666504,4175.384766,4145.512695,4197.436035,4224.743652,2368.000000,4.000000,91.000000,,,,0.000000,4.000000,4.000000,4.000000,4.000000,4.000000,4.000000,4.000000,4.000000,4.000000,4.000000,4.000000,4.000000,4.000000,4.000000,100.000000,,,,,,,,,,,,,,,,
1645709982.696849,179.000000,0.000000,4208.717773,4197.820313,4240.256348,4220.641113,4225.769043,4225.256348,4231.538574,4221.922852,4230.897461,4227.307617,4175.769043,4145.384766,4196.922852,4220.128418,2816.000000,4.000000,91.000000,,,,0.000000,4.000000,4.000000,4.000000,4.000000,4.000000,4.000000,4.000000,4.000000,4.000000,4.000000,4.000000,4.000000,4.000000,4.000000,100.000000,,,,,,,,,,,,,,,,
1645709982.700790,180.000000,0.000000,4206.410156,4195.128418,4237.307617,4221.922852,4221.666504,4223.333496,4232.307617,4227.563965,4230.512695,4226.922852,4177.948730,4146.282227,4195.512695,4220.000000,3144.000000,4.000000,91.000000,,,,0.000000,4.000000,4.000000,4.000000,4.000000,4.000000,4.000000,4.000000,4.000000,4.000000,4.000000,4.000000,4.000000,4.000000,4.000000,100.000000,,,,,,,,,,,,,,,,
1645709982.704630,181.000000,0.000000,4202.692383,4192.563965,4233.846191,4218.205078,4220.384766,4222.563965,4234.615234,4230.000000,4226.794922,4225.384766,4179.615234,4148.333496,4193.717773,4223.205078,2847.000000,4.000000,91.000000,,,,0.000000,4.000000,4.000000,4.000000,4.000000,4.000000,4.000000,4.000000,4.000000,4.000000,4.000000,4.000000,4.000000,4.000000,4.000000,100.000000,,,,,,,,,,,,,,,,
1645709982.708570,182.000000,0.000000,4200.512695,4190.256348,4231.794922,4210.512695,4219.102539,4222.948730,4236.922852,4228.333496,4222.692383,4223.077148,4178.333496,4150.512695,4191.538574,4225.512695,2368.000000,4.000000,91.000000,,,,0.000000,4.000000,4.000000,4.000000,4.000000,4.000000,4.000000,4.000000,4.000000,4.000000,4.000000,4.000000,4.000000,4.000000,4.000000,100.000000,,,,,,,,,,,,,,,,
1645709982.712510,183.000000,0.000000,4201.025879,4187.948730,4231.922852,4202.948730,4215.000000,4223.589844,4238.077148,4224.615234,4221.153809,4220.769043,4173.717773,4151.153809,4188.589844,4224.230957,2816.000000,4.000000,91.000000,,,,0.000000,4.000000,4.000000,4.000000,4.000000,4.000000,4.000000,4.000000,4.000000,4.000000,4.000000,4.000000,4.000000,4.000000,4.000000,100.000000,,,,,,,,,,,,,,,,
1645709982.716450,184.000000,0.000000,4202.948730,4186.410156,4232.692383,4199.743652,4209.358887,4224.230957,4237.436035,4221.922852,4222.820313,4220.000000,4168.461426,4149.487305,4185.256348,4220.000000,3144.000000,4.000000,91.000000,,,,0.000000,4.000000,4.000000,4.000000,4.000000,4.000000,4.000000,4.000000,4.000000,4.000000,4.000000,4.000000,4.000000,4.000000,4.000000,100.000000,,,,,,,,,,,,,,,,
1645709982.720390,185.000000,0.000000,4203.589844,4187.179688,4232.436035,4202.563965,4206.282227,4224.743652,4235.512695,4222.563965,4226.282227,4221.282227,4166.666504,4146.538574,4183.461426,4216.153809,2847.000000,4.000000,91.000000,,,,0.000000,4.000000,4.000000,4.000000,4.000000,4.000000,4.000000,4.000000,4.000000,4.000000,4.000000,4.000000,4.000000,4.000000,4.000000,100.000000,,,,,,,,,,,,,,,,
1645709982.724330,186.000000,0.000000,4202.307617,4190.769043,4230.897461,4208.717773,4209.102539,4224.743652,4233.589844,4226.282227,4229.358887,4224.230957,4170.641113,4144.871582,4185.128418,4216.666504,2368.000000,4.000000,91.000000,,,,0.000000,4.000000,4.000000,4.000000,4.000000,4.000000,4.000000,4.000000,4.000000,4.000000,4.000000,4.000000,4.000000,4.000000,4.000000,100.000000,,,,,,,,,,,,,,,,
1645709982.728270,187.000000,0.000000,4200.897461,4195.641113,4229.487305,4213.333496,4216.153809,4223.589844,4233.077148,4231.282227,4230.512695,4227.307617,4178.461426,4146.410156,4190.512695,4222.051270,2816.000000,4.000000,91.000000,,,,0.000000,4.000000,4.000000,4.000000,4.000000,4.000000,4.000000,4.000000,4.000000,4.000000,4.000000,4.000000,4.000000,4.000000,4.000000,100.000000,,,,,,,,,,,,,,,,
1645709982.732210,188.000000,0.000000,4201.666504,4199.230957,4229.487305,4212.948730,4221.794922,4221.410156,4234.358887,4235.384766,4229.871582,4229.743652,4185.897461,4150.769043,4197.692383,4229.487305,3144.000000,4.000000,91.000000,,,,0.000000,4.000000,4.000000,4.000000,4.000000,4.000000,4.000000,4.000000,4.000000,4.000000,4.000000,4.000000,4.000000,4.000000,4.000000,100.000000,,,,,,,,,,,,,,,,
1645709982.736151,189.000000,0.000000,4204.871582,4200.000000,4230.897461,4208.974121,4221.922852,4220.000000,4236.410156,4237.307617,4229.487305,4231.922852,4190.128418,4155.256348,4203.333496,4234.871582,2847.000000,4.000000,91.000000,,,,0.000000,4.000000,4.000000,4.000000,4.000000,4.000000,4.000000,4.000000,4.000000,4.000000,4.000000,4.000000,4.000000,4.000000,4.000000,100.000000,,,,,,,,,,,,,,,,
1645709982.740091,190.000000,0.000000,4208.205078,4198.589844,4232.563965,4205.897461,4217.179688,4221.025879,4237.948730,4237.436035,4231.153809,4234.615234,4191.666504,4157.692383,4205.897461,4236.025879,2368.000000,4.000000,91.000000,,,,0.000000,4.000000,4.000000,4.000000,4.000000,4.000000,4.000000,4.000000,4.000000,4.000000,4.000000,4.000000,4.000000,4.000000,4.000000,100.000000,,,,,,,,,,,,,,,,
1645709982.744031,191.000000,0.000000,4210.512695,4196.153809,4233.077148,4207.179688,4212.051270,4224.487305,4237.820313,4236.153809,4233.974121,4236.794922,4192.436035,4157.820313,4206.153809,4233.974121,2816.000000,4.000000,91.000000,,,,0.000000,4.000000,4.000000,4.000000,4.000000,4.000000,4.000000,4.000000,4.000000,4.000000,4.000000,4.000000,4.000000,4.000000,4.000000,100.000000,,,,,,,,,,,,,,,,
1645709982.747971,192.000000,0.000000,4211.666504,4194.102539,4232.307617,4212.051270,4210.512695,4228.077148,4235.897461,4233.461426,4235.128418,4236.794922,4192.948730,4157.692383,4205.897461,4231.794922,3144.000000,4.000000,91.000000,,,,0.000000,4.000000,4.000000,4.000000,4.000000,4.000000,4.000000,4.000000,4.000000,4.000000,4.000000,4.000000,4.000000,4.000000,4.000000,100.000000,,,,,,,,,,,,,,,,
1645709982.751911,193.000000,0.000000,4212.179688,4193.205078,4231.410156,4216.922852,4213.589844,4229.358887,4232.436035,4229.230957,4232.179688,4233.205078,4191.922852,4157.820313,4205.769043,4231.410156,2847.000000,4.000000,91.000000,,,,0.000000,4.000000,4.000000,4.000000,4.000000,4.000000,4.000000,4.000000,4.000000,4.000000,4.000000,4.000000,4.000000,4.000000,4.000000,100.000000,,,,,,,,,,,,,,,,
1645709982.755851,194.000000,0.000000,4211.794922,4193.333496,4230.769043,4218.846191,4218.846191,4227.307617,4228.589844,4224.230957,4226.153809,4227.179688,4188.846191,4157.563965,4205.512695,4232.179688,2368.000000,4.000000,91.000000,,,,0.000000,4.000000,4.000000,4.000000,4.000000,4.000000,4.000000,4.000000,4.000000,4.000000,4.000000,4.000000,4.000000,4.000000,4.000000,100.000000,1.000000,100.000000,4.000000,4.000000,4.000000,4.000000,4.000000,4.000000,4.000000,4.000000,4.000000,4.000000,4.000000,4.000000,4.000000,4.000000
1645709982.759791,195.000000,0.000000,4209.615234,4193.717773,4230.641113,4217.563965,4222.692383,4223.461426,4226.025879,4220.256348,4221.153809,4221.794922,4185.512695,4155.512695,4204.743652,4232.179688,2816.000000,4.000000,91.000000,,,,0.000000,4.000000,4.000000,4.000000,4.000000,4.000000,4.000000,4.000000,4.000000,4.000000,4.000000,4.000000,4.000000,4.000000,4.000000,100.000000,,,,,,,,,,,,,,,,
1645709982.763731,196.000000,0.000000,4206.410156,4193.333496,4231.025879,4214.487305,4222.692383,4221.153809,4225.641113,4219.230957,4220.128418,4220.000000,4184.487305,4152.692383,4203.974121,4230.769043,3144.000000,4.000000,91.000000,,,,0.000000,4.000000,4.000000,4.000000,4.000000,4.000000,4.000000,4.000000,4.000000,4.000000,4.000000,4.000000,4.000000,4.000000,4.000000,100.000000,,,,,,,,,,,,,,,,
1645709982.767671,197.000000,0.000000,4204.230957,4192.051270,4232.307617,4211.153809,4218.974121,4222.436035,4227.051270,4221.794922,4223.333496,4222.179688,4187.307617,4151.538574,4204.230957,4229.358887,2847.000000,4.000000,91.000000,,,,0.000000,4.000000,4.000000,4.000000,4.000000,4.000000,4.000000,4.000000,4.000000,4.000000,4.000000,4.000000,4.000000,4.000000,4.000000,100.000000,,,,,,,,,,,,,,,,
1645709982.771612,198.000000,0.000000,4205.000000,4191.153809,4234.230957,4208.846191,4215.256348,4226.666504,4230.000000,4226.025879,4227.307617,4225.641113,4192.051270,4154.487305,4205.512695,4229.743652,2368.000000,4.000000,91.000000,,,,0.000000,4.000000,4.000000,4.000000,4.000000,4.000000,4.000000,4.000000,4.000000,4.000000,4.000000,4.000000,4.000000,4.000000,4.000000,100.000000,,,,,,,,,,,,,,,,
1645709982.775652,199.000000,0.000000,4208.077148,4192.820313,4236.153809,4208.717773,4215.512695,4232.307617,4234.358887,4229.230957,4229.230957,4227.820313,4195.769043,4160.641113,4207.820313,4231.794922,2816.000000,4.000000,91.000000,,,,0.000000,4.000000,4.000000,4.000000,4.000000,4.000000,4.000000,4.000000,4.000000,4.000000,4.000000,4.000000,4.000000,4.000000,4.000000,100.000000,,,,,,,,,,,,,,,,
1645709982.779592,200.000000,0.000000,4211.410156,4197.563965,4237.692383,4211.153809,4221.410156,4237.563965,4239.615234,4229.871582,4228.333496,4228.846191,4196.666504,4167.051270,4210.641113,4234.487305,3144.000000,4.000000,91.000000,2,1,0,0.000000,4.000000,4.000000,4.000000,4.000000,4.000000,4.000000,4.000000,4.000000,4.000000,4.000000,4.000000,4.000000,4.000000,4.000000,100.000000,,,,,,,,,,,,,,,,
1645709982.783532,201.000000,0.000000,4213.461426,4203.461426,4238.333496,4215.256348,4230.000000,4241.282227,4244.230957,4228.846191,4225.769043,4230.256348,4195.769043,4170.512695,4213.205078,4236.282227,2847.000000,4.000000,91.000000,,,,0.000000,4.000000,4.000000,4.000000,4.000000,4.000000,4.000000,4.000000,4.000000,4.000000,4.000000,4.000000,4.000000,4.000000,4.000000,100.000000,,,,,,,,,,,,,,,,
1645709982.787472,202.000000,0.000000,4213.461426,4206.282227,4237.563965,4218.461426,4235.000000,4242.563965,4246.922852,4228.461426,4223.846191,4232.820313,4194.487305,4170.384766,4214.358887,4236.025879,2368.000000,4.000000,91.000000,,,,0.000000,4.000000,4.000000,4.000000,4.000000,4.000000,4.000000,4.000000,4.000000,4.000000,4.000000,4.000000,4.000000,4.000000,4.000000,100.000000,,,,,,,,,,,,,,,,
1645709982.791412,203.000000,0.000000,4212.307617,4204.230957,4235.641113,4218.846191,4232.820313,4241.153809,4246.794922,4229.871582,4224.358887,4235.128418,4193.077148,4167.692383,4213.717773,4234.230957,2816.000000,4.000000,91.000000,,,,0.000000,4.000000,4.000000,4.000000,4.000000,4.000000,4.000000,4.000000,4.000000,4.000000,4.000000,4.000000,4.000000,4.000000,4.000000,100.000000,,,,,,,,,,,,,,,,
1645709982.795352,204.000000,0.000000,4210.128418,4198.461426,4233.333496,4216.025879,4225.128418,4238.333496,4245.128418,4232.436035,4227.436035,4235.769043,4191.153809,4164.358887,4211.666504,4232.436035,3144.000000,4.000000,91.000000,,,,0.000000,4.000000,4.000000,4.000000,4.000000,4.000000,4.000000,4.000000,4.000000,4.000000,4.000000,4.000000,4.000000,4.000000,4.000000,100.000000,,,,,,,,,,,,,,,,
1645709982.799292,205.000000,0.000000,4207.563965,4193.205078,4231.922852,4211.410156,4217.948730,4236.025879,4244.487305,4234.102539,4231.025879,4234.358887,4188.974121,4162.051270,4209.743652,4232.436035,2847.000000,4.000000,91.000000,,,,0.000000,4.000000,4.000000,4.000000,4.000000,4.000000,4.000000,4.000000,4.000000,4.000000,4.000000,4.000000,4.000000,4.000000,4.000000,100.000000,,,,,,,,,,,,,,,,
1645709982.803232,206.000000,0.000000,4205.897461,4191.666504,4232.820313,4207.692383,4216.538574,4235.128418,4246.025879,4233.974121,4232.820313,4231.922852,4187.436035,4161.538574,4209.358887,4235.128418,2368.000000,4.000000,91.000000,,,,0.000000,4.000000,4.000000,4.000000,4.000000,4.000000,4.000000,4.000000,4.000000,4.000000,4.000000,4.000000,4.000000,4.000000,4.000000,100.000000,,,,,,,,,,,,,,,,
1645709982.807172,207.000000,0.000000,4207.051270,4194.230957,4236.410156,4206.922852,4221.538574,4235.384766,4248.333496,4233.333496,4232.051270,4230.128418,4187.948730,4163.205078,4211.153809,4239.743652,2816.000000,4.000000,91.000000,,,,0.000000,4.000000,4.000000,4.000000,4.000000,4.000000,4.000000,4.000000,4.000000,4.000000,4.000000,4.000000,4.000000,4.000000,4.000000,100.000000,,,,,,,,,,,,,,,,
1645709982.811112,208.000000,0.000000,4211.538574,4198.974121,4241.666504,4209.871582,4228.974121,4236.282227,4248.461426,4234.358887,4230.384766,4230.769043,4191.666504,4166.922852,4214.615234,4244.743652,3144.000000,4.000000,91.000000,,,,0.000000,4.000000,4.000000,4.000000,4.000000,4.000000,4.000000,4.000000,4.000000,4.000000,4.000000,4.000000,4.000000,4.000000,4.000000,100.000000,,,,,,,,,,,,,,,,
1645709982.815053,209.000000,0.000000,4216.922852,4203.077148,4246.538574,4215.512695,4233.846191,4237.307617,4245.384766,4237.563965,4230.128418,4234.102539,4197.436035,4171.153809,4218.333496,4248.333496,2847.000000,4.000000,91.000000,,,,0.000000,4.000000,4.000000,4.000000,4.000000,4.000000,4.000000,4.000000,4.000000,4.000000,4.000000,4.000000,4.000000,4.000000,4.000000,100.000000,,,,,,,,,,,,,,,,
1645709982.818993,210.000000,0.000000,4219.102539,4205.384766,4248.589844,4221.666504,4233.717773,4238.589844,4241.282227,4241.025879,4231.794922,4238.846191,4202.820313,4173.205078,4220.512695,4249.358887,2368.000000,4.000000,91.000000,,,,0.000000,4.000000,4.000000,4.000000,4.000000,4.000000,4.000000,4.000000,4.000000,4.000000,4.000000,4.000000,4.000000,4.000000,4.000000,100.000000,,,,,,,,,,,,,,,,
1645709982.822933,211.000000,0.000000,4216.153809,4205.641113,4246.282227,4225.769043,4229.743652,4240.000000,4238.717773,4241.922852,4233.846191,4242.820313,4204.743652,4171.538574,4220.512695,4248.077148,2816.000000,4.000000,91.000000,,,,0.000000,4.000000,4.000000,4.000000,4.000000,4.000000,4.000000,4.000000,4.000000,4.000000,4.000000,4.000000,4.000000,4.000000,4.000000,100.000000,,,,,,,,,,,,,,,,
1645709982.826873,212.000000,0.000000,4210.512695,4205.512695,4240.897461,4226.025879,4224.743652,4240.769043,4238.333496,4239.487305,4234.102539,4244.615234,4202.051270,4167.051270,4218.205078,4245.512695,3144.000000,4.000000,91.000000,,,,0.000000,4.000000,4.000000,4.000000,4.000000,4.000000,4.000000,4.000000,4.000000,4.000000,4.000000,4.000000,4.000000,4.000000,4.000000,100.000000,,,,,,,,,,,,,,,,
1645709982.830813,213.000000,0.000000,4206.538574,4205.769043,4235.256348,4222.563965,4221.666504,4240.384766,4239.230957,4235.384766,4232.307617,4243.589844,4196.922852,4162.436035,4214.743652,4242.820313,2847.000000,4.000000,91.000000,,,,0.000000,4.000000,4.000000,4.000000,4.000000,4.000000,4.000000,4.000000,4.000000,4.000000,4.000000,4.000000,4.000000,4.000000,4.000000,100.000000,,,,,,,,,,,,,,,,
1645709982.834753,214.000000,0.000000,4206.794922,4206.282227,4232.307617,4217.307617,4222.179688,4239.487305,4240.128418,4232.051270,4229.487305,4241.153809,4193.333496,4160.641113,4212.179688,4241.282227,2368.000000,4.000000,91.000000,,,,0.000000,4.000000,4.000000,4.000000,4.000000,4.000000,4.000000,4.000000,4.000000,4.000000,4.000000,4.000000,4.000000,4.000000,4.000000,100.000000,,,,,,,,,,,,,,,,
1645709982.838693,215.000000,0.000000,4209.871582,4205.897461,4232.948730,4213.461426,4226.282227,4238.846191,4240.769043,4230.384766,4227.948730,4239.487305,4193.974121,4162.563965,4211.922852,4241.922852,2816.000000,4.000000,91.000000,,,,0.000000,4.000000,4.000000,4.000000,4.000000,4.000000,4.000000,4.000000,4.000000,4.000000,4.000000,4.000000,4.000000,4.000000,4.000000,100.000000,,,,,,,,,,,,,,,,
1645709982.842633,216.000000,0.000000,4213.333496,4203.846191,4235.512695,4212.436035,4231.538574,4239.230957,4241.153809,4230.641113,4229.102539,4240.128418,4197.948730,4166.410156,4213.589844,4244.743652,3144.000000,4.000000,91.000000,,,,0.000000,4.000000,4.000000,4.000000,4.000000,4.000000,4.000000,4.000000,4.000000,4.000000,4.000000,4.000000,4.000000,4.000000,4.000000,100.000000,,,,,,,,,,,,,,,,
1645709982.846673,217.000000,0.000000,4215.384766,4201.410156,4237.051270,4213.077148,4234.743652,4239.487305,4241.153809,4232.307617,4232.179688,4242.436035,4200.769043,4168.974121,4215.384766,4248.205078,2847.000000,4.000000,91.000000,,,,0.000000,4.000000,4.000000,4.000000,4.000000,4.000000,4.000000,4.000000,4.000000,4.000000,4.000000,4.000000,4.000000,4.000000,4.000000,100.000000,,,,,,,,,,,,,,,,
1645709982.850613,218.000000,0.000000,4216.538574,4200.512695,4236.025879,4212.436035,4233.589844,4238.589844,4240.641113,4234.615234,4235.000000,4243.717773,4198.717773,4168.333496,4215.897461,4250.128418,2368.000000,4.000000,91.000000,,,,0.000000,4.000000,4.000000,4.000000,4.000000,4.000000,4.000000,4.000000,4.000000,4.000000,4.000000,4.000000,4.000000,4.000000,4.000000,100.000000,,,,,,,,,,,,,,,,
1645709982.854554,219.000000,0.000000,4216.794922,4202.179688,4233.717773,4209.487305,4229.358887,4236.666504,4239.743652,4236.153809,4235.256348,4241.922852,4192.436035,4164.743652,4214.743652,4248.461426,2816.000000,4.000000,91.000000,,,,0.000000,4.000000,4.000000,4.000000,4.000000,4.000000,4.000000,4.000000,4.000000,4.000000,4.000000,4.000000,4.000000,4.000000,4.000000,100.000000,,,,,,,,,,,,,,,,
1645709982.858494,220.000000,0.000000,4216.153809,4205.512695,4232.436035,4206.538574,4226.538574,4235.512695,4238.974121,4235.000000,4232.563965,4236.922852,4185.641113,4160.000000,4212.692383,4243.461426,3144.000000,4.000000,91.000000,,,,0.000000,4.000000,4.000000,4.000000,4.000000,4.000000,4.000000,4.000000,4.000000,4.000000,4.000000,4.000000,4.000000,4.000000,4.000000,100.000000,,,,,,,,,,,,,,,,
1645709982.862434,221.000000,0.000000,4214.871582,4208.589844,4233.461426,4207.436035,4228.333496,4237.051270,4238.589844,4230.256348,4228.717773,4230.769043,4182.307617,4156.025879,4210.384766,4237.307617,2847.000000,4.000000,91.000000,,,,0.000000,4.000000,4.000000,4.000000,4.000000,4.000000,4.000000,4.000000,4.000000,4.000000,4.000000,4.000000,4.000000,4.000000,4.000000,100.000000,,,,,,,,,,,,,,,,
1645709982.866374,222.000000,0.000000,4214.487305,4209.230957,4235.897461,4213.461426,4233.589844,4240.128418,4238.461426,4223.205078,4226.025879,4225.769043,4181.794922,4153.333496,4207.307617,4232.179688,2368.000000,4.000000,91.000000,,,,0.000000,4.000000,4.000000,4.000000,4.000000,4.000000,4.000000,4.000000,4.000000,4.000000,4.000000,4.000000,4.000000,4.000000,4.000000,100.000000,,,,,,,,,,,,,,,,
1645709982.870314,223.000000,0.000000,4215.897461,4206.666504,4237.563965,4221.666504,4237.307617,4242.307617,4238.589844,4217.051270,4225.128418,4222.948730,4180.256348,4151.025879,4203.077148,4229.230957,2816.000000,4.000000,91.000000,,,,0.000000,4.000000,4.000000,4.000000,4.000000,4.000000,4.000000,4.000000,4.000000,4.000000,4.000000,4.000000,4.000000,4.000000,4.000000,100.000000,,,,,,,,,,,,,,,,
1645709982.874254,224.000000,0.000000,4217.820313,4201.794922,4236.922852,4227.051270,4235.512695,4241.282227,4238.717773,4214.871582,4225.128418,4221.282227,4175.384766,4148.077148,4198.333496,4228.077148,3144.000000,4.000000,91.000000,,,,0.000000,4.000000,4.000000,4.000000,4.000000,4.000000,4.000000,4.000000,4.000000,4.000000,4.000000,4.000000,4.000000,4.000000,4.000000,100.000000,,,,,,,,,,,,,,,,
1645709982.878194,225.000000,0.000000,4217.948730,4196.922852,4234.102539,4226.025879,4229.102539,4237.692383,4238.846191,4216.666504,4224.871582,4219.487305,4168.589844,4145.128418,4195.256348,4227.436035,2847.000000,4.000000,91.000000,,,,0.000000,4.000000,4.000000,4.000000,4.000000,4.000000,4.000000,4.000000,4.000000,4.000000,4.000000,4.000000,4.000000,4.000000,4.000000,100.000000,,,,,,,,,,,,,,,,
1645709982.882134,226.000000,0.000000,4215.128418,4194.743652,4230.769043,4219.358887,4222.563965,4233.461426,4239.358887,4220.897461,4224.487305,4217.436035,4163.717773,4143.589844,4195.769043,4227.051270,2368.000000,4.000000,91.000000,,,,0.000000,4.000000,4.000000,4.000000,4.000000,4.000000,4.000000,4.000000,4.000000,4.000000,4.000000,4.000000,4.000000,4.000000,4.000000,100.000000,,,,,,,,,,,,,,,,
1645709982.886074,227.000000,0.000000,4211.794922,4195.769043,4228.846191,4210.641113,4220.128418,4231.025879,4240.384766,4225.128418,4224.615234,4216.282227,4163.589844,4145.384766,4199.871582,4227.563965,2816.000000,4.000000,91.000000,,,,0.000000,4.000000,4.000000,4.000000,4.000000,4.000000,4.000000,4.000000,4.000000,4.000000,4.000000,4.000000,4.000000,4.000000,4.000000,100.000000,,,,,,,,,,,,,,,,
1645709982.890014,228.000000,0.000000,4211.025879,4198.205078,4229.230957,4204.230957,4222.820313,4230.256348,4242.179688,4228.205078,4225.512695,4217.692383,4167.948730,4150.897461,4205.384766,4229.743652,3144.000000,4.000000,91.000000,,,,0.000000,4.000000,4.000000,4.000000,4.000000,4.000000,4.000000,4.000000,4.000000,4.000000,4.000000,4.000000,4.000000,4.000000,4.000000,100.000000,,,,,,,,,,,,,,,,
1645709982.893955,229.000000,0.000000,4213.846191,4199.743652,4230.897461,4202.948730,4228.077148,4230.769043,4244.487305,4230.256348,4226.410156,4222.051270,4174.102539,4157.820313,4209.743652,4232.820313,2847.000000,4.000000,91.000000,,,,0.000000,4.000000,4.000000,4.000000,4.000000,4.000000,4.000000,4.000000,4.000000,4.000000,4.000000,4.000000,4.000000,4.000000,4.000000,100.000000,,,,,,,,,,,,,,,,
1645709982.897895,230.000000,0.000000,4217.307617,4199.615234,4232.307617,4206.410156,4232.436035,4231.922852,4246.538574,4232.307617,4227.051270,4228.717773,4179.230957,4162.307617,4211.922852,4235.256348,2368.000000,4.000000,91.000000,,,,0.000000,4.000000,4.000000,4.000000,4.000000,4.000000,4.000000,4.000000,4.000000,4.000000,4.000000,4.000000,4.000000,4.000000,4.000000,100.000000,,,,,,,,,,,,,,,,
1645709982.901835,231.000000,0.000000,4217.948730,4198.077148,4232.436035,4211.282227,4233.333496,4233.846191,4247.307617,4234.615234,4227.436035,4235.384766,4181.794922,4162.692383,4212.179688,4235.128418,2816.000000,4.000000,91.000000,,,,0.000000,4.000000,4.000000,4.000000,4.000000,4.000000,4.000000,4.000000,4.000000,4.000000,4.000000,4.000000,4.000000,4.000000,4.000000,100.000000,,,,,,,,,,,,,,,,
1645709982.905775,232.000000,0.000000,4215.384766,4195.641113,4231.282227,4212.820313,4230.384766,4235.769043,4246.025879,4236.282227,4227.436035,4239.358887,4181.410156,4160.000000,4211.410156,4232.692383,3144.000000,4.000000,91.000000,,,,0.000000,4.000000,4.000000,4.000000,4.000000,4.000000,4.000000,4.000000,4.000000,4.000000,4.000000,4.000000,4.000000,4.000000,4.000000,100.000000,,,,,,,,,,,,,,,,
1645709982.909715,233.000000,0.000000,4212.436035,4192.692383,4230.256348,4209.358887,4225.641113,4236.153809,4242.948730,4236.410156,4227.179688,4238.589844,4179.487305,4156.666504,4209.615234,4229.743652,2847.000000,4.000000,91.000000,,,,0.000000,4.000000,4.000000,4.000000,4.000000,4.000000,4.000000,4.000000,4.000000,4.000000,4.000000,4.000000,4.000000,4.000000,4.000000,100.000000,,,,,,,,,,,,,,,,
1645709982.913655,234.000000,0.000000,4211.282227,4190.512695,4229.871582,4203.077148,4222.436035,4234.487305,4239.743652,4235.128418,4227.051270,4233.589844,4178.589844,4155.128418,4208.077148,4228.846191,2368.000000,4.000000,91.000000,,,,0.000000,4.000000,4.000000,4.000000,4.000000,4.000000,4.000000,4.000000,4.000000,4.000000,4.000000,4.000000,4.000000,4.000000,4.000000,100.000000,,,,,,,,,,,,,,,,
1645709982.917595,235.000000,0.000000,4211.922852,4190.256348,4230.256348,4199.358887,4223.461426,4231.794922,4238.205078,4233.589844,4227.820313,4229.102539,4181.794922,4156.282227,4208.717773,4231.153809,2816.000000,4.000000,91.000000,,,,0.000000,4.000000,4.000000,4.000000,4.000000,4.000000,4.000000,4.000000,4.000000,4.000000,4.000000,4.000000,4.000000,4.000000,4.000000,100.000000,,,,,,,,,,,,,,,,
1645709982.921535,236.000000,0.000000,4212.692383,4192.692383,4230.256348,4201.538574,4228.077148,4230.000000,4238.589844,4233.974121,4229.871582,4229.358887,4189.487305,4159.871582,4212.948730,4234.743652,3144.000000,4.000000,91.000000,,,,0.000000,4.000000,4.000000,4.000000,4.000000,4.000000,4.000000,4.000000,4.000000,4.000000,4.000000,4.000000,4.000000,4.000000,4.000000,100.000000,,,,,,,,,,,,,,,,
1645709982.925376,237.000000,0.000000,4212.563965,4196.666504,4228.846191,4208.333496,4232.179688,4230.000000,4239.615234,4236.538574,4232.179688,4234.487305,4198.077148,4164.871582,4219.358887,4236.922852,2847.000000,4.000000,91.000000,,,,0.000000,4.000000,4.000000,4.000000,4.000000,4.000000,4.000000,4.000000,4.000000,4.000000,4.000000,4.000000,4.000000,4.000000,4.000000,100.000000,,,,,,,,,,,,,,,,
1645709982.929316,238.000000,0.000000,4212.307617,4199.358887,4225.769043,4214.230957,4232.179688,4231.794922,4240.000000,4239.615234,4233.205078,4239.358887,4202.051270,4169.743652,4224.487305,4235.512695,2368.000000,4.000000,91.000000,,,,0.000000,4.000000,4.000000,4.000000,4.000000,4.000000,4.000000,4.000000,4.000000,4.000000,4.000000,4.000000,4.000000,4.000000,4.000000,100.000000,,,,,,,,,,,,,,,,
1645709982.933256,239.000000,0.000000,4212.692383,4198.974121,4222.820313,4215.000000,4227.820313,4234.102539,4239.743652,4240.384766,4232.563965,4238.974121,4199.358887,4172.563965,4225.512695,4231.794922,2816.000000,4.000000,91.000000,,,,0.000000,4.000000,4.000000,4.000000,4.000000,4.000000,4.000000,4.000000,4.000000,4.000000,4.000000,4.000000,4.000000,4.000000,4.000000,100.000000,,,,,,,,,,,,,,,,
1645709982.937196,240.000000,0.000000,4214.102539,4196.153809,4222.307617,4211.410156,4222.820313,4236.282227,4239.487305,4237.692383,4231.153809,4233.717773,4193.077148,4172.051270,4222.948730,4228.974121,3144.000000,4.000000,91.000000,,,,0.000000,4.000000,4.000000,4.000000,4.000000,4.000000,4.000000,4.000000,4.000000,4.000000,4.000000,4.000000,4.000000,4.000000,4.000000,100.000000,,,,,,,,,,,,,,,,
1645709982.941136,241.000000,0.000000,4216.025879,4194.358887,4225.641113,4207.820313,4221.794922,4237.563965,4239.743652,4233.077148,4231.153809,4229.102539,4189.102539,4168.974121,4220.128418,4230.000000,2847.000000,4.000000,91.000000,,,,0.000000,4.000000,4.000000,4.000000,4.000000,4.000000,4.000000,4.000000,4.000000,4.000000,4.000000,4.000000,4.000000,4.000000,4.000000,100.000000,,,,,,,,,,,,,,,,
1645709982.945076,242.000000,0.000000,4219.102539,4195.897461,4232.051270,4208.205078,4225.897461,4237.820313,4240.384766,4229.487305,4232.820313,4229.871582,4190.512695,4166.666504,4220.897461,4235.256348,2368.000000,4.000000,91.000000,,,,0.000000,4.000000,4.000000,4.000000,4.000000,4.000000,4.000000,4.000000,4.000000,4.000000,4.000000,4.000000,4.000000,4.000000,4.000000,100.000000,,,,,,,,,,,,,,,,
1645709982.949016,243.000000,0.000000,4223.589844,4200.512695,4238.846191,4212.948730,4232.436035,4237.436035,4241.410156,4229.102539,4234.871582,4235.384766,4195.769043,4168.077148,4225.512695,4242.179688,2816.000000,4.000000,91.000000,,,,0.000000,4.000000,4.000000,4.000000,4.000000,4.000000,4.000000,4.000000,4.000000,4.000000,4.000000,4.000000,4.000000,4.000000,4.000000,100.000000,,,,,,,,,,,,,,,,
1645709982.952956,244.000000,0.000000,4228.846191,4206.153809,4243.461426,4219.487305,4237.436035,4237.307617,4242.692383,4231.410156,4235.000000,4240.769043,4200.256348,4173.717773,4231.538574,4247.692383,3144.000000,4.000000,91.000000,,,,0.000000,4.000000,4.000000,4.000000,4.000000,4.000000,4.000000,4.000000,4.000000,4.000000,4.000000,4.000000,4.000000,4.000000,4.000000,100.000000,,,,,,,,,,,,,,,,
1645709982.956896,245.000000,0.000000,4232.820313,4211.410156,4245.897461,4223.846191,4237.948730,4238.333496,4243.846191,4233.589844,4232.563965,4241.538574,4200.769043,4180.384766,4235.384766,4249.230957,2847.000000,4.000000,91.000000,,,,0.000000,4.000000,4.000000,4.000000,4.000000,4.000000,4.000000,4.000000,4.000000,4.000000,4.000000,4.000000,4.000000,4.000000,4.000000,100.000000,,,,,,,,,,,,,,,,
1645709982.960836,246.000000,0.000000,4233.589844,4215.128418,4246.794922,4223.717773,4234.102539,4239.615234,4244.358887,4233.077148,4228.077148,4237.436035,4196.922852,4184.358887,4235.256348,4246.153809,2368.000000,4.000000,91.000000,,,,0.000000,4.000000,4.000000,4.000000,4.000000,4.000000,4.000000,4.000000,4.000000,4.000000,4.000000,4.000000,4.000000,4.000000,4.000000,100.000000,,,,,,,,,,,,,,,,
1645709982.964777,247.000000,0.000000,4231.794922,4216.153809,4246.794922,4220.000000,4228.717773,4239.615234,4243.589844,4229.615234,4223.589844,4231.410156,4191.666504,4183.974121,4232.051270,4240.641113,2816.000000,4.000000,91.000000,,,,0.000000,4.000000,4.000000,4.000000,4.000000,4.000000,4.000000,4.000000,4.000000,4.000000,4.000000,4.000000,4.000000,4.000000,4.000000,100.000000,,,,,,,,,,,,,,,,
1645709982.968717,248.000000,0.000000,4229.615234,4213.461426,4246.025879,4216.410156,4225.384766,4237.563965,4242.179688,4225.641113,4221.410156,4226.538574,4187.820313,4180.512695,4228.077148,4235.384766,3144.000000,4.000000,91.000000,,,,0.000000,4.000000,4.000000,4.000000,4.000000,4.000000,4.000000,4.000000,4.000000,4.000000,4.000000,4.000000,4.000000,4.000000,4.000000,100.000000,,,,,,,,,,,,,,,,
1645709982.972657,249.000000,0.000000,4228.717773,4207.948730,4244.743652,4216.794922,4226.282227,4235.000000,4241.538574,4224.230957,4222.563965,4225.000000,4187.179688,4177.051270,4226.025879,4232.563965,2847.000000,4.000000,91.000000,,,,0.000000,4.000000,4.000000,4.000000,4.000000,4.000000,4.000000,4.000000,4.000000,4.000000,4.000000,4.000000,4.000000,4.000000,4.000000,100.000000,,,,,,,,,,,,,,,,
1645709982.976597,250.000000,0.000000,4228.461426,4202.948730,4243.461426,4221.025879,4230.384766,4234.615234,4243.205078,4226.025879,4226.794922,4226.538574,4189.358887,4175.256348,4226.410156,4232.692383,2368.000000,4.000000,91.000000,,,,0.000000,4.000000,4.000000,4.000000,4.000000,4.000000,4.000000,4.000000,4.000000,4.000000,4.000000,4.000000,4.000000,4.000000,4.000000,100.000000,,,,,,,,,,,,,,,,
1645709982.980537,251.000000,0.000000,4226.666504,4201.538574,4242.563965,4225.384766,4233.589844,4236.922852,4246.794922,4228.717773,4231.666504,4229.230957,4192.179688,4175.128418,4228.461426,4234.358887,2816.000000,4.000000,91.000000,,,,0.000000,4.000000,4.000000,4.000000,4.000000,4.000000,4.000000,4.000000,4.000000,4.000000,4.000000,4.000000,4.000000,4.000000,4.000000,100.000000,,,,,,,,,,,,,,,,
1645709982.984477,252.000000,0.000000,4223.077148,4204.102539,4241.666504,4225.384766,4232.179688,4239.871582,4249.743652,4229.230957,4234.487305,4230.128418,4193.077148,4175.512695,4229.615234,4235.897461,3144.000000,4.000000,91.000000,,,,0.000000,4.000000,4.000000,4.000000,4.000000,4.000000,4.000000,4.000000,4.000000,4.000000,4.000000,4.000000,4.000000,4.000000,4.000000,100.000000,,,,,,,,,,,,,,,,
1645709982.988417,253.000000,0.000000,4219.871582,4208.461426,4240.256348,4221.153809,4226.410156,4240.641113,4249.615234,4226.666504,4233.589844,4227.051270,4191.282227,4174.615234,4228.077148,4236.538574,2847.000000,4.000000,91.000000,,,,0.000000,4.000000,4.000000,4.000000,4.000000,4.000000,4.000000,4.000000,4.000000,4.000000,4.000000,4.000000,4.000000,4.000000,4.000000,100.000000,,,,,,,,,,,,,,,,
1645709982.992357,254.000000,0.000000,4219.358887,4211.538574,4238.205078,4216.922852,4220.769043,4238.589844,4246.922852,4223.461426,4229.743652,4221.153809,4188.589844,4172.563965,4224.358887,4236.153809,2368.000000,4.000000,91.000000,,,,0.000000,4.000000,4.000000,4.000000,4.000000,4.000000,4.000000,4.000000,4.000000,4.000000,4.000000,4.000000,4.000000,4.000000,4.000000,100.000000,,,,,,,,,,,,,,,,
1645709982.996397,255.000000,0.000000,4221.666504,4212.307617,4235.641113,4216.794922,4220.769043,4236.410156,4244.358887,4223.077148,4225.641113,4216.410156,4187.436035,4170.384766,4220.641113,4235.000000,114.000000,4.000000,91.000000,,,,0.000000,4.000000,4.000000,4.000000,4.000000,4.000000,4.000000,4.000000,4.000000,4.000000,4.000000,4.000000,4.000000,4.000000,4.000000,100.000000,,,,,,,,,,,,,,,,
1645709983.000337,0.000000,0.000000,4224.487305,4211.282227,4233.205078,4220.512695,4227.179688,4236.538574,4244.358887,4227.051270,4223.846191,4216.282227,4188.589844,4169.615234,4219.487305,4233.461426,3257.000000,4.000000,91.000000,,,,0.000000,4.000000,4.000000,4.000000,4.000000,4.000000,4.000000,4.000000,4.000000,4.000000,4.000000,4.000000,4.000000,4.000000,4.000000,100.000000,,,,,,,,,,,,,,,,
1645709983.004278,1.000000,0.000000,4225.384766,4209.358887,4231.410156,4223.589844,4235.512695,4238.717773,4246.153809,4234.102539,4224.871582,4220.512695,4190.641113,4170.384766,4221.153809,4231.794922,3418.000000,4.000000,91.000000,,,,0.000000,4.000000,4.000000,4.000000,4.000000,4.000000,4.000000,4.000000,4.000000,4.000000,4.000000,4.000000,4.000000,4.000000,4.000000,100.000000,,,,,,,,,,,,,,,,
1645709983.008218,2.000000,0.000000,4223.717773,4207.051270,4230.897461,4221.410156,4238.717773,4240.769043,4247.436035,4240.512695,4227.692383,4226.410156,4191.282227,4171.282227,4223.974121,4230.512695,2494.000000,4.000000,91.000000,,,,0.000000,4.000000,4.000000,4.000000,4.000000,4.000000,4.000000,4.000000,4.000000,4.000000,4.000000,4.000000,4.000000,4.000000,4.000000,100.000000,,,,,,,,,,,,,,,,
1645709983.012158,3.000000,0.000000,4220.769043,4205.000000,4231.666504,4214.487305,4233.333496,4240.256348,4246.153809,4242.692383,4230.256348,4230.897461,4189.871582,4170.512695,4226.025879,4229.871582,3148.000000,4.000000,91.000000,,,,0.000000,4.000000,4.000000,4.000000,4.000000,4.000000,4.000000,4.000000,4.000000,4.000000,4.000000,4.000000,4.000000,4.000000,4.000000,100.000000,,,,,,,,,,,,,,,,
1645709983.016098,4.000000,0.000000,4218.333496,4204.487305,4232.820313,4208.974121,4223.461426,4237.179688,4242.948730,4239.743652,4231.922852,4233.461426,4188.333496,4168.205078,4227.307617,4230.128418,3482.000000,4.000000,91.000000,,,,0.000000,4.000000,4.000000,4.000000,4.000000,4.000000,4.000000,4.000000,4.000000,4.000000,4.000000,4.000000,4.000000,4.000000,4.000000,100.000000,,,,,,,,,,,,,,,,
1645709983.020038,5.000000,0.000000,4217.948730,4206.025879,4233.461426,4210.000000,4217.820313,4234.230957,4239.871582,4234.358887,4232.948730,4235.512695,4189.230957,4166.410156,4228.717773,4231.282227,3394.000000,4.000000,91.000000,,,,0.000000,4.000000,4.000000,4.000000,4.000000,4.000000,4.000000,4.000000,4.000000,4.000000,4.000000,4.000000,4.000000,4.000000,4.000000,100.000000,,,,,,,,,,,,,,,,
1645709983.023978,6.000000,0.000000,4219.743652,4208.461426,4233.461426,4217.051270,4221.538574,4233.461426,4239.102539,4230.384766,4233.333496,4238.205078,4193.333496,4167.051270,4231.282227,4232.692383,3070.000000,4.000000,91.000000,,,,0.000000,4.000000,4.000000,4.000000,4.000000,4.000000,4.000000,4.000000,4.000000,4.000000,4.000000,4.000000,4.000000,4.000000,4.000000,100.000000,,,,,,,,,,,,,,,,
1645709983.027918,7.000000,0.000000,4223.077148,4209.871582,4233.205078,4223.717773,4231.666504,4235.000000,4240.512695,4230.256348,4233.077148,4241.153809,4198.589844,4169.743652,4234.102539,4234.102539,2073.000000,4.000000,91.000000,,,,0.000000,4.000000,4.000000,4.000000,4.000000,4.000000,4.000000,4.000000,4.000000,4.000000,4.000000,4.000000,4.000000,4.000000,4.000000,100.000000,,,,,,,,,,,,,,,,
1645709983.031858,8.000000,0.000000,4226.282227,4209.487305,4233.333496,4224.230957,4239.487305,4237.179688,4242.563965,4233.333496,4232.436035,4242.692383,4202.307617,4172.563965,4235.769043,4235.256348,1245.000000,4.000000,91.000000,,,,0.000000,4.000000,4.000000,4.000000,4.000000,4.000000,4.000000,4.000000,4.000000,4.000000,4.000000,4.000000,4.000000,4.000000,4.000000,100.000000,,,,,,,,,,,,,,,,
1645709983.035798,9.000000,0.000000,4226.922852,4208.077148,4233.461426,4217.948730,4239.358887,4238.717773,4243.717773,4236.410156,4232.051270,4241.922852,4202.179688,4172.948730,4235.256348,4236.153809,3045.000000,4.000000,91.000000,,,,0.000000,4.000000,4.000000,4.000000,4.000000,4.000000,4.000000,4.000000,4.000000,4.000000,4.000000,4.000000,4.000000,4.000000,4.000000,100.000000,,,,,,,,,,,,,,,,
1645709983.039738,10.000000,0.000000,4223.461426,4207.820313,4232.820313,4209.871582,4233.077148,4239.743652,4243.333496,4237.179688,4232.307617,4238.974121,4198.589844,4170.384766,4233.846191,4236.410156,2153.000000,4.000000,91.000000,,,,0.000000,4.000000,4.000000,4.000000,4.000000,4.000000,4.000000,4.000000,4.000000,4.000000,4.000000,4.000000,4.000000,4.000000,4.000000,100.000000,,,,,,,,,,,,,,,,
1645709983.043679,11.000000,0.000000,4218.077148,4210.128418,4231.025879,4205.641113,4227.820313,4240.897461,4242.307617,4235.256348,4233.205078,4235.256348,4194.102539,4167.051270,4233.461426,4235.769043,2816.000000,4.000000,91.000000,,,,0.000000,4.000000,4.000000,4.000000,4.000000,4.000000,4.000000,4.000000,4.000000,4.000000,4.000000,4.000000,4.000000,4.000000,4.000000,100.000000,,,,,,,,,,,,,,,,
1645709983.047619,12.000000,0.000000,4215.512695,4214.615234,4229.487305,4206.922852,4228.717773,4241.282227,4240.897461,4233.077148,4233.974121,4232.179688,4191.282227,4165.641113,4234.743652,4234.102539,3252.000000,4.000000,91.000000,,,,0.000000,4.000000,4.000000,4.000000,4.000000,4.000000,4.000000,4.000000,4.000000,4.000000,4.000000,4.000000,4.000000,4.000000,4.000000,100.000000,,,,,,,,,,,,,,,,
1645709983.051559,13.000000,0.000000,4218.205078,4218.589844,4229.871582,4211.025879,4234.871582,4239.743652,4239.230957,4232.179688,4233.974121,4230.384766,4190.897461,4167.179688,4236.410156,4232.307617,2823.000000,4.000000,91.000000,,,,0.000000,4.000000,4.000000,4.000000,4.000000,4.000000,4.000000,4.000000,4.000000,4.000000,4.000000,4.000000,4.000000,4.000000,4.000000,100.000000,,,,,,,,,,,,,,,,
1645709983.055499,14.000000,0.000000,4223.974121,4219.230957,4231.794922,4214.230957,4241.025879,4235.769043,4237.563965,4232.820313,4233.461426,4230.256348,4192.563965,4170.512695,4236.666504,4231.282227,2153.000000,4.000000,91.000000,,,,0.000000,4.000000,4.000000,4.000000,4.000000,4.000000,4.000000,4.000000,4.000000,4.000000,4.000000,4.000000,4.000000,4.000000,4.000000,100.000000,,,,,,,,,,,,,,,,
1645709983.059439,15.000000,0.000000,4228.077148,4214.871582,4233.846191,4215.000000,4242.179688,4231.282227,4236.794922,4233.717773,4233.589844,4231.025879,4194.358887,4172.948730,4235.000000,4231.922852,2816.000000,4.000000,91.000000,,,,0.000000,4.000000,4.000000,4.000000,4.000000,4.000000,4.000000,4.000000,4.000000,4.000000,4.000000,4.000000,4.000000,4.000000,4.000000,100.000000,,,,,,,,,,,,,,,,
1645709983.063379,16.000000,0.000000,4227.179688,4207.692383,4234.487305,4214.230957,4238.077148,4228.846191,4237.692383,4234.615234,4234.358887,4231.666504,4194.871582,4172.051270,4232.179688,4233.077148,3252.000000,4.000000,91.000000,,,,0.000000,4.000000,4.000000,4.000000,4.000000,4.000000,4.000000,4.000000,4.000000,4.000000,4.000000,4.000000,4.000000,4.000000,4.000000,100.000000,,,,,,,,,,,,,,,,
1645709983.067319,17.000000,0.000000,4222.563965,4201.538574,4232.563965,4212.820313,4231.666504,4229.743652,4239.487305,4235.128418,4234.871582,4230.512695,4192.820313,4168.461426,4228.974121,4232.948730,2823.000000,4.000000,91.000000,,,,0.000000,4.000000,4.000000,4.000000,4.000000,4.000000,4.000000,4.000000,4.000000,4.000000,4.000000,4.000000,4.000000,4.000000,4.000000,100.000000,,,,,,,,,,,,,,,,
1645709983.071359,18.000000,0.000000,4217.436035,4199.615234,4227.948730,4210.512695,4226.794922,4232.563965,4240.641113,4235.384766,4234.487305,4227.051270,4188.846191,4165.000000,4226.025879,4230.641113,2153.000000,4.000000,91.000000,,,,0.000000,4.000000,4.000000,4.000000,4.000000,4.000000,4.000000,4.000000,4.000000,4.000000,4.000000,4.000000,4.000000,4.000000,4.000000,100.000000,,,,,,,,,,,,,,,,
1645709983.075299,19.000000,0.000000,4213.589844,4201.538574,4221.922852,4206.794922,4225.000000,4234.743652,4240.512695,4235.128418,4233.461426,4222.692383,4185.000000,4164.102539,4223.589844,4228.077148,2816.000000,4.000000,91.000000,,,,0.000000,4.000000,4.000000,4.000000,4.000000,4.000000,4.000000,4.000000,4.000000,4.000000,4.000000,4.000000,4.000000,4.000000,4.000000,100.000000,,,,,,,,,,,,,,,,
1645709983.079239,20.000000,0.000000,4211.282227,4204.358887,4217.051270,4202.436035,4225.769043,4234.615234,4239.358887,4234.230957,4232.436035,4220.000000,4183.974121,4165.256348,4222.179688,4227.692383,3252.000000,4.000000,91.000000,,,,0.000000,4.000000,4.000000,4.000000,4.000000,4.000000,4.000000,4.000000,4.000000,4.000000,4.000000,4.000000,4.000000,4.000000,4.000000,100.000000,,,,,,,,,,,,,,,,
1645709983.083180,21.000000,0.000000,4210.256348,4205.256348,4216.025879,4200.000000,4226.538574,4232.179688,4238.846191,4233.333496,4231.794922,4220.256348,4186.666504,4166.410156,4222.436035,4229.871582,2823.000000,4.000000,91.000000,,,,0.000000,4.000000,4.000000,4.000000,4.000000,4.000000,4.000000,4.000000,4.000000,4.000000,4.000000,4.000000,4.000000,4.000000,4.000000,100.000000,,,,,,,,,,,,,,,,
1645709983.087020,22.000000,0.000000,4211.538574,4203.077148,4218.974121,4200.512695,4224.871582,4228.846191,4239.358887,4233.461426,4231.794922,4222.820313,4191.410156,4166.025879,4224.102539,4232.051270,2153.000000,4.000000,91.000000,,,,0.000000,4.000000,4.000000,4.000000,4.000000,4.000000,4.000000,4.000000,4.000000,4.000000,4.000000,4.000000,4.000000,4.000000,4.000000,100.000000,,,,,,,,,,,,,,,,
1645709983.090960,23.000000,0.000000,4215.000000,4199.743652,4223.846191,4202.563965,4220.512695,4225.641113,4240.641113,4234.743652,4232.307617,4225.897461,4195.128418,4164.487305,4226.666504,4231.025879,2816.000000,4.000000,91.000000,,,,0.000000,4.000000,4.000000,4.000000,4.000000,4.000000,4.000000,4.000000,4.000000,4.000000,4.000000,4.000000,4.000000,4.000000,4.000000,100.000000,,,,,,,,,,,,,,,,
1645709983.094900,24.000000,0.000000,4218.333496,4197.179688,4227.051270,4202.948730,4216.153809,4223.846191,4241.282227,4236.538574,4233.333496,4228.205078,4196.282227,4163.461426,4229.871582,4226.153809,3252.000000,4.000000,91.000000,,,,0.000000,4.000000,4.000000,4.000000,4.000000,4.000000,4.000000,4.000000,4.000000,4.000000,4.000000,4.000000,4.000000,4.000000,4.000000,100.000000,,,,,,,,,,,,,,,,
1645709983.098840,25.000000,0.000000,4218.717773,4195.769043,4226.410156,4200.897461,4214.743652,4223.846191,4240.384766,4237.692383,4233.974121,4230.128418,4195.256348,4163.717773,4233.333496,4220.000000,2823.000000,4.000000,91.000000,,,,0.000000,4.000000,4.000000,4.000000,4.000000,4.000000,4.000000,4.000000,4.000000,4.000000,4.000000,4.000000,4.000000,4.000000,4.000000,100.000000,,,,,,,,,,,,,,,,
1645709983.102780,26.000000,0.000000,4214.871582,4194.871582,4221.794922,4198.589844,4216.922852,4225.641113,4238.333496,4236.922852,4233.974121,4232.051270,4193.589844,4164.358887,4236.666504,4216.794922,2153.000000,4.000000,91.000000,,,,0.000000,4.000000,4.000000,4.000000,4.000000,4.000000,4.000000,4.000000,4.000000,4.000000,4.000000,4.000000,4.000000,4.000000,4.000000,100.000000,,,,,,,,,,,,,,,,
1645709983.106720,27.000000,0.000000,4209.871582,4193.461426,4215.769043,4199.358887,4220.897461,4228.205078,4236.538574,4234.230957,4233.205078,4233.205078,4191.666504,4164.487305,4238.717773,4218.717773,2816.000000,4.000000,91.000000,,,,0.000000,4.000000,4.000000,4.000000,4.000000,4.000000,4.000000,4.000000,4.000000,4.000000,4.000000,4.000000,4.000000,4.000000,4.000000,100.000000,,,,,,,,,,,,,,,,
1645709983.110660,28.000000,0.000000,4207.948730,4191.666504,4212.051270,4203.974121,4223.717773,4230.769043,4236.282227,4231.922852,4232.051270,4233.077148,4189.871582,4163.846191,4238.717773,4224.743652,3252.000000,4.000000,91.000000,,,,0.000000,4.000000,4.000000,4.000000,4.000000,4.000000,4.000000,4.000000,4.000000,4.000000,4.000000,4.000000,4.000000,4.000000,4.000000,100.000000,,,,,,,,,,,,,,,,
1645709983.114600,29.000000,0.000000,4211.666504,4191.153809,4212.692383,4209.230957,4224.615234,4233.205078,4238.077148,4231.666504,4230.769043,4232.307617,4188.333496,4163.589844,4237.179688,4231.282227,2823.000000,4.000000,91.000000,,,,0.000000,4.000000,4.000000,4.000000,4.000000,4.000000,4.000000,4.000000,4.000000,4.000000,4.000000,4.000000,4.000000,4.000000,4.000000,100.000000,,,,,,,,,,,,,,,,
1645709983.118541,30.000000,0.000000,4218.461426,4193.717773,4217.051270,4210.897461,4224.743652,4236.153809,4240.769043,4232.948730,4230.256348,4232.051270,4188.077148,4164.871582,4236.282227,4234.743652,2153.000000,4.000000,91.000000,,,,0.000000,4.000000,4.000000,4.000000,4.000000,4.000000,4.000000,4.000000,4.000000,4.000000,4.000000,4.000000,4.000000,4.000000,4.000000,100.000000,,,,,,,,,,,,,,,,
1645709983.122481,31.000000,0.000000,4224.102539,4199.487305,4221.666504,4207.563965,4225.256348,4239.487305,4242.051270,4232.563965,4231.025879,4232.436035,4189.230957,4167.563965,4238.205078,4233.717773,2816.000000,4.000000,91.000000,,,,0.000000,4.000000,4.000000,4.000000,4.000000,4.000000,4.000000,4.000000,4.000000,4.000000,4.000000,4.000000,4.000000,4.000000,4.000000,100.000000,,,,,,,,,,,,,,,,
1645709983.126421,32.000000,0.000000,4225.641113,4206.282227,4222.948730,4201.794922,4225.897461,4241.794922,4240.256348,4228.589844,4232.051270,4232.051270,4190.641113,4170.384766,4242.307617,4229.871582,0.000000,4.000000,91.000000,,,,0.000000,4.000000,4.000000,4.000000,4.000000,4.000000,4.000000,4.000000,4.000000,4.000000,4.000000,4.000000,4.000000,4.000000,4.000000,100.000000,,,,,,,,,,,,,,,,
1645709983.130361,33.000000,0.000000,4223.974121,4211.410156,4220.769043,4197.563965,4226.538574,4241.666504,4236.153809,4223.077148,4231.922852,4229.743652,4191.282227,4171.538574,4246.538574,4226.666504,0.000000,4.000000,91.000000,,,,0.000000,4.000000,4.000000,4.000000,4.000000,4.000000,4.000000,4.000000,4.000000,4.000000,4.000000,4.000000,4.000000,4.000000,4.000000,100.000000,,,,,,,,,,,,,,,,
1645709983.134301,34.000000,0.000000,4221.666504,4213.461426,4218.077148,4197.820313,4227.179688,4239.102539,4232.692383,4220.000000,4229.871582,4226.794922,4191.410156,4170.000000,4249.358887,4226.794922,0.000000,4.000000,91.000000,,,,0.000000,4.000000,4.000000,4.000000,4.000000,4.000000,4.000000,4.000000,4.000000,4.000000,4.000000,4.000000,4.000000,4.000000,4.000000,100.000000,,,,,,,,,,,,,,,,
1645709983.138241,35.000000,0.000000,4221.282227,4213.333496,4218.717773,4201.922852,4228.333496,4236.410156,4232.692383,4221.666504,4226.794922,4225.384766,4193.205078,4167.563965,4251.410156,4230.256348,0.000000,4.000000,91.000000,,,,0.000000,4.000000,4.000000,4.000000,4.000000,4.000000,4.000000,4.000000,4.000000,4.000000,4.000000,4.000000,4.000000,4.000000,4.000000,100.000000,,,,,,,,,,,,,,,,
1645709983.142181,36.000000,0.000000,4223.077148,4212.051270,4223.205078,4207.436035,4229.487305,4235.897461,4236.410156,4226.025879,4225.000000,4226.666504,4197.307617,4166.794922,4253.461426,4234.743652,0.000000,4.000000,91.000000,,,,0.000000,4.000000,4.000000,4.000000,4.000000,4.000000,4.000000,4.000000,4.000000,4.000000,4.000000,4.000000,4.000000,4.000000,4.000000,100.000000,,,,,,,,,,,,,,,,
1645709983.146121,37.000000,0.000000,4226.410156,4209.358887,4228.461426,4212.051270,4228.974121,4237.820313,4240.769043,4229.102539,4225.512695,4229.102539,4201.922852,4169.230957,4255.769043,4237.563965,0.000000,4.000000,91.000000,,,,0.000000,4.000000,4.000000,4.000000,4.000000,4.000000,4.000000,4.000000,4.000000,4.000000,4.000000,4.000000,4.000000,4.000000,4.000000,100.000000,,,,,,,,,,,,,,,,
1645709983.150061,38.000000,0.000000,4229.102539,4205.000000,4230.769043,4214.871582,4226.282227,4240.000000,4242.948730,4228.333496,4227.436035,4230.512695,4203.589844,4173.461426,4257.179688,4236.794922,0.000000,4.000000,91.000000,,,,0.000000,4.000000,4.000000,4.000000,4.000000,4.000000,4.000000,4.000000,4.000000,4.000000,4.000000,4.000000,4.000000,4.000000,4.000000,100.000000,,,,,,,,,,,,,,,,
1645709983.154002,39.000000,0.000000,4229.102539,4199.615234,4228.461426,4216.410156,4222.820313,4240.256348,4242.307617,4225.384766,4228.717773,4230.000000,4201.025879,4175.769043,4256.538574,4233.333496,0.000000,4.000000,91.000000,,,,0.000000,4.000000,4.000000,4.000000,4.000000,4.000000,4.000000,4.000000,4.000000,4.000000,4.000000,4.000000,4.000000,4.000000,4.000000,100.000000,,,,,,,,,,,,,,,,
1645709983.157942,40.000000,0.000000,4225.512695,4195.769043,4223.461426,4217.563965,4221.538574,4238.077148,4240.000000,4223.077148,4228.333496,4229.230957,4196.025879,4173.974121,4254.487305,4229.358887,0.000000,4.000000,91.000000,,,,0.000000,4.000000,4.000000,4.000000,4.000000,4.000000,4.000000,4.000000,4.000000,4.000000,4.000000,4.000000,4.000000,4.000000,4.000000,100.000000,,,,,,,,,,,,,,,,
1645709983.161782,41.000000,0.000000,4219.358887,4196.153809,4218.846191,4218.077148,4223.846191,4235.256348,4237.820313,4223.461426,4227.307617,4230.256348,4191.922852,4169.230957,4252.692383,4227.436035,0.000000,4.000000,91.000000,,,,0.000000,4.000000,4.000000,4.000000,4.000000,4.000000,4.000000,4.000000,4.000000,4.000000,4.000000,4.000000,4.000000,4.000000,4.000000,100.000000,,,,,,,,,,,,,,,,
1645709983.165722,42.000000,0.000000,4214.230957,4200.769043,4216.666504,4216.794922,4227.948730,4233.846191,4236.922852,4226.025879,4227.051270,4232.563965,4190.769043,4165.512695,4252.692383,4228.077148,0.000000,4.000000,91.000000,,,,0.000000,4.000000,4.000000,4.000000,4.000000,4.000000,4.000000,4.000000,4.000000,4.000000,4.000000,4.000000,4.000000,4.000000,4.000000,100.000000,,,,,,,,,,,,,,,,
1645709983.169662,43.000000,0.000000,4212.692383,4206.410156,4217.051270,4213.205078,4231.153809,4234.487305,4237.436035,4229.230957,4228.077148,4233.846191,4191.410156,4165.512695,4254.487305,4230.256348,0.000000,4.000000,91.000000,,,,0.000000,4.000000,4.000000,4.000000,4.000000,4.000000,4.000000,4.000000,4.000000,4.000000,4.000000,4.000000,4.000000,4.000000,4.000000,100.000000,,,,,,,,,,,,,,,,
1645709983.173602,44.000000,0.000000,4214.871582,4209.358887,4218.461426,4208.077148,4231.538574,4237.179688,4238.846191,4231.410156,4229.743652,4232.179688,4192.436035,4168.974121,4256.922852,4231.410156,0.000000,4.000000,91.000000,,,,0.000000,4.000000,4.000000,4.000000,4.000000,4.000000,4.000000,4.000000,4.000000,4.000000,4.000000,4.000000,4.000000,4.000000,4.000000,100.000000,,,,,,,,,,,,,,,,
1645709983.177542,45.000000,0.000000,4218.077148,4208.589844,4218.589844,4204.102539,4230.000000,4240.641113,4240.000000,4231.410156,4230.641113,4228.974121,4193.461426,4172.948730,4258.333496,4229.615234,0.000000,4.000000,91.000000,,,,0.000000,4.000000,4.000000,4.000000,4.000000,4.000000,4.000000,4.000000,4.000000,4.000000,4.000000,4.000000,4.000000,4.000000,4.000000,100.000000,,,,,,,,,,,,,,,,
1645709983.181482,46.000000,0.000000,4218.974121,4205.897461,4216.922852,4202.692383,4227.948730,4243.461426,4239.871582,4229.230957,4230.384766,4227.179688,4195.384766,4174.743652,4258.205078,4225.000000,0.000000,4.000000,91.000000,,,,0.000000,4.000000,4.000000,4.000000,4.000000,4.000000,4.000000,4.000000,4.000000,4.000000,4.000000,4.000000,4.000000,4.000000,4.000000,100.000000,,,,,,,,,,,,,,,,
1645709983.185422,47.000000,0.000000,4216.794922,4203.846191,4214.230957,4203.205078,4226.538574,4244.102539,4238.077148,4226.282227,4228.974121,4227.820313,4198.461426,4173.717773,4256.922852,4219.358887,0.000000,4.000000,91.000000,,,,0.000000,4.000000,4.000000,4.000000,4.000000,4.000000,4.000000,4.000000,4.000000,4.000000,4.000000,4.000000,4.000000,4.000000,4.000000,100.000000,,,,,,,,,,,,,,,,
1645709983.189363,48.000000,0.000000,4213.717773,4203.333496,4212.692383,4203.333496,4225.641113,4241.666504,4234.871582,4223.846191,4227.563965,4228.461426,4201.153809,4171.025879,4255.384766,4214.743652,0.000000,4.000000,91.000000,,,,0.000000,4.000000,4.000000,4.000000,4.000000,4.000000,4.000000,4.000000,4.000000,4.000000,4.000000,4.000000,4.000000,4.000000,4.000000,100.000000,,,,,,,,,,,,,,,,
1645709983.193303,49.000000,0.000000,4212.307617,4203.846191,4213.077148,4203.205078,4225.000000,4236.666504,4231.922852,4222.820313,4226.922852,4226.282227,4201.794922,4168.846191,4254.358887,4213.205078,0.000000,4.000000,91.000000,,,,0.000000,4.000000,4.000000,4.000000,4.000000,4.000000,4.000000,4.000000,4.000000,4.000000,4.000000,4.000000,4.000000,4.000000,4.000000,100.000000,,,,,,,,,,,,,,,,
1645709983.197243,50.000000,0.000000,4212.820313,4204.615234,4214.871582,4204.871582,4224.487305,4231.538574,4230.256348,4222.948730,4228.077148,4221.922852,4200.128418,4168.589844,4254.102539,4215.769043,0.000000,4.000000,91.000000,,,,0.000000,4.000000,4.000000,4.000000,4.000000,4.000000,4.000000,4.000000,4.000000,4.000000,4.000000,4.000000,4.000000,4.000000,4.000000,100.000000,,,,,,,,,,,,,,,,
1645709983.201183,51.000000,0.000000,4213.974121,4205.128418,4216.025879,4209.871582,4223.846191,4228.461426,4229.615234,4222.820313,4230.512695,4218.846191,4197.179688,4169.487305,4253.974121,4220.769043,0.000000,4.000000,91.000000,,,,0.000000,4.000000,4.000000,4.000000,4.000000,4.000000,4.000000,4.000000,4.000000,4.000000,4.000000,4.000000,4.000000,4.000000,4.000000,100.000000,,,,,,,,,,,,,,,,
1645709983.205123,52.000000,0.000000,4215.512695,4205.512695,4216.282227,4216.025879,4222.692383,4227.820313,4228.717773,4221.538574,4232.948730,4218.974121,4194.102539,4169.871582,4253.589844,4225.000000,0.000000,4.000000,91.000000,,,,0.000000,4.000000,4.000000,4.000000,4.000000,4.000000,4.000000,4.000000,4.000000,4.000000,4.000000,4.000000,4.000000,4.000000,4.000000,100.000000,,,,,,,,,,,,,,,,
1645709983.209063,53.000000,0.000000,4217.692383,4205.897461,4216.153809,4218.717773,4220.769043,4227.820313,4226.538574,4219.615234,4233.974121,4221.025879,4191.282227,4169.230957,4252.820313,4225.769043,0.000000,4.000000,91.000000,,,,0.000000,4.000000,4.000000,4.000000,4.000000,4.000000,4.000000,4.000000,4.000000,4.000000,4.000000,4.000000,4.000000,4.000000,4.000000,100.000000,,,,,,,,,,,,,,,,
1645709983.213003,54.000000,0.000000,4220.384766,4206.153809,4216.666504,4215.512695,4218.974121,4226.794922,4224.230957,4217.948730,4233.461426,4221.153809,4188.846191,4168.846191,4252.692383,4224.102539,0.000000,4.000000,91.000000,,,,0.000000,4.000000,4.000000,4.000000,4.000000,4.000000,4.000000,4.000000,4.000000,4.000000,4.000000,4.000000,4.000000,4.000000,4.000000,100.000000,,,,,,,,,,,,,,,,
1645709983.216943,55.000000,0.000000,4221.794922,4206.410156,4217.948730,4208.974121,4219.487305,4225.256348,4223.589844,4217.307617,4232.436035,4218.077148,4188.205078,4170.128418,4254.358887,4222.820313,0.000000,4.000000,91.000000,,,,0.000000,4.000000,4.000000,4.000000,4.000000,4.000000,4.000000,4.000000,4.000000,4.000000,4.000000,4.000000,4.000000,4.000000,4.000000,100.000000,,,,,,,,,,,,,,,,
1645709983.220883,56.000000,0.000000,4221.153809,4207.179688,4219.487305,4204.358887,4223.589844,4225.000000,4225.512695,4218.077148,4232.948730,4214.358887,4190.512695,4172.820313,4257.948730,4224.487305,0.000000,4.000000,91.000000,,,,0.000000,4.000000,4.000000,4.000000,4.000000,4.000000,4.000000,4.000000,4.000000,4.000000,4.000000,4.000000,4.000000,4.000000,4.000000,100.000000,,,,,,,,,,,,,,,,
1645709983.224824,57.000000,0.000000,4220.256348,4208.846191,4220.512695,4205.000000,4229.871582,4226.666504,4228.077148,4220.256348,4235.256348,4213.589844,4194.871582,4175.384766,4261.666504,4228.717773,0.000000,4.000000,91.000000,,,,0.000000,4.000000,4.000000,4.000000,4.000000,4.000000,4.000000,4.000000,4.000000,4.000000,4.000000,4.000000,4.000000,4.000000,4.000000,100.000000,,,,,,,,,,,,,,,,
1645709983.228764,58.000000,0.000000,4221.666504,4210.384766,4221.025879,4209.615234,4234.487305,4228.846191,4229.230957,4223.333496,4238.333496,4217.307617,4198.461426,4176.794922,4262.692383,4232.692383,0.000000,4.000000,91.000000,,,,0.000000,4.000000,4.000000,4.000000,4.000000,4.000000,4.000000,4.000000,4.000000,4.000000,4.000000,4.000000,4.000000,4.000000,4.000000,100.000000,,,,,,,,,,,,,,,,
1645709983.232804,59.000000,0.000000,4225.512695,4210.897461,4220.769043,4213.717773,4234.615234,4229.615234,4227.563965,4226.153809,4240.384766,4223.077148,4198.974121,4177.179688,4260.000000,4233.589844,0.000000,4.000000,91.000000,,,,0.000000,4.000000,4.000000,4.000000,4.000000,4.000000,4.000000,4.000000,4.000000,4.000000,4.000000,4.000000,4.000000,4.000000,4.000000,100.000000,,,,,,,,,,,,,,,,
1645709983.236744,60.000000,0.000000,4228.589844,4210.641113,4220.128418,4215.384766,4231.538574,4228.717773,4223.974121,4227.436035,4240.897461,4227.563965,4196.538574,4177.692383,4255.384766,4231.410156,0.000000,4.000000,91.000000,,,,0.000000,4.000000,4.000000,4.000000,4.000000,4.000000,4.000000,4.000000,4.000000,4.000000,4.000000,4.000000,4.000000,4.000000,4.000000,100.000000,,,,,,,,,,,,,,,,
1645709983.240684,61.000000,0.000000,4228.205078,4211.410156,4219.615234,4215.897461,4229.102539,4227.307617,4220.384766,4226.410156,4239.871582,4229.102539,4194.102539,4178.461426,4252.436035,4228.846191,0.000000,4.000000,91.000000,,,,0.000000,4.000000,4.000000,4.000000,4.000000,4.000000,4.000000,4.000000,4.000000,4.000000,4.000000,4.000000,4.000000,4.000000,4.000000,100.000000,,,,,,,,,,,,,,,,
1645709983.244624,62.000000,0.000000,4224.487305,4213.846191,4219.487305,4217.563965,4229.615234,4226.153809,4218.589844,4224.102539,4237.307617,4227.692383,4194.230957,4179.102539,4253.077148,4227.948730,0.000000,4.000000,91.000000,,,,0.000000,4.000000,4.000000,4.000000,4.000000,4.000000,4.000000,4.000000,4.000000,4.000000,4.000000,4.000000,4.000000,4.000000,4.000000,100.000000,,,,,,,,,,,,,,,,
1645709983.248564,63.000000,0.000000,4221.153809,4216.282227,4218.974121,4220.384766,4231.666504,4225.000000,4218.717773,4221.666504,4234.102539,4225.000000,4196.153809,4179.230957,4256.282227,4228.974121,0.000000,4.000000,91.000000,,,,0.000000,4.000000,4.000000,4.000000,4.000000,4.000000,4.000000,4.000000,4.000000,4.000000,4.000000,4.000000,4.000000,4.000000,4.000000,100.000000,,,,,,,,,,,,,,,,
1645709983.252504,64.000000,0.000000,4220.641113,4215.641113,4217.948730,4222.051270,4231.794922,4223.461426,4219.743652,4220.384766,4231.282227,4222.563965,4197.051270,4179.230957,4259.358887,4230.384766,0.000000,4.000000,91.000000,,,,0.000000,4.000000,4.000000,4.000000,4.000000,4.000000,4.000000,4.000000,4.000000,4.000000,4.000000,4.000000,4.000000,4.000000,4.000000,100.000000,,,,,,,,,,,,,,,,
1645709983.256444,65.000000,0.000000,4222.307617,4211.282227,4216.666504,4220.256348,4228.717773,4221.794922,4220.641113,4220.256348,4229.615234,4221.282227,4194.871582,4179.743652,4260.384766,4230.000000,0.000000,4.000000,91.000000,,,,0.000000,4.000000,4.000000,4.000000,4.000000,4.000000,4.000000,4.000000,4.000000,4.000000,4.000000,4.000000,4.000000,4.000000,4.000000,100.000000,,,,,,,,,,,,,,,,
1645709983.260384,66.000000,0.000000,4223.077148,4205.512695,4215.897461,4214.743652,4224.871582,4221.794922,4221.153809,4220.512695,4229.230957,4221.025879,4191.025879,4181.153809,4258.974121,4227.436035,0.000000,4.000000,91.000000,,,,0.000000,4.000000,4.000000,4.000000,4.000000,4.000000,4.000000,4.000000,4.000000,4.000000,4.000000,4.000000,4.000000,4.000000,4.000000,100.000000,1.000000,100.000000,4.000000,4.000000,4.000000,4.000000,4.000000,4.000000,4.000000,4.000000,4.000000,4.000000,4.000000,4.000000,4.000000,4.000000
1645709983.264324,67.000000,0.000000,4221.538574,4202.179688,4216.153809,4207.436035,4223.846191,4223.461426,4221.538574,4220.769043,4229.487305,4221.410156,4189.102539,4182.436035,4256.794922,4224.230957,0.000000,4.000000,91.000000,,,,0.000000,4.000000,4.000000,4.000000,4.000000,4.000000,4.000000,4.000000,4.000000,4.000000,4.000000,4.000000,4.000000,4.000000,4.000000,100.000000,,,,,,,,,,,,,,,,
1645709983.268265,68.000000,0.000000,4219.102539,4203.205078,4216.794922,4200.769043,4226.538574,4225.512695,4221.410156,4221.153809,4229.871582,4222.436035,4191.538574,4182.436035,4255.256348,4222.820313,0.000000,4.000000,91.000000,,,,0.000000,4.000000,4.000000,4.000000,4.000000,4.000000,4.000000,4.000000,4.000000,4.000000,4.000000,4.000000,4.000000,4.000000,4.000000,100.000000,,,,,,,,,,,,,,,,
1645709983.272205,69.000000,0.000000,4218.333496,4206.922852,4217.436035,4197.820313,4230.641113,4226.153809,4221.153809,4221.794922,4230.384766,4224.615234,4197.948730,4181.282227,4255.512695,4224.743652,0.000000,4.000000,91.000000,,,,0.000000,4.000000,4.000000,4.000000,4.000000,4.000000,4.000000,4.000000,4.000000,4.000000,4.000000,4.000000,4.000000,4.000000,4.000000,100.000000,,,,,,,,,,,,,,,,
1645709983.276145,70.000000,0.000000,4220.256348,4210.641113,4218.333496,4200.000000,4232.563965,4225.641113,4221.666504,4223.077148,4230.897461,4227.692383,4205.000000,4179.743652,4257.692383,4228.974121,0.000000,4.000000,91.000000,,,,0.000000,4.000000,4.000000,4.000000,4.000000,4.000000,4.000000,4.000000,4.000000,4.000000,4.000000,4.000000,4.000000,4.000000,4.000000,100.000000,,,,,,,,,,,,,,,,
1645709983.280085,71.000000,0.000000,4223.333496,4213.077148,4219.615234,4207.051270,4231.538574,4225.769043,4223.461426,4225.000000,4231.410156,4230.512695,4209.230957,4179.615234,4261.282227,4232.563965,0.000000,4.000000,91.000000,,,,0.000000,4.000000,4.000000,4.000000,4.000000,4.000000,4.000000,4.000000,4.000000,4.000000,4.000000,4.000000,4.000000,4.000000,4.000000,100.000000,,,,,,,,,,,,,,,,
1645709983.284025,72.000000,0.000000,4226.282227,4214.743652,4221.666504,4215.641113,4228.974121,4227.307617,4226.282227,4226.410156,4231.538574,4230.897461,4209.102539,4181.666504,4264.615234,4234.102539,0.000000,4.000000,91.000000,,,,0.000000,4.000000,4.000000,4.000000,4.000000,4.000000,4.000000,4.000000,4.000000,4.000000,4.000000,4.000000,4.000000,4.000000,4.000000,100.000000,,,,,,,,,,,,,,,,
1645709983.287965,73.000000,0.000000,4228.461426,4217.051270,4224.102539,4222.051270,4227.179688,4229.487305,4228.974121,4226.666504,4230.897461,4228.077148,4206.153809,4185.000000,4265.769043,4233.717773,0.000000,4.000000,91.000000,,,,0.000000,4.000000,4.000000,4.000000,4.000000,4.000000,4.000000,4.000000,4.000000,4.000000,4.000000,4.000000,4.000000,4.000000,4.000000,100.000000,,,,,,,,,,,,,,,,
1645709983.291905,74.000000,0.000000,4230.256348,4219.871582,4226.282227,4224.487305,4227.563965,4230.384766,4230.256348,4225.769043,4230.128418,4223.846191,4203.333496,4187.692383,4264.743652,4232.948730,0.000000,4.000000,91.000000,,,,0.000000,4.000000,4.000000,4.000000,4.000000,4.000000,4.000000,4.000000,4.000000,4.000000,4.000000,4.000000,4.000000,4.000000,4.000000,100.000000,,,,,,,,,,,,,,,,
1645709983.295845,75.000000,0.000000,4231.538574,4222.307617,4228.077148,4223.974121,4229.487305,4229.743652,4229.358887,4223.846191,4230.128418,4221.922852,4202.948730,4188.205078,4263.205078,4232.307617,0.000000,4.000000,91.000000,,,,0.000000,4.000000,4.000000,4.000000,4.000000,4.000000,4.000000,4.000000,4.000000,4.000000,4.000000,4.000000,4.000000,4.000000,4.000000,100.000000,,,,,,,,,,,,,,,,
1645709983.299785,76.000000,0.000000,4232.051270,4223.461426,4229.743652,4223.077148,4230.641113,4227.820313,4226.282227,4222.179688,4231.282227,4224.743652,4204.743652,4186.666504,4263.205078,4231.538574,0.000000,4.000000,91.000000,,,,0.000000,4.000000,4.000000,4.000000,4.000000,4.000000,4.000000,4.000000,4.000000,4.000000,4.000000,4.000000,4.000000,4.000000,4.000000,100.000000,,,,,,,,,,,,,,,,
1645709983.303825,77.000000,0.000000,4232.436035,4223.846191,4231.410156,4222.948730,4229.230957,4226.025879,4222.051270,4221.922852,4232.692383,4231.153809,4206.538574,4184.487305,4265.128418,4231.282227,0.000000,4.000000,91.000000,,,,0.000000,4.000000,4.000000,4.000000,4.000000,4.000000,4.000000,4.000000,4.000000,4.000000,4.000000,4.000000,4.000000,4.000000,4.000000,100.000000,,,,,,,,,,,,,,,,
1645709983.307766,78.000000,0.000000,4233.461426,4224.743652,4232.563965,4222.692383,4225.384766,4225.641113,4219.230957,4223.717773,4233.205078,4237.563965,4206.922852,4183.717773,4267.692383,4232.820313,0.000000,4.000000,91.000000,,,,0.000000,4.000000,4.000000,4.000000,4.000000,4.000000,4.000000,4.000000,4.000000,4.000000,4.000000,4.000000,4.000000,4.000000,4.000000,100.000000,,,,,,,,,,,,,,,,
1645709983.311706,79.000000,0.000000,4235.128418,4227.179688,4233.333496,4221.025879,4222.179688,4227.051270,4220.384766,4226.410156,4232.820313,4240.256348,4206.153809,4184.871582,4269.871582,4237.051270,0.000000,4.000000,91.000000,,,,0.000000,4.000000,4.000000,4.000000,4.000000,4.000000,4.000000,4.000000,4.000000,4.000000,4.000000,4.000000,4.000000,4.000000,4.000000,100.000000,,,,,,,,,,,,,,,,
1645709983.315646,80.000000,0.000000,4236.538574,4230.512695,4234.102539,4218.589844,4223.205078,4230.256348,4225.897461,4228.205078,4232.179688,4238.589844,4206.153809,4187.307617,4271.153809,4242.436035,0.000000,4.000000,91.000000,,,,0.000000,4.000000,4.000000,4.000000,4.000000,4.000000,4.000000,4.000000,4.000000,4.000000,4.000000,4.000000,4.000000,4.000000,4.000000,100.000000,,,,,,,,,,,,,,,,
1645709983.319586,81.000000,0.000000,4236.025879,4232.436035,4234.743652,4217.307617,4229.615234,4233.846191,4232.948730,4228.077148,4232.436035,4235.000000,4208.333496,4188.717773,4271.666504,4246.025879,0.000000,4.000000,91.000000,,,,0.000000,4.000000,4.000000,4.000000,4.000000,4.000000,4.000000,4.000000,4.000000,4.000000,4.000000,4.000000,4.000000,4.000000,4.000000,100.000000,,,,,,,,,,,,,,,,
1645709983.323526,82.000000,0.000000,4233.846191,4230.512695,4233.974121,4218.589844,4238.205078,4236.410156,4237.436035,4227.820313,4233.205078,4232.307617,4211.794922,4187.948730,4270.769043,4244.615234,0.000000,4.000000,91.000000,,,,0.000000,4.000000,4.000000,4.000000,4.000000,4.000000,4.000000,4.000000,4.000000,4.000000,4.000000,4.000000,4.000000,4.000000,4.000000,100.000000,,,,,,,,,,,,,,,,
1645709983.327466,83.000000,0.000000,4231.922852,4224.358887,4231.025879,4222.051270,4243.974121,4237.179688,4236.538574,4229.102539,4234.230957,4231.922852,4213.461426,4184.871582,4268.461426,4238.461426,0.000000,4.000000,91.000000,,,,0.000000,4.000000,4.000000,4.000000,4.000000,4.000000,4.000000,4.000000,4.000000,4.000000,4.000000,4.000000,4.000000,4.000000,4.000000,100.000000,,,,,,,,,,,,,,,,
1645709983.331406,84.000000,0.000000,4231.794922,4216.794922,4226.922852,4225.897461,4243.333496,4236.538574,4231.538574,4232.179688,4234.487305,4232.692383,4211.538574,4180.897461,4265.384766,4231.794922,0.000000,4.000000,91.000000,,,,0.000000,4.000000,4.000000,4.000000,4.000000,4.000000,4.000000,4.000000,4.000000,4.000000,4.000000,4.000000,4.000000,4.000000,4.000000,100.000000,,,,,,,,,,,,,,,,
1645709983.335346,85.000000,0.000000,4232.692383,4212.051270,4224.102539,4228.717773,4237.948730,4235.769043,4227.051270,4234.743652,4233.461426,4233.205078,4207.307617,4177.307617,4263.205078,4228.333496,0.000000,4.000000,91.000000,,,,0.000000,4.000000,4.000000,4.000000,4.000000,4.000000,4.000000,4.000000,4.000000,4.000000,4.000000,4.000000,4.000000,4.000000,4.000000,100.000000,,,,,,,,,,,,,,,,
1645709983.339286,86.000000,0.000000,4232.307617,4213.077148,4224.102539,4229.871582,4232.307617,4236.025879,4226.410156,4234.358887,4231.794922,4232.179688,4204.102539,4174.615234,4262.820313,4229.230957,0.000000,4.000000,91.000000,,,,0.000000,4.000000,4.000000,4.000000,4.000000,4.000000,4.000000,4.000000,4.000000,4.000000,4.000000,4.000000,4.000000,4.000000,4.000000,100.000000,,,,,,,,,,,,,,,,
1645709983.343326,87.000000,0.000000,4229.358887,4218.974121,4225.769043,4229.102539,4229.871582,4237.051270,4229.358887,4230.512695,4230.512695,4229.358887,4203.205078,4173.205078,4264.230957,4231.538574,0.000000,4.000000,91.000000,,,,0.000000,4.000000,4.000000,4.000000,4.000000,4.000000,4.000000,4.000000,4.000000,4.000000,4.000000,4.000000,4.000000,4.000000,4.000000,100.000000,,,,,,,,,,,,,,,,
1645709983.347266,88.000000,0.000000,4225.897461,4224.615234,4226.410156,4226.025879,4230.000000,4237.051270,4232.563965,4225.256348,4230.769043,4224.743652,4202.436035,4173.077148,4265.897461,4231.538574,0.000000,4.000000,91.000000,,,,0.000000,4.000000,4.000000,4.000000,4.000000,4.000000,4.000000,4.000000,4.000000,4.000000,4.000000,4.000000,4.000000,4.000000,4.000000,100.000000,,,,,,,,,,,,,,,,
1645709983.351207,89.000000,0.000000,4224.615234,4225.384766,4224.615234,4220.128418,4229.358887,4234.743652,4232.692383,4221.410156,4231.794922,4219.615234,4198.974121,4173.461426,4265.641113,4228.333496,0.000000,4.000000,91.000000,,,,0.000000,4.000000,4.000000,4.000000,4.000000,4.000000,4.000000,4.000000,4.000000,4.000000,4.000000,4.000000,4.000000,4.000000,4.000000,100.000000,,,,,,,,,,,,,,,,
1645709983.355147,90.000000,0.000000,4226.153809,4220.769043,4221.538574,4212.307617,4226.410156,4231.025879,4229.102539,4220.384766,4231.538574,4216.025879,4192.436035,4172.948730,4262.436035,4223.846191,0.000000,4.000000,91.000000,,,,0.000000,4.000000,4.000000,4.000000,4.000000,4.000000,4.000000,4.000000,4.000000,4.000000,4.000000,4.000000,4.000000,4.000000,4.000000,100.000000,,,,,,,,,,,,,,,,
1645709983.359087,91.000000,0.000000,4228.461426,4215.128418,4219.615234,4204.743652,4222.948730,4228.205078,4223.589844,4221.282227,4228.974121,4215.897461,4186.538574,4170.769043,4257.820313,4220.641113,0.000000,4.000000,91.000000,,,,0.000000,4.000000,4.000000,4.000000,4.000000,4.000000,4.000000,4.000000,4.000000,4.000000,4.000000,4.000000,4.000000,4.000000,4.000000,100.000000,,,,,,,,,,,,,,,,
1645709983.363027,92.000000,0.000000,4228.846191,4212.563965,4220.769043,4201.282227,4222.051270,4227.692383,4219.230957,4222.307617,4225.769043,4219.615234,4185.512695,4168.077148,4254.230957,4219.358887,0.000000,4.000000,91.000000,,,,0.000000,4.000000,4.000000,4.000000,4.000000,4.000000,4.000000,4.000000,4.000000,4.000000,4.000000,4.000000,4.000000,4.000000,4.000000,100.000000,,,,,,,,,,,,,,,,
1645709983.366967,93.000000,0.000000,4227.948730,4213.846191,4224.871582,4204.487305,4225.384766,4228.846191,4218.846191,4222.179688,4224.230957,4224.615234,4190.769043,4167.179688,4253.333496,4218.974121,0.000000,4.000000,91.000000,,,,0.000000,4.000000,4.000000,4.000000,4.000000,4.000000,4.000000,4.000000,4.000000,4.000000,4.000000,4.000000,4.000000,4.000000,4.000000,100.000000,,,,,,,,,,,,,,,,
1645709983.370907,94.000000,0.000000,4227.820313,4215.641113,4229.743652,4214.230957,4230.769043,4229.615234,4222.179688,4221.794922,4225.256348,4227.436035,4198.974121,4170.256348,4254.487305,4218.333496,0.000000,4.000000,91.000000,,,,0.000000,4.000000,4.000000,4.000000,4.000000,4.000000,4.000000,4.000000,4.000000,4.000000,4.000000,4.000000,4.000000,4.000000,4.000000,100.000000,,,,,,,,,,,,,,,,
1645709983.374847,95.000000,0.000000,4230.256348,4215.512695,4233.205078,4226.922852,4235.128418,4228.846191,4227.563965,4222.563965,4227.307617,4226.538574,4205.384766,4176.282227,4255.897461,4217.948730,0.000000,4.000000,91.000000,,,,0.000000,4.000000,4.000000,4.000000,4.000000,4.000000,4.000000,4.000000,4.000000,4.000000,4.000000,4.000000,4.000000,4.000000,4.000000,100.000000,,,,,,,,,,,,,,,,
1645709983.378787,96.000000,0.000000,4233.846191,4213.717773,4234.102539,4236.025879,4236.282227,4227.563965,4232.307617,4224.358887,4228.974121,4223.461426,4207.692383,4182.051270,4256.538574,4219.230957,0.000000,4.000000,91.000000,,,,0.000000,4.000000,4.000000,4.000000,4.000000,4.000000,4.000000,4.000000,4.000000,4.000000,4.000000,4.000000,4.000000,4.000000,4.000000,100.000000,,,,,,,,,,,,,,,,
1645709983.382727,97.000000,0.000000,4236.538574,4212.436035,4233.846191,4236.666504,4234.743652,4227.307617,4234.358887,4226.153809,4229.230957,4221.794922,4207.436035,4185.128418,4257.436035,4223.077148,0.000000,4.000000,91.000000,,,,0.000000,4.000000,4.000000,4.000000,4.000000,4.000000,4.000000,4.000000,4.000000,4.000000,4.000000,4.000000,4.000000,4.000000,4.000000,100.000000,,,,,,,,,,,,,,,,
1645709983.386668,98.000000,0.000000,4237.563965,4212.820313,4234.102539,4229.102539,4231.666504,4228.589844,4233.846191,4226.922852,4228.974121,4223.077148,4207.307617,4185.384766,4259.487305,4227.948730,0.000000,4.000000,91.000000,,,,0.000000,4.000000,4.000000,4.000000,4.000000,4.000000,4.000000,4.000000,4.000000,4.000000,4.000000,4.000000,4.000000,4.000000,4.000000,100.000000,,,,,,,,,,,,,,,,
1645709983.390608,99.000000,0.000000,4237.948730,4214.358887,4236.025879,4218.333496,4228.333496,4230.128418,4231.282227,4226.282227,4228.461426,4225.769043,4208.333496,4185.256348,4261.922852,4231.282227,0.000000,4.000000,91.000000,,,,0.000000,4.000000,4.000000,4.000000,4.000000,4.000000,4.000000,4.000000,4.000000,4.000000,4.000000,4.000000,4.000000,4.000000,4.000000,100.000000,,,,,,,,,,,,,,,,
1645709983.394548,100.000000,0.000000,4238.205078,4215.897461,4238.717773,4210.256348,4225.128418,4230.384766,4228.077148,4224.743652,4228.077148,4226.282227,4208.461426,4186.153809,4262.692383,4230.897461,0.000000,4.000000,91.000000,,,,0.000000,4.000000,4.000000,4.000000,4.000000,4.000000,4.000000,4.000000,4.000000,4.000000,4.000000,4.000000,4.000000,4.000000,4.000000,100.000000,,,,,,,,,,,,,,,,
1645709983.398488,101.000000,0.000000,4237.948730,4217.307617,4239.743652,4207.820313,4222.692383,4229.743652,4225.128418,4222.563965,4227.436035,4222.820313,4205.641113,4187.307617,4260.384766,4227.051270,0.000000,4.000000,91.000000,,,,0.000000,4.000000,4.000000,4.000000,4.000000,4.000000,4.000000,4.000000,4.000000,4.000000,4.000000,4.000000,4.000000,4.000000,4.000000,100.000000,,,,,,,,,,,,,,,,
1645709983.402428,102.000000,0.000000,4236.410156,4219.230957,4237.563965,4209.230957,4221.282227,4229.487305,4222.692383,4220.641113,4226.666504,4216.538574,4199.743652,4186.922852,4256.153809,4222.948730,0.000000,4.000000,91.000000,,,,0.000000,4.000000,4.000000,4.000000,4.000000,4.000000,4.000000,4.000000,4.000000,4.000000,4.000000,4.000000,4.000000,4.000000,4.000000,100.000000,,,,,,,,,,,,,,,,
1645709983.406368,103.000000,0.000000,4234.230957,4221.282227,4233.589844,4211.410156,4220.769043,4229.743652,4221.538574,4220.000000,4226.538574,4211.153809,4193.974121,4185.512695,4253.077148,4222.179688,0.000000,4.000000,91.000000,,,,0.000000,4.000000,4.000000,4.000000,4.000000,4.000000,4.000000,4.000000,4.000000,4.000000,4.000000,4.000000,4.000000,4.000000,4.000000,100.000000,,,,,,,,,,,,,,,,
1645709983.410308,104.000000,0.000000,4233.461426,4222.179688,4230.897461,4213.333496,4221.282227,4229.871582,4222.563965,4221.538574,4227.051270,4210.128418,4193.077148,4185.512695,4253.717773,4226.153809,0.000000,4.000000,91.000000,,,,0.000000,4.000000,4.000000,4.000000,4.000000,4.000000,4.000000,4.000000,4.000000,4.000000,4.000000,4.000000,4.000000,4.000000,4.000000,100.000000,,,,,,,,,,,,,,,,
1645709983.414348,105.000000,0.000000,4234.615234,4221.538574,4231.153809,4217.179688,4223.333496,4230.128418,4226.025879,4225.256348,4228.333496,4215.641113,4199.358887,4188.461426,4258.589844,4232.436035,0.000000,4.000000,91.000000,,,,0.000000,4.000000,4.000000,4.000000,4.000000,4.000000,4.000000,4.000000,4.000000,4.000000,4.000000,4.000000,4.000000,4.000000,4.000000,100.000000,,,,,,,,,,,,,,,,
1645709983.418288,106.000000,0.000000,4236.794922,4220.769043,4233.461426,4224.743652,4228.205078,4231.538574,4231.410156,4230.128418,4230.512695,4226.410156,4210.897461,4194.102539,4265.512695,4236.666504,0.000000,4.000000,91.000000,,,,0.000000,4.000000,4.000000,4.000000,4.000000,4.000000,4.000000,4.000000,4.000000,4.000000,4.000000,4.000000,4.000000,4.000000,4.000000,100.000000,,,,,,,,,,,,,,,,
1645709983.422228,107.000000,0.000000,4238.077148,4221.666504,4235.256348,4233.461426,4235.641113,4234.871582,4236.282227,4234.230957,4233.205078,4238.461426,4221.666504,4199.743652,4271.282227,4236.538574,0.000000,4.000000,91.000000,,,,0.000000,4.000000,4.000000,4.000000,4.000000,4.000000,4.000000,4.000000,4.000000,4.000000,4.000000,4.000000,4.000000,4.000000,4.000000,100.000000,,,,,,,,,,,,,,,,
1645709983.426168,108.000000,0.000000,4237.948730,4223.974121,4234.871582,4237.436035,4242.436035,4238.077148,4237.820313,4235.769043,4235.000000,4246.025879,4225.512695,4202.051270,4272.948730,4233.461426,0.000000,4.000000,91.000000,,,,0.000000,4.000000,4.000000,4.000000,4.000000,4.000000,4.000000,4.000000,4.000000,4.000000,4.000000,4.000000,4.000000,4.000000,4.000000,100.000000,,,,,,,,,,,,,,,,
