title:Alex-vrVBBihk_cllDkTgJq5Pbw, start timestamp:1645710437.237927, stop timestamp:1645710463.153842, headset type:EPOCPLUS, headset serial:3B9AEBFF, headset firmware:626, channels:55, sampling rate:eeg_256, samples:6579      , version:2.1, 
Timestamp,EEG.Counter,EEG.Interpolated,EEG.AF3,EEG.F7,EEG.F3,EEG.FC5,EEG.T7,EEG.P7,EEG.O1,EEG.O2,EEG.P8,EEG.T8,EEG.FC6,EEG.F4,EEG.F8,EEG.AF4,EEG.RawCq,EEG.Battery,EEG.BatteryPercent,MarkerIndex,MarkerType,MarkerValueInt,EEG.MarkerHardware,CQ.AF3,CQ.F7,CQ.F3,CQ.FC5,CQ.T7,CQ.P7,CQ.O1,CQ.O2,CQ.P8,CQ.T8,CQ.FC6,CQ.F4,CQ.F8,CQ.AF4,CQ.Overall,EQ.SampleRateQuality,EQ.OVERALL,EQ.AF3,EQ.F7,EQ.F3,EQ.FC5,EQ.T7,EQ.P7,EQ.O1,EQ.O2,EQ.P8,EQ.T8,EQ.FC6,EQ.F4,EQ.F8,EQ.AF4
1645710437.237927,85.000000,0.000000,4203.077148,4217.436035,4247.820313,4202.563965,4169.102539,4212.563965,4197.563965,4196.794922,4210.641113,4167.820313,4185.897461,4156.666504,4194.871582,4246.025879,0.000000,4.000000,86.000000,,,,0.000000,4.000000,4.000000,4.000000,4.000000,4.000000,4.000000,4.000000,2.000000,4.000000,4.000000,4.000000,4.000000,4.000000,4.000000,83.333336,,,,,,,,,,,,,,,,
1645710437.241767,86.000000,0.000000,4197.692383,4218.077148,4246.922852,4203.205078,4180.384766,4213.461426,4199.743652,4199.871582,4211.666504,4174.871582,4192.051270,4160.384766,4198.974121,4240.512695,0.000000,4.000000,86.000000,,,,0.000000,4.000000,4.000000,4.000000,4.000000,4.000000,4.000000,4.000000,2.000000,4.000000,4.000000,4.000000,4.000000,4.000000,4.000000,83.333336,,,,,,,,,,,,,,,,
1645710437.245708,87.000000,0.000000,4194.102539,4218.461426,4248.846191,4208.333496,4185.256348,4215.641113,4203.461426,4204.230957,4212.051270,4175.000000,4193.333496,4163.205078,4198.461426,4233.461426,0.000000,4.000000,86.000000,,,,0.000000,4.000000,4.000000,4.000000,4.000000,4.000000,4.000000,4.000000,2.000000,4.000000,4.000000,4.000000,4.000000,4.000000,4.000000,83.333336,,,,,,,,,,,,,,,,
1645710437.249648,88.000000,0.000000,4191.282227,4219.358887,4251.794922,4215.641113,4183.974121,4218.461426,4207.692383,4207.307617,4212.820313,4170.000000,4190.769043,4163.077148,4194.615234,4229.615234,0.000000,4.000000,86.000000,,,,0.000000,4.000000,4.000000,4.000000,4.000000,4.000000,4.000000,4.000000,2.000000,4.000000,4.000000,4.000000,4.000000,4.000000,4.000000,83.333336,,,,,,,,,,,,,,,,
1645710437.253588,89.000000,0.000000,4187.563965,4220.512695,4253.077148,4221.282227,4180.000000,4221.025879,4210.769043,4208.077148,4214.871582,4164.230957,4188.077148,4159.743652,4191.025879,4231.025879,0.000000,4.000000,86.000000,,,,0.000000,4.000000,4.000000,4.000000,4.000000,4.000000,4.000000,4.000000,2.000000,4.000000,4.000000,4.000000,4.000000,4.000000,4.000000,83.333336,,,,,,,,,,,,,,,,
1645710437.257528,90.000000,0.000000,4182.948730,4220.897461,4251.282227,4222.307617,4176.538574,4222.307617,4211.153809,4207.436035,4218.077148,4161.538574,4187.692383,4154.743652,4189.615234,4235.641113,0.000000,4.000000,86.000000,,,,0.000000,4.000000,4.000000,4.000000,4.000000,4.000000,4.000000,4.000000,2.000000,4.000000,4.000000,4.000000,4.000000,4.000000,4.000000,83.333336,,,,,,,,,,,,,,,,
1645710437.261468,91.000000,0.000000,4178.077148,4219.871582,4248.205078,4219.230957,4175.769043,4222.307617,4209.102539,4207.051270,4221.153809,4163.077148,4188.846191,4151.410156,4190.384766,4239.102539,0.000000,4.000000,86.000000,,,,0.000000,4.000000,4.000000,4.000000,4.000000,4.000000,4.000000,4.000000,2.000000,4.000000,4.000000,4.000000,4.000000,4.000000,4.000000,83.333336,,,,,,,,,,,,,,,,
1645710437.265408,92.000000,0.000000,4173.717773,4218.461426,4246.922852,4215.512695,4178.846191,4221.666504,4206.922852,4207.563965,4222.820313,4167.820313,4190.128418,4152.051270,4192.436035,4238.717773,0.000000,4.000000,86.000000,,,,0.000000,4.000000,4.000000,4.000000,4.000000,4.000000,4.000000,4.000000,2.000000,4.000000,4.000000,4.000000,4.000000,4.000000,4.000000,83.333336,,,,,,,,,,,,,,,,
1645710437.269348,93.000000,0.000000,4170.128418,4218.461426,4249.358887,4215.256348,4185.384766,4221.282227,4207.051270,4208.461426,4223.205078,4173.589844,4191.538574,4157.051270,4194.871582,4236.282227,0.000000,4.000000,86.000000,,,,0.000000,4.000000,4.000000,4.000000,4.000000,4.000000,4.000000,4.000000,2.000000,4.000000,4.000000,4.000000,4.000000,4.000000,4.000000,83.333336,,,,,,,,,,,,,,,,
1645710437.273288,94.000000,0.000000,4167.820313,4220.512695,4254.102539,4220.128418,4193.589844,4221.538574,4209.487305,4209.487305,4222.820313,4178.205078,4194.230957,4163.717773,4197.948730,4235.512695,0.000000,4.000000,86.000000,,,,0.000000,4.000000,4.000000,4.000000,4.000000,4.000000,4.000000,4.000000,2.000000,4.000000,4.000000,4.000000,4.000000,4.000000,4.000000,83.333336,,,,,,,,,,,,,,,,
1645710437.277228,95.000000,0.000000,4167.051270,4223.333496,4257.820313,4227.820313,4200.512695,4221.538574,4212.179688,4210.769043,4222.692383,4180.641113,4198.846191,4168.846191,4202.179688,4238.717773,0.000000,4.000000,86.000000,,,,0.000000,4.000000,4.000000,4.000000,4.000000,4.000000,4.000000,4.000000,2.000000,4.000000,4.000000,4.000000,4.000000,4.000000,4.000000,83.333336,,,,,,,,,,,,,,,,
1645710437.281169,96.000000,0.000000,4166.794922,4223.589844,4258.205078,4234.230957,4203.846191,4221.025879,4213.205078,4212.051270,4223.717773,4181.282227,4204.358887,4171.025879,4206.666504,4244.358887,0.000000,4.000000,86.000000,,,,0.000000,4.000000,4.000000,4.000000,4.000000,4.000000,4.000000,4.000000,2.000000,4.000000,4.000000,4.000000,4.000000,4.000000,4.000000,83.333336,,,,,,,,,,,,,,,,
1645710437.285109,97.000000,0.000000,4164.615234,4219.871582,4254.871582,4236.025879,4202.563965,4220.769043,4212.179688,4213.077148,4225.384766,4180.769043,4208.461426,4170.897461,4209.743652,4248.205078,0.000000,4.000000,86.000000,,,,0.000000,4.000000,4.000000,4.000000,4.000000,4.000000,4.000000,4.000000,2.000000,4.000000,4.000000,4.000000,4.000000,4.000000,4.000000,83.333336,,,,,,,,,,,,,,,,
1645710437.289049,98.000000,0.000000,4158.077148,4213.461426,4249.871582,4232.692383,4198.717773,4221.666504,4210.384766,4213.205078,4226.666504,4180.000000,4209.743652,4169.743652,4210.000000,4247.692383,0.000000,4.000000,86.000000,,,,0.000000,4.000000,4.000000,4.000000,4.000000,4.000000,4.000000,4.000000,2.000000,4.000000,4.000000,4.000000,4.000000,4.000000,4.000000,83.333336,,,,,,,,,,,,,,,,
1645710437.292989,99.000000,0.000000,4148.461426,4208.589844,4246.153809,4227.051270,4195.384766,4223.461426,4209.102539,4212.563965,4225.384766,4179.102539,4208.205078,4168.077148,4207.692383,4243.205078,0.000000,4.000000,86.000000,,,,0.000000,4.000000,4.000000,4.000000,4.000000,4.000000,4.000000,4.000000,2.000000,4.000000,4.000000,4.000000,4.000000,4.000000,4.000000,83.333336,,,,,,,,,,,,,,,,
1645710437.296929,100.000000,0.000000,4139.871582,4208.589844,4245.641113,4222.948730,4194.487305,4224.230957,4208.333496,4211.538574,4221.282227,4177.948730,4205.128418,4166.794922,4204.487305,4238.333496,0.000000,4.000000,86.000000,,,,0.000000,4.000000,4.000000,4.000000,4.000000,4.000000,4.000000,4.000000,2.000000,4.000000,4.000000,4.000000,4.000000,4.000000,4.000000,83.333336,,,,,,,,,,,,,,,,
1645710437.300869,101.000000,0.000000,4135.769043,4213.205078,4247.692383,4222.563965,4196.410156,4222.436035,4207.692383,4211.153809,4216.153809,4176.538574,4202.563965,4166.282227,4202.563965,4237.179688,0.000000,4.000000,86.000000,,,,0.000000,4.000000,4.000000,4.000000,4.000000,4.000000,4.000000,4.000000,2.000000,4.000000,4.000000,4.000000,4.000000,4.000000,4.000000,83.333336,,,,,,,,,,,,,,,,
1645710437.304809,102.000000,0.000000,4136.153809,4219.743652,4250.641113,4224.871582,4200.256348,4218.717773,4207.179688,4211.538574,4212.948730,4176.025879,4202.563965,4167.051270,4203.717773,4241.025879,0.000000,4.000000,86.000000,,,,0.000000,4.000000,4.000000,4.000000,4.000000,4.000000,4.000000,4.000000,2.000000,4.000000,4.000000,4.000000,4.000000,4.000000,4.000000,83.333336,,,,,,,,,,,,,,,,
1645710437.308749,103.000000,0.000000,4138.846191,4223.974121,4252.307617,4227.051270,4204.743652,4216.025879,4207.436035,4212.051270,4213.589844,4178.205078,4206.025879,4168.974121,4207.692383,4247.307617,0.000000,4.000000,86.000000,,,,0.000000,4.000000,4.000000,4.000000,4.000000,4.000000,4.000000,4.000000,2.000000,4.000000,4.000000,4.000000,4.000000,4.000000,4.000000,83.333336,,,,,,,,,,,,,,,,
1645710437.312589,104.000000,0.000000,4142.179688,4222.820313,4251.666504,4227.051270,4209.743652,4216.282227,4208.461426,4212.563965,4217.051270,4183.461426,4211.025879,4171.025879,4212.179688,4251.794922,0.000000,4.000000,86.000000,,,,0.000000,4.000000,4.000000,4.000000,4.000000,4.000000,4.000000,4.000000,2.000000,4.000000,4.000000,4.000000,4.000000,4.000000,4.000000,83.333336,,,,,,,,,,,,,,,,
1645710437.316530,105.000000,0.000000,4142.948730,4215.897461,4248.846191,4225.128418,4214.358887,4218.717773,4209.743652,4213.461426,4220.256348,4188.974121,4214.102539,4172.179688,4213.717773,4251.538574,0.000000,4.000000,86.000000,,,,0.000000,4.000000,4.000000,4.000000,4.000000,4.000000,4.000000,4.000000,2.000000,4.000000,4.000000,4.000000,4.000000,4.000000,4.000000,83.333336,,,,,,,,,,,,,,,,
1645710437.320470,106.000000,0.000000,4133.974121,4206.282227,4245.128418,4222.179688,4216.282227,4221.025879,4210.128418,4215.000000,4220.384766,4190.512695,4212.179688,4171.666504,4211.153809,4247.051270,0.000000,4.000000,86.000000,,,,0.000000,4.000000,4.000000,4.000000,4.000000,4.000000,4.000000,4.000000,2.000000,4.000000,4.000000,4.000000,4.000000,4.000000,4.000000,83.333336,,,,,,,,,,,,,,,,
1645710437.324410,107.000000,0.000000,4111.666504,4199.102539,4241.922852,4219.743652,4213.333496,4221.282227,4209.743652,4216.410156,4217.820313,4186.794922,4206.153809,4170.000000,4206.282227,4242.051270,0.000000,4.000000,86.000000,,,,0.000000,4.000000,4.000000,4.000000,4.000000,4.000000,4.000000,4.000000,2.000000,4.000000,4.000000,4.000000,4.000000,4.000000,4.000000,83.333336,,,,,,,,,,,,,,,,
1645710437.328350,108.000000,0.000000,4085.000000,4198.461426,4240.512695,4219.615234,4206.410156,4219.871582,4209.102539,4216.538574,4215.384766,4180.384766,4199.743652,4168.717773,4202.948730,4240.384766,0.000000,4.000000,86.000000,,,,0.000000,4.000000,4.000000,4.000000,4.000000,4.000000,4.000000,4.000000,2.000000,4.000000,4.000000,4.000000,4.000000,4.000000,4.000000,83.333336,,,,,,,,,,,,,,,,
1645710437.332290,109.000000,0.000000,4073.589844,4203.589844,4241.538574,4222.563965,4199.487305,4218.077148,4208.846191,4215.769043,4215.512695,4176.538574,4197.563965,4169.358887,4203.846191,4243.333496,0.000000,4.000000,86.000000,,,,0.000000,4.000000,4.000000,4.000000,4.000000,4.000000,4.000000,4.000000,2.000000,4.000000,4.000000,4.000000,4.000000,4.000000,4.000000,83.333336,,,,,,,,,,,,,,,,
1645710437.336230,110.000000,0.000000,4085.897461,4209.743652,4243.974121,4227.563965,4196.666504,4216.794922,4209.230957,4215.256348,4218.333496,4178.205078,4201.410156,4172.563965,4208.077148,4248.205078,0.000000,4.000000,86.000000,,,,0.000000,4.000000,4.000000,4.000000,4.000000,4.000000,4.000000,4.000000,2.000000,4.000000,4.000000,4.000000,4.000000,4.000000,4.000000,83.333336,,,,,,,,,,,,,,,,
1645710437.340170,111.000000,0.000000,4099.102539,4211.410156,4246.410156,4231.922852,4199.743652,4215.769043,4209.615234,4216.410156,4221.794922,4184.102539,4209.102539,4177.179688,4212.179688,4251.410156,0.000000,4.000000,86.000000,,,,0.000000,4.000000,4.000000,4.000000,4.000000,4.000000,4.000000,4.000000,2.000000,4.000000,4.000000,4.000000,4.000000,4.000000,4.000000,83.333336,,,,,,,,,,,,,,,,
1645710437.344110,112.000000,0.000000,4064.743652,4207.436035,4247.948730,4234.230957,4207.563965,4214.615234,4209.487305,4217.948730,4223.589844,4190.000000,4217.179688,4180.769043,4213.205078,4251.410156,0.000000,4.000000,86.000000,,,,0.000000,4.000000,4.000000,4.000000,4.000000,4.000000,4.000000,4.000000,2.000000,4.000000,4.000000,4.000000,4.000000,4.000000,4.000000,83.333336,,,,,,,,,,,,,,,,
1645710437.348050,113.000000,0.000000,3942.820557,4202.051270,4247.948730,4234.743652,4217.436035,4213.717773,4208.717773,4217.820313,4223.205078,4192.692383,4222.692383,4181.666504,4211.153809,4249.102539,0.000000,4.000000,86.000000,,,,0.000000,4.000000,4.000000,4.000000,4.000000,4.000000,4.000000,4.000000,2.000000,4.000000,4.000000,4.000000,4.000000,4.000000,4.000000,83.333336,,,,,,,,,,,,,,,,
1645710437.351991,114.000000,0.000000,3737.179443,4200.512695,4246.538574,4234.230957,4225.000000,4213.077148,4207.563965,4215.000000,4221.410156,4191.666504,4223.461426,4179.743652,4208.077148,4247.051270,0.000000,4.000000,86.000000,,,,0.000000,4.000000,4.000000,4.000000,4.000000,4.000000,4.000000,4.000000,2.000000,4.000000,4.000000,4.000000,4.000000,4.000000,4.000000,83.333336,,,,,,,,,,,,,,,,
1645710437.355931,115.000000,0.000000,3503.589844,4204.743652,4244.487305,4232.436035,4225.512695,4212.948730,4206.538574,4211.538574,4220.000000,4188.077148,4219.358887,4176.153809,4205.897461,4245.897461,0.000000,4.000000,86.000000,,,,0.000000,4.000000,4.000000,4.000000,4.000000,4.000000,4.000000,4.000000,2.000000,4.000000,4.000000,4.000000,4.000000,4.000000,4.000000,83.333336,,,,,,,,,,,,,,,,
1645710437.359871,116.000000,0.000000,3317.307617,4211.282227,4242.948730,4229.743652,4217.436035,4213.461426,4206.153809,4210.000000,4220.256348,4183.974121,4212.179688,4172.436035,4204.871582,4245.256348,0.000000,4.000000,86.000000,,,,0.000000,4.000000,4.000000,4.000000,4.000000,4.000000,4.000000,4.000000,2.000000,4.000000,4.000000,4.000000,4.000000,4.000000,4.000000,83.333336,,,,,,,,,,,,,,,,
1645710437.363811,117.000000,0.000000,3226.794922,4215.128418,4242.563965,4227.948730,4205.512695,4215.000000,4207.179688,4211.410156,4221.666504,4180.641113,4205.512695,4169.487305,4203.717773,4243.846191,0.000000,4.000000,86.000000,,,,0.000000,4.000000,4.000000,4.000000,4.000000,4.000000,4.000000,4.000000,2.000000,4.000000,4.000000,4.000000,4.000000,4.000000,4.000000,83.333336,,,,,,,,,,,,,,,,
1645710437.367751,118.000000,0.000000,3225.000000,4214.102539,4243.205078,4229.102539,4198.333496,4217.820313,4208.974121,4213.974121,4222.436035,4178.974121,4202.179688,4167.307617,4201.922852,4241.153809,0.000000,4.000000,86.000000,,,,0.000000,4.000000,4.000000,4.000000,4.000000,4.000000,4.000000,4.000000,2.000000,4.000000,4.000000,4.000000,4.000000,4.000000,4.000000,83.333336,,,,,,,,,,,,,,,,
1645710437.371691,119.000000,0.000000,3262.051270,4209.743652,4243.717773,4234.358887,4202.051270,4220.384766,4209.871582,4214.743652,4221.282227,4178.589844,4202.051270,4165.641113,4199.615234,4237.948730,0.000000,4.000000,86.000000,,,,0.000000,4.000000,4.000000,4.000000,4.000000,4.000000,4.000000,4.000000,2.000000,4.000000,4.000000,4.000000,4.000000,4.000000,4.000000,83.333336,,,,,,,,,,,,,,,,
1645710437.375631,120.000000,0.000000,3284.102539,4204.871582,4243.461426,4241.666504,4214.487305,4220.512695,4208.461426,4212.948730,4218.333496,4178.077148,4202.179688,4163.461426,4197.051270,4236.025879,0.000000,4.000000,86.000000,,,,0.000000,4.000000,4.000000,4.000000,4.000000,4.000000,4.000000,4.000000,2.000000,4.000000,4.000000,4.000000,4.000000,4.000000,4.000000,83.333336,,,,,,,,,,,,,,,,
1645710437.379471,121.000000,0.000000,3268.718018,4201.922852,4241.666504,4247.563965,4227.820313,4217.179688,4205.000000,4210.000000,4215.128418,4176.153809,4199.871582,4160.512695,4194.487305,4236.410156,0.000000,4.000000,86.000000,,,,0.000000,4.000000,4.000000,4.000000,4.000000,4.000000,4.000000,4.000000,2.000000,4.000000,4.000000,4.000000,4.000000,4.000000,4.000000,83.333336,,,,,,,,,,,,,,,,
1645710437.383411,122.000000,0.000000,3231.025635,4202.307617,4238.589844,4249.743652,4234.487305,4211.666504,4201.922852,4208.846191,4213.846191,4173.589844,4195.512695,4157.179688,4192.948730,4239.230957,0.000000,4.000000,86.000000,,,,0.000000,4.000000,4.000000,4.000000,4.000000,4.000000,4.000000,4.000000,2.000000,4.000000,4.000000,4.000000,4.000000,4.000000,4.000000,83.333336,,,,,,,,,,,,,,,,
1645710437.387352,123.000000,0.000000,3201.923096,4205.769043,4235.384766,4248.846191,4233.589844,4207.563965,4201.282227,4210.897461,4214.743652,4172.948730,4192.563965,4155.000000,4193.717773,4242.820313,0.000000,4.000000,86.000000,,,,0.000000,4.000000,4.000000,4.000000,4.000000,4.000000,4.000000,4.000000,2.000000,4.000000,4.000000,4.000000,4.000000,4.000000,4.000000,83.333336,,,,,,,,,,,,,,,,
1645710437.391292,124.000000,0.000000,3200.256348,4210.000000,4233.077148,4247.948730,4230.128418,4207.307617,4203.717773,4215.000000,4216.794922,4176.538574,4193.589844,4155.769043,4197.051270,4245.641113,0.000000,4.000000,86.000000,,,,0.000000,4.000000,4.000000,4.000000,4.000000,4.000000,4.000000,4.000000,2.000000,4.000000,4.000000,4.000000,4.000000,4.000000,4.000000,83.333336,,,,,,,,,,,,,,,,
1645710437.395232,125.000000,0.000000,3220.000000,4211.922852,4232.179688,4249.230957,4228.974121,4211.025879,4207.820313,4218.846191,4218.333496,4183.974121,4198.077148,4159.615234,4201.666504,4246.666504,0.000000,4.000000,86.000000,,,,0.000000,4.000000,4.000000,4.000000,4.000000,4.000000,4.000000,4.000000,2.000000,4.000000,4.000000,4.000000,4.000000,4.000000,4.000000,83.333336,,,,,,,,,,,,,,,,
1645710437.399172,126.000000,0.000000,3241.794922,4210.128418,4233.205078,4253.333496,4229.871582,4215.769043,4211.153809,4221.153809,4217.948730,4191.922852,4203.461426,4164.358887,4205.384766,4246.282227,0.000000,4.000000,86.000000,,,,0.000000,4.000000,4.000000,4.000000,4.000000,4.000000,4.000000,4.000000,2.000000,4.000000,4.000000,4.000000,4.000000,4.000000,4.000000,83.333336,,,,,,,,,,,,,,,,
1645710437.403112,127.000000,0.000000,3251.666748,4206.282227,4236.282227,4258.717773,4229.358887,4219.230957,4212.307617,4221.794922,4216.410156,4196.666504,4207.179688,4167.179688,4207.436035,4246.025879,0.000000,4.000000,86.000000,,,,0.000000,4.000000,4.000000,4.000000,4.000000,4.000000,4.000000,4.000000,2.000000,4.000000,4.000000,4.000000,4.000000,4.000000,4.000000,83.333336,,,,,,,,,,,,,,,,
1645710437.407052,128.000000,0.000000,3250.512939,4203.846191,4240.769043,4263.333496,4225.384766,4220.256348,4211.025879,4221.794922,4215.769043,4197.051270,4208.974121,4166.538574,4208.205078,4246.666504,3286.000000,4.000000,86.000000,,,,0.000000,4.000000,4.000000,4.000000,4.000000,4.000000,4.000000,4.000000,2.000000,4.000000,4.000000,4.000000,4.000000,4.000000,4.000000,83.333336,,,,,,,,,,,,,,,,
1645710437.410992,129.000000,0.000000,3247.179443,4204.487305,4245.384766,4265.384766,4220.000000,4218.974121,4208.333496,4220.897461,4217.051270,4193.846191,4209.615234,4163.461426,4208.846191,4248.589844,3431.000000,4.000000,86.000000,,,,0.000000,4.000000,4.000000,4.000000,4.000000,4.000000,4.000000,4.000000,2.000000,4.000000,4.000000,4.000000,4.000000,4.000000,4.000000,83.333336,,,,,,,,,,,,,,,,
1645710437.414932,130.000000,0.000000,3247.564209,4207.820313,4247.820313,4263.589844,4216.794922,4216.153809,4205.897461,4218.974121,4219.743652,4189.615234,4209.358887,4160.897461,4209.230957,4251.025879,2141.000000,4.000000,86.000000,,,,0.000000,4.000000,4.000000,4.000000,4.000000,4.000000,4.000000,4.000000,2.000000,4.000000,4.000000,4.000000,4.000000,4.000000,4.000000,83.333336,,,,,,,,,,,,,,,,
1645710437.418872,131.000000,0.000000,3250.769287,4211.794922,4247.051270,4258.974121,4218.461426,4212.948730,4205.897461,4216.282227,4221.922852,4186.282227,4208.205078,4161.025879,4208.461426,4252.436035,3312.000000,4.000000,86.000000,,,,0.000000,4.000000,4.000000,4.000000,4.000000,4.000000,4.000000,4.000000,2.000000,4.000000,4.000000,4.000000,4.000000,4.000000,4.000000,83.333336,,,,,,,,,,,,,,,,
1645710437.422813,132.000000,0.000000,3254.487061,4214.102539,4242.948730,4255.000000,4225.512695,4211.025879,4208.846191,4213.589844,4222.563965,4185.512695,4206.538574,4163.461426,4206.410156,4251.410156,3608.000000,4.000000,86.000000,,,,0.000000,4.000000,4.000000,4.000000,4.000000,4.000000,4.000000,4.000000,2.000000,4.000000,4.000000,4.000000,4.000000,4.000000,4.000000,83.333336,,,,,,,,,,,,,,,,
1645710437.426753,133.000000,0.000000,3257.564209,4213.589844,4237.179688,4255.128418,4235.384766,4212.563965,4213.589844,4211.282227,4221.538574,4187.307617,4205.256348,4165.897461,4204.102539,4247.436035,3381.000000,4.000000,86.000000,,,,0.000000,4.000000,4.000000,4.000000,4.000000,4.000000,4.000000,4.000000,2.000000,4.000000,4.000000,4.000000,4.000000,4.000000,4.000000,83.333336,,,,,,,,,,,,,,,,
1645710437.430693,134.000000,0.000000,3260.000000,4210.769043,4231.538574,4259.487305,4243.974121,4217.948730,4216.666504,4209.615234,4219.230957,4190.128418,4204.871582,4165.897461,4203.461426,4241.538574,3294.000000,4.000000,86.000000,1,1,3,0.000000,4.000000,4.000000,4.000000,4.000000,4.000000,4.000000,4.000000,2.000000,4.000000,4.000000,4.000000,4.000000,4.000000,4.000000,83.333336,,,,,,,,,,,,,,,,
1645710437.434633,135.000000,0.000000,3262.179443,4207.563965,4227.820313,4265.128418,4247.051270,4224.615234,4216.282227,4208.717773,4216.794922,4191.282227,4205.512695,4162.820313,4204.102539,4236.282227,1029.000000,4.000000,86.000000,,,,0.000000,4.000000,4.000000,4.000000,4.000000,4.000000,4.000000,4.000000,2.000000,4.000000,4.000000,4.000000,4.000000,4.000000,4.000000,83.333336,,,,,,,,,,,,,,,,
1645710437.438573,136.000000,0.000000,3265.128174,4206.025879,4227.307617,4268.333496,4243.717773,4228.846191,4213.333496,4208.974121,4215.000000,4189.871582,4206.666504,4158.717773,4204.743652,4235.000000,1358.000000,4.000000,86.000000,,,,0.000000,4.000000,4.000000,4.000000,4.000000,4.000000,4.000000,4.000000,2.000000,4.000000,4.000000,4.000000,4.000000,4.000000,4.000000,83.333336,,,,,,,,,,,,,,,,
1645710437.442513,137.000000,0.000000,3269.743652,4207.436035,4229.487305,4267.436035,4236.922852,4227.948730,4211.282227,4210.384766,4214.743652,4187.179688,4208.461426,4156.666504,4204.358887,4238.846191,3036.000000,4.000000,86.000000,,,,0.000000,4.000000,4.000000,4.000000,4.000000,4.000000,4.000000,4.000000,2.000000,4.000000,4.000000,4.000000,4.000000,4.000000,4.000000,83.333336,,,,,,,,,,,,,,,,
1645710437.446353,138.000000,0.000000,3275.384521,4211.538574,4232.307617,4263.974121,4231.410156,4222.948730,4212.563965,4212.563965,4215.384766,4185.512695,4210.769043,4158.589844,4203.717773,4245.000000,2367.000000,4.000000,86.000000,,,,0.000000,4.000000,4.000000,4.000000,4.000000,4.000000,4.000000,4.000000,2.000000,4.000000,4.000000,4.000000,4.000000,4.000000,4.000000,83.333336,,,,,,,,,,,,,,,,
1645710437.450293,139.000000,0.000000,3280.512939,4216.538574,4233.974121,4261.153809,4230.000000,4217.307617,4216.025879,4214.102539,4216.666504,4185.641113,4212.948730,4163.589844,4204.230957,4248.589844,2738.000000,4.000000,86.000000,,,,0.000000,4.000000,4.000000,4.000000,4.000000,4.000000,4.000000,4.000000,2.000000,4.000000,4.000000,4.000000,4.000000,4.000000,4.000000,83.333336,,,,,,,,,,,,,,,,
1645710437.454233,140.000000,0.000000,3284.102539,4219.487305,4233.205078,4261.410156,4231.282227,4214.230957,4218.589844,4214.743652,4217.692383,4186.666504,4213.333496,4168.077148,4205.897461,4246.282227,3034.000000,4.000000,86.000000,,,,0.000000,4.000000,4.000000,4.000000,4.000000,4.000000,4.000000,4.000000,2.000000,4.000000,4.000000,4.000000,4.000000,4.000000,4.000000,83.333336,,,,,,,,,,,,,,,,
1645710437.458174,141.000000,0.000000,3286.923096,4217.051270,4230.384766,4263.974121,4232.051270,4214.102539,4217.692383,4214.358887,4218.077148,4187.179688,4210.384766,4168.846191,4207.436035,4239.743652,3038.000000,4.000000,86.000000,,,,0.000000,4.000000,4.000000,4.000000,4.000000,4.000000,4.000000,4.000000,2.000000,4.000000,4.000000,4.000000,4.000000,4.000000,4.000000,83.333336,,,,,,,,,,,,,,,,
1645710437.462114,142.000000,0.000000,3289.871826,4209.358887,4226.922852,4265.384766,4230.000000,4215.512695,4213.974121,4213.717773,4217.436035,4186.666504,4204.615234,4165.512695,4207.948730,4233.717773,2367.000000,4.000000,86.000000,,,,0.000000,4.000000,4.000000,4.000000,4.000000,4.000000,4.000000,4.000000,2.000000,4.000000,4.000000,4.000000,4.000000,4.000000,4.000000,83.333336,,,,,,,,,,,,,,,,
1645710437.466054,143.000000,0.000000,3293.076904,4200.000000,4225.128418,4262.948730,4226.538574,4216.794922,4210.512695,4213.333496,4216.025879,4186.794922,4199.358887,4161.153809,4207.563965,4232.820313,2738.000000,4.000000,86.000000,,,,0.000000,4.000000,4.000000,4.000000,4.000000,4.000000,4.000000,4.000000,2.000000,4.000000,4.000000,4.000000,4.000000,4.000000,4.000000,83.333336,,,,,,,,,,,,,,,,
1645710437.469994,144.000000,0.000000,3297.051270,4193.717773,4226.666504,4258.077148,4225.000000,4217.692383,4210.384766,4214.102539,4215.128418,4190.000000,4199.487305,4159.615234,4207.692383,4238.077148,3034.000000,4.000000,86.000000,,,,0.000000,4.000000,4.000000,4.000000,4.000000,4.000000,4.000000,4.000000,2.000000,4.000000,4.000000,4.000000,4.000000,4.000000,4.000000,83.333336,,,,,,,,,,,,,,,,
1645710437.473934,145.000000,0.000000,3302.435791,4193.589844,4230.256348,4254.358887,4226.922852,4218.717773,4214.358887,4216.538574,4215.897461,4197.179688,4206.922852,4162.436035,4209.230957,4246.410156,3038.000000,4.000000,86.000000,,,,0.000000,4.000000,4.000000,4.000000,4.000000,4.000000,4.000000,4.000000,2.000000,4.000000,4.000000,4.000000,4.000000,4.000000,4.000000,83.333336,,,,,,,,,,,,,,,,
1645710437.477874,146.000000,0.000000,3310.256348,4198.077148,4233.589844,4254.358887,4231.153809,4220.384766,4220.384766,4220.256348,4218.077148,4205.641113,4217.692383,4167.563965,4211.794922,4252.692383,2367.000000,4.000000,86.000000,,,,0.000000,4.000000,4.000000,4.000000,4.000000,4.000000,4.000000,4.000000,2.000000,4.000000,4.000000,4.000000,4.000000,4.000000,4.000000,83.333336,,,,,,,,,,,,,,,,
1645710437.481814,147.000000,0.000000,3319.230713,4203.333496,4233.717773,4256.922852,4235.128418,4222.563965,4225.512695,4223.717773,4220.512695,4210.769043,4224.102539,4170.897461,4213.589844,4253.333496,2738.000000,4.000000,86.000000,,,,0.000000,4.000000,4.000000,4.000000,4.000000,4.000000,4.000000,4.000000,2.000000,4.000000,4.000000,4.000000,4.000000,4.000000,4.000000,83.333336,,,,,,,,,,,,,,,,
1645710437.485754,148.000000,0.000000,3326.153809,4205.384766,4230.384766,4259.487305,4237.307617,4224.871582,4227.307617,4225.256348,4222.051270,4210.512695,4221.282227,4170.512695,4212.692383,4248.461426,3034.000000,4.000000,86.000000,,,,0.000000,4.000000,4.000000,4.000000,4.000000,4.000000,4.000000,4.000000,2.000000,4.000000,4.000000,4.000000,4.000000,4.000000,4.000000,83.333336,,,,,,,,,,,,,,,,
1645710437.489694,149.000000,0.000000,3329.102539,4203.461426,4225.512695,4260.256348,4237.948730,4227.307617,4225.384766,4223.846191,4222.307617,4206.153809,4211.666504,4167.692383,4208.846191,4242.179688,3038.000000,4.000000,86.000000,,,,0.000000,4.000000,4.000000,4.000000,4.000000,4.000000,4.000000,4.000000,2.000000,4.000000,4.000000,4.000000,4.000000,4.000000,4.000000,83.333336,,,,,,,,,,,,,,,,
1645710437.493635,150.000000,0.000000,3330.128174,4199.743652,4222.436035,4259.358887,4237.051270,4228.974121,4221.410156,4220.641113,4221.922852,4201.153809,4202.820313,4165.512695,4204.230957,4239.230957,2367.000000,4.000000,86.000000,,,,0.000000,4.000000,4.000000,4.000000,4.000000,4.000000,4.000000,4.000000,2.000000,4.000000,4.000000,4.000000,4.000000,4.000000,4.000000,83.333336,,,,,,,,,,,,,,,,
1645710437.497575,151.000000,0.000000,3333.718018,4197.307617,4223.461426,4257.692383,4235.384766,4228.846191,4218.461426,4218.077148,4221.025879,4197.948730,4201.025879,4165.897461,4201.666504,4241.153809,2738.000000,4.000000,86.000000,,,,0.000000,4.000000,4.000000,4.000000,4.000000,4.000000,4.000000,4.000000,2.000000,4.000000,4.000000,4.000000,4.000000,4.000000,4.000000,83.333336,,,,,,,,,,,,,,,,
1645710437.501515,152.000000,0.000000,3342.307617,4197.692383,4228.205078,4256.538574,4234.487305,4226.794922,4217.948730,4217.563965,4219.871582,4196.666504,4206.410156,4168.846191,4202.563965,4246.538574,3034.000000,4.000000,86.000000,,,,0.000000,4.000000,4.000000,4.000000,4.000000,4.000000,4.000000,4.000000,2.000000,4.000000,4.000000,4.000000,4.000000,4.000000,4.000000,83.333336,,,,,,,,,,,,,,,,
1645710437.505455,153.000000,0.000000,3353.589844,4200.641113,4234.358887,4256.025879,4235.897461,4224.102539,4219.358887,4218.846191,4219.102539,4196.538574,4214.102539,4172.692383,4206.794922,4252.436035,3038.000000,4.000000,86.000000,,,,0.000000,4.000000,4.000000,4.000000,4.000000,4.000000,4.000000,4.000000,2.000000,4.000000,4.000000,4.000000,4.000000,4.000000,4.000000,83.333336,,,,,,,,,,,,,,,,
1645710437.509395,154.000000,0.000000,3363.205078,4204.487305,4239.102539,4255.897461,4240.000000,4222.436035,4220.512695,4220.128418,4219.358887,4197.307617,4218.717773,4175.128418,4212.179688,4256.153809,2367.000000,4.000000,86.000000,,,,0.000000,4.000000,4.000000,4.000000,4.000000,4.000000,4.000000,4.000000,2.000000,4.000000,4.000000,4.000000,4.000000,4.000000,4.000000,83.333336,,,,,,,,,,,,,,,,
1645710437.513335,155.000000,0.000000,3368.205078,4207.051270,4239.743652,4255.256348,4244.358887,4222.179688,4219.358887,4219.743652,4221.025879,4198.077148,4218.461426,4174.358887,4215.641113,4256.025879,2738.000000,4.000000,86.000000,,,,0.000000,4.000000,4.000000,4.000000,4.000000,4.000000,4.000000,4.000000,2.000000,4.000000,4.000000,4.000000,4.000000,4.000000,4.000000,83.333336,,,,,,,,,,,,,,,,
1645710437.517275,156.000000,0.000000,3370.256348,4206.794922,4235.512695,4252.948730,4245.769043,4222.051270,4216.153809,4217.692383,4222.948730,4197.820313,4214.102539,4169.871582,4215.000000,4251.794922,3034.000000,4.000000,86.000000,,,,0.000000,4.000000,4.000000,4.000000,4.000000,4.000000,4.000000,4.000000,2.000000,4.000000,4.000000,4.000000,4.000000,4.000000,4.000000,83.333336,,,,,,,,,,,,,,,,
1645710437.521115,157.000000,0.000000,3372.435791,4204.615234,4228.205078,4248.846191,4242.563965,4221.282227,4213.077148,4215.000000,4223.333496,4195.384766,4209.102539,4164.230957,4210.384766,4245.000000,3038.000000,4.000000,86.000000,,,,0.000000,4.000000,4.000000,4.000000,4.000000,4.000000,4.000000,4.000000,2.000000,4.000000,4.000000,4.000000,4.000000,4.000000,4.000000,83.333336,,,,,,,,,,,,,,,,
1645710437.525055,158.000000,0.000000,3377.051270,4202.948730,4221.538574,4244.358887,4236.025879,4220.384766,4212.436035,4213.205078,4221.922852,4191.410156,4207.051270,4161.410156,4205.384766,4239.230957,2367.000000,4.000000,86.000000,,,,0.000000,4.000000,4.000000,4.000000,4.000000,4.000000,4.000000,4.000000,2.000000,4.000000,4.000000,4.000000,4.000000,4.000000,4.000000,83.333336,1.000000,41.666668,0.000000,4.000000,4.000000,4.000000,3.000000,4.000000,4.000000,2.000000,4.000000,4.000000,4.000000,4.000000,4.000000,4.000000
1645710437.528996,159.000000,0.000000,3383.718018,4203.333496,4218.974121,4241.922852,4229.871582,4220.769043,4215.384766,4212.563965,4219.487305,4188.205078,4208.846191,4163.717773,4203.333496,4238.077148,2738.000000,4.000000,86.000000,,,,0.000000,4.000000,4.000000,4.000000,4.000000,4.000000,4.000000,4.000000,2.000000,4.000000,4.000000,4.000000,4.000000,4.000000,4.000000,83.333336,,,,,,,,,,,,,,,,
1645710437.532936,160.000000,0.000000,3390.641113,4204.871582,4221.153809,4242.820313,4227.436035,4222.436035,4220.000000,4212.692383,4217.179688,4187.307617,4211.794922,4168.974121,4205.384766,4241.794922,3034.000000,4.000000,86.000000,,,,0.000000,4.000000,4.000000,4.000000,4.000000,4.000000,4.000000,4.000000,2.000000,4.000000,4.000000,4.000000,4.000000,4.000000,4.000000,83.333336,,,,,,,,,,,,,,,,
1645710437.536876,161.000000,0.000000,3396.538574,4204.487305,4224.871582,4246.153809,4228.717773,4222.820313,4221.922852,4212.948730,4215.000000,4187.307617,4212.051270,4172.563965,4208.717773,4246.666504,3038.000000,4.000000,86.000000,2,1,3,0.000000,4.000000,4.000000,4.000000,4.000000,4.000000,4.000000,4.000000,2.000000,4.000000,4.000000,4.000000,4.000000,4.000000,4.000000,83.333336,,,,,,,,,,,,,,,,
1645710437.540816,162.000000,0.000000,3401.025635,4200.384766,4226.282227,4249.230957,4231.282227,4219.871582,4218.333496,4212.948730,4213.205078,4185.769043,4207.692383,4171.410156,4210.128418,4247.948730,2367.000000,4.000000,86.000000,,,,0.000000,4.000000,4.000000,4.000000,4.000000,4.000000,4.000000,4.000000,2.000000,4.000000,4.000000,4.000000,4.000000,4.000000,4.000000,83.333336,,,,,,,,,,,,,,,,
1645710437.544756,163.000000,0.000000,3403.846191,4194.615234,4224.230957,4250.256348,4232.563965,4214.102539,4210.641113,4212.436035,4212.307617,4181.794922,4201.794922,4166.282227,4208.333496,4244.487305,2738.000000,4.000000,86.000000,,,,0.000000,4.000000,4.000000,4.000000,4.000000,4.000000,4.000000,4.000000,2.000000,4.000000,4.000000,4.000000,4.000000,4.000000,4.000000,83.333336,,,,,,,,,,,,,,,,
1645710437.548696,164.000000,0.000000,3405.256348,4191.282227,4220.769043,4249.358887,4232.051270,4209.230957,4203.461426,4211.282227,4212.563965,4178.077148,4199.102539,4161.025879,4205.128418,4239.615234,3034.000000,4.000000,86.000000,,,,0.000000,4.000000,4.000000,4.000000,4.000000,4.000000,4.000000,4.000000,2.000000,4.000000,4.000000,4.000000,4.000000,4.000000,4.000000,83.333336,,,,,,,,,,,,,,,,
1645710437.552636,165.000000,0.000000,3406.923096,4193.205078,4219.230957,4247.820313,4231.282227,4208.589844,4200.769043,4210.128418,4213.846191,4177.563965,4202.307617,4159.358887,4203.205078,4238.205078,3038.000000,4.000000,86.000000,,,,0.000000,4.000000,4.000000,4.000000,4.000000,4.000000,4.000000,4.000000,2.000000,4.000000,4.000000,4.000000,4.000000,4.000000,4.000000,83.333336,,,,,,,,,,,,,,,,
1645710437.556576,166.000000,0.000000,3411.410156,4198.974121,4221.025879,4246.794922,4231.538574,4212.436035,4203.077148,4209.871582,4215.000000,4180.897461,4208.717773,4161.922852,4203.717773,4241.666504,2367.000000,4.000000,86.000000,,,,0.000000,4.000000,4.000000,4.000000,4.000000,4.000000,4.000000,4.000000,2.000000,4.000000,4.000000,4.000000,4.000000,4.000000,4.000000,83.333336,,,,,,,,,,,,,,,,
1645710437.560516,167.000000,0.000000,3419.743652,4204.358887,4224.615234,4246.922852,4232.820313,4217.436035,4207.436035,4211.410156,4215.384766,4185.641113,4213.205078,4166.794922,4206.025879,4247.051270,2738.000000,4.000000,86.000000,,,,0.000000,4.000000,4.000000,4.000000,4.000000,4.000000,4.000000,4.000000,2.000000,4.000000,4.000000,4.000000,4.000000,4.000000,4.000000,83.333336,,,,,,,,,,,,,,,,
1645710437.564457,168.000000,0.000000,3429.487061,4205.128418,4227.051270,4249.358887,4234.230957,4220.641113,4210.641113,4213.846191,4215.128418,4188.846191,4212.563965,4171.025879,4208.205078,4250.000000,3034.000000,4.000000,86.000000,,,,0.000000,4.000000,4.000000,4.000000,4.000000,4.000000,4.000000,4.000000,2.000000,4.000000,4.000000,4.000000,4.000000,4.000000,4.000000,83.333336,,,,,,,,,,,,,,,,
1645710437.568397,169.000000,0.000000,3436.666748,4200.641113,4226.153809,4254.230957,4235.256348,4221.538574,4211.410156,4215.769043,4215.512695,4189.230957,4207.563965,4172.692383,4208.974121,4248.461426,3038.000000,4.000000,86.000000,,,,0.000000,4.000000,4.000000,4.000000,4.000000,4.000000,4.000000,4.000000,2.000000,4.000000,4.000000,4.000000,4.000000,4.000000,4.000000,83.333336,,,,,,,,,,,,,,,,
1645710437.572337,170.000000,0.000000,3438.974365,4193.205078,4222.692383,4259.743652,4235.384766,4221.025879,4209.871582,4216.282227,4216.666504,4187.563965,4201.282227,4171.666504,4207.436035,4242.948730,2367.000000,4.000000,86.000000,,,,0.000000,4.000000,4.000000,4.000000,4.000000,4.000000,4.000000,4.000000,2.000000,4.000000,4.000000,4.000000,4.000000,4.000000,4.000000,83.333336,,,,,,,,,,,,,,,,
1645710437.576277,171.000000,0.000000,3437.820557,4186.922852,4218.333496,4262.179688,4234.743652,4220.512695,4207.563965,4215.769043,4217.563965,4184.358887,4196.282227,4169.358887,4203.846191,4236.282227,2738.000000,4.000000,86.000000,,,,0.000000,4.000000,4.000000,4.000000,4.000000,4.000000,4.000000,4.000000,2.000000,4.000000,4.000000,4.000000,4.000000,4.000000,4.000000,83.333336,,,,,,,,,,,,,,,,
1645710437.580217,172.000000,0.000000,3436.666748,4184.358887,4214.358887,4259.487305,4233.333496,4220.897461,4205.769043,4215.000000,4217.051270,4180.769043,4193.589844,4167.179688,4199.358887,4231.025879,3034.000000,4.000000,86.000000,,,,0.000000,4.000000,4.000000,4.000000,4.000000,4.000000,4.000000,4.000000,2.000000,4.000000,4.000000,4.000000,4.000000,4.000000,4.000000,83.333336,,,,,,,,,,,,,,,,
1645710437.584157,173.000000,0.000000,3438.076904,4186.025879,4211.538574,4253.333496,4232.692383,4222.948730,4206.025879,4214.871582,4215.512695,4178.461426,4193.589844,4166.410156,4196.153809,4228.717773,3038.000000,4.000000,86.000000,,,,0.000000,4.000000,4.000000,4.000000,4.000000,4.000000,4.000000,4.000000,2.000000,4.000000,4.000000,4.000000,4.000000,4.000000,4.000000,83.333336,,,,,,,,,,,,,,,,
1645710437.588097,174.000000,0.000000,3441.923096,4190.512695,4209.358887,4248.846191,4234.487305,4226.410156,4209.102539,4215.512695,4214.102539,4179.102539,4195.769043,4166.794922,4195.897461,4229.615234,2367.000000,4.000000,86.000000,,,,0.000000,4.000000,4.000000,4.000000,4.000000,4.000000,4.000000,4.000000,2.000000,4.000000,4.000000,4.000000,4.000000,4.000000,4.000000,83.333336,,,,,,,,,,,,,,,,
1645710437.591937,175.000000,0.000000,3447.435791,4195.128418,4207.563965,4249.487305,4238.333496,4229.615234,4213.974121,4217.051270,4214.102539,4183.077148,4198.333496,4167.692383,4198.717773,4232.948730,2738.000000,4.000000,86.000000,,,,0.000000,4.000000,4.000000,4.000000,4.000000,4.000000,4.000000,4.000000,2.000000,4.000000,4.000000,4.000000,4.000000,4.000000,4.000000,83.333336,,,,,,,,,,,,,,,,
1645710437.595877,176.000000,0.000000,3454.358887,4197.307617,4206.410156,4253.846191,4241.666504,4230.769043,4218.589844,4219.743652,4215.641113,4187.692383,4199.871582,4168.333496,4202.436035,4237.051270,3034.000000,4.000000,86.000000,,,,0.000000,4.000000,4.000000,4.000000,4.000000,4.000000,4.000000,4.000000,2.000000,4.000000,4.000000,4.000000,4.000000,4.000000,4.000000,83.333336,,,,,,,,,,,,,,,,
1645710437.599818,177.000000,0.000000,3462.179443,4196.538574,4207.179688,4257.436035,4240.897461,4228.461426,4220.512695,4222.692383,4218.461426,4189.743652,4200.384766,4168.589844,4204.743652,4241.153809,3038.000000,4.000000,86.000000,,,,0.000000,4.000000,4.000000,4.000000,4.000000,4.000000,4.000000,4.000000,2.000000,4.000000,4.000000,4.000000,4.000000,4.000000,4.000000,83.333336,,,,,,,,,,,,,,,,
1645710437.603758,178.000000,0.000000,3469.871826,4194.615234,4209.743652,4257.692383,4235.512695,4224.102539,4219.358887,4224.102539,4221.025879,4189.230957,4201.666504,4168.974121,4204.743652,4244.487305,2367.000000,4.000000,86.000000,,,,0.000000,4.000000,4.000000,4.000000,4.000000,4.000000,4.000000,4.000000,2.000000,4.000000,4.000000,4.000000,4.000000,4.000000,4.000000,83.333336,,,,,,,,,,,,,,,,
1645710437.607698,179.000000,0.000000,3475.256348,4193.077148,4212.820313,4256.666504,4228.589844,4219.743652,4215.897461,4221.794922,4221.922852,4188.333496,4204.871582,4169.487305,4203.461426,4245.641113,2738.000000,4.000000,86.000000,,,,0.000000,4.000000,4.000000,4.000000,4.000000,4.000000,4.000000,4.000000,2.000000,4.000000,4.000000,4.000000,4.000000,4.000000,4.000000,83.333336,,,,,,,,,,,,,,,,
1645710437.611638,180.000000,0.000000,3478.076904,4192.563965,4214.102539,4257.692383,4224.358887,4217.307617,4212.051270,4216.538574,4220.512695,4189.102539,4208.717773,4169.871582,4203.205078,4244.615234,3034.000000,4.000000,86.000000,,,,0.000000,4.000000,4.000000,4.000000,4.000000,4.000000,4.000000,4.000000,2.000000,4.000000,4.000000,4.000000,4.000000,4.000000,4.000000,83.333336,,,,,,,,,,,,,,,,
1645710437.615578,181.000000,0.000000,3481.025635,4192.563965,4213.205078,4262.179688,4225.384766,4216.666504,4209.358887,4210.897461,4217.563965,4191.538574,4211.282227,4170.000000,4205.000000,4242.436035,3038.000000,4.000000,86.000000,,,,0.000000,4.000000,4.000000,4.000000,4.000000,4.000000,4.000000,4.000000,2.000000,4.000000,4.000000,4.000000,4.000000,4.000000,4.000000,83.333336,,,,,,,,,,,,,,,,
1645710437.619518,182.000000,0.000000,3487.179443,4193.077148,4211.794922,4268.205078,4231.922852,4216.794922,4209.230957,4208.717773,4215.000000,4193.974121,4211.410156,4170.512695,4208.461426,4241.794922,2367.000000,4.000000,86.000000,,,,0.000000,4.000000,4.000000,4.000000,4.000000,4.000000,4.000000,4.000000,2.000000,4.000000,4.000000,4.000000,4.000000,4.000000,4.000000,83.333336,,,,,,,,,,,,,,,,
1645710437.623458,183.000000,0.000000,3496.153809,4194.871582,4212.179688,4273.589844,4241.922852,4218.077148,4211.794922,4210.641113,4214.102539,4195.641113,4210.000000,4171.538574,4211.922852,4244.102539,2738.000000,4.000000,86.000000,,,,0.000000,4.000000,4.000000,4.000000,4.000000,4.000000,4.000000,4.000000,2.000000,4.000000,4.000000,4.000000,4.000000,4.000000,4.000000,83.333336,,,,,,,,,,,,,,,,
1645710437.627398,184.000000,0.000000,3503.974365,4198.333496,4214.615234,4277.051270,4251.282227,4220.897461,4215.769043,4214.615234,4214.871582,4196.410156,4209.615234,4172.563965,4213.333496,4248.205078,3034.000000,4.000000,86.000000,,,,0.000000,4.000000,4.000000,4.000000,4.000000,4.000000,4.000000,4.000000,2.000000,4.000000,4.000000,4.000000,4.000000,4.000000,4.000000,83.333336,,,,,,,,,,,,,,,,
1645710437.631338,185.000000,0.000000,3507.692383,4202.307617,4216.922852,4279.102539,4255.128418,4224.615234,4218.717773,4217.307617,4216.538574,4196.282227,4211.282227,4172.820313,4212.179688,4251.153809,3038.000000,4.000000,86.000000,,,,0.000000,4.000000,4.000000,4.000000,4.000000,4.000000,4.000000,4.000000,2.000000,4.000000,4.000000,4.000000,4.000000,4.000000,4.000000,83.333336,,,,,,,,,,,,,,,,
1645710437.635279,186.000000,0.000000,3508.333252,4204.487305,4217.307617,4280.128418,4251.794922,4226.538574,4218.717773,4217.307617,4217.563965,4195.128418,4213.205078,4171.922852,4209.743652,4250.769043,2367.000000,4.000000,86.000000,,,,0.000000,4.000000,4.000000,4.000000,4.000000,4.000000,4.000000,4.000000,2.000000,4.000000,4.000000,4.000000,4.000000,4.000000,4.000000,83.333336,,,,,,,,,,,,,,,,
1645710437.639219,187.000000,0.000000,3510.128174,4202.692383,4215.769043,4280.128418,4243.974121,4225.128418,4216.153809,4216.025879,4217.692383,4193.589844,4212.948730,4170.769043,4207.820313,4247.563965,2738.000000,4.000000,86.000000,,,,0.000000,4.000000,4.000000,4.000000,4.000000,4.000000,4.000000,4.000000,2.000000,4.000000,4.000000,4.000000,4.000000,4.000000,4.000000,83.333336,,,,,,,,,,,,,,,,
1645710437.643159,188.000000,0.000000,3515.512939,4197.692383,4214.102539,4279.615234,4238.333496,4220.384766,4212.948730,4215.384766,4216.794922,4193.205078,4209.743652,4170.128418,4207.820313,4245.128418,3034.000000,4.000000,86.000000,,,,0.000000,4.000000,4.000000,4.000000,4.000000,4.000000,4.000000,4.000000,2.000000,4.000000,4.000000,4.000000,4.000000,4.000000,4.000000,83.333336,,,,,,,,,,,,,,,,
1645710437.647099,189.000000,0.000000,3523.076904,4192.948730,4214.230957,4279.615234,4239.615234,4215.128418,4210.641113,4216.282227,4215.641113,4194.743652,4206.025879,4170.641113,4209.358887,4246.025879,3038.000000,4.000000,86.000000,,,,0.000000,4.000000,4.000000,4.000000,4.000000,4.000000,4.000000,4.000000,2.000000,4.000000,4.000000,4.000000,4.000000,4.000000,4.000000,83.333336,,,,,,,,,,,,,,,,
1645710437.651039,190.000000,0.000000,3529.871826,4191.410156,4215.897461,4280.384766,4247.051270,4212.436035,4209.487305,4217.820313,4214.743652,4196.538574,4204.615234,4171.794922,4211.538574,4249.487305,2367.000000,4.000000,86.000000,,,,0.000000,4.000000,4.000000,4.000000,4.000000,4.000000,4.000000,4.000000,2.000000,4.000000,4.000000,4.000000,4.000000,4.000000,4.000000,83.333336,,,,,,,,,,,,,,,,
1645710437.654979,191.000000,0.000000,3534.102539,4193.974121,4217.307617,4281.282227,4255.384766,4213.717773,4209.615234,4218.974121,4214.358887,4195.897461,4205.897461,4172.179688,4212.307617,4251.282227,2738.000000,4.000000,86.000000,,,,0.000000,4.000000,4.000000,4.000000,4.000000,4.000000,4.000000,4.000000,2.000000,4.000000,4.000000,4.000000,4.000000,4.000000,4.000000,83.333336,,,,,,,,,,,,,,,,
1645710437.658919,192.000000,0.000000,3536.538574,4198.461426,4216.794922,4281.153809,4259.102539,4217.692383,4211.153809,4219.615234,4214.358887,4191.922852,4207.820313,4171.538574,4210.641113,4248.589844,3034.000000,4.000000,86.000000,,,,0.000000,4.000000,4.000000,4.000000,4.000000,4.000000,4.000000,4.000000,2.000000,4.000000,4.000000,4.000000,4.000000,4.000000,4.000000,83.333336,,,,,,,,,,,,,,,,
1645710437.662959,193.000000,0.000000,3538.846191,4202.179688,4214.487305,4279.487305,4257.436035,4221.282227,4213.589844,4220.512695,4214.615234,4187.179688,4208.974121,4170.000000,4206.922852,4242.179688,3038.000000,4.000000,86.000000,,,,0.000000,4.000000,4.000000,4.000000,4.000000,4.000000,4.000000,4.000000,2.000000,4.000000,4.000000,4.000000,4.000000,4.000000,4.000000,83.333336,,,,,,,,,,,,,,,,
1645710437.666899,194.000000,0.000000,3541.923096,4203.461426,4212.307617,4277.563965,4253.974121,4222.179688,4216.410156,4221.538574,4215.512695,4186.025879,4210.000000,4169.358887,4203.846191,4236.794922,2367.000000,4.000000,86.000000,3,1,3,0.000000,4.000000,4.000000,4.000000,4.000000,4.000000,4.000000,4.000000,2.000000,4.000000,4.000000,4.000000,4.000000,4.000000,4.000000,83.333336,,,,,,,,,,,,,,,,
1645710437.670839,195.000000,0.000000,3546.025635,4202.051270,4211.538574,4276.410156,4252.307617,4220.384766,4217.948730,4221.922852,4216.794922,4190.641113,4212.563965,4170.641113,4204.358887,4236.410156,2738.000000,4.000000,86.000000,,,,0.000000,4.000000,4.000000,4.000000,4.000000,4.000000,4.000000,4.000000,2.000000,4.000000,4.000000,4.000000,4.000000,4.000000,4.000000,83.333336,,,,,,,,,,,,,,,,
1645710437.674779,196.000000,0.000000,3551.410156,4198.846191,4212.948730,4275.897461,4253.077148,4217.948730,4217.436035,4221.025879,4218.077148,4198.974121,4216.282227,4173.333496,4208.589844,4241.025879,3034.000000,4.000000,86.000000,,,,0.000000,4.000000,4.000000,4.000000,4.000000,4.000000,4.000000,4.000000,2.000000,4.000000,4.000000,4.000000,4.000000,4.000000,4.000000,83.333336,,,,,,,,,,,,,,,,
1645710437.678720,197.000000,0.000000,3557.820557,4195.897461,4215.384766,4275.512695,4254.487305,4216.794922,4214.871582,4219.743652,4218.589844,4206.538574,4219.487305,4175.256348,4213.717773,4246.794922,3038.000000,4.000000,86.000000,,,,0.000000,4.000000,4.000000,4.000000,4.000000,4.000000,4.000000,4.000000,2.000000,4.000000,4.000000,4.000000,4.000000,4.000000,4.000000,83.333336,,,,,,,,,,,,,,,,
1645710437.682660,198.000000,0.000000,3564.102539,4195.384766,4217.307617,4275.384766,4255.000000,4217.692383,4211.666504,4219.102539,4217.820313,4209.615234,4219.743652,4174.871582,4215.641113,4249.358887,2367.000000,4.000000,86.000000,,,,0.000000,4.000000,4.000000,4.000000,4.000000,4.000000,4.000000,4.000000,2.000000,4.000000,4.000000,4.000000,4.000000,4.000000,4.000000,83.333336,,,,,,,,,,,,,,,,
1645710437.686600,199.000000,0.000000,3568.846191,4198.461426,4217.692383,4276.025879,4255.384766,4219.358887,4209.615234,4218.717773,4216.666504,4207.307617,4216.794922,4173.077148,4212.948730,4247.563965,2738.000000,4.000000,86.000000,,,,0.000000,4.000000,4.000000,4.000000,4.000000,4.000000,4.000000,4.000000,2.000000,4.000000,4.000000,4.000000,4.000000,4.000000,4.000000,83.333336,,,,,,,,,,,,,,,,
1645710437.690540,200.000000,0.000000,3571.923096,4203.974121,4216.794922,4277.051270,4257.307617,4220.641113,4210.000000,4217.436035,4216.282227,4201.410156,4212.436035,4172.307617,4207.948730,4243.717773,3034.000000,4.000000,86.000000,,,,0.000000,4.000000,4.000000,4.000000,4.000000,4.000000,4.000000,4.000000,2.000000,4.000000,4.000000,4.000000,4.000000,4.000000,4.000000,83.333336,,,,,,,,,,,,,,,,
1645710437.694480,201.000000,0.000000,3575.000000,4208.333496,4216.025879,4277.436035,4260.769043,4220.128418,4211.538574,4215.256348,4217.179688,4194.871582,4209.102539,4174.102539,4204.358887,4241.282227,3038.000000,4.000000,86.000000,,,,0.000000,4.000000,4.000000,4.000000,4.000000,4.000000,4.000000,4.000000,2.000000,4.000000,4.000000,4.000000,4.000000,4.000000,4.000000,83.333336,,,,,,,,,,,,,,,,
1645710437.698420,202.000000,0.000000,3579.743652,4208.077148,4215.769043,4276.282227,4263.974121,4217.436035,4211.666504,4213.333496,4218.077148,4190.384766,4207.692383,4176.666504,4203.846191,4241.794922,2367.000000,4.000000,86.000000,,,,0.000000,4.000000,4.000000,4.000000,4.000000,4.000000,4.000000,4.000000,2.000000,4.000000,4.000000,4.000000,4.000000,4.000000,4.000000,83.333336,,,,,,,,,,,,,,,,
1645710437.702360,203.000000,0.000000,3586.025635,4201.794922,4215.512695,4274.230957,4264.230957,4212.948730,4208.974121,4213.205078,4218.077148,4188.717773,4207.820313,4177.563965,4205.897461,4243.974121,2738.000000,4.000000,86.000000,,,,0.000000,4.000000,4.000000,4.000000,4.000000,4.000000,4.000000,4.000000,2.000000,4.000000,4.000000,4.000000,4.000000,4.000000,4.000000,83.333336,,,,,,,,,,,,,,,,
1645710437.706300,204.000000,0.000000,3592.051270,4193.077148,4214.871582,4272.820313,4261.282227,4209.102539,4205.000000,4214.615234,4217.179688,4189.615234,4208.589844,4175.897461,4208.589844,4245.512695,3034.000000,4.000000,86.000000,,,,0.000000,4.000000,4.000000,4.000000,4.000000,4.000000,4.000000,4.000000,2.000000,4.000000,4.000000,4.000000,4.000000,4.000000,4.000000,83.333336,,,,,,,,,,,,,,,,
1645710437.710240,205.000000,0.000000,3595.769287,4187.307617,4213.717773,4272.436035,4257.820313,4208.077148,4203.461426,4216.538574,4216.922852,4192.692383,4209.487305,4174.358887,4210.384766,4244.743652,3038.000000,4.000000,86.000000,,,,0.000000,4.000000,4.000000,4.000000,4.000000,4.000000,4.000000,4.000000,2.000000,4.000000,4.000000,4.000000,4.000000,4.000000,4.000000,83.333336,,,,,,,,,,,,,,,,
1645710437.714181,206.000000,0.000000,3597.692383,4188.077148,4212.051270,4272.307617,4257.051270,4210.384766,4205.512695,4218.205078,4218.974121,4196.666504,4210.128418,4175.641113,4211.025879,4242.307617,2367.000000,4.000000,86.000000,,,,0.000000,4.000000,4.000000,4.000000,4.000000,4.000000,4.000000,4.000000,2.000000,4.000000,4.000000,4.000000,4.000000,4.000000,4.000000,83.333336,,,,,,,,,,,,,,,,
1645710437.718121,207.000000,0.000000,3600.000000,4193.974121,4210.128418,4271.666504,4259.743652,4213.974121,4209.230957,4218.846191,4222.692383,4200.000000,4210.641113,4180.000000,4211.538574,4239.871582,2738.000000,4.000000,86.000000,,,,0.000000,4.000000,4.000000,4.000000,4.000000,4.000000,4.000000,4.000000,2.000000,4.000000,4.000000,4.000000,4.000000,4.000000,4.000000,83.333336,,,,,,,,,,,,,,,,
1645710437.722061,208.000000,0.000000,3604.230713,4200.641113,4208.333496,4271.025879,4263.205078,4216.153809,4211.410156,4218.077148,4226.282227,4200.384766,4211.410156,4184.102539,4212.820313,4239.487305,3034.000000,4.000000,86.000000,,,,0.000000,4.000000,4.000000,4.000000,4.000000,4.000000,4.000000,4.000000,2.000000,4.000000,4.000000,4.000000,4.000000,4.000000,4.000000,83.333336,,,,,,,,,,,,,,,,
1645710437.726001,209.000000,0.000000,3609.487061,4203.461426,4207.436035,4271.538574,4264.615234,4216.153809,4210.641113,4216.153809,4227.179688,4197.051270,4212.563965,4184.871582,4215.769043,4241.282227,3038.000000,4.000000,86.000000,,,,0.000000,4.000000,4.000000,4.000000,4.000000,4.000000,4.000000,4.000000,2.000000,4.000000,4.000000,4.000000,4.000000,4.000000,4.000000,83.333336,,,,,,,,,,,,,,,,
1645710437.729941,210.000000,0.000000,3613.589844,4201.410156,4208.205078,4273.589844,4263.333496,4215.769043,4208.717773,4214.743652,4224.871582,4192.307617,4213.333496,4181.666504,4219.358887,4243.589844,2367.000000,4.000000,86.000000,,,,0.000000,4.000000,4.000000,4.000000,4.000000,4.000000,4.000000,4.000000,2.000000,4.000000,4.000000,4.000000,4.000000,4.000000,4.000000,83.333336,,,,,,,,,,,,,,,,
1645710437.733881,211.000000,0.000000,3615.897461,4196.538574,4210.384766,4276.794922,4260.897461,4216.922852,4209.102539,4215.512695,4220.512695,4189.358887,4212.820313,4176.794922,4221.794922,4245.256348,2738.000000,4.000000,86.000000,,,,0.000000,4.000000,4.000000,4.000000,4.000000,4.000000,4.000000,4.000000,2.000000,4.000000,4.000000,4.000000,4.000000,4.000000,4.000000,83.333336,,,,,,,,,,,,,,,,
1645710437.737921,212.000000,0.000000,3618.333252,4192.436035,4213.077148,4279.743652,4259.743652,4219.358887,4212.948730,4218.846191,4216.410156,4189.487305,4210.769043,4173.589844,4221.538574,4245.897461,3034.000000,4.000000,86.000000,,,,0.000000,4.000000,4.000000,4.000000,4.000000,4.000000,4.000000,4.000000,2.000000,4.000000,4.000000,4.000000,4.000000,4.000000,4.000000,83.333336,,,,,,,,,,,,,,,,
1645710437.741861,213.000000,0.000000,3622.564209,4191.282227,4214.743652,4281.282227,4261.282227,4221.282227,4218.333496,4222.436035,4214.743652,4191.025879,4208.974121,4173.205078,4218.974121,4246.025879,3038.000000,4.000000,86.000000,,,,0.000000,4.000000,4.000000,4.000000,4.000000,4.000000,4.000000,4.000000,2.000000,4.000000,4.000000,4.000000,4.000000,4.000000,4.000000,83.333336,,,,,,,,,,,,,,,,
1645710437.745801,214.000000,0.000000,3628.076904,4192.563965,4214.230957,4280.897461,4264.871582,4220.769043,4221.794922,4223.077148,4215.641113,4191.153809,4208.846191,4173.974121,4215.897461,4245.769043,2367.000000,4.000000,86.000000,,,,0.000000,4.000000,4.000000,4.000000,4.000000,4.000000,4.000000,4.000000,2.000000,4.000000,4.000000,4.000000,4.000000,4.000000,4.000000,83.333336,,,,,,,,,,,,,,,,
1645710437.749741,215.000000,0.000000,3632.307617,4194.102539,4211.538574,4278.333496,4268.205078,4217.820313,4221.025879,4219.871582,4217.820313,4188.589844,4210.897461,4173.717773,4214.487305,4245.256348,2738.000000,4.000000,86.000000,,,,0.000000,4.000000,4.000000,4.000000,4.000000,4.000000,4.000000,4.000000,2.000000,4.000000,4.000000,4.000000,4.000000,4.000000,4.000000,83.333336,,,,,,,,,,,,,,,,
1645710437.753681,216.000000,0.000000,3634.102539,4193.846191,4207.948730,4273.974121,4268.717773,4213.461426,4216.282227,4214.743652,4218.974121,4184.615234,4213.205078,4172.051270,4215.256348,4244.487305,3034.000000,4.000000,86.000000,,,,0.000000,4.000000,4.000000,4.000000,4.000000,4.000000,4.000000,4.000000,2.000000,4.000000,4.000000,4.000000,4.000000,4.000000,4.000000,83.333336,,,,,,,,,,,,,,,,
1645710437.757622,217.000000,0.000000,3634.871826,4191.538574,4205.128418,4269.615234,4264.871582,4209.102539,4210.384766,4211.153809,4217.948730,4182.692383,4214.102539,4170.256348,4217.051270,4243.077148,3038.000000,4.000000,86.000000,,,,0.000000,4.000000,4.000000,4.000000,4.000000,4.000000,4.000000,4.000000,2.000000,4.000000,4.000000,4.000000,4.000000,4.000000,4.000000,83.333336,,,,,,,,,,,,,,,,
1645710437.761562,218.000000,0.000000,3637.179443,4188.333496,4203.461426,4266.666504,4258.589844,4206.538574,4206.794922,4210.512695,4215.256348,4185.000000,4212.948730,4169.615234,4218.717773,4241.153809,2367.000000,4.000000,86.000000,,,,0.000000,4.000000,4.000000,4.000000,4.000000,4.000000,4.000000,4.000000,2.000000,4.000000,4.000000,4.000000,4.000000,4.000000,4.000000,83.333336,,,,,,,,,,,,,,,,
1645710437.765502,219.000000,0.000000,3641.538574,4186.538574,4202.563965,4266.538574,4254.743652,4207.179688,4207.563965,4211.538574,4212.820313,4191.153809,4211.025879,4170.384766,4219.743652,4239.102539,2738.000000,4.000000,86.000000,,,,0.000000,4.000000,4.000000,4.000000,4.000000,4.000000,4.000000,4.000000,2.000000,4.000000,4.000000,4.000000,4.000000,4.000000,4.000000,83.333336,,,,,,,,,,,,,,,,
1645710437.769442,220.000000,0.000000,3646.538574,4187.692383,4202.179688,4268.333496,4257.436035,4210.897461,4211.153809,4212.179688,4212.307617,4198.333496,4209.871582,4170.512695,4220.641113,4237.307617,3034.000000,4.000000,86.000000,,,,0.000000,4.000000,4.000000,4.000000,4.000000,4.000000,4.000000,4.000000,2.000000,4.000000,4.000000,4.000000,4.000000,4.000000,4.000000,83.333336,,,,,,,,,,,,,,,,
1645710437.773382,221.000000,0.000000,3650.641113,4190.512695,4202.179688,4270.512695,4265.769043,4215.128418,4214.230957,4211.794922,4214.102539,4202.692383,4210.128418,4167.948730,4221.410156,4236.410156,3038.000000,4.000000,86.000000,,,,0.000000,4.000000,4.000000,4.000000,4.000000,4.000000,4.000000,4.000000,2.000000,4.000000,4.000000,4.000000,4.000000,4.000000,4.000000,83.333336,,,,,,,,,,,,,,,,
1645710437.777322,222.000000,0.000000,3654.230713,4192.436035,4203.077148,4272.692383,4274.230957,4216.794922,4214.358887,4211.410156,4216.922852,4201.410156,4210.384766,4162.948730,4221.153809,4236.794922,2367.000000,4.000000,86.000000,,,,0.000000,4.000000,4.000000,4.000000,4.000000,4.000000,4.000000,4.000000,2.000000,4.000000,4.000000,4.000000,4.000000,4.000000,4.000000,83.333336,,,,,,,,,,,,,,,,
1645710437.781262,223.000000,0.000000,3658.333252,4191.794922,4205.256348,4275.000000,4277.179688,4215.256348,4212.051270,4212.179688,4218.589844,4195.512695,4209.230957,4158.461426,4219.615234,4238.846191,2738.000000,4.000000,86.000000,,,,0.000000,4.000000,4.000000,4.000000,4.000000,4.000000,4.000000,4.000000,2.000000,4.000000,4.000000,4.000000,4.000000,4.000000,4.000000,83.333336,,,,,,,,,,,,,,,,
1645710437.785202,224.000000,0.000000,3662.564209,4189.358887,4208.461426,4277.307617,4273.461426,4212.820313,4210.128418,4213.717773,4218.461426,4189.487305,4207.179688,4157.692383,4217.436035,4242.051270,3034.000000,4.000000,86.000000,,,,0.000000,4.000000,4.000000,4.000000,4.000000,4.000000,4.000000,4.000000,2.000000,4.000000,4.000000,4.000000,4.000000,4.000000,4.000000,83.333336,,,,,,,,,,,,,,,,
1645710437.789142,225.000000,0.000000,3666.153809,4188.205078,4211.922852,4278.974121,4267.436035,4212.948730,4210.256348,4214.871582,4217.179688,4188.333496,4206.538574,4161.794922,4216.282227,4244.871582,3038.000000,4.000000,86.000000,,,,0.000000,4.000000,4.000000,4.000000,4.000000,4.000000,4.000000,4.000000,2.000000,4.000000,4.000000,4.000000,4.000000,4.000000,4.000000,83.333336,,,,,,,,,,,,,,,,
1645710437.793083,226.000000,0.000000,3669.615479,4190.769043,4214.743652,4279.102539,4263.974121,4216.410156,4212.307617,4215.000000,4216.666504,4193.333496,4208.589844,4168.461426,4217.051270,4246.794922,2367.000000,4.000000,86.000000,,,,0.000000,4.000000,4.000000,4.000000,4.000000,4.000000,4.000000,4.000000,2.000000,4.000000,4.000000,4.000000,4.000000,4.000000,4.000000,83.333336,,,,,,,,,,,,,,,,
1645710437.797023,227.000000,0.000000,3675.000000,4196.538574,4217.692383,4278.461426,4264.615234,4220.897461,4214.615234,4214.487305,4217.820313,4200.769043,4212.692383,4174.102539,4218.974121,4247.692383,2738.000000,4.000000,86.000000,,,,0.000000,4.000000,4.000000,4.000000,4.000000,4.000000,4.000000,4.000000,2.000000,4.000000,4.000000,4.000000,4.000000,4.000000,4.000000,83.333336,,,,,,,,,,,,,,,,
1645710437.800963,228.000000,0.000000,3683.333252,4202.436035,4221.282227,4278.461426,4267.051270,4223.333496,4216.025879,4214.871582,4219.743652,4205.256348,4216.153809,4176.282227,4220.641113,4248.205078,3034.000000,4.000000,86.000000,,,,0.000000,4.000000,4.000000,4.000000,4.000000,4.000000,4.000000,4.000000,2.000000,4.000000,4.000000,4.000000,4.000000,4.000000,4.000000,83.333336,,,,,,,,,,,,,,,,
1645710437.804903,229.000000,0.000000,3691.923096,4205.384766,4225.641113,4280.641113,4268.461426,4222.179688,4216.282227,4216.922852,4221.025879,4204.615234,4217.307617,4175.128418,4221.025879,4248.461426,3038.000000,4.000000,86.000000,,,,0.000000,4.000000,4.000000,4.000000,4.000000,4.000000,4.000000,4.000000,2.000000,4.000000,4.000000,4.000000,4.000000,4.000000,4.000000,83.333336,,,,,,,,,,,,,,,,
1645710437.808943,230.000000,0.000000,3697.307617,4204.230957,4229.102539,4284.487305,4267.436035,4218.717773,4215.384766,4219.358887,4221.025879,4200.897461,4216.538574,4171.794922,4219.871582,4247.820313,2367.000000,4.000000,86.000000,,,,0.000000,4.000000,4.000000,4.000000,4.000000,4.000000,4.000000,4.000000,2.000000,4.000000,4.000000,4.000000,4.000000,4.000000,4.000000,83.333336,,,,,,,,,,,,,,,,
1645710437.812883,231.000000,0.000000,3698.461426,4200.512695,4229.743652,4288.846191,4265.256348,4214.487305,4213.333496,4219.615234,4220.641113,4197.307617,4215.769043,4168.461426,4217.692383,4246.410156,2738.000000,4.000000,86.000000,,,,0.000000,4.000000,4.000000,4.000000,4.000000,4.000000,4.000000,4.000000,2.000000,4.000000,4.000000,4.000000,4.000000,4.000000,4.000000,83.333336,,,,,,,,,,,,,,,,
1645710437.816823,232.000000,0.000000,3698.333252,4196.538574,4226.922852,4291.282227,4263.461426,4210.512695,4211.153809,4216.922852,4220.641113,4195.384766,4215.769043,4166.666504,4215.000000,4245.128418,3034.000000,4.000000,86.000000,,,,0.000000,4.000000,4.000000,4.000000,4.000000,4.000000,4.000000,4.000000,2.000000,4.000000,4.000000,4.000000,4.000000,4.000000,4.000000,83.333336,,,,,,,,,,,,,,,,
1645710437.820763,233.000000,0.000000,3699.871826,4193.717773,4222.179688,4290.128418,4262.307617,4207.948730,4210.512695,4213.077148,4220.769043,4194.743652,4215.769043,4166.794922,4212.563965,4244.358887,3038.000000,4.000000,86.000000,,,,0.000000,4.000000,4.000000,4.000000,4.000000,4.000000,4.000000,4.000000,2.000000,4.000000,4.000000,4.000000,4.000000,4.000000,4.000000,83.333336,,,,,,,,,,,,,,,,
1645710437.824703,234.000000,0.000000,3703.205078,4192.563965,4218.077148,4285.897461,4261.153809,4208.333496,4212.563965,4211.538574,4220.769043,4194.615234,4215.256348,4167.692383,4211.410156,4244.743652,2367.000000,4.000000,86.000000,,,,0.000000,4.000000,4.000000,4.000000,4.000000,4.000000,4.000000,4.000000,2.000000,4.000000,4.000000,4.000000,4.000000,4.000000,4.000000,83.333336,,,,,,,,,,,,,,,,
1645710437.828643,235.000000,0.000000,3706.025635,4193.205078,4217.179688,4280.641113,4259.358887,4212.051270,4216.153809,4213.846191,4220.897461,4195.512695,4214.871582,4168.333496,4212.436035,4245.641113,2738.000000,4.000000,86.000000,,,,0.000000,4.000000,4.000000,4.000000,4.000000,4.000000,4.000000,4.000000,2.000000,4.000000,4.000000,4.000000,4.000000,4.000000,4.000000,83.333336,,,,,,,,,,,,,,,,
1645710437.832583,236.000000,0.000000,3707.564209,4195.256348,4219.871582,4276.922852,4257.820313,4217.307617,4218.974121,4218.974121,4222.307617,4198.205078,4216.282227,4168.846191,4215.769043,4246.794922,3034.000000,4.000000,86.000000,,,,0.000000,4.000000,4.000000,4.000000,4.000000,4.000000,4.000000,4.000000,2.000000,4.000000,4.000000,4.000000,4.000000,4.000000,4.000000,83.333336,,,,,,,,,,,,,,,,
1645710437.836524,237.000000,0.000000,3710.128174,4198.333496,4224.230957,4275.384766,4257.820313,4221.282227,4219.230957,4223.974121,4225.384766,4202.051270,4220.128418,4170.512695,4220.000000,4247.948730,3038.000000,4.000000,86.000000,,,,0.000000,4.000000,4.000000,4.000000,4.000000,4.000000,4.000000,4.000000,2.000000,4.000000,4.000000,4.000000,4.000000,4.000000,4.000000,83.333336,,,,,,,,,,,,,,,,
1645710437.840464,238.000000,0.000000,3716.025635,4201.538574,4227.948730,4275.897461,4259.102539,4221.922852,4217.307617,4226.666504,4228.974121,4205.897461,4225.000000,4173.846191,4223.461426,4249.871582,2367.000000,4.000000,86.000000,,,,0.000000,4.000000,4.000000,4.000000,4.000000,4.000000,4.000000,4.000000,2.000000,4.000000,4.000000,4.000000,4.000000,4.000000,4.000000,83.333336,,,,,,,,,,,,,,,,
1645710437.844404,239.000000,0.000000,3724.358887,4203.974121,4229.102539,4278.077148,4261.025879,4220.384766,4215.384766,4226.410156,4231.153809,4209.230957,4228.846191,4178.205078,4225.256348,4253.205078,2738.000000,4.000000,86.000000,,,,0.000000,4.000000,4.000000,4.000000,4.000000,4.000000,4.000000,4.000000,2.000000,4.000000,4.000000,4.000000,4.000000,4.000000,4.000000,83.333336,,,,,,,,,,,,,,,,
1645710437.848344,240.000000,0.000000,3731.410156,4204.743652,4227.307617,4281.410156,4262.563965,4219.102539,4215.256348,4224.230957,4230.641113,4212.307617,4230.641113,4181.922852,4226.025879,4257.436035,3034.000000,4.000000,86.000000,,,,0.000000,4.000000,4.000000,4.000000,4.000000,4.000000,4.000000,4.000000,2.000000,4.000000,4.000000,4.000000,4.000000,4.000000,4.000000,83.333336,,,,,,,,,,,,,,,,
1645710437.852284,241.000000,0.000000,3734.358887,4203.461426,4223.717773,4284.358887,4263.333496,4219.487305,4216.922852,4221.922852,4228.077148,4215.256348,4230.769043,4183.589844,4226.153809,4261.153809,3038.000000,4.000000,86.000000,,,,0.000000,4.000000,4.000000,4.000000,4.000000,4.000000,4.000000,4.000000,2.000000,4.000000,4.000000,4.000000,4.000000,4.000000,4.000000,83.333336,,,,,,,,,,,,,,,,
1645710437.856224,242.000000,0.000000,3734.358887,4200.128418,4220.000000,4285.256348,4263.333496,4221.153809,4219.230957,4221.153809,4225.512695,4216.922852,4230.000000,4182.948730,4225.897461,4262.563965,2367.000000,4.000000,86.000000,,,,0.000000,4.000000,4.000000,4.000000,4.000000,4.000000,4.000000,4.000000,2.000000,4.000000,4.000000,4.000000,4.000000,4.000000,4.000000,83.333336,,,,,,,,,,,,,,,,
1645710437.860164,243.000000,0.000000,3734.743652,4195.897461,4217.563965,4283.205078,4262.179688,4222.692383,4220.897461,4222.179688,4224.487305,4216.282227,4228.461426,4180.384766,4225.256348,4260.769043,2738.000000,4.000000,86.000000,,,,0.000000,4.000000,4.000000,4.000000,4.000000,4.000000,4.000000,4.000000,2.000000,4.000000,4.000000,4.000000,4.000000,4.000000,4.000000,83.333336,,,,,,,,,,,,,,,,
1645710437.864104,244.000000,0.000000,3737.435791,4193.461426,4217.051270,4280.128418,4260.256348,4223.589844,4221.282227,4223.974121,4225.641113,4213.717773,4226.794922,4177.307617,4224.743652,4256.282227,3034.000000,4.000000,86.000000,,,,0.000000,4.000000,4.000000,4.000000,4.000000,4.000000,4.000000,4.000000,2.000000,4.000000,4.000000,4.000000,4.000000,4.000000,4.000000,83.333336,,,,,,,,,,,,,,,,
1645710437.868044,245.000000,0.000000,3741.410156,4194.487305,4218.077148,4279.230957,4258.205078,4223.974121,4220.769043,4224.871582,4228.717773,4211.538574,4226.153809,4175.256348,4225.384766,4250.641113,3038.000000,4.000000,86.000000,,,,0.000000,4.000000,4.000000,4.000000,4.000000,4.000000,4.000000,4.000000,2.000000,4.000000,4.000000,4.000000,4.000000,4.000000,4.000000,83.333336,,,,,,,,,,,,,,,,
1645710437.871985,246.000000,0.000000,3744.743652,4198.077148,4218.846191,4282.179688,4256.922852,4224.487305,4219.487305,4223.974121,4232.563965,4211.153809,4227.307617,4175.128418,4228.077148,4246.922852,2367.000000,4.000000,86.000000,,,,0.000000,4.000000,4.000000,4.000000,4.000000,4.000000,4.000000,4.000000,2.000000,4.000000,4.000000,4.000000,4.000000,4.000000,4.000000,83.333336,,,,,,,,,,,,,,,,
1645710437.875925,247.000000,0.000000,3747.307617,4201.282227,4218.205078,4286.794922,4256.282227,4224.615234,4218.333496,4222.051270,4235.128418,4212.436035,4229.487305,4176.410156,4231.922852,4246.666504,2738.000000,4.000000,86.000000,,,,0.000000,4.000000,4.000000,4.000000,4.000000,4.000000,4.000000,4.000000,2.000000,4.000000,4.000000,4.000000,4.000000,4.000000,4.000000,83.333336,,,,,,,,,,,,,,,,
1645710437.879865,248.000000,0.000000,3750.128174,4201.025879,4216.282227,4289.358887,4256.025879,4223.974121,4217.051270,4220.769043,4234.615234,4213.846191,4231.025879,4177.948730,4235.384766,4250.128418,3034.000000,4.000000,86.000000,,,,0.000000,4.000000,4.000000,4.000000,4.000000,4.000000,4.000000,4.000000,2.000000,4.000000,4.000000,4.000000,4.000000,4.000000,4.000000,83.333336,,,,,,,,,,,,,,,,
1645710437.883905,249.000000,0.000000,3753.846191,4197.436035,4214.615234,4287.692383,4256.153809,4222.948730,4215.641113,4220.769043,4231.410156,4214.487305,4231.025879,4178.717773,4236.794922,4255.384766,3038.000000,4.000000,86.000000,,,,0.000000,4.000000,4.000000,4.000000,4.000000,4.000000,4.000000,4.000000,4.000000,4.000000,4.000000,4.000000,4.000000,4.000000,4.000000,100.000000,,,,,,,,,,,,,,,,
1645710437.887845,250.000000,0.000000,3757.435791,4193.717773,4214.743652,4283.717773,4257.051270,4222.563965,4214.358887,4221.025879,4227.307617,4214.487305,4229.871582,4178.974121,4235.897461,4260.128418,2367.000000,4.000000,86.000000,,,,0.000000,4.000000,4.000000,4.000000,4.000000,4.000000,4.000000,4.000000,4.000000,4.000000,4.000000,4.000000,4.000000,4.000000,4.000000,100.000000,,,,,,,,,,,,,,,,
1645710437.891785,251.000000,0.000000,3760.128174,4192.820313,4216.538574,4281.025879,4258.974121,4223.461426,4214.743652,4220.769043,4224.487305,4214.230957,4228.717773,4179.743652,4233.846191,4262.948730,2738.000000,4.000000,86.000000,,,,0.000000,4.000000,4.000000,4.000000,4.000000,4.000000,4.000000,4.000000,4.000000,4.000000,4.000000,4.000000,4.000000,4.000000,4.000000,100.000000,,,,,,,,,,,,,,,,
1645710437.895725,252.000000,0.000000,3762.564209,4195.000000,4218.846191,4281.153809,4260.769043,4224.871582,4217.436035,4220.000000,4223.717773,4213.589844,4228.333496,4181.153809,4231.794922,4263.461426,3034.000000,4.000000,86.000000,,,,0.000000,4.000000,4.000000,4.000000,4.000000,4.000000,4.000000,4.000000,4.000000,4.000000,4.000000,4.000000,4.000000,4.000000,4.000000,100.000000,,,,,,,,,,,,,,,,
1645710437.899665,253.000000,0.000000,3766.153809,4197.563965,4219.871582,4282.436035,4260.256348,4225.256348,4221.410156,4219.743652,4224.487305,4211.794922,4228.461426,4181.922852,4230.641113,4262.051270,3038.000000,4.000000,86.000000,,,,0.000000,4.000000,4.000000,4.000000,4.000000,4.000000,4.000000,4.000000,4.000000,4.000000,4.000000,4.000000,4.000000,4.000000,4.000000,100.000000,,,,,,,,,,,,,,,,
1645710437.903605,254.000000,0.000000,3771.153809,4197.563965,4219.358887,4283.461426,4257.051270,4224.487305,4224.487305,4220.512695,4226.153809,4209.487305,4228.589844,4180.769043,4230.384766,4259.615234,2367.000000,4.000000,86.000000,,,,0.000000,4.000000,4.000000,4.000000,4.000000,4.000000,4.000000,4.000000,4.000000,4.000000,4.000000,4.000000,4.000000,4.000000,4.000000,100.000000,,,,,,,,,,,,,,,,
1645710437.907545,255.000000,0.000000,3775.897461,4195.128418,4218.333496,4284.743652,4253.846191,4223.461426,4225.769043,4221.922852,4228.077148,4208.205078,4228.717773,4178.589844,4230.384766,4257.051270,113.000000,4.000000,86.000000,,,,0.000000,4.000000,4.000000,4.000000,4.000000,4.000000,4.000000,4.000000,4.000000,4.000000,4.000000,4.000000,4.000000,4.000000,4.000000,100.000000,,,,,,,,,,,,,,,,
1645710437.911485,0.000000,0.000000,3779.615479,4192.692383,4217.820313,4287.563965,4253.846191,4223.974121,4225.641113,4223.077148,4230.128418,4209.487305,4228.717773,4177.948730,4229.743652,4254.871582,3289.000000,4.000000,86.000000,,,,0.000000,4.000000,4.000000,4.000000,4.000000,4.000000,4.000000,4.000000,4.000000,4.000000,4.000000,4.000000,4.000000,4.000000,4.000000,100.000000,,,,,,,,,,,,,,,,
1645710437.915426,1.000000,0.000000,3782.820557,4192.307617,4218.205078,4290.256348,4257.051270,4225.769043,4224.743652,4223.974121,4231.538574,4213.077148,4228.205078,4179.615234,4228.205078,4253.077148,3397.000000,4.000000,86.000000,,,,0.000000,4.000000,4.000000,4.000000,4.000000,4.000000,4.000000,4.000000,4.000000,4.000000,4.000000,4.000000,4.000000,4.000000,4.000000,100.000000,,,,,,,,,,,,,,,,
1645710437.919366,2.000000,0.000000,3786.410156,4193.589844,4218.589844,4289.487305,4259.743652,4227.307617,4223.461426,4224.743652,4231.538574,4216.153809,4226.794922,4182.179688,4225.897461,4251.410156,2284.000000,4.000000,86.000000,,,,0.000000,4.000000,4.000000,4.000000,4.000000,4.000000,4.000000,4.000000,4.000000,4.000000,4.000000,4.000000,4.000000,4.000000,4.000000,100.000000,,,,,,,,,,,,,,,,
1645710437.923306,3.000000,0.000000,3790.384521,4195.128418,4218.205078,4283.589844,4258.974121,4227.436035,4222.179688,4225.256348,4229.871582,4216.922852,4224.615234,4182.820313,4223.974121,4250.641113,3569.000000,4.000000,86.000000,,,,0.000000,4.000000,4.000000,4.000000,4.000000,4.000000,4.000000,4.000000,4.000000,4.000000,4.000000,4.000000,4.000000,4.000000,4.000000,100.000000,,,,,,,,,,,,,,,,
1645710437.927246,4.000000,0.000000,3793.589844,4196.666504,4217.948730,4275.384766,4255.512695,4226.922852,4222.051270,4224.615234,4226.666504,4215.384766,4223.333496,4181.025879,4224.102539,4251.666504,3530.000000,4.000000,86.000000,,,,0.000000,4.000000,4.000000,4.000000,4.000000,4.000000,4.000000,4.000000,4.000000,4.000000,4.000000,4.000000,4.000000,4.000000,4.000000,100.000000,,,,,,,,,,,,,,,,
1645710437.931186,5.000000,0.000000,3796.281982,4198.333496,4219.230957,4270.512695,4252.820313,4227.692383,4223.717773,4222.307617,4223.846191,4213.974121,4224.358887,4178.589844,4227.692383,4255.128418,3386.000000,4.000000,86.000000,,,,0.000000,4.000000,4.000000,4.000000,4.000000,4.000000,4.000000,4.000000,4.000000,4.000000,4.000000,4.000000,4.000000,4.000000,4.000000,100.000000,,,,,,,,,,,,,,,,
1645710437.935126,6.000000,0.000000,3799.743652,4200.384766,4222.820313,4272.179688,4252.820313,4230.256348,4226.538574,4220.000000,4223.205078,4214.871582,4228.077148,4177.563965,4233.846191,4259.743652,3462.000000,4.000000,86.000000,,,,0.000000,4.000000,4.000000,4.000000,4.000000,4.000000,4.000000,4.000000,4.000000,4.000000,4.000000,4.000000,4.000000,4.000000,4.000000,100.000000,,,,,,,,,,,,,,,,
1645710437.939066,7.000000,0.000000,3805.256348,4201.922852,4227.436035,4278.589844,4254.487305,4232.948730,4228.974121,4220.000000,4225.512695,4218.333496,4232.692383,4178.461426,4238.846191,4263.077148,1235.000000,4.000000,86.000000,,,,0.000000,4.000000,4.000000,4.000000,4.000000,4.000000,4.000000,4.000000,4.000000,4.000000,4.000000,4.000000,4.000000,4.000000,4.000000,100.000000,,,,,,,,,,,,,,,,
1645710437.943006,8.000000,0.000000,3811.538574,4201.922852,4230.128418,4284.743652,4255.769043,4233.717773,4230.256348,4222.692383,4229.487305,4222.563965,4236.666504,4180.000000,4239.358887,4262.820313,1596.000000,4.000000,86.000000,,,,0.000000,4.000000,4.000000,4.000000,4.000000,4.000000,4.000000,4.000000,4.000000,4.000000,4.000000,4.000000,4.000000,4.000000,4.000000,100.000000,,,,,,,,,,,,,,,,
1645710437.946946,9.000000,0.000000,3815.641113,4200.384766,4229.102539,4287.051270,4256.538574,4232.307617,4230.512695,4225.384766,4232.820313,4224.743652,4238.846191,4180.512695,4235.256348,4258.846191,3043.000000,4.000000,86.000000,,,,0.000000,4.000000,4.000000,4.000000,4.000000,4.000000,4.000000,4.000000,4.000000,4.000000,4.000000,4.000000,4.000000,4.000000,4.000000,100.000000,,,,,,,,,,,,,,,,
1645710437.950887,10.000000,0.000000,3815.128174,4198.333496,4223.846191,4285.128418,4257.307617,4230.256348,4230.384766,4224.358887,4232.692383,4222.692383,4238.974121,4179.230957,4229.871582,4252.820313,2566.000000,4.000000,86.000000,,,,0.000000,4.000000,4.000000,4.000000,4.000000,4.000000,4.000000,4.000000,4.000000,4.000000,4.000000,4.000000,4.000000,4.000000,4.000000,100.000000,,,,,,,,,,,,,,,,
1645710437.954927,11.000000,0.000000,3811.923096,4196.666504,4216.410156,4281.666504,4257.692383,4229.358887,4229.743652,4218.974121,4228.846191,4215.769043,4236.666504,4176.794922,4226.794922,4247.436035,2739.000000,4.000000,86.000000,,,,0.000000,4.000000,4.000000,4.000000,4.000000,4.000000,4.000000,4.000000,4.000000,4.000000,4.000000,4.000000,4.000000,4.000000,4.000000,100.000000,,,,,,,,,,,,,,,,
1645710437.958867,12.000000,0.000000,3810.641113,4195.512695,4210.256348,4278.846191,4256.538574,4229.871582,4227.307617,4212.436035,4223.589844,4206.666504,4232.051270,4174.230957,4227.563965,4245.384766,3170.000000,4.000000,86.000000,,,,0.000000,4.000000,4.000000,4.000000,4.000000,4.000000,4.000000,4.000000,4.000000,4.000000,4.000000,4.000000,4.000000,4.000000,4.000000,100.000000,,,,,,,,,,,,,,,,
1645710437.962807,13.000000,0.000000,3814.230713,4195.256348,4208.461426,4276.794922,4253.846191,4231.025879,4223.589844,4209.615234,4221.538574,4200.641113,4227.307617,4173.974121,4230.897461,4247.692383,3046.000000,4.000000,86.000000,,,,0.000000,4.000000,4.000000,4.000000,4.000000,4.000000,4.000000,4.000000,4.000000,4.000000,4.000000,4.000000,4.000000,4.000000,4.000000,100.000000,,,,,,,,,,,,,,,,
1645710437.966747,14.000000,0.000000,3821.666748,4195.641113,4211.922852,4274.871582,4251.538574,4232.051270,4221.025879,4212.051270,4225.128418,4202.948730,4226.538574,4177.820313,4235.256348,4254.102539,2566.000000,4.000000,86.000000,,,,0.000000,4.000000,4.000000,4.000000,4.000000,4.000000,4.000000,4.000000,4.000000,4.000000,4.000000,4.000000,4.000000,4.000000,4.000000,100.000000,,,,,,,,,,,,,,,,
1645710437.970687,15.000000,0.000000,3828.974365,4196.922852,4218.077148,4273.461426,4251.666504,4232.051270,4221.922852,4217.948730,4232.563965,4214.487305,4232.436035,4185.256348,4239.743652,4261.922852,2739.000000,4.000000,86.000000,,,,0.000000,4.000000,4.000000,4.000000,4.000000,4.000000,4.000000,4.000000,4.000000,4.000000,4.000000,4.000000,4.000000,4.000000,4.000000,100.000000,,,,,,,,,,,,,,,,
1645710437.974627,16.000000,0.000000,3833.589844,4198.461426,4222.692383,4273.077148,4253.589844,4230.256348,4224.871582,4222.820313,4238.717773,4229.871582,4243.077148,4193.077148,4243.333496,4267.179688,3170.000000,4.000000,86.000000,,,,0.000000,4.000000,4.000000,4.000000,4.000000,4.000000,4.000000,4.000000,4.000000,4.000000,4.000000,4.000000,4.000000,4.000000,4.000000,100.000000,,,,,,,,,,,,,,,,
1645710437.978567,17.000000,0.000000,3836.025635,4199.230957,4223.333496,4273.589844,4254.102539,4226.410156,4226.922852,4223.974121,4239.358887,4240.000000,4252.692383,4197.307617,4245.000000,4267.179688,3046.000000,4.000000,86.000000,,,,0.000000,4.000000,4.000000,4.000000,4.000000,4.000000,4.000000,4.000000,4.000000,4.000000,4.000000,4.000000,4.000000,4.000000,4.000000,100.000000,,,,,,,,,,,,,,,,
1645710437.982507,18.000000,0.000000,3838.718018,4199.487305,4221.282227,4274.871582,4251.282227,4222.307617,4226.153809,4221.025879,4235.128418,4239.358887,4256.025879,4197.051270,4243.717773,4263.333496,2566.000000,4.000000,86.000000,,,,0.000000,4.000000,4.000000,4.000000,4.000000,4.000000,4.000000,4.000000,4.000000,4.000000,4.000000,4.000000,4.000000,4.000000,4.000000,100.000000,,,,,,,,,,,,,,,,
1645710437.986447,19.000000,0.000000,3843.076904,4200.384766,4220.256348,4276.410156,4246.538574,4220.641113,4223.717773,4216.025879,4230.256348,4230.769043,4252.948730,4194.871582,4240.256348,4259.743652,2739.000000,4.000000,86.000000,,,,0.000000,4.000000,4.000000,4.000000,4.000000,4.000000,4.000000,4.000000,4.000000,4.000000,4.000000,4.000000,4.000000,4.000000,4.000000,100.000000,,,,,,,,,,,,,,,,
1645710437.990387,20.000000,0.000000,3848.718018,4202.820313,4223.077148,4278.333496,4243.461426,4223.461426,4221.922852,4212.051270,4228.589844,4222.563965,4248.333496,4193.974121,4237.307617,4259.487305,3170.000000,4.000000,86.000000,,,,0.000000,4.000000,4.000000,4.000000,4.000000,4.000000,4.000000,4.000000,4.000000,4.000000,4.000000,4.000000,4.000000,4.000000,4.000000,100.000000,,,,,,,,,,,,,,,,
1645710437.994328,21.000000,0.000000,3854.487061,4205.641113,4229.102539,4279.871582,4243.589844,4229.102539,4222.820313,4211.666504,4230.512695,4220.512695,4246.794922,4195.512695,4236.538574,4262.436035,3046.000000,4.000000,86.000000,,,,0.000000,4.000000,4.000000,4.000000,4.000000,4.000000,4.000000,4.000000,4.000000,4.000000,4.000000,4.000000,4.000000,4.000000,4.000000,100.000000,,,,,,,,,,,,,,,,
1645710437.998268,22.000000,0.000000,3859.743652,4206.922852,4234.487305,4280.256348,4246.410156,4234.102539,4226.666504,4215.128418,4233.461426,4224.487305,4249.102539,4198.589844,4237.820313,4265.384766,2566.000000,4.000000,86.000000,,,,0.000000,4.000000,4.000000,4.000000,4.000000,4.000000,4.000000,4.000000,4.000000,4.000000,4.000000,4.000000,4.000000,4.000000,4.000000,100.000000,,,,,,,,,,,,,,,,
1645710438.002208,23.000000,0.000000,3863.974365,4206.410156,4236.538574,4279.871582,4250.512695,4235.641113,4231.922852,4220.512695,4235.000000,4229.615234,4252.436035,4201.794922,4239.615234,4266.025879,2739.000000,4.000000,86.000000,,,,0.000000,4.000000,4.000000,4.000000,4.000000,4.000000,4.000000,4.000000,4.000000,4.000000,4.000000,4.000000,4.000000,4.000000,4.000000,100.000000,,,,,,,,,,,,,,,,
1645710438.006148,24.000000,0.000000,3866.666748,4205.000000,4235.641113,4279.487305,4255.000000,4233.717773,4236.410156,4224.102539,4234.615234,4232.179688,4253.846191,4203.717773,4241.025879,4263.717773,3170.000000,4.000000,86.000000,,,,0.000000,4.000000,4.000000,4.000000,4.000000,4.000000,4.000000,4.000000,4.000000,4.000000,4.000000,4.000000,4.000000,4.000000,4.000000,100.000000,,,,,,,,,,,,,,,,
1645710438.010088,25.000000,0.000000,3867.179443,4203.461426,4233.589844,4279.487305,4258.205078,4230.641113,4238.077148,4224.358887,4233.461426,4231.282227,4252.436035,4203.205078,4241.538574,4258.846191,3046.000000,4.000000,86.000000,,,,0.000000,4.000000,4.000000,4.000000,4.000000,4.000000,4.000000,4.000000,4.000000,4.000000,4.000000,4.000000,4.000000,4.000000,4.000000,100.000000,,,,,,,,,,,,,,,,
1645710438.014028,26.000000,0.000000,3866.410156,4201.410156,4231.922852,4279.615234,4257.051270,4228.717773,4236.153809,4222.179688,4232.948730,4228.461426,4249.102539,4199.487305,4240.641113,4252.051270,2566.000000,4.000000,86.000000,,,,0.000000,4.000000,4.000000,4.000000,4.000000,4.000000,4.000000,4.000000,4.000000,4.000000,4.000000,4.000000,4.000000,4.000000,4.000000,100.000000,,,,,,,,,,,,,,,,
1645710438.017968,27.000000,0.000000,3866.153809,4198.461426,4230.897461,4278.846191,4251.025879,4229.230957,4232.563965,4220.384766,4233.205078,4225.512695,4245.384766,4193.589844,4237.692383,4244.102539,2739.000000,4.000000,86.000000,,,,0.000000,4.000000,4.000000,4.000000,4.000000,4.000000,4.000000,4.000000,4.000000,4.000000,4.000000,4.000000,4.000000,4.000000,4.000000,100.000000,,,,,,,,,,,,,,,,
1645710438.021908,28.000000,0.000000,3867.820557,4195.641113,4230.000000,4276.794922,4243.461426,4231.538574,4230.512695,4220.641113,4233.717773,4223.205078,4242.692383,4187.948730,4233.717773,4236.666504,3170.000000,4.000000,86.000000,,,,0.000000,4.000000,4.000000,4.000000,4.000000,4.000000,4.000000,4.000000,4.000000,4.000000,4.000000,4.000000,4.000000,4.000000,4.000000,100.000000,,,,,,,,,,,,,,,,
1645710438.025948,29.000000,0.000000,3871.025635,4194.871582,4228.717773,4273.974121,4239.871582,4234.871582,4232.051270,4222.051270,4234.102539,4221.794922,4242.051270,4185.384766,4230.512695,4232.436035,3046.000000,4.000000,86.000000,,,,0.000000,4.000000,4.000000,4.000000,4.000000,4.000000,4.000000,4.000000,4.000000,4.000000,4.000000,4.000000,4.000000,4.000000,4.000000,100.000000,,,,,,,,,,,,,,,,
1645710438.029888,30.000000,0.000000,3874.230713,4197.692383,4226.794922,4271.794922,4243.589844,4238.077148,4236.666504,4223.077148,4233.846191,4221.538574,4243.589844,4186.025879,4230.128418,4232.820313,2566.000000,4.000000,86.000000,,,,0.000000,4.000000,4.000000,4.000000,4.000000,4.000000,4.000000,4.000000,4.000000,4.000000,4.000000,4.000000,4.000000,4.000000,4.000000,100.000000,1.000000,41.666668,0.000000,4.000000,4.000000,4.000000,3.000000,4.000000,4.000000,2.000000,4.000000,4.000000,4.000000,4.000000,4.000000,4.000000
1645710438.033829,31.000000,0.000000,3876.923096,4202.692383,4224.487305,4271.538574,4252.436035,4240.384766,4241.153809,4223.077148,4233.205078,4222.307617,4245.897461,4187.948730,4232.179688,4237.179688,2739.000000,4.000000,86.000000,,,,0.000000,4.000000,4.000000,4.000000,4.000000,4.000000,4.000000,4.000000,4.000000,4.000000,4.000000,4.000000,4.000000,4.000000,4.000000,100.000000,,,,,,,,,,,,,,,,
1645710438.037769,32.000000,0.000000,3879.615479,4206.410156,4222.307617,4272.307617,4260.512695,4241.153809,4242.563965,4223.077148,4232.692383,4222.820313,4246.794922,4188.589844,4235.128418,4242.820313,0.000000,4.000000,86.000000,,,,0.000000,4.000000,4.000000,4.000000,4.000000,4.000000,4.000000,4.000000,4.000000,4.000000,4.000000,4.000000,4.000000,4.000000,4.000000,100.000000,,,,,,,,,,,,,,,,
1645710438.041709,33.000000,0.000000,3882.820557,4205.897461,4220.256348,4272.820313,4262.436035,4239.487305,4240.000000,4223.846191,4232.179688,4222.179688,4245.000000,4187.051270,4236.538574,4246.025879,0.000000,4.000000,86.000000,,,,0.000000,4.000000,4.000000,4.000000,4.000000,4.000000,4.000000,4.000000,4.000000,4.000000,4.000000,4.000000,4.000000,4.000000,4.000000,100.000000,,,,,,,,,,,,,,,,
1645710438.045749,34.000000,0.000000,3885.512939,4201.153809,4217.948730,4273.077148,4258.205078,4236.025879,4235.384766,4224.743652,4231.922852,4220.256348,4241.538574,4184.615234,4235.641113,4245.384766,0.000000,4.000000,86.000000,,,,0.000000,4.000000,4.000000,4.000000,4.000000,4.000000,4.000000,4.000000,4.000000,4.000000,4.000000,4.000000,4.000000,4.000000,4.000000,100.000000,,,,,,,,,,,,,,,,
1645710438.049689,35.000000,0.000000,3886.410156,4195.512695,4215.769043,4274.487305,4251.282227,4231.794922,4231.153809,4224.487305,4231.666504,4218.461426,4239.102539,4182.563965,4233.077148,4241.666504,0.000000,4.000000,86.000000,,,,0.000000,4.000000,4.000000,4.000000,4.000000,4.000000,4.000000,4.000000,4.000000,4.000000,4.000000,4.000000,4.000000,4.000000,4.000000,100.000000,,,,,,,,,,,,,,,,
1645710438.053629,36.000000,0.000000,3886.538574,4192.948730,4214.871582,4277.692383,4246.025879,4228.205078,4228.846191,4223.205078,4231.282227,4217.948730,4238.974121,4181.538574,4230.897461,4237.692383,0.000000,4.000000,86.000000,,,,0.000000,4.000000,4.000000,4.000000,4.000000,4.000000,4.000000,4.000000,4.000000,4.000000,4.000000,4.000000,4.000000,4.000000,4.000000,100.000000,,,,,,,,,,,,,,,,
1645710438.057569,37.000000,0.000000,3888.461426,4194.743652,4215.641113,4280.897461,4243.974121,4225.769043,4228.333496,4221.666504,4230.512695,4218.717773,4240.256348,4180.641113,4230.128418,4235.897461,0.000000,4.000000,86.000000,,,,0.000000,4.000000,4.000000,4.000000,4.000000,4.000000,4.000000,4.000000,4.000000,4.000000,4.000000,4.000000,4.000000,4.000000,4.000000,100.000000,,,,,,,,,,,,,,,,
1645710438.061509,38.000000,0.000000,3893.205078,4198.846191,4216.153809,4281.025879,4243.974121,4224.358887,4228.846191,4220.897461,4229.743652,4219.487305,4240.641113,4178.077148,4230.384766,4236.666504,0.000000,4.000000,86.000000,,,,0.000000,4.000000,4.000000,4.000000,4.000000,4.000000,4.000000,4.000000,4.000000,4.000000,4.000000,4.000000,4.000000,4.000000,4.000000,100.000000,,,,,,,,,,,,,,,,
1645710438.065449,39.000000,0.000000,3898.846191,4201.538574,4213.846191,4276.794922,4244.102539,4223.717773,4229.358887,4220.641113,4229.102539,4219.358887,4239.102539,4173.461426,4230.897461,4238.589844,0.000000,4.000000,86.000000,,,,0.000000,4.000000,4.000000,4.000000,4.000000,4.000000,4.000000,4.000000,4.000000,4.000000,4.000000,4.000000,4.000000,4.000000,4.000000,100.000000,,,,,,,,,,,,,,,,
1645710438.069389,40.000000,0.000000,3902.307617,4200.769043,4208.846191,4270.128418,4243.333496,4223.846191,4229.102539,4220.384766,4229.102539,4218.717773,4236.410156,4168.717773,4231.538574,4239.358887,0.000000,4.000000,86.000000,,,,0.000000,4.000000,4.000000,4.000000,4.000000,4.000000,4.000000,4.000000,4.000000,4.000000,4.000000,4.000000,4.000000,4.000000,4.000000,100.000000,,,,,,,,,,,,,,,,
1645710438.073329,41.000000,0.000000,3902.820557,4197.179688,4203.974121,4264.871582,4242.436035,4224.230957,4228.974121,4220.128418,4230.256348,4218.846191,4234.358887,4167.179688,4232.436035,4237.692383,0.000000,4.000000,86.000000,,,,0.000000,4.000000,4.000000,4.000000,4.000000,4.000000,4.000000,4.000000,4.000000,4.000000,4.000000,4.000000,4.000000,4.000000,4.000000,100.000000,,,,,,,,,,,,,,,,
1645710438.077270,42.000000,0.000000,3902.307617,4193.461426,4202.436035,4263.846191,4242.692383,4224.871582,4229.230957,4220.128418,4232.051270,4220.769043,4233.333496,4170.384766,4233.589844,4234.358887,0.000000,4.000000,86.000000,,,,0.000000,4.000000,4.000000,4.000000,4.000000,4.000000,4.000000,4.000000,4.000000,4.000000,4.000000,4.000000,4.000000,4.000000,4.000000,100.000000,,,,,,,,,,,,,,,,
1645710438.081210,43.000000,0.000000,3903.974365,4192.051270,4205.128418,4267.051270,4244.358887,4225.512695,4229.871582,4220.641113,4233.461426,4224.230957,4233.205078,4175.897461,4235.000000,4231.282227,0.000000,4.000000,86.000000,,,,0.000000,4.000000,4.000000,4.000000,4.000000,4.000000,4.000000,4.000000,4.000000,4.000000,4.000000,4.000000,4.000000,4.000000,4.000000,100.000000,,,,,,,,,,,,,,,,
1645710438.085150,44.000000,0.000000,3907.948730,4193.589844,4209.871582,4272.307617,4246.153809,4226.153809,4230.128418,4221.538574,4233.205078,4226.922852,4233.205078,4179.871582,4236.153809,4230.512695,0.000000,4.000000,86.000000,,,,0.000000,4.000000,4.000000,4.000000,4.000000,4.000000,4.000000,4.000000,4.000000,4.000000,4.000000,4.000000,4.000000,4.000000,4.000000,100.000000,,,,,,,,,,,,,,,,
1645710438.089090,45.000000,0.000000,3912.179443,4196.538574,4213.205078,4276.666504,4246.538574,4227.820313,4229.615234,4222.436035,4231.538574,4227.051270,4233.461426,4179.743652,4237.051270,4232.179688,0.000000,4.000000,86.000000,,,,0.000000,4.000000,4.000000,4.000000,4.000000,4.000000,4.000000,4.000000,4.000000,4.000000,4.000000,4.000000,4.000000,4.000000,4.000000,100.000000,,,,,,,,,,,,,,,,
1645710438.093030,46.000000,0.000000,3915.256348,4198.589844,4213.461426,4277.563965,4244.871582,4230.512695,4228.589844,4222.692383,4229.743652,4225.000000,4234.615234,4176.922852,4237.692383,4236.025879,0.000000,4.000000,86.000000,,,,0.000000,4.000000,4.000000,4.000000,4.000000,4.000000,4.000000,4.000000,4.000000,4.000000,4.000000,4.000000,4.000000,4.000000,4.000000,100.000000,,,,,,,,,,,,,,,,
1645710438.096970,47.000000,0.000000,3918.205078,4198.589844,4212.307617,4275.128418,4242.436035,4232.948730,4227.307617,4222.820313,4229.358887,4222.307617,4237.563965,4174.871582,4238.589844,4241.282227,0.000000,4.000000,86.000000,,,,0.000000,4.000000,4.000000,4.000000,4.000000,4.000000,4.000000,4.000000,4.000000,4.000000,4.000000,4.000000,4.000000,4.000000,4.000000,100.000000,,,,,,,,,,,,,,,,
1645710438.100910,48.000000,0.000000,3923.076904,4197.436035,4212.820313,4272.563965,4241.025879,4233.333496,4225.769043,4222.948730,4230.769043,4221.153809,4242.051270,4177.051270,4239.102539,4246.538574,0.000000,4.000000,86.000000,,,,0.000000,4.000000,4.000000,4.000000,4.000000,4.000000,4.000000,4.000000,4.000000,4.000000,4.000000,4.000000,4.000000,4.000000,4.000000,100.000000,,,,,,,,,,,,,,,,
1645710438.104850,49.000000,0.000000,3929.871826,4197.436035,4216.794922,4273.846191,4242.307617,4231.153809,4224.487305,4223.333496,4232.820313,4222.307617,4247.307617,4183.589844,4238.461426,4250.384766,0.000000,4.000000,86.000000,,,,0.000000,4.000000,4.000000,4.000000,4.000000,4.000000,4.000000,4.000000,4.000000,4.000000,4.000000,4.000000,4.000000,4.000000,4.000000,100.000000,,,,,,,,,,,,,,,,
1645710438.108890,50.000000,0.000000,3936.410156,4200.641113,4223.461426,4280.897461,4246.410156,4228.717773,4223.974121,4223.589844,4234.871582,4226.153809,4251.538574,4192.436035,4236.410156,4251.922852,0.000000,4.000000,86.000000,,,,0.000000,4.000000,4.000000,4.000000,4.000000,4.000000,4.000000,4.000000,4.000000,4.000000,4.000000,4.000000,4.000000,4.000000,4.000000,100.000000,,,,,,,,,,,,,,,,
1645710438.112830,51.000000,0.000000,3940.384521,4206.282227,4230.000000,4290.256348,4251.794922,4228.461426,4224.615234,4223.461426,4236.025879,4230.897461,4253.077148,4200.000000,4233.077148,4251.282227,0.000000,4.000000,86.000000,,,,0.000000,4.000000,4.000000,4.000000,4.000000,4.000000,4.000000,4.000000,4.000000,4.000000,4.000000,4.000000,4.000000,4.000000,4.000000,100.000000,,,,,,,,,,,,,,,,
1645710438.116771,52.000000,0.000000,3941.923096,4211.153809,4233.589844,4295.512695,4254.743652,4230.512695,4225.897461,4223.205078,4236.025879,4234.230957,4250.641113,4203.333496,4228.846191,4249.230957,0.000000,4.000000,86.000000,,,,0.000000,4.000000,4.000000,4.000000,4.000000,4.000000,4.000000,4.000000,4.000000,4.000000,4.000000,4.000000,4.000000,4.000000,4.000000,100.000000,,,,,,,,,,,,,,,,
1645710438.120711,53.000000,0.000000,3943.205078,4212.179688,4232.948730,4293.205078,4252.948730,4233.077148,4226.922852,4223.846191,4234.871582,4233.846191,4245.384766,4202.307617,4224.358887,4246.794922,0.000000,4.000000,86.000000,,,,0.000000,4.000000,4.000000,4.000000,4.000000,4.000000,4.000000,4.000000,4.000000,4.000000,4.000000,4.000000,4.000000,4.000000,4.000000,100.000000,,,,,,,,,,,,,,,,
1645710438.124651,54.000000,0.000000,3945.641113,4209.615234,4229.871582,4286.025879,4247.436035,4234.358887,4227.692383,4225.512695,4232.436035,4230.897461,4240.000000,4198.589844,4221.153809,4245.128418,0.000000,4.000000,86.000000,,,,0.000000,4.000000,4.000000,4.000000,4.000000,4.000000,4.000000,4.000000,4.000000,4.000000,4.000000,4.000000,4.000000,4.000000,4.000000,100.000000,,,,,,,,,,,,,,,,
1645710438.128591,55.000000,0.000000,3949.102539,4207.179688,4227.051270,4280.128418,4242.820313,4234.358887,4228.333496,4226.794922,4230.128418,4228.205078,4237.820313,4195.128418,4221.282227,4244.743652,0.000000,4.000000,86.000000,,,,0.000000,4.000000,4.000000,4.000000,4.000000,4.000000,4.000000,4.000000,4.000000,4.000000,4.000000,4.000000,4.000000,4.000000,4.000000,100.000000,,,,,,,,,,,,,,,,
1645710438.132531,56.000000,0.000000,3952.564209,4207.948730,4226.025879,4279.871582,4242.820313,4234.102539,4229.487305,4226.282227,4229.615234,4228.461426,4240.000000,4193.974121,4225.128418,4246.025879,0.000000,4.000000,86.000000,,,,0.000000,4.000000,4.000000,4.000000,4.000000,4.000000,4.000000,4.000000,4.000000,4.000000,4.000000,4.000000,4.000000,4.000000,4.000000,100.000000,,,,,,,,,,,,,,,,
1645710438.136471,57.000000,0.000000,3955.769287,4211.153809,4226.538574,4284.230957,4246.794922,4234.102539,4230.769043,4224.358887,4231.922852,4230.897461,4245.000000,4195.512695,4230.641113,4248.717773,0.000000,4.000000,86.000000,,,,0.000000,4.000000,4.000000,4.000000,4.000000,4.000000,4.000000,4.000000,4.000000,4.000000,4.000000,4.000000,4.000000,4.000000,4.000000,100.000000,,,,,,,,,,,,,,,,
1645710438.140411,58.000000,0.000000,3959.487061,4213.717773,4227.948730,4288.589844,4250.256348,4234.743652,4231.922852,4223.589844,4235.769043,4233.589844,4250.384766,4199.230957,4234.871582,4252.563965,0.000000,4.000000,86.000000,,,,0.000000,4.000000,4.000000,4.000000,4.000000,4.000000,4.000000,4.000000,4.000000,4.000000,4.000000,4.000000,4.000000,4.000000,4.000000,100.000000,,,,,,,,,,,,,,,,
1645710438.144351,59.000000,0.000000,3964.102539,4213.589844,4230.000000,4289.743652,4250.128418,4235.897461,4232.692383,4225.897461,4238.846191,4235.384766,4255.641113,4204.615234,4237.307617,4257.179688,0.000000,4.000000,86.000000,,,,0.000000,4.000000,4.000000,4.000000,4.000000,4.000000,4.000000,4.000000,4.000000,4.000000,4.000000,4.000000,4.000000,4.000000,4.000000,100.000000,,,,,,,,,,,,,,,,
1645710438.148291,60.000000,0.000000,3968.589844,4211.666504,4233.077148,4288.077148,4247.436035,4237.948730,4234.230957,4230.641113,4240.256348,4237.436035,4261.538574,4211.410156,4239.102539,4262.051270,0.000000,4.000000,86.000000,,,,0.000000,4.000000,4.000000,4.000000,4.000000,4.000000,4.000000,4.000000,4.000000,4.000000,4.000000,4.000000,4.000000,4.000000,4.000000,100.000000,,,,,,,,,,,,,,,,
1645710438.152232,61.000000,0.000000,3972.307617,4210.000000,4235.769043,4285.384766,4246.025879,4240.641113,4236.922852,4235.000000,4240.897461,4241.153809,4268.077148,4218.205078,4241.153809,4265.512695,0.000000,4.000000,86.000000,,,,0.000000,4.000000,4.000000,4.000000,4.000000,4.000000,4.000000,4.000000,4.000000,4.000000,4.000000,4.000000,4.000000,4.000000,4.000000,100.000000,,,,,,,,,,,,,,,,
1645710438.156172,62.000000,0.000000,3974.871826,4209.615234,4236.538574,4282.948730,4247.436035,4242.436035,4240.384766,4236.538574,4242.051270,4245.641113,4272.948730,4222.179688,4242.820313,4266.282227,0.000000,4.000000,86.000000,,,,0.000000,4.000000,4.000000,4.000000,4.000000,4.000000,4.000000,4.000000,4.000000,4.000000,4.000000,4.000000,4.000000,4.000000,4.000000,100.000000,,,,,,,,,,,,,,,,
1645710438.160112,63.000000,0.000000,3977.051270,4209.615234,4234.871582,4281.282227,4249.871582,4241.922852,4243.077148,4235.256348,4243.589844,4248.974121,4273.717773,4221.282227,4243.333496,4263.717773,0.000000,4.000000,86.000000,,,,0.000000,4.000000,4.000000,4.000000,4.000000,4.000000,4.000000,4.000000,4.000000,4.000000,4.000000,4.000000,4.000000,4.000000,4.000000,100.000000,,,,,,,,,,,,,,,,
1645710438.164052,64.000000,0.000000,3978.718018,4208.846191,4232.563965,4280.512695,4249.615234,4239.102539,4244.358887,4232.948730,4243.589844,4249.358887,4270.256348,4216.794922,4242.692383,4259.230957,0.000000,4.000000,86.000000,,,,0.000000,4.000000,4.000000,4.000000,4.000000,4.000000,4.000000,4.000000,4.000000,4.000000,4.000000,4.000000,4.000000,4.000000,4.000000,100.000000,,,,,,,,,,,,,,,,
1645710438.167992,65.000000,0.000000,3978.846191,4206.538574,4231.666504,4280.897461,4245.512695,4235.897461,4244.487305,4231.282227,4241.538574,4247.179688,4265.000000,4211.153809,4241.153809,4254.487305,0.000000,4.000000,86.000000,,,,0.000000,4.000000,4.000000,4.000000,4.000000,4.000000,4.000000,4.000000,4.000000,4.000000,4.000000,4.000000,4.000000,4.000000,4.000000,100.000000,,,,,,,,,,,,,,,,
1645710438.171932,66.000000,0.000000,3977.564209,4202.948730,4232.692383,4281.410156,4239.615234,4233.846191,4243.846191,4230.897461,4238.589844,4243.333496,4260.897461,4206.538574,4239.230957,4250.769043,0.000000,4.000000,86.000000,,,,0.000000,4.000000,4.000000,4.000000,4.000000,4.000000,4.000000,4.000000,4.000000,4.000000,4.000000,4.000000,4.000000,4.000000,4.000000,100.000000,,,,,,,,,,,,,,,,
1645710438.175872,67.000000,0.000000,3976.538574,4198.974121,4233.846191,4280.512695,4234.358887,4233.077148,4242.820313,4231.922852,4236.282227,4239.358887,4258.461426,4203.589844,4236.538574,4248.461426,0.000000,4.000000,86.000000,,,,0.000000,4.000000,4.000000,4.000000,4.000000,4.000000,4.000000,4.000000,4.000000,4.000000,4.000000,4.000000,4.000000,4.000000,4.000000,100.000000,,,,,,,,,,,,,,,,
1645710438.179812,68.000000,0.000000,3977.564209,4196.410156,4233.077148,4277.307617,4231.153809,4232.563965,4241.794922,4233.846191,4235.769043,4235.769043,4256.410156,4201.922852,4233.333496,4247.307617,0.000000,4.000000,86.000000,,,,0.000000,4.000000,4.000000,4.000000,4.000000,4.000000,4.000000,4.000000,4.000000,4.000000,4.000000,4.000000,4.000000,4.000000,4.000000,100.000000,,,,,,,,,,,,,,,,
1645710438.183852,69.000000,0.000000,3979.743652,4196.538574,4229.615234,4273.205078,4229.871582,4232.563965,4241.153809,4235.384766,4237.051270,4233.846191,4254.230957,4200.897461,4230.512695,4247.307617,0.000000,4.000000,86.000000,,,,0.000000,4.000000,4.000000,4.000000,4.000000,4.000000,4.000000,4.000000,4.000000,4.000000,4.000000,4.000000,4.000000,4.000000,4.000000,100.000000,,,,,,,,,,,,,,,,
1645710438.187792,70.000000,0.000000,3980.897461,4198.974121,4224.358887,4270.384766,4229.615234,4233.589844,4240.897461,4235.384766,4239.102539,4234.230957,4252.692383,4200.384766,4229.102539,4247.948730,0.000000,4.000000,86.000000,,,,0.000000,4.000000,4.000000,4.000000,4.000000,4.000000,4.000000,4.000000,4.000000,4.000000,4.000000,4.000000,4.000000,4.000000,4.000000,100.000000,,,,,,,,,,,,,,,,
1645710438.191732,71.000000,0.000000,3979.743652,4201.025879,4219.230957,4270.128418,4229.487305,4235.769043,4240.384766,4233.077148,4240.512695,4236.282227,4253.461426,4200.512695,4228.974121,4248.846191,0.000000,4.000000,86.000000,,,,0.000000,4.000000,4.000000,4.000000,4.000000,4.000000,4.000000,4.000000,4.000000,4.000000,4.000000,4.000000,4.000000,4.000000,4.000000,100.000000,,,,,,,,,,,,,,,,
1645710438.195673,72.000000,0.000000,3978.589844,4200.512695,4216.153809,4271.282227,4229.871582,4237.948730,4239.102539,4229.615234,4240.128418,4237.692383,4255.641113,4201.538574,4229.102539,4249.615234,0.000000,4.000000,86.000000,,,,0.000000,4.000000,4.000000,4.000000,4.000000,4.000000,4.000000,4.000000,4.000000,4.000000,4.000000,4.000000,4.000000,4.000000,4.000000,100.000000,,,,,,,,,,,,,,,,
1645710438.199613,73.000000,0.000000,3981.153809,4198.333496,4215.897461,4272.179688,4231.666504,4239.230957,4236.922852,4226.922852,4237.692383,4236.025879,4256.538574,4202.820313,4228.717773,4250.512695,0.000000,4.000000,86.000000,,,,0.000000,4.000000,4.000000,4.000000,4.000000,4.000000,4.000000,4.000000,4.000000,4.000000,4.000000,4.000000,4.000000,4.000000,4.000000,100.000000,,,,,,,,,,,,,,,,
1645710438.203553,74.000000,0.000000,3987.820557,4196.794922,4217.948730,4271.538574,4235.256348,4239.871582,4235.128418,4225.897461,4234.615234,4231.666504,4253.974121,4203.333496,4227.436035,4251.282227,0.000000,4.000000,86.000000,,,,0.000000,4.000000,4.000000,4.000000,4.000000,4.000000,4.000000,4.000000,4.000000,4.000000,4.000000,4.000000,4.000000,4.000000,4.000000,100.000000,,,,,,,,,,,,,,,,
1645710438.207493,75.000000,0.000000,3994.615479,4197.820313,4220.000000,4270.000000,4239.615234,4240.384766,4235.000000,4226.153809,4232.820313,4227.307617,4248.589844,4201.538574,4225.641113,4251.538574,0.000000,4.000000,86.000000,,,,0.000000,4.000000,4.000000,4.000000,4.000000,4.000000,4.000000,4.000000,4.000000,4.000000,4.000000,4.000000,4.000000,4.000000,4.000000,100.000000,,,,,,,,,,,,,,,,
1645710438.211433,76.000000,0.000000,3996.794922,4200.769043,4220.000000,4268.846191,4242.436035,4241.025879,4236.282227,4226.666504,4232.820313,4225.641113,4243.333496,4197.563965,4224.743652,4250.769043,0.000000,4.000000,86.000000,,,,0.000000,4.000000,4.000000,4.000000,4.000000,4.000000,4.000000,4.000000,4.000000,4.000000,4.000000,4.000000,4.000000,4.000000,4.000000,100.000000,,,,,,,,,,,,,,,,
1645710438.215373,77.000000,0.000000,3994.102539,4203.333496,4217.051270,4268.333496,4242.307617,4241.282227,4237.692383,4227.051270,4233.461426,4227.307617,4241.153809,4193.333496,4225.128418,4248.717773,0.000000,4.000000,86.000000,,,,0.000000,4.000000,4.000000,4.000000,4.000000,4.000000,4.000000,4.000000,4.000000,4.000000,4.000000,4.000000,4.000000,4.000000,4.000000,100.000000,,,,,,,,,,,,,,,,
1645710438.219313,78.000000,0.000000,3990.769287,4203.974121,4212.820313,4267.051270,4239.871582,4240.512695,4238.077148,4227.563965,4233.589844,4230.128418,4243.077148,4191.282227,4226.666504,4246.282227,0.000000,4.000000,86.000000,,,,0.000000,4.000000,4.000000,4.000000,4.000000,4.000000,4.000000,4.000000,4.000000,4.000000,4.000000,4.000000,4.000000,4.000000,4.000000,100.000000,,,,,,,,,,,,,,,,
1645710438.223253,79.000000,0.000000,3991.281982,4203.333496,4209.615234,4263.077148,4237.307617,4239.102539,4237.179688,4228.205078,4232.692383,4232.436035,4248.205078,4192.692383,4228.205078,4245.128418,0.000000,4.000000,86.000000,,,,0.000000,4.000000,4.000000,4.000000,4.000000,4.000000,4.000000,4.000000,4.000000,4.000000,4.000000,4.000000,4.000000,4.000000,4.000000,100.000000,,,,,,,,,,,,,,,,
1645710438.227193,80.000000,0.000000,3996.025635,4202.820313,4209.358887,4256.794922,4236.282227,4238.333496,4236.538574,4228.333496,4231.922852,4233.205078,4253.846191,4197.051270,4228.846191,4246.025879,0.000000,4.000000,86.000000,,,,0.000000,4.000000,4.000000,4.000000,4.000000,4.000000,4.000000,4.000000,4.000000,4.000000,4.000000,4.000000,4.000000,4.000000,4.000000,100.000000,,,,,,,,,,,,,,,,
1645710438.231134,81.000000,0.000000,4001.923096,4203.333496,4212.051270,4250.512695,4236.410156,4239.487305,4237.307617,4228.589844,4232.179688,4232.563965,4257.179688,4202.307617,4228.077148,4247.563965,0.000000,4.000000,86.000000,,,,0.000000,4.000000,4.000000,4.000000,4.000000,4.000000,4.000000,4.000000,4.000000,4.000000,4.000000,4.000000,4.000000,4.000000,4.000000,100.000000,,,,,,,,,,,,,,,,
1645710438.235074,82.000000,0.000000,4006.281982,4204.743652,4215.897461,4247.051270,4236.410156,4241.538574,4239.102539,4229.871582,4233.333496,4231.282227,4257.051270,4206.538574,4226.794922,4248.589844,0.000000,4.000000,86.000000,,,,0.000000,4.000000,4.000000,4.000000,4.000000,4.000000,4.000000,4.000000,4.000000,4.000000,4.000000,4.000000,4.000000,4.000000,4.000000,100.000000,,,,,,,,,,,,,,,,
1645710438.239014,83.000000,0.000000,4009.615479,4205.897461,4218.077148,4247.692383,4235.128418,4241.538574,4240.769043,4233.077148,4234.358887,4230.128418,4254.230957,4208.717773,4225.897461,4248.717773,0.000000,4.000000,86.000000,,,,0.000000,4.000000,4.000000,4.000000,4.000000,4.000000,4.000000,4.000000,4.000000,4.000000,4.000000,4.000000,4.000000,4.000000,4.000000,100.000000,,,,,,,,,,,,,,,,
1645710438.242954,84.000000,0.000000,4013.076904,4205.769043,4217.948730,4251.282227,4232.948730,4238.461426,4241.410156,4237.179688,4234.743652,4230.000000,4251.282227,4209.358887,4225.769043,4248.846191,0.000000,4.000000,86.000000,,,,0.000000,4.000000,4.000000,4.000000,4.000000,4.000000,4.000000,4.000000,4.000000,4.000000,4.000000,4.000000,4.000000,4.000000,4.000000,100.000000,,,,,,,,,,,,,,,,
1645710438.246894,85.000000,0.000000,4017.051270,4204.871582,4216.794922,4255.256348,4231.794922,4233.846191,4241.282227,4240.256348,4234.743652,4231.666504,4250.256348,4209.487305,4226.153809,4249.743652,0.000000,4.000000,86.000000,,,,0.000000,4.000000,4.000000,4.000000,4.000000,4.000000,4.000000,4.000000,4.000000,4.000000,4.000000,4.000000,4.000000,4.000000,4.000000,100.000000,,,,,,,,,,,,,,,,
1645710438.250834,86.000000,0.000000,4020.256348,4204.743652,4216.922852,4257.179688,4232.692383,4231.282227,4240.641113,4240.897461,4235.384766,4235.128418,4251.666504,4209.615234,4227.436035,4251.153809,0.000000,4.000000,86.000000,,,,0.000000,4.000000,4.000000,4.000000,4.000000,4.000000,4.000000,4.000000,4.000000,4.000000,4.000000,4.000000,4.000000,4.000000,4.000000,100.000000,,,,,,,,,,,,,,,,
1645710438.254874,87.000000,0.000000,4022.435791,4206.153809,4219.102539,4256.922852,4234.230957,4232.307617,4240.128418,4240.000000,4237.051270,4239.358887,4254.102539,4209.487305,4229.358887,4251.666504,0.000000,4.000000,86.000000,,,,0.000000,4.000000,4.000000,4.000000,4.000000,4.000000,4.000000,4.000000,4.000000,4.000000,4.000000,4.000000,4.000000,4.000000,4.000000,100.000000,,,,,,,,,,,,,,,,
1645710438.258814,88.000000,0.000000,4024.487061,4208.333496,4222.692383,4255.897461,4234.102539,4235.512695,4239.743652,4239.615234,4239.102539,4242.051270,4255.512695,4208.717773,4230.641113,4250.769043,0.000000,4.000000,86.000000,,,,0.000000,4.000000,4.000000,4.000000,4.000000,4.000000,4.000000,4.000000,4.000000,4.000000,4.000000,4.000000,4.000000,4.000000,4.000000,100.000000,,,,,,,,,,,,,,,,
1645710438.262754,89.000000,0.000000,4027.179443,4209.102539,4225.384766,4256.025879,4231.410156,4237.692383,4239.487305,4240.897461,4240.512695,4241.282227,4255.000000,4207.051270,4230.000000,4248.974121,0.000000,4.000000,86.000000,,,,0.000000,4.000000,4.000000,4.000000,4.000000,4.000000,4.000000,4.000000,4.000000,4.000000,4.000000,4.000000,4.000000,4.000000,4.000000,100.000000,,,,,,,,,,,,,,,,
1645710438.266694,90.000000,0.000000,4030.256348,4207.948730,4225.641113,4257.436035,4227.820313,4236.922852,4239.102539,4243.077148,4240.769043,4237.820313,4253.589844,4205.128418,4227.563965,4247.436035,0.000000,4.000000,86.000000,,,,0.000000,4.000000,4.000000,4.000000,4.000000,4.000000,4.000000,4.000000,4.000000,4.000000,4.000000,4.000000,4.000000,4.000000,4.000000,100.000000,,,,,,,,,,,,,,,,
1645710438.270634,91.000000,0.000000,4032.307617,4206.666504,4223.589844,4259.358887,4226.794922,4234.230957,4238.461426,4243.717773,4239.615234,4234.102539,4253.077148,4204.230957,4225.897461,4247.051270,0.000000,4.000000,86.000000,,,,0.000000,4.000000,4.000000,4.000000,4.000000,4.000000,4.000000,4.000000,4.000000,4.000000,4.000000,4.000000,4.000000,4.000000,4.000000,100.000000,,,,,,,,,,,,,,,,
1645710438.274575,92.000000,0.000000,4033.205078,4207.436035,4221.282227,4260.384766,4229.230957,4232.051270,4236.922852,4241.282227,4237.692383,4232.307617,4254.487305,4204.487305,4226.794922,4247.436035,0.000000,4.000000,86.000000,,,,0.000000,4.000000,4.000000,4.000000,4.000000,4.000000,4.000000,4.000000,4.000000,4.000000,4.000000,4.000000,4.000000,4.000000,4.000000,100.000000,,,,,,,,,,,,,,,,
1645710438.278515,93.000000,0.000000,4034.487061,4209.871582,4219.871582,4259.615234,4232.563965,4231.538574,4233.974121,4237.051270,4236.153809,4232.436035,4256.282227,4204.615234,4228.974121,4246.666504,0.000000,4.000000,86.000000,,,,0.000000,4.000000,4.000000,4.000000,4.000000,4.000000,4.000000,4.000000,4.000000,4.000000,4.000000,4.000000,4.000000,4.000000,4.000000,100.000000,,,,,,,,,,,,,,,,
1645710438.282455,94.000000,0.000000,4036.794922,4211.538574,4219.358887,4257.179688,4233.077148,4231.922852,4229.743652,4233.205078,4235.769043,4233.333496,4256.025879,4203.333496,4229.615234,4242.948730,0.000000,4.000000,86.000000,,,,0.000000,4.000000,4.000000,4.000000,4.000000,4.000000,4.000000,4.000000,4.000000,4.000000,4.000000,4.000000,4.000000,4.000000,4.000000,100.000000,,,,,,,,,,,,,,,,
1645710438.286395,95.000000,0.000000,4038.974365,4210.897461,4218.717773,4253.717773,4229.358887,4232.051270,4225.769043,4231.538574,4236.410156,4234.487305,4252.563965,4200.897461,4227.307617,4236.922852,0.000000,4.000000,86.000000,,,,0.000000,4.000000,4.000000,4.000000,4.000000,4.000000,4.000000,4.000000,4.000000,4.000000,4.000000,4.000000,4.000000,4.000000,4.000000,100.000000,,,,,,,,,,,,,,,,
1645710438.290335,96.000000,0.000000,4039.102539,4209.615234,4217.436035,4250.641113,4224.102539,4231.282227,4223.461426,4232.051270,4236.922852,4236.025879,4247.051270,4198.717773,4223.589844,4231.538574,0.000000,4.000000,86.000000,,,,0.000000,4.000000,4.000000,4.000000,4.000000,4.000000,4.000000,4.000000,4.000000,4.000000,4.000000,4.000000,4.000000,4.000000,4.000000,100.000000,,,,,,,,,,,,,,,,
1645710438.294275,97.000000,0.000000,4037.820557,4210.128418,4216.538574,4248.846191,4221.025879,4230.256348,4222.820313,4233.846191,4237.051270,4238.205078,4242.307617,4197.820313,4221.410156,4230.512695,0.000000,4.000000,86.000000,,,,0.000000,4.000000,4.000000,4.000000,4.000000,4.000000,4.000000,4.000000,4.000000,4.000000,4.000000,4.000000,4.000000,4.000000,4.000000,100.000000,,,,,,,,,,,,,,,,
1645710438.298215,98.000000,0.000000,4038.205078,4212.179688,4217.179688,4248.461426,4221.153809,4229.487305,4223.461426,4235.256348,4236.538574,4239.358887,4240.256348,4198.333496,4221.538574,4233.974121,0.000000,4.000000,86.000000,,,,0.000000,4.000000,4.000000,4.000000,4.000000,4.000000,4.000000,4.000000,4.000000,4.000000,4.000000,4.000000,4.000000,4.000000,4.000000,100.000000,,,,,,,,,,,,,,,,
1645710438.302155,99.000000,0.000000,4042.051270,4213.333496,4219.230957,4249.102539,4222.948730,4229.743652,4224.358887,4235.512695,4235.000000,4237.820313,4241.538574,4198.717773,4222.563965,4238.974121,0.000000,4.000000,86.000000,,,,0.000000,4.000000,4.000000,4.000000,4.000000,4.000000,4.000000,4.000000,4.000000,4.000000,4.000000,4.000000,4.000000,4.000000,4.000000,100.000000,,,,,,,,,,,,,,,,
1645710438.306095,100.000000,0.000000,4047.564209,4211.922852,4221.025879,4250.384766,4225.256348,4231.922852,4225.769043,4234.871582,4232.692383,4233.205078,4244.615234,4198.333496,4223.077148,4241.794922,0.000000,4.000000,86.000000,,,,0.000000,4.000000,4.000000,4.000000,4.000000,4.000000,4.000000,4.000000,4.000000,4.000000,4.000000,4.000000,4.000000,4.000000,4.000000,100.000000,,,,,,,,,,,,,,,,
1645710438.310036,101.000000,0.000000,4051.025635,4209.102539,4220.897461,4252.692383,4227.563965,4236.025879,4228.333496,4233.974121,4231.025879,4226.794922,4247.820313,4198.077148,4222.948730,4240.897461,0.000000,4.000000,86.000000,,,,0.000000,4.000000,4.000000,4.000000,4.000000,4.000000,4.000000,4.000000,4.000000,4.000000,4.000000,4.000000,4.000000,4.000000,4.000000,100.000000,,,,,,,,,,,,,,,,
1645710438.313976,102.000000,0.000000,4051.025635,4207.436035,4218.589844,4255.769043,4230.000000,4240.897461,4232.051270,4233.974121,4231.153809,4221.410156,4250.000000,4198.717773,4223.205078,4237.307617,0.000000,4.000000,86.000000,,,,0.000000,4.000000,4.000000,4.000000,4.000000,4.000000,4.000000,4.000000,4.000000,4.000000,4.000000,4.000000,4.000000,4.000000,4.000000,100.000000,,,,,,,,,,,,,,,,
1645710438.317916,103.000000,0.000000,4049.743652,4208.333496,4215.641113,4258.205078,4231.282227,4244.358887,4236.538574,4235.769043,4233.077148,4219.230957,4250.384766,4200.769043,4223.461426,4233.461426,0.000000,4.000000,86.000000,,,,0.000000,4.000000,4.000000,4.000000,4.000000,4.000000,4.000000,4.000000,4.000000,4.000000,4.000000,4.000000,4.000000,4.000000,4.000000,100.000000,,,,,,,,,,,,,,,,
1645710438.321856,104.000000,0.000000,4049.615479,4210.384766,4213.461426,4257.563965,4229.615234,4245.512695,4240.897461,4238.846191,4235.512695,4220.897461,4249.230957,4203.205078,4223.461426,4231.410156,0.000000,4.000000,86.000000,,,,0.000000,4.000000,4.000000,4.000000,4.000000,4.000000,4.000000,4.000000,4.000000,4.000000,4.000000,4.000000,4.000000,4.000000,4.000000,100.000000,,,,,,,,,,,,,,,,
1645710438.325796,105.000000,0.000000,4051.025635,4211.025879,4213.077148,4252.692383,4225.128418,4244.743652,4243.974121,4241.282227,4237.307617,4225.897461,4248.461426,4205.256348,4222.820313,4231.666504,0.000000,4.000000,86.000000,,,,0.000000,4.000000,4.000000,4.000000,4.000000,4.000000,4.000000,4.000000,4.000000,4.000000,4.000000,4.000000,4.000000,4.000000,4.000000,100.000000,,,,,,,,,,,,,,,,
1645710438.329836,106.000000,0.000000,4052.692383,4209.230957,4214.487305,4245.384766,4219.871582,4243.461426,4244.743652,4241.282227,4238.589844,4232.436035,4249.743652,4206.282227,4222.563965,4233.846191,0.000000,4.000000,86.000000,,,,0.000000,4.000000,4.000000,4.000000,4.000000,4.000000,4.000000,4.000000,4.000000,4.000000,4.000000,4.000000,4.000000,4.000000,4.000000,100.000000,,,,,,,,,,,,,,,,
1645710438.333776,107.000000,0.000000,4054.871826,4205.897461,4217.307617,4239.743652,4217.307617,4242.179688,4242.692383,4238.974121,4240.000000,4238.974121,4253.717773,4207.436035,4223.717773,4237.307617,0.000000,4.000000,86.000000,,,,0.000000,4.000000,4.000000,4.000000,4.000000,4.000000,4.000000,4.000000,4.000000,4.000000,4.000000,4.000000,4.000000,4.000000,4.000000,100.000000,,,,,,,,,,,,,,,,
1645710438.337716,108.000000,0.000000,4058.974365,4203.846191,4221.153809,4239.743652,4218.461426,4240.256348,4239.102539,4237.051270,4241.282227,4243.077148,4258.461426,4209.871582,4226.282227,4241.282227,0.000000,4.000000,86.000000,,,,0.000000,4.000000,4.000000,4.000000,4.000000,4.000000,4.000000,4.000000,4.000000,4.000000,4.000000,4.000000,4.000000,4.000000,4.000000,100.000000,,,,,,,,,,,,,,,,
1645710438.341656,109.000000,0.000000,4065.641113,4205.000000,4225.512695,4245.128418,4221.922852,4237.436035,4235.512695,4237.820313,4241.666504,4243.333496,4261.153809,4213.461426,4228.846191,4245.512695,0.000000,4.000000,86.000000,,,,0.000000,4.000000,4.000000,4.000000,4.000000,4.000000,4.000000,4.000000,4.000000,4.000000,4.000000,4.000000,4.000000,4.000000,4.000000,100.000000,,,,,,,,,,,,,,,,
1645710438.345596,110.000000,0.000000,4072.564209,4208.589844,4228.974121,4252.692383,4225.000000,4234.230957,4233.589844,4240.769043,4240.641113,4239.871582,4260.641113,4216.153809,4230.384766,4248.461426,0.000000,4.000000,86.000000,,,,0.000000,4.000000,4.000000,4.000000,4.000000,4.000000,4.000000,4.000000,4.000000,4.000000,4.000000,4.000000,4.000000,4.000000,4.000000,100.000000,,,,,,,,,,,,,,,,
1645710438.349536,111.000000,0.000000,4076.153809,4212.307617,4230.641113,4257.948730,4225.769043,4231.794922,4233.333496,4243.333496,4238.974121,4235.128418,4257.692383,4216.025879,4230.256348,4249.487305,0.000000,4.000000,86.000000,,,,0.000000,4.000000,4.000000,4.000000,4.000000,4.000000,4.000000,4.000000,4.000000,4.000000,4.000000,4.000000,4.000000,4.000000,4.000000,100.000000,,,,,,,,,,,,,,,,
1645710438.353477,112.000000,0.000000,4075.512939,4213.589844,4230.000000,4257.948730,4223.717773,4230.769043,4233.846191,4243.461426,4237.307617,4231.794922,4254.743652,4212.307617,4228.846191,4248.205078,0.000000,4.000000,86.000000,,,,0.000000,4.000000,4.000000,4.000000,4.000000,4.000000,4.000000,4.000000,4.000000,4.000000,4.000000,4.000000,4.000000,4.000000,4.000000,100.000000,,,,,,,,,,,,,,,,
1645710438.357417,113.000000,0.000000,4073.461426,4212.692383,4227.820313,4253.333496,4220.128418,4231.153809,4233.846191,4241.410156,4236.538574,4231.153809,4253.077148,4207.436035,4227.051270,4246.153809,0.000000,4.000000,86.000000,,,,0.000000,4.000000,4.000000,4.000000,4.000000,4.000000,4.000000,4.000000,4.000000,4.000000,4.000000,4.000000,4.000000,4.000000,4.000000,100.000000,,,,,,,,,,,,,,,,
1645710438.361357,114.000000,0.000000,4074.102539,4212.307617,4226.153809,4247.820313,4218.205078,4232.179688,4233.461426,4240.000000,4236.794922,4232.179688,4252.692383,4204.615234,4225.641113,4245.000000,0.000000,4.000000,86.000000,,,,0.000000,4.000000,4.000000,4.000000,4.000000,4.000000,4.000000,4.000000,4.000000,4.000000,4.000000,4.000000,4.000000,4.000000,4.000000,100.000000,,,,,,,,,,,,,,,,
1645710438.365297,115.000000,0.000000,4078.718018,4215.128418,4226.538574,4246.410156,4220.128418,4234.230957,4233.974121,4241.666504,4237.948730,4233.589844,4253.974121,4206.538574,4225.769043,4245.897461,0.000000,4.000000,86.000000,,,,0.000000,4.000000,4.000000,4.000000,4.000000,4.000000,4.000000,4.000000,4.000000,4.000000,4.000000,4.000000,4.000000,4.000000,4.000000,100.000000,,,,,,,,,,,,,,,,
1645710438.369237,116.000000,0.000000,4084.743652,4220.384766,4228.974121,4251.153809,4225.641113,4237.563965,4236.282227,4246.410156,4239.358887,4235.128418,4256.794922,4212.307617,4227.692383,4248.974121,0.000000,4.000000,86.000000,,,,0.000000,4.000000,4.000000,4.000000,4.000000,4.000000,4.000000,4.000000,4.000000,4.000000,4.000000,4.000000,4.000000,4.000000,4.000000,100.000000,,,,,,,,,,,,,,,,
1645710438.373177,117.000000,0.000000,4088.718018,4223.974121,4231.666504,4259.230957,4230.641113,4241.025879,4239.358887,4252.179688,4240.000000,4236.666504,4260.256348,4218.846191,4230.512695,4252.051270,0.000000,4.000000,86.000000,,,,0.000000,4.000000,4.000000,4.000000,4.000000,4.000000,4.000000,4.000000,4.000000,4.000000,4.000000,4.000000,4.000000,4.000000,4.000000,100.000000,,,,,,,,,,,,,,,,
1645710438.377117,118.000000,0.000000,4089.871826,4221.666504,4232.820313,4265.000000,4230.512695,4242.307617,4240.641113,4256.282227,4238.589844,4237.436035,4262.436035,4222.307617,4232.179688,4252.820313,0.000000,4.000000,86.000000,,,,0.000000,4.000000,4.000000,4.000000,4.000000,4.000000,4.000000,4.000000,4.000000,4.000000,4.000000,4.000000,4.000000,4.000000,4.000000,100.000000,,,,,,,,,,,,,,,,
1645710438.381057,119.000000,0.000000,4089.358887,4213.974121,4231.922852,4264.230957,4224.487305,4239.871582,4238.974121,4257.948730,4234.871582,4236.282227,4261.538574,4220.897461,4231.666504,4250.641113,0.000000,4.000000,86.000000,,,,0.000000,4.000000,4.000000,4.000000,4.000000,4.000000,4.000000,4.000000,4.000000,4.000000,4.000000,4.000000,4.000000,4.000000,4.000000,100.000000,,,,,,,,,,,,,,,,
1645710438.384997,120.000000,0.000000,4089.487061,4206.153809,4230.897461,4258.461426,4217.436035,4235.384766,4235.512695,4257.436035,4230.641113,4234.102539,4258.589844,4216.282227,4230.000000,4247.436035,0.000000,4.000000,86.000000,,,,0.000000,4.000000,4.000000,4.000000,4.000000,4.000000,4.000000,4.000000,4.000000,4.000000,4.000000,4.000000,4.000000,4.000000,4.000000,100.000000,,,,,,,,,,,,,,,,
1645710438.388938,121.000000,0.000000,4091.538574,4204.743652,4231.282227,4253.589844,4216.153809,4232.436035,4233.589844,4255.512695,4229.102539,4233.205078,4257.436035,4212.436035,4229.743652,4246.666504,0.000000,4.000000,86.000000,,,,0.000000,4.000000,4.000000,4.000000,4.000000,4.000000,4.000000,4.000000,4.000000,4.000000,4.000000,4.000000,4.000000,4.000000,4.000000,100.000000,,,,,,,,,,,,,,,,
1645710438.392878,122.000000,0.000000,4095.384521,4211.794922,4233.205078,4254.615234,4223.077148,4234.230957,4234.871582,4253.974121,4231.666504,4236.153809,4261.153809,4212.692383,4233.077148,4250.641113,0.000000,4.000000,86.000000,,,,0.000000,4.000000,4.000000,4.000000,4.000000,4.000000,4.000000,4.000000,4.000000,4.000000,4.000000,4.000000,4.000000,4.000000,4.000000,100.000000,,,,,,,,,,,,,,,,
1645710438.396818,123.000000,0.000000,4100.256348,4222.820313,4234.743652,4261.410156,4233.974121,4240.128418,4238.589844,4254.615234,4237.307617,4242.563965,4269.615234,4216.922852,4238.846191,4257.948730,0.000000,4.000000,86.000000,,,,0.000000,4.000000,4.000000,4.000000,4.000000,4.000000,4.000000,4.000000,4.000000,4.000000,4.000000,4.000000,4.000000,4.000000,4.000000,100.000000,,,,,,,,,,,,,,,,
1645710438.400858,124.000000,0.000000,4104.743652,4230.128418,4234.487305,4269.102539,4240.897461,4246.666504,4243.077148,4258.205078,4243.205078,4250.000000,4278.717773,4222.820313,4244.230957,4264.358887,0.000000,4.000000,86.000000,,,,0.000000,4.000000,4.000000,4.000000,4.000000,4.000000,4.000000,4.000000,2.000000,4.000000,4.000000,4.000000,4.000000,4.000000,4.000000,83.333336,,,,,,,,,,,,,,,,
1645710438.404798,125.000000,0.000000,4107.307617,4229.358887,4233.333496,4273.205078,4239.487305,4250.384766,4247.051270,4262.948730,4247.051270,4255.512695,4283.205078,4226.922852,4246.153809,4265.128418,0.000000,4.000000,86.000000,,,,0.000000,4.000000,4.000000,4.000000,4.000000,4.000000,4.000000,4.000000,2.000000,4.000000,4.000000,4.000000,4.000000,4.000000,4.000000,83.333336,,,,,,,,,,,,,,,,
