title:Alex-2W2ubHBQEHrdGoGStvV8-A, start timestamp:1645708830.400100, stop timestamp:1645708856.375917, headset type:EPOCPLUS, headset serial:3B9AEBFF, headset firmware:626, channels:55, sampling rate:eeg_256, samples:6594      , version:2.1, 
Timestamp,EEG.Counter,EEG.Interpolated,EEG.AF3,EEG.F7,EEG.F3,EEG.FC5,EEG.T7,EEG.P7,EEG.O1,EEG.O2,EEG.P8,EEG.T8,EEG.FC6,EEG.F4,EEG.F8,EEG.AF4,EEG.RawCq,EEG.Battery,EEG.BatteryPercent,MarkerIndex,MarkerType,MarkerValueInt,EEG.MarkerHardware,CQ.AF3,CQ.F7,CQ.F3,CQ.FC5,CQ.T7,CQ.P7,CQ.O1,CQ.O2,CQ.P8,CQ.T8,CQ.FC6,CQ.F4,CQ.F8,CQ.AF4,CQ.Overall,EQ.SampleRateQuality,EQ.OVERALL,EQ.AF3,EQ.F7,EQ.F3,EQ.FC5,EQ.T7,EQ.P7,EQ.O1,EQ.O2,EQ.P8,EQ.T8,EQ.FC6,EQ.F4,EQ.F8,EQ.AF4
1645708830.400100,174.000000,0.000000,4219.230957,4217.179688,4218.717773,4215.641113,4219.487305,4200.641113,4209.615234,4197.436035,4212.563965,4193.205078,4230.000000,4179.615234,4163.717773,4161.025879,2466.000000,4.000000,91.000000,,,,0.000000,4.000000,4.000000,4.000000,4.000000,4.000000,4.000000,4.000000,4.000000,4.000000,4.000000,4.000000,4.000000,4.000000,4.000000,100.000000,,,,,,,,,,,,,,,,
1645708830.404140,175.000000,0.000000,4220.897461,4218.974121,4216.153809,4218.846191,4222.948730,4205.000000,4211.153809,4203.205078,4213.461426,4197.307617,4230.769043,4179.871582,4166.538574,4159.615234,3374.000000,4.000000,91.000000,,,,0.000000,4.000000,4.000000,4.000000,4.000000,4.000000,4.000000,4.000000,4.000000,4.000000,4.000000,4.000000,4.000000,4.000000,4.000000,100.000000,,,,,,,,,,,,,,,,
1645708830.408080,176.000000,0.000000,4221.153809,4219.743652,4212.820313,4220.897461,4222.179688,4205.897461,4211.153809,4206.666504,4212.179688,4197.436035,4227.051270,4177.948730,4166.153809,4154.871582,3391.000000,4.000000,91.000000,,,,0.000000,4.000000,4.000000,4.000000,4.000000,4.000000,4.000000,4.000000,4.000000,4.000000,4.000000,4.000000,4.000000,4.000000,4.000000,100.000000,,,,,,,,,,,,,,,,
1645708830.412020,177.000000,0.000000,4220.000000,4219.102539,4209.615234,4220.897461,4219.615234,4203.717773,4210.512695,4206.153809,4209.615234,4192.948730,4221.410156,4175.000000,4162.436035,4149.743652,3488.000000,4.000000,91.000000,,,,0.000000,4.000000,4.000000,4.000000,4.000000,4.000000,4.000000,4.000000,4.000000,4.000000,4.000000,4.000000,4.000000,4.000000,4.000000,100.000000,,,,,,,,,,,,,,,,
1645708830.415960,178.000000,0.000000,4218.205078,4217.436035,4206.794922,4219.615234,4218.974121,4201.153809,4210.000000,4203.333496,4207.820313,4187.179688,4218.077148,4172.948730,4158.333496,4148.461426,2466.000000,4.000000,91.000000,,,,0.000000,4.000000,4.000000,4.000000,4.000000,4.000000,4.000000,4.000000,4.000000,4.000000,4.000000,4.000000,4.000000,4.000000,4.000000,100.000000,,,,,,,,,,,,,,,,
1645708830.419900,179.000000,0.000000,4216.538574,4215.128418,4204.871582,4217.179688,4219.743652,4199.743652,4210.256348,4201.666504,4208.717773,4184.102539,4219.358887,4172.948730,4157.179688,4152.179688,3374.000000,4.000000,91.000000,,,,0.000000,4.000000,4.000000,4.000000,4.000000,4.000000,4.000000,4.000000,4.000000,4.000000,4.000000,4.000000,4.000000,4.000000,4.000000,100.000000,,,,,,,,,,,,,,,,
1645708830.423841,180.000000,0.000000,4215.769043,4212.179688,4204.358887,4213.589844,4218.077148,4199.615234,4211.538574,4203.846191,4212.436035,4185.641113,4223.077148,4174.871582,4159.615234,4158.077148,3391.000000,4.000000,91.000000,,,,0.000000,4.000000,4.000000,4.000000,4.000000,4.000000,4.000000,4.000000,4.000000,4.000000,4.000000,4.000000,4.000000,4.000000,4.000000,100.000000,,,,,,,,,,,,,,,,
1645708830.427781,181.000000,0.000000,4215.897461,4209.102539,4205.769043,4209.615234,4211.794922,4199.871582,4214.230957,4210.256348,4216.666504,4191.282227,4226.025879,4177.948730,4163.461426,4161.794922,3488.000000,4.000000,91.000000,,,,0.000000,4.000000,4.000000,4.000000,4.000000,4.000000,4.000000,4.000000,4.000000,4.000000,4.000000,4.000000,4.000000,4.000000,4.000000,100.000000,,,,,,,,,,,,,,,,
1645708830.431721,182.000000,0.000000,4216.282227,4208.077148,4208.205078,4207.563965,4204.743652,4200.769043,4217.820313,4217.436035,4219.615234,4199.487305,4227.051270,4181.025879,4166.410156,4161.922852,2466.000000,4.000000,91.000000,,,,0.000000,4.000000,4.000000,4.000000,4.000000,4.000000,4.000000,4.000000,4.000000,4.000000,4.000000,4.000000,4.000000,4.000000,4.000000,100.000000,,,,,,,,,,,,,,,,
1645708830.435661,183.000000,0.000000,4216.538574,4211.025879,4210.641113,4209.487305,4203.333496,4203.205078,4220.769043,4221.410156,4220.897461,4207.948730,4228.333496,4183.717773,4167.436035,4160.256348,3374.000000,4.000000,91.000000,,,,0.000000,4.000000,4.000000,4.000000,4.000000,4.000000,4.000000,4.000000,4.000000,4.000000,4.000000,4.000000,4.000000,4.000000,4.000000,100.000000,,,,,,,,,,,,,,,,
1645708830.439601,184.000000,0.000000,4217.051270,4217.436035,4211.922852,4215.000000,4211.025879,4206.666504,4221.410156,4220.000000,4221.538574,4213.333496,4231.153809,4185.256348,4167.307617,4159.615234,3391.000000,4.000000,91.000000,,,,0.000000,4.000000,4.000000,4.000000,4.000000,4.000000,4.000000,4.000000,4.000000,4.000000,4.000000,4.000000,4.000000,4.000000,4.000000,100.000000,,,,,,,,,,,,,,,,
1645708830.443541,185.000000,0.000000,4218.077148,4223.461426,4212.051270,4220.384766,4223.077148,4209.102539,4218.717773,4215.000000,4221.922852,4212.307617,4233.333496,4184.358887,4166.922852,4159.871582,3488.000000,4.000000,91.000000,,,,0.000000,4.000000,4.000000,4.000000,4.000000,4.000000,4.000000,4.000000,4.000000,4.000000,4.000000,4.000000,4.000000,4.000000,4.000000,100.000000,,,,,,,,,,,,,,,,
1645708830.447481,186.000000,0.000000,4218.717773,4225.000000,4210.769043,4221.410156,4231.538574,4208.461426,4214.230957,4210.128418,4222.307617,4204.871582,4231.282227,4180.384766,4165.769043,4158.461426,2466.000000,4.000000,91.000000,,,,0.000000,4.000000,4.000000,4.000000,4.000000,4.000000,4.000000,4.000000,4.000000,4.000000,4.000000,4.000000,4.000000,4.000000,4.000000,100.000000,,,,,,,,,,,,,,,,
1645708830.451421,187.000000,0.000000,4217.307617,4220.897461,4208.077148,4217.436035,4231.410156,4204.871582,4210.897461,4207.820313,4222.179688,4195.128418,4223.846191,4174.871582,4163.974121,4154.358887,3374.000000,4.000000,91.000000,,,,0.000000,4.000000,4.000000,4.000000,4.000000,4.000000,4.000000,4.000000,4.000000,4.000000,4.000000,4.000000,4.000000,4.000000,4.000000,100.000000,,,,,,,,,,,,,,,,
1645708830.455361,188.000000,0.000000,4213.333496,4214.615234,4204.743652,4211.666504,4224.871582,4201.153809,4210.128418,4207.436035,4221.794922,4189.487305,4215.641113,4170.769043,4162.436035,4149.871582,3391.000000,4.000000,91.000000,,,,0.000000,4.000000,4.000000,4.000000,4.000000,4.000000,4.000000,4.000000,4.000000,4.000000,4.000000,4.000000,4.000000,4.000000,4.000000,100.000000,,,,,,,,,,,,,,,,
1645708830.459302,189.000000,0.000000,4208.333496,4210.512695,4202.179688,4207.692383,4217.948730,4199.871582,4211.282227,4206.538574,4220.897461,4191.282227,4212.692383,4170.384766,4162.563965,4147.948730,3488.000000,4.000000,91.000000,,,,0.000000,4.000000,4.000000,4.000000,4.000000,4.000000,4.000000,4.000000,4.000000,4.000000,4.000000,4.000000,4.000000,4.000000,4.000000,100.000000,,,,,,,,,,,,,,,,
1645708830.463242,190.000000,0.000000,4204.615234,4209.230957,4201.538574,4205.769043,4215.000000,4200.512695,4212.563965,4203.974121,4218.461426,4197.692383,4216.153809,4172.307617,4163.974121,4148.589844,2466.000000,4.000000,91.000000,,,,0.000000,4.000000,4.000000,4.000000,4.000000,4.000000,4.000000,4.000000,4.000000,4.000000,4.000000,4.000000,4.000000,4.000000,4.000000,100.000000,,,,,,,,,,,,,,,,
1645708830.467182,191.000000,0.000000,4203.205078,4207.820313,4202.563965,4203.846191,4215.512695,4200.769043,4212.436035,4200.897461,4213.974121,4201.794922,4221.282227,4173.333496,4164.230957,4148.974121,3374.000000,4.000000,91.000000,,,,0.000000,4.000000,4.000000,4.000000,4.000000,4.000000,4.000000,4.000000,4.000000,4.000000,4.000000,4.000000,4.000000,4.000000,4.000000,100.000000,,,,,,,,,,,,,,,,
1645708830.471122,192.000000,0.000000,4203.333496,4203.974121,4204.102539,4201.025879,4216.282227,4199.358887,4211.282227,4199.743652,4208.717773,4198.974121,4222.436035,4171.282227,4161.282227,4147.179688,3391.000000,4.000000,91.000000,,,,0.000000,4.000000,4.000000,4.000000,4.000000,4.000000,4.000000,4.000000,4.000000,4.000000,4.000000,4.000000,4.000000,4.000000,4.000000,100.000000,,,,,,,,,,,,,,,,
1645708830.474962,193.000000,0.000000,4203.846191,4199.102539,4204.615234,4198.717773,4215.897461,4197.051270,4210.384766,4201.410156,4205.256348,4191.794922,4218.333496,4167.820313,4156.025879,4144.230957,3488.000000,4.000000,91.000000,,,,0.000000,4.000000,4.000000,4.000000,4.000000,4.000000,4.000000,4.000000,4.000000,4.000000,4.000000,4.000000,4.000000,4.000000,4.000000,100.000000,,,,,,,,,,,,,,,,
1645708830.478902,194.000000,0.000000,4204.615234,4197.179688,4203.589844,4198.974121,4214.871582,4196.025879,4210.384766,4205.000000,4206.025879,4186.922852,4213.717773,4166.282227,4152.436035,4143.461426,2466.000000,4.000000,91.000000,,,,0.000000,4.000000,4.000000,4.000000,4.000000,4.000000,4.000000,4.000000,4.000000,4.000000,4.000000,4.000000,4.000000,4.000000,4.000000,100.000000,,,,,,,,,,,,,,,,
1645708830.482842,195.000000,0.000000,4206.538574,4200.512695,4202.692383,4201.282227,4214.487305,4196.922852,4211.025879,4207.948730,4210.256348,4189.358887,4213.717773,4168.717773,4154.230957,4146.282227,3374.000000,4.000000,91.000000,,,,0.000000,4.000000,4.000000,4.000000,4.000000,4.000000,4.000000,4.000000,4.000000,4.000000,4.000000,4.000000,4.000000,4.000000,4.000000,100.000000,,,,,,,,,,,,,,,,
1645708830.486782,196.000000,0.000000,4209.358887,4206.922852,4203.077148,4202.948730,4214.871582,4198.589844,4211.794922,4209.102539,4215.641113,4198.333496,4220.000000,4173.846191,4161.538574,4151.410156,3391.000000,4.000000,91.000000,,,,0.000000,4.000000,4.000000,4.000000,4.000000,4.000000,4.000000,4.000000,4.000000,4.000000,4.000000,4.000000,4.000000,4.000000,4.000000,100.000000,,,,,,,,,,,,,,,,
1645708830.490722,197.000000,0.000000,4211.794922,4211.666504,4204.743652,4202.051270,4215.512695,4200.128418,4212.179688,4208.717773,4219.743652,4208.974121,4230.128418,4178.461426,4170.897461,4156.025879,3488.000000,4.000000,91.000000,,,,0.000000,4.000000,4.000000,4.000000,4.000000,4.000000,4.000000,4.000000,4.000000,4.000000,4.000000,4.000000,4.000000,4.000000,4.000000,100.000000,,,,,,,,,,,,,,,,
1645708830.494663,198.000000,0.000000,4211.410156,4211.410156,4205.256348,4198.974121,4216.538574,4201.538574,4211.666504,4208.205078,4221.794922,4216.922852,4240.256348,4179.871582,4178.077148,4157.436035,2466.000000,4.000000,91.000000,,,,0.000000,4.000000,4.000000,4.000000,4.000000,4.000000,4.000000,4.000000,4.000000,4.000000,4.000000,4.000000,4.000000,4.000000,4.000000,100.000000,,,,,,,,,,,,,,,,
1645708830.498603,199.000000,0.000000,4207.692383,4206.025879,4202.948730,4196.282227,4217.436035,4203.077148,4210.000000,4208.717773,4221.666504,4220.256348,4246.153809,4177.692383,4180.512695,4154.871582,3374.000000,4.000000,91.000000,,,,0.000000,4.000000,4.000000,4.000000,4.000000,4.000000,4.000000,4.000000,4.000000,4.000000,4.000000,4.000000,4.000000,4.000000,4.000000,100.000000,,,,,,,,,,,,,,,,
1645708830.502543,200.000000,0.000000,4202.179688,4198.589844,4198.461426,4195.512695,4217.051270,4203.333496,4207.179688,4209.871582,4220.641113,4218.717773,4245.512695,4173.077148,4178.589844,4149.615234,3391.000000,4.000000,91.000000,,,,0.000000,4.000000,4.000000,4.000000,4.000000,4.000000,4.000000,4.000000,4.000000,4.000000,4.000000,4.000000,4.000000,4.000000,4.000000,100.000000,,,,,,,,,,,,,,,,
1645708830.506483,201.000000,0.000000,4198.461426,4193.974121,4194.230957,4197.051270,4214.615234,4201.025879,4204.358887,4210.384766,4219.615234,4213.589844,4238.717773,4167.948730,4175.128418,4144.615234,3488.000000,4.000000,91.000000,,,,0.000000,4.000000,4.000000,4.000000,4.000000,4.000000,4.000000,4.000000,4.000000,4.000000,4.000000,4.000000,4.000000,4.000000,4.000000,100.000000,,,,,,,,,,,,,,,,
1645708830.510423,202.000000,0.000000,4198.846191,4195.641113,4192.436035,4200.000000,4212.563965,4197.179688,4203.333496,4209.487305,4219.487305,4207.563965,4230.256348,4164.615234,4172.948730,4143.077148,2466.000000,4.000000,91.000000,,,,0.000000,4.000000,4.000000,4.000000,4.000000,4.000000,4.000000,4.000000,4.000000,4.000000,4.000000,4.000000,4.000000,4.000000,4.000000,100.000000,,,,,,,,,,,,,,,,
1645708830.514363,203.000000,0.000000,4203.077148,4204.230957,4193.846191,4203.846191,4214.102539,4194.871582,4205.000000,4207.563965,4220.512695,4204.487305,4226.025879,4164.230957,4173.846191,4146.410156,3374.000000,4.000000,91.000000,,,,0.000000,4.000000,4.000000,4.000000,4.000000,4.000000,4.000000,4.000000,4.000000,4.000000,4.000000,4.000000,4.000000,4.000000,4.000000,100.000000,,,,,,,,,,,,,,,,
1645708830.518303,204.000000,0.000000,4208.589844,4215.384766,4196.538574,4207.563965,4219.743652,4195.897461,4207.692383,4205.769043,4221.666504,4205.641113,4228.205078,4166.282227,4177.051270,4152.820313,3391.000000,4.000000,91.000000,,,,0.000000,4.000000,4.000000,4.000000,4.000000,4.000000,4.000000,4.000000,4.000000,4.000000,4.000000,4.000000,4.000000,4.000000,4.000000,100.000000,,,,,,,,,,,,,,,,
1645708830.522243,205.000000,0.000000,4212.563965,4223.205078,4198.589844,4210.128418,4225.000000,4198.846191,4209.102539,4205.512695,4221.666504,4209.230957,4233.974121,4168.974121,4180.000000,4158.717773,3488.000000,4.000000,91.000000,,,,0.000000,4.000000,4.000000,4.000000,4.000000,4.000000,4.000000,4.000000,4.000000,4.000000,4.000000,4.000000,4.000000,4.000000,4.000000,100.000000,,,,,,,,,,,,,,,,
1645708830.526183,206.000000,0.000000,4214.230957,4223.974121,4199.102539,4210.641113,4224.743652,4200.897461,4208.589844,4207.051270,4220.000000,4212.051270,4238.846191,4171.538574,4180.769043,4161.666504,2466.000000,4.000000,91.000000,,,,0.000000,4.000000,4.000000,4.000000,4.000000,4.000000,4.000000,4.000000,4.000000,4.000000,4.000000,4.000000,4.000000,4.000000,4.000000,100.000000,,,,,,,,,,,,,,,,
1645708830.530124,207.000000,0.000000,4214.487305,4220.128418,4199.615234,4210.384766,4219.230957,4201.538574,4207.820313,4210.128418,4218.589844,4214.615234,4241.153809,4174.615234,4180.128418,4162.051270,3374.000000,4.000000,91.000000,,,,0.000000,4.000000,4.000000,4.000000,4.000000,4.000000,4.000000,4.000000,4.000000,4.000000,4.000000,4.000000,4.000000,4.000000,4.000000,100.000000,,,,,,,,,,,,,,,,
1645708830.534064,208.000000,0.000000,4214.871582,4217.692383,4201.666504,4212.179688,4214.487305,4203.461426,4209.102539,4213.205078,4218.974121,4218.717773,4242.820313,4178.846191,4180.512695,4162.307617,3391.000000,4.000000,91.000000,,,,0.000000,4.000000,4.000000,4.000000,4.000000,4.000000,4.000000,4.000000,4.000000,4.000000,4.000000,4.000000,4.000000,4.000000,4.000000,100.000000,,,,,,,,,,,,,,,,
1645708830.538004,209.000000,0.000000,4215.641113,4220.000000,4204.871582,4216.282227,4215.897461,4207.307617,4212.563965,4214.358887,4221.025879,4223.717773,4245.256348,4182.692383,4182.563965,4162.820313,3488.000000,4.000000,91.000000,,,,0.000000,4.000000,4.000000,4.000000,4.000000,4.000000,4.000000,4.000000,4.000000,4.000000,4.000000,4.000000,4.000000,4.000000,4.000000,100.000000,,,,,,,,,,,,,,,,
1645708830.541944,210.000000,0.000000,4215.128418,4224.358887,4207.051270,4220.000000,4222.307617,4210.512695,4215.769043,4212.948730,4222.820313,4224.871582,4246.538574,4182.692383,4184.102539,4161.666504,2466.000000,4.000000,91.000000,,,,0.000000,4.000000,4.000000,4.000000,4.000000,4.000000,4.000000,4.000000,4.000000,4.000000,4.000000,4.000000,4.000000,4.000000,4.000000,100.000000,,,,,,,,,,,,,,,,
1645708830.545784,211.000000,0.000000,4211.538574,4225.000000,4205.641113,4219.487305,4227.051270,4208.717773,4215.897461,4210.000000,4222.436035,4217.692383,4243.846191,4177.179688,4182.948730,4157.051270,3374.000000,4.000000,91.000000,,,,0.000000,4.000000,4.000000,4.000000,4.000000,4.000000,4.000000,4.000000,4.000000,4.000000,4.000000,4.000000,4.000000,4.000000,4.000000,100.000000,,,,,,,,,,,,,,,,
1645708830.549724,212.000000,0.000000,4205.384766,4219.487305,4200.128418,4214.102539,4225.000000,4201.794922,4212.051270,4207.307617,4220.256348,4204.358887,4236.922852,4167.948730,4179.230957,4150.512695,3391.000000,4.000000,91.000000,,,,0.000000,4.000000,4.000000,4.000000,4.000000,4.000000,4.000000,4.000000,4.000000,4.000000,4.000000,4.000000,4.000000,4.000000,4.000000,100.000000,,,,,,,,,,,,,,,,
1645708830.553664,213.000000,0.000000,4199.615234,4211.922852,4193.205078,4207.820313,4217.436035,4194.743652,4207.051270,4205.641113,4217.948730,4193.461426,4228.974121,4160.512695,4175.641113,4145.384766,3488.000000,4.000000,91.000000,,,,0.000000,4.000000,4.000000,4.000000,4.000000,4.000000,4.000000,4.000000,4.000000,4.000000,4.000000,4.000000,4.000000,4.000000,4.000000,100.000000,,,,,,,,,,,,,,,,
1645708830.557604,214.000000,0.000000,4197.051270,4208.974121,4188.589844,4205.384766,4211.153809,4193.333496,4203.974121,4204.743652,4217.179688,4193.461426,4224.102539,4159.230957,4174.230957,4143.846191,2466.000000,4.000000,91.000000,,,,0.000000,4.000000,4.000000,4.000000,4.000000,4.000000,4.000000,4.000000,4.000000,4.000000,4.000000,4.000000,4.000000,4.000000,4.000000,100.000000,,,,,,,,,,,,,,,,
1645708830.561544,215.000000,0.000000,4198.461426,4214.102539,4188.974121,4208.077148,4211.025879,4198.333496,4204.358887,4204.615234,4218.077148,4204.743652,4223.589844,4164.358887,4175.256348,4145.384766,3374.000000,4.000000,91.000000,,,,0.000000,4.000000,4.000000,4.000000,4.000000,4.000000,4.000000,4.000000,4.000000,4.000000,4.000000,4.000000,4.000000,4.000000,4.000000,100.000000,,,,,,,,,,,,,,,,
1645708830.565485,216.000000,0.000000,4202.051270,4223.205078,4193.974121,4212.820313,4216.538574,4205.000000,4207.436035,4205.128418,4219.615234,4218.717773,4226.410156,4171.666504,4177.179688,4148.333496,3391.000000,4.000000,91.000000,,,,0.000000,4.000000,4.000000,4.000000,4.000000,4.000000,4.000000,4.000000,4.000000,4.000000,4.000000,4.000000,4.000000,4.000000,4.000000,100.000000,,,,,,,,,,,,,,,,
1645708830.569425,217.000000,0.000000,4205.000000,4229.615234,4200.128418,4215.769043,4223.077148,4208.461426,4210.641113,4206.025879,4221.153809,4225.897461,4230.769043,4175.641113,4178.077148,4151.153809,3488.000000,4.000000,91.000000,,,,0.000000,4.000000,4.000000,4.000000,4.000000,4.000000,4.000000,4.000000,4.000000,4.000000,4.000000,4.000000,4.000000,4.000000,4.000000,100.000000,,,,,,,,,,,,,,,,
1645708830.573365,218.000000,0.000000,4205.128418,4228.717773,4203.333496,4215.512695,4226.282227,4207.307617,4211.794922,4206.282227,4222.179688,4222.820313,4235.769043,4173.846191,4177.692383,4153.077148,2466.000000,4.000000,91.000000,,,,0.000000,4.000000,4.000000,4.000000,4.000000,4.000000,4.000000,4.000000,4.000000,4.000000,4.000000,4.000000,4.000000,4.000000,4.000000,100.000000,,,,,,,,,,,,,,,,
1645708830.577305,219.000000,0.000000,4203.077148,4222.436035,4202.051270,4213.589844,4225.128418,4203.974121,4210.128418,4204.743652,4222.692383,4213.717773,4240.000000,4167.307617,4177.179688,4153.461426,3374.000000,4.000000,91.000000,,,,0.000000,4.000000,4.000000,4.000000,4.000000,4.000000,4.000000,4.000000,4.000000,4.000000,4.000000,4.000000,4.000000,4.000000,4.000000,100.000000,,,,,,,,,,,,,,,,
1645708830.581245,220.000000,0.000000,4200.769043,4215.256348,4198.589844,4211.922852,4221.025879,4201.153809,4206.922852,4202.179688,4222.307617,4205.512695,4241.153809,4160.512695,4177.179688,4151.666504,3391.000000,4.000000,91.000000,,,,0.000000,4.000000,4.000000,4.000000,4.000000,4.000000,4.000000,4.000000,4.000000,4.000000,4.000000,4.000000,4.000000,4.000000,4.000000,100.000000,,,,,,,,,,,,,,,,
1645708830.585185,221.000000,0.000000,4200.000000,4211.153809,4196.538574,4211.025879,4216.153809,4199.358887,4204.743652,4200.128418,4220.512695,4203.333496,4237.948730,4157.563965,4177.051270,4147.692383,3488.000000,4.000000,91.000000,,,,0.000000,4.000000,4.000000,4.000000,4.000000,4.000000,4.000000,4.000000,4.000000,4.000000,4.000000,4.000000,4.000000,4.000000,4.000000,100.000000,,,,,,,,,,,,,,,,
1645708830.589125,222.000000,0.000000,4200.769043,4210.384766,4197.179688,4210.512695,4212.563965,4198.077148,4204.743652,4200.256348,4216.410156,4207.051270,4232.051270,4159.615234,4175.641113,4143.461426,2466.000000,4.000000,91.000000,,,,0.000000,4.000000,4.000000,4.000000,4.000000,4.000000,4.000000,4.000000,4.000000,4.000000,4.000000,4.000000,4.000000,4.000000,4.000000,100.000000,,,,,,,,,,,,,,,,
1645708830.593065,223.000000,0.000000,4201.922852,4211.410156,4199.487305,4209.743652,4211.794922,4196.794922,4205.641113,4202.948730,4211.794922,4213.205078,4227.307617,4164.487305,4173.205078,4141.410156,3374.000000,4.000000,91.000000,,,,0.000000,4.000000,4.000000,4.000000,4.000000,4.000000,4.000000,4.000000,4.000000,4.000000,4.000000,4.000000,4.000000,4.000000,4.000000,100.000000,,,,,,,,,,,,,,,,
1645708830.597005,224.000000,0.000000,4202.436035,4211.666504,4201.025879,4208.589844,4213.589844,4195.256348,4204.871582,4206.410156,4209.358887,4216.922852,4226.153809,4168.461426,4171.025879,4142.948730,3391.000000,4.000000,91.000000,,,,0.000000,4.000000,4.000000,4.000000,4.000000,4.000000,4.000000,4.000000,4.000000,4.000000,4.000000,4.000000,4.000000,4.000000,4.000000,100.000000,,,,,,,,,,,,,,,,
1645708830.600946,225.000000,0.000000,4202.051270,4210.000000,4200.769043,4206.794922,4216.410156,4193.589844,4201.794922,4208.333496,4210.897461,4215.769043,4226.794922,4168.589844,4169.871582,4146.666504,3488.000000,4.000000,91.000000,,,,0.000000,4.000000,4.000000,4.000000,4.000000,4.000000,4.000000,4.000000,4.000000,4.000000,4.000000,4.000000,4.000000,4.000000,4.000000,100.000000,,,,,,,,,,,,,,,,
1645708830.604886,226.000000,0.000000,4201.153809,4206.666504,4199.871582,4204.615234,4217.307617,4192.051270,4198.077148,4207.820313,4215.000000,4210.641113,4226.025879,4165.641113,4169.358887,4149.358887,2466.000000,4.000000,91.000000,,,,0.000000,4.000000,4.000000,4.000000,4.000000,4.000000,4.000000,4.000000,4.000000,4.000000,4.000000,4.000000,4.000000,4.000000,4.000000,100.000000,,,,,,,,,,,,,,,,
1645708830.608826,227.000000,0.000000,4200.256348,4203.974121,4199.615234,4203.333496,4214.743652,4191.410156,4196.794922,4205.769043,4218.333496,4205.384766,4223.205078,4162.436035,4168.717773,4149.230957,3374.000000,4.000000,91.000000,,,,0.000000,4.000000,4.000000,4.000000,4.000000,4.000000,4.000000,4.000000,4.000000,4.000000,4.000000,4.000000,4.000000,4.000000,4.000000,100.000000,,,,,,,,,,,,,,,,
1645708830.612766,228.000000,0.000000,4199.871582,4204.102539,4200.512695,4203.974121,4209.743652,4192.179688,4199.230957,4204.230957,4218.461426,4203.077148,4220.512695,4161.666504,4167.051270,4147.051270,3391.000000,4.000000,91.000000,,,,0.000000,4.000000,4.000000,4.000000,4.000000,4.000000,4.000000,4.000000,4.000000,4.000000,4.000000,4.000000,4.000000,4.000000,4.000000,100.000000,,,,,,,,,,,,,,,,
1645708830.616806,229.000000,0.000000,4199.743652,4206.922852,4201.538574,4206.025879,4205.128418,4193.974121,4203.717773,4204.487305,4216.282227,4203.717773,4220.128418,4163.717773,4164.743652,4145.000000,3488.000000,4.000000,91.000000,,,,0.000000,4.000000,4.000000,4.000000,4.000000,4.000000,4.000000,4.000000,4.000000,4.000000,4.000000,4.000000,4.000000,4.000000,4.000000,100.000000,,,,,,,,,,,,,,,,
1645708830.620746,230.000000,0.000000,4200.000000,4210.256348,4202.307617,4207.436035,4202.820313,4195.128418,4206.794922,4206.666504,4213.717773,4205.128418,4221.666504,4166.410156,4163.717773,4144.230957,2466.000000,4.000000,91.000000,,,,0.000000,4.000000,4.000000,4.000000,4.000000,4.000000,4.000000,4.000000,4.000000,4.000000,4.000000,4.000000,4.000000,4.000000,4.000000,100.000000,,,,,,,,,,,,,,,,
1645708830.624686,231.000000,0.000000,4200.512695,4210.641113,4202.307617,4205.512695,4202.692383,4194.358887,4206.666504,4209.102539,4211.922852,4204.871582,4222.563965,4167.307617,4164.871582,4143.846191,3374.000000,4.000000,91.000000,,,,0.000000,4.000000,4.000000,4.000000,4.000000,4.000000,4.000000,4.000000,4.000000,4.000000,4.000000,4.000000,4.000000,4.000000,4.000000,100.000000,,,,,,,,,,,,,,,,
1645708830.628626,232.000000,0.000000,4201.025879,4207.563965,4201.922852,4201.025879,4204.102539,4192.436035,4204.743652,4210.641113,4211.025879,4202.051270,4220.641113,4166.025879,4166.538574,4142.692383,3391.000000,4.000000,91.000000,,,,0.000000,4.000000,4.000000,4.000000,4.000000,4.000000,4.000000,4.000000,4.000000,4.000000,4.000000,4.000000,4.000000,4.000000,4.000000,100.000000,,,,,,,,,,,,,,,,
1645708830.632566,233.000000,0.000000,4201.025879,4203.589844,4200.897461,4197.051270,4206.538574,4192.563965,4204.230957,4210.769043,4210.512695,4198.077148,4217.307617,4163.589844,4165.641113,4140.641113,3488.000000,4.000000,91.000000,,,,0.000000,4.000000,4.000000,4.000000,4.000000,4.000000,4.000000,4.000000,4.000000,4.000000,4.000000,4.000000,4.000000,4.000000,4.000000,100.000000,,,,,,,,,,,,,,,,
1645708830.636506,234.000000,0.000000,4200.000000,4202.051270,4199.230957,4197.051270,4209.871582,4196.538574,4206.794922,4210.512695,4210.769043,4195.256348,4215.641113,4161.666504,4160.128418,4138.717773,2466.000000,4.000000,91.000000,,,,0.000000,4.000000,4.000000,4.000000,4.000000,4.000000,4.000000,4.000000,4.000000,4.000000,4.000000,4.000000,4.000000,4.000000,4.000000,100.000000,,,,,,,,,,,,,,,,
1645708830.640446,235.000000,0.000000,4198.333496,4203.589844,4197.692383,4200.641113,4212.692383,4202.436035,4210.512695,4210.641113,4212.179688,4194.487305,4217.436035,4160.384766,4150.897461,4137.307617,3374.000000,4.000000,91.000000,,,,0.000000,4.000000,4.000000,4.000000,4.000000,4.000000,4.000000,4.000000,4.000000,4.000000,4.000000,4.000000,4.000000,4.000000,4.000000,100.000000,,,,,,,,,,,,,,,,
1645708830.644387,236.000000,0.000000,4196.410156,4205.128418,4197.051270,4204.358887,4213.077148,4206.153809,4212.307617,4210.641113,4214.358887,4195.128418,4221.025879,4159.615234,4141.794922,4136.153809,3391.000000,4.000000,91.000000,,,,0.000000,4.000000,4.000000,4.000000,4.000000,4.000000,4.000000,4.000000,4.000000,4.000000,4.000000,4.000000,4.000000,4.000000,4.000000,100.000000,,,,,,,,,,,,,,,,
1645708830.648327,237.000000,0.000000,4195.384766,4204.230957,4197.820313,4205.384766,4210.641113,4205.000000,4210.641113,4209.871582,4215.769043,4196.538574,4223.461426,4159.871582,4137.307617,4135.384766,3488.000000,4.000000,91.000000,,,,0.000000,4.000000,4.000000,4.000000,4.000000,4.000000,4.000000,4.000000,4.000000,4.000000,4.000000,4.000000,4.000000,4.000000,4.000000,100.000000,,,,,,,,,,,,,,,,
1645708830.652267,238.000000,0.000000,4195.512695,4201.538574,4199.230957,4203.846191,4208.205078,4200.384766,4207.307617,4207.948730,4215.769043,4199.487305,4223.974121,4161.794922,4141.025879,4136.410156,2466.000000,4.000000,91.000000,,,,0.000000,4.000000,4.000000,4.000000,4.000000,4.000000,4.000000,4.000000,4.000000,4.000000,4.000000,4.000000,4.000000,4.000000,4.000000,100.000000,,,,,,,,,,,,,,,,
1645708830.656207,239.000000,0.000000,4196.922852,4200.256348,4200.384766,4202.563965,4208.333496,4196.025879,4204.743652,4205.897461,4214.615234,4205.128418,4225.000000,4166.282227,4152.179688,4141.153809,3374.000000,4.000000,91.000000,,,,0.000000,4.000000,4.000000,4.000000,4.000000,4.000000,4.000000,4.000000,4.000000,4.000000,4.000000,4.000000,4.000000,4.000000,4.000000,100.000000,,,,,,,,,,,,,,,,
1645708830.660147,240.000000,0.000000,4198.974121,4202.179688,4200.769043,4203.333496,4211.282227,4194.358887,4204.487305,4205.384766,4213.589844,4212.563965,4228.974121,4172.307617,4166.282227,4148.974121,3391.000000,4.000000,91.000000,,,,0.000000,4.000000,4.000000,4.000000,4.000000,4.000000,4.000000,4.000000,4.000000,4.000000,4.000000,4.000000,4.000000,4.000000,4.000000,100.000000,,,,,,,,,,,,,,,,
1645708830.664087,241.000000,0.000000,4201.153809,4206.282227,4200.769043,4205.256348,4213.974121,4194.743652,4205.769043,4207.307617,4213.077148,4218.461426,4235.256348,4177.692383,4177.051270,4155.897461,3488.000000,4.000000,91.000000,,,,0.000000,4.000000,4.000000,4.000000,4.000000,4.000000,4.000000,4.000000,4.000000,4.000000,4.000000,4.000000,4.000000,4.000000,4.000000,100.000000,,,,,,,,,,,,,,,,
1645708830.668027,242.000000,0.000000,4202.820313,4209.743652,4201.666504,4206.025879,4213.974121,4195.256348,4207.051270,4210.128418,4212.820313,4219.487305,4241.282227,4179.871582,4180.897461,4158.333496,2466.000000,4.000000,91.000000,,,,0.000000,4.000000,4.000000,4.000000,4.000000,4.000000,4.000000,4.000000,4.000000,4.000000,4.000000,4.000000,4.000000,4.000000,4.000000,100.000000,,,,,,,,,,,,,,,,
1645708830.671967,243.000000,0.000000,4203.461426,4211.538574,4203.974121,4205.128418,4211.794922,4195.512695,4207.563965,4210.897461,4212.179688,4216.025879,4244.871582,4178.974121,4179.102539,4156.538574,3374.000000,4.000000,91.000000,,,,0.000000,4.000000,4.000000,4.000000,4.000000,4.000000,4.000000,4.000000,4.000000,4.000000,4.000000,4.000000,4.000000,4.000000,4.000000,100.000000,,,,,,,,,,,,,,,,
1645708830.675907,244.000000,0.000000,4202.692383,4212.051270,4206.794922,4204.230957,4210.512695,4196.153809,4207.563965,4208.205078,4211.538574,4212.436035,4245.897461,4176.794922,4176.538574,4153.974121,3391.000000,4.000000,91.000000,,,,0.000000,4.000000,4.000000,4.000000,4.000000,4.000000,4.000000,4.000000,4.000000,4.000000,4.000000,4.000000,4.000000,4.000000,4.000000,100.000000,,,,,,,,,,,,,,,,
1645708830.679848,245.000000,0.000000,4201.410156,4212.179688,4208.717773,4205.128418,4211.666504,4197.820313,4207.436035,4202.692383,4211.538574,4212.307617,4244.615234,4175.641113,4176.538574,4153.717773,3488.000000,4.000000,91.000000,,,,0.000000,4.000000,4.000000,4.000000,4.000000,4.000000,4.000000,4.000000,4.000000,4.000000,4.000000,4.000000,4.000000,4.000000,4.000000,100.000000,,,,,,,,,,,,,,,,
1645708830.683888,246.000000,0.000000,4200.769043,4212.692383,4208.333496,4207.436035,4213.205078,4198.589844,4207.436035,4197.563965,4212.051270,4214.487305,4242.051270,4176.025879,4179.102539,4155.641113,2466.000000,4.000000,91.000000,,,,0.000000,4.000000,4.000000,4.000000,4.000000,4.000000,4.000000,4.000000,4.000000,4.000000,4.000000,4.000000,4.000000,4.000000,4.000000,100.000000,,,,,,,,,,,,,,,,
1645708830.687828,247.000000,0.000000,4201.794922,4213.077148,4206.282227,4209.102539,4211.794922,4196.922852,4207.051270,4196.282227,4213.333496,4215.000000,4238.974121,4177.051270,4181.410156,4157.307617,3374.000000,4.000000,91.000000,1,1,0,0.000000,4.000000,4.000000,4.000000,4.000000,4.000000,4.000000,4.000000,4.000000,4.000000,4.000000,4.000000,4.000000,4.000000,4.000000,100.000000,,,,,,,,,,,,,,,,
1645708830.691768,248.000000,0.000000,4203.846191,4213.846191,4204.102539,4209.102539,4207.307617,4193.333496,4206.410156,4199.871582,4215.897461,4211.794922,4237.051270,4177.563965,4181.538574,4157.307617,3391.000000,4.000000,91.000000,,,,0.000000,4.000000,4.000000,4.000000,4.000000,4.000000,4.000000,4.000000,4.000000,4.000000,4.000000,4.000000,4.000000,4.000000,4.000000,100.000000,,,,,,,,,,,,,,,,
1645708830.695708,249.000000,0.000000,4205.512695,4215.384766,4203.461426,4208.333496,4202.563965,4190.256348,4205.897461,4206.282227,4219.615234,4207.436035,4237.563965,4177.948730,4180.128418,4156.282227,3488.000000,4.000000,91.000000,,,,0.000000,4.000000,4.000000,4.000000,4.000000,4.000000,4.000000,4.000000,4.000000,4.000000,4.000000,4.000000,4.000000,4.000000,4.000000,100.000000,,,,,,,,,,,,,,,,
1645708830.699648,250.000000,0.000000,4205.641113,4217.307617,4204.487305,4208.461426,4200.641113,4190.000000,4205.769043,4211.538574,4223.589844,4206.153809,4240.000000,4178.461426,4179.615234,4155.769043,2466.000000,4.000000,91.000000,,,,0.000000,4.000000,4.000000,4.000000,4.000000,4.000000,4.000000,4.000000,4.000000,4.000000,4.000000,4.000000,4.000000,4.000000,4.000000,100.000000,,,,,,,,,,,,,,,,
1645708830.703588,251.000000,0.000000,4204.871582,4218.461426,4206.025879,4209.871582,4202.307617,4192.436035,4206.153809,4213.205078,4226.282227,4209.102539,4241.794922,4178.974121,4180.128418,4155.769043,3374.000000,4.000000,91.000000,,,,0.000000,4.000000,4.000000,4.000000,4.000000,4.000000,4.000000,4.000000,4.000000,4.000000,4.000000,4.000000,4.000000,4.000000,4.000000,100.000000,,,,,,,,,,,,,,,,
1645708830.707428,252.000000,0.000000,4204.102539,4217.692383,4207.179688,4211.282227,4206.410156,4196.025879,4207.436035,4211.666504,4227.307617,4213.333496,4239.615234,4178.077148,4180.128418,4155.256348,3391.000000,4.000000,91.000000,,,,0.000000,4.000000,4.000000,4.000000,4.000000,4.000000,4.000000,4.000000,4.000000,4.000000,4.000000,4.000000,4.000000,4.000000,4.000000,100.000000,,,,,,,,,,,,,,,,
1645708830.711368,253.000000,0.000000,4202.948730,4215.641113,4207.307617,4211.666504,4211.666504,4199.615234,4209.615234,4209.358887,4226.922852,4215.000000,4233.333496,4175.512695,4177.692383,4153.205078,3488.000000,4.000000,91.000000,,,,0.000000,4.000000,4.000000,4.000000,4.000000,4.000000,4.000000,4.000000,4.000000,4.000000,4.000000,4.000000,4.000000,4.000000,4.000000,100.000000,,,,,,,,,,,,,,,,
1645708830.715308,254.000000,0.000000,4201.025879,4213.461426,4205.769043,4210.641113,4217.563965,4203.077148,4212.051270,4207.948730,4226.025879,4212.436035,4226.153809,4171.153809,4172.820313,4149.230957,2466.000000,4.000000,91.000000,,,,0.000000,4.000000,4.000000,4.000000,4.000000,4.000000,4.000000,4.000000,4.000000,4.000000,4.000000,4.000000,4.000000,4.000000,4.000000,100.000000,,,,,,,,,,,,,,,,
1645708830.719249,255.000000,0.000000,4198.077148,4211.410156,4202.563965,4208.589844,4222.436035,4206.025879,4213.461426,4207.948730,4225.000000,4206.538574,4221.410156,4165.641113,4166.666504,4143.846191,114.000000,4.000000,91.000000,,,,0.000000,4.000000,4.000000,4.000000,4.000000,4.000000,4.000000,4.000000,4.000000,4.000000,4.000000,4.000000,4.000000,4.000000,4.000000,100.000000,,,,,,,,,,,,,,,,
1645708830.723189,0.000000,0.000000,4194.743652,4208.461426,4198.077148,4205.512695,4223.846191,4207.179688,4212.820313,4208.974121,4224.487305,4198.589844,4219.743652,4159.871582,4160.641113,4138.461426,3237.000000,4.000000,91.000000,,,,0.000000,4.000000,4.000000,4.000000,4.000000,4.000000,4.000000,4.000000,4.000000,4.000000,4.000000,4.000000,4.000000,4.000000,4.000000,100.000000,,,,,,,,,,,,,,,,
1645708830.727129,1.000000,0.000000,4192.051270,4204.230957,4193.974121,4201.410156,4220.897461,4206.025879,4211.025879,4210.384766,4225.000000,4190.769043,4218.846191,4155.000000,4156.153809,4134.487305,3471.000000,4.000000,91.000000,,,,0.000000,4.000000,4.000000,4.000000,4.000000,4.000000,4.000000,4.000000,4.000000,4.000000,4.000000,4.000000,4.000000,4.000000,4.000000,100.000000,,,,,,,,,,,,,,,,
1645708830.731069,2.000000,0.000000,4190.128418,4200.128418,4191.666504,4197.820313,4215.769043,4203.589844,4209.358887,4211.666504,4226.410156,4186.538574,4217.692383,4152.179688,4153.974121,4133.333496,2934.000000,4.000000,91.000000,,,,0.000000,4.000000,4.000000,4.000000,4.000000,4.000000,4.000000,4.000000,4.000000,4.000000,4.000000,4.000000,4.000000,4.000000,4.000000,100.000000,,,,,,,,,,,,,,,,
1645708830.735009,3.000000,0.000000,4188.589844,4198.333496,4191.794922,4196.538574,4212.436035,4201.922852,4208.589844,4211.922852,4227.948730,4189.102539,4217.051270,4152.051270,4154.871582,4135.128418,3428.000000,4.000000,91.000000,,,,0.000000,4.000000,4.000000,4.000000,4.000000,4.000000,4.000000,4.000000,4.000000,4.000000,4.000000,4.000000,4.000000,4.000000,4.000000,100.000000,,,,,,,,,,,,,,,,
1645708830.738949,4.000000,0.000000,4188.077148,4199.871582,4193.461426,4198.205078,4212.820313,4202.563965,4208.589844,4210.256348,4227.948730,4197.179688,4218.205078,4153.974121,4158.333496,4138.333496,3512.000000,4.000000,91.000000,,,,0.000000,4.000000,4.000000,4.000000,4.000000,4.000000,4.000000,4.000000,4.000000,4.000000,4.000000,4.000000,4.000000,4.000000,4.000000,100.000000,,,,,,,,,,,,,,,,
1645708830.742889,5.000000,0.000000,4189.230957,4202.692383,4195.384766,4201.025879,4214.871582,4204.102539,4208.974121,4206.794922,4224.871582,4205.000000,4220.256348,4156.410156,4162.563965,4140.769043,3448.000000,4.000000,91.000000,,,,0.000000,4.000000,4.000000,4.000000,4.000000,4.000000,4.000000,4.000000,4.000000,4.000000,4.000000,4.000000,4.000000,4.000000,4.000000,100.000000,,,,,,,,,,,,,,,,
1645708830.746929,6.000000,0.000000,4192.563965,4204.102539,4197.179688,4203.461426,4215.000000,4204.743652,4209.871582,4203.333496,4218.589844,4206.794922,4221.666504,4159.102539,4165.256348,4142.307617,3223.000000,4.000000,91.000000,,,,0.000000,4.000000,4.000000,4.000000,4.000000,4.000000,4.000000,4.000000,4.000000,4.000000,4.000000,4.000000,4.000000,4.000000,4.000000,100.000000,,,,,,,,,,,,,,,,
1645708830.750869,7.000000,0.000000,4196.922852,4203.461426,4199.871582,4205.384766,4213.077148,4204.102539,4211.025879,4202.051270,4211.922852,4202.692383,4222.436035,4162.563965,4166.025879,4144.358887,2480.000000,4.000000,91.000000,,,,0.000000,4.000000,4.000000,4.000000,4.000000,4.000000,4.000000,4.000000,4.000000,4.000000,4.000000,4.000000,4.000000,4.000000,4.000000,100.000000,,,,,,,,,,,,,,,,
1645708830.754809,8.000000,0.000000,4201.153809,4203.461426,4203.333496,4208.333496,4213.461426,4203.846191,4212.179688,4203.974121,4208.205078,4198.974121,4224.743652,4167.948730,4166.410156,4148.974121,1206.000000,4.000000,91.000000,,,,0.000000,4.000000,4.000000,4.000000,4.000000,4.000000,4.000000,4.000000,4.000000,4.000000,4.000000,4.000000,4.000000,4.000000,4.000000,100.000000,,,,,,,,,,,,,,,,
1645708830.758750,9.000000,0.000000,4204.871582,4206.794922,4206.794922,4213.205078,4219.102539,4205.769043,4213.077148,4207.563965,4208.589844,4201.794922,4230.512695,4174.358887,4167.692383,4155.384766,3290.000000,4.000000,91.000000,,,,0.000000,4.000000,4.000000,4.000000,4.000000,4.000000,4.000000,4.000000,4.000000,4.000000,4.000000,4.000000,4.000000,4.000000,4.000000,100.000000,,,,,,,,,,,,,,,,
1645708830.762690,10.000000,0.000000,4208.077148,4213.205078,4209.230957,4218.333496,4226.794922,4209.358887,4213.205078,4210.256348,4211.410156,4210.256348,4238.333496,4179.102539,4169.102539,4160.641113,2449.000000,4.000000,91.000000,,,,0.000000,4.000000,4.000000,4.000000,4.000000,4.000000,4.000000,4.000000,4.000000,4.000000,4.000000,4.000000,4.000000,4.000000,4.000000,100.000000,,,,,,,,,,,,,,,,
1645708830.766630,11.000000,0.000000,4210.384766,4219.871582,4210.256348,4221.153809,4229.871582,4211.794922,4212.820313,4211.153809,4213.717773,4218.077148,4244.102539,4179.358887,4169.102539,4161.794922,3361.000000,4.000000,91.000000,,,,0.000000,4.000000,4.000000,4.000000,4.000000,4.000000,4.000000,4.000000,4.000000,4.000000,4.000000,4.000000,4.000000,4.000000,4.000000,100.000000,,,,,,,,,,,,,,,,
1645708830.770570,12.000000,0.000000,4211.538574,4223.717773,4210.641113,4220.897461,4224.743652,4211.025879,4212.820313,4211.153809,4213.846191,4219.358887,4245.641113,4175.897461,4166.922852,4158.846191,3149.000000,4.000000,91.000000,,,,0.000000,4.000000,4.000000,4.000000,4.000000,4.000000,4.000000,4.000000,4.000000,4.000000,4.000000,4.000000,4.000000,4.000000,4.000000,100.000000,,,,,,,,,,,,,,,,
1645708830.774510,13.000000,0.000000,4211.538574,4224.230957,4210.897461,4219.487305,4215.769043,4208.077148,4213.589844,4211.538574,4212.948730,4214.743652,4244.615234,4172.179688,4164.871582,4155.512695,3321.000000,4.000000,91.000000,,,,0.000000,4.000000,4.000000,4.000000,4.000000,4.000000,4.000000,4.000000,4.000000,4.000000,4.000000,4.000000,4.000000,4.000000,4.000000,100.000000,,,,,,,,,,,,,,,,
1645708830.778450,14.000000,0.000000,4210.384766,4222.692383,4211.153809,4218.974121,4210.384766,4205.384766,4214.743652,4212.436035,4213.333496,4209.230957,4244.102539,4171.922852,4165.128418,4155.000000,2449.000000,4.000000,91.000000,,,,0.000000,4.000000,4.000000,4.000000,4.000000,4.000000,4.000000,4.000000,4.000000,4.000000,4.000000,4.000000,4.000000,4.000000,4.000000,100.000000,,,,,,,,,,,,,,,,
1645708830.782390,15.000000,0.000000,4208.461426,4220.128418,4211.025879,4219.615234,4212.692383,4204.871582,4215.769043,4213.077148,4215.512695,4206.794922,4244.487305,4175.384766,4167.436035,4157.436035,3361.000000,4.000000,91.000000,2,1,0,0.000000,4.000000,4.000000,4.000000,4.000000,4.000000,4.000000,4.000000,4.000000,4.000000,4.000000,4.000000,4.000000,4.000000,4.000000,100.000000,,,,,,,,,,,,,,,,
1645708830.786330,16.000000,0.000000,4206.025879,4216.538574,4209.743652,4219.615234,4220.000000,4205.769043,4216.282227,4213.205078,4217.820313,4207.948730,4243.077148,4179.102539,4170.000000,4159.358887,3149.000000,4.000000,91.000000,,,,0.000000,4.000000,4.000000,4.000000,4.000000,4.000000,4.000000,4.000000,4.000000,4.000000,4.000000,4.000000,4.000000,4.000000,4.000000,100.000000,,,,,,,,,,,,,,,,
1645708830.790270,17.000000,0.000000,4203.589844,4212.563965,4207.436035,4218.077148,4226.794922,4207.051270,4216.282227,4213.205078,4218.205078,4210.641113,4238.077148,4178.461426,4170.897461,4157.563965,3321.000000,4.000000,91.000000,,,,0.000000,4.000000,4.000000,4.000000,4.000000,4.000000,4.000000,4.000000,4.000000,4.000000,4.000000,4.000000,4.000000,4.000000,4.000000,100.000000,,,,,,,,,,,,,,,,
1645708830.794210,18.000000,0.000000,4201.922852,4209.615234,4204.358887,4216.025879,4229.615234,4208.333496,4215.256348,4213.333496,4216.538574,4212.948730,4231.666504,4172.563965,4170.128418,4152.820313,2449.000000,4.000000,91.000000,,,,0.000000,4.000000,4.000000,4.000000,4.000000,4.000000,4.000000,4.000000,4.000000,4.000000,4.000000,4.000000,4.000000,4.000000,4.000000,100.000000,,,,,,,,,,,,,,,,
1645708830.798151,19.000000,0.000000,4201.538574,4208.461426,4201.538574,4215.000000,4228.205078,4209.358887,4213.333496,4212.820313,4214.615234,4213.717773,4227.436035,4164.487305,4169.102539,4148.461426,3361.000000,4.000000,91.000000,,,,0.000000,4.000000,4.000000,4.000000,4.000000,4.000000,4.000000,4.000000,4.000000,4.000000,4.000000,4.000000,4.000000,4.000000,4.000000,100.000000,,,,,,,,,,,,,,,,
1645708830.802091,20.000000,0.000000,4201.538574,4207.948730,4199.743652,4215.000000,4224.230957,4209.487305,4210.641113,4211.282227,4213.589844,4211.666504,4227.563965,4159.487305,4168.461426,4147.692383,3149.000000,4.000000,91.000000,,,,0.000000,4.000000,4.000000,4.000000,4.000000,4.000000,4.000000,4.000000,4.000000,4.000000,4.000000,4.000000,4.000000,4.000000,4.000000,100.000000,,,,,,,,,,,,,,,,
1645708830.806031,21.000000,0.000000,4200.384766,4206.666504,4199.615234,4214.358887,4219.743652,4207.948730,4208.717773,4209.487305,4213.205078,4207.436035,4230.128418,4160.384766,4167.563965,4150.641113,3321.000000,4.000000,91.000000,,,,0.000000,4.000000,4.000000,4.000000,4.000000,4.000000,4.000000,4.000000,4.000000,4.000000,4.000000,4.000000,4.000000,4.000000,4.000000,100.000000,,,,,,,,,,,,,,,,
1645708830.809971,22.000000,0.000000,4198.077148,4204.358887,4200.641113,4212.436035,4217.179688,4205.256348,4209.230957,4208.589844,4212.692383,4203.717773,4232.820313,4166.025879,4165.769043,4154.871582,2449.000000,4.000000,91.000000,,,,0.000000,4.000000,4.000000,4.000000,4.000000,4.000000,4.000000,4.000000,4.000000,4.000000,4.000000,4.000000,4.000000,4.000000,4.000000,100.000000,,,,,,,,,,,,,,,,
1645708830.813911,23.000000,0.000000,4196.153809,4203.077148,4202.307617,4210.512695,4217.948730,4203.974121,4212.307617,4209.615234,4212.179688,4203.974121,4234.487305,4172.692383,4163.846191,4158.333496,3361.000000,4.000000,91.000000,,,,0.000000,4.000000,4.000000,4.000000,4.000000,4.000000,4.000000,4.000000,4.000000,4.000000,4.000000,4.000000,4.000000,4.000000,4.000000,100.000000,,,,,,,,,,,,,,,,
1645708830.817851,24.000000,0.000000,4196.282227,4204.743652,4203.717773,4210.256348,4221.282227,4205.256348,4216.282227,4212.692383,4212.820313,4207.692383,4235.128418,4176.538574,4163.461426,4159.871582,3149.000000,4.000000,91.000000,,,,0.000000,4.000000,4.000000,4.000000,4.000000,4.000000,4.000000,4.000000,4.000000,4.000000,4.000000,4.000000,4.000000,4.000000,4.000000,100.000000,1.000000,100.000000,4.000000,4.000000,4.000000,4.000000,4.000000,4.000000,4.000000,4.000000,4.000000,4.000000,4.000000,4.000000,4.000000,4.000000
1645708830.821691,25.000000,0.000000,4198.205078,4208.461426,4204.615234,4211.153809,4223.461426,4207.820313,4218.333496,4215.769043,4214.871582,4209.871582,4233.974121,4176.153809,4164.743652,4158.846191,3321.000000,4.000000,91.000000,,,,0.000000,4.000000,4.000000,4.000000,4.000000,4.000000,4.000000,4.000000,4.000000,4.000000,4.000000,4.000000,4.000000,4.000000,4.000000,100.000000,,,,,,,,,,,,,,,,
1645708830.825631,26.000000,0.000000,4200.000000,4211.410156,4205.128418,4211.538574,4221.538574,4208.333496,4216.794922,4216.410156,4216.153809,4205.128418,4229.615234,4171.922852,4165.641113,4155.769043,2449.000000,4.000000,91.000000,,,,0.000000,4.000000,4.000000,4.000000,4.000000,4.000000,4.000000,4.000000,4.000000,4.000000,4.000000,4.000000,4.000000,4.000000,4.000000,100.000000,,,,,,,,,,,,,,,,
1645708830.829572,27.000000,0.000000,4200.128418,4211.410156,4205.128418,4211.025879,4216.794922,4205.769043,4212.436035,4213.333496,4215.128418,4194.102539,4223.077148,4166.025879,4165.000000,4152.307617,3361.000000,4.000000,91.000000,,,,0.000000,4.000000,4.000000,4.000000,4.000000,4.000000,4.000000,4.000000,4.000000,4.000000,4.000000,4.000000,4.000000,4.000000,4.000000,100.000000,,,,,,,,,,,,,,,,
1645708830.833612,28.000000,0.000000,4199.102539,4209.615234,4204.358887,4211.282227,4214.358887,4202.563965,4208.333496,4207.692383,4211.922852,4184.743652,4218.205078,4161.282227,4162.948730,4150.897461,3149.000000,4.000000,91.000000,,,,0.000000,4.000000,4.000000,4.000000,4.000000,4.000000,4.000000,4.000000,4.000000,4.000000,4.000000,4.000000,4.000000,4.000000,4.000000,100.000000,,,,,,,,,,,,,,,,
1645708830.837552,29.000000,0.000000,4198.589844,4208.461426,4203.077148,4213.974121,4217.692383,4201.922852,4206.410156,4202.051270,4208.461426,4184.615234,4218.333496,4159.487305,4160.897461,4152.563965,3321.000000,4.000000,91.000000,,,,0.000000,4.000000,4.000000,4.000000,4.000000,4.000000,4.000000,4.000000,4.000000,4.000000,4.000000,4.000000,4.000000,4.000000,4.000000,100.000000,,,,,,,,,,,,,,,,
1645708830.841492,30.000000,0.000000,4198.974121,4208.974121,4202.179688,4217.563965,4223.205078,4203.589844,4206.794922,4198.974121,4206.666504,4193.717773,4222.948730,4160.897461,4160.000000,4155.512695,2449.000000,4.000000,91.000000,,,,0.000000,4.000000,4.000000,4.000000,4.000000,4.000000,4.000000,4.000000,4.000000,4.000000,4.000000,4.000000,4.000000,4.000000,4.000000,100.000000,,,,,,,,,,,,,,,,
1645708830.845432,31.000000,0.000000,4198.974121,4209.615234,4201.922852,4218.717773,4224.230957,4204.871582,4207.692383,4199.615234,4206.794922,4203.589844,4227.436035,4163.846191,4161.025879,4157.307617,3361.000000,4.000000,91.000000,,,,0.000000,4.000000,4.000000,4.000000,4.000000,4.000000,4.000000,4.000000,4.000000,4.000000,4.000000,4.000000,4.000000,4.000000,4.000000,100.000000,,,,,,,,,,,,,,,,
1645708830.849372,32.000000,0.000000,4198.461426,4208.846191,4201.794922,4215.897461,4217.692383,4203.205078,4208.333496,4203.205078,4207.692383,4206.666504,4228.846191,4166.153809,4163.974121,4156.922852,0.000000,4.000000,91.000000,,,,0.000000,4.000000,4.000000,4.000000,4.000000,4.000000,4.000000,4.000000,4.000000,4.000000,4.000000,4.000000,4.000000,4.000000,4.000000,100.000000,,,,,,,,,,,,,,,,
1645708830.853312,33.000000,0.000000,4198.333496,4207.179688,4202.051270,4211.922852,4208.077148,4200.256348,4208.589844,4207.307617,4209.102539,4203.717773,4228.461426,4167.692383,4168.589844,4156.153809,0.000000,4.000000,91.000000,,,,0.000000,4.000000,4.000000,4.000000,4.000000,4.000000,4.000000,4.000000,4.000000,4.000000,4.000000,4.000000,4.000000,4.000000,4.000000,100.000000,,,,,,,,,,,,,,,,
1645708830.857252,34.000000,0.000000,4200.256348,4207.179688,4202.948730,4211.282227,4203.333496,4199.358887,4208.717773,4209.871582,4211.025879,4201.666504,4230.897461,4169.871582,4173.461426,4157.948730,0.000000,4.000000,91.000000,,,,0.000000,4.000000,4.000000,4.000000,4.000000,4.000000,4.000000,4.000000,4.000000,4.000000,4.000000,4.000000,4.000000,4.000000,4.000000,100.000000,,,,,,,,,,,,,,,,
1645708830.861192,35.000000,0.000000,4204.487305,4209.871582,4205.769043,4215.512695,4207.948730,4201.922852,4208.846191,4210.897461,4212.948730,4206.538574,4237.563965,4173.461426,4177.179688,4162.692383,0.000000,4.000000,91.000000,,,,0.000000,4.000000,4.000000,4.000000,4.000000,4.000000,4.000000,4.000000,4.000000,4.000000,4.000000,4.000000,4.000000,4.000000,4.000000,100.000000,,,,,,,,,,,,,,,,
1645708830.865132,36.000000,0.000000,4210.000000,4214.102539,4210.128418,4221.153809,4218.205078,4205.384766,4208.589844,4211.410156,4213.974121,4217.179688,4245.512695,4177.820313,4178.846191,4168.717773,0.000000,4.000000,91.000000,,,,0.000000,4.000000,4.000000,4.000000,4.000000,4.000000,4.000000,4.000000,4.000000,4.000000,4.000000,4.000000,4.000000,4.000000,4.000000,100.000000,,,,,,,,,,,,,,,,
1645708830.869072,37.000000,0.000000,4214.871582,4217.692383,4214.743652,4224.230957,4226.666504,4206.922852,4207.948730,4212.692383,4213.461426,4227.179688,4250.256348,4181.666504,4179.358887,4173.589844,0.000000,4.000000,91.000000,,,,0.000000,4.000000,4.000000,4.000000,4.000000,4.000000,4.000000,4.000000,4.000000,4.000000,4.000000,4.000000,4.000000,4.000000,4.000000,100.000000,,,,,,,,,,,,,,,,
1645708830.873013,38.000000,0.000000,4217.436035,4219.615234,4217.948730,4223.589844,4228.461426,4206.282227,4208.077148,4214.230957,4212.307617,4231.025879,4250.512695,4184.358887,4180.256348,4176.410156,0.000000,4.000000,91.000000,,,,0.000000,4.000000,4.000000,4.000000,4.000000,4.000000,4.000000,4.000000,4.000000,4.000000,4.000000,4.000000,4.000000,4.000000,4.000000,100.000000,,,,,,,,,,,,,,,,
1645708830.876953,39.000000,0.000000,4217.948730,4220.769043,4218.589844,4221.666504,4224.230957,4205.128418,4209.487305,4215.128418,4211.282227,4228.205078,4248.974121,4185.897461,4182.692383,4177.436035,0.000000,4.000000,91.000000,,,,0.000000,4.000000,4.000000,4.000000,4.000000,4.000000,4.000000,4.000000,4.000000,4.000000,4.000000,4.000000,4.000000,4.000000,4.000000,100.000000,,,,,,,,,,,,,,,,
1645708830.880893,40.000000,0.000000,4217.820313,4221.794922,4217.563965,4220.769043,4218.205078,4204.871582,4211.794922,4215.256348,4210.769043,4222.179688,4248.077148,4186.538574,4185.641113,4176.922852,0.000000,4.000000,91.000000,,,,0.000000,4.000000,4.000000,4.000000,4.000000,4.000000,4.000000,4.000000,4.000000,4.000000,4.000000,4.000000,4.000000,4.000000,4.000000,100.000000,,,,,,,,,,,,,,,,
1645708830.884833,41.000000,0.000000,4218.333496,4222.051270,4216.410156,4220.769043,4214.487305,4205.384766,4213.717773,4215.641113,4210.512695,4217.051270,4247.692383,4186.410156,4187.179688,4175.256348,0.000000,4.000000,91.000000,,,,0.000000,4.000000,4.000000,4.000000,4.000000,4.000000,4.000000,4.000000,4.000000,4.000000,4.000000,4.000000,4.000000,4.000000,4.000000,100.000000,,,,,,,,,,,,,,,,
1645708830.888773,42.000000,0.000000,4220.128418,4221.282227,4216.538574,4220.769043,4214.871582,4205.897461,4214.487305,4216.538574,4210.641113,4215.384766,4246.922852,4185.512695,4186.282227,4173.589844,0.000000,4.000000,91.000000,,,,0.000000,4.000000,4.000000,4.000000,4.000000,4.000000,4.000000,4.000000,4.000000,4.000000,4.000000,4.000000,4.000000,4.000000,4.000000,100.000000,,,,,,,,,,,,,,,,
1645708830.892713,43.000000,0.000000,4221.794922,4220.000000,4218.077148,4220.128418,4218.205078,4206.794922,4213.717773,4217.563965,4211.666504,4217.563965,4245.769043,4184.358887,4183.974121,4173.589844,0.000000,4.000000,91.000000,,,,0.000000,4.000000,4.000000,4.000000,4.000000,4.000000,4.000000,4.000000,4.000000,4.000000,4.000000,4.000000,4.000000,4.000000,4.000000,100.000000,,,,,,,,,,,,,,,,
1645708830.896653,44.000000,0.000000,4221.538574,4219.615234,4218.974121,4219.743652,4222.563965,4208.461426,4212.051270,4217.436035,4213.077148,4221.794922,4245.256348,4182.820313,4182.051270,4176.025879,0.000000,4.000000,91.000000,,,,0.000000,4.000000,4.000000,4.000000,4.000000,4.000000,4.000000,4.000000,4.000000,4.000000,4.000000,4.000000,4.000000,4.000000,4.000000,100.000000,,,,,,,,,,,,,,,,
1645708830.900593,45.000000,0.000000,4218.974121,4220.128418,4218.077148,4220.384766,4225.256348,4209.871582,4209.743652,4215.769043,4213.974121,4224.615234,4245.512695,4180.641113,4181.538574,4179.615234,0.000000,4.000000,91.000000,,,,0.000000,4.000000,4.000000,4.000000,4.000000,4.000000,4.000000,4.000000,4.000000,4.000000,4.000000,4.000000,4.000000,4.000000,4.000000,100.000000,,,,,,,,,,,,,,,,
1645708830.904533,46.000000,0.000000,4215.769043,4220.000000,4215.384766,4221.153809,4225.128418,4209.871582,4207.436035,4213.205078,4213.717773,4222.820313,4244.487305,4178.461426,4181.794922,4181.666504,0.000000,4.000000,91.000000,,,,0.000000,4.000000,4.000000,4.000000,4.000000,4.000000,4.000000,4.000000,4.000000,4.000000,4.000000,4.000000,4.000000,4.000000,4.000000,100.000000,,,,,,,,,,,,,,,,
1645708830.908474,47.000000,0.000000,4214.487305,4217.436035,4212.692383,4220.641113,4222.436035,4208.077148,4205.897461,4211.666504,4213.077148,4216.153809,4241.025879,4177.179688,4181.538574,4180.128418,0.000000,4.000000,91.000000,,,,0.000000,4.000000,4.000000,4.000000,4.000000,4.000000,4.000000,4.000000,4.000000,4.000000,4.000000,4.000000,4.000000,4.000000,4.000000,100.000000,,,,,,,,,,,,,,,,
1645708830.912314,48.000000,0.000000,4215.384766,4213.205078,4211.666504,4218.333496,4218.846191,4206.025879,4205.897461,4211.794922,4213.205078,4208.717773,4236.153809,4177.820313,4180.512695,4175.641113,0.000000,4.000000,91.000000,,,,0.000000,4.000000,4.000000,4.000000,4.000000,4.000000,4.000000,4.000000,4.000000,4.000000,4.000000,4.000000,4.000000,4.000000,4.000000,100.000000,,,,,,,,,,,,,,,,
1645708830.916254,49.000000,0.000000,4217.051270,4209.358887,4211.922852,4215.384766,4215.641113,4205.384766,4206.794922,4212.051270,4214.487305,4205.769043,4233.077148,4179.615234,4179.230957,4171.025879,0.000000,4.000000,91.000000,,,,0.000000,4.000000,4.000000,4.000000,4.000000,4.000000,4.000000,4.000000,4.000000,4.000000,4.000000,4.000000,4.000000,4.000000,4.000000,100.000000,,,,,,,,,,,,,,,,
1645708830.920194,50.000000,0.000000,4216.794922,4207.948730,4212.436035,4212.820313,4212.948730,4206.410156,4207.436035,4210.641113,4215.897461,4209.102539,4233.077148,4180.384766,4177.692383,4169.358887,0.000000,4.000000,91.000000,,,,0.000000,4.000000,4.000000,4.000000,4.000000,4.000000,4.000000,4.000000,4.000000,4.000000,4.000000,4.000000,4.000000,4.000000,4.000000,100.000000,,,,,,,,,,,,,,,,
1645708830.924134,51.000000,0.000000,4213.846191,4208.717773,4211.922852,4211.153809,4210.897461,4207.307617,4206.922852,4207.692383,4215.769043,4214.358887,4234.358887,4177.436035,4175.384766,4170.384766,0.000000,4.000000,91.000000,,,,0.000000,4.000000,4.000000,4.000000,4.000000,4.000000,4.000000,4.000000,4.000000,4.000000,4.000000,4.000000,4.000000,4.000000,4.000000,100.000000,,,,,,,,,,,,,,,,
1645708830.928074,52.000000,0.000000,4209.230957,4210.000000,4210.512695,4210.769043,4210.000000,4206.922852,4205.641113,4204.615234,4213.461426,4215.897461,4233.846191,4170.512695,4171.153809,4170.769043,0.000000,4.000000,91.000000,,,,0.000000,4.000000,4.000000,4.000000,4.000000,4.000000,4.000000,4.000000,4.000000,4.000000,4.000000,4.000000,4.000000,4.000000,4.000000,100.000000,,,,,,,,,,,,,,,,
1645708830.932014,53.000000,0.000000,4204.358887,4210.128418,4208.077148,4211.666504,4211.794922,4206.025879,4205.128418,4203.077148,4210.256348,4211.025879,4229.871582,4162.820313,4165.000000,4167.051270,0.000000,4.000000,91.000000,,,,0.000000,4.000000,4.000000,4.000000,4.000000,4.000000,4.000000,4.000000,4.000000,4.000000,4.000000,4.000000,4.000000,4.000000,4.000000,100.000000,,,,,,,,,,,,,,,,
1645708830.935954,54.000000,0.000000,4200.769043,4208.717773,4205.000000,4213.846191,4216.282227,4205.897461,4205.641113,4203.461426,4207.948730,4202.051270,4223.717773,4158.077148,4158.974121,4158.846191,0.000000,4.000000,91.000000,,,,0.000000,4.000000,4.000000,4.000000,4.000000,4.000000,4.000000,4.000000,4.000000,4.000000,4.000000,4.000000,4.000000,4.000000,4.000000,100.000000,,,,,,,,,,,,,,,,
1645708830.939894,55.000000,0.000000,4198.974121,4206.153809,4201.794922,4216.153809,4221.153809,4206.538574,4206.538574,4204.743652,4207.436035,4192.820313,4217.179688,4157.436035,4155.897461,4148.846191,0.000000,4.000000,91.000000,,,,0.000000,4.000000,4.000000,4.000000,4.000000,4.000000,4.000000,4.000000,4.000000,4.000000,4.000000,4.000000,4.000000,4.000000,4.000000,100.000000,,,,,,,,,,,,,,,,
1645708830.943835,56.000000,0.000000,4199.230957,4203.077148,4199.358887,4216.282227,4222.692383,4206.282227,4206.666504,4205.897461,4207.820313,4186.282227,4212.436035,4158.717773,4156.153809,4141.153809,0.000000,4.000000,91.000000,,,,0.000000,4.000000,4.000000,4.000000,4.000000,4.000000,4.000000,4.000000,4.000000,4.000000,4.000000,4.000000,4.000000,4.000000,4.000000,100.000000,,,,,,,,,,,,,,,,
1645708830.947775,57.000000,0.000000,4200.641113,4200.256348,4198.589844,4213.589844,4219.102539,4204.102539,4205.897461,4206.025879,4207.307617,4184.102539,4210.641113,4158.846191,4158.461426,4138.846191,0.000000,4.000000,91.000000,,,,0.000000,4.000000,4.000000,4.000000,4.000000,4.000000,4.000000,4.000000,4.000000,4.000000,4.000000,4.000000,4.000000,4.000000,4.000000,100.000000,,,,,,,,,,,,,,,,
1645708830.951715,58.000000,0.000000,4201.794922,4198.846191,4199.615234,4209.743652,4213.461426,4201.666504,4204.358887,4204.871582,4204.743652,4186.025879,4212.820313,4157.179688,4160.769043,4143.077148,0.000000,4.000000,91.000000,,,,0.000000,4.000000,4.000000,4.000000,4.000000,4.000000,4.000000,4.000000,4.000000,4.000000,4.000000,4.000000,4.000000,4.000000,4.000000,100.000000,,,,,,,,,,,,,,,,
1645708830.955655,59.000000,0.000000,4201.538574,4200.000000,4200.769043,4207.692383,4210.641113,4201.282227,4202.563965,4202.948730,4201.410156,4190.384766,4218.333496,4154.743652,4162.820313,4151.794922,0.000000,4.000000,91.000000,,,,0.000000,4.000000,4.000000,4.000000,4.000000,4.000000,4.000000,4.000000,4.000000,4.000000,4.000000,4.000000,4.000000,4.000000,4.000000,100.000000,,,,,,,,,,,,,,,,
1645708830.959595,60.000000,0.000000,4200.128418,4202.948730,4200.256348,4208.589844,4212.948730,4203.461426,4200.641113,4201.282227,4199.102539,4193.333496,4223.589844,4153.205078,4165.128418,4160.769043,0.000000,4.000000,91.000000,,,,0.000000,4.000000,4.000000,4.000000,4.000000,4.000000,4.000000,4.000000,4.000000,4.000000,4.000000,4.000000,4.000000,4.000000,4.000000,100.000000,,,,,,,,,,,,,,,,
1645708830.963535,61.000000,0.000000,4198.846191,4205.512695,4197.563965,4210.769043,4217.307617,4205.512695,4199.230957,4200.256348,4199.358887,4191.922852,4223.974121,4152.692383,4167.692383,4164.615234,0.000000,4.000000,91.000000,,,,0.000000,4.000000,4.000000,4.000000,4.000000,4.000000,4.000000,4.000000,4.000000,4.000000,4.000000,4.000000,4.000000,4.000000,4.000000,100.000000,,,,,,,,,,,,,,,,
1645708830.967475,62.000000,0.000000,4197.820313,4206.025879,4193.974121,4211.538574,4218.333496,4204.871582,4198.717773,4199.871582,4201.666504,4186.666504,4217.820313,4151.922852,4169.615234,4160.769043,0.000000,4.000000,91.000000,,,,0.000000,4.000000,4.000000,4.000000,4.000000,4.000000,4.000000,4.000000,4.000000,4.000000,4.000000,4.000000,4.000000,4.000000,4.000000,100.000000,,,,,,,,,,,,,,,,
1645708830.971415,63.000000,0.000000,4196.794922,4204.871582,4190.897461,4210.384766,4214.743652,4201.794922,4199.743652,4200.128418,4204.230957,4182.436035,4208.333496,4150.128418,4170.769043,4151.794922,0.000000,4.000000,91.000000,,,,0.000000,4.000000,4.000000,4.000000,4.000000,4.000000,4.000000,4.000000,4.000000,4.000000,4.000000,4.000000,4.000000,4.000000,4.000000,100.000000,,,,,,,,,,,,,,,,
1645708830.975355,64.000000,0.000000,4195.641113,4204.358887,4189.487305,4209.358887,4210.897461,4199.615234,4201.922852,4200.769043,4206.025879,4184.102539,4202.051270,4148.846191,4172.051270,4144.615234,0.000000,4.000000,91.000000,,,,0.000000,4.000000,4.000000,4.000000,4.000000,4.000000,4.000000,4.000000,4.000000,4.000000,4.000000,4.000000,4.000000,4.000000,4.000000,100.000000,,,,,,,,,,,,,,,,
1645708830.979296,65.000000,0.000000,4195.769043,4206.538574,4190.769043,4211.410156,4212.051270,4201.410156,4204.487305,4202.436035,4207.436035,4193.333496,4203.333496,4150.769043,4175.641113,4145.384766,0.000000,4.000000,91.000000,,,,0.000000,4.000000,4.000000,4.000000,4.000000,4.000000,4.000000,4.000000,4.000000,4.000000,4.000000,4.000000,4.000000,4.000000,4.000000,100.000000,,,,,,,,,,,,,,,,
1645708830.983136,66.000000,0.000000,4199.358887,4211.410156,4195.769043,4216.794922,4218.589844,4206.922852,4207.436035,4205.641113,4209.487305,4207.307617,4211.922852,4157.307617,4182.820313,4154.487305,0.000000,4.000000,91.000000,,,,0.000000,4.000000,4.000000,4.000000,4.000000,4.000000,4.000000,4.000000,4.000000,4.000000,4.000000,4.000000,4.000000,4.000000,4.000000,100.000000,,,,,,,,,,,,,,,,
1645708830.987076,67.000000,0.000000,4206.794922,4217.307617,4203.846191,4223.589844,4225.641113,4213.333496,4211.282227,4210.897461,4212.436035,4221.153809,4223.846191,4167.179688,4192.692383,4166.794922,0.000000,4.000000,91.000000,,,,0.000000,4.000000,4.000000,4.000000,4.000000,4.000000,4.000000,4.000000,4.000000,4.000000,4.000000,4.000000,4.000000,4.000000,4.000000,100.000000,,,,,,,,,,,,,,,,
1645708830.991016,68.000000,0.000000,4215.128418,4222.692383,4211.794922,4229.230957,4228.205078,4218.077148,4215.769043,4217.051270,4215.641113,4230.128418,4233.846191,4176.666504,4202.563965,4176.410156,0.000000,4.000000,91.000000,,,,0.000000,4.000000,4.000000,4.000000,4.000000,4.000000,4.000000,4.000000,4.000000,4.000000,4.000000,4.000000,4.000000,4.000000,4.000000,100.000000,,,,,,,,,,,,,,,,
1645708830.994956,69.000000,0.000000,4220.256348,4226.666504,4215.897461,4232.692383,4226.025879,4220.641113,4219.615234,4221.666504,4217.563965,4232.692383,4239.102539,4182.179688,4209.743652,4180.641113,0.000000,4.000000,91.000000,,,,0.000000,4.000000,4.000000,4.000000,4.000000,4.000000,4.000000,4.000000,4.000000,4.000000,4.000000,4.000000,4.000000,4.000000,4.000000,100.000000,,,,,,,,,,,,,,,,
1645708830.998896,70.000000,0.000000,4220.000000,4229.102539,4215.000000,4233.461426,4222.436035,4221.153809,4221.153809,4222.692383,4217.692383,4229.615234,4238.974121,4182.179688,4212.307617,4179.615234,0.000000,4.000000,91.000000,,,,0.000000,4.000000,4.000000,4.000000,4.000000,4.000000,4.000000,4.000000,4.000000,4.000000,4.000000,4.000000,4.000000,4.000000,4.000000,100.000000,,,,,,,,,,,,,,,,
1645708831.002836,71.000000,0.000000,4215.256348,4228.846191,4210.512695,4231.410156,4220.769043,4219.871582,4219.230957,4219.102539,4215.769043,4222.948730,4234.743652,4177.820313,4209.871582,4175.000000,0.000000,4.000000,91.000000,,,,0.000000,4.000000,4.000000,4.000000,4.000000,4.000000,4.000000,4.000000,4.000000,4.000000,4.000000,4.000000,4.000000,4.000000,4.000000,100.000000,,,,,,,,,,,,,,,,
1645708831.006776,72.000000,0.000000,4209.358887,4225.897461,4205.000000,4227.051270,4221.538574,4216.538574,4214.871582,4212.179688,4212.436035,4215.384766,4228.974121,4171.922852,4204.871582,4169.487305,0.000000,4.000000,91.000000,,,,0.000000,4.000000,4.000000,4.000000,4.000000,4.000000,4.000000,4.000000,4.000000,4.000000,4.000000,4.000000,4.000000,4.000000,4.000000,100.000000,,,,,,,,,,,,,,,,
1645708831.010716,73.000000,0.000000,4205.769043,4222.179688,4201.025879,4222.692383,4224.358887,4212.820313,4210.641113,4205.000000,4208.846191,4210.000000,4225.000000,4167.692383,4200.897461,4166.538574,0.000000,4.000000,91.000000,,,,0.000000,4.000000,4.000000,4.000000,4.000000,4.000000,4.000000,4.000000,4.000000,4.000000,4.000000,4.000000,4.000000,4.000000,4.000000,100.000000,,,,,,,,,,,,,,,,
1645708831.014657,74.000000,0.000000,4206.410156,4220.641113,4199.743652,4221.153809,4228.461426,4211.025879,4208.589844,4200.512695,4206.794922,4208.846191,4225.641113,4167.820313,4201.282227,4169.358887,0.000000,4.000000,91.000000,,,,0.000000,4.000000,4.000000,4.000000,4.000000,4.000000,4.000000,4.000000,4.000000,4.000000,4.000000,4.000000,4.000000,4.000000,4.000000,100.000000,,,,,,,,,,,,,,,,
1645708831.018597,75.000000,0.000000,4210.256348,4222.692383,4200.769043,4222.820313,4232.563965,4212.436035,4208.717773,4200.512695,4206.794922,4211.410156,4230.128418,4172.307617,4206.538574,4177.179688,0.000000,4.000000,91.000000,,,,0.000000,4.000000,4.000000,4.000000,4.000000,4.000000,4.000000,4.000000,4.000000,4.000000,4.000000,4.000000,4.000000,4.000000,4.000000,100.000000,,,,,,,,,,,,,,,,
1645708831.022537,76.000000,0.000000,4214.358887,4226.025879,4202.436035,4225.000000,4233.461426,4215.000000,4209.358887,4203.333496,4207.820313,4215.384766,4234.487305,4178.333496,4212.820313,4185.000000,0.000000,4.000000,91.000000,,,,0.000000,4.000000,4.000000,4.000000,4.000000,4.000000,4.000000,4.000000,4.000000,4.000000,4.000000,4.000000,4.000000,4.000000,4.000000,100.000000,,,,,,,,,,,,,,,,
1645708831.026477,77.000000,0.000000,4215.641113,4226.666504,4203.077148,4224.358887,4229.102539,4215.384766,4208.974121,4206.025879,4208.333496,4218.077148,4234.615234,4182.436035,4215.641113,4187.563965,0.000000,4.000000,91.000000,,,,0.000000,4.000000,4.000000,4.000000,4.000000,4.000000,4.000000,4.000000,4.000000,4.000000,4.000000,4.000000,4.000000,4.000000,4.000000,100.000000,,,,,,,,,,,,,,,,
1645708831.030417,78.000000,0.000000,4213.589844,4223.461426,4202.436035,4221.025879,4221.410156,4212.179688,4207.563965,4206.538574,4207.692383,4218.846191,4230.512695,4182.436035,4213.589844,4183.846191,0.000000,4.000000,91.000000,,,,0.000000,4.000000,4.000000,4.000000,4.000000,4.000000,4.000000,4.000000,4.000000,4.000000,4.000000,4.000000,4.000000,4.000000,4.000000,100.000000,,,,,,,,,,,,,,,,
1645708831.034357,79.000000,0.000000,4210.384766,4219.871582,4201.025879,4217.948730,4216.025879,4207.692383,4206.666504,4205.000000,4206.666504,4217.948730,4226.153809,4178.974121,4209.102539,4178.077148,0.000000,4.000000,91.000000,,,,0.000000,4.000000,4.000000,4.000000,4.000000,4.000000,4.000000,4.000000,4.000000,4.000000,4.000000,4.000000,4.000000,4.000000,4.000000,100.000000,,,,,,,,,,,,,,,,
1645708831.038297,80.000000,0.000000,4209.230957,4219.358887,4200.128418,4218.846191,4217.051270,4205.641113,4207.563965,4203.205078,4206.794922,4215.769043,4225.128418,4175.256348,4206.922852,4175.000000,0.000000,4.000000,91.000000,,,,0.000000,4.000000,4.000000,4.000000,4.000000,4.000000,4.000000,4.000000,4.000000,4.000000,4.000000,4.000000,4.000000,4.000000,4.000000,100.000000,,,,,,,,,,,,,,,,
1645708831.042237,81.000000,0.000000,4211.794922,4221.794922,4200.897461,4223.077148,4222.692383,4207.436035,4210.000000,4203.077148,4207.820313,4211.922852,4226.282227,4173.846191,4208.589844,4176.025879,0.000000,4.000000,91.000000,,,,0.000000,4.000000,4.000000,4.000000,4.000000,4.000000,4.000000,4.000000,4.000000,4.000000,4.000000,4.000000,4.000000,4.000000,4.000000,100.000000,,,,,,,,,,,,,,,,
1645708831.046177,82.000000,0.000000,4216.153809,4224.102539,4202.692383,4227.051270,4226.922852,4211.282227,4212.051270,4205.512695,4208.589844,4206.410156,4225.384766,4175.000000,4211.666504,4178.974121,0.000000,4.000000,91.000000,,,,0.000000,4.000000,4.000000,4.000000,4.000000,4.000000,4.000000,4.000000,4.000000,4.000000,4.000000,4.000000,4.000000,4.000000,4.000000,100.000000,,,,,,,,,,,,,,,,
1645708831.050118,83.000000,0.000000,4219.102539,4223.333496,4204.358887,4227.307617,4226.153809,4214.871582,4212.692383,4209.487305,4208.205078,4201.666504,4221.282227,4177.436035,4212.436035,4181.153809,0.000000,4.000000,91.000000,,,,0.000000,4.000000,4.000000,4.000000,4.000000,4.000000,4.000000,4.000000,4.000000,4.000000,4.000000,4.000000,4.000000,4.000000,4.000000,100.000000,,,,,,,,,,,,,,,,
1645708831.054058,84.000000,0.000000,4218.461426,4220.384766,4204.615234,4224.102539,4222.820313,4217.179688,4212.820313,4212.820313,4207.436035,4202.563965,4218.589844,4179.487305,4210.128418,4182.051270,0.000000,4.000000,91.000000,,,,0.000000,4.000000,4.000000,4.000000,4.000000,4.000000,4.000000,4.000000,4.000000,4.000000,4.000000,4.000000,4.000000,4.000000,4.000000,100.000000,,,,,,,,,,,,,,,,
1645708831.057898,85.000000,0.000000,4214.871582,4218.077148,4203.461426,4219.615234,4221.794922,4218.846191,4213.717773,4214.358887,4207.692383,4211.666504,4222.051270,4180.256348,4206.922852,4182.436035,0.000000,4.000000,91.000000,,,,0.000000,4.000000,4.000000,4.000000,4.000000,4.000000,4.000000,4.000000,4.000000,4.000000,4.000000,4.000000,4.000000,4.000000,4.000000,100.000000,,,,,,,,,,,,,,,,
1645708831.061838,86.000000,0.000000,4211.025879,4217.307617,4201.282227,4216.153809,4224.102539,4219.871582,4215.769043,4213.974121,4209.230957,4224.615234,4230.769043,4179.358887,4206.282227,4182.563965,0.000000,4.000000,91.000000,,,,0.000000,4.000000,4.000000,4.000000,4.000000,4.000000,4.000000,4.000000,4.000000,4.000000,4.000000,4.000000,4.000000,4.000000,4.000000,100.000000,,,,,,,,,,,,,,,,
1645708831.065778,87.000000,0.000000,4208.717773,4217.179688,4199.743652,4214.487305,4225.897461,4220.128418,4217.692383,4212.948730,4210.769043,4232.692383,4238.205078,4176.666504,4208.589844,4182.436035,0.000000,4.000000,91.000000,,,,0.000000,4.000000,4.000000,4.000000,4.000000,4.000000,4.000000,4.000000,4.000000,4.000000,4.000000,4.000000,4.000000,4.000000,4.000000,100.000000,,,,,,,,,,,,,,,,
1645708831.069718,88.000000,0.000000,4208.846191,4216.794922,4200.897461,4214.871582,4223.589844,4219.487305,4218.717773,4212.563965,4211.282227,4230.641113,4238.717773,4173.589844,4212.179688,4182.307617,0.000000,4.000000,91.000000,,,,0.000000,4.000000,4.000000,4.000000,4.000000,4.000000,4.000000,4.000000,4.000000,4.000000,4.000000,4.000000,4.000000,4.000000,4.000000,100.000000,,,,,,,,,,,,,,,,
1645708831.073558,89.000000,0.000000,4211.025879,4217.179688,4205.897461,4217.179688,4218.589844,4219.743652,4218.717773,4213.333496,4210.769043,4222.436035,4233.974121,4172.563965,4215.128418,4183.461426,0.000000,4.000000,91.000000,,,,0.000000,4.000000,4.000000,4.000000,4.000000,4.000000,4.000000,4.000000,4.000000,4.000000,4.000000,4.000000,4.000000,4.000000,4.000000,100.000000,,,,,,,,,,,,,,,,
1645708831.077498,90.000000,0.000000,4214.743652,4219.487305,4212.692383,4220.384766,4215.384766,4221.538574,4218.589844,4215.128418,4210.897461,4217.179688,4230.384766,4174.230957,4216.794922,4186.282227,0.000000,4.000000,91.000000,,,,0.000000,4.000000,4.000000,4.000000,4.000000,4.000000,4.000000,4.000000,4.000000,4.000000,4.000000,4.000000,4.000000,4.000000,4.000000,100.000000,,,,,,,,,,,,,,,,
1645708831.081439,91.000000,0.000000,4218.205078,4222.436035,4217.692383,4222.436035,4216.153809,4223.846191,4218.461426,4217.436035,4212.436035,4220.256348,4232.179688,4177.179688,4217.051270,4189.358887,0.000000,4.000000,91.000000,,,,0.000000,4.000000,4.000000,4.000000,4.000000,4.000000,4.000000,4.000000,4.000000,4.000000,4.000000,4.000000,4.000000,4.000000,4.000000,100.000000,,,,,,,,,,,,,,,,
1645708831.085379,92.000000,0.000000,4220.000000,4223.205078,4218.077148,4221.282227,4219.743652,4224.487305,4218.589844,4220.256348,4215.512695,4227.948730,4237.051270,4178.461426,4216.538574,4189.615234,0.000000,4.000000,91.000000,,,,0.000000,4.000000,4.000000,4.000000,4.000000,4.000000,4.000000,4.000000,4.000000,4.000000,4.000000,4.000000,4.000000,4.000000,4.000000,100.000000,,,,,,,,,,,,,,,,
1645708831.089319,93.000000,0.000000,4219.358887,4220.769043,4214.358887,4217.436035,4223.589844,4223.205078,4219.358887,4224.230957,4218.717773,4233.333496,4240.512695,4176.666504,4215.769043,4186.025879,0.000000,4.000000,91.000000,,,,0.000000,4.000000,4.000000,4.000000,4.000000,4.000000,4.000000,4.000000,4.000000,4.000000,4.000000,4.000000,4.000000,4.000000,4.000000,100.000000,,,,,,,,,,,,,,,,
1645708831.093259,94.000000,0.000000,4217.307617,4217.179688,4210.000000,4214.487305,4226.538574,4222.051270,4221.410156,4229.102539,4221.153809,4233.333496,4240.512695,4173.846191,4215.897461,4180.897461,0.000000,4.000000,91.000000,,,,0.000000,4.000000,4.000000,4.000000,4.000000,4.000000,4.000000,4.000000,4.000000,4.000000,4.000000,4.000000,4.000000,4.000000,4.000000,100.000000,,,,,,,,,,,,,,,,
1645708831.097199,95.000000,0.000000,4215.384766,4215.641113,4208.333496,4214.871582,4228.974121,4223.205078,4224.230957,4233.461426,4222.820313,4231.538574,4239.743652,4172.948730,4217.051270,4178.205078,0.000000,4.000000,91.000000,,,,0.000000,4.000000,4.000000,4.000000,4.000000,4.000000,4.000000,4.000000,4.000000,4.000000,4.000000,4.000000,4.000000,4.000000,4.000000,100.000000,,,,,,,,,,,,,,,,
1645708831.101139,96.000000,0.000000,4214.743652,4217.051270,4209.871582,4217.948730,4230.641113,4226.025879,4226.282227,4234.871582,4223.846191,4232.948730,4240.897461,4175.641113,4218.717773,4179.871582,0.000000,4.000000,91.000000,,,,0.000000,4.000000,4.000000,4.000000,4.000000,4.000000,4.000000,4.000000,4.000000,4.000000,4.000000,4.000000,4.000000,4.000000,4.000000,100.000000,,,,,,,,,,,,,,,,
1645708831.105079,97.000000,0.000000,4215.384766,4220.256348,4212.692383,4220.641113,4230.641113,4227.307617,4226.410156,4232.563965,4224.230957,4238.333496,4244.358887,4180.000000,4220.256348,4184.358887,0.000000,4.000000,91.000000,,,,0.000000,4.000000,4.000000,4.000000,4.000000,4.000000,4.000000,4.000000,4.000000,4.000000,4.000000,4.000000,4.000000,4.000000,4.000000,100.000000,,,,,,,,,,,,,,,,
1645708831.109019,98.000000,0.000000,4216.666504,4223.205078,4214.230957,4220.641113,4229.230957,4225.512695,4225.256348,4228.846191,4223.974121,4243.846191,4247.051270,4182.820313,4221.794922,4188.974121,0.000000,4.000000,91.000000,,,,0.000000,4.000000,4.000000,4.000000,4.000000,4.000000,4.000000,4.000000,4.000000,4.000000,4.000000,4.000000,4.000000,4.000000,4.000000,100.000000,,,,,,,,,,,,,,,,
1645708831.112959,99.000000,0.000000,4217.692383,4225.512695,4213.717773,4218.974121,4228.717773,4222.563965,4224.487305,4226.282227,4223.461426,4245.641113,4246.538574,4182.436035,4223.589844,4191.410156,0.000000,4.000000,91.000000,,,,0.000000,4.000000,4.000000,4.000000,4.000000,4.000000,4.000000,4.000000,4.000000,4.000000,4.000000,4.000000,4.000000,4.000000,4.000000,100.000000,,,,,,,,,,,,,,,,
1645708831.116900,100.000000,0.000000,4217.820313,4227.051270,4212.051270,4217.692383,4230.384766,4221.666504,4224.743652,4225.512695,4223.205078,4242.820313,4242.179688,4178.974121,4225.512695,4191.025879,0.000000,4.000000,91.000000,,,,0.000000,4.000000,4.000000,4.000000,4.000000,4.000000,4.000000,4.000000,4.000000,4.000000,4.000000,4.000000,4.000000,4.000000,4.000000,100.000000,,,,,,,,,,,,,,,,
1645708831.120840,101.000000,0.000000,4217.179688,4227.179688,4210.897461,4217.692383,4232.563965,4223.205078,4225.128418,4224.743652,4223.205078,4237.563965,4236.025879,4173.846191,4226.153809,4188.333496,0.000000,4.000000,91.000000,,,,0.000000,4.000000,4.000000,4.000000,4.000000,4.000000,4.000000,4.000000,4.000000,4.000000,4.000000,4.000000,4.000000,4.000000,4.000000,100.000000,,,,,,,,,,,,,,,,
1645708831.124780,102.000000,0.000000,4216.410156,4225.256348,4210.641113,4217.820313,4231.794922,4224.102539,4223.846191,4222.179688,4222.436035,4231.794922,4230.384766,4168.589844,4224.615234,4184.358887,0.000000,4.000000,91.000000,,,,0.000000,4.000000,4.000000,4.000000,4.000000,4.000000,4.000000,4.000000,4.000000,4.000000,4.000000,4.000000,4.000000,4.000000,4.000000,100.000000,,,,,,,,,,,,,,,,
1645708831.128720,103.000000,0.000000,4215.641113,4221.666504,4210.512695,4216.794922,4227.307617,4221.922852,4220.512695,4218.077148,4219.871582,4226.922852,4227.051270,4164.615234,4221.282227,4180.384766,0.000000,4.000000,91.000000,,,,0.000000,4.000000,4.000000,4.000000,4.000000,4.000000,4.000000,4.000000,4.000000,4.000000,4.000000,4.000000,4.000000,4.000000,4.000000,100.000000,,,,,,,,,,,,,,,,
1645708831.132660,104.000000,0.000000,4214.743652,4217.820313,4209.230957,4215.256348,4222.820313,4217.948730,4216.666504,4214.487305,4216.153809,4224.102539,4227.307617,4163.974121,4218.589844,4177.948730,0.000000,4.000000,91.000000,,,,0.000000,4.000000,4.000000,4.000000,4.000000,4.000000,4.000000,4.000000,4.000000,4.000000,4.000000,4.000000,4.000000,4.000000,4.000000,100.000000,,,,,,,,,,,,,,,,
1645708831.136600,105.000000,0.000000,4213.205078,4215.384766,4206.666504,4214.358887,4221.666504,4215.256348,4213.589844,4212.692383,4212.820313,4223.205078,4229.615234,4166.282227,4218.461426,4177.307617,0.000000,4.000000,91.000000,,,,0.000000,4.000000,4.000000,4.000000,4.000000,4.000000,4.000000,4.000000,4.000000,4.000000,4.000000,4.000000,4.000000,4.000000,4.000000,100.000000,,,,,,,,,,,,,,,,
1645708831.140640,106.000000,0.000000,4210.512695,4214.230957,4203.589844,4213.974121,4222.692383,4214.871582,4211.794922,4212.179688,4211.025879,4221.922852,4230.512695,4169.102539,4219.871582,4176.922852,0.000000,4.000000,91.000000,,,,0.000000,4.000000,4.000000,4.000000,4.000000,4.000000,4.000000,4.000000,4.000000,4.000000,4.000000,4.000000,4.000000,4.000000,4.000000,100.000000,,,,,,,,,,,,,,,,
1645708831.144580,107.000000,0.000000,4206.666504,4212.820313,4201.153809,4212.692383,4220.641113,4214.743652,4210.384766,4210.641113,4210.128418,4217.307617,4227.179688,4168.846191,4219.487305,4174.615234,0.000000,4.000000,91.000000,,,,0.000000,4.000000,4.000000,4.000000,4.000000,4.000000,4.000000,4.000000,4.000000,4.000000,4.000000,4.000000,4.000000,4.000000,4.000000,100.000000,,,,,,,,,,,,,,,,
1645708831.148520,108.000000,0.000000,4202.436035,4210.641113,4200.000000,4210.128418,4213.333496,4212.948730,4209.230957,4207.692383,4208.974121,4209.230957,4220.641113,4164.102539,4215.128418,4169.615234,0.000000,4.000000,91.000000,,,,0.000000,4.000000,4.000000,4.000000,4.000000,4.000000,4.000000,4.000000,4.000000,4.000000,4.000000,4.000000,4.000000,4.000000,4.000000,100.000000,,,,,,,,,,,,,,,,
1645708831.152460,109.000000,0.000000,4199.102539,4208.717773,4200.000000,4207.563965,4204.487305,4209.487305,4208.461426,4204.743652,4207.820313,4201.538574,4215.128418,4157.820313,4208.461426,4164.230957,0.000000,4.000000,91.000000,,,,0.000000,4.000000,4.000000,4.000000,4.000000,4.000000,4.000000,4.000000,4.000000,4.000000,4.000000,4.000000,4.000000,4.000000,4.000000,100.000000,,,,,,,,,,,,,,,,
1645708831.156400,110.000000,0.000000,4197.948730,4209.102539,4200.256348,4207.692383,4200.256348,4206.794922,4208.205078,4203.717773,4207.307617,4199.102539,4215.128418,4154.358887,4203.846191,4161.282227,0.000000,4.000000,91.000000,,,,0.000000,4.000000,4.000000,4.000000,4.000000,4.000000,4.000000,4.000000,4.000000,4.000000,4.000000,4.000000,4.000000,4.000000,4.000000,100.000000,,,,,,,,,,,,,,,,
1645708831.160341,111.000000,0.000000,4199.743652,4212.307617,4200.769043,4211.025879,4203.589844,4206.410156,4208.077148,4204.487305,4207.948730,4203.205078,4220.641113,4155.897461,4204.230957,4162.179688,0.000000,4.000000,91.000000,,,,0.000000,4.000000,4.000000,4.000000,4.000000,4.000000,4.000000,4.000000,4.000000,4.000000,4.000000,4.000000,4.000000,4.000000,4.000000,100.000000,,,,,,,,,,,,,,,,
1645708831.164281,112.000000,0.000000,4203.974121,4216.538574,4202.692383,4215.384766,4212.179688,4207.563965,4208.077148,4205.897461,4209.358887,4211.153809,4227.179688,4161.153809,4209.230957,4165.769043,0.000000,4.000000,91.000000,,,,0.000000,4.000000,4.000000,4.000000,4.000000,4.000000,4.000000,4.000000,4.000000,4.000000,4.000000,4.000000,4.000000,4.000000,4.000000,100.000000,,,,,,,,,,,,,,,,
1645708831.168221,113.000000,0.000000,4209.358887,4219.743652,4207.051270,4218.077148,4221.282227,4208.589844,4208.589844,4206.922852,4210.384766,4218.717773,4230.641113,4166.794922,4215.128418,4170.769043,0.000000,4.000000,91.000000,,,,0.000000,4.000000,4.000000,4.000000,4.000000,4.000000,4.000000,4.000000,4.000000,4.000000,4.000000,4.000000,4.000000,4.000000,4.000000,100.000000,,,,,,,,,,,,,,,,
1645708831.172161,114.000000,0.000000,4213.974121,4221.282227,4212.820313,4218.589844,4227.563965,4208.974121,4210.000000,4207.563965,4210.897461,4224.230957,4231.025879,4170.128418,4219.102539,4176.282227,0.000000,4.000000,91.000000,,,,0.000000,4.000000,4.000000,4.000000,4.000000,4.000000,4.000000,4.000000,4.000000,4.000000,4.000000,4.000000,4.000000,4.000000,4.000000,100.000000,,,,,,,,,,,,,,,,
1645708831.176101,115.000000,0.000000,4216.922852,4222.179688,4217.436035,4218.974121,4230.641113,4209.358887,4211.794922,4207.563965,4211.410156,4228.333496,4231.538574,4170.769043,4220.641113,4182.179688,0.000000,4.000000,91.000000,,,,0.000000,4.000000,4.000000,4.000000,4.000000,4.000000,4.000000,4.000000,4.000000,4.000000,4.000000,4.000000,4.000000,4.000000,4.000000,100.000000,,,,,,,,,,,,,,,,
1645708831.180041,116.000000,0.000000,4217.948730,4223.205078,4218.846191,4220.512695,4231.153809,4210.128418,4212.563965,4207.051270,4212.307617,4230.769043,4233.205078,4170.000000,4221.282227,4186.410156,0.000000,4.000000,91.000000,,,,0.000000,4.000000,4.000000,4.000000,4.000000,4.000000,4.000000,4.000000,4.000000,4.000000,4.000000,4.000000,4.000000,4.000000,4.000000,100.000000,,,,,,,,,,,,,,,,
1645708831.183981,117.000000,0.000000,4217.820313,4223.589844,4216.410156,4222.051270,4229.615234,4210.256348,4211.538574,4205.897461,4212.948730,4229.230957,4233.846191,4168.077148,4221.794922,4186.282227,0.000000,4.000000,91.000000,,,,0.000000,4.000000,4.000000,4.000000,4.000000,4.000000,4.000000,4.000000,4.000000,4.000000,4.000000,4.000000,4.000000,4.000000,4.000000,100.000000,,,,,,,,,,,,,,,,
1645708831.187921,118.000000,0.000000,4216.922852,4221.410156,4211.666504,4221.282227,4225.512695,4208.461426,4209.358887,4204.102539,4212.051270,4222.179688,4231.153809,4165.256348,4221.538574,4180.512695,0.000000,4.000000,91.000000,,,,0.000000,4.000000,4.000000,4.000000,4.000000,4.000000,4.000000,4.000000,4.000000,4.000000,4.000000,4.000000,4.000000,4.000000,4.000000,100.000000,,,,,,,,,,,,,,,,
1645708831.191861,119.000000,0.000000,4215.256348,4217.307617,4206.410156,4217.692383,4220.512695,4205.128418,4206.794922,4201.538574,4210.000000,4212.948730,4226.410156,4161.922852,4219.743652,4171.922852,0.000000,4.000000,91.000000,,,,0.000000,4.000000,4.000000,4.000000,4.000000,4.000000,4.000000,4.000000,4.000000,4.000000,4.000000,4.000000,4.000000,4.000000,4.000000,100.000000,,,,,,,,,,,,,,,,
1645708831.195802,120.000000,0.000000,4212.820313,4213.974121,4202.436035,4213.717773,4217.820313,4202.436035,4204.743652,4198.461426,4207.948730,4208.077148,4223.974121,4160.000000,4216.922852,4165.769043,0.000000,4.000000,91.000000,,,,0.000000,4.000000,4.000000,4.000000,4.000000,4.000000,4.000000,4.000000,4.000000,4.000000,4.000000,4.000000,4.000000,4.000000,4.000000,100.000000,,,,,,,,,,,,,,,,
1645708831.199742,121.000000,0.000000,4210.256348,4214.102539,4200.512695,4212.307617,4219.230957,4202.692383,4203.205078,4195.769043,4207.307617,4211.153809,4226.922852,4161.025879,4214.487305,4166.153809,0.000000,4.000000,91.000000,,,,0.000000,4.000000,4.000000,4.000000,4.000000,4.000000,4.000000,4.000000,4.000000,4.000000,4.000000,4.000000,4.000000,4.000000,4.000000,100.000000,,,,,,,,,,,,,,,,
1645708831.203682,122.000000,0.000000,4208.846191,4217.948730,4200.769043,4214.487305,4223.717773,4205.897461,4202.948730,4195.384766,4208.077148,4219.230957,4233.077148,4164.871582,4213.717773,4172.436035,0.000000,4.000000,91.000000,,,,0.000000,4.000000,4.000000,4.000000,4.000000,4.000000,4.000000,4.000000,4.000000,4.000000,4.000000,4.000000,4.000000,4.000000,4.000000,100.000000,,,,,,,,,,,,,,,,
1645708831.207622,123.000000,0.000000,4209.743652,4222.948730,4202.692383,4218.717773,4227.436035,4210.384766,4205.128418,4198.205078,4209.615234,4225.384766,4237.179688,4169.871582,4214.743652,4180.512695,0.000000,4.000000,91.000000,,,,0.000000,4.000000,4.000000,4.000000,4.000000,4.000000,4.000000,4.000000,4.000000,4.000000,4.000000,4.000000,4.000000,4.000000,4.000000,100.000000,,,,,,,,,,,,,,,,
1645708831.211562,124.000000,0.000000,4212.307617,4226.410156,4205.256348,4222.436035,4227.051270,4214.615234,4209.358887,4202.820313,4211.153809,4225.256348,4236.282227,4173.205078,4217.436035,4185.641113,0.000000,4.000000,91.000000,,,,0.000000,4.000000,4.000000,4.000000,4.000000,4.000000,4.000000,4.000000,4.000000,4.000000,4.000000,4.000000,4.000000,4.000000,4.000000,100.000000,,,,,,,,,,,,,,,,
1645708831.215402,125.000000,0.000000,4214.871582,4227.179688,4206.410156,4223.846191,4222.820313,4217.692383,4213.589844,4206.666504,4212.307617,4219.871582,4231.282227,4173.077148,4220.897461,4185.384766,0.000000,4.000000,91.000000,,,,0.000000,4.000000,4.000000,4.000000,4.000000,4.000000,4.000000,4.000000,4.000000,4.000000,4.000000,4.000000,4.000000,4.000000,4.000000,100.000000,,,,,,,,,,,,,,,,
1645708831.219342,126.000000,0.000000,4215.384766,4226.025879,4204.615234,4222.948730,4218.077148,4219.102539,4214.871582,4207.948730,4212.436035,4214.358887,4226.282227,4170.512695,4223.974121,4181.025879,0.000000,4.000000,91.000000,,,,0.000000,4.000000,4.000000,4.000000,4.000000,4.000000,4.000000,4.000000,4.000000,4.000000,4.000000,4.000000,4.000000,4.000000,4.000000,100.000000,,,,,,,,,,,,,,,,
1645708831.223282,127.000000,0.000000,4214.102539,4224.102539,4200.769043,4220.769043,4215.769043,4218.333496,4212.948730,4207.179688,4211.794922,4213.077148,4225.384766,4168.333496,4225.512695,4175.897461,0.000000,4.000000,91.000000,,,,0.000000,4.000000,4.000000,4.000000,4.000000,4.000000,4.000000,4.000000,4.000000,4.000000,4.000000,4.000000,4.000000,4.000000,4.000000,100.000000,,,,,,,,,,,,,,,,
1645708831.227222,128.000000,0.000000,4212.820313,4222.563965,4198.589844,4219.358887,4217.307617,4215.897461,4210.128418,4206.666504,4211.794922,4217.307617,4230.128418,4169.358887,4225.641113,4173.461426,3247.000000,4.000000,91.000000,,,,0.000000,4.000000,4.000000,4.000000,4.000000,4.000000,4.000000,4.000000,4.000000,4.000000,4.000000,4.000000,4.000000,4.000000,4.000000,100.000000,,,,,,,,,,,,,,,,
1645708831.231163,129.000000,0.000000,4213.333496,4223.077148,4200.769043,4220.641113,4221.922852,4213.461426,4209.871582,4208.589844,4213.974121,4225.512695,4239.102539,4173.974121,4225.897461,4175.000000,3421.000000,4.000000,91.000000,,,,0.000000,4.000000,4.000000,4.000000,4.000000,4.000000,4.000000,4.000000,4.000000,4.000000,4.000000,4.000000,4.000000,4.000000,4.000000,100.000000,,,,,,,,,,,,,,,,
1645708831.235103,130.000000,0.000000,4215.897461,4226.538574,4206.666504,4225.256348,4227.820313,4213.333496,4213.333496,4212.948730,4218.333496,4235.512695,4249.102539,4179.871582,4227.820313,4179.871582,3110.000000,4.000000,91.000000,,,,0.000000,4.000000,4.000000,4.000000,4.000000,4.000000,4.000000,4.000000,4.000000,4.000000,4.000000,4.000000,4.000000,4.000000,4.000000,100.000000,,,,,,,,,,,,,,,,
1645708831.239043,131.000000,0.000000,4219.358887,4232.051270,4212.436035,4231.282227,4232.820313,4216.153809,4217.948730,4217.307617,4222.563965,4244.358887,4255.897461,4183.717773,4231.666504,4185.384766,3389.000000,4.000000,91.000000,,,,0.000000,4.000000,4.000000,4.000000,4.000000,4.000000,4.000000,4.000000,4.000000,4.000000,4.000000,4.000000,4.000000,4.000000,4.000000,100.000000,,,,,,,,,,,,,,,,
1645708831.242983,132.000000,0.000000,4222.307617,4236.410156,4214.743652,4235.384766,4233.974121,4219.743652,4220.000000,4219.102539,4223.846191,4248.205078,4256.025879,4183.846191,4235.128418,4188.717773,3696.000000,4.000000,91.000000,,,,0.000000,4.000000,4.000000,4.000000,4.000000,4.000000,4.000000,4.000000,4.000000,4.000000,4.000000,4.000000,4.000000,4.000000,4.000000,100.000000,,,,,,,,,,,,,,,,
1645708831.246923,133.000000,0.000000,4223.717773,4237.179688,4213.077148,4235.256348,4230.512695,4220.384766,4217.948730,4217.307617,4221.153809,4243.846191,4249.358887,4181.282227,4236.153809,4188.461426,3416.000000,4.000000,91.000000,,,,0.000000,4.000000,4.000000,4.000000,4.000000,4.000000,4.000000,4.000000,4.000000,4.000000,4.000000,4.000000,4.000000,4.000000,4.000000,100.000000,,,,,,,,,,,,,,,,
1645708831.250863,134.000000,0.000000,4223.333496,4234.615234,4209.487305,4231.794922,4224.358887,4217.307617,4213.077148,4212.820313,4216.025879,4232.563965,4239.487305,4178.461426,4234.358887,4185.769043,3367.000000,4.000000,91.000000,,,,0.000000,4.000000,4.000000,4.000000,4.000000,4.000000,4.000000,4.000000,4.000000,4.000000,4.000000,4.000000,4.000000,4.000000,4.000000,100.000000,,,,,,,,,,,,,,,,
1645708831.254803,135.000000,0.000000,4221.666504,4232.051270,4206.794922,4228.717773,4219.871582,4212.820313,4208.461426,4208.461426,4211.794922,4220.769043,4232.563965,4176.922852,4231.282227,4182.948730,2687.000000,4.000000,91.000000,,,,0.000000,4.000000,4.000000,4.000000,4.000000,4.000000,4.000000,4.000000,4.000000,4.000000,4.000000,4.000000,4.000000,4.000000,4.000000,100.000000,,,,,,,,,,,,,,,,
1645708831.258743,136.000000,0.000000,4220.128418,4232.051270,4206.538574,4228.589844,4219.230957,4210.000000,4206.410156,4206.153809,4210.256348,4214.871582,4231.666504,4176.538574,4228.077148,4181.025879,1391.000000,4.000000,91.000000,,,,0.000000,4.000000,4.000000,4.000000,4.000000,4.000000,4.000000,4.000000,4.000000,4.000000,4.000000,4.000000,4.000000,4.000000,4.000000,100.000000,,,,,,,,,,,,,,,,
1645708831.262683,137.000000,0.000000,4219.615234,4234.358887,4208.461426,4231.153809,4220.897461,4209.743652,4206.794922,4206.666504,4211.025879,4216.282227,4235.128418,4176.153809,4225.512695,4179.230957,3295.000000,4.000000,91.000000,,,,0.000000,4.000000,4.000000,4.000000,4.000000,4.000000,4.000000,4.000000,4.000000,4.000000,4.000000,4.000000,4.000000,4.000000,4.000000,100.000000,,,,,,,,,,,,,,,,
1645708831.266624,138.000000,0.000000,4220.897461,4237.051270,4211.538574,4234.102539,4222.179688,4211.025879,4208.205078,4209.230957,4212.307617,4221.025879,4238.846191,4175.897461,4224.102539,4176.666504,2444.000000,4.000000,91.000000,,,,0.000000,4.000000,4.000000,4.000000,4.000000,4.000000,4.000000,4.000000,4.000000,4.000000,4.000000,4.000000,4.000000,4.000000,4.000000,100.000000,,,,,,,,,,,,,,,,
1645708831.270564,139.000000,0.000000,4223.974121,4238.846191,4214.743652,4236.153809,4222.692383,4212.820313,4209.615234,4212.179688,4213.205078,4223.974121,4240.384766,4176.794922,4224.615234,4174.358887,3489.000000,4.000000,91.000000,,,,0.000000,4.000000,4.000000,4.000000,4.000000,4.000000,4.000000,4.000000,4.000000,4.000000,4.000000,4.000000,4.000000,4.000000,4.000000,100.000000,,,,,,,,,,,,,,,,
1645708831.274504,140.000000,0.000000,4227.820313,4240.512695,4217.436035,4237.820313,4224.487305,4215.256348,4211.153809,4214.230957,4213.846191,4223.589844,4240.769043,4179.743652,4227.179688,4174.615234,3320.000000,4.000000,91.000000,,,,0.000000,4.000000,4.000000,4.000000,4.000000,4.000000,4.000000,4.000000,4.000000,4.000000,4.000000,4.000000,4.000000,4.000000,4.000000,100.000000,,,,,,,,,,,,,,,,
1645708831.278444,141.000000,0.000000,4231.282227,4242.051270,4218.717773,4239.743652,4227.563965,4217.948730,4213.333496,4214.615234,4214.871582,4222.179688,4241.794922,4183.589844,4230.384766,4178.077148,3278.000000,4.000000,91.000000,,,,0.000000,4.000000,4.000000,4.000000,4.000000,4.000000,4.000000,4.000000,4.000000,4.000000,4.000000,4.000000,4.000000,4.000000,4.000000,100.000000,,,,,,,,,,,,,,,,
1645708831.282384,142.000000,0.000000,4232.948730,4242.436035,4218.333496,4241.025879,4228.205078,4218.846191,4215.128418,4212.948730,4215.769043,4221.922852,4243.333496,4186.153809,4232.692383,4182.307617,2444.000000,4.000000,91.000000,,,,0.000000,4.000000,4.000000,4.000000,4.000000,4.000000,4.000000,4.000000,4.000000,4.000000,4.000000,4.000000,4.000000,4.000000,4.000000,100.000000,,,,,,,,,,,,,,,,
1645708831.286324,143.000000,0.000000,4231.794922,4241.025879,4216.153809,4239.743652,4223.077148,4215.512695,4215.128418,4209.871582,4215.384766,4223.333496,4243.205078,4185.128418,4232.820313,4183.589844,3489.000000,4.000000,91.000000,,,,0.000000,4.000000,4.000000,4.000000,4.000000,4.000000,4.000000,4.000000,4.000000,4.000000,4.000000,4.000000,4.000000,4.000000,4.000000,100.000000,,,,,,,,,,,,,,,,
1645708831.290164,144.000000,0.000000,4228.077148,4238.974121,4213.589844,4236.666504,4214.102539,4208.846191,4213.461426,4206.410156,4213.461426,4225.641113,4240.512695,4180.897461,4230.641113,4180.512695,3320.000000,4.000000,91.000000,,,,0.000000,4.000000,4.000000,4.000000,4.000000,4.000000,4.000000,4.000000,4.000000,4.000000,4.000000,4.000000,4.000000,4.000000,4.000000,100.000000,,,,,,,,,,,,,,,,
1645708831.294104,145.000000,0.000000,4223.333496,4239.487305,4212.179688,4234.487305,4208.846191,4203.717773,4211.410156,4204.358887,4211.025879,4228.717773,4237.563965,4176.153809,4227.820313,4176.025879,3278.000000,4.000000,91.000000,,,,0.000000,4.000000,4.000000,4.000000,4.000000,4.000000,4.000000,4.000000,4.000000,4.000000,4.000000,4.000000,4.000000,4.000000,4.000000,100.000000,,,,,,,,,,,,,,,,
1645708831.298044,146.000000,0.000000,4220.128418,4243.461426,4212.563965,4235.256348,4213.077148,4204.615234,4210.897461,4204.871582,4209.743652,4232.436035,4237.307617,4173.974121,4225.769043,4173.974121,2444.000000,4.000000,91.000000,,,,0.000000,4.000000,4.000000,4.000000,4.000000,4.000000,4.000000,4.000000,4.000000,4.000000,4.000000,4.000000,4.000000,4.000000,4.000000,100.000000,,,,,,,,,,,,,,,,
1645708831.301985,147.000000,0.000000,4219.487305,4248.846191,4213.974121,4237.436035,4225.000000,4211.153809,4211.922852,4207.179688,4210.000000,4234.743652,4239.487305,4174.615234,4224.743652,4175.000000,3489.000000,4.000000,91.000000,,,,0.000000,4.000000,4.000000,4.000000,4.000000,4.000000,4.000000,4.000000,4.000000,4.000000,4.000000,4.000000,4.000000,4.000000,4.000000,100.000000,,,,,,,,,,,,,,,,
1645708831.305925,148.000000,0.000000,4220.512695,4251.538574,4215.000000,4238.077148,4236.538574,4218.717773,4213.077148,4209.358887,4210.769043,4232.948730,4240.897461,4175.512695,4223.717773,4176.282227,3320.000000,4.000000,91.000000,,,,0.000000,4.000000,4.000000,4.000000,4.000000,4.000000,4.000000,4.000000,4.000000,4.000000,4.000000,4.000000,4.000000,4.000000,4.000000,100.000000,,,,,,,,,,,,,,,,
1645708831.309865,149.000000,0.000000,4221.025879,4250.256348,4215.128418,4235.256348,4240.641113,4222.563965,4213.077148,4209.871582,4210.384766,4225.769043,4238.846191,4174.230957,4221.282227,4175.256348,3278.000000,4.000000,91.000000,,,,0.000000,4.000000,4.000000,4.000000,4.000000,4.000000,4.000000,4.000000,4.000000,4.000000,4.000000,4.000000,4.000000,4.000000,4.000000,100.000000,,,,,,,,,,,,,,,,
1645708831.313805,150.000000,0.000000,4220.000000,4246.794922,4214.358887,4231.025879,4237.307617,4221.794922,4212.563965,4208.461426,4208.333496,4216.538574,4234.230957,4170.897461,4217.179688,4171.538574,2444.000000,4.000000,91.000000,,,,0.000000,4.000000,4.000000,4.000000,4.000000,4.000000,4.000000,4.000000,4.000000,4.000000,4.000000,4.000000,4.000000,4.000000,4.000000,100.000000,,,,,,,,,,,,,,,,
1645708831.317745,151.000000,0.000000,4218.461426,4244.358887,4213.205078,4228.589844,4231.410156,4219.230957,4212.692383,4206.025879,4205.897461,4210.256348,4229.743652,4167.948730,4213.077148,4167.307617,3489.000000,4.000000,91.000000,,,,0.000000,4.000000,4.000000,4.000000,4.000000,4.000000,4.000000,4.000000,4.000000,4.000000,4.000000,4.000000,4.000000,4.000000,4.000000,100.000000,,,,,,,,,,,,,,,,
1645708831.321685,152.000000,0.000000,4217.563965,4243.974121,4211.794922,4228.974121,4227.179688,4217.307617,4213.974121,4203.717773,4204.743652,4208.974121,4227.051270,4166.538574,4210.000000,4163.846191,3320.000000,4.000000,91.000000,,,,0.000000,4.000000,4.000000,4.000000,4.000000,4.000000,4.000000,4.000000,4.000000,4.000000,4.000000,4.000000,4.000000,4.000000,4.000000,100.000000,1.000000,100.000000,4.000000,4.000000,4.000000,4.000000,4.000000,4.000000,4.000000,4.000000,4.000000,4.000000,4.000000,4.000000,4.000000,4.000000
1645708831.325625,153.000000,0.000000,4217.179688,4244.230957,4210.128418,4230.256348,4226.153809,4216.538574,4216.153809,4203.333496,4205.000000,4209.871582,4225.128418,4165.384766,4207.948730,4161.153809,3278.000000,4.000000,91.000000,,,,0.000000,4.000000,4.000000,4.000000,4.000000,4.000000,4.000000,4.000000,4.000000,4.000000,4.000000,4.000000,4.000000,4.000000,4.000000,100.000000,,,,,,,,,,,,,,,,
1645708831.329565,154.000000,0.000000,4216.538574,4243.077148,4207.820313,4230.512695,4227.563965,4216.538574,4218.077148,4205.512695,4206.794922,4209.358887,4222.948730,4162.820313,4206.282227,4159.102539,2444.000000,4.000000,91.000000,,,,0.000000,4.000000,4.000000,4.000000,4.000000,4.000000,4.000000,4.000000,4.000000,4.000000,4.000000,4.000000,4.000000,4.000000,4.000000,100.000000,,,,,,,,,,,,,,,,
1645708831.333505,155.000000,0.000000,4215.897461,4240.769043,4205.384766,4230.384766,4230.897461,4217.051270,4219.615234,4209.487305,4209.615234,4207.436035,4220.641113,4159.102539,4205.769043,4159.102539,3489.000000,4.000000,91.000000,,,,0.000000,4.000000,4.000000,4.000000,4.000000,4.000000,4.000000,4.000000,4.000000,4.000000,4.000000,4.000000,4.000000,4.000000,4.000000,100.000000,,,,,,,,,,,,,,,,
1645708831.337446,156.000000,0.000000,4216.025879,4238.846191,4204.230957,4232.051270,4234.743652,4217.820313,4220.128418,4212.692383,4212.179688,4207.436035,4220.000000,4157.436035,4207.692383,4162.051270,3320.000000,4.000000,91.000000,,,,0.000000,4.000000,4.000000,4.000000,4.000000,4.000000,4.000000,4.000000,4.000000,4.000000,4.000000,4.000000,4.000000,4.000000,4.000000,100.000000,,,,,,,,,,,,,,,,
1645708831.341386,157.000000,0.000000,4217.436035,4238.461426,4204.871582,4235.512695,4236.153809,4217.692383,4218.974121,4213.461426,4213.333496,4211.025879,4221.153809,4159.487305,4212.179688,4166.922852,3278.000000,4.000000,91.000000,,,,0.000000,4.000000,4.000000,4.000000,4.000000,4.000000,4.000000,4.000000,4.000000,4.000000,4.000000,4.000000,4.000000,4.000000,4.000000,100.000000,,,,,,,,,,,,,,,,
1645708831.345326,158.000000,0.000000,4219.102539,4238.205078,4206.666504,4237.948730,4232.051270,4215.384766,4216.538574,4212.179688,4212.820313,4215.897461,4222.563965,4163.846191,4216.794922,4170.256348,2444.000000,4.000000,91.000000,,,,0.000000,4.000000,4.000000,4.000000,4.000000,4.000000,4.000000,4.000000,4.000000,4.000000,4.000000,4.000000,4.000000,4.000000,4.000000,100.000000,,,,,,,,,,,,,,,,
1645708831.349266,159.000000,0.000000,4219.743652,4235.897461,4207.692383,4236.410156,4223.205078,4212.051270,4214.230957,4210.641113,4212.179688,4218.461426,4222.948730,4166.922852,4218.461426,4169.230957,3489.000000,4.000000,91.000000,,,,0.000000,4.000000,4.000000,4.000000,4.000000,4.000000,4.000000,4.000000,4.000000,4.000000,4.000000,4.000000,4.000000,4.000000,4.000000,100.000000,,,,,,,,,,,,,,,,
1645708831.353206,160.000000,0.000000,4218.461426,4232.051270,4206.153809,4231.410156,4214.487305,4210.384766,4213.205078,4210.384766,4213.461426,4217.820313,4222.563965,4166.538574,4216.410156,4164.615234,3320.000000,4.000000,91.000000,,,,0.000000,4.000000,4.000000,4.000000,4.000000,4.000000,4.000000,4.000000,4.000000,4.000000,4.000000,4.000000,4.000000,4.000000,4.000000,100.000000,,,,,,,,,,,,,,,,
1645708831.357146,161.000000,0.000000,4216.025879,4228.717773,4202.307617,4226.410156,4211.538574,4212.179688,4213.589844,4211.410156,4217.436035,4216.282227,4223.461426,4163.205078,4213.077148,4160.641113,3278.000000,4.000000,91.000000,,,,0.000000,4.000000,4.000000,4.000000,4.000000,4.000000,4.000000,4.000000,4.000000,4.000000,4.000000,4.000000,4.000000,4.000000,4.000000,100.000000,,,,,,,,,,,,,,,,
1645708831.361186,162.000000,0.000000,4213.846191,4228.461426,4198.589844,4224.487305,4216.025879,4216.666504,4214.358887,4212.563965,4222.051270,4216.922852,4227.307617,4159.487305,4211.666504,4160.384766,2444.000000,4.000000,91.000000,,,,0.000000,4.000000,4.000000,4.000000,4.000000,4.000000,4.000000,4.000000,4.000000,4.000000,4.000000,4.000000,4.000000,4.000000,4.000000,100.000000,,,,,,,,,,,,,,,,
1645708831.365126,163.000000,0.000000,4213.461426,4230.641113,4197.563965,4225.897461,4224.358887,4220.128418,4215.256348,4213.077148,4223.846191,4220.256348,4233.717773,4157.692383,4213.717773,4164.358887,3489.000000,4.000000,91.000000,,,,0.000000,4.000000,4.000000,4.000000,4.000000,4.000000,4.000000,4.000000,4.000000,4.000000,4.000000,4.000000,4.000000,4.000000,4.000000,100.000000,,,,,,,,,,,,,,,,
1645708831.369066,164.000000,0.000000,4215.000000,4233.205078,4200.128418,4227.948730,4231.025879,4220.384766,4216.410156,4212.820313,4220.641113,4224.615234,4241.025879,4158.589844,4218.205078,4170.384766,3320.000000,4.000000,91.000000,,,,0.000000,4.000000,4.000000,4.000000,4.000000,4.000000,4.000000,4.000000,4.000000,4.000000,4.000000,4.000000,4.000000,4.000000,4.000000,100.000000,,,,,,,,,,,,,,,,
1645708831.373006,165.000000,0.000000,4217.307617,4234.102539,4203.846191,4228.846191,4232.179688,4218.589844,4217.436035,4211.666504,4213.974121,4228.205078,4247.436035,4161.794922,4223.077148,4175.384766,3278.000000,4.000000,91.000000,,,,0.000000,4.000000,4.000000,4.000000,4.000000,4.000000,4.000000,4.000000,4.000000,4.000000,4.000000,4.000000,4.000000,4.000000,4.000000,100.000000,,,,,,,,,,,,,,,,
1645708831.376946,166.000000,0.000000,4218.205078,4233.461426,4205.256348,4227.948730,4228.846191,4217.179688,4217.179688,4209.871582,4208.461426,4229.615234,4250.769043,4165.256348,4226.410156,4177.820313,2444.000000,4.000000,91.000000,,,,0.000000,4.000000,4.000000,4.000000,4.000000,4.000000,4.000000,4.000000,4.000000,4.000000,4.000000,4.000000,4.000000,4.000000,4.000000,100.000000,,,,,,,,,,,,,,,,
1645708831.380887,167.000000,0.000000,4216.922852,4232.179688,4203.077148,4226.410156,4223.974121,4217.051270,4214.871582,4208.205078,4208.077148,4228.077148,4249.615234,4166.410156,4227.307617,4177.179688,3489.000000,4.000000,91.000000,,,,0.000000,4.000000,4.000000,4.000000,4.000000,4.000000,4.000000,4.000000,4.000000,4.000000,4.000000,4.000000,4.000000,4.000000,4.000000,100.000000,,,,,,,,,,,,,,,,
1645708831.384827,168.000000,0.000000,4214.871582,4230.769043,4199.743652,4225.128418,4220.897461,4217.436035,4211.922852,4208.461426,4212.820313,4224.358887,4244.358887,4164.358887,4226.153809,4174.615234,3320.000000,4.000000,91.000000,,,,0.000000,4.000000,4.000000,4.000000,4.000000,4.000000,4.000000,4.000000,4.000000,4.000000,4.000000,4.000000,4.000000,4.000000,4.000000,100.000000,,,,,,,,,,,,,,,,
1645708831.388767,169.000000,0.000000,4214.871582,4229.871582,4199.102539,4225.000000,4221.538574,4217.563965,4211.025879,4211.794922,4218.974121,4221.025879,4238.461426,4161.410156,4224.871582,4173.461426,3278.000000,4.000000,91.000000,,,,0.000000,4.000000,4.000000,4.000000,4.000000,4.000000,4.000000,4.000000,4.000000,4.000000,4.000000,4.000000,4.000000,4.000000,4.000000,100.000000,,,,,,,,,,,,,,,,
1645708831.392707,170.000000,0.000000,4218.333496,4230.128418,4202.948730,4226.282227,4225.512695,4218.461426,4213.589844,4216.794922,4222.436035,4221.410156,4236.538574,4161.410156,4226.153809,4176.666504,2444.000000,4.000000,91.000000,,,,0.000000,4.000000,4.000000,4.000000,4.000000,4.000000,4.000000,4.000000,4.000000,4.000000,4.000000,4.000000,4.000000,4.000000,4.000000,100.000000,,,,,,,,,,,,,,,,
1645708831.396647,171.000000,0.000000,4223.846191,4232.563965,4210.000000,4229.102539,4230.512695,4221.410156,4218.205078,4220.000000,4221.282227,4226.410156,4240.512695,4165.641113,4230.384766,4184.615234,3489.000000,4.000000,91.000000,,,,0.000000,4.000000,4.000000,4.000000,4.000000,4.000000,4.000000,4.000000,4.000000,4.000000,4.000000,4.000000,4.000000,4.000000,4.000000,100.000000,,,,,,,,,,,,,,,,
1645708831.400587,172.000000,0.000000,4227.948730,4236.410156,4216.410156,4232.179688,4233.461426,4225.384766,4221.922852,4218.846191,4216.922852,4231.922852,4247.307617,4171.153809,4235.256348,4193.589844,3320.000000,4.000000,91.000000,,,,0.000000,4.000000,4.000000,4.000000,4.000000,4.000000,4.000000,4.000000,4.000000,4.000000,4.000000,4.000000,4.000000,4.000000,4.000000,100.000000,,,,,,,,,,,,,,,,
1645708831.404527,173.000000,0.000000,4228.205078,4239.358887,4218.461426,4233.846191,4231.922852,4227.563965,4222.436035,4213.589844,4211.922852,4232.692383,4250.384766,4172.820313,4236.410156,4197.820313,3278.000000,4.000000,91.000000,,,,0.000000,4.000000,4.000000,4.000000,4.000000,4.000000,4.000000,4.000000,4.000000,4.000000,4.000000,4.000000,4.000000,4.000000,4.000000,100.000000,,,,,,,,,,,,,,,,
1645708831.408467,174.000000,0.000000,4224.487305,4239.230957,4215.769043,4232.948730,4227.051270,4226.538574,4219.871582,4206.666504,4208.846191,4227.436035,4246.410156,4168.589844,4231.666504,4194.743652,2444.000000,4.000000,91.000000,,,,0.000000,4.000000,4.000000,4.000000,4.000000,4.000000,4.000000,4.000000,4.000000,4.000000,4.000000,4.000000,4.000000,4.000000,4.000000,100.000000,,,,,,,,,,,,,,,,
1645708831.412407,175.000000,0.000000,4219.358887,4236.025879,4210.769043,4231.410156,4222.692383,4223.846191,4216.282227,4200.897461,4208.077148,4220.256348,4238.205078,4161.538574,4224.102539,4186.922852,3489.000000,4.000000,91.000000,,,,0.000000,4.000000,4.000000,4.000000,4.000000,4.000000,4.000000,4.000000,4.000000,4.000000,4.000000,4.000000,4.000000,4.000000,4.000000,100.000000,,,,,,,,,,,,,,,,
1645708831.416348,176.000000,0.000000,4216.025879,4232.436035,4207.051270,4231.153809,4223.077148,4222.179688,4213.461426,4198.205078,4207.948730,4217.563965,4233.077148,4156.794922,4219.615234,4180.641113,3320.000000,4.000000,91.000000,,,,0.000000,4.000000,4.000000,4.000000,4.000000,4.000000,4.000000,4.000000,4.000000,4.000000,4.000000,4.000000,4.000000,4.000000,4.000000,100.000000,,,,,,,,,,,,,,,,
1645708831.420288,177.000000,0.000000,4216.025879,4229.743652,4206.794922,4232.948730,4227.692383,4222.692383,4212.948730,4199.230957,4207.692383,4220.641113,4234.871582,4157.692383,4221.666504,4180.384766,3278.000000,4.000000,91.000000,,,,0.000000,4.000000,4.000000,4.000000,4.000000,4.000000,4.000000,4.000000,4.000000,4.000000,4.000000,4.000000,4.000000,4.000000,4.000000,100.000000,,,,,,,,,,,,,,,,
1645708831.424228,178.000000,0.000000,4218.461426,4227.948730,4209.871582,4234.743652,4232.179688,4223.846191,4214.743652,4203.974121,4207.436035,4226.282227,4241.153809,4162.820313,4228.077148,4186.025879,2444.000000,4.000000,91.000000,,,,0.000000,4.000000,4.000000,4.000000,4.000000,4.000000,4.000000,4.000000,4.000000,4.000000,4.000000,4.000000,4.000000,4.000000,4.000000,100.000000,,,,,,,,,,,,,,,,
1645708831.428168,179.000000,0.000000,4221.153809,4225.512695,4213.974121,4234.358887,4231.922852,4224.230957,4218.205078,4211.282227,4207.820313,4230.384766,4246.666504,4168.717773,4233.846191,4193.205078,3489.000000,4.000000,91.000000,,,,0.000000,4.000000,4.000000,4.000000,4.000000,4.000000,4.000000,4.000000,4.000000,4.000000,4.000000,4.000000,4.000000,4.000000,4.000000,100.000000,,,,,,,,,,,,,,,,
1645708831.432008,180.000000,0.000000,4221.922852,4222.307617,4216.282227,4231.666504,4226.538574,4223.846191,4221.538574,4218.974121,4209.358887,4232.179688,4248.077148,4173.077148,4235.256348,4197.563965,3320.000000,4.000000,91.000000,,,,0.000000,4.000000,4.000000,4.000000,4.000000,4.000000,4.000000,4.000000,4.000000,4.000000,4.000000,4.000000,4.000000,4.000000,4.000000,100.000000,,,,,,,,,,,,,,,,
1645708831.435948,181.000000,0.000000,4219.615234,4219.230957,4215.128418,4228.974121,4220.641113,4223.461426,4222.563965,4223.846191,4211.922852,4232.692383,4246.153809,4175.128418,4232.692383,4197.179688,3278.000000,4.000000,91.000000,,,,0.000000,4.000000,4.000000,4.000000,4.000000,4.000000,4.000000,4.000000,4.000000,4.000000,4.000000,4.000000,4.000000,4.000000,4.000000,100.000000,,,,,,,,,,,,,,,,
1645708831.439888,182.000000,0.000000,4215.128418,4216.410156,4210.897461,4226.922852,4218.846191,4223.333496,4220.000000,4223.205078,4214.230957,4230.769043,4242.563965,4175.000000,4228.461426,4192.563965,2444.000000,4.000000,91.000000,,,,0.000000,4.000000,4.000000,4.000000,4.000000,4.000000,4.000000,4.000000,4.000000,4.000000,4.000000,4.000000,4.000000,4.000000,4.000000,100.000000,,,,,,,,,,,,,,,,
1645708831.443828,183.000000,0.000000,4210.769043,4213.077148,4205.384766,4224.487305,4220.641113,4221.922852,4215.000000,4217.692383,4214.358887,4224.358887,4237.563965,4172.436035,4224.487305,4185.769043,3489.000000,4.000000,91.000000,,,,0.000000,4.000000,4.000000,4.000000,4.000000,4.000000,4.000000,4.000000,4.000000,4.000000,4.000000,4.000000,4.000000,4.000000,4.000000,100.000000,,,,,,,,,,,,,,,,
1645708831.447768,184.000000,0.000000,4208.205078,4209.230957,4201.282227,4220.641113,4221.794922,4218.333496,4210.000000,4210.769043,4211.410156,4214.102539,4232.179688,4168.077148,4221.153809,4179.615234,3320.000000,4.000000,91.000000,,,,0.000000,4.000000,4.000000,4.000000,4.000000,4.000000,4.000000,4.000000,4.000000,4.000000,4.000000,4.000000,4.000000,4.000000,4.000000,100.000000,,,,,,,,,,,,,,,,
1645708831.451709,185.000000,0.000000,4208.077148,4207.051270,4200.128418,4216.794922,4218.717773,4214.230957,4207.692383,4206.666504,4206.922852,4205.769043,4229.487305,4163.589844,4218.589844,4177.692383,3278.000000,4.000000,91.000000,,,,0.000000,4.000000,4.000000,4.000000,4.000000,4.000000,4.000000,4.000000,4.000000,4.000000,4.000000,4.000000,4.000000,4.000000,4.000000,100.000000,,,,,,,,,,,,,,,,
1645708831.455649,186.000000,0.000000,4209.743652,4208.846191,4201.794922,4216.153809,4212.948730,4211.922852,4208.717773,4207.563965,4203.717773,4206.153809,4232.051270,4161.282227,4216.922852,4181.153809,2444.000000,4.000000,91.000000,,,,0.000000,4.000000,4.000000,4.000000,4.000000,4.000000,4.000000,4.000000,4.000000,4.000000,4.000000,4.000000,4.000000,4.000000,4.000000,100.000000,,,,,,,,,,,,,,,,
1645708831.459589,187.000000,0.000000,4212.563965,4213.846191,4205.641113,4220.000000,4208.846191,4212.179688,4211.922852,4212.051270,4203.846191,4215.641113,4238.717773,4162.436035,4216.666504,4187.820313,3489.000000,4.000000,91.000000,,,,0.000000,4.000000,4.000000,4.000000,4.000000,4.000000,4.000000,4.000000,4.000000,4.000000,4.000000,4.000000,4.000000,4.000000,4.000000,100.000000,,,,,,,,,,,,,,,,
1645708831.463529,188.000000,0.000000,4216.025879,4218.846191,4209.743652,4225.897461,4209.358887,4213.717773,4215.000000,4216.666504,4206.025879,4226.922852,4244.487305,4166.282227,4217.948730,4192.948730,3320.000000,4.000000,91.000000,,,,0.000000,4.000000,4.000000,4.000000,4.000000,4.000000,4.000000,4.000000,4.000000,4.000000,4.000000,4.000000,4.000000,4.000000,4.000000,100.000000,,,,,,,,,,,,,,,,
1645708831.467469,189.000000,0.000000,4218.974121,4220.641113,4212.820313,4229.358887,4213.717773,4214.615234,4216.666504,4218.205078,4208.077148,4231.153809,4244.615234,4170.897461,4220.256348,4193.717773,3278.000000,4.000000,91.000000,,,,0.000000,4.000000,4.000000,4.000000,4.000000,4.000000,4.000000,4.000000,4.000000,4.000000,4.000000,4.000000,4.000000,4.000000,4.000000,100.000000,,,,,,,,,,,,,,,,
1645708831.471409,190.000000,0.000000,4220.641113,4219.615234,4214.358887,4228.461426,4219.102539,4215.000000,4217.436035,4216.282227,4208.846191,4226.922852,4240.256348,4173.974121,4223.205078,4191.153809,2444.000000,4.000000,91.000000,,,,0.000000,4.000000,4.000000,4.000000,4.000000,4.000000,4.000000,4.000000,4.000000,4.000000,4.000000,4.000000,4.000000,4.000000,4.000000,100.000000,,,,,,,,,,,,,,,,
1645708831.475349,191.000000,0.000000,4220.897461,4219.102539,4214.487305,4225.000000,4223.333496,4216.666504,4218.461426,4212.948730,4208.974121,4221.025879,4236.794922,4175.256348,4226.153809,4189.102539,3489.000000,4.000000,91.000000,,,,0.000000,4.000000,4.000000,4.000000,4.000000,4.000000,4.000000,4.000000,4.000000,4.000000,4.000000,4.000000,4.000000,4.000000,4.000000,100.000000,,,,,,,,,,,,,,,,
1645708831.479289,192.000000,0.000000,4220.769043,4221.282227,4213.717773,4222.563965,4225.641113,4220.000000,4220.000000,4210.897461,4210.000000,4221.282227,4238.846191,4175.512695,4228.205078,4190.000000,3320.000000,4.000000,91.000000,,,,0.000000,4.000000,4.000000,4.000000,4.000000,4.000000,4.000000,4.000000,4.000000,4.000000,4.000000,4.000000,4.000000,4.000000,4.000000,100.000000,,,,,,,,,,,,,,,,
1645708831.483229,193.000000,0.000000,4221.025879,4224.487305,4213.205078,4222.948730,4226.153809,4223.589844,4220.769043,4211.410156,4211.666504,4228.205078,4245.512695,4175.512695,4228.205078,4192.563965,3278.000000,4.000000,91.000000,,,,0.000000,4.000000,4.000000,4.000000,4.000000,4.000000,4.000000,4.000000,4.000000,4.000000,4.000000,4.000000,4.000000,4.000000,4.000000,100.000000,,,,,,,,,,,,,,,,
1645708831.487170,194.000000,0.000000,4221.794922,4225.641113,4213.461426,4224.615234,4225.512695,4224.871582,4220.256348,4213.205078,4212.307617,4234.615234,4250.769043,4174.871582,4226.025879,4193.461426,2444.000000,4.000000,91.000000,,,,0.000000,4.000000,4.000000,4.000000,4.000000,4.000000,4.000000,4.000000,4.000000,4.000000,4.000000,4.000000,4.000000,4.000000,4.000000,100.000000,,,,,,,,,,,,,,,,
1645708831.491110,195.000000,0.000000,4221.666504,4222.563965,4214.102539,4225.128418,4225.128418,4223.717773,4218.717773,4214.230957,4210.769043,4233.461426,4249.487305,4172.563965,4222.948730,4190.897461,3489.000000,4.000000,91.000000,,,,0.000000,4.000000,4.000000,4.000000,4.000000,4.000000,4.000000,4.000000,4.000000,4.000000,4.000000,4.000000,4.000000,4.000000,4.000000,100.000000,,,,,,,,,,,,,,,,
1645708831.495050,196.000000,0.000000,4219.871582,4216.666504,4213.589844,4223.461426,4225.769043,4221.666504,4217.820313,4213.205078,4207.692383,4225.384766,4242.179688,4169.102539,4221.025879,4186.794922,3320.000000,4.000000,91.000000,,,,0.000000,4.000000,4.000000,4.000000,4.000000,4.000000,4.000000,4.000000,4.000000,4.000000,4.000000,4.000000,4.000000,4.000000,4.000000,100.000000,,,,,,,,,,,,,,,,
1645708831.498990,197.000000,0.000000,4217.179688,4210.897461,4211.153809,4220.512695,4225.769043,4220.769043,4217.820313,4211.025879,4205.769043,4217.051270,4234.358887,4166.025879,4221.410156,4184.102539,3278.000000,4.000000,91.000000,,,,0.000000,4.000000,4.000000,4.000000,4.000000,4.000000,4.000000,4.000000,4.000000,4.000000,4.000000,4.000000,4.000000,4.000000,4.000000,100.000000,,,,,,,,,,,,,,,,
1645708831.502930,198.000000,0.000000,4215.769043,4207.563965,4208.077148,4217.436035,4222.179688,4220.512695,4217.820313,4209.871582,4206.666504,4213.846191,4231.538574,4165.384766,4223.333496,4184.102539,2444.000000,4.000000,91.000000,,,,0.000000,4.000000,4.000000,4.000000,4.000000,4.000000,4.000000,4.000000,4.000000,4.000000,4.000000,4.000000,4.000000,4.000000,4.000000,100.000000,,,,,,,,,,,,,,,,
1645708831.506770,199.000000,0.000000,4216.666504,4206.922852,4206.922852,4215.512695,4215.512695,4219.615234,4216.538574,4211.153809,4209.358887,4215.512695,4234.358887,4168.333496,4225.384766,4185.512695,3489.000000,4.000000,91.000000,,,,0.000000,4.000000,4.000000,4.000000,4.000000,4.000000,4.000000,4.000000,4.000000,4.000000,4.000000,4.000000,4.000000,4.000000,4.000000,100.000000,,,,,,,,,,,,,,,,
1645708831.510710,200.000000,0.000000,4219.358887,4209.102539,4209.487305,4215.769043,4210.128418,4217.436035,4214.871582,4214.358887,4211.666504,4217.436035,4238.717773,4173.333496,4226.025879,4186.282227,3320.000000,4.000000,91.000000,,,,0.000000,4.000000,4.000000,4.000000,4.000000,4.000000,4.000000,4.000000,4.000000,4.000000,4.000000,4.000000,4.000000,4.000000,4.000000,100.000000,,,,,,,,,,,,,,,,
1645708831.514650,201.000000,0.000000,4222.179688,4213.333496,4213.974121,4218.333496,4212.307617,4215.384766,4214.230957,4217.563965,4211.922852,4217.436035,4240.128418,4177.563965,4225.384766,4186.025879,3278.000000,4.000000,91.000000,,,,0.000000,4.000000,4.000000,4.000000,4.000000,4.000000,4.000000,4.000000,4.000000,4.000000,4.000000,4.000000,4.000000,4.000000,4.000000,100.000000,,,,,,,,,,,,,,,,
1645708831.518590,202.000000,0.000000,4223.077148,4217.948730,4216.922852,4221.153809,4222.051270,4214.615234,4214.102539,4218.461426,4209.743652,4216.794922,4237.179688,4178.333496,4224.102539,4185.256348,2444.000000,4.000000,91.000000,,,,0.000000,4.000000,4.000000,4.000000,4.000000,4.000000,4.000000,4.000000,4.000000,4.000000,4.000000,4.000000,4.000000,4.000000,4.000000,100.000000,,,,,,,,,,,,,,,,
1645708831.522531,203.000000,0.000000,4221.538574,4220.384766,4215.769043,4221.410156,4232.051270,4214.743652,4213.333496,4216.794922,4206.410156,4217.051270,4231.666504,4175.256348,4222.436035,4184.487305,3489.000000,4.000000,91.000000,,,,0.000000,4.000000,4.000000,4.000000,4.000000,4.000000,4.000000,4.000000,4.000000,4.000000,4.000000,4.000000,4.000000,4.000000,4.000000,100.000000,,,,,,,,,,,,,,,,
1645708831.526471,204.000000,0.000000,4218.205078,4218.974121,4211.410156,4217.436035,4233.846191,4213.974121,4211.153809,4213.974121,4203.717773,4218.077148,4227.692383,4170.384766,4220.512695,4184.358887,3320.000000,4.000000,91.000000,,,,0.000000,4.000000,4.000000,4.000000,4.000000,4.000000,4.000000,4.000000,4.000000,4.000000,4.000000,4.000000,4.000000,4.000000,4.000000,100.000000,,,,,,,,,,,,,,,,
1645708831.530411,205.000000,0.000000,4214.230957,4214.871582,4206.538574,4211.410156,4226.282227,4212.307617,4208.717773,4212.820313,4202.948730,4217.948730,4227.948730,4166.538574,4218.461426,4185.000000,3278.000000,4.000000,91.000000,,,,0.000000,4.000000,4.000000,4.000000,4.000000,4.000000,4.000000,4.000000,4.000000,4.000000,4.000000,4.000000,4.000000,4.000000,4.000000,100.000000,,,,,,,,,,,,,,,,
1645708831.534351,206.000000,0.000000,4210.897461,4211.794922,4203.589844,4207.948730,4216.794922,4211.794922,4208.077148,4214.487305,4204.743652,4216.025879,4232.563965,4165.128418,4216.666504,4186.153809,2444.000000,4.000000,91.000000,,,,0.000000,4.000000,4.000000,4.000000,4.000000,4.000000,4.000000,4.000000,4.000000,4.000000,4.000000,4.000000,4.000000,4.000000,4.000000,100.000000,,,,,,,,,,,,,,,,
1645708831.538291,207.000000,0.000000,4210.000000,4212.563965,4203.846191,4209.230957,4213.974121,4214.102539,4209.743652,4218.333496,4207.692383,4213.589844,4238.461426,4165.769043,4216.153809,4187.051270,3489.000000,4.000000,91.000000,,,,0.000000,4.000000,4.000000,4.000000,4.000000,4.000000,4.000000,4.000000,4.000000,4.000000,4.000000,4.000000,4.000000,4.000000,4.000000,100.000000,,,,,,,,,,,,,,,,
1645708831.542231,208.000000,0.000000,4212.179688,4216.410156,4207.179688,4213.333496,4219.615234,4218.846191,4212.563965,4221.410156,4209.871582,4213.077148,4241.666504,4167.307617,4217.820313,4187.307617,3320.000000,4.000000,91.000000,,,,0.000000,4.000000,4.000000,4.000000,4.000000,4.000000,4.000000,4.000000,4.000000,4.000000,4.000000,4.000000,4.000000,4.000000,4.000000,100.000000,,,,,,,,,,,,,,,,
1645708831.546171,209.000000,0.000000,4217.179688,4220.256348,4212.051270,4215.769043,4227.307617,4223.461426,4215.897461,4222.307617,4209.871582,4215.384766,4240.512695,4168.974121,4221.025879,4187.307617,3278.000000,4.000000,91.000000,,,,0.000000,4.000000,4.000000,4.000000,4.000000,4.000000,4.000000,4.000000,4.000000,4.000000,4.000000,4.000000,4.000000,4.000000,4.000000,100.000000,,,,,,,,,,,,,,,,
1645708831.550111,210.000000,0.000000,4223.077148,4221.538574,4216.410156,4214.358887,4229.358887,4226.025879,4219.102539,4221.410156,4208.846191,4220.512695,4237.948730,4171.153809,4224.743652,4188.717773,2444.000000,4.000000,91.000000,,,,0.000000,4.000000,4.000000,4.000000,4.000000,4.000000,4.000000,4.000000,4.000000,4.000000,4.000000,4.000000,4.000000,4.000000,4.000000,100.000000,,,,,,,,,,,,,,,,
1645708831.554051,211.000000,0.000000,4227.563965,4220.897461,4218.589844,4211.282227,4223.846191,4226.410156,4222.051270,4221.025879,4208.846191,4227.307617,4239.102539,4174.487305,4228.077148,4192.563965,3489.000000,4.000000,91.000000,,,,0.000000,4.000000,4.000000,4.000000,4.000000,4.000000,4.000000,4.000000,4.000000,4.000000,4.000000,4.000000,4.000000,4.000000,4.000000,100.000000,,,,,,,,,,,,,,,,
1645708831.557992,212.000000,0.000000,4228.974121,4220.384766,4218.077148,4209.743652,4214.358887,4225.256348,4223.589844,4222.692383,4211.025879,4234.102539,4246.025879,4177.948730,4230.769043,4197.436035,3320.000000,4.000000,91.000000,,,,0.000000,4.000000,4.000000,4.000000,4.000000,4.000000,4.000000,4.000000,4.000000,4.000000,4.000000,4.000000,4.000000,4.000000,4.000000,100.000000,,,,,,,,,,,,,,,,
1645708831.561932,213.000000,0.000000,4227.051270,4220.769043,4216.282227,4210.384766,4206.794922,4222.307617,4222.820313,4225.641113,4214.358887,4238.205078,4254.358887,4179.358887,4232.948730,4200.769043,3278.000000,4.000000,91.000000,,,,0.000000,4.000000,4.000000,4.000000,4.000000,4.000000,4.000000,4.000000,4.000000,4.000000,4.000000,4.000000,4.000000,4.000000,4.000000,100.000000,,,,,,,,,,,,,,,,
1645708831.565872,214.000000,0.000000,4223.461426,4221.538574,4215.000000,4210.769043,4204.358887,4217.307617,4220.256348,4227.692383,4216.410156,4237.948730,4256.538574,4177.307617,4233.717773,4200.128418,2444.000000,4.000000,91.000000,,,,0.000000,4.000000,4.000000,4.000000,4.000000,4.000000,4.000000,4.000000,4.000000,4.000000,4.000000,4.000000,4.000000,4.000000,4.000000,100.000000,,,,,,,,,,,,,,,,
