title:Alex-bb8b0OAsspxDk2jwFWPFOQ, start timestamp:1645708780.497464, stop timestamp:1645708806.324303, headset type:EPOCPLUS, headset serial:3B9AEBFF, headset firmware:626, channels:55, sampling rate:eeg_256, samples:6556      , version:2.1, 
Timestamp,OriginalTimestamp,EEG.Counter,EEG.Interpolated,EEG.AF3,EEG.F7,EEG.F3,EEG.FC5,EEG.T7,EEG.P7,EEG.O1,EEG.O2,EEG.P8,EEG.T8,EEG.FC6,EEG.F4,EEG.F8,EEG.AF4,EEG.RawCq,EEG.Battery,EEG.BatteryPercent,MarkerIndex,MarkerType,MarkerValueInt,EEG.MarkerHardware,CQ.AF3,CQ.F7,CQ.F3,CQ.FC5,CQ.T7,CQ.P7,CQ.O1,CQ.O2,CQ.P8,CQ.T8,CQ.FC6,CQ.F4,CQ.F8,CQ.AF4,CQ.Overall,EQ.SampleRateQuality,EQ.OVERALL,EQ.AF3,EQ.F7,EQ.F3,EQ.FC5,EQ.T7,EQ.P7,EQ.O1,EQ.O2,EQ.P8,EQ.T8,EQ.FC6,EQ.F4,EQ.F8,EQ.AF4
1645708780.497464,1645708780.513780,57.000000,0.000000,4182.436035,4076.153809,4212.051270,4146.794922,4202.820313,4199.230957,4215.769043,4214.102539,4224.358887,4189.871582,4202.948730,4162.179688,4184.102539,4116.282227,0.000000,4.000000,91.000000,,,,0.000000,4.000000,4.000000,4.000000,4.000000,4.000000,4.000000,4.000000,4.000000,4.000000,4.000000,4.000000,4.000000,4.000000,4.000000,100.000000,,,,,,,,,,,,,,,,
1645708780.501404,1645708780.517621,58.000000,0.000000,4184.487305,4073.333252,4212.563965,4145.128418,4191.538574,4198.077148,4212.820313,4211.410156,4224.615234,4188.717773,4199.358887,4161.538574,4183.205078,4119.615234,0.000000,4.000000,91.000000,,,,0.000000,4.000000,4.000000,4.000000,4.000000,4.000000,4.000000,4.000000,4.000000,4.000000,4.000000,4.000000,4.000000,4.000000,4.000000,100.000000,,,,,,,,,,,,,,,,
1645708780.505344,1645708780.521561,59.000000,0.000000,4189.871582,4077.051270,4213.461426,4149.743652,4180.128418,4195.384766,4211.153809,4210.512695,4223.589844,4186.538574,4197.436035,4160.769043,4183.077148,4124.487305,0.000000,4.000000,91.000000,,,,0.000000,4.000000,4.000000,4.000000,4.000000,4.000000,4.000000,4.000000,4.000000,4.000000,4.000000,4.000000,4.000000,4.000000,4.000000,100.000000,,,,,,,,,,,,,,,,
1645708780.509284,1645708780.525501,60.000000,0.000000,4196.538574,4086.410156,4214.743652,4158.205078,4176.410156,4194.358887,4210.512695,4210.897461,4221.794922,4185.000000,4199.743652,4160.641113,4183.717773,4128.333496,0.000000,4.000000,91.000000,,,,0.000000,4.000000,4.000000,4.000000,4.000000,4.000000,4.000000,4.000000,4.000000,4.000000,4.000000,4.000000,4.000000,4.000000,4.000000,100.000000,,,,,,,,,,,,,,,,
1645708780.513224,1645708780.529441,61.000000,0.000000,4201.794922,4096.410156,4215.897461,4165.384766,4183.461426,4195.769043,4209.871582,4212.307617,4220.256348,4184.358887,4204.487305,4161.282227,4184.743652,4128.461426,0.000000,4.000000,91.000000,,,,0.000000,4.000000,4.000000,4.000000,4.000000,4.000000,4.000000,4.000000,4.000000,4.000000,4.000000,4.000000,4.000000,4.000000,4.000000,100.000000,,,,,,,,,,,,,,,,
1645708780.517164,1645708780.533381,62.000000,0.000000,4203.589844,4101.538574,4217.051270,4166.922852,4197.692383,4198.461426,4208.846191,4213.846191,4219.230957,4185.000000,4208.333496,4161.666504,4185.384766,4125.128418,0.000000,4.000000,91.000000,,,,0.000000,4.000000,4.000000,4.000000,4.000000,4.000000,4.000000,4.000000,4.000000,4.000000,4.000000,4.000000,4.000000,4.000000,4.000000,100.000000,,,,,,,,,,,,,,,,
1645708780.521104,1645708780.537321,63.000000,0.000000,4202.563965,4100.128418,4218.077148,4163.333496,4212.692383,4201.153809,4208.077148,4215.128418,4218.717773,4187.051270,4208.974121,4161.794922,4185.769043,4121.922852,0.000000,4.000000,91.000000,,,,0.000000,4.000000,4.000000,4.000000,4.000000,4.000000,4.000000,4.000000,4.000000,4.000000,4.000000,4.000000,4.000000,4.000000,4.000000,100.000000,,,,,,,,,,,,,,,,
1645708780.525044,1645708780.541261,64.000000,0.000000,4200.256348,4095.128174,4218.461426,4158.846191,4222.563965,4203.974121,4208.333496,4215.641113,4218.846191,4190.897461,4207.820313,4162.436035,4186.153809,4122.948730,0.000000,4.000000,91.000000,,,,0.000000,4.000000,4.000000,4.000000,4.000000,4.000000,4.000000,4.000000,4.000000,4.000000,4.000000,4.000000,4.000000,4.000000,4.000000,100.000000,,,,,,,,,,,,,,,,
1645708780.528984,1645708780.545201,65.000000,0.000000,4198.589844,4090.769287,4217.692383,4157.051270,4224.871582,4207.307617,4209.615234,4215.256348,4219.615234,4195.000000,4207.436035,4163.333496,4187.051270,4129.230957,0.000000,4.000000,91.000000,,,,0.000000,4.000000,4.000000,4.000000,4.000000,4.000000,4.000000,4.000000,4.000000,4.000000,4.000000,4.000000,4.000000,4.000000,4.000000,100.000000,,,,,,,,,,,,,,,,
1645708780.532925,1645708780.549141,66.000000,0.000000,4197.948730,4089.487061,4216.025879,4158.846191,4221.025879,4210.256348,4211.538574,4214.871582,4220.897461,4196.410156,4208.717773,4164.230957,4188.205078,4137.307617,0.000000,4.000000,91.000000,,,,0.000000,4.000000,4.000000,4.000000,4.000000,4.000000,4.000000,4.000000,4.000000,4.000000,4.000000,4.000000,4.000000,4.000000,4.000000,100.000000,,,,,,,,,,,,,,,,
1645708780.536864,1645708780.553082,67.000000,0.000000,4199.102539,4090.897461,4215.512695,4162.563965,4216.282227,4211.410156,4213.589844,4215.256348,4222.179688,4193.589844,4210.769043,4164.487305,4189.487305,4143.461426,0.000000,4.000000,91.000000,,,,0.000000,4.000000,4.000000,4.000000,4.000000,4.000000,4.000000,4.000000,4.000000,4.000000,4.000000,4.000000,4.000000,4.000000,4.000000,100.000000,,,,,,,,,,,,,,,,
1645708780.540805,1645708780.557022,68.000000,0.000000,4201.538574,4093.333252,4217.692383,4166.410156,4215.384766,4211.410156,4215.641113,4216.922852,4223.333496,4188.846191,4212.948730,4164.615234,4190.897461,4145.512695,0.000000,4.000000,91.000000,,,,0.000000,4.000000,4.000000,4.000000,4.000000,4.000000,4.000000,4.000000,4.000000,4.000000,4.000000,4.000000,4.000000,4.000000,4.000000,100.000000,,,,,,,,,,,,,,,,
1645708780.544745,1645708780.560962,69.000000,0.000000,4204.102539,4095.128174,4221.538574,4169.487305,4217.820313,4211.794922,4217.820313,4219.487305,4224.487305,4187.563965,4215.641113,4165.256348,4192.948730,4144.487305,0.000000,4.000000,91.000000,,,,0.000000,4.000000,4.000000,4.000000,4.000000,4.000000,4.000000,4.000000,4.000000,4.000000,4.000000,4.000000,4.000000,4.000000,4.000000,100.000000,,,,,,,,,,,,,,,,
1645708780.548684,1645708780.564902,70.000000,0.000000,4204.743652,4095.384521,4224.487305,4170.512695,4217.563965,4213.333496,4219.743652,4221.410156,4225.384766,4192.051270,4218.205078,4166.025879,4195.641113,4141.922852,0.000000,4.000000,91.000000,,,,0.000000,4.000000,4.000000,4.000000,4.000000,4.000000,4.000000,4.000000,4.000000,4.000000,4.000000,4.000000,4.000000,4.000000,4.000000,100.000000,,,,,,,,,,,,,,,,
1645708780.552625,1645708780.568842,71.000000,0.000000,4202.563965,4093.461426,4223.974121,4168.333496,4208.974121,4214.743652,4219.871582,4221.538574,4225.384766,4199.230957,4218.846191,4165.769043,4197.948730,4138.717773,0.000000,4.000000,91.000000,,,,0.000000,4.000000,4.000000,4.000000,4.000000,4.000000,4.000000,4.000000,4.000000,4.000000,4.000000,4.000000,4.000000,4.000000,4.000000,100.000000,,,,,,,,,,,,,,,,
1645708780.556564,1645708780.572782,72.000000,0.000000,4198.077148,4089.102539,4219.871582,4162.820313,4194.358887,4213.974121,4217.692383,4219.487305,4224.102539,4202.820313,4215.384766,4163.461426,4197.820313,4134.871582,0.000000,4.000000,91.000000,,,,0.000000,4.000000,4.000000,4.000000,4.000000,4.000000,4.000000,4.000000,4.000000,4.000000,4.000000,4.000000,4.000000,4.000000,4.000000,100.000000,,,,,,,,,,,,,,,,
1645708780.560505,1645708780.576722,73.000000,0.000000,4193.077148,4083.718018,4214.743652,4156.282227,4183.589844,4210.769043,4213.974121,4216.666504,4221.794922,4200.000000,4209.102539,4160.000000,4194.743652,4130.769043,0.000000,4.000000,91.000000,,,,0.000000,4.000000,4.000000,4.000000,4.000000,4.000000,4.000000,4.000000,4.000000,4.000000,4.000000,4.000000,4.000000,4.000000,4.000000,100.000000,,,,,,,,,,,,,,,,
1645708780.564445,1645708780.580662,74.000000,0.000000,4189.358887,4079.743652,4211.282227,4152.179688,4187.436035,4207.307617,4210.769043,4214.743652,4219.871582,4193.974121,4204.102539,4157.563965,4190.512695,4128.205078,0.000000,4.000000,91.000000,,,,0.000000,4.000000,4.000000,4.000000,4.000000,4.000000,4.000000,4.000000,4.000000,4.000000,4.000000,4.000000,4.000000,4.000000,4.000000,100.000000,,,,,,,,,,,,,,,,
1645708780.568385,1645708780.584702,75.000000,0.000000,4188.077148,4078.846191,4210.641113,4152.692383,4207.051270,4206.282227,4209.230957,4214.743652,4219.230957,4190.512695,4203.589844,4157.948730,4187.307617,4128.077148,0.000000,4.000000,91.000000,,,,0.000000,4.000000,4.000000,4.000000,4.000000,4.000000,4.000000,4.000000,4.000000,4.000000,4.000000,4.000000,4.000000,4.000000,4.000000,100.000000,,,,,,,,,,,,,,,,
1645708780.572325,1645708780.588642,76.000000,0.000000,4188.589844,4080.256348,4211.666504,4155.641113,4230.128418,4207.692383,4209.230957,4216.153809,4219.487305,4191.025879,4206.794922,4160.256348,4185.897461,4129.615234,0.000000,4.000000,91.000000,,,,0.000000,4.000000,4.000000,4.000000,4.000000,4.000000,4.000000,4.000000,4.000000,4.000000,4.000000,4.000000,4.000000,4.000000,4.000000,100.000000,,,,,,,,,,,,,,,,
1645708780.576265,1645708780.592583,77.000000,0.000000,4189.102539,4080.384521,4212.436035,4156.922852,4239.743652,4208.846191,4209.102539,4217.436035,4218.589844,4191.794922,4209.230957,4162.051270,4185.256348,4130.128418,0.000000,4.000000,91.000000,,,,0.000000,4.000000,4.000000,4.000000,4.000000,4.000000,4.000000,4.000000,4.000000,4.000000,4.000000,4.000000,4.000000,4.000000,4.000000,100.000000,,,,,,,,,,,,,,,,
1645708780.580205,1645708780.596523,78.000000,0.000000,4187.436035,4077.564209,4211.538574,4154.615234,4228.461426,4207.307617,4208.205078,4217.051270,4215.384766,4188.846191,4207.692383,4161.282227,4184.230957,4127.948730,0.000000,4.000000,91.000000,,,,0.000000,4.000000,4.000000,4.000000,4.000000,4.000000,4.000000,4.000000,4.000000,4.000000,4.000000,4.000000,4.000000,4.000000,4.000000,100.000000,,,,,,,,,,,,,,,,
1645708780.584145,1645708780.600463,79.000000,0.000000,4183.717773,4073.589844,4208.461426,4150.641113,4205.512695,4203.717773,4206.538574,4214.743652,4210.384766,4182.436035,4203.461426,4158.589844,4183.077148,4124.102539,0.000000,4.000000,91.000000,,,,0.000000,4.000000,4.000000,4.000000,4.000000,4.000000,4.000000,4.000000,4.000000,4.000000,4.000000,4.000000,4.000000,4.000000,4.000000,100.000000,,,,,,,,,,,,,,,,
1645708780.588085,1645708780.604403,80.000000,0.000000,4180.384766,4072.435791,4204.358887,4148.717773,4187.563965,4201.025879,4204.615234,4211.538574,4206.282227,4177.436035,4200.641113,4156.410156,4182.820313,4121.922852,0.000000,4.000000,91.000000,,,,0.000000,4.000000,4.000000,4.000000,4.000000,4.000000,4.000000,4.000000,4.000000,4.000000,4.000000,4.000000,4.000000,4.000000,4.000000,100.000000,,,,,,,,,,,,,,,,
1645708780.592025,1645708780.608343,81.000000,0.000000,4179.871582,4075.512939,4201.153809,4150.128418,4183.589844,4201.025879,4203.589844,4209.358887,4205.256348,4177.692383,4201.666504,4156.410156,4183.974121,4123.077148,0.000000,4.000000,91.000000,,,,0.000000,4.000000,4.000000,4.000000,4.000000,4.000000,4.000000,4.000000,4.000000,4.000000,4.000000,4.000000,4.000000,4.000000,4.000000,100.000000,,,,,,,,,,,,,,,,
1645708780.595965,1645708780.612283,82.000000,0.000000,4182.948730,4080.128174,4200.641113,4153.205078,4189.102539,4202.436035,4204.487305,4209.615234,4207.307617,4183.717773,4205.897461,4158.846191,4186.538574,4126.794922,0.000000,4.000000,91.000000,,,,0.000000,4.000000,4.000000,4.000000,4.000000,4.000000,4.000000,4.000000,4.000000,4.000000,4.000000,4.000000,4.000000,4.000000,4.000000,100.000000,,,,,,,,,,,,,,,,
1645708780.599905,1645708780.616223,83.000000,0.000000,4187.436035,4083.205078,4203.077148,4155.256348,4194.871582,4203.589844,4208.077148,4212.948730,4211.666504,4192.820313,4211.282227,4162.948730,4190.512695,4131.153809,0.000000,4.000000,91.000000,,,,0.000000,4.000000,4.000000,4.000000,4.000000,4.000000,4.000000,4.000000,4.000000,4.000000,4.000000,4.000000,4.000000,4.000000,4.000000,100.000000,,,,,,,,,,,,,,,,
1645708780.603845,1645708780.620163,84.000000,0.000000,4191.282227,4084.358887,4207.436035,4156.282227,4197.563965,4204.102539,4213.589844,4218.974121,4217.179688,4202.692383,4216.922852,4168.205078,4195.897461,4135.000000,0.000000,4.000000,91.000000,,,,0.000000,4.000000,4.000000,4.000000,4.000000,4.000000,4.000000,4.000000,4.000000,4.000000,4.000000,4.000000,4.000000,4.000000,4.000000,100.000000,,,,,,,,,,,,,,,,
1645708780.607785,1645708780.624103,85.000000,0.000000,4194.743652,4086.025635,4212.307617,4158.077148,4201.666504,4205.641113,4219.230957,4226.153809,4222.948730,4211.538574,4222.307617,4174.102539,4202.820313,4138.974121,0.000000,4.000000,91.000000,,,,0.000000,4.000000,4.000000,4.000000,4.000000,4.000000,4.000000,4.000000,4.000000,4.000000,4.000000,4.000000,4.000000,4.000000,4.000000,100.000000,,,,,,,,,,,,,,,,
1645708780.611725,1645708780.628043,86.000000,0.000000,4199.871582,4089.743652,4216.666504,4162.051270,4211.410156,4208.717773,4223.077148,4232.051270,4227.436035,4216.922852,4227.051270,4179.615234,4209.615234,4143.205078,0.000000,4.000000,91.000000,,,,0.000000,4.000000,4.000000,4.000000,4.000000,4.000000,4.000000,4.000000,4.000000,4.000000,4.000000,4.000000,4.000000,4.000000,4.000000,100.000000,,,,,,,,,,,,,,,,
1645708780.615665,1645708780.631984,87.000000,0.000000,4208.077148,4093.846191,4220.256348,4166.922852,4223.589844,4211.282227,4224.102539,4234.358887,4228.846191,4217.051270,4229.743652,4183.461426,4213.974121,4146.794922,0.000000,4.000000,91.000000,,,,0.000000,4.000000,4.000000,4.000000,4.000000,4.000000,4.000000,4.000000,4.000000,4.000000,4.000000,4.000000,4.000000,4.000000,4.000000,100.000000,,,,,,,,,,,,,,,,
1645708780.619605,1645708780.635924,88.000000,0.000000,4216.538574,4095.384521,4222.179688,4170.384766,4230.000000,4211.282227,4223.461426,4232.692383,4226.410156,4212.051270,4229.102539,4184.230957,4213.589844,4148.205078,0.000000,4.000000,91.000000,,,,0.000000,4.000000,4.000000,4.000000,4.000000,4.000000,4.000000,4.000000,4.000000,4.000000,4.000000,4.000000,4.000000,4.000000,4.000000,100.000000,,,,,,,,,,,,,,,,
1645708780.623545,1645708780.639864,89.000000,0.000000,4220.384766,4093.718018,4221.153809,4171.025879,4225.384766,4209.102539,4222.436035,4227.948730,4222.179688,4205.256348,4225.512695,4181.410156,4209.487305,4146.922852,0.000000,4.000000,91.000000,,,,0.000000,4.000000,4.000000,4.000000,4.000000,4.000000,4.000000,4.000000,4.000000,4.000000,4.000000,4.000000,4.000000,4.000000,4.000000,100.000000,,,,,,,,,,,,,,,,
1645708780.627485,1645708780.643804,90.000000,0.000000,4217.436035,4090.897461,4217.436035,4169.230957,4213.077148,4207.179688,4221.410156,4222.820313,4218.717773,4200.769043,4220.897461,4176.153809,4204.230957,4144.102539,0.000000,4.000000,91.000000,,,,0.000000,4.000000,4.000000,4.000000,4.000000,4.000000,4.000000,4.000000,4.000000,4.000000,4.000000,4.000000,4.000000,4.000000,4.000000,100.000000,,,,,,,,,,,,,,,,
1645708780.631425,1645708780.647744,91.000000,0.000000,4211.538574,4089.487061,4213.333496,4166.666504,4201.794922,4206.922852,4220.000000,4220.128418,4217.948730,4200.512695,4217.179688,4170.769043,4200.512695,4140.769043,0.000000,4.000000,91.000000,,,,0.000000,4.000000,4.000000,4.000000,4.000000,4.000000,4.000000,4.000000,4.000000,4.000000,4.000000,4.000000,4.000000,4.000000,4.000000,100.000000,,,,,,,,,,,,,,,,
1645708780.635365,1645708780.651684,92.000000,0.000000,4209.615234,4090.512939,4211.410156,4164.871582,4199.743652,4207.436035,4217.692383,4220.897461,4219.358887,4203.974121,4215.128418,4167.820313,4199.102539,4138.333496,0.000000,4.000000,91.000000,,,,0.000000,4.000000,4.000000,4.000000,4.000000,4.000000,4.000000,4.000000,4.000000,4.000000,4.000000,4.000000,4.000000,4.000000,4.000000,100.000000,,,,,,,,,,,,,,,,
1645708780.639305,1645708780.655724,93.000000,0.000000,4216.410156,4093.718018,4213.589844,4164.743652,4208.077148,4207.307617,4215.128418,4223.846191,4221.922852,4209.743652,4215.512695,4169.358887,4199.487305,4137.563965,0.000000,4.000000,91.000000,,,,0.000000,4.000000,4.000000,4.000000,4.000000,4.000000,4.000000,4.000000,4.000000,4.000000,4.000000,4.000000,4.000000,4.000000,4.000000,100.000000,,,,,,,,,,,,,,,,
1645708780.643245,1645708780.659664,94.000000,0.000000,4230.769043,4098.846191,4219.230957,4167.051270,4220.000000,4206.410156,4213.461426,4226.282227,4224.487305,4215.897461,4219.230957,4175.128418,4201.666504,4140.384766,0.000000,4.000000,91.000000,,,,0.000000,4.000000,4.000000,4.000000,4.000000,4.000000,4.000000,4.000000,4.000000,4.000000,4.000000,4.000000,4.000000,4.000000,4.000000,100.000000,,,,,,,,,,,,,,,,
1645708780.647185,1645708780.663604,95.000000,0.000000,4247.307617,4105.128418,4226.282227,4171.282227,4225.897461,4206.025879,4213.077148,4225.897461,4225.897461,4220.256348,4226.153809,4183.077148,4206.282227,4147.563965,0.000000,4.000000,91.000000,,,,0.000000,4.000000,4.000000,4.000000,4.000000,4.000000,4.000000,4.000000,4.000000,4.000000,4.000000,4.000000,4.000000,4.000000,4.000000,100.000000,,,,,,,,,,,,,,,,
1645708780.651125,1645708780.667544,96.000000,0.000000,4259.102539,4110.256348,4232.563965,4174.743652,4220.128418,4206.153809,4212.820313,4222.820313,4225.128418,4219.871582,4233.461426,4189.358887,4211.538574,4156.666504,0.000000,4.000000,91.000000,,,,0.000000,4.000000,4.000000,4.000000,4.000000,4.000000,4.000000,4.000000,4.000000,4.000000,4.000000,4.000000,4.000000,4.000000,4.000000,100.000000,,,,,,,,,,,,,,,,
1645708780.655065,1645708780.671485,97.000000,0.000000,4262.051270,4111.538574,4236.282227,4174.871582,4206.538574,4205.769043,4212.179688,4218.846191,4221.538574,4213.077148,4236.153809,4190.769043,4214.102539,4162.307617,0.000000,4.000000,91.000000,,,,0.000000,4.000000,4.000000,4.000000,4.000000,4.000000,4.000000,4.000000,4.000000,4.000000,4.000000,4.000000,4.000000,4.000000,4.000000,100.000000,,,,,,,,,,,,,,,,
1645708780.659005,1645708780.675425,98.000000,0.000000,4256.410156,4108.333496,4236.666504,4171.410156,4195.512695,4204.230957,4211.410156,4216.282227,4215.769043,4201.922852,4231.794922,4186.538574,4211.538574,4160.897461,0.000000,4.000000,91.000000,,,,0.000000,4.000000,4.000000,4.000000,4.000000,4.000000,4.000000,4.000000,4.000000,4.000000,4.000000,4.000000,4.000000,4.000000,4.000000,100.000000,,,,,,,,,,,,,,,,
1645708780.662945,1645708780.679365,99.000000,0.000000,4246.410156,4103.077148,4233.461426,4167.179688,4196.410156,4203.205078,4211.538574,4215.897461,4210.512695,4191.922852,4222.307617,4179.358887,4205.000000,4153.974121,0.000000,4.000000,91.000000,,,,0.000000,4.000000,4.000000,4.000000,4.000000,4.000000,4.000000,4.000000,4.000000,4.000000,4.000000,4.000000,4.000000,4.000000,4.000000,100.000000,,,,,,,,,,,,,,,,
1645708780.666885,1645708780.683305,100.000000,0.000000,4237.179688,4099.102539,4228.717773,4166.025879,4208.589844,4204.102539,4212.948730,4216.794922,4208.205078,4188.589844,4213.717773,4173.205078,4198.846191,4146.282227,0.000000,4.000000,91.000000,,,,0.000000,4.000000,4.000000,4.000000,4.000000,4.000000,4.000000,4.000000,4.000000,4.000000,4.000000,4.000000,4.000000,4.000000,4.000000,100.000000,,,,,,,,,,,,,,,,
1645708780.670825,1645708780.687245,101.000000,0.000000,4231.922852,4098.461426,4225.384766,4168.589844,4221.666504,4206.666504,4215.256348,4216.922852,4209.615234,4192.948730,4210.000000,4170.769043,4196.922852,4142.307617,0.000000,4.000000,91.000000,,,,0.000000,4.000000,4.000000,4.000000,4.000000,4.000000,4.000000,4.000000,4.000000,4.000000,4.000000,4.000000,4.000000,4.000000,4.000000,100.000000,,,,,,,,,,,,,,,,
1645708780.674765,1645708780.691185,102.000000,0.000000,4232.179688,4100.769043,4225.256348,4172.436035,4225.000000,4208.589844,4217.179688,4215.641113,4213.333496,4201.153809,4211.282227,4172.051270,4199.102539,4142.948730,0.000000,4.000000,91.000000,,,,0.000000,4.000000,4.000000,4.000000,4.000000,4.000000,4.000000,4.000000,4.000000,4.000000,4.000000,4.000000,4.000000,4.000000,4.000000,100.000000,,,,,,,,,,,,,,,,
1645708780.678705,1645708780.695125,103.000000,0.000000,4238.077148,4104.358887,4228.205078,4174.615234,4217.692383,4208.589844,4218.461426,4213.974121,4216.922852,4207.692383,4214.615234,4175.641113,4202.820313,4146.666504,0.000000,4.000000,91.000000,,,,0.000000,4.000000,4.000000,4.000000,4.000000,4.000000,4.000000,4.000000,4.000000,4.000000,4.000000,4.000000,4.000000,4.000000,4.000000,100.000000,,,,,,,,,,,,,,,,
1645708780.682645,1645708780.699065,104.000000,0.000000,4249.871582,4108.461426,4232.436035,4174.871582,4209.871582,4207.692383,4219.358887,4214.230957,4218.333496,4210.897461,4218.589844,4179.871582,4205.512695,4151.282227,0.000000,4.000000,91.000000,,,,0.000000,4.000000,4.000000,4.000000,4.000000,4.000000,4.000000,4.000000,4.000000,4.000000,4.000000,4.000000,4.000000,4.000000,4.000000,100.000000,,,,,,,,,,,,,,,,
1645708780.686585,1645708780.703005,105.000000,0.000000,4266.025879,4112.563965,4236.025879,4175.256348,4211.922852,4207.948730,4220.384766,4217.179688,4217.307617,4212.051270,4223.333496,4183.974121,4206.666504,4154.871582,0.000000,4.000000,91.000000,,,,0.000000,4.000000,4.000000,4.000000,4.000000,4.000000,4.000000,4.000000,4.000000,4.000000,4.000000,4.000000,4.000000,4.000000,4.000000,100.000000,,,,,,,,,,,,,,,,
1645708780.690525,1645708780.706945,106.000000,0.000000,4282.948730,4115.256348,4237.307617,4176.794922,4223.589844,4209.230957,4221.282227,4221.410156,4215.384766,4213.077148,4228.589844,4186.794922,4207.179688,4156.282227,0.000000,4.000000,91.000000,,,,0.000000,4.000000,4.000000,4.000000,4.000000,4.000000,4.000000,4.000000,4.000000,4.000000,4.000000,4.000000,4.000000,4.000000,4.000000,100.000000,,,,,,,,,,,,,,,,
1645708780.694465,1645708780.710886,107.000000,0.000000,4296.025879,4114.871582,4235.769043,4177.948730,4233.205078,4209.615234,4221.410156,4224.487305,4214.487305,4213.974121,4232.051270,4186.538574,4207.307617,4154.871582,0.000000,4.000000,91.000000,,,,0.000000,4.000000,4.000000,4.000000,4.000000,4.000000,4.000000,4.000000,4.000000,4.000000,4.000000,4.000000,4.000000,4.000000,4.000000,100.000000,,,,,,,,,,,,,,,,
1645708780.698405,1645708780.714726,108.000000,0.000000,4302.563965,4111.282227,4232.563965,4176.922852,4229.615234,4208.077148,4220.641113,4225.256348,4215.512695,4213.205078,4231.410156,4182.563965,4206.666504,4151.025879,0.000000,4.000000,91.000000,,,,0.000000,4.000000,4.000000,4.000000,4.000000,4.000000,4.000000,4.000000,4.000000,4.000000,4.000000,4.000000,4.000000,4.000000,4.000000,100.000000,,,,,,,,,,,,,,,,
1645708780.702345,1645708780.718666,109.000000,0.000000,4304.230957,4106.922852,4229.743652,4173.717773,4212.692383,4206.025879,4219.615234,4224.743652,4218.333496,4211.153809,4227.179688,4176.794922,4205.384766,4146.922852,0.000000,4.000000,91.000000,,,,0.000000,4.000000,4.000000,4.000000,4.000000,4.000000,4.000000,4.000000,4.000000,4.000000,4.000000,4.000000,4.000000,4.000000,4.000000,100.000000,,,,,,,,,,,,,,,,
1645708780.706285,1645708780.722606,110.000000,0.000000,4305.512695,4104.871582,4228.974121,4170.897461,4193.846191,4206.025879,4219.615234,4224.230957,4221.794922,4210.128418,4222.948730,4173.077148,4204.743652,4145.000000,0.000000,4.000000,91.000000,,,,0.000000,4.000000,4.000000,4.000000,4.000000,4.000000,4.000000,4.000000,4.000000,4.000000,4.000000,4.000000,4.000000,4.000000,4.000000,100.000000,,,,,,,,,,,,,,,,
1645708780.710225,1645708780.726546,111.000000,0.000000,4308.974121,4106.410156,4230.256348,4170.769043,4187.051270,4208.974121,4221.538574,4224.358887,4224.615234,4211.794922,4222.051270,4173.846191,4205.384766,4145.897461,0.000000,4.000000,91.000000,,,,0.000000,4.000000,4.000000,4.000000,4.000000,4.000000,4.000000,4.000000,4.000000,4.000000,4.000000,4.000000,4.000000,4.000000,4.000000,100.000000,,,,,,,,,,,,,,,,
1645708780.714165,1645708780.730486,112.000000,0.000000,4312.948730,4109.358887,4231.922852,4172.820313,4197.051270,4213.333496,4224.615234,4224.871582,4225.512695,4214.871582,4223.589844,4178.205078,4206.794922,4147.948730,0.000000,4.000000,91.000000,,,,0.000000,4.000000,4.000000,4.000000,4.000000,4.000000,4.000000,4.000000,4.000000,4.000000,4.000000,4.000000,4.000000,4.000000,4.000000,100.000000,,,,,,,,,,,,,,,,
1645708780.718105,1645708780.734426,113.000000,0.000000,4314.230957,4110.897461,4232.307617,4175.000000,4216.153809,4217.563965,4227.307617,4225.128418,4224.230957,4215.769043,4224.230957,4182.179688,4207.051270,4148.205078,0.000000,4.000000,91.000000,,,,0.000000,4.000000,4.000000,4.000000,4.000000,4.000000,4.000000,4.000000,4.000000,4.000000,4.000000,4.000000,4.000000,4.000000,4.000000,100.000000,,,,,,,,,,,,,,,,
1645708780.722046,1645708780.738366,114.000000,0.000000,4311.410156,4109.487305,4230.256348,4175.256348,4232.307617,4220.256348,4227.563965,4224.743652,4221.153809,4211.794922,4220.641113,4181.666504,4204.230957,4145.256348,0.000000,4.000000,91.000000,,,,0.000000,4.000000,4.000000,4.000000,4.000000,4.000000,4.000000,4.000000,4.000000,4.000000,4.000000,4.000000,4.000000,4.000000,4.000000,100.000000,,,,,,,,,,,,,,,,
1645708780.725985,1645708780.742307,115.000000,0.000000,4306.282227,4106.153809,4225.128418,4172.948730,4238.205078,4221.025879,4225.128418,4222.820313,4217.307617,4203.974121,4212.820313,4174.487305,4197.820313,4139.487305,0.000000,4.000000,91.000000,,,,0.000000,4.000000,4.000000,4.000000,4.000000,4.000000,4.000000,4.000000,4.000000,4.000000,4.000000,4.000000,4.000000,4.000000,4.000000,100.000000,,,,,,,,,,,,,,,,
1645708780.729926,1645708780.746247,116.000000,0.000000,4301.410156,4102.692383,4217.179688,4168.846191,4236.153809,4220.000000,4221.282227,4218.333496,4213.974121,4195.512695,4203.461426,4162.820313,4188.974121,4132.179688,0.000000,4.000000,91.000000,1,1,1,0.000000,4.000000,4.000000,4.000000,4.000000,4.000000,4.000000,4.000000,4.000000,4.000000,4.000000,4.000000,4.000000,4.000000,4.000000,100.000000,,,,,,,,,,,,,,,,
1645708780.733866,1645708780.750187,117.000000,0.000000,4297.051270,4100.512695,4208.077148,4163.846191,4231.025879,4217.563965,4218.205078,4211.794922,4211.538574,4188.846191,4195.512695,4151.282227,4180.897461,4124.871582,0.000000,4.000000,91.000000,,,,0.000000,4.000000,4.000000,4.000000,4.000000,4.000000,4.000000,4.000000,4.000000,4.000000,4.000000,4.000000,4.000000,4.000000,4.000000,100.000000,,,,,,,,,,,,,,,,
1645708780.737805,1645708780.754127,118.000000,0.000000,4290.769043,4099.615234,4201.282227,4158.589844,4225.256348,4214.487305,4217.692383,4205.641113,4210.000000,4184.102539,4191.025879,4144.487305,4177.051270,4119.615234,0.000000,4.000000,91.000000,,,,0.000000,4.000000,4.000000,4.000000,4.000000,4.000000,4.000000,4.000000,4.000000,4.000000,4.000000,4.000000,4.000000,4.000000,4.000000,100.000000,,,,,,,,,,,,,,,,
1645708780.741746,1645708780.758067,119.000000,0.000000,4279.871582,4099.615234,4199.358887,4154.230957,4217.820313,4212.563965,4220.128418,4202.692383,4209.615234,4182.051270,4191.153809,4144.358887,4178.974121,4118.333496,0.000000,4.000000,91.000000,,,,0.000000,4.000000,4.000000,4.000000,4.000000,4.000000,4.000000,4.000000,4.000000,4.000000,4.000000,4.000000,4.000000,4.000000,4.000000,100.000000,,,,,,,,,,,,,,,,
1645708780.745686,1645708780.762007,120.000000,0.000000,4264.102539,4100.128418,4201.922852,4152.051270,4209.230957,4212.948730,4223.974121,4204.230957,4211.410156,4184.102539,4195.641113,4149.871582,4185.512695,4121.538574,0.000000,4.000000,91.000000,,,,0.000000,4.000000,4.000000,4.000000,4.000000,4.000000,4.000000,4.000000,4.000000,4.000000,4.000000,4.000000,4.000000,4.000000,4.000000,100.000000,,,,,,,,,,,,,,,,
1645708780.749626,1645708780.765947,121.000000,0.000000,4247.179688,4101.153809,4206.410156,4152.692383,4201.538574,4214.615234,4226.282227,4208.717773,4215.256348,4190.384766,4202.436035,4157.692383,4192.820313,4128.333496,0.000000,4.000000,91.000000,,,,0.000000,4.000000,4.000000,4.000000,4.000000,4.000000,4.000000,4.000000,4.000000,4.000000,4.000000,4.000000,4.000000,4.000000,4.000000,100.000000,,,,,,,,,,,,,,,,
1645708780.753566,1645708780.769887,122.000000,0.000000,4234.358887,4102.563965,4210.256348,4155.384766,4197.307617,4215.512695,4225.256348,4213.205078,4219.487305,4197.948730,4207.820313,4164.230957,4196.922852,4135.641113,0.000000,4.000000,91.000000,,,,0.000000,4.000000,4.000000,4.000000,4.000000,4.000000,4.000000,4.000000,4.000000,4.000000,4.000000,4.000000,4.000000,4.000000,4.000000,100.000000,,,,,,,,,,,,,,,,
1645708780.757506,1645708780.773827,123.000000,0.000000,4228.846191,4104.487305,4212.563965,4158.589844,4198.846191,4214.615234,4222.179688,4216.282227,4221.794922,4203.205078,4209.102539,4167.051270,4196.794922,4140.769043,0.000000,4.000000,91.000000,,,,0.000000,4.000000,4.000000,4.000000,4.000000,4.000000,4.000000,4.000000,4.000000,4.000000,4.000000,4.000000,4.000000,4.000000,4.000000,100.000000,,,,,,,,,,,,,,,,
1645708780.761446,1645708780.777767,124.000000,0.000000,4229.358887,4107.307617,4213.846191,4161.922852,4207.820313,4213.846191,4220.384766,4218.205078,4221.282227,4204.871582,4207.051270,4166.538574,4194.230957,4142.563965,0.000000,4.000000,91.000000,,,,0.000000,4.000000,4.000000,4.000000,4.000000,4.000000,4.000000,4.000000,4.000000,4.000000,4.000000,4.000000,4.000000,4.000000,4.000000,100.000000,,,,,,,,,,,,,,,,
1645708780.765386,1645708780.781708,125.000000,0.000000,4231.153809,4111.282227,4213.974121,4165.128418,4223.717773,4216.410156,4222.051270,4220.000000,4219.487305,4204.743652,4205.641113,4164.743652,4192.307617,4141.922852,0.000000,4.000000,91.000000,,,,0.000000,4.000000,4.000000,4.000000,4.000000,4.000000,4.000000,4.000000,4.000000,4.000000,4.000000,4.000000,4.000000,4.000000,4.000000,100.000000,,,,,,,,,,,,,,,,
1645708780.769326,1645708780.785548,126.000000,0.000000,4229.615234,4114.871582,4212.307617,4167.820313,4239.871582,4221.666504,4225.897461,4221.538574,4217.820313,4205.384766,4207.179688,4162.820313,4193.333496,4139.871582,0.000000,4.000000,91.000000,,,,0.000000,4.000000,4.000000,4.000000,4.000000,4.000000,4.000000,4.000000,4.000000,4.000000,4.000000,4.000000,4.000000,4.000000,4.000000,100.000000,1.000000,0.000000,0.000000,0.000000,0.000000,0.000000,0.000000,0.000000,0.000000,0.000000,0.000000,0.000000,0.000000,0.000000,0.000000,0.000000
1645708780.773266,1645708780.789488,127.000000,0.000000,4224.102539,4115.256348,4208.333496,4168.077148,4245.641113,4224.487305,4228.974121,4222.179688,4216.666504,4205.769043,4210.256348,4160.769043,4196.282227,4136.922852,0.000000,4.000000,91.000000,,,,0.000000,4.000000,4.000000,4.000000,4.000000,4.000000,4.000000,4.000000,4.000000,4.000000,4.000000,4.000000,4.000000,4.000000,4.000000,100.000000,,,,,,,,,,,,,,,,
1645708780.777206,1645708780.793428,128.000000,0.000000,4217.820313,4111.282227,4203.717773,4165.384766,4233.846191,4220.512695,4228.974121,4221.538574,4214.615234,4203.717773,4210.897461,4157.820313,4198.589844,4133.461426,3264.000000,4.000000,91.000000,,,,0.000000,4.000000,4.000000,4.000000,4.000000,4.000000,4.000000,4.000000,4.000000,4.000000,4.000000,4.000000,4.000000,4.000000,4.000000,100.000000,,,,,,,,,,,,,,,,
1645708780.781146,1645708780.797368,129.000000,0.000000,4215.000000,4105.512695,4200.897461,4161.538574,4209.871582,4210.897461,4226.410156,4220.256348,4211.794922,4198.589844,4207.948730,4155.128418,4198.717773,4131.153809,3418.000000,4.000000,91.000000,,,,0.000000,4.000000,4.000000,4.000000,4.000000,4.000000,4.000000,4.000000,4.000000,4.000000,4.000000,4.000000,4.000000,4.000000,4.000000,100.000000,,,,,,,,,,,,,,,,
1645708780.785086,1645708780.801308,130.000000,0.000000,4217.820313,4102.948730,4202.307617,4160.897461,4190.128418,4203.461426,4224.102539,4220.000000,4210.000000,4194.102539,4204.230957,4155.128418,4197.692383,4133.077148,3219.000000,4.000000,91.000000,,,,0.000000,4.000000,4.000000,4.000000,4.000000,4.000000,4.000000,4.000000,4.000000,4.000000,4.000000,4.000000,4.000000,4.000000,4.000000,100.000000,,,,,,,,,,,,,,,,
1645708780.789026,1645708780.805248,131.000000,0.000000,4225.000000,4107.051270,4208.077148,4166.025879,4189.743652,4204.871582,4224.487305,4222.051270,4211.538574,4194.615234,4204.230957,4159.743652,4198.077148,4139.871582,3397.000000,4.000000,91.000000,,,,0.000000,4.000000,4.000000,4.000000,4.000000,4.000000,4.000000,4.000000,4.000000,4.000000,4.000000,4.000000,4.000000,4.000000,4.000000,100.000000,,,,,,,,,,,,,,,,
1645708780.792966,1645708780.809188,132.000000,0.000000,4233.205078,4116.153809,4216.153809,4174.871582,4208.974121,4214.230957,4227.179688,4225.897461,4216.282227,4200.512695,4208.077148,4167.307617,4200.384766,4148.333496,3385.000000,4.000000,91.000000,,,,0.000000,4.000000,4.000000,4.000000,4.000000,4.000000,4.000000,4.000000,4.000000,4.000000,4.000000,4.000000,4.000000,4.000000,4.000000,100.000000,,,,,,,,,,,,,,,,
1645708780.796906,1645708780.813129,133.000000,0.000000,4238.717773,4124.743652,4222.820313,4182.563965,4232.436035,4223.077148,4230.128418,4228.846191,4221.282227,4207.436035,4211.922852,4173.077148,4203.077148,4153.333496,3418.000000,4.000000,91.000000,,,,0.000000,4.000000,4.000000,4.000000,4.000000,4.000000,4.000000,4.000000,4.000000,4.000000,4.000000,4.000000,4.000000,4.000000,4.000000,100.000000,,,,,,,,,,,,,,,,
1645708780.800846,1645708780.817069,134.000000,0.000000,4239.358887,4127.692383,4225.128418,4185.000000,4241.666504,4223.589844,4231.153809,4228.589844,4223.333496,4210.384766,4211.666504,4173.333496,4203.589844,4151.922852,3049.000000,4.000000,91.000000,,,,0.000000,4.000000,4.000000,4.000000,4.000000,4.000000,4.000000,4.000000,4.000000,4.000000,4.000000,4.000000,4.000000,4.000000,4.000000,100.000000,,,,,,,,,,,,,,,,
1645708780.804786,1645708780.821009,135.000000,0.000000,4235.256348,4124.358887,4222.436035,4182.692383,4230.769043,4215.384766,4229.871582,4224.487305,4221.538574,4208.461426,4207.563965,4168.333496,4201.153809,4146.025879,2930.000000,4.000000,91.000000,,,,0.000000,4.000000,4.000000,4.000000,4.000000,4.000000,4.000000,4.000000,4.000000,4.000000,4.000000,4.000000,4.000000,4.000000,4.000000,100.000000,,,,,,,,,,,,,,,,
1645708780.808726,1645708780.824949,136.000000,0.000000,4229.358887,4117.948730,4217.948730,4179.358887,4209.615234,4206.025879,4227.692383,4219.615234,4218.077148,4205.256348,4202.948730,4162.307617,4197.820313,4140.641113,1610.000000,4.000000,91.000000,,,,0.000000,4.000000,4.000000,4.000000,4.000000,4.000000,4.000000,4.000000,4.000000,4.000000,4.000000,4.000000,4.000000,4.000000,4.000000,100.000000,,,,,,,,,,,,,,,,
1645708780.812666,1645708780.828889,137.000000,0.000000,4226.282227,4113.077148,4215.897461,4178.205078,4195.256348,4203.333496,4226.025879,4217.948730,4216.410156,4205.000000,4201.025879,4160.256348,4195.897461,4140.128418,3311.000000,4.000000,91.000000,,,,0.000000,4.000000,4.000000,4.000000,4.000000,4.000000,4.000000,4.000000,4.000000,4.000000,4.000000,4.000000,4.000000,4.000000,4.000000,100.000000,,,,,,,,,,,,,,,,
1645708780.816606,1645708780.832829,138.000000,0.000000,4229.230957,4112.436035,4219.102539,4179.871582,4198.589844,4208.717773,4225.769043,4220.897461,4218.205078,4208.846191,4202.051270,4164.487305,4196.922852,4144.743652,2471.000000,4.000000,91.000000,,,,0.000000,4.000000,4.000000,4.000000,4.000000,4.000000,4.000000,4.000000,4.000000,4.000000,4.000000,4.000000,4.000000,4.000000,4.000000,100.000000,,,,,,,,,,,,,,,,
1645708780.820546,1645708780.836769,139.000000,0.000000,4236.794922,4116.282227,4226.794922,4182.948730,4216.538574,4217.436035,4226.794922,4225.897461,4222.179688,4214.487305,4204.743652,4172.820313,4200.897461,4151.922852,3376.000000,4.000000,91.000000,,,,0.000000,4.000000,4.000000,4.000000,4.000000,4.000000,4.000000,4.000000,4.000000,4.000000,4.000000,4.000000,4.000000,4.000000,4.000000,100.000000,,,,,,,,,,,,,,,,
1645708780.824486,1645708780.840709,140.000000,0.000000,4244.615234,4123.077148,4234.743652,4185.897461,4235.641113,4223.333496,4227.692383,4228.589844,4226.153809,4218.461426,4207.563965,4180.512695,4206.282227,4157.692383,3472.000000,4.000000,91.000000,,,,0.000000,4.000000,4.000000,4.000000,4.000000,4.000000,4.000000,4.000000,4.000000,4.000000,4.000000,4.000000,4.000000,4.000000,4.000000,100.000000,,,,,,,,,,,,,,,,
1645708780.828426,1645708780.844649,141.000000,0.000000,4247.820313,4129.871582,4238.589844,4187.948730,4241.666504,4222.948730,4226.666504,4226.025879,4227.820313,4218.846191,4208.974121,4183.333496,4210.384766,4159.358887,3298.000000,4.000000,91.000000,,,,0.000000,4.000000,4.000000,4.000000,4.000000,4.000000,4.000000,4.000000,4.000000,4.000000,4.000000,4.000000,4.000000,4.000000,4.000000,100.000000,,,,,,,,,,,,,,,,
1645708780.832366,1645708780.848589,142.000000,0.000000,4245.641113,4133.077148,4236.153809,4187.820313,4230.641113,4216.922852,4223.077148,4219.230957,4226.538574,4215.512695,4208.077148,4180.384766,4211.025879,4156.794922,2471.000000,4.000000,91.000000,,,,0.000000,4.000000,4.000000,4.000000,4.000000,4.000000,4.000000,4.000000,4.000000,4.000000,4.000000,4.000000,4.000000,4.000000,4.000000,100.000000,,,,,,,,,,,,,,,,
1645708780.836306,1645708780.852530,143.000000,0.000000,4240.641113,4131.025879,4229.615234,4185.128418,4211.922852,4208.717773,4218.974121,4212.948730,4223.205078,4210.641113,4205.000000,4174.615234,4207.948730,4152.051270,3376.000000,4.000000,91.000000,,,,0.000000,4.000000,4.000000,4.000000,4.000000,4.000000,4.000000,4.000000,4.000000,4.000000,4.000000,4.000000,4.000000,4.000000,4.000000,100.000000,,,,,,,,,,,,,,,,
1645708780.840246,1645708780.856470,144.000000,0.000000,4237.307617,4125.384766,4223.589844,4180.897461,4200.769043,4202.692383,4217.051270,4211.794922,4220.128418,4207.563965,4202.692383,4170.641113,4204.615234,4149.487305,3472.000000,4.000000,91.000000,,,,0.000000,4.000000,4.000000,4.000000,4.000000,4.000000,4.000000,4.000000,4.000000,4.000000,4.000000,4.000000,4.000000,4.000000,4.000000,100.000000,,,,,,,,,,,,,,,,
1645708780.844186,1645708780.860310,145.000000,0.000000,4238.717773,4121.282227,4221.410156,4177.820313,4205.897461,4202.051270,4219.102539,4216.922852,4219.487305,4208.846191,4205.128418,4172.436035,4205.000000,4152.179688,3298.000000,4.000000,91.000000,,,,0.000000,4.000000,4.000000,4.000000,4.000000,4.000000,4.000000,4.000000,4.000000,4.000000,4.000000,4.000000,4.000000,4.000000,4.000000,100.000000,,,,,,,,,,,,,,,,
1645708780.848126,1645708780.864250,146.000000,0.000000,4244.230957,4122.179688,4223.077148,4177.820313,4222.051270,4206.666504,4223.461426,4225.256348,4221.794922,4214.487305,4212.563965,4179.102539,4210.256348,4159.743652,2471.000000,4.000000,91.000000,,,,0.000000,4.000000,4.000000,4.000000,4.000000,4.000000,4.000000,4.000000,4.000000,4.000000,4.000000,4.000000,4.000000,4.000000,4.000000,100.000000,,,,,,,,,,,,,,,,
1645708780.852066,1645708780.868190,147.000000,0.000000,4250.128418,4127.692383,4225.769043,4180.000000,4235.000000,4213.461426,4227.179688,4232.051270,4225.641113,4220.384766,4219.871582,4186.153809,4216.666504,4166.922852,3376.000000,4.000000,91.000000,,,,0.000000,4.000000,4.000000,4.000000,4.000000,4.000000,4.000000,4.000000,4.000000,4.000000,4.000000,4.000000,4.000000,4.000000,4.000000,100.000000,,,,,,,,,,,,,,,,
1645708780.856006,1645708780.872130,148.000000,0.000000,4253.077148,4133.717773,4226.794922,4181.922852,4233.846191,4218.205078,4228.077148,4234.102539,4228.077148,4221.282227,4221.282227,4188.717773,4219.102539,4168.205078,3472.000000,4.000000,91.000000,,,,0.000000,4.000000,4.000000,4.000000,4.000000,4.000000,4.000000,4.000000,4.000000,4.000000,4.000000,4.000000,4.000000,4.000000,4.000000,100.000000,,,,,,,,,,,,,,,,
1645708780.859946,1645708780.876070,149.000000,0.000000,4252.051270,4137.051270,4225.641113,4182.179688,4220.512695,4219.615234,4226.666504,4231.922852,4227.692383,4215.769043,4215.384766,4185.897461,4215.512695,4162.820313,3298.000000,4.000000,91.000000,,,,0.000000,4.000000,4.000000,4.000000,4.000000,4.000000,4.000000,4.000000,4.000000,4.000000,4.000000,4.000000,4.000000,4.000000,4.000000,100.000000,,,,,,,,,,,,,,,,
1645708780.863886,1645708780.880010,150.000000,0.000000,4248.846191,4138.077148,4224.230957,4182.307617,4207.051270,4218.717773,4225.256348,4227.692383,4225.384766,4208.205078,4207.436035,4181.025879,4209.102539,4155.384766,2471.000000,4.000000,91.000000,2,1,1,0.000000,4.000000,4.000000,4.000000,4.000000,4.000000,4.000000,4.000000,4.000000,4.000000,4.000000,4.000000,4.000000,4.000000,4.000000,100.000000,,,,,,,,,,,,,,,,
1645708780.867826,1645708780.883951,151.000000,0.000000,4246.666504,4139.230957,4224.230957,4184.487305,4205.128418,4218.077148,4225.256348,4224.102539,4223.461426,4204.615234,4204.358887,4178.461426,4205.128418,4151.794922,3376.000000,4.000000,91.000000,,,,0.000000,4.000000,4.000000,4.000000,4.000000,4.000000,4.000000,4.000000,4.000000,4.000000,4.000000,4.000000,4.000000,4.000000,4.000000,100.000000,,,,,,,,,,,,,,,,
1645708780.871766,1645708780.887891,152.000000,0.000000,4247.307617,4141.410156,4225.769043,4188.589844,4215.769043,4218.205078,4225.641113,4222.563965,4223.077148,4207.307617,4208.205078,4179.615234,4205.897461,4154.102539,3472.000000,4.000000,91.000000,,,,0.000000,4.000000,4.000000,4.000000,4.000000,4.000000,4.000000,4.000000,4.000000,4.000000,4.000000,4.000000,4.000000,4.000000,4.000000,100.000000,,,,,,,,,,,,,,,,
1645708780.875706,1645708780.891831,153.000000,0.000000,4249.487305,4143.077148,4226.794922,4191.282227,4230.256348,4218.333496,4225.128418,4222.692383,4223.717773,4213.205078,4214.743652,4182.051270,4209.487305,4158.846191,3298.000000,4.000000,91.000000,,,,0.000000,4.000000,4.000000,4.000000,4.000000,4.000000,4.000000,4.000000,4.000000,4.000000,4.000000,4.000000,4.000000,4.000000,4.000000,100.000000,,,,,,,,,,,,,,,,
1645708780.879646,1645708780.895771,154.000000,0.000000,4250.384766,4142.051270,4225.512695,4189.743652,4237.820313,4217.563965,4223.589844,4222.948730,4224.102539,4217.179688,4217.948730,4182.563965,4212.051270,4160.641113,2471.000000,4.000000,91.000000,,,,0.000000,4.000000,4.000000,4.000000,4.000000,4.000000,4.000000,4.000000,4.000000,4.000000,4.000000,4.000000,4.000000,4.000000,4.000000,100.000000,,,,,,,,,,,,,,,,
1645708780.883586,1645708780.899711,155.000000,0.000000,4247.948730,4139.102539,4221.410156,4184.743652,4235.000000,4216.922852,4222.563965,4221.666504,4223.461426,4217.307617,4215.769043,4179.871582,4211.282227,4157.948730,3376.000000,4.000000,91.000000,,,,0.000000,4.000000,4.000000,4.000000,4.000000,4.000000,4.000000,4.000000,4.000000,4.000000,4.000000,4.000000,4.000000,4.000000,4.000000,100.000000,,,,,,,,,,,,,,,,
1645708780.887526,1645708780.903651,156.000000,0.000000,4243.461426,4138.077148,4216.025879,4180.384766,4227.436035,4217.820313,4223.077148,4218.333496,4222.179688,4215.000000,4210.384766,4175.641113,4207.820313,4153.717773,3472.000000,4.000000,91.000000,,,,0.000000,4.000000,4.000000,4.000000,4.000000,4.000000,4.000000,4.000000,4.000000,4.000000,4.000000,4.000000,4.000000,4.000000,4.000000,100.000000,,,,,,,,,,,,,,,,
1645708780.891466,1645708780.907591,157.000000,0.000000,4240.769043,4141.538574,4212.436035,4180.384766,4222.692383,4219.487305,4224.487305,4214.615234,4221.153809,4212.307617,4205.897461,4172.692383,4204.102539,4152.051270,3298.000000,4.000000,91.000000,,,,0.000000,4.000000,4.000000,4.000000,4.000000,4.000000,4.000000,4.000000,4.000000,4.000000,4.000000,4.000000,4.000000,4.000000,4.000000,100.000000,,,,,,,,,,,,,,,,
1645708780.895406,1645708780.911531,158.000000,0.000000,4242.820313,4148.333496,4212.820313,4185.000000,4224.615234,4220.256348,4225.256348,4212.820313,4220.384766,4208.846191,4204.487305,4172.563965,4201.666504,4154.487305,2471.000000,4.000000,91.000000,,,,0.000000,4.000000,4.000000,4.000000,4.000000,4.000000,4.000000,4.000000,4.000000,4.000000,4.000000,4.000000,4.000000,4.000000,4.000000,100.000000,,,,,,,,,,,,,,,,
1645708780.899346,1645708780.915471,159.000000,0.000000,4249.487305,4154.615234,4217.563965,4191.153809,4231.025879,4218.589844,4224.615234,4213.846191,4219.871582,4204.615234,4206.025879,4175.000000,4201.153809,4158.974121,3376.000000,4.000000,91.000000,,,,0.000000,4.000000,4.000000,4.000000,4.000000,4.000000,4.000000,4.000000,4.000000,4.000000,4.000000,4.000000,4.000000,4.000000,4.000000,100.000000,,,,,,,,,,,,,,,,
1645708780.903286,1645708780.919411,160.000000,0.000000,4257.436035,4157.692383,4224.230957,4196.153809,4237.820313,4215.512695,4222.820313,4216.410156,4219.615234,4201.666504,4210.000000,4178.333496,4202.948730,4163.461426,3472.000000,4.000000,91.000000,,,,0.000000,4.000000,4.000000,4.000000,4.000000,4.000000,4.000000,4.000000,4.000000,4.000000,4.000000,4.000000,4.000000,4.000000,4.000000,100.000000,,,,,,,,,,,,,,,,
1645708780.907226,1645708780.923352,161.000000,0.000000,4262.563965,4157.179688,4228.717773,4198.333496,4241.282227,4212.563965,4221.153809,4218.077148,4220.256348,4203.205078,4215.512695,4180.641113,4206.794922,4166.282227,3298.000000,4.000000,91.000000,,,,0.000000,4.000000,4.000000,4.000000,4.000000,4.000000,4.000000,4.000000,4.000000,4.000000,4.000000,4.000000,4.000000,4.000000,4.000000,100.000000,,,,,,,,,,,,,,,,
1645708780.911167,1645708780.927292,162.000000,0.000000,4261.666504,4154.487305,4228.846191,4197.436035,4239.615234,4210.641113,4220.512695,4217.307617,4221.410156,4209.487305,4220.256348,4180.641113,4210.897461,4166.666504,2471.000000,4.000000,91.000000,,,,0.000000,4.000000,4.000000,4.000000,4.000000,4.000000,4.000000,4.000000,4.000000,4.000000,4.000000,4.000000,4.000000,4.000000,4.000000,100.000000,,,,,,,,,,,,,,,,
1645708780.915106,1645708780.931332,163.000000,0.000000,4254.871582,4151.538574,4225.769043,4193.974121,4233.974121,4209.358887,4220.897461,4215.128418,4222.692383,4216.282227,4221.922852,4178.846191,4212.692383,4164.230957,3376.000000,4.000000,91.000000,,,,0.000000,4.000000,4.000000,4.000000,4.000000,4.000000,4.000000,4.000000,4.000000,4.000000,4.000000,4.000000,4.000000,4.000000,4.000000,100.000000,,,,,,,,,,,,,,,,
1645708780.919047,1645708780.935272,164.000000,0.000000,4244.743652,4150.512695,4222.948730,4189.871582,4228.077148,4209.102539,4222.563965,4214.871582,4223.205078,4219.487305,4220.256348,4176.794922,4210.897461,4160.384766,3472.000000,4.000000,91.000000,,,,0.000000,4.000000,4.000000,4.000000,4.000000,4.000000,4.000000,4.000000,4.000000,4.000000,4.000000,4.000000,4.000000,4.000000,4.000000,100.000000,,,,,,,,,,,,,,,,
1645708780.922987,1645708780.939212,165.000000,0.000000,4235.641113,4153.077148,4222.820313,4188.077148,4225.897461,4210.897461,4225.256348,4218.461426,4223.205078,4219.487305,4218.077148,4177.307617,4207.948730,4158.461426,3298.000000,4.000000,91.000000,,,,0.000000,4.000000,4.000000,4.000000,4.000000,4.000000,4.000000,4.000000,4.000000,4.000000,4.000000,4.000000,4.000000,4.000000,4.000000,100.000000,,,,,,,,,,,,,,,,
1645708780.926926,1645708780.943152,166.000000,0.000000,4230.384766,4158.333496,4225.641113,4190.000000,4228.077148,4215.000000,4227.820313,4224.102539,4222.820313,4219.487305,4218.974121,4181.794922,4207.307617,4161.025879,2471.000000,4.000000,91.000000,,,,0.000000,4.000000,4.000000,4.000000,4.000000,4.000000,4.000000,4.000000,4.000000,4.000000,4.000000,4.000000,4.000000,4.000000,4.000000,100.000000,,,,,,,,,,,,,,,,
1645708780.930867,1645708780.947092,167.000000,0.000000,4229.743652,4163.461426,4229.487305,4193.974121,4231.153809,4219.102539,4228.717773,4228.077148,4221.538574,4221.025879,4223.333496,4188.589844,4211.025879,4167.563965,3376.000000,4.000000,91.000000,,,,0.000000,4.000000,4.000000,4.000000,4.000000,4.000000,4.000000,4.000000,4.000000,4.000000,4.000000,4.000000,4.000000,4.000000,4.000000,100.000000,,,,,,,,,,,,,,,,
1645708780.934807,1645708780.951032,168.000000,0.000000,4232.436035,4164.358887,4231.922852,4196.410156,4230.897461,4220.256348,4227.051270,4228.205078,4219.102539,4221.538574,4227.051270,4194.102539,4216.922852,4173.717773,3472.000000,4.000000,91.000000,,,,0.000000,4.000000,4.000000,4.000000,4.000000,4.000000,4.000000,4.000000,4.000000,4.000000,4.000000,4.000000,4.000000,4.000000,4.000000,100.000000,,,,,,,,,,,,,,,,
1645708780.938747,1645708780.954972,169.000000,0.000000,4236.025879,4160.641113,4231.666504,4194.871582,4226.666504,4217.051270,4223.974121,4225.641113,4215.897461,4218.205078,4226.922852,4194.743652,4220.769043,4175.769043,3298.000000,4.000000,91.000000,,,,0.000000,4.000000,4.000000,4.000000,4.000000,4.000000,4.000000,4.000000,4.000000,4.000000,4.000000,4.000000,4.000000,4.000000,4.000000,100.000000,,,,,,,,,,,,,,,,
1645708780.942687,1645708780.958912,170.000000,0.000000,4238.461426,4155.512695,4230.000000,4191.410156,4223.077148,4211.794922,4221.538574,4223.717773,4214.102539,4212.820313,4223.589844,4191.025879,4220.000000,4173.846191,2471.000000,4.000000,91.000000,,,,0.000000,4.000000,4.000000,4.000000,4.000000,4.000000,4.000000,4.000000,4.000000,4.000000,4.000000,4.000000,4.000000,4.000000,4.000000,100.000000,,,,,,,,,,,,,,,,
1645708780.946627,1645708780.962853,171.000000,0.000000,4238.974121,4153.717773,4229.230957,4190.000000,4225.384766,4208.077148,4221.153809,4225.000000,4215.256348,4210.641113,4221.538574,4186.538574,4216.538574,4171.666504,3376.000000,4.000000,91.000000,,,,0.000000,4.000000,4.000000,4.000000,4.000000,4.000000,4.000000,4.000000,4.000000,4.000000,4.000000,4.000000,4.000000,4.000000,4.000000,100.000000,,,,,,,,,,,,,,,,
1645708780.950567,1645708780.966793,172.000000,0.000000,4238.333496,4157.436035,4230.897461,4193.077148,4233.717773,4207.179688,4222.179688,4228.717773,4218.846191,4215.256348,4223.717773,4184.615234,4214.358887,4172.692383,3472.000000,4.000000,91.000000,,,,0.000000,4.000000,4.000000,4.000000,4.000000,4.000000,4.000000,4.000000,4.000000,4.000000,4.000000,4.000000,4.000000,4.000000,4.000000,100.000000,,,,,,,,,,,,,,,,
1645708780.954507,1645708780.970733,173.000000,0.000000,4237.307617,4163.717773,4233.717773,4198.333496,4241.025879,4207.820313,4223.333496,4231.410156,4222.563965,4224.487305,4228.205078,4185.897461,4215.384766,4176.282227,3298.000000,4.000000,91.000000,,,,0.000000,4.000000,4.000000,4.000000,4.000000,4.000000,4.000000,4.000000,4.000000,4.000000,4.000000,4.000000,4.000000,4.000000,4.000000,100.000000,,,,,,,,,,,,,,,,
1645708780.958447,1645708780.974673,174.000000,0.000000,4235.641113,4168.077148,4235.128418,4201.153809,4240.641113,4207.948730,4223.589844,4229.743652,4223.846191,4231.410156,4230.128418,4187.692383,4218.077148,4179.358887,2471.000000,4.000000,91.000000,,,,0.000000,4.000000,4.000000,4.000000,4.000000,4.000000,4.000000,4.000000,4.000000,4.000000,4.000000,4.000000,4.000000,4.000000,4.000000,100.000000,,,,,,,,,,,,,,,,
1645708780.962387,1645708780.978613,175.000000,0.000000,4233.205078,4167.436035,4232.692383,4199.871582,4232.820313,4207.820313,4222.563965,4223.974121,4221.794922,4230.128418,4226.922852,4187.563965,4219.230957,4179.102539,3376.000000,4.000000,91.000000,,,,0.000000,4.000000,4.000000,4.000000,4.000000,4.000000,4.000000,4.000000,4.000000,4.000000,4.000000,4.000000,4.000000,4.000000,4.000000,100.000000,,,,,,,,,,,,,,,,
1645708780.966327,1645708780.982553,176.000000,0.000000,4230.384766,4162.692383,4226.794922,4196.025879,4224.615234,4209.102539,4220.897461,4217.563965,4218.077148,4220.512695,4220.769043,4185.128418,4217.563965,4175.897461,3472.000000,4.000000,91.000000,,,,0.000000,4.000000,4.000000,4.000000,4.000000,4.000000,4.000000,4.000000,4.000000,4.000000,4.000000,4.000000,4.000000,4.000000,4.000000,100.000000,,,,,,,,,,,,,,,,
1645708780.970267,1645708780.986493,177.000000,0.000000,4228.461426,4157.051270,4220.512695,4192.820313,4222.820313,4212.051270,4219.102539,4214.615234,4215.641113,4207.820313,4215.769043,4182.179688,4213.846191,4172.051270,3298.000000,4.000000,91.000000,,,,0.000000,4.000000,4.000000,4.000000,4.000000,4.000000,4.000000,4.000000,4.000000,4.000000,4.000000,4.000000,4.000000,4.000000,4.000000,100.000000,,,,,,,,,,,,,,,,
1645708780.974207,1645708780.990433,178.000000,0.000000,4228.333496,4152.948730,4217.179688,4191.410156,4227.179688,4214.358887,4218.333496,4216.538574,4216.410156,4198.846191,4214.615234,4180.897461,4211.282227,4169.743652,2471.000000,4.000000,91.000000,,,,0.000000,4.000000,4.000000,4.000000,4.000000,4.000000,4.000000,4.000000,4.000000,4.000000,4.000000,4.000000,4.000000,4.000000,4.000000,100.000000,,,,,,,,,,,,,,,,
1645708780.978147,1645708780.994373,179.000000,0.000000,4229.102539,4151.538574,4218.461426,4191.538574,4231.666504,4213.717773,4219.102539,4221.794922,4220.256348,4197.820313,4216.794922,4182.051270,4212.307617,4170.000000,3376.000000,4.000000,91.000000,,,,0.000000,4.000000,4.000000,4.000000,4.000000,4.000000,4.000000,4.000000,4.000000,4.000000,4.000000,4.000000,4.000000,4.000000,4.000000,100.000000,,,,,,,,,,,,,,,,
1645708780.982087,1645708780.998313,180.000000,0.000000,4229.487305,4152.692383,4221.922852,4191.794922,4231.153809,4210.512695,4221.666504,4226.794922,4225.128418,4204.358887,4220.256348,4184.358887,4217.051270,4171.794922,3472.000000,4.000000,91.000000,,,,0.000000,4.000000,4.000000,4.000000,4.000000,4.000000,4.000000,4.000000,4.000000,4.000000,4.000000,4.000000,4.000000,4.000000,4.000000,100.000000,,,,,,,,,,,,,,,,
1645708780.986027,1645708781.002254,181.000000,0.000000,4227.820313,4155.641113,4223.461426,4191.538574,4225.641113,4207.563965,4224.358887,4228.461426,4228.589844,4214.102539,4222.563965,4185.897461,4223.077148,4173.846191,3298.000000,4.000000,91.000000,,,,0.000000,4.000000,4.000000,4.000000,4.000000,4.000000,4.000000,4.000000,4.000000,4.000000,4.000000,4.000000,4.000000,4.000000,4.000000,100.000000,,,,,,,,,,,,,,,,
1645708780.989967,1645708781.006094,182.000000,0.000000,4224.358887,4158.461426,4220.256348,4190.384766,4219.743652,4207.051270,4225.641113,4226.538574,4228.333496,4221.153809,4222.307617,4185.384766,4227.051270,4174.230957,2471.000000,4.000000,91.000000,,,,0.000000,4.000000,4.000000,4.000000,4.000000,4.000000,4.000000,4.000000,4.000000,4.000000,4.000000,4.000000,4.000000,4.000000,4.000000,100.000000,,,,,,,,,,,,,,,,
1645708780.993907,1645708781.010034,183.000000,0.000000,4220.256348,4158.717773,4213.461426,4187.948730,4218.205078,4209.102539,4225.512695,4223.846191,4224.615234,4221.282227,4219.358887,4182.563965,4226.666504,4172.051270,3376.000000,4.000000,91.000000,,,,0.000000,4.000000,4.000000,4.000000,4.000000,4.000000,4.000000,4.000000,4.000000,4.000000,4.000000,4.000000,4.000000,4.000000,4.000000,100.000000,,,,,,,,,,,,,,,,
1645708780.997847,1645708781.013974,184.000000,0.000000,4216.922852,4155.128418,4206.538574,4184.358887,4221.538574,4211.666504,4225.641113,4223.461426,4219.615234,4214.871582,4214.487305,4178.077148,4222.307617,4167.307617,3472.000000,4.000000,91.000000,,,,0.000000,4.000000,4.000000,4.000000,4.000000,4.000000,4.000000,4.000000,4.000000,4.000000,4.000000,4.000000,4.000000,4.000000,4.000000,100.000000,,,,,,,,,,,,,,,,
1645708781.001787,1645708781.017914,185.000000,0.000000,4214.743652,4149.102539,4202.948730,4180.641113,4225.641113,4213.974121,4228.333496,4226.794922,4216.794922,4206.922852,4209.615234,4174.102539,4216.666504,4162.051270,3298.000000,4.000000,91.000000,,,,0.000000,4.000000,4.000000,4.000000,4.000000,4.000000,4.000000,4.000000,4.000000,4.000000,4.000000,4.000000,4.000000,4.000000,4.000000,100.000000,,,,,,,,,,,,,,,,
1645708781.005727,1645708781.021854,186.000000,0.000000,4213.461426,4143.974121,4203.205078,4178.589844,4226.025879,4216.025879,4233.077148,4231.538574,4218.205078,4203.205078,4206.794922,4172.820313,4212.436035,4158.461426,2471.000000,4.000000,91.000000,,,,0.000000,4.000000,4.000000,4.000000,4.000000,4.000000,4.000000,4.000000,4.000000,4.000000,4.000000,4.000000,4.000000,4.000000,4.000000,100.000000,,,,,,,,,,,,,,,,
1645708781.009667,1645708781.025794,187.000000,0.000000,4213.077148,4143.717773,4206.282227,4179.358887,4222.051270,4217.563965,4237.051270,4235.000000,4223.077148,4206.025879,4207.820313,4175.256348,4211.538574,4158.461426,3376.000000,4.000000,91.000000,,,,0.000000,4.000000,4.000000,4.000000,4.000000,4.000000,4.000000,4.000000,4.000000,4.000000,4.000000,4.000000,4.000000,4.000000,4.000000,100.000000,,,,,,,,,,,,,,,,
1645708781.013607,1645708781.029734,188.000000,0.000000,4213.461426,4148.589844,4210.384766,4182.179688,4217.563965,4217.820313,4238.077148,4235.769043,4228.461426,4212.563965,4211.794922,4179.871582,4213.717773,4161.025879,3472.000000,4.000000,91.000000,,,,0.000000,4.000000,4.000000,4.000000,4.000000,4.000000,4.000000,4.000000,4.000000,4.000000,4.000000,4.000000,4.000000,4.000000,4.000000,100.000000,,,,,,,,,,,,,,,,
1645708781.017547,1645708781.033675,189.000000,0.000000,4213.589844,4155.128418,4214.230957,4184.743652,4216.410156,4216.538574,4236.153809,4235.128418,4231.025879,4217.820313,4216.282227,4184.230957,4216.282227,4163.205078,3298.000000,4.000000,91.000000,,,,0.000000,4.000000,4.000000,4.000000,4.000000,4.000000,4.000000,4.000000,4.000000,4.000000,4.000000,4.000000,4.000000,4.000000,4.000000,100.000000,,,,,,,,,,,,,,,,
1645708781.021487,1645708781.037615,190.000000,0.000000,4213.077148,4158.589844,4216.794922,4185.256348,4220.256348,4214.615234,4233.717773,4234.743652,4229.871582,4218.846191,4218.333496,4185.769043,4216.153809,4163.077148,2471.000000,4.000000,91.000000,,,,0.000000,4.000000,4.000000,4.000000,4.000000,4.000000,4.000000,4.000000,4.000000,4.000000,4.000000,4.000000,4.000000,4.000000,4.000000,100.000000,,,,,,,,,,,,,,,,
1645708781.025427,1645708781.041555,191.000000,0.000000,4212.179688,4156.666504,4217.820313,4183.717773,4228.717773,4214.615234,4233.205078,4234.871582,4226.410156,4216.666504,4217.820313,4184.615234,4212.948730,4161.410156,3376.000000,4.000000,91.000000,,,,0.000000,4.000000,4.000000,4.000000,4.000000,4.000000,4.000000,4.000000,4.000000,4.000000,4.000000,4.000000,4.000000,4.000000,4.000000,100.000000,,,,,,,,,,,,,,,,
1645708781.029367,1645708781.045495,192.000000,0.000000,4212.179688,4151.282227,4217.563965,4181.794922,4239.358887,4217.692383,4234.871582,4234.230957,4222.820313,4214.102539,4215.769043,4182.436035,4208.077148,4160.256348,3472.000000,4.000000,91.000000,,,,0.000000,4.000000,4.000000,4.000000,4.000000,4.000000,4.000000,4.000000,4.000000,4.000000,4.000000,4.000000,4.000000,4.000000,4.000000,100.000000,,,,,,,,,,,,,,,,
1645708781.033307,1645708781.049435,193.000000,0.000000,4213.974121,4146.794922,4216.794922,4181.025879,4247.563965,4221.538574,4236.922852,4231.153809,4220.000000,4212.051270,4213.205078,4180.384766,4203.974121,4160.512695,3298.000000,4.000000,91.000000,,,,0.000000,4.000000,4.000000,4.000000,4.000000,4.000000,4.000000,4.000000,4.000000,4.000000,4.000000,4.000000,4.000000,4.000000,4.000000,100.000000,,,,,,,,,,,,,,,,
1645708781.037247,1645708781.053375,194.000000,0.000000,4217.179688,4146.794922,4216.538574,4181.538574,4247.563965,4222.692383,4237.051270,4226.025879,4217.820313,4209.102539,4209.743652,4179.102539,4201.794922,4161.538574,2471.000000,4.000000,91.000000,,,,0.000000,4.000000,4.000000,4.000000,4.000000,4.000000,4.000000,4.000000,4.000000,4.000000,4.000000,4.000000,4.000000,4.000000,4.000000,100.000000,,,,,,,,,,,,,,,,
1645708781.041187,1645708781.057215,195.000000,0.000000,4220.000000,4151.794922,4216.538574,4183.333496,4237.563965,4219.615234,4234.358887,4221.538574,4215.897461,4204.871582,4206.153809,4178.461426,4201.410156,4162.051270,3376.000000,4.000000,91.000000,,,,0.000000,4.000000,4.000000,4.000000,4.000000,4.000000,4.000000,4.000000,4.000000,4.000000,4.000000,4.000000,4.000000,4.000000,4.000000,100.000000,,,,,,,,,,,,,,,,
1645708781.045127,1645708781.061155,196.000000,0.000000,4221.666504,4159.102539,4216.538574,4186.410156,4221.410156,4213.717773,4229.615234,4220.000000,4215.256348,4201.922852,4204.487305,4178.589844,4202.307617,4161.794922,3472.000000,4.000000,91.000000,,,,0.000000,4.000000,4.000000,4.000000,4.000000,4.000000,4.000000,4.000000,4.000000,4.000000,4.000000,4.000000,4.000000,4.000000,4.000000,100.000000,,,,,,,,,,,,,,,,
1645708781.049067,1645708781.065095,197.000000,0.000000,4222.179688,4165.128418,4216.538574,4189.871582,4206.794922,4208.461426,4224.743652,4221.538574,4216.922852,4203.205078,4206.282227,4179.615234,4202.948730,4162.051270,3298.000000,4.000000,91.000000,,,,0.000000,4.000000,4.000000,4.000000,4.000000,4.000000,4.000000,4.000000,4.000000,4.000000,4.000000,4.000000,4.000000,4.000000,4.000000,100.000000,,,,,,,,,,,,,,,,
1645708781.053007,1645708781.069036,198.000000,0.000000,4221.666504,4166.282227,4216.922852,4191.666504,4199.871582,4205.769043,4221.538574,4224.102539,4220.641113,4208.461426,4210.512695,4181.153809,4202.563965,4164.230957,2471.000000,4.000000,91.000000,,,,0.000000,4.000000,4.000000,4.000000,4.000000,4.000000,4.000000,4.000000,4.000000,4.000000,4.000000,4.000000,4.000000,4.000000,4.000000,100.000000,,,,,,,,,,,,,,,,
1645708781.056947,1645708781.072976,199.000000,0.000000,4220.512695,4162.436035,4217.948730,4190.769043,4202.051270,4205.897461,4220.641113,4225.128418,4223.974121,4213.589844,4213.717773,4182.563965,4200.512695,4167.820313,3376.000000,4.000000,91.000000,,,,0.000000,4.000000,4.000000,4.000000,4.000000,4.000000,4.000000,4.000000,4.000000,4.000000,4.000000,4.000000,4.000000,4.000000,4.000000,100.000000,,,,,,,,,,,,,,,,
1645708781.060887,1645708781.076916,200.000000,0.000000,4220.000000,4156.794922,4219.358887,4187.948730,4211.666504,4208.333496,4222.179688,4224.358887,4224.358887,4214.871582,4214.358887,4183.333496,4197.307617,4171.410156,3472.000000,4.000000,91.000000,,,,0.000000,4.000000,4.000000,4.000000,4.000000,4.000000,4.000000,4.000000,4.000000,4.000000,4.000000,4.000000,4.000000,4.000000,4.000000,100.000000,,,,,,,,,,,,,,,,
1645708781.064827,1645708781.080856,201.000000,0.000000,4220.897461,4154.230957,4219.743652,4185.769043,4224.615234,4212.820313,4225.000000,4223.077148,4222.051270,4212.820313,4213.846191,4183.589844,4194.358887,4173.333496,3298.000000,4.000000,91.000000,,,,0.000000,4.000000,4.000000,4.000000,4.000000,4.000000,4.000000,4.000000,4.000000,4.000000,4.000000,4.000000,4.000000,4.000000,4.000000,100.000000,,,,,,,,,,,,,,,,
1645708781.068767,1645708781.084796,202.000000,0.000000,4222.820313,4156.538574,4218.846191,4185.769043,4234.743652,4217.563965,4227.948730,4223.461426,4219.743652,4210.897461,4213.974121,4183.077148,4192.307617,4173.205078,2471.000000,4.000000,91.000000,,,,0.000000,4.000000,4.000000,4.000000,4.000000,4.000000,4.000000,4.000000,4.000000,4.000000,4.000000,4.000000,4.000000,4.000000,4.000000,100.000000,,,,,,,,,,,,,,,,
1645708781.072707,1645708781.088736,203.000000,0.000000,4223.846191,4160.641113,4217.307617,4186.282227,4235.769043,4220.256348,4229.358887,4226.025879,4219.615234,4210.897461,4214.743652,4181.410156,4190.641113,4170.897461,3376.000000,4.000000,91.000000,,,,0.000000,4.000000,4.000000,4.000000,4.000000,4.000000,4.000000,4.000000,4.000000,4.000000,4.000000,4.000000,4.000000,4.000000,4.000000,100.000000,,,,,,,,,,,,,,,,
1645708781.076647,1645708781.092676,204.000000,0.000000,4221.410156,4161.666504,4215.769043,4184.871582,4227.179688,4219.358887,4228.846191,4229.358887,4221.282227,4211.025879,4213.333496,4178.333496,4188.333496,4166.794922,3472.000000,4.000000,91.000000,,,,0.000000,4.000000,4.000000,4.000000,4.000000,4.000000,4.000000,4.000000,4.000000,4.000000,4.000000,4.000000,4.000000,4.000000,4.000000,100.000000,,,,,,,,,,,,,,,,
1645708781.080587,1645708781.096616,205.000000,0.000000,4216.025879,4158.846191,4214.615234,4182.179688,4215.512695,4215.641113,4227.051270,4230.897461,4222.307617,4208.205078,4208.846191,4175.000000,4185.000000,4162.948730,3298.000000,4.000000,91.000000,,,,0.000000,4.000000,4.000000,4.000000,4.000000,4.000000,4.000000,4.000000,4.000000,4.000000,4.000000,4.000000,4.000000,4.000000,4.000000,100.000000,,,,,,,,,,,,,,,,
1645708781.084527,1645708781.100556,206.000000,0.000000,4210.128418,4155.256348,4214.487305,4181.153809,4210.384766,4211.538574,4225.256348,4229.102539,4221.153809,4203.589844,4204.358887,4172.948730,4182.692383,4161.410156,2471.000000,4.000000,91.000000,,,,0.000000,4.000000,4.000000,4.000000,4.000000,4.000000,4.000000,4.000000,4.000000,4.000000,4.000000,4.000000,4.000000,4.000000,4.000000,100.000000,,,,,,,,,,,,,,,,
1645708781.088467,1645708781.104497,207.000000,0.000000,4206.666504,4154.743652,4215.641113,4184.615234,4214.871582,4208.846191,4224.230957,4225.769043,4218.333496,4200.384766,4203.461426,4172.948730,4182.820313,4162.179688,3376.000000,4.000000,91.000000,,,,0.000000,4.000000,4.000000,4.000000,4.000000,4.000000,4.000000,4.000000,4.000000,4.000000,4.000000,4.000000,4.000000,4.000000,4.000000,100.000000,,,,,,,,,,,,,,,,
1645708781.092407,1645708781.108437,208.000000,0.000000,4204.615234,4156.922852,4216.666504,4190.641113,4222.692383,4207.436035,4223.461426,4223.717773,4215.128418,4200.512695,4205.769043,4173.717773,4184.743652,4162.179688,3472.000000,4.000000,91.000000,,,,0.000000,4.000000,4.000000,4.000000,4.000000,4.000000,4.000000,4.000000,4.000000,4.000000,4.000000,4.000000,4.000000,4.000000,4.000000,100.000000,,,,,,,,,,,,,,,,
1645708781.096347,1645708781.112377,209.000000,0.000000,4199.615234,4158.333496,4216.282227,4194.358887,4223.589844,4205.641113,4222.436035,4225.128418,4213.077148,4202.179688,4207.436035,4173.077148,4186.538574,4158.077148,3298.000000,4.000000,91.000000,,,,0.000000,4.000000,4.000000,4.000000,4.000000,4.000000,4.000000,4.000000,4.000000,4.000000,4.000000,4.000000,4.000000,4.000000,4.000000,100.000000,,,,,,,,,,,,,,,,
1645708781.100288,1645708781.116317,210.000000,0.000000,4188.205078,4157.436035,4214.871582,4192.436035,4215.512695,4203.846191,4221.410156,4229.358887,4213.077148,4202.692383,4206.153809,4170.384766,4186.794922,4150.384766,2471.000000,4.000000,91.000000,,,,0.000000,4.000000,4.000000,4.000000,4.000000,4.000000,4.000000,4.000000,4.000000,4.000000,4.000000,4.000000,4.000000,4.000000,4.000000,100.000000,,,,,,,,,,,,,,,,
1645708781.104227,1645708781.120257,211.000000,0.000000,4171.794922,4156.410156,4214.615234,4187.436035,4206.922852,4204.615234,4221.538574,4233.333496,4215.128418,4202.563965,4204.102539,4168.333496,4186.666504,4144.743652,3376.000000,4.000000,91.000000,,,,0.000000,4.000000,4.000000,4.000000,4.000000,4.000000,4.000000,4.000000,4.000000,4.000000,4.000000,4.000000,4.000000,4.000000,4.000000,100.000000,,,,,,,,,,,,,,,,
1645708781.108168,1645708781.124197,212.000000,0.000000,4155.897461,4159.102539,4217.436035,4185.128418,4208.846191,4209.743652,4223.205078,4234.487305,4218.333496,4204.487305,4205.384766,4169.871582,4187.948730,4145.641113,3472.000000,4.000000,91.000000,,,,0.000000,4.000000,4.000000,4.000000,4.000000,4.000000,4.000000,4.000000,4.000000,4.000000,4.000000,4.000000,4.000000,4.000000,4.000000,100.000000,,,,,,,,,,,,,,,,
1645708781.112108,1645708781.128037,213.000000,0.000000,4146.153809,4165.512695,4222.820313,4188.205078,4221.794922,4217.307617,4225.256348,4232.436035,4221.410156,4209.615234,4210.769043,4175.769043,4191.025879,4152.820313,3298.000000,4.000000,91.000000,,,,0.000000,4.000000,4.000000,4.000000,4.000000,4.000000,4.000000,4.000000,4.000000,4.000000,4.000000,4.000000,4.000000,4.000000,4.000000,100.000000,,,,,,,,,,,,,,,,
1645708781.116048,1645708781.131977,214.000000,0.000000,4144.358887,4171.666504,4228.461426,4194.358887,4235.769043,4221.922852,4226.282227,4229.743652,4222.948730,4215.384766,4217.307617,4183.205078,4194.358887,4161.025879,2471.000000,4.000000,91.000000,,,,0.000000,4.000000,4.000000,4.000000,4.000000,4.000000,4.000000,4.000000,4.000000,4.000000,4.000000,4.000000,4.000000,4.000000,4.000000,100.000000,,,,,,,,,,,,,,,,
1645708781.119988,1645708781.135917,215.000000,0.000000,4147.563965,4173.461426,4231.538574,4199.230957,4239.743652,4220.128418,4225.641113,4228.717773,4223.077148,4218.974121,4220.769043,4187.820313,4195.897461,4165.641113,3376.000000,4.000000,91.000000,,,,0.000000,4.000000,4.000000,4.000000,4.000000,4.000000,4.000000,4.000000,4.000000,4.000000,4.000000,4.000000,4.000000,4.000000,4.000000,100.000000,,,,,,,,,,,,,,,,
1645708781.123928,1645708781.139858,216.000000,0.000000,4150.641113,4170.769043,4230.512695,4200.384766,4232.051270,4213.589844,4224.230957,4230.256348,4222.692383,4219.230957,4220.000000,4187.179688,4194.487305,4164.871582,3472.000000,4.000000,91.000000,,,,0.000000,4.000000,4.000000,4.000000,4.000000,4.000000,4.000000,4.000000,4.000000,4.000000,4.000000,4.000000,4.000000,4.000000,4.000000,100.000000,,,,,,,,,,,,,,,,
1645708781.127868,1645708781.143798,217.000000,0.000000,4149.615234,4167.051270,4224.743652,4198.333496,4219.358887,4207.179688,4222.436035,4232.436035,4222.563965,4216.538574,4215.769043,4181.794922,4190.769043,4160.384766,3298.000000,4.000000,91.000000,,,,0.000000,4.000000,4.000000,4.000000,4.000000,4.000000,4.000000,4.000000,4.000000,4.000000,4.000000,4.000000,4.000000,4.000000,4.000000,100.000000,,,,,,,,,,,,,,,,
1645708781.131808,1645708781.147738,218.000000,0.000000,4143.846191,4165.512695,4216.410156,4195.000000,4210.641113,4204.615234,4221.153809,4233.077148,4223.077148,4211.410156,4209.743652,4174.871582,4186.153809,4155.000000,2471.000000,4.000000,91.000000,,,,0.000000,4.000000,4.000000,4.000000,4.000000,4.000000,4.000000,4.000000,4.000000,4.000000,4.000000,4.000000,4.000000,4.000000,4.000000,100.000000,,,,,,,,,,,,,,,,
1645708781.135748,1645708781.151678,219.000000,0.000000,4136.282227,4166.025879,4209.102539,4191.538574,4210.000000,4205.897461,4220.897461,4231.153809,4223.461426,4204.230957,4203.974121,4169.615234,4182.307617,4151.282227,3376.000000,4.000000,91.000000,,,,0.000000,4.000000,4.000000,4.000000,4.000000,4.000000,4.000000,4.000000,4.000000,4.000000,4.000000,4.000000,4.000000,4.000000,4.000000,100.000000,,,,,,,,,,,,,,,,
1645708781.139688,1645708781.155618,220.000000,0.000000,4130.256348,4166.922852,4206.025879,4188.717773,4215.769043,4208.717773,4222.436035,4228.974121,4223.461426,4196.666504,4200.769043,4168.333496,4180.641113,4151.282227,3472.000000,4.000000,91.000000,,,,0.000000,4.000000,4.000000,4.000000,4.000000,4.000000,4.000000,4.000000,4.000000,4.000000,4.000000,4.000000,4.000000,4.000000,4.000000,100.000000,,,,,,,,,,,,,,,,
1645708781.143628,1645708781.159558,221.000000,0.000000,4127.307617,4166.794922,4207.051270,4187.051270,4222.948730,4211.538574,4225.256348,4228.974121,4223.717773,4192.307617,4201.666504,4171.153809,4181.666504,4155.512695,3298.000000,4.000000,91.000000,,,,0.000000,4.000000,4.000000,4.000000,4.000000,4.000000,4.000000,4.000000,4.000000,4.000000,4.000000,4.000000,4.000000,4.000000,4.000000,100.000000,,,,,,,,,,,,,,,,
1645708781.147568,1645708781.163498,222.000000,0.000000,4127.692383,4165.512695,4209.230957,4186.794922,4227.051270,4214.487305,4227.820313,4232.179688,4224.487305,4194.230957,4205.769043,4175.641113,4184.615234,4161.538574,2471.000000,4.000000,91.000000,,,,0.000000,4.000000,4.000000,4.000000,4.000000,4.000000,4.000000,4.000000,4.000000,4.000000,4.000000,4.000000,4.000000,4.000000,4.000000,100.000000,,,,,,,,,,,,,,,,
1645708781.151508,1645708781.167438,223.000000,0.000000,4130.769043,4164.102539,4209.358887,4187.563965,4226.025879,4217.948730,4228.974121,4237.179688,4225.641113,4201.666504,4210.000000,4178.333496,4187.692383,4165.512695,3376.000000,4.000000,91.000000,,,,0.000000,4.000000,4.000000,4.000000,4.000000,4.000000,4.000000,4.000000,4.000000,4.000000,4.000000,4.000000,4.000000,4.000000,4.000000,100.000000,,,,,,,,,,,,,,,,
1645708781.155448,1645708781.171378,224.000000,0.000000,4135.769043,4163.589844,4207.436035,4188.333496,4221.922852,4220.512695,4229.358887,4242.051270,4226.282227,4210.512695,4211.282227,4177.179688,4189.487305,4165.000000,3472.000000,4.000000,91.000000,,,,0.000000,4.000000,4.000000,4.000000,4.000000,4.000000,4.000000,4.000000,4.000000,4.000000,4.000000,4.000000,4.000000,4.000000,4.000000,100.000000,,,,,,,,,,,,,,,,
1645708781.159388,1645708781.175319,225.000000,0.000000,4139.358887,4164.615234,4205.769043,4188.717773,4218.974121,4220.897461,4229.871582,4245.512695,4226.538574,4216.666504,4210.128418,4173.461426,4190.128418,4161.282227,3298.000000,4.000000,91.000000,,,,0.000000,4.000000,4.000000,4.000000,4.000000,4.000000,4.000000,4.000000,4.000000,4.000000,4.000000,4.000000,4.000000,4.000000,4.000000,100.000000,,,,,,,,,,,,,,,,
1645708781.163328,1645708781.179259,226.000000,0.000000,4138.205078,4167.563965,4206.538574,4189.230957,4222.051270,4219.102539,4231.410156,4247.307617,4226.666504,4219.871582,4210.256348,4170.897461,4190.897461,4159.102539,2471.000000,4.000000,91.000000,,,,0.000000,4.000000,4.000000,4.000000,4.000000,4.000000,4.000000,4.000000,4.000000,4.000000,4.000000,4.000000,4.000000,4.000000,4.000000,100.000000,,,,,,,,,,,,,,,,
1645708781.167268,1645708781.183199,227.000000,0.000000,4133.333496,4171.666504,4209.615234,4190.769043,4232.051270,4216.794922,4233.205078,4247.948730,4227.179688,4222.307617,4214.358887,4171.794922,4193.205078,4161.153809,3376.000000,4.000000,91.000000,,,,0.000000,4.000000,4.000000,4.000000,4.000000,4.000000,4.000000,4.000000,4.000000,4.000000,4.000000,4.000000,4.000000,4.000000,4.000000,100.000000,,,,,,,,,,,,,,,,
1645708781.171208,1645708781.187139,228.000000,0.000000,4131.410156,4175.384766,4213.333496,4193.205078,4243.077148,4215.641113,4234.230957,4247.563965,4227.692383,4225.769043,4221.153809,4175.384766,4196.410156,4166.025879,3472.000000,4.000000,91.000000,,,,0.000000,4.000000,4.000000,4.000000,4.000000,4.000000,4.000000,4.000000,4.000000,4.000000,4.000000,4.000000,4.000000,4.000000,4.000000,100.000000,,,,,,,,,,,,,,,,
1645708781.175148,1645708781.191079,229.000000,0.000000,4141.025879,4176.666504,4215.897461,4195.000000,4245.641113,4215.384766,4233.461426,4245.641113,4228.077148,4228.846191,4226.282227,4178.461426,4197.948730,4169.230957,3298.000000,4.000000,91.000000,,,,0.000000,4.000000,4.000000,4.000000,4.000000,4.000000,4.000000,4.000000,4.000000,4.000000,4.000000,4.000000,4.000000,4.000000,4.000000,100.000000,,,,,,,,,,,,,,,,
1645708781.179088,1645708781.195019,230.000000,0.000000,4166.153809,4174.743652,4216.794922,4195.384766,4234.871582,4214.871582,4231.282227,4242.563965,4227.820313,4229.230957,4226.282227,4178.589844,4196.153809,4167.948730,2471.000000,4.000000,91.000000,,,,0.000000,4.000000,4.000000,4.000000,4.000000,4.000000,4.000000,4.000000,4.000000,4.000000,4.000000,4.000000,4.000000,4.000000,4.000000,100.000000,,,,,,,,,,,,,,,,
1645708781.183028,1645708781.198959,231.000000,0.000000,4204.230957,4170.897461,4216.538574,4194.871582,4216.153809,4214.358887,4228.717773,4239.358887,4227.179688,4226.025879,4221.794922,4176.282227,4191.794922,4163.461426,3376.000000,4.000000,91.000000,,,,0.000000,4.000000,4.000000,4.000000,4.000000,4.000000,4.000000,4.000000,4.000000,4.000000,4.000000,4.000000,4.000000,4.000000,4.000000,100.000000,,,,,,,,,,,,,,,,
1645708781.186968,1645708781.202799,232.000000,0.000000,4250.256348,4167.820313,4215.384766,4194.358887,4202.051270,4215.641113,4226.794922,4236.410156,4226.794922,4220.256348,4217.307617,4173.589844,4187.948730,4159.487305,3472.000000,4.000000,91.000000,,,,0.000000,4.000000,4.000000,4.000000,4.000000,4.000000,4.000000,4.000000,4.000000,4.000000,4.000000,4.000000,4.000000,4.000000,4.000000,100.000000,,,,,,,,,,,,,,,,
1645708781.190908,1645708781.206739,233.000000,0.000000,4298.333496,4167.563965,4214.230957,4194.487305,4202.051270,4219.230957,4226.025879,4233.717773,4226.282227,4213.974121,4215.384766,4171.666504,4186.794922,4157.820313,3298.000000,4.000000,91.000000,,,,0.000000,4.000000,4.000000,4.000000,4.000000,4.000000,4.000000,4.000000,4.000000,4.000000,4.000000,4.000000,4.000000,4.000000,4.000000,100.000000,,,,,,,,,,,,,,,,
1645708781.194848,1645708781.210680,234.000000,0.000000,4339.487305,4169.871582,4213.974121,4194.487305,4214.743652,4223.077148,4225.769043,4230.256348,4225.384766,4208.205078,4215.256348,4169.871582,4188.077148,4157.692383,2471.000000,4.000000,91.000000,,,,0.000000,4.000000,4.000000,4.000000,4.000000,4.000000,4.000000,4.000000,4.000000,4.000000,4.000000,4.000000,4.000000,4.000000,4.000000,100.000000,,,,,,,,,,,,,,,,
1645708781.198788,1645708781.214620,235.000000,0.000000,4361.282227,4173.589844,4214.871582,4194.743652,4230.256348,4224.615234,4225.512695,4226.282227,4223.461426,4204.871582,4214.615234,4167.179688,4189.615234,4157.436035,3376.000000,4.000000,91.000000,,,,0.000000,4.000000,4.000000,4.000000,4.000000,4.000000,4.000000,4.000000,4.000000,4.000000,4.000000,4.000000,4.000000,4.000000,4.000000,100.000000,,,,,,,,,,,,,,,,
1645708781.202728,1645708781.218560,236.000000,0.000000,4358.974121,4177.307617,4215.897461,4196.153809,4238.461426,4222.948730,4225.384766,4222.563965,4221.153809,4206.153809,4213.077148,4164.230957,4190.256348,4156.282227,3472.000000,4.000000,91.000000,,,,0.000000,4.000000,4.000000,4.000000,4.000000,4.000000,4.000000,4.000000,4.000000,4.000000,4.000000,4.000000,4.000000,4.000000,4.000000,100.000000,,,,,,,,,,,,,,,,
1645708781.206668,1645708781.222500,237.000000,0.000000,4347.307617,4180.641113,4215.641113,4199.230957,4236.282227,4219.871582,4225.769043,4220.256348,4219.743652,4212.179688,4212.948730,4162.307617,4190.512695,4155.256348,3298.000000,4.000000,91.000000,,,,0.000000,4.000000,4.000000,4.000000,4.000000,4.000000,4.000000,4.000000,4.000000,4.000000,4.000000,4.000000,4.000000,4.000000,4.000000,100.000000,,,,,,,,,,,,,,,,
1645708781.210608,1645708781.226440,238.000000,0.000000,4360.769043,4183.077148,4214.102539,4202.948730,4228.974121,4217.307617,4226.666504,4219.743652,4220.000000,4219.358887,4215.384766,4162.307617,4191.410156,4155.641113,2471.000000,4.000000,91.000000,,,,0.000000,4.000000,4.000000,4.000000,4.000000,4.000000,4.000000,4.000000,4.000000,4.000000,4.000000,4.000000,4.000000,4.000000,4.000000,100.000000,,,,,,,,,,,,,,,,
1645708781.214548,1645708781.230380,239.000000,0.000000,4435.769043,4183.589844,4212.692383,4204.871582,4224.358887,4215.641113,4227.307617,4220.512695,4220.512695,4221.538574,4218.461426,4164.102539,4192.436035,4157.051270,3376.000000,4.000000,91.000000,,,,0.000000,4.000000,4.000000,4.000000,4.000000,4.000000,4.000000,4.000000,4.000000,4.000000,4.000000,4.000000,4.000000,4.000000,4.000000,100.000000,,,,,,,,,,,,,,,,
1645708781.218488,1645708781.234320,240.000000,0.000000,4583.846191,4181.794922,4212.820313,4203.717773,4226.153809,4214.743652,4227.179688,4221.794922,4219.230957,4215.641113,4218.717773,4166.410156,4192.436035,4158.333496,3472.000000,4.000000,91.000000,,,,0.000000,4.000000,4.000000,4.000000,4.000000,4.000000,4.000000,4.000000,4.000000,4.000000,4.000000,4.000000,4.000000,4.000000,4.000000,100.000000,,,,,,,,,,,,,,,,
1645708781.222428,1645708781.238260,241.000000,0.000000,4775.641113,4179.230957,4214.615234,4200.641113,4232.307617,4214.615234,4226.794922,4221.922852,4215.769043,4204.871582,4215.128418,4168.077148,4190.897461,4158.461426,3298.000000,4.000000,91.000000,,,,0.000000,4.000000,4.000000,4.000000,4.000000,4.000000,4.000000,4.000000,4.000000,4.000000,4.000000,4.000000,4.000000,4.000000,4.000000,100.000000,,,,,,,,,,,,,,,,
1645708781.226368,1645708781.242200,242.000000,0.000000,4950.384766,4178.077148,4216.794922,4198.333496,4237.051270,4216.153809,4227.307617,4220.256348,4211.666504,4197.051270,4210.512695,4168.717773,4189.743652,4158.461426,2471.000000,4.000000,91.000000,,,,0.000000,4.000000,4.000000,4.000000,4.000000,4.000000,4.000000,4.000000,4.000000,4.000000,4.000000,4.000000,4.000000,4.000000,4.000000,100.000000,,,,,,,,,,,,,,,,
1645708781.230308,1645708781.246141,243.000000,0.000000,5050.384766,4179.230957,4217.051270,4198.077148,4235.897461,4218.717773,4229.230957,4217.307617,4209.743652,4196.922852,4208.333496,4168.077148,4190.512695,4159.487305,3376.000000,4.000000,91.000000,,,,0.000000,4.000000,4.000000,4.000000,4.000000,4.000000,4.000000,4.000000,4.000000,4.000000,4.000000,4.000000,4.000000,4.000000,4.000000,100.000000,,,,,,,,,,,,,,,,
1645708781.234248,1645708781.250081,244.000000,0.000000,5056.153809,4181.153809,4214.615234,4198.717773,4228.461426,4220.769043,4232.051270,4215.256348,4210.384766,4202.436035,4209.487305,4166.410156,4192.563965,4161.282227,3472.000000,4.000000,91.000000,,,,0.000000,4.000000,4.000000,4.000000,4.000000,4.000000,4.000000,4.000000,4.000000,4.000000,4.000000,4.000000,4.000000,4.000000,4.000000,100.000000,,,,,,,,,,,,,,,,
1645708781.238188,1645708781.254021,245.000000,0.000000,4997.436035,4181.794922,4210.256348,4198.589844,4218.846191,4221.666504,4234.487305,4215.641113,4212.692383,4207.692383,4212.307617,4163.974121,4193.717773,4162.179688,3298.000000,4.000000,91.000000,,,,0.000000,4.000000,4.000000,4.000000,4.000000,4.000000,4.000000,4.000000,4.000000,4.000000,4.000000,4.000000,4.000000,4.000000,4.000000,100.000000,,,,,,,,,,,,,,,,
1645708781.242128,1645708781.257961,246.000000,0.000000,4931.922852,4181.282227,4207.179688,4197.820313,4213.589844,4222.820313,4236.410156,4218.333496,4215.256348,4210.000000,4215.256348,4162.692383,4193.333496,4162.179688,2471.000000,4.000000,91.000000,,,,0.000000,4.000000,4.000000,4.000000,4.000000,4.000000,4.000000,4.000000,4.000000,4.000000,4.000000,4.000000,4.000000,4.000000,4.000000,100.000000,,,,,,,,,,,,,,,,
1645708781.246068,1645708781.261901,247.000000,0.000000,4905.641113,4182.179688,4208.461426,4198.589844,4216.410156,4226.794922,4238.205078,4221.794922,4217.948730,4211.794922,4218.974121,4164.615234,4193.461426,4163.589844,3376.000000,4.000000,91.000000,,,,0.000000,4.000000,4.000000,4.000000,4.000000,4.000000,4.000000,4.000000,4.000000,4.000000,4.000000,4.000000,4.000000,4.000000,4.000000,100.000000,,,,,,,,,,,,,,,,
1645708781.250008,1645708781.265841,248.000000,0.000000,4923.846191,4186.153809,4214.615234,4201.922852,4225.512695,4233.461426,4240.384766,4224.871582,4221.282227,4216.794922,4224.102539,4170.641113,4196.666504,4168.461426,3472.000000,4.000000,91.000000,,,,0.000000,4.000000,4.000000,4.000000,4.000000,4.000000,4.000000,4.000000,4.000000,4.000000,4.000000,4.000000,4.000000,4.000000,4.000000,100.000000,,,,,,,,,,,,,,,,
1645708781.253948,1645708781.269781,249.000000,0.000000,4954.615234,4191.794922,4222.563965,4206.282227,4234.230957,4238.974121,4242.436035,4227.820313,4224.615234,4224.358887,4229.871582,4179.615234,4203.461426,4175.512695,3298.000000,4.000000,91.000000,,,,0.000000,4.000000,4.000000,4.000000,4.000000,4.000000,4.000000,4.000000,4.000000,4.000000,4.000000,4.000000,4.000000,4.000000,4.000000,100.000000,,,,,,,,,,,,,,,,
1645708781.257888,1645708781.273621,250.000000,0.000000,4958.205078,4195.641113,4228.077148,4208.974121,4237.436035,4239.358887,4243.461426,4230.897461,4226.666504,4230.769043,4233.589844,4187.692383,4211.153809,4181.025879,2471.000000,4.000000,91.000000,,,,0.000000,4.000000,4.000000,4.000000,4.000000,4.000000,4.000000,4.000000,4.000000,4.000000,4.000000,4.000000,4.000000,4.000000,4.000000,100.000000,,,,,,,,,,,,,,,,
1645708781.261828,1645708781.277561,251.000000,0.000000,4917.436035,4195.512695,4228.846191,4208.717773,4233.974121,4233.717773,4242.436035,4234.102539,4227.051270,4232.436035,4233.974121,4191.538574,4216.153809,4181.922852,3376.000000,4.000000,91.000000,,,,0.000000,4.000000,4.000000,4.000000,4.000000,4.000000,4.000000,4.000000,4.000000,4.000000,4.000000,4.000000,4.000000,4.000000,4.000000,100.000000,,,,,,,,,,,,,,,,
1645708781.265768,1645708781.281502,252.000000,0.000000,4845.256348,4192.563965,4225.384766,4206.794922,4227.307617,4226.025879,4239.230957,4236.025879,4226.538574,4229.743652,4231.666504,4189.743652,4216.410156,4177.820313,3472.000000,4.000000,91.000000,,,,0.000000,4.000000,4.000000,4.000000,4.000000,4.000000,4.000000,4.000000,4.000000,4.000000,4.000000,4.000000,4.000000,4.000000,4.000000,100.000000,,,,,,,,,,,,,,,,
1645708781.269709,1645708781.285442,253.000000,0.000000,4767.692383,4188.846191,4220.256348,4204.615234,4221.282227,4221.410156,4234.487305,4235.897461,4227.051270,4225.256348,4227.948730,4183.846191,4212.051270,4170.769043,3298.000000,4.000000,91.000000,,,,0.000000,4.000000,4.000000,4.000000,4.000000,4.000000,4.000000,4.000000,4.000000,4.000000,4.000000,4.000000,4.000000,4.000000,4.000000,100.000000,,,,,,,,,,,,,,,,
1645708781.273648,1645708781.289382,254.000000,0.000000,4703.333496,4185.384766,4216.025879,4202.820313,4218.205078,4221.922852,4229.743652,4233.846191,4229.102539,4220.641113,4223.461426,4176.538574,4204.871582,4163.077148,2471.000000,4.000000,91.000000,,,,0.000000,4.000000,4.000000,4.000000,4.000000,4.000000,4.000000,4.000000,4.000000,4.000000,4.000000,4.000000,4.000000,4.000000,4.000000,100.000000,1.000000,58.333332,0.000000,4.000000,4.000000,4.000000,3.000000,4.000000,4.000000,4.000000,4.000000,4.000000,4.000000,4.000000,4.000000,4.000000
1645708781.277588,1645708781.293322,255.000000,0.000000,4654.871582,4182.436035,4213.717773,4200.769043,4218.333496,4225.897461,4227.307617,4231.538574,4231.538574,4216.538574,4218.333496,4170.256348,4197.563965,4156.282227,114.000000,4.000000,91.000000,,,,0.000000,4.000000,4.000000,4.000000,4.000000,4.000000,4.000000,4.000000,4.000000,4.000000,4.000000,4.000000,4.000000,4.000000,4.000000,100.000000,,,,,,,,,,,,,,,,
1645708781.281528,1645708781.297262,0.000000,0.000000,4614.871582,4180.256348,4212.179688,4198.461426,4221.410156,4229.615234,4228.589844,4230.641113,4232.563965,4213.589844,4213.333496,4165.897461,4192.820313,4151.794922,3255.000000,4.000000,91.000000,,,,0.000000,4.000000,4.000000,4.000000,4.000000,4.000000,4.000000,4.000000,4.000000,4.000000,4.000000,4.000000,4.000000,4.000000,4.000000,100.000000,,,,,,,,,,,,,,,,
1645708781.285468,1645708781.301202,1.000000,0.000000,4574.230957,4179.358887,4209.615234,4197.436035,4226.153809,4230.641113,4231.794922,4230.897461,4231.538574,4212.179688,4210.000000,4162.563965,4191.666504,4150.128418,3416.000000,4.000000,91.000000,,,,0.000000,4.000000,4.000000,4.000000,4.000000,4.000000,4.000000,4.000000,4.000000,4.000000,4.000000,4.000000,4.000000,4.000000,4.000000,100.000000,,,,,,,,,,,,,,,,
1645708781.289409,1645708781.305142,2.000000,0.000000,4525.256348,4179.358887,4205.128418,4198.333496,4230.256348,4228.846191,4233.974121,4231.538574,4228.717773,4211.794922,4208.461426,4159.615234,4193.333496,4150.897461,3220.000000,4.000000,91.000000,,,,0.000000,4.000000,4.000000,4.000000,4.000000,4.000000,4.000000,4.000000,4.000000,4.000000,4.000000,4.000000,4.000000,4.000000,4.000000,100.000000,,,,,,,,,,,,,,,,
1645708781.293348,1645708781.309082,3.000000,0.000000,4472.820313,4178.333496,4199.871582,4200.128418,4230.384766,4225.128418,4232.692383,4231.538574,4225.128418,4210.897461,4207.563965,4156.666504,4195.000000,4151.666504,3385.000000,4.000000,91.000000,,,,0.000000,4.000000,4.000000,4.000000,4.000000,4.000000,4.000000,4.000000,4.000000,4.000000,4.000000,4.000000,4.000000,4.000000,4.000000,100.000000,,,,,,,,,,,,,,,,
1645708781.297289,1645708781.313022,4.000000,0.000000,4446.794922,4175.384766,4196.666504,4200.512695,4224.743652,4221.153809,4229.230957,4231.025879,4222.179688,4208.333496,4205.384766,4154.487305,4194.743652,4149.743652,3223.000000,4.000000,91.000000,,,,0.000000,4.000000,4.000000,4.000000,4.000000,4.000000,4.000000,4.000000,4.000000,4.000000,4.000000,4.000000,4.000000,4.000000,4.000000,100.000000,,,,,,,,,,,,,,,,
1645708781.301229,1645708781.316963,5.000000,0.000000,4477.179688,4171.794922,4197.051270,4198.333496,4215.000000,4218.461426,4226.922852,4230.384766,4220.769043,4205.641113,4202.179688,4153.846191,4192.948730,4145.512695,3418.000000,4.000000,91.000000,,,,0.000000,4.000000,4.000000,4.000000,4.000000,4.000000,4.000000,4.000000,4.000000,4.000000,4.000000,4.000000,4.000000,4.000000,4.000000,100.000000,,,,,,,,,,,,,,,,
1645708781.305169,1645708781.320903,6.000000,0.000000,4538.461426,4169.615234,4199.487305,4194.871582,4206.153809,4218.205078,4228.333496,4230.128418,4220.897461,4205.128418,4199.743652,4155.641113,4191.666504,4141.922852,2907.000000,4.000000,91.000000,,,,0.000000,4.000000,4.000000,4.000000,4.000000,4.000000,4.000000,4.000000,4.000000,4.000000,4.000000,4.000000,4.000000,4.000000,4.000000,100.000000,,,,,,,,,,,,,,,,
1645708781.309109,1645708781.324843,7.000000,0.000000,4545.256348,4170.000000,4201.025879,4192.692383,4202.563965,4220.128418,4232.436035,4230.256348,4222.179688,4207.436035,4199.615234,4158.974121,4192.563965,4141.538574,2816.000000,4.000000,91.000000,,,,0.000000,4.000000,4.000000,4.000000,4.000000,4.000000,4.000000,4.000000,4.000000,4.000000,4.000000,4.000000,4.000000,4.000000,4.000000,100.000000,,,,,,,,,,,,,,,,
1645708781.313049,1645708781.328783,8.000000,0.000000,4442.948730,4171.922852,4199.615234,4192.179688,4204.743652,4222.563965,4236.153809,4230.641113,4223.333496,4210.384766,4200.897461,4161.666504,4195.128418,4144.102539,1276.000000,4.000000,91.000000,,,,0.000000,4.000000,4.000000,4.000000,4.000000,4.000000,4.000000,4.000000,4.000000,4.000000,4.000000,4.000000,4.000000,4.000000,4.000000,100.000000,,,,,,,,,,,,,,,,
1645708781.316989,1645708781.332723,9.000000,0.000000,4308.974121,4173.461426,4195.897461,4191.922852,4209.102539,4223.205078,4237.051270,4230.897461,4223.717773,4211.025879,4201.538574,4161.922852,4196.666504,4147.563965,3287.000000,4.000000,91.000000,,,,0.000000,4.000000,4.000000,4.000000,4.000000,4.000000,4.000000,4.000000,4.000000,4.000000,4.000000,4.000000,4.000000,4.000000,4.000000,100.000000,,,,,,,,,,,,,,,,
1645708781.320929,1645708781.336663,10.000000,0.000000,4328.846191,4174.230957,4192.051270,4191.025879,4212.820313,4221.922852,4235.128418,4230.769043,4223.461426,4208.974121,4200.384766,4159.871582,4196.025879,4150.000000,2464.000000,4.000000,91.000000,,,,0.000000,4.000000,4.000000,4.000000,4.000000,4.000000,4.000000,4.000000,4.000000,4.000000,4.000000,4.000000,4.000000,4.000000,4.000000,100.000000,,,,,,,,,,,,,,,,
1645708781.324869,1645708781.340603,11.000000,0.000000,4634.230957,4175.641113,4190.256348,4190.512695,4215.897461,4221.153809,4232.051270,4230.769043,4223.717773,4207.051270,4199.230957,4157.563965,4194.102539,4152.051270,3114.000000,4.000000,91.000000,,,,0.000000,4.000000,4.000000,4.000000,4.000000,4.000000,4.000000,4.000000,4.000000,4.000000,4.000000,4.000000,4.000000,4.000000,4.000000,100.000000,,,,,,,,,,,,,,,,
1645708781.328809,1645708781.344443,12.000000,0.000000,5148.077148,4179.102539,4191.666504,4192.179688,4220.769043,4223.333496,4230.384766,4231.282227,4225.384766,4208.077148,4200.897461,4157.820313,4193.589844,4154.487305,3442.000000,4.000000,91.000000,,,,0.000000,4.000000,4.000000,4.000000,4.000000,4.000000,4.000000,4.000000,4.000000,4.000000,4.000000,4.000000,4.000000,4.000000,4.000000,100.000000,,,,,,,,,,,,,,,,
1645708781.332749,1645708781.348383,13.000000,0.000000,5591.794922,4183.333496,4195.769043,4195.512695,4226.666504,4227.948730,4231.153809,4232.307617,4227.563965,4211.538574,4205.128418,4160.769043,4195.128418,4156.794922,3284.000000,4.000000,91.000000,,,,0.000000,4.000000,4.000000,4.000000,4.000000,4.000000,4.000000,4.000000,4.000000,4.000000,4.000000,4.000000,4.000000,4.000000,4.000000,100.000000,,,,,,,,,,,,,,,,
1645708781.336689,1645708781.352324,14.000000,0.000000,5668.974121,4185.512695,4200.512695,4198.333496,4228.974121,4231.025879,4233.077148,4232.820313,4228.461426,4213.461426,4208.205078,4164.487305,4197.692383,4157.436035,2464.000000,4.000000,91.000000,,,,0.000000,4.000000,4.000000,4.000000,4.000000,4.000000,4.000000,4.000000,4.000000,4.000000,4.000000,4.000000,4.000000,4.000000,4.000000,100.000000,,,,,,,,,,,,,,,,
1645708781.340629,1645708781.356264,15.000000,0.000000,5282.948730,4184.102539,4203.846191,4198.717773,4223.333496,4229.230957,4234.615234,4232.307617,4227.179688,4210.769043,4206.922852,4166.666504,4199.102539,4155.512695,3114.000000,4.000000,91.000000,,,,0.000000,4.000000,4.000000,4.000000,4.000000,4.000000,4.000000,4.000000,4.000000,4.000000,4.000000,4.000000,4.000000,4.000000,4.000000,100.000000,,,,,,,,,,,,,,,,
1645708781.344569,1645708781.360204,16.000000,0.000000,4615.000000,4180.641113,4204.230957,4197.692383,4212.307617,4223.717773,4234.230957,4231.410156,4224.487305,4204.743652,4202.820313,4167.307617,4198.333496,4152.692383,3442.000000,4.000000,91.000000,,,,0.000000,4.000000,4.000000,4.000000,4.000000,4.000000,4.000000,4.000000,4.000000,4.000000,4.000000,4.000000,4.000000,4.000000,4.000000,100.000000,,,,,,,,,,,,,,,,
1645708781.348509,1645708781.364144,17.000000,0.000000,4003.718018,4178.717773,4202.563965,4197.820313,4203.846191,4218.589844,4231.922852,4231.410156,4222.436035,4200.128418,4200.641113,4167.692383,4196.282227,4151.538574,3284.000000,4.000000,91.000000,,,,0.000000,4.000000,4.000000,4.000000,4.000000,4.000000,4.000000,4.000000,4.000000,4.000000,4.000000,4.000000,4.000000,4.000000,4.000000,100.000000,,,,,,,,,,,,,,,,
1645708781.352449,1645708781.368084,18.000000,0.000000,3714.615479,4180.256348,4200.641113,4200.128418,4203.846191,4216.538574,4228.846191,4232.692383,4222.820313,4199.871582,4202.692383,4168.717773,4194.358887,4153.077148,2464.000000,4.000000,91.000000,,,,0.000000,4.000000,4.000000,4.000000,4.000000,4.000000,4.000000,4.000000,4.000000,4.000000,4.000000,4.000000,4.000000,4.000000,4.000000,100.000000,,,,,,,,,,,,,,,,
1645708781.356389,1645708781.372024,19.000000,0.000000,3776.281982,4184.102539,4200.256348,4202.563965,4210.256348,4216.538574,4226.282227,4234.230957,4225.384766,4202.948730,4206.794922,4169.487305,4193.077148,4155.769043,3114.000000,4.000000,91.000000,,,,0.000000,4.000000,4.000000,4.000000,4.000000,4.000000,4.000000,4.000000,4.000000,4.000000,4.000000,4.000000,4.000000,4.000000,4.000000,100.000000,,,,,,,,,,,,,,,,
1645708781.360329,1645708781.375964,20.000000,0.000000,3998.205078,4187.307617,4201.282227,4202.563965,4215.769043,4216.025879,4225.256348,4235.256348,4227.820313,4205.769043,4208.717773,4168.589844,4192.051270,4157.051270,3442.000000,4.000000,91.000000,,,,0.000000,4.000000,4.000000,4.000000,4.000000,4.000000,4.000000,4.000000,4.000000,4.000000,4.000000,4.000000,4.000000,4.000000,4.000000,100.000000,,,,,,,,,,,,,,,,
1645708781.364269,1645708781.379904,21.000000,0.000000,4140.641113,4187.692383,4202.692383,4200.000000,4216.153809,4214.358887,4226.282227,4234.871582,4228.589844,4206.666504,4207.051270,4165.641113,4191.666504,4155.769043,3284.000000,4.000000,91.000000,,,,0.000000,4.000000,4.000000,4.000000,4.000000,4.000000,4.000000,4.000000,4.000000,4.000000,4.000000,4.000000,4.000000,4.000000,4.000000,100.000000,,,,,,,,,,,,,,,,
1645708781.368209,1645708781.383844,22.000000,0.000000,4095.256348,4185.128418,4202.692383,4196.922852,4212.563965,4212.948730,4228.077148,4233.333496,4227.563965,4205.897461,4203.589844,4162.179688,4192.436035,4152.820313,2464.000000,4.000000,91.000000,,,,0.000000,4.000000,4.000000,4.000000,4.000000,4.000000,4.000000,4.000000,4.000000,4.000000,4.000000,4.000000,4.000000,4.000000,4.000000,100.000000,,,,,,,,,,,,,,,,
1645708781.372149,1645708781.387785,23.000000,0.000000,3934.871826,4181.666504,4200.384766,4195.512695,4209.230957,4212.563965,4228.589844,4231.153809,4225.641113,4205.000000,4200.641113,4159.871582,4194.743652,4150.000000,3114.000000,4.000000,91.000000,,,,0.000000,4.000000,4.000000,4.000000,4.000000,4.000000,4.000000,4.000000,4.000000,4.000000,4.000000,4.000000,4.000000,4.000000,4.000000,100.000000,,,,,,,,,,,,,,,,
1645708781.376089,1645708781.391725,24.000000,0.000000,3812.692383,4179.358887,4196.922852,4195.512695,4208.461426,4212.436035,4226.922852,4228.717773,4223.717773,4203.589844,4198.717773,4158.205078,4196.922852,4148.461426,3442.000000,4.000000,91.000000,,,,0.000000,4.000000,4.000000,4.000000,4.000000,4.000000,4.000000,4.000000,4.000000,4.000000,4.000000,4.000000,4.000000,4.000000,4.000000,100.000000,,,,,,,,,,,,,,,,
1645708781.380029,1645708781.395665,25.000000,0.000000,3815.000000,4179.743652,4194.358887,4195.897461,4210.000000,4212.051270,4224.615234,4226.666504,4222.563965,4201.794922,4197.051270,4156.410156,4197.692383,4148.846191,3284.000000,4.000000,91.000000,,,,0.000000,4.000000,4.000000,4.000000,4.000000,4.000000,4.000000,4.000000,4.000000,4.000000,4.000000,4.000000,4.000000,4.000000,4.000000,100.000000,,,,,,,,,,,,,,,,
1645708781.383969,1645708781.399605,26.000000,0.000000,3899.230713,4183.333496,4194.230957,4196.410156,4212.436035,4211.922852,4224.358887,4225.769043,4222.436035,4201.282227,4196.025879,4154.615234,4197.179688,4151.153809,2464.000000,4.000000,91.000000,,,,0.000000,4.000000,4.000000,4.000000,4.000000,4.000000,4.000000,4.000000,4.000000,4.000000,4.000000,4.000000,4.000000,4.000000,4.000000,100.000000,,,,,,,,,,,,,,,,
1645708781.387909,1645708781.403545,27.000000,0.000000,3963.718018,4188.717773,4196.666504,4197.563965,4214.871582,4212.948730,4227.820313,4226.794922,4223.589844,4204.487305,4196.538574,4154.230957,4196.666504,4154.743652,3114.000000,4.000000,91.000000,,,,0.000000,4.000000,4.000000,4.000000,4.000000,4.000000,4.000000,4.000000,4.000000,4.000000,4.000000,4.000000,4.000000,4.000000,4.000000,100.000000,,,,,,,,,,,,,,,,
1645708781.391849,1645708781.407485,28.000000,0.000000,3960.512939,4192.692383,4199.358887,4198.846191,4216.666504,4215.128418,4233.333496,4229.358887,4225.641113,4210.512695,4198.717773,4155.512695,4196.922852,4157.948730,3442.000000,4.000000,91.000000,,,,0.000000,4.000000,4.000000,4.000000,4.000000,4.000000,4.000000,4.000000,4.000000,4.000000,4.000000,4.000000,4.000000,4.000000,4.000000,100.000000,,,,,,,,,,,,,,,,
1645708781.395789,1645708781.411425,29.000000,0.000000,3925.256348,4192.692383,4199.615234,4198.717773,4217.820313,4216.666504,4237.307617,4231.794922,4227.051270,4215.384766,4200.512695,4157.051270,4196.922852,4158.717773,3284.000000,4.000000,91.000000,,,,0.000000,4.000000,4.000000,4.000000,4.000000,4.000000,4.000000,4.000000,4.000000,4.000000,4.000000,4.000000,4.000000,4.000000,4.000000,100.000000,,,,,,,,,,,,,,,,
1645708781.399729,1645708781.415465,30.000000,0.000000,3909.487061,4189.102539,4196.666504,4196.922852,4219.102539,4217.051270,4237.307617,4232.436035,4226.922852,4215.256348,4200.897461,4157.436035,4195.769043,4157.051270,2464.000000,4.000000,91.000000,,,,0.000000,4.000000,4.000000,4.000000,4.000000,4.000000,4.000000,4.000000,4.000000,4.000000,4.000000,4.000000,4.000000,4.000000,4.000000,100.000000,,,,,,,,,,,,,,,,
1645708781.403669,1645708781.419405,31.000000,0.000000,3919.615479,4185.641113,4192.179688,4195.512695,4221.153809,4216.922852,4233.077148,4230.512695,4225.512695,4210.128418,4201.538574,4156.538574,4193.717773,4155.897461,3114.000000,4.000000,91.000000,,,,0.000000,4.000000,4.000000,4.000000,4.000000,4.000000,4.000000,4.000000,4.000000,4.000000,4.000000,4.000000,4.000000,4.000000,4.000000,100.000000,,,,,,,,,,,,,,,,
1645708781.407609,1645708781.423345,32.000000,0.000000,3929.871826,4185.000000,4189.230957,4196.153809,4221.025879,4216.410156,4226.666504,4226.410156,4223.717773,4203.846191,4203.974121,4156.025879,4191.410156,4158.205078,0.000000,4.000000,91.000000,,,,0.000000,4.000000,4.000000,4.000000,4.000000,4.000000,4.000000,4.000000,4.000000,4.000000,4.000000,4.000000,4.000000,4.000000,4.000000,100.000000,,,,,,,,,,,,,,,,
1645708781.411549,1645708781.427285,33.000000,0.000000,3926.025635,4185.512695,4189.487305,4197.692383,4213.077148,4213.846191,4220.512695,4221.666504,4222.692383,4200.128418,4207.948730,4156.794922,4189.230957,4163.461426,0.000000,4.000000,91.000000,,,,0.000000,4.000000,4.000000,4.000000,4.000000,4.000000,4.000000,4.000000,4.000000,4.000000,4.000000,4.000000,4.000000,4.000000,4.000000,100.000000,,,,,,,,,,,,,,,,
1645708781.415489,1645708781.431226,34.000000,0.000000,3916.538574,4182.436035,4192.307617,4196.794922,4195.128418,4208.077148,4216.666504,4218.333496,4222.051270,4199.743652,4209.871582,4159.102539,4186.538574,4168.205078,0.000000,4.000000,91.000000,,,,0.000000,4.000000,4.000000,4.000000,4.000000,4.000000,4.000000,4.000000,4.000000,4.000000,4.000000,4.000000,4.000000,4.000000,4.000000,100.000000,,,,,,,,,,,,,,,,
1645708781.419429,1645708781.435166,35.000000,0.000000,3912.051270,4174.871582,4196.666504,4192.563965,4175.641113,4201.025879,4216.666504,4218.205078,4221.410156,4201.025879,4208.205078,4162.820313,4183.589844,4169.615234,0.000000,4.000000,91.000000,,,,0.000000,4.000000,4.000000,4.000000,4.000000,4.000000,4.000000,4.000000,4.000000,4.000000,4.000000,4.000000,4.000000,4.000000,4.000000,100.000000,,,,,,,,,,,,,,,,
1645708781.423369,1645708781.439106,36.000000,0.000000,3912.307617,4168.205078,4201.410156,4188.077148,4169.102539,4197.563965,4220.256348,4221.666504,4220.897461,4203.205078,4205.384766,4167.563965,4181.410156,4168.461426,0.000000,4.000000,91.000000,,,,0.000000,4.000000,4.000000,4.000000,4.000000,4.000000,4.000000,4.000000,4.000000,4.000000,4.000000,4.000000,4.000000,4.000000,4.000000,100.000000,,,,,,,,,,,,,,,,
1645708781.427309,1645708781.443046,37.000000,0.000000,3913.461426,4169.871582,4206.025879,4188.205078,4184.230957,4201.025879,4225.897461,4226.922852,4221.538574,4206.538574,4205.128418,4172.948730,4181.025879,4168.461426,0.000000,4.000000,91.000000,,,,0.000000,4.000000,4.000000,4.000000,4.000000,4.000000,4.000000,4.000000,4.000000,4.000000,4.000000,4.000000,4.000000,4.000000,4.000000,100.000000,,,,,,,,,,,,,,,,
1645708781.431249,1645708781.446986,38.000000,0.000000,3916.538574,4182.436035,4210.256348,4195.000000,4214.102539,4209.230957,4230.128418,4230.897461,4223.589844,4210.384766,4208.205078,4177.563965,4181.794922,4171.794922,0.000000,4.000000,91.000000,,,,0.000000,4.000000,4.000000,4.000000,4.000000,4.000000,4.000000,4.000000,4.000000,4.000000,4.000000,4.000000,4.000000,4.000000,4.000000,100.000000,,,,,,,,,,,,,,,,
1645708781.435189,1645708781.450926,39.000000,0.000000,3923.589844,4200.128418,4214.230957,4205.641113,4240.897461,4216.153809,4230.641113,4231.666504,4225.512695,4213.205078,4211.538574,4179.743652,4182.051270,4177.179688,0.000000,4.000000,91.000000,,,,0.000000,4.000000,4.000000,4.000000,4.000000,4.000000,4.000000,4.000000,4.000000,4.000000,4.000000,4.000000,4.000000,4.000000,4.000000,100.000000,,,,,,,,,,,,,,,,
1645708781.439129,1645708781.454866,40.000000,0.000000,3930.897461,4213.589844,4217.948730,4214.487305,4250.512695,4217.820313,4228.077148,4229.743652,4225.641113,4213.717773,4211.922852,4179.358887,4180.769043,4181.922852,0.000000,4.000000,91.000000,,,,0.000000,4.000000,4.000000,4.000000,4.000000,4.000000,4.000000,4.000000,4.000000,4.000000,4.000000,4.000000,4.000000,4.000000,4.000000,100.000000,,,,,,,,,,,,,,,,
1645708781.443069,1645708781.458806,41.000000,0.000000,3932.692383,4217.436035,4221.153809,4218.333496,4242.436035,4215.512695,4225.256348,4227.563965,4223.846191,4212.563965,4209.615234,4178.333496,4178.205078,4183.717773,0.000000,4.000000,91.000000,,,,0.000000,4.000000,4.000000,4.000000,4.000000,4.000000,4.000000,4.000000,4.000000,4.000000,4.000000,4.000000,4.000000,4.000000,4.000000,100.000000,,,,,,,,,,,,,,,,
1645708781.447009,1645708781.462746,42.000000,0.000000,3928.589844,4213.077148,4222.692383,4217.563965,4227.307617,4213.333496,4224.358887,4227.179688,4221.922852,4211.666504,4208.077148,4178.846191,4176.410156,4182.820313,0.000000,4.000000,91.000000,,,,0.000000,4.000000,4.000000,4.000000,4.000000,4.000000,4.000000,4.000000,4.000000,4.000000,4.000000,4.000000,4.000000,4.000000,4.000000,100.000000,,,,,,,,,,,,,,,,
1645708781.450949,1645708781.466687,43.000000,0.000000,3924.230713,4206.025879,4222.436035,4214.615234,4216.282227,4214.102539,4225.384766,4227.948730,4221.666504,4212.051270,4210.128418,4180.897461,4176.922852,4180.256348,0.000000,4.000000,91.000000,,,,0.000000,4.000000,4.000000,4.000000,4.000000,4.000000,4.000000,4.000000,4.000000,4.000000,4.000000,4.000000,4.000000,4.000000,4.000000,100.000000,,,,,,,,,,,,,,,,
1645708781.454889,1645708781.470627,44.000000,0.000000,3924.358887,4200.897461,4221.794922,4211.794922,4213.077148,4216.153809,4226.666504,4228.205078,4223.461426,4212.307617,4213.846191,4182.692383,4178.589844,4176.922852,0.000000,4.000000,91.000000,,,,0.000000,4.000000,4.000000,4.000000,4.000000,4.000000,4.000000,4.000000,4.000000,4.000000,4.000000,4.000000,4.000000,4.000000,4.000000,100.000000,,,,,,,,,,,,,,,,
1645708781.458830,1645708781.474567,45.000000,0.000000,3927.820557,4198.589844,4222.179688,4210.128418,4213.974121,4216.666504,4226.538574,4226.794922,4225.512695,4211.153809,4214.871582,4181.922852,4179.102539,4173.846191,0.000000,4.000000,91.000000,,,,0.000000,4.000000,4.000000,4.000000,4.000000,4.000000,4.000000,4.000000,4.000000,4.000000,4.000000,4.000000,4.000000,4.000000,4.000000,100.000000,,,,,,,,,,,,,,,,
1645708781.462769,1645708781.478507,46.000000,0.000000,3929.487061,4197.307617,4222.563965,4209.230957,4213.717773,4214.230957,4224.358887,4224.743652,4226.282227,4208.846191,4211.153809,4178.077148,4176.153809,4171.794922,0.000000,4.000000,91.000000,,,,0.000000,4.000000,4.000000,4.000000,4.000000,4.000000,4.000000,4.000000,4.000000,4.000000,4.000000,4.000000,4.000000,4.000000,4.000000,100.000000,,,,,,,,,,,,,,,,
1645708781.466710,1645708781.482447,47.000000,0.000000,3926.153809,4194.871582,4220.769043,4208.589844,4210.512695,4210.384766,4220.769043,4223.077148,4225.384766,4207.179688,4203.846191,4172.948730,4170.000000,4171.025879,0.000000,4.000000,91.000000,,,,0.000000,4.000000,4.000000,4.000000,4.000000,4.000000,4.000000,4.000000,4.000000,4.000000,4.000000,4.000000,4.000000,4.000000,4.000000,100.000000,,,,,,,,,,,,,,,,
1645708781.470649,1645708781.486387,48.000000,0.000000,3918.974365,4190.769043,4215.512695,4206.666504,4206.538574,4208.077148,4217.820313,4221.794922,4223.589844,4206.538574,4196.922852,4168.077148,4163.333496,4170.512695,0.000000,4.000000,91.000000,,,,0.000000,4.000000,4.000000,4.000000,4.000000,4.000000,4.000000,4.000000,4.000000,4.000000,4.000000,4.000000,4.000000,4.000000,4.000000,100.000000,,,,,,,,,,,,,,,,
1645708781.474589,1645708781.490427,49.000000,0.000000,3911.923096,4185.897461,4209.102539,4202.563965,4205.897461,4208.846191,4217.436035,4221.025879,4221.794922,4206.410156,4193.333496,4164.230957,4159.487305,4169.102539,0.000000,4.000000,91.000000,,,,0.000000,4.000000,4.000000,4.000000,4.000000,4.000000,4.000000,4.000000,4.000000,4.000000,4.000000,4.000000,4.000000,4.000000,4.000000,100.000000,,,,,,,,,,,,,,,,
1645708781.478530,1645708781.494367,50.000000,0.000000,3908.718018,4182.820313,4205.769043,4197.307617,4210.128418,4212.948730,4220.384766,4221.282227,4220.897461,4205.641113,4193.974121,4162.051270,4160.128418,4166.794922,0.000000,4.000000,91.000000,,,,0.000000,4.000000,4.000000,4.000000,4.000000,4.000000,4.000000,4.000000,4.000000,4.000000,4.000000,4.000000,4.000000,4.000000,4.000000,100.000000,,,,,,,,,,,,,,,,
1645708781.482469,1645708781.498307,51.000000,0.000000,3909.871826,4183.333496,4207.948730,4193.846191,4217.436035,4218.461426,4225.769043,4222.692383,4221.282227,4205.000000,4198.461426,4162.051270,4164.487305,4165.384766,0.000000,4.000000,91.000000,,,,0.000000,4.000000,4.000000,4.000000,4.000000,4.000000,4.000000,4.000000,4.000000,4.000000,4.000000,4.000000,4.000000,4.000000,4.000000,100.000000,,,,,,,,,,,,,,,,
1645708781.486410,1645708781.502247,52.000000,0.000000,3913.076904,4187.563965,4213.333496,4194.615234,4223.589844,4223.589844,4230.512695,4224.487305,4222.307617,4205.897461,4204.871582,4163.974121,4169.871582,4166.153809,0.000000,4.000000,91.000000,,,,0.000000,4.000000,4.000000,4.000000,4.000000,4.000000,4.000000,4.000000,4.000000,4.000000,4.000000,4.000000,4.000000,4.000000,4.000000,100.000000,,,,,,,,,,,,,,,,
1645708781.490350,1645708781.506187,53.000000,0.000000,3915.769287,4192.948730,4217.563965,4199.230957,4225.128418,4226.538574,4232.179688,4225.384766,4222.692383,4207.563965,4209.615234,4166.025879,4172.820313,4168.589844,0.000000,4.000000,91.000000,,,,0.000000,4.000000,4.000000,4.000000,4.000000,4.000000,4.000000,4.000000,4.000000,4.000000,4.000000,4.000000,4.000000,4.000000,4.000000,100.000000,,,,,,,,,,,,,,,,
1645708781.494290,1645708781.510128,54.000000,0.000000,3915.897461,4196.025879,4216.922852,4203.589844,4221.025879,4226.538574,4230.256348,4224.871582,4221.282227,4207.179688,4208.589844,4166.025879,4170.641113,4170.512695,0.000000,4.000000,91.000000,,,,0.000000,4.000000,4.000000,4.000000,4.000000,4.000000,4.000000,4.000000,4.000000,4.000000,4.000000,4.000000,4.000000,4.000000,4.000000,100.000000,,,,,,,,,,,,,,,,
1645708781.498230,1645708781.514068,55.000000,0.000000,3913.076904,4194.102539,4211.538574,4203.589844,4214.230957,4223.717773,4227.051270,4223.974121,4218.205078,4202.307617,4201.153809,4162.948730,4163.589844,4169.871582,0.000000,4.000000,91.000000,,,,0.000000,4.000000,4.000000,4.000000,4.000000,4.000000,4.000000,4.000000,4.000000,4.000000,4.000000,4.000000,4.000000,4.000000,4.000000,100.000000,,,,,,,,,,,,,,,,
1645708781.502170,1645708781.518008,56.000000,0.000000,3908.589844,4187.948730,4204.615234,4198.589844,4209.487305,4220.256348,4226.025879,4224.743652,4216.025879,4194.743652,4191.153809,4158.077148,4154.871582,4166.410156,0.000000,4.000000,91.000000,,,,0.000000,4.000000,4.000000,4.000000,4.000000,4.000000,4.000000,4.000000,4.000000,4.000000,4.000000,4.000000,4.000000,4.000000,4.000000,100.000000,,,,,,,,,,,,,,,,
1645708781.506110,1645708781.521948,57.000000,0.000000,3904.487061,4181.538574,4200.000000,4191.666504,4210.256348,4218.717773,4228.077148,4227.820313,4217.179688,4189.871582,4184.743652,4153.717773,4148.717773,4161.794922,0.000000,4.000000,91.000000,,,,0.000000,4.000000,4.000000,4.000000,4.000000,4.000000,4.000000,4.000000,4.000000,4.000000,4.000000,4.000000,4.000000,4.000000,4.000000,100.000000,,,,,,,,,,,,,,,,
1645708781.510050,1645708781.525888,58.000000,0.000000,3903.076904,4179.230957,4200.000000,4187.563965,4215.641113,4220.128418,4231.666504,4231.282227,4221.410156,4191.794922,4184.871582,4151.794922,4147.948730,4159.230957,0.000000,4.000000,91.000000,,,,0.000000,4.000000,4.000000,4.000000,4.000000,4.000000,4.000000,4.000000,4.000000,4.000000,4.000000,4.000000,4.000000,4.000000,4.000000,100.000000,,,,,,,,,,,,,,,,
1645708781.513990,1645708781.529828,59.000000,0.000000,3905.897461,4182.179688,4204.230957,4188.461426,4221.410156,4222.820313,4234.102539,4233.077148,4225.384766,4199.358887,4190.128418,4152.948730,4152.179688,4161.282227,0.000000,4.000000,91.000000,,,,0.000000,4.000000,4.000000,4.000000,4.000000,4.000000,4.000000,4.000000,4.000000,4.000000,4.000000,4.000000,4.000000,4.000000,4.000000,100.000000,,,,,,,,,,,,,,,,
1645708781.517930,1645708781.533768,60.000000,0.000000,3912.435791,4187.948730,4210.641113,4192.692383,4222.436035,4223.717773,4234.358887,4232.563965,4226.025879,4206.666504,4196.410156,4156.153809,4158.461426,4167.563965,0.000000,4.000000,91.000000,,,,0.000000,4.000000,4.000000,4.000000,4.000000,4.000000,4.000000,4.000000,4.000000,4.000000,4.000000,4.000000,4.000000,4.000000,4.000000,100.000000,,,,,,,,,,,,,,,,
1645708781.521870,1645708781.537708,61.000000,0.000000,3920.000000,4193.717773,4216.282227,4197.563965,4216.922852,4221.666504,4232.820313,4230.897461,4223.717773,4208.461426,4200.897461,4160.256348,4163.846191,4173.974121,0.000000,4.000000,91.000000,,,,0.000000,4.000000,4.000000,4.000000,4.000000,4.000000,4.000000,4.000000,4.000000,4.000000,4.000000,4.000000,4.000000,4.000000,4.000000,100.000000,,,,,,,,,,,,,,,,
1645708781.525810,1645708781.541648,62.000000,0.000000,3925.384521,4198.205078,4219.230957,4201.922852,4207.307617,4218.077148,4230.641113,4228.717773,4221.538574,4203.461426,4203.205078,4163.717773,4166.025879,4174.871582,0.000000,4.000000,91.000000,,,,0.000000,4.000000,4.000000,4.000000,4.000000,4.000000,4.000000,4.000000,4.000000,4.000000,4.000000,4.000000,4.000000,4.000000,4.000000,100.000000,,,,,,,,,,,,,,,,
1645708781.529750,1645708781.545589,63.000000,0.000000,3926.794922,4202.307617,4219.487305,4205.769043,4198.077148,4215.128418,4228.717773,4226.666504,4221.794922,4195.384766,4203.205078,4165.641113,4164.102539,4166.922852,0.000000,4.000000,91.000000,,,,0.000000,4.000000,4.000000,4.000000,4.000000,4.000000,4.000000,4.000000,4.000000,4.000000,4.000000,4.000000,4.000000,4.000000,4.000000,100.000000,,,,,,,,,,,,,,,,
1645708781.533690,1645708781.549529,64.000000,0.000000,3925.256348,4206.538574,4219.102539,4209.487305,4193.077148,4213.717773,4227.307617,4225.384766,4224.102539,4188.589844,4200.769043,4166.410156,4158.846191,4152.692383,0.000000,4.000000,91.000000,,,,0.000000,4.000000,4.000000,4.000000,4.000000,4.000000,4.000000,4.000000,4.000000,4.000000,4.000000,4.000000,4.000000,4.000000,4.000000,100.000000,,,,,,,,,,,,,,,,
1645708781.537630,1645708781.553469,65.000000,0.000000,3923.589844,4210.641113,4220.384766,4212.948730,4194.230957,4213.205078,4226.794922,4226.025879,4226.025879,4186.025879,4197.820313,4168.205078,4153.077148,4139.871582,0.000000,4.000000,91.000000,,,,0.000000,4.000000,4.000000,4.000000,4.000000,4.000000,4.000000,4.000000,4.000000,4.000000,4.000000,4.000000,4.000000,4.000000,4.000000,100.000000,,,,,,,,,,,,,,,,
1645708781.541570,1645708781.557409,66.000000,0.000000,3924.615479,4214.230957,4224.358887,4217.051270,4203.205078,4213.974121,4227.692383,4228.589844,4225.769043,4189.358887,4198.077148,4173.461426,4151.538574,4137.563965,0.000000,4.000000,91.000000,,,,0.000000,4.000000,4.000000,4.000000,4.000000,4.000000,4.000000,4.000000,4.000000,4.000000,4.000000,4.000000,4.000000,4.000000,4.000000,100.000000,,,,,,,,,,,,,,,,
1645708781.545510,1645708781.561449,67.000000,0.000000,3928.974365,4217.692383,4229.615234,4222.307617,4219.358887,4217.179688,4230.256348,4231.794922,4223.717773,4198.333496,4204.230957,4181.794922,4157.051270,4150.000000,0.000000,4.000000,91.000000,,,,0.000000,4.000000,4.000000,4.000000,4.000000,4.000000,4.000000,4.000000,4.000000,4.000000,4.000000,4.000000,4.000000,4.000000,4.000000,100.000000,,,,,,,,,,,,,,,,
1645708781.549450,1645708781.565389,68.000000,0.000000,3934.102539,4220.769043,4233.717773,4227.820313,4237.948730,4222.692383,4233.205078,4233.333496,4221.922852,4209.743652,4213.846191,4188.333496,4167.307617,4172.051270,0.000000,4.000000,91.000000,,,,0.000000,4.000000,4.000000,4.000000,4.000000,4.000000,4.000000,4.000000,4.000000,4.000000,4.000000,4.000000,4.000000,4.000000,4.000000,100.000000,,,,,,,,,,,,,,,,
1645708781.553390,1645708781.569329,69.000000,0.000000,3936.281982,4221.410156,4233.589844,4230.512695,4250.384766,4227.563965,4234.358887,4231.666504,4221.282227,4216.794922,4219.358887,4187.307617,4175.128418,4191.410156,0.000000,4.000000,91.000000,,,,0.000000,4.000000,4.000000,4.000000,4.000000,4.000000,4.000000,4.000000,4.000000,4.000000,4.000000,4.000000,4.000000,4.000000,4.000000,100.000000,,,,,,,,,,,,,,,,
1645708781.557330,1645708781.573269,70.000000,0.000000,3933.333252,4217.948730,4227.307617,4227.179688,4248.717773,4228.461426,4232.179688,4226.922852,4220.769043,4213.846191,4214.358887,4176.794922,4175.000000,4197.307617,0.000000,4.000000,91.000000,,,,0.000000,4.000000,4.000000,4.000000,4.000000,4.000000,4.000000,4.000000,4.000000,4.000000,4.000000,4.000000,4.000000,4.000000,4.000000,100.000000,,,,,,,,,,,,,,,,
1645708781.561270,1645708781.577209,71.000000,0.000000,3926.410156,4210.769043,4216.025879,4218.333496,4233.333496,4224.615234,4227.563965,4220.384766,4218.333496,4201.666504,4200.256348,4161.153809,4167.436035,4189.487305,0.000000,4.000000,91.000000,,,,0.000000,4.000000,4.000000,4.000000,4.000000,4.000000,4.000000,4.000000,4.000000,4.000000,4.000000,4.000000,4.000000,4.000000,4.000000,100.000000,,,,,,,,,,,,,,,,
1645708781.565210,1645708781.581149,72.000000,0.000000,3920.000000,4203.974121,4204.102539,4208.333496,4213.589844,4219.487305,4222.820313,4213.974121,4213.974121,4188.205078,4186.666504,4148.589844,4159.871582,4177.563965,0.000000,4.000000,91.000000,,,,0.000000,4.000000,4.000000,4.000000,4.000000,4.000000,4.000000,4.000000,4.000000,4.000000,4.000000,4.000000,4.000000,4.000000,4.000000,100.000000,,,,,,,,,,,,,,,,
1645708781.569150,1645708781.585089,73.000000,0.000000,3917.820557,4201.410156,4196.282227,4202.436035,4201.922852,4216.922852,4219.871582,4210.512695,4210.256348,4183.333496,4183.846191,4145.512695,4160.000000,4173.589844,0.000000,4.000000,91.000000,,,,0.000000,4.000000,4.000000,4.000000,4.000000,4.000000,4.000000,4.000000,4.000000,4.000000,4.000000,4.000000,4.000000,4.000000,4.000000,100.000000,,,,,,,,,,,,,,,,
1645708781.573090,1645708781.589030,74.000000,0.000000,3920.897461,4203.717773,4195.128418,4201.794922,4203.846191,4218.589844,4219.358887,4212.179688,4210.128418,4191.538574,4194.615234,4152.307617,4169.871582,4181.282227,0.000000,4.000000,91.000000,,,,0.000000,4.000000,4.000000,4.000000,4.000000,4.000000,4.000000,4.000000,4.000000,4.000000,4.000000,4.000000,4.000000,4.000000,4.000000,100.000000,,,,,,,,,,,,,,,,
1645708781.577030,1645708781.592970,75.000000,0.000000,3926.025635,4207.179688,4199.615234,4203.589844,4214.230957,4222.179688,4220.512695,4218.717773,4214.615234,4207.563965,4211.922852,4163.205078,4184.487305,4194.871582,0.000000,4.000000,91.000000,,,,0.000000,4.000000,4.000000,4.000000,4.000000,4.000000,4.000000,4.000000,4.000000,4.000000,4.000000,4.000000,4.000000,4.000000,4.000000,100.000000,,,,,,,,,,,,,,,,
1645708781.580970,1645708781.596910,76.000000,0.000000,3929.358887,4207.051270,4205.256348,4203.846191,4222.948730,4224.871582,4222.692383,4227.051270,4222.051270,4221.922852,4225.256348,4170.897461,4195.897461,4204.487305,0.000000,4.000000,91.000000,,,,0.000000,4.000000,4.000000,4.000000,4.000000,4.000000,4.000000,4.000000,4.000000,4.000000,4.000000,4.000000,4.000000,4.000000,4.000000,100.000000,,,,,,,,,,,,,,,,
1645708781.584910,1645708781.600850,77.000000,0.000000,3928.718018,4201.538574,4207.436035,4201.153809,4222.563965,4226.153809,4225.256348,4232.692383,4229.487305,4228.333496,4228.846191,4171.794922,4199.230957,4205.769043,0.000000,4.000000,91.000000,,,,0.000000,4.000000,4.000000,4.000000,4.000000,4.000000,4.000000,4.000000,4.000000,4.000000,4.000000,4.000000,4.000000,4.000000,4.000000,100.000000,,,,,,,,,,,,,,,,
1645708781.588850,1645708781.604790,78.000000,0.000000,3925.512939,4192.307617,4205.000000,4196.666504,4212.948730,4226.922852,4227.436035,4233.589844,4233.589844,4227.051270,4225.000000,4167.820313,4195.641113,4201.666504,0.000000,4.000000,91.000000,,,,0.000000,4.000000,4.000000,4.000000,4.000000,4.000000,4.000000,4.000000,4.000000,4.000000,4.000000,4.000000,4.000000,4.000000,4.000000,100.000000,,,,,,,,,,,,,,,,
1645708781.592790,1645708781.608730,79.000000,0.000000,3922.564209,4182.563965,4200.128418,4191.922852,4199.743652,4227.179688,4228.077148,4231.153809,4233.333496,4222.563965,4220.384766,4163.974121,4190.000000,4198.461426,0.000000,4.000000,91.000000,,,,0.000000,4.000000,4.000000,4.000000,4.000000,4.000000,4.000000,4.000000,4.000000,4.000000,4.000000,4.000000,4.000000,4.000000,4.000000,100.000000,,,,,,,,,,,,,,,,
1645708781.596730,1645708781.612670,80.000000,0.000000,3921.538574,4175.641113,4197.051270,4188.461426,4190.512695,4226.282227,4226.538574,4229.102539,4229.871582,4219.230957,4219.871582,4163.846191,4187.051270,4199.230957,0.000000,4.000000,91.000000,,,,0.000000,4.000000,4.000000,4.000000,4.000000,4.000000,4.000000,4.000000,4.000000,4.000000,4.000000,4.000000,4.000000,4.000000,4.000000,100.000000,,,,,,,,,,,,,,,,
1645708781.600670,1645708781.616610,81.000000,0.000000,3922.820557,4173.717773,4198.589844,4187.051270,4190.512695,4224.743652,4223.717773,4229.487305,4226.282227,4220.000000,4224.615234,4167.563965,4188.077148,4202.563965,0.000000,4.000000,91.000000,,,,0.000000,4.000000,4.000000,4.000000,4.000000,4.000000,4.000000,4.000000,4.000000,4.000000,4.000000,4.000000,4.000000,4.000000,4.000000,100.000000,,,,,,,,,,,,,,,,
1645708781.604610,1645708781.620550,82.000000,0.000000,3925.256348,4177.436035,4204.102539,4189.102539,4201.794922,4224.230957,4221.666504,4231.922852,4225.256348,4225.512695,4232.436035,4173.077148,4191.666504,4205.897461,0.000000,4.000000,91.000000,,,,0.000000,4.000000,4.000000,4.000000,4.000000,4.000000,4.000000,4.000000,4.000000,4.000000,4.000000,4.000000,4.000000,4.000000,4.000000,100.000000,,,,,,,,,,,,,,,,
1645708781.608550,1645708781.624491,83.000000,0.000000,3927.820557,4184.487305,4210.769043,4193.589844,4221.025879,4226.794922,4222.436035,4234.230957,4227.307617,4234.487305,4240.512695,4178.461426,4195.384766,4208.333496,0.000000,4.000000,91.000000,,,,0.000000,4.000000,4.000000,4.000000,4.000000,4.000000,4.000000,4.000000,4.000000,4.000000,4.000000,4.000000,4.000000,4.000000,4.000000,100.000000,,,,,,,,,,,,,,,,
1645708781.612490,1645708781.628431,84.000000,0.000000,3929.358887,4190.256348,4215.897461,4197.307617,4238.974121,4231.025879,4226.538574,4235.000000,4230.512695,4242.948730,4246.153809,4182.307617,4197.563965,4209.615234,0.000000,4.000000,91.000000,,,,0.000000,4.000000,4.000000,4.000000,4.000000,4.000000,4.000000,4.000000,4.000000,4.000000,4.000000,4.000000,4.000000,4.000000,4.000000,100.000000,,,,,,,,,,,,,,,,
