title:Alex-rOvZImMv2ATfY2SP5d8EKQ, start timestamp:1645710522.028064, stop timestamp:1645710547.976766, headset type:EPOCPLUS, headset serial:3B9AEBFF, headset firmware:626, channels:55, sampling rate:eeg_256, samples:6584      , version:2.1, 
Timestamp,EEG.Counter,EEG.Interpolated,EEG.AF3,EEG.F7,EEG.F3,EEG.FC5,EEG.T7,EEG.P7,EEG.O1,EEG.O2,EEG.P8,EEG.T8,EEG.FC6,EEG.F4,EEG.F8,EEG.AF4,EEG.RawCq,EEG.Battery,EEG.BatteryPercent,MarkerIndex,MarkerType,MarkerValueInt,EEG.MarkerHardware,CQ.AF3,CQ.F7,CQ.F3,CQ.FC5,CQ.T7,CQ.P7,CQ.O1,CQ.O2,CQ.P8,CQ.T8,CQ.FC6,CQ.F4,CQ.F8,CQ.AF4,CQ.Overall,EQ.SampleRateQuality,EQ.OVERALL,EQ.AF3,EQ.F7,EQ.F3,EQ.FC5,EQ.T7,EQ.P7,EQ.O1,EQ.O2,EQ.P8,EQ.T8,EQ.FC6,EQ.F4,EQ.F8,EQ.AF4
1645710522.028064,103.000000,0.000000,4238.461426,4233.589844,4218.846191,4244.358887,4230.769043,4223.589844,4218.846191,4209.487305,4215.000000,4213.461426,4248.205078,4166.922852,4178.974121,4215.384766,0.000000,4.000000,86.000000,,,,0.000000,4.000000,4.000000,4.000000,4.000000,4.000000,4.000000,4.000000,4.000000,4.000000,4.000000,4.000000,4.000000,4.000000,4.000000,100.000000,,,,,,,,,,,,,,,,
1645710522.032104,104.000000,0.000000,4234.487305,4235.256348,4218.461426,4243.205078,4229.615234,4222.179688,4217.948730,4206.794922,4213.205078,4210.512695,4247.563965,4165.897461,4176.922852,4216.794922,0.000000,4.000000,86.000000,,,,0.000000,4.000000,4.000000,4.000000,4.000000,4.000000,4.000000,4.000000,4.000000,4.000000,4.000000,4.000000,4.000000,4.000000,4.000000,100.000000,,,,,,,,,,,,,,,,
1645710522.036044,105.000000,0.000000,4228.846191,4232.692383,4216.794922,4240.769043,4227.436035,4219.743652,4214.102539,4203.333496,4212.692383,4210.128418,4246.666504,4164.102539,4173.077148,4213.974121,0.000000,4.000000,86.000000,,,,0.000000,4.000000,4.000000,4.000000,4.000000,4.000000,4.000000,4.000000,4.000000,4.000000,4.000000,4.000000,4.000000,4.000000,4.000000,100.000000,,,,,,,,,,,,,,,,
1645710522.039984,106.000000,0.000000,4227.179688,4227.436035,4215.897461,4239.358887,4225.000000,4216.922852,4209.615234,4202.563965,4214.102539,4212.307617,4246.153809,4164.102539,4170.128418,4210.128418,0.000000,4.000000,86.000000,,,,0.000000,4.000000,4.000000,4.000000,4.000000,4.000000,4.000000,4.000000,4.000000,4.000000,4.000000,4.000000,4.000000,4.000000,4.000000,100.000000,,,,,,,,,,,,,,,,
1645710522.043924,107.000000,0.000000,4230.384766,4223.077148,4217.179688,4240.769043,4224.487305,4215.000000,4207.051270,4204.615234,4217.051270,4216.153809,4247.436035,4166.282227,4170.256348,4209.230957,0.000000,4.000000,86.000000,,,,0.000000,4.000000,4.000000,4.000000,4.000000,4.000000,4.000000,4.000000,4.000000,4.000000,4.000000,4.000000,4.000000,4.000000,4.000000,100.000000,,,,,,,,,,,,,,,,
1645710522.047864,108.000000,0.000000,4234.615234,4223.077148,4220.384766,4244.230957,4227.436035,4215.512695,4208.077148,4207.051270,4220.641113,4220.512695,4251.538574,4170.256348,4174.230957,4212.820313,0.000000,4.000000,86.000000,,,,0.000000,4.000000,4.000000,4.000000,4.000000,4.000000,4.000000,4.000000,4.000000,4.000000,4.000000,4.000000,4.000000,4.000000,4.000000,100.000000,,,,,,,,,,,,,,,,
1645710522.051904,109.000000,0.000000,4236.025879,4227.563965,4223.461426,4247.051270,4232.436035,4218.077148,4211.153809,4207.179688,4222.692383,4222.820313,4256.666504,4173.846191,4179.615234,4218.589844,0.000000,4.000000,86.000000,,,,0.000000,4.000000,4.000000,4.000000,4.000000,4.000000,4.000000,4.000000,4.000000,4.000000,4.000000,4.000000,4.000000,4.000000,4.000000,100.000000,,,,,,,,,,,,,,,,
1645710522.055844,110.000000,0.000000,4234.871582,4233.077148,4224.615234,4246.282227,4235.000000,4219.743652,4213.589844,4204.743652,4221.538574,4220.128418,4258.461426,4174.487305,4182.307617,4221.794922,0.000000,4.000000,86.000000,,,,0.000000,4.000000,4.000000,4.000000,4.000000,4.000000,4.000000,4.000000,4.000000,4.000000,4.000000,4.000000,4.000000,4.000000,4.000000,100.000000,,,,,,,,,,,,,,,,
1645710522.059784,111.000000,0.000000,4233.461426,4235.256348,4223.589844,4241.025879,4232.692383,4218.205078,4213.205078,4201.410156,4217.307617,4211.922852,4254.230957,4171.410156,4180.256348,4219.102539,0.000000,4.000000,86.000000,,,,0.000000,4.000000,4.000000,4.000000,4.000000,4.000000,4.000000,4.000000,4.000000,4.000000,4.000000,4.000000,4.000000,4.000000,4.000000,100.000000,,,,,,,,,,,,,,,,
1645710522.063724,112.000000,0.000000,4232.563965,4233.205078,4221.538574,4234.230957,4227.179688,4213.974121,4210.512695,4199.102539,4212.051270,4202.563965,4246.538574,4166.282227,4175.128418,4211.794922,0.000000,4.000000,86.000000,,,,0.000000,4.000000,4.000000,4.000000,4.000000,4.000000,4.000000,4.000000,4.000000,4.000000,4.000000,4.000000,4.000000,4.000000,4.000000,100.000000,,,,,,,,,,,,,,,,
1645710522.067664,113.000000,0.000000,4230.897461,4229.743652,4220.384766,4230.000000,4223.205078,4210.256348,4207.948730,4198.974121,4208.846191,4198.589844,4241.025879,4161.794922,4171.666504,4204.487305,0.000000,4.000000,86.000000,,,,0.000000,4.000000,4.000000,4.000000,4.000000,4.000000,4.000000,4.000000,4.000000,4.000000,4.000000,4.000000,4.000000,4.000000,4.000000,100.000000,,,,,,,,,,,,,,,,
1645710522.071605,114.000000,0.000000,4228.077148,4228.205078,4220.512695,4230.512695,4223.333496,4209.487305,4207.307617,4201.153809,4208.461426,4202.948730,4241.922852,4159.871582,4172.948730,4201.538574,0.000000,4.000000,86.000000,,,,0.000000,4.000000,4.000000,4.000000,4.000000,4.000000,4.000000,4.000000,4.000000,4.000000,4.000000,4.000000,4.000000,4.000000,4.000000,100.000000,,,,,,,,,,,,,,,,
1645710522.075545,115.000000,0.000000,4226.282227,4229.487305,4220.769043,4234.230957,4226.025879,4211.025879,4209.230957,4204.615234,4210.128418,4212.436035,4247.436035,4160.256348,4177.820313,4203.974121,0.000000,4.000000,86.000000,,,,0.000000,4.000000,4.000000,4.000000,4.000000,4.000000,4.000000,4.000000,4.000000,4.000000,4.000000,4.000000,4.000000,4.000000,4.000000,100.000000,,,,,,,,,,,,,,,,
1645710522.079485,116.000000,0.000000,4227.436035,4231.153809,4220.384766,4237.307617,4227.692383,4212.820313,4212.692383,4207.948730,4211.538574,4220.512695,4251.794922,4160.897461,4182.692383,4208.717773,0.000000,4.000000,86.000000,,,,0.000000,4.000000,4.000000,4.000000,4.000000,4.000000,4.000000,4.000000,4.000000,4.000000,4.000000,4.000000,4.000000,4.000000,4.000000,100.000000,,,,,,,,,,,,,,,,
1645710522.083425,117.000000,0.000000,4230.384766,4231.538574,4219.358887,4238.205078,4227.307617,4213.717773,4216.282227,4209.230957,4212.436035,4223.589844,4251.794922,4160.769043,4185.641113,4212.307617,0.000000,4.000000,86.000000,,,,0.000000,4.000000,4.000000,4.000000,4.000000,4.000000,4.000000,4.000000,4.000000,4.000000,4.000000,4.000000,4.000000,4.000000,4.000000,100.000000,,,,,,,,,,,,,,,,
1645710522.087365,118.000000,0.000000,4231.282227,4230.897461,4218.717773,4238.846191,4226.922852,4215.128418,4218.974121,4208.205078,4213.846191,4223.717773,4249.487305,4160.512695,4187.820313,4213.333496,0.000000,4.000000,86.000000,,,,0.000000,4.000000,4.000000,4.000000,4.000000,4.000000,4.000000,4.000000,4.000000,4.000000,4.000000,4.000000,4.000000,4.000000,4.000000,100.000000,,,,,,,,,,,,,,,,
1645710522.091305,119.000000,0.000000,4228.846191,4230.512695,4219.615234,4241.666504,4228.717773,4217.692383,4220.256348,4206.153809,4217.051270,4224.743652,4249.358887,4161.666504,4191.282227,4213.333496,0.000000,4.000000,86.000000,,,,0.000000,4.000000,4.000000,4.000000,4.000000,4.000000,4.000000,4.000000,4.000000,4.000000,4.000000,4.000000,4.000000,4.000000,4.000000,100.000000,,,,,,,,,,,,,,,,
1645710522.095245,120.000000,0.000000,4225.897461,4231.410156,4221.666504,4246.410156,4232.307617,4220.769043,4219.615234,4205.384766,4220.897461,4228.205078,4253.333496,4164.615234,4196.922852,4214.871582,0.000000,4.000000,86.000000,,,,0.000000,4.000000,4.000000,4.000000,4.000000,4.000000,4.000000,4.000000,4.000000,4.000000,4.000000,4.000000,4.000000,4.000000,4.000000,100.000000,,,,,,,,,,,,,,,,
1645710522.099185,121.000000,0.000000,4225.897461,4232.692383,4223.333496,4249.358887,4235.000000,4222.307617,4217.563965,4206.922852,4223.461426,4232.307617,4259.358887,4167.563965,4203.461426,4218.846191,0.000000,4.000000,86.000000,,,,0.000000,4.000000,4.000000,4.000000,4.000000,4.000000,4.000000,4.000000,4.000000,4.000000,4.000000,4.000000,4.000000,4.000000,4.000000,100.000000,,,,,,,,,,,,,,,,
1645710522.103125,122.000000,0.000000,4228.589844,4233.717773,4223.333496,4247.820313,4234.871582,4221.666504,4215.256348,4209.615234,4222.948730,4234.615234,4263.846191,4168.461426,4208.589844,4223.205078,0.000000,4.000000,86.000000,,,,0.000000,4.000000,4.000000,4.000000,4.000000,4.000000,4.000000,4.000000,4.000000,4.000000,4.000000,4.000000,4.000000,4.000000,4.000000,100.000000,,,,,,,,,,,,,,,,
1645710522.107165,123.000000,0.000000,4230.897461,4234.230957,4222.051270,4242.563965,4232.948730,4219.871582,4213.717773,4211.153809,4220.256348,4233.974121,4265.256348,4166.794922,4211.282227,4225.256348,0.000000,4.000000,86.000000,,,,0.000000,4.000000,4.000000,4.000000,4.000000,4.000000,4.000000,4.000000,2.000000,4.000000,4.000000,4.000000,4.000000,4.000000,4.000000,83.333336,,,,,,,,,,,,,,,,
1645710522.111105,124.000000,0.000000,4230.256348,4234.230957,4220.128418,4237.179688,4231.153809,4218.589844,4213.205078,4209.743652,4217.051270,4231.410156,4263.717773,4163.974121,4211.153809,4222.948730,0.000000,4.000000,86.000000,,,,0.000000,4.000000,4.000000,4.000000,4.000000,4.000000,4.000000,4.000000,2.000000,4.000000,4.000000,4.000000,4.000000,4.000000,4.000000,83.333336,,,,,,,,,,,,,,,,
1645710522.115046,125.000000,0.000000,4227.820313,4232.948730,4217.820313,4234.230957,4230.256348,4217.307617,4213.077148,4206.025879,4215.000000,4228.077148,4259.487305,4161.666504,4209.102539,4217.051270,0.000000,4.000000,86.000000,,,,0.000000,4.000000,4.000000,4.000000,4.000000,4.000000,4.000000,4.000000,2.000000,4.000000,4.000000,4.000000,4.000000,4.000000,4.000000,83.333336,,,,,,,,,,,,,,,,
1645710522.118986,126.000000,0.000000,4225.897461,4229.871582,4214.871582,4233.589844,4229.358887,4215.128418,4212.692383,4202.436035,4214.230957,4224.487305,4253.461426,4160.769043,4206.282227,4211.025879,0.000000,4.000000,86.000000,,,,0.000000,4.000000,4.000000,4.000000,4.000000,4.000000,4.000000,4.000000,2.000000,4.000000,4.000000,4.000000,4.000000,4.000000,4.000000,83.333336,,,,,,,,,,,,,,,,
1645710522.122926,127.000000,0.000000,4224.230957,4225.256348,4211.153809,4233.589844,4227.820313,4212.563965,4211.666504,4200.384766,4213.589844,4220.897461,4247.179688,4160.128418,4203.589844,4207.692383,0.000000,4.000000,86.000000,,,,0.000000,4.000000,4.000000,4.000000,4.000000,4.000000,4.000000,4.000000,2.000000,4.000000,4.000000,4.000000,4.000000,4.000000,4.000000,83.333336,,,,,,,,,,,,,,,,
1645710522.126866,128.000000,0.000000,4221.153809,4220.384766,4207.692383,4232.820313,4226.282227,4210.769043,4210.512695,4199.871582,4211.922852,4217.563965,4242.820313,4158.077148,4201.410156,4207.307617,3283.000000,4.000000,86.000000,,,,0.000000,4.000000,4.000000,4.000000,4.000000,4.000000,4.000000,4.000000,2.000000,4.000000,4.000000,4.000000,4.000000,4.000000,4.000000,83.333336,,,,,,,,,,,,,,,,
1645710522.130806,129.000000,0.000000,4216.538574,4216.794922,4205.000000,4231.153809,4225.256348,4210.512695,4209.230957,4199.615234,4209.487305,4214.102539,4240.769043,4153.461426,4199.230957,4207.051270,3377.000000,4.000000,86.000000,,,,0.000000,4.000000,4.000000,4.000000,4.000000,4.000000,4.000000,4.000000,2.000000,4.000000,4.000000,4.000000,4.000000,4.000000,4.000000,83.333336,,,,,,,,,,,,,,,,
1645710522.134746,130.000000,0.000000,4213.333496,4214.615234,4203.589844,4228.205078,4224.615234,4210.897461,4207.948730,4198.974121,4207.307617,4209.743652,4239.743652,4146.410156,4196.410156,4204.871582,2286.000000,4.000000,86.000000,,,,0.000000,4.000000,4.000000,4.000000,4.000000,4.000000,4.000000,4.000000,2.000000,4.000000,4.000000,4.000000,4.000000,4.000000,4.000000,83.333336,,,,,,,,,,,,,,,,
1645710522.138686,131.000000,0.000000,4214.487305,4213.205078,4203.333496,4224.871582,4223.461426,4211.153809,4206.794922,4198.589844,4206.666504,4205.256348,4238.461426,4139.487305,4193.205078,4200.641113,3442.000000,4.000000,86.000000,,,,0.000000,4.000000,4.000000,4.000000,4.000000,4.000000,4.000000,4.000000,2.000000,4.000000,4.000000,4.000000,4.000000,4.000000,4.000000,83.333336,,,,,,,,,,,,,,,,
1645710522.142626,132.000000,0.000000,4218.589844,4212.307617,4204.230957,4222.948730,4222.692383,4211.922852,4207.051270,4199.358887,4207.692383,4202.563965,4237.563965,4136.282227,4190.641113,4196.538574,3611.000000,4.000000,86.000000,,,,0.000000,4.000000,4.000000,4.000000,4.000000,4.000000,4.000000,4.000000,2.000000,4.000000,4.000000,4.000000,4.000000,4.000000,4.000000,83.333336,,,,,,,,,,,,,,,,
1645710522.146566,133.000000,0.000000,4221.538574,4212.436035,4206.282227,4224.871582,4223.461426,4214.230957,4209.487305,4201.025879,4209.743652,4204.230957,4238.333496,4138.333496,4190.384766,4194.743652,3362.000000,4.000000,86.000000,,,,0.000000,4.000000,4.000000,4.000000,4.000000,4.000000,4.000000,4.000000,2.000000,4.000000,4.000000,4.000000,4.000000,4.000000,4.000000,83.333336,,,,,,,,,,,,,,,,
1645710522.150507,134.000000,0.000000,4220.897461,4213.717773,4208.974121,4230.000000,4226.153809,4217.563965,4213.077148,4202.563965,4211.794922,4209.487305,4240.641113,4143.461426,4192.692383,4195.641113,3197.000000,4.000000,86.000000,,,,0.000000,4.000000,4.000000,4.000000,4.000000,4.000000,4.000000,4.000000,2.000000,4.000000,4.000000,4.000000,4.000000,4.000000,4.000000,83.333336,,,,,,,,,,,,,,,,
1645710522.154447,135.000000,0.000000,4218.589844,4215.128418,4211.410156,4234.487305,4228.461426,4219.358887,4215.641113,4203.589844,4212.563965,4214.358887,4241.922852,4148.077148,4195.769043,4198.333496,1108.000000,4.000000,86.000000,,,,0.000000,4.000000,4.000000,4.000000,4.000000,4.000000,4.000000,4.000000,2.000000,4.000000,4.000000,4.000000,4.000000,4.000000,4.000000,83.333336,,,,,,,,,,,,,,,,
1645710522.158387,136.000000,0.000000,4218.589844,4214.871582,4213.077148,4234.230957,4227.692383,4217.820313,4215.128418,4204.743652,4211.282227,4214.230957,4240.512695,4150.128418,4196.922852,4200.769043,1323.000000,4.000000,86.000000,,,,0.000000,4.000000,4.000000,4.000000,4.000000,4.000000,4.000000,4.000000,2.000000,4.000000,4.000000,4.000000,4.000000,4.000000,4.000000,83.333336,,,,,,,,,,,,,,,,
1645710522.162327,137.000000,0.000000,4221.666504,4212.692383,4214.487305,4229.102539,4224.102539,4213.846191,4212.051270,4206.922852,4208.974121,4208.846191,4237.179688,4151.410156,4196.282227,4201.666504,2926.000000,4.000000,86.000000,,,,0.000000,4.000000,4.000000,4.000000,4.000000,4.000000,4.000000,4.000000,2.000000,4.000000,4.000000,4.000000,4.000000,4.000000,4.000000,83.333336,,,,,,,,,,,,,,,,
1645710522.166267,138.000000,0.000000,4224.743652,4210.641113,4216.410156,4223.974121,4220.897461,4210.897461,4208.846191,4209.358887,4207.436035,4202.948730,4235.256348,4154.615234,4196.153809,4201.153809,2347.000000,4.000000,86.000000,,,,0.000000,4.000000,4.000000,4.000000,4.000000,4.000000,4.000000,4.000000,2.000000,4.000000,4.000000,4.000000,4.000000,4.000000,4.000000,83.333336,,,,,,,,,,,,,,,,
1645710522.170207,139.000000,0.000000,4224.743652,4211.282227,4218.974121,4223.589844,4221.410156,4211.538574,4207.436035,4210.769043,4207.948730,4201.538574,4236.666504,4160.000000,4198.717773,4200.256348,2731.000000,4.000000,86.000000,,,,0.000000,4.000000,4.000000,4.000000,4.000000,4.000000,4.000000,4.000000,2.000000,4.000000,4.000000,4.000000,4.000000,4.000000,4.000000,83.333336,,,,,,,,,,,,,,,,
1645710522.174147,140.000000,0.000000,4222.820313,4214.743652,4221.410156,4228.717773,4225.384766,4215.384766,4208.333496,4210.897461,4210.128418,4205.769043,4240.256348,4165.000000,4203.717773,4200.641113,3243.000000,4.000000,86.000000,,,,0.000000,4.000000,4.000000,4.000000,4.000000,4.000000,4.000000,4.000000,2.000000,4.000000,4.000000,4.000000,4.000000,4.000000,4.000000,83.333336,,,,,,,,,,,,,,,,
1645710522.178187,141.000000,0.000000,4222.051270,4218.589844,4222.820313,4235.384766,4228.974121,4219.102539,4210.000000,4210.641113,4212.051270,4211.794922,4242.948730,4166.922852,4207.820313,4202.692383,2986.000000,4.000000,86.000000,,,,0.000000,4.000000,4.000000,4.000000,4.000000,4.000000,4.000000,4.000000,2.000000,4.000000,4.000000,4.000000,4.000000,4.000000,4.000000,83.333336,,,,,,,,,,,,,,,,
1645710522.182127,142.000000,0.000000,4224.230957,4220.000000,4223.461426,4238.846191,4229.102539,4219.487305,4211.282227,4210.512695,4212.179688,4214.615234,4242.948730,4164.743652,4207.563965,4205.769043,2347.000000,4.000000,86.000000,,,,0.000000,4.000000,4.000000,4.000000,4.000000,4.000000,4.000000,4.000000,2.000000,4.000000,4.000000,4.000000,4.000000,4.000000,4.000000,83.333336,,,,,,,,,,,,,,,,
1645710522.186067,143.000000,0.000000,4226.922852,4218.974121,4223.461426,4237.563965,4226.410156,4216.794922,4211.794922,4209.358887,4210.000000,4211.922852,4240.897461,4160.000000,4203.205078,4207.692383,2731.000000,4.000000,86.000000,,,,0.000000,4.000000,4.000000,4.000000,4.000000,4.000000,4.000000,4.000000,2.000000,4.000000,4.000000,4.000000,4.000000,4.000000,4.000000,83.333336,,,,,,,,,,,,,,,,
1645710522.190007,144.000000,0.000000,4226.922852,4217.563965,4222.179688,4233.717773,4224.102539,4213.461426,4211.922852,4206.282227,4206.410156,4205.897461,4238.717773,4155.128418,4197.948730,4206.538574,3243.000000,4.000000,86.000000,,,,0.000000,4.000000,4.000000,4.000000,4.000000,4.000000,4.000000,4.000000,2.000000,4.000000,4.000000,4.000000,4.000000,4.000000,4.000000,83.333336,,,,,,,,,,,,,,,,
1645710522.193948,145.000000,0.000000,4224.487305,4218.077148,4219.230957,4230.512695,4224.487305,4211.666504,4211.666504,4201.794922,4202.820313,4200.256348,4236.922852,4151.538574,4195.769043,4202.179688,2986.000000,4.000000,86.000000,,,,0.000000,4.000000,4.000000,4.000000,4.000000,4.000000,4.000000,4.000000,2.000000,4.000000,4.000000,4.000000,4.000000,4.000000,4.000000,83.333336,,,,,,,,,,,,,,,,
1645710522.197888,146.000000,0.000000,4222.820313,4220.897461,4215.000000,4229.615234,4227.436035,4211.922852,4210.769043,4198.077148,4200.769043,4197.820313,4235.512695,4149.615234,4197.563965,4197.179688,2347.000000,4.000000,86.000000,,,,0.000000,4.000000,4.000000,4.000000,4.000000,4.000000,4.000000,4.000000,2.000000,4.000000,4.000000,4.000000,4.000000,4.000000,4.000000,83.333336,,,,,,,,,,,,,,,,
1645710522.201828,147.000000,0.000000,4223.461426,4225.256348,4211.282227,4231.282227,4231.153809,4213.333496,4208.974121,4196.666504,4201.282227,4199.615234,4234.230957,4149.102539,4201.794922,4195.512695,2731.000000,4.000000,86.000000,,,,0.000000,4.000000,4.000000,4.000000,4.000000,4.000000,4.000000,4.000000,2.000000,4.000000,4.000000,4.000000,4.000000,4.000000,4.000000,83.333336,,,,,,,,,,,,,,,,
1645710522.205768,148.000000,0.000000,4224.871582,4229.871582,4209.487305,4234.615234,4234.487305,4214.487305,4206.794922,4196.538574,4204.102539,4204.743652,4233.846191,4149.487305,4206.282227,4199.102539,3243.000000,4.000000,86.000000,,,,0.000000,4.000000,4.000000,4.000000,4.000000,4.000000,4.000000,4.000000,2.000000,4.000000,4.000000,4.000000,4.000000,4.000000,4.000000,83.333336,,,,,,,,,,,,,,,,
1645710522.209708,149.000000,0.000000,4225.000000,4233.589844,4209.615234,4238.077148,4236.922852,4214.230957,4205.000000,4196.282227,4207.692383,4210.641113,4234.871582,4150.384766,4209.487305,4205.769043,2986.000000,4.000000,86.000000,,,,0.000000,4.000000,4.000000,4.000000,4.000000,4.000000,4.000000,4.000000,2.000000,4.000000,4.000000,4.000000,4.000000,4.000000,4.000000,83.333336,,,,,,,,,,,,,,,,
1645710522.213648,150.000000,0.000000,4224.743652,4235.000000,4211.282227,4239.615234,4237.563965,4212.692383,4203.974121,4195.384766,4209.230957,4213.333496,4236.282227,4150.769043,4210.641113,4211.410156,2347.000000,4.000000,86.000000,,,,0.000000,4.000000,4.000000,4.000000,4.000000,4.000000,4.000000,4.000000,2.000000,4.000000,4.000000,4.000000,4.000000,4.000000,4.000000,83.333336,,,,,,,,,,,,,,,,
1645710522.217588,151.000000,0.000000,4226.922852,4233.589844,4213.461426,4237.436035,4234.743652,4210.512695,4203.717773,4195.128418,4206.922852,4210.000000,4236.666504,4150.769043,4209.743652,4212.179688,2731.000000,4.000000,86.000000,,,,0.000000,4.000000,4.000000,4.000000,4.000000,4.000000,4.000000,4.000000,2.000000,4.000000,4.000000,4.000000,4.000000,4.000000,4.000000,83.333336,,,,,,,,,,,,,,,,
1645710522.221528,152.000000,0.000000,4231.922852,4230.256348,4215.897461,4232.436035,4228.846191,4209.102539,4204.615234,4196.025879,4201.666504,4201.794922,4235.384766,4150.897461,4207.436035,4208.717773,3243.000000,4.000000,86.000000,,,,0.000000,4.000000,4.000000,4.000000,4.000000,4.000000,4.000000,4.000000,2.000000,4.000000,4.000000,4.000000,4.000000,4.000000,4.000000,83.333336,,,,,,,,,,,,,,,,
1645710522.225468,153.000000,0.000000,4236.153809,4226.794922,4217.948730,4227.307617,4222.820313,4210.000000,4206.538574,4197.179688,4197.307617,4194.102539,4233.717773,4152.307617,4204.871582,4204.871582,2986.000000,4.000000,86.000000,,,,0.000000,4.000000,4.000000,4.000000,4.000000,4.000000,4.000000,4.000000,2.000000,4.000000,4.000000,4.000000,4.000000,4.000000,4.000000,83.333336,,,,,,,,,,,,,,,,
1645710522.229409,154.000000,0.000000,4235.512695,4224.102539,4219.743652,4224.871582,4220.384766,4213.333496,4208.974121,4197.436035,4196.922852,4192.307617,4233.333496,4155.641113,4203.333496,4204.871582,2347.000000,4.000000,86.000000,,,,0.000000,4.000000,4.000000,4.000000,4.000000,4.000000,4.000000,4.000000,2.000000,4.000000,4.000000,4.000000,4.000000,4.000000,4.000000,83.333336,,,,,,,,,,,,,,,,
1645710522.233349,155.000000,0.000000,4230.769043,4221.666504,4221.666504,4225.384766,4222.563965,4217.436035,4211.282227,4197.820313,4200.769043,4197.436035,4234.487305,4161.025879,4203.205078,4208.846191,2731.000000,4.000000,86.000000,,,,0.000000,4.000000,4.000000,4.000000,4.000000,4.000000,4.000000,4.000000,2.000000,4.000000,4.000000,4.000000,4.000000,4.000000,4.000000,83.333336,,,,,,,,,,,,,,,,
1645710522.237289,156.000000,0.000000,4226.666504,4218.461426,4224.358887,4227.051270,4226.922852,4220.000000,4213.461426,4200.128418,4205.512695,4205.000000,4235.769043,4167.051270,4203.974121,4213.974121,3243.000000,4.000000,86.000000,,,,0.000000,4.000000,4.000000,4.000000,4.000000,4.000000,4.000000,4.000000,2.000000,4.000000,4.000000,4.000000,4.000000,4.000000,4.000000,83.333336,,,,,,,,,,,,,,,,
1645710522.241329,157.000000,0.000000,4227.307617,4215.128418,4227.563965,4228.333496,4230.128418,4220.384766,4215.897461,4204.743652,4208.205078,4209.358887,4235.000000,4171.794922,4205.384766,4216.666504,2986.000000,4.000000,86.000000,,,,0.000000,4.000000,4.000000,4.000000,4.000000,4.000000,4.000000,4.000000,2.000000,4.000000,4.000000,4.000000,4.000000,4.000000,4.000000,83.333336,,,,,,,,,,,,,,,,
1645710522.245269,158.000000,0.000000,4231.025879,4213.974121,4230.128418,4229.743652,4231.153809,4220.384766,4218.974121,4209.358887,4208.205078,4208.717773,4232.307617,4172.820313,4207.179688,4215.384766,2347.000000,4.000000,86.000000,,,,0.000000,4.000000,4.000000,4.000000,4.000000,4.000000,4.000000,4.000000,2.000000,4.000000,4.000000,4.000000,4.000000,4.000000,4.000000,83.333336,,,,,,,,,,,,,,,,
1645710522.249209,159.000000,0.000000,4233.333496,4216.282227,4231.282227,4232.179688,4231.538574,4222.179688,4221.794922,4211.410156,4207.307617,4204.743652,4230.256348,4169.871582,4208.974121,4211.025879,2731.000000,4.000000,86.000000,1,1,3,0.000000,4.000000,4.000000,4.000000,4.000000,4.000000,4.000000,4.000000,2.000000,4.000000,4.000000,4.000000,4.000000,4.000000,4.000000,83.333336,,,,,,,,,,,,,,,,
1645710522.253149,160.000000,0.000000,4232.051270,4221.282227,4231.025879,4236.025879,4232.563965,4225.384766,4223.077148,4210.897461,4207.692383,4201.025879,4230.641113,4165.256348,4209.743652,4205.641113,3243.000000,4.000000,86.000000,,,,0.000000,4.000000,4.000000,4.000000,4.000000,4.000000,4.000000,4.000000,2.000000,4.000000,4.000000,4.000000,4.000000,4.000000,4.000000,83.333336,,,,,,,,,,,,,,,,
1645710522.257089,161.000000,0.000000,4229.487305,4226.025879,4229.871582,4240.897461,4233.717773,4227.307617,4222.051270,4209.743652,4209.487305,4198.974121,4233.077148,4161.794922,4208.717773,4201.922852,2986.000000,4.000000,86.000000,,,,0.000000,4.000000,4.000000,4.000000,4.000000,4.000000,4.000000,4.000000,2.000000,4.000000,4.000000,4.000000,4.000000,4.000000,4.000000,83.333336,,,,,,,,,,,,,,,,
1645710522.261029,162.000000,0.000000,4228.205078,4228.461426,4228.589844,4245.000000,4234.358887,4226.025879,4220.256348,4209.743652,4211.153809,4198.846191,4234.743652,4161.282227,4206.282227,4201.410156,2347.000000,4.000000,86.000000,,,,0.000000,4.000000,4.000000,4.000000,4.000000,4.000000,4.000000,4.000000,2.000000,4.000000,4.000000,4.000000,4.000000,4.000000,4.000000,83.333336,,,,,,,,,,,,,,,,
1645710522.264969,163.000000,0.000000,4227.820313,4228.333496,4227.179688,4247.307617,4235.256348,4222.820313,4219.487305,4210.384766,4211.153809,4200.128418,4233.974121,4162.692383,4204.230957,4202.948730,2731.000000,4.000000,86.000000,,,,0.000000,4.000000,4.000000,4.000000,4.000000,4.000000,4.000000,4.000000,2.000000,4.000000,4.000000,4.000000,4.000000,4.000000,4.000000,83.333336,,,,,,,,,,,,,,,,
1645710522.268910,164.000000,0.000000,4226.025879,4227.051270,4225.384766,4246.794922,4237.692383,4221.025879,4221.025879,4209.743652,4209.743652,4202.820313,4231.410156,4164.102539,4203.846191,4203.589844,3243.000000,4.000000,86.000000,,,,0.000000,4.000000,4.000000,4.000000,4.000000,4.000000,4.000000,4.000000,2.000000,4.000000,4.000000,4.000000,4.000000,4.000000,4.000000,83.333336,0.984375,75.000000,3.000000,4.000000,4.000000,4.000000,4.000000,4.000000,4.000000,2.000000,4.000000,4.000000,4.000000,4.000000,4.000000,4.000000
1645710522.272850,165.000000,0.000000,4222.563965,4225.384766,4222.820313,4243.077148,4240.769043,4222.051270,4223.333496,4206.794922,4208.077148,4205.897461,4227.948730,4163.461426,4205.000000,4201.666504,2986.000000,4.000000,86.000000,,,,0.000000,4.000000,4.000000,4.000000,4.000000,4.000000,4.000000,4.000000,2.000000,4.000000,4.000000,4.000000,4.000000,4.000000,4.000000,83.333336,,,,,,,,,,,,,,,,
1645710522.276790,166.000000,0.000000,4220.000000,4223.461426,4219.358887,4236.794922,4241.538574,4224.358887,4224.230957,4202.820313,4207.179688,4206.666504,4224.102539,4159.487305,4205.769043,4197.436035,2347.000000,4.000000,86.000000,,,,0.000000,4.000000,4.000000,4.000000,4.000000,4.000000,4.000000,4.000000,2.000000,4.000000,4.000000,4.000000,4.000000,4.000000,4.000000,83.333336,,,,,,,,,,,,,,,,
1645710522.280730,167.000000,0.000000,4219.743652,4220.512695,4214.358887,4230.128418,4238.205078,4225.000000,4221.922852,4199.487305,4207.051270,4203.205078,4219.871582,4152.436035,4205.000000,4193.589844,2731.000000,4.000000,86.000000,,,,0.000000,4.000000,4.000000,4.000000,4.000000,4.000000,4.000000,4.000000,2.000000,4.000000,4.000000,4.000000,4.000000,4.000000,4.000000,83.333336,,,,,,,,,,,,,,,,
1645710522.284670,168.000000,0.000000,4220.128418,4217.051270,4208.461426,4226.025879,4232.563965,4223.205078,4217.948730,4197.948730,4206.666504,4196.922852,4216.153809,4144.615234,4202.563965,4191.794922,3243.000000,4.000000,86.000000,,,,0.000000,4.000000,4.000000,4.000000,4.000000,4.000000,4.000000,4.000000,2.000000,4.000000,4.000000,4.000000,4.000000,4.000000,4.000000,83.333336,,,,,,,,,,,,,,,,
1645710522.288610,169.000000,0.000000,4218.205078,4214.615234,4202.948730,4226.410156,4228.461426,4220.769043,4214.102539,4197.948730,4205.769043,4192.051270,4215.000000,4139.102539,4200.384766,4192.436035,2986.000000,4.000000,86.000000,,,,0.000000,4.000000,4.000000,4.000000,4.000000,4.000000,4.000000,4.000000,2.000000,4.000000,4.000000,4.000000,4.000000,4.000000,4.000000,83.333336,,,,,,,,,,,,,,,,
1645710522.292550,170.000000,0.000000,4214.743652,4214.615234,4200.512695,4230.000000,4228.333496,4219.102539,4211.922852,4198.717773,4204.230957,4192.179688,4217.436035,4138.077148,4200.000000,4194.871582,2347.000000,4.000000,86.000000,,,,0.000000,4.000000,4.000000,4.000000,4.000000,4.000000,4.000000,4.000000,2.000000,4.000000,4.000000,4.000000,4.000000,4.000000,4.000000,83.333336,,,,,,,,,,,,,,,,
1645710522.296490,171.000000,0.000000,4214.102539,4217.436035,4203.077148,4234.102539,4230.384766,4217.948730,4211.282227,4199.615234,4203.333496,4197.436035,4222.436035,4142.179688,4202.051270,4198.974121,2731.000000,4.000000,86.000000,,,,0.000000,4.000000,4.000000,4.000000,4.000000,4.000000,4.000000,4.000000,2.000000,4.000000,4.000000,4.000000,4.000000,4.000000,4.000000,83.333336,,,,,,,,,,,,,,,,
1645710522.300430,172.000000,0.000000,4220.000000,4222.307617,4210.256348,4236.538574,4231.922852,4216.410156,4211.282227,4200.769043,4203.974121,4204.743652,4228.333496,4149.871582,4206.538574,4205.128418,3243.000000,4.000000,86.000000,,,,0.000000,4.000000,4.000000,4.000000,4.000000,4.000000,4.000000,4.000000,2.000000,4.000000,4.000000,4.000000,4.000000,4.000000,4.000000,83.333336,,,,,,,,,,,,,,,,
1645710522.304370,173.000000,0.000000,4230.128418,4227.820313,4219.743652,4237.948730,4232.307617,4215.128418,4211.922852,4201.922852,4207.179688,4211.538574,4233.717773,4158.846191,4212.563965,4212.820313,2986.000000,4.000000,86.000000,,,,0.000000,4.000000,4.000000,4.000000,4.000000,4.000000,4.000000,4.000000,2.000000,4.000000,4.000000,4.000000,4.000000,4.000000,4.000000,83.333336,,,,,,,,,,,,,,,,
1645710522.308410,174.000000,0.000000,4239.230957,4232.051270,4228.589844,4240.512695,4233.205078,4215.641113,4213.846191,4203.077148,4212.692383,4217.179688,4239.358887,4167.051270,4218.974121,4220.512695,2347.000000,4.000000,86.000000,,,,0.000000,4.000000,4.000000,4.000000,4.000000,4.000000,4.000000,4.000000,2.000000,4.000000,4.000000,4.000000,4.000000,4.000000,4.000000,83.333336,,,,,,,,,,,,,,,,
1645710522.312351,175.000000,0.000000,4243.846191,4233.846191,4235.128418,4245.128418,4235.512695,4218.974121,4217.051270,4205.000000,4218.589844,4222.948730,4245.641113,4173.717773,4224.230957,4226.794922,2731.000000,4.000000,86.000000,,,,0.000000,4.000000,4.000000,4.000000,4.000000,4.000000,4.000000,4.000000,2.000000,4.000000,4.000000,4.000000,4.000000,4.000000,4.000000,83.333336,,,,,,,,,,,,,,,,
1645710522.316291,176.000000,0.000000,4246.025879,4232.820313,4240.128418,4250.000000,4238.077148,4223.205078,4221.410156,4208.589844,4222.820313,4228.974121,4251.922852,4179.358887,4227.563965,4230.641113,3243.000000,4.000000,86.000000,,,,0.000000,4.000000,4.000000,4.000000,4.000000,4.000000,4.000000,4.000000,2.000000,4.000000,4.000000,4.000000,4.000000,4.000000,4.000000,83.333336,,,,,,,,,,,,,,,,
1645710522.320231,177.000000,0.000000,4248.846191,4230.384766,4244.487305,4252.307617,4239.102539,4226.153809,4225.641113,4213.974121,4224.230957,4234.358887,4257.563965,4184.102539,4228.589844,4232.051270,2986.000000,4.000000,86.000000,,,,0.000000,4.000000,4.000000,4.000000,4.000000,4.000000,4.000000,4.000000,2.000000,4.000000,4.000000,4.000000,4.000000,4.000000,4.000000,83.333336,,,,,,,,,,,,,,,,
1645710522.324171,178.000000,0.000000,4252.307617,4228.846191,4248.461426,4250.641113,4238.333496,4226.666504,4228.333496,4218.717773,4223.461426,4236.922852,4261.794922,4188.077148,4228.589844,4231.282227,2347.000000,4.000000,86.000000,,,,0.000000,4.000000,4.000000,4.000000,4.000000,4.000000,4.000000,4.000000,2.000000,4.000000,4.000000,4.000000,4.000000,4.000000,4.000000,83.333336,,,,,,,,,,,,,,,,
1645710522.328111,179.000000,0.000000,4252.563965,4229.743652,4250.769043,4245.897461,4236.666504,4226.025879,4228.974121,4220.384766,4221.666504,4235.897461,4264.230957,4190.128418,4228.461426,4228.205078,2731.000000,4.000000,86.000000,,,,0.000000,4.000000,4.000000,4.000000,4.000000,4.000000,4.000000,4.000000,2.000000,4.000000,4.000000,4.000000,4.000000,4.000000,4.000000,83.333336,,,,,,,,,,,,,,,,
1645710522.332051,180.000000,0.000000,4248.205078,4231.922852,4249.102539,4241.282227,4235.000000,4225.256348,4227.692383,4218.077148,4220.128418,4231.794922,4263.333496,4188.461426,4228.846191,4223.589844,3243.000000,4.000000,86.000000,,,,0.000000,4.000000,4.000000,4.000000,4.000000,4.000000,4.000000,4.000000,2.000000,4.000000,4.000000,4.000000,4.000000,4.000000,4.000000,83.333336,,,,,,,,,,,,,,,,
1645710522.335991,181.000000,0.000000,4241.794922,4232.948730,4243.461426,4239.230957,4233.077148,4224.871582,4225.384766,4213.717773,4218.589844,4225.897461,4257.948730,4182.692383,4228.333496,4218.461426,2986.000000,4.000000,86.000000,,,,0.000000,4.000000,4.000000,4.000000,4.000000,4.000000,4.000000,4.000000,2.000000,4.000000,4.000000,4.000000,4.000000,4.000000,4.000000,83.333336,,,,,,,,,,,,,,,,
1645710522.339931,182.000000,0.000000,4238.205078,4231.410156,4236.538574,4240.384766,4230.641113,4224.358887,4223.077148,4210.256348,4216.666504,4218.974121,4249.358887,4174.102539,4225.512695,4214.358887,2347.000000,4.000000,86.000000,,,,0.000000,4.000000,4.000000,4.000000,4.000000,4.000000,4.000000,4.000000,2.000000,4.000000,4.000000,4.000000,4.000000,4.000000,4.000000,83.333336,,,,,,,,,,,,,,,,
1645710522.343871,183.000000,0.000000,4238.589844,4228.205078,4232.307617,4243.846191,4228.974121,4223.974121,4222.179688,4209.102539,4214.487305,4212.436035,4241.410156,4165.384766,4220.897461,4211.794922,2731.000000,4.000000,86.000000,,,,0.000000,4.000000,4.000000,4.000000,4.000000,4.000000,4.000000,4.000000,2.000000,4.000000,4.000000,4.000000,4.000000,4.000000,4.000000,83.333336,,,,,,,,,,,,,,,,
1645710522.347812,184.000000,0.000000,4240.256348,4226.153809,4232.179688,4247.051270,4229.871582,4224.743652,4222.692383,4209.487305,4212.436035,4208.077148,4238.333496,4159.230957,4216.666504,4210.256348,3243.000000,4.000000,86.000000,,,,0.000000,4.000000,4.000000,4.000000,4.000000,4.000000,4.000000,4.000000,2.000000,4.000000,4.000000,4.000000,4.000000,4.000000,4.000000,83.333336,,,,,,,,,,,,,,,,
1645710522.351752,185.000000,0.000000,4240.512695,4226.794922,4233.846191,4247.307617,4233.461426,4226.538574,4223.461426,4209.615234,4210.512695,4206.922852,4240.897461,4156.794922,4215.512695,4209.230957,2986.000000,4.000000,86.000000,,,,0.000000,4.000000,4.000000,4.000000,4.000000,4.000000,4.000000,4.000000,2.000000,4.000000,4.000000,4.000000,4.000000,4.000000,4.000000,83.333336,,,,,,,,,,,,,,,,
1645710522.355692,186.000000,0.000000,4239.871582,4228.846191,4233.461426,4242.563965,4237.307617,4227.948730,4222.820313,4208.589844,4208.333496,4208.077148,4245.128418,4157.436035,4216.922852,4209.102539,2347.000000,4.000000,86.000000,,,,0.000000,4.000000,4.000000,4.000000,4.000000,4.000000,4.000000,4.000000,2.000000,4.000000,4.000000,4.000000,4.000000,4.000000,4.000000,83.333336,,,,,,,,,,,,,,,,
1645710522.359632,187.000000,0.000000,4239.615234,4229.230957,4229.102539,4234.102539,4238.461426,4227.307617,4220.512695,4207.051270,4205.256348,4209.358887,4246.794922,4159.230957,4218.205078,4210.512695,2731.000000,4.000000,86.000000,,,,0.000000,4.000000,4.000000,4.000000,4.000000,4.000000,4.000000,4.000000,2.000000,4.000000,4.000000,4.000000,4.000000,4.000000,4.000000,83.333336,,,,,,,,,,,,,,,,
1645710522.363572,188.000000,0.000000,4239.615234,4226.538574,4222.436035,4226.794922,4236.410156,4224.615234,4217.692383,4205.000000,4201.666504,4209.615234,4244.487305,4160.512695,4216.922852,4213.589844,3243.000000,4.000000,86.000000,,,,0.000000,4.000000,4.000000,4.000000,4.000000,4.000000,4.000000,4.000000,2.000000,4.000000,4.000000,4.000000,4.000000,4.000000,4.000000,83.333336,,,,,,,,,,,,,,,,
1645710522.367512,189.000000,0.000000,4237.820313,4222.436035,4216.538574,4225.641113,4232.820313,4221.410156,4215.769043,4202.948730,4198.846191,4209.615234,4240.769043,4160.384766,4213.717773,4217.179688,2986.000000,4.000000,86.000000,,,,0.000000,4.000000,4.000000,4.000000,4.000000,4.000000,4.000000,4.000000,2.000000,4.000000,4.000000,4.000000,4.000000,4.000000,4.000000,83.333336,,,,,,,,,,,,,,,,
1645710522.371452,190.000000,0.000000,4233.846191,4219.487305,4213.333496,4230.897461,4229.743652,4219.230957,4215.000000,4201.153809,4197.307617,4210.000000,4238.205078,4158.333496,4211.282227,4219.358887,2347.000000,4.000000,86.000000,,,,0.000000,4.000000,4.000000,4.000000,4.000000,4.000000,4.000000,4.000000,2.000000,4.000000,4.000000,4.000000,4.000000,4.000000,4.000000,83.333336,,,,,,,,,,,,,,,,
1645710522.375492,191.000000,0.000000,4230.769043,4219.102539,4212.179688,4237.179688,4227.820313,4218.205078,4214.230957,4200.641113,4197.051270,4210.384766,4236.922852,4155.128418,4211.282227,4218.846191,2731.000000,4.000000,86.000000,,,,0.000000,4.000000,4.000000,4.000000,4.000000,4.000000,4.000000,4.000000,2.000000,4.000000,4.000000,4.000000,4.000000,4.000000,4.000000,83.333336,,,,,,,,,,,,,,,,
1645710522.379432,192.000000,0.000000,4231.153809,4219.871582,4211.538574,4238.077148,4226.922852,4217.307617,4212.563965,4201.794922,4197.436035,4209.615234,4235.769043,4151.922852,4212.820313,4215.897461,3243.000000,4.000000,86.000000,,,,0.000000,4.000000,4.000000,4.000000,4.000000,4.000000,4.000000,4.000000,2.000000,4.000000,4.000000,4.000000,4.000000,4.000000,4.000000,83.333336,,,,,,,,,,,,,,,,
1645710522.383372,193.000000,0.000000,4234.102539,4220.384766,4211.025879,4232.307617,4226.794922,4215.897461,4210.641113,4203.589844,4197.948730,4208.333496,4235.128418,4150.128418,4213.717773,4212.692383,2986.000000,4.000000,86.000000,,,,0.000000,4.000000,4.000000,4.000000,4.000000,4.000000,4.000000,4.000000,2.000000,4.000000,4.000000,4.000000,4.000000,4.000000,4.000000,83.333336,,,,,,,,,,,,,,,,
1645710522.387412,194.000000,1.000000,4234.102539,4219.202148,4213.248047,4231.751953,4226.809082,4217.051270,4212.592773,4204.173828,4198.433105,4207.977051,4236.823242,4150.413086,4214.116699,4212.962891,2915.000000,4.000000,86.000000,,,,0.000000,4.000000,4.000000,4.000000,4.000000,4.000000,4.000000,4.000000,2.000000,4.000000,4.000000,4.000000,4.000000,4.000000,4.000000,83.333336,,,,,,,,,,,,,,,,
1645710522.391352,195.000000,1.000000,4234.102539,4218.020020,4215.470215,4231.196777,4226.823242,4218.205078,4214.543945,4204.757813,4198.917480,4207.621094,4238.518555,4150.698242,4214.515625,4213.233398,2844.000000,4.000000,86.000000,,,,0.000000,4.000000,4.000000,4.000000,4.000000,4.000000,4.000000,4.000000,2.000000,4.000000,4.000000,4.000000,4.000000,4.000000,4.000000,83.333336,,,,,,,,,,,,,,,,
1645710522.395293,196.000000,1.000000,4234.102539,4216.837402,4217.692383,4230.641113,4226.837402,4219.358887,4216.495605,4205.341797,4199.401855,4207.265137,4240.213867,4150.982910,4214.914551,4213.504395,2773.000000,4.000000,86.000000,2,1,3,0.000000,4.000000,4.000000,4.000000,4.000000,4.000000,4.000000,4.000000,2.000000,4.000000,4.000000,4.000000,4.000000,4.000000,4.000000,83.333336,,,,,,,,,,,,,,,,
1645710522.399233,197.000000,1.000000,4234.102539,4215.655273,4219.914551,4230.085449,4226.852051,4220.512695,4218.447266,4205.925781,4199.886230,4206.908691,4241.908691,4151.267578,4215.313477,4213.774902,2702.000000,4.000000,86.000000,,,,0.000000,4.000000,4.000000,4.000000,4.000000,4.000000,4.000000,4.000000,2.000000,4.000000,4.000000,4.000000,4.000000,4.000000,4.000000,83.333336,,,,,,,,,,,,,,,,
1645710522.403173,198.000000,1.000000,4234.102539,4214.473145,4222.136719,4229.529785,4226.866211,4221.666504,4220.398926,4206.509766,4200.370605,4206.552734,4243.604004,4151.552734,4215.712402,4214.045410,2631.000000,4.000000,86.000000,,,,0.000000,4.000000,4.000000,4.000000,4.000000,4.000000,4.000000,4.000000,2.000000,4.000000,4.000000,4.000000,4.000000,4.000000,4.000000,83.333336,,,,,,,,,,,,,,,,
1645710522.407113,199.000000,1.000000,4234.102539,4213.290527,4224.358887,4228.974121,4226.880371,4222.820313,4222.350586,4207.094238,4200.854492,4206.196777,4245.299316,4151.837402,4216.111328,4214.316406,2560.000000,4.000000,86.000000,,,,0.000000,4.000000,4.000000,4.000000,4.000000,4.000000,4.000000,4.000000,2.000000,4.000000,4.000000,4.000000,4.000000,4.000000,4.000000,83.333336,,,,,,,,,,,,,,,,
1645710522.411053,200.000000,1.000000,4234.102539,4212.108398,4226.581055,4228.418945,4226.894531,4223.974121,4224.301758,4207.678223,4201.338867,4205.840332,4246.994141,4152.122559,4216.509766,4214.586914,2489.000000,4.000000,86.000000,,,,0.000000,4.000000,4.000000,4.000000,4.000000,4.000000,4.000000,4.000000,2.000000,4.000000,4.000000,4.000000,4.000000,4.000000,4.000000,83.333336,,,,,,,,,,,,,,,,
1645710522.414993,201.000000,1.000000,4234.102539,4210.925781,4228.803223,4227.863281,4226.908691,4225.128418,4226.253418,4208.262207,4201.823242,4205.484375,4248.689453,4152.407227,4216.908691,4214.857422,2418.000000,4.000000,86.000000,,,,0.000000,4.000000,4.000000,4.000000,4.000000,4.000000,4.000000,4.000000,2.000000,4.000000,4.000000,4.000000,4.000000,4.000000,4.000000,83.333336,,,,,,,,,,,,,,,,
1645710522.418933,202.000000,0.000000,4234.102539,4209.743652,4231.025879,4227.307617,4226.922852,4226.282227,4228.205078,4208.846191,4202.307617,4205.128418,4250.384766,4152.692383,4217.307617,4215.128418,2347.000000,4.000000,86.000000,,,,0.000000,4.000000,4.000000,4.000000,4.000000,4.000000,4.000000,4.000000,2.000000,4.000000,4.000000,4.000000,4.000000,4.000000,4.000000,83.333336,,,,,,,,,,,,,,,,
1645710522.422873,203.000000,0.000000,4233.077148,4208.077148,4228.205078,4222.692383,4225.256348,4224.230957,4226.922852,4209.743652,4201.922852,4207.563965,4255.128418,4151.922852,4216.794922,4212.948730,2731.000000,4.000000,86.000000,,,,0.000000,4.000000,4.000000,4.000000,4.000000,4.000000,4.000000,4.000000,2.000000,4.000000,4.000000,4.000000,4.000000,4.000000,4.000000,83.333336,,,,,,,,,,,,,,,,
1645710522.426813,204.000000,0.000000,4233.717773,4208.717773,4225.897461,4221.666504,4223.077148,4221.153809,4224.487305,4211.282227,4202.436035,4212.307617,4257.179688,4153.077148,4216.794922,4209.871582,3243.000000,4.000000,86.000000,,,,0.000000,4.000000,4.000000,4.000000,4.000000,4.000000,4.000000,4.000000,2.000000,4.000000,4.000000,4.000000,4.000000,4.000000,4.000000,83.333336,,,,,,,,,,,,,,,,
1645710522.430754,205.000000,0.000000,4233.846191,4212.051270,4224.487305,4224.487305,4222.948730,4220.256348,4222.436035,4211.282227,4203.717773,4217.948730,4256.538574,4153.333496,4217.692383,4207.179688,2986.000000,4.000000,86.000000,,,,0.000000,4.000000,4.000000,4.000000,4.000000,4.000000,4.000000,4.000000,2.000000,4.000000,4.000000,4.000000,4.000000,4.000000,4.000000,83.333336,,,,,,,,,,,,,,,,
1645710522.434694,206.000000,0.000000,4233.589844,4217.051270,4223.846191,4230.256348,4225.512695,4222.051270,4221.282227,4209.487305,4204.615234,4221.282227,4254.358887,4150.769043,4217.948730,4206.153809,2347.000000,4.000000,86.000000,,,,0.000000,4.000000,4.000000,4.000000,4.000000,4.000000,4.000000,4.000000,2.000000,4.000000,4.000000,4.000000,4.000000,4.000000,4.000000,83.333336,,,,,,,,,,,,,,,,
1645710522.438534,207.000000,0.000000,4235.384766,4221.025879,4223.461426,4236.538574,4228.846191,4224.487305,4220.897461,4207.820313,4203.717773,4219.871582,4251.282227,4145.512695,4216.666504,4208.205078,2731.000000,4.000000,86.000000,,,,0.000000,4.000000,4.000000,4.000000,4.000000,4.000000,4.000000,4.000000,2.000000,4.000000,4.000000,4.000000,4.000000,4.000000,4.000000,83.333336,,,,,,,,,,,,,,,,
1645710522.442474,208.000000,0.000000,4239.487305,4222.692383,4222.307617,4241.025879,4230.769043,4225.769043,4220.769043,4207.820313,4201.282227,4215.128418,4248.846191,4139.871582,4214.102539,4212.948730,3243.000000,4.000000,86.000000,,,,0.000000,4.000000,4.000000,4.000000,4.000000,4.000000,4.000000,4.000000,2.000000,4.000000,4.000000,4.000000,4.000000,4.000000,4.000000,83.333336,,,,,,,,,,,,,,,,
1645710522.446414,209.000000,0.000000,4242.948730,4223.077148,4220.769043,4243.077148,4231.410156,4226.025879,4221.025879,4208.589844,4198.974121,4211.410156,4248.461426,4136.922852,4211.794922,4218.077148,2986.000000,4.000000,86.000000,,,,0.000000,4.000000,4.000000,4.000000,4.000000,4.000000,4.000000,4.000000,2.000000,4.000000,4.000000,4.000000,4.000000,4.000000,4.000000,83.333336,,,,,,,,,,,,,,,,
1645710522.450354,210.000000,0.000000,4242.948730,4224.230957,4219.487305,4242.820313,4232.436035,4226.666504,4221.282227,4208.205078,4198.589844,4211.538574,4250.641113,4137.563965,4211.410156,4220.256348,2347.000000,4.000000,86.000000,,,,0.000000,4.000000,4.000000,4.000000,4.000000,4.000000,4.000000,4.000000,2.000000,4.000000,4.000000,4.000000,4.000000,4.000000,4.000000,83.333336,,,,,,,,,,,,,,,,
1645710522.454294,211.000000,0.000000,4240.000000,4226.282227,4218.974121,4240.641113,4234.358887,4227.820313,4220.641113,4206.153809,4200.256348,4214.230957,4252.563965,4139.743652,4211.922852,4217.563965,2731.000000,4.000000,86.000000,,,,0.000000,4.000000,4.000000,4.000000,4.000000,4.000000,4.000000,4.000000,2.000000,4.000000,4.000000,4.000000,4.000000,4.000000,4.000000,83.333336,,,,,,,,,,,,,,,,
1645710522.458234,212.000000,0.000000,4237.051270,4227.563965,4218.333496,4237.051270,4235.641113,4227.436035,4217.948730,4203.717773,4201.666504,4215.128418,4251.025879,4140.000000,4211.282227,4211.666504,3243.000000,4.000000,86.000000,,,,0.000000,4.000000,4.000000,4.000000,4.000000,4.000000,4.000000,4.000000,2.000000,4.000000,4.000000,4.000000,4.000000,4.000000,4.000000,83.333336,,,,,,,,,,,,,,,,
1645710522.462174,213.000000,0.000000,4236.410156,4226.410156,4216.666504,4232.948730,4234.743652,4224.358887,4213.205078,4202.563965,4200.641113,4211.666504,4245.256348,4136.922852,4207.948730,4205.769043,2986.000000,4.000000,86.000000,,,,0.000000,4.000000,4.000000,4.000000,4.000000,4.000000,4.000000,4.000000,2.000000,4.000000,4.000000,4.000000,4.000000,4.000000,4.000000,83.333336,,,,,,,,,,,,,,,,
1645710522.466115,214.000000,0.000000,4236.922852,4223.461426,4213.846191,4230.000000,4231.922852,4219.230957,4207.948730,4202.563965,4197.051270,4205.641113,4237.692383,4132.051270,4202.948730,4202.948730,2347.000000,4.000000,86.000000,,,,0.000000,4.000000,4.000000,4.000000,4.000000,4.000000,4.000000,4.000000,2.000000,4.000000,4.000000,4.000000,4.000000,4.000000,4.000000,83.333336,,,,,,,,,,,,,,,,
1645710522.470055,215.000000,0.000000,4236.153809,4221.153809,4211.025879,4229.487305,4228.974121,4214.743652,4204.615234,4202.692383,4193.205078,4201.153809,4232.436035,4128.717773,4198.589844,4204.615234,2731.000000,4.000000,86.000000,,,,0.000000,4.000000,4.000000,4.000000,4.000000,4.000000,4.000000,4.000000,2.000000,4.000000,4.000000,4.000000,4.000000,4.000000,4.000000,83.333336,,,,,,,,,,,,,,,,
1645710522.473995,216.000000,0.000000,4234.230957,4221.025879,4209.487305,4230.512695,4227.179688,4212.436035,4204.487305,4202.051270,4191.538574,4201.153809,4231.922852,4129.230957,4196.922852,4209.487305,3243.000000,4.000000,86.000000,,,,0.000000,4.000000,4.000000,4.000000,4.000000,4.000000,4.000000,4.000000,2.000000,4.000000,4.000000,4.000000,4.000000,4.000000,4.000000,83.333336,,,,,,,,,,,,,,,,
1645710522.477935,217.000000,0.000000,4233.461426,4222.436035,4210.000000,4230.512695,4225.641113,4211.794922,4206.410156,4200.897461,4193.205078,4205.384766,4235.641113,4132.820313,4198.589844,4214.743652,2986.000000,4.000000,86.000000,,,,0.000000,4.000000,4.000000,4.000000,4.000000,4.000000,4.000000,4.000000,2.000000,4.000000,4.000000,4.000000,4.000000,4.000000,4.000000,83.333336,,,,,,,,,,,,,,,,
1645710522.481875,218.000000,0.000000,4235.128418,4222.820313,4211.410156,4227.563965,4223.974121,4211.666504,4208.717773,4200.641113,4196.538574,4211.410156,4241.153809,4137.563965,4202.563965,4217.820313,2347.000000,4.000000,86.000000,,,,0.000000,4.000000,4.000000,4.000000,4.000000,4.000000,4.000000,4.000000,2.000000,4.000000,4.000000,4.000000,4.000000,4.000000,4.000000,83.333336,,,,,,,,,,,,,,,,
1645710522.485815,219.000000,0.000000,4237.179688,4221.025879,4212.436035,4222.948730,4222.563965,4211.922852,4210.000000,4201.538574,4199.871582,4217.051270,4245.641113,4141.025879,4207.307617,4217.692383,2731.000000,4.000000,86.000000,,,,0.000000,4.000000,4.000000,4.000000,4.000000,4.000000,4.000000,4.000000,2.000000,4.000000,4.000000,4.000000,4.000000,4.000000,4.000000,83.333336,,,,,,,,,,,,,,,,
1645710522.489655,220.000000,0.000000,4237.179688,4218.077148,4212.436035,4219.358887,4222.436035,4212.563965,4210.256348,4202.820313,4202.051270,4220.641113,4247.948730,4142.692383,4210.512695,4216.025879,3243.000000,4.000000,86.000000,,,,0.000000,4.000000,4.000000,4.000000,4.000000,4.000000,4.000000,4.000000,2.000000,4.000000,4.000000,4.000000,4.000000,4.000000,4.000000,83.333336,,,,,,,,,,,,,,,,
1645710522.493595,221.000000,0.000000,4235.769043,4215.769043,4211.538574,4218.717773,4223.077148,4212.948730,4209.743652,4204.358887,4202.948730,4221.794922,4248.077148,4143.077148,4211.153809,4215.000000,2986.000000,4.000000,86.000000,,,,0.000000,4.000000,4.000000,4.000000,4.000000,4.000000,4.000000,4.000000,2.000000,4.000000,4.000000,4.000000,4.000000,4.000000,4.000000,83.333336,,,,,,,,,,,,,,,,
1645710522.497536,222.000000,0.000000,4235.641113,4215.256348,4211.153809,4220.512695,4222.820313,4212.051270,4208.846191,4206.282227,4202.948730,4220.256348,4246.538574,4143.333496,4209.102539,4216.025879,2347.000000,4.000000,86.000000,,,,0.000000,4.000000,4.000000,4.000000,4.000000,4.000000,4.000000,4.000000,2.000000,4.000000,4.000000,4.000000,4.000000,4.000000,4.000000,83.333336,,,,,,,,,,,,,,,,
1645710522.501476,223.000000,0.000000,4238.333496,4216.282227,4212.692383,4222.820313,4221.025879,4210.000000,4208.589844,4208.205078,4202.820313,4217.307617,4244.230957,4145.000000,4206.025879,4217.436035,2731.000000,4.000000,86.000000,,,,0.000000,4.000000,4.000000,4.000000,4.000000,4.000000,4.000000,4.000000,2.000000,4.000000,4.000000,4.000000,4.000000,4.000000,4.000000,83.333336,,,,,,,,,,,,,,,,
1645710522.505416,224.000000,0.000000,4241.282227,4217.820313,4216.025879,4224.230957,4219.615234,4208.846191,4209.487305,4209.487305,4203.589844,4216.025879,4243.333496,4148.333496,4204.358887,4216.666504,3243.000000,4.000000,86.000000,,,,0.000000,4.000000,4.000000,4.000000,4.000000,4.000000,4.000000,4.000000,2.000000,4.000000,4.000000,4.000000,4.000000,4.000000,4.000000,83.333336,,,,,,,,,,,,,,,,
1645710522.509356,225.000000,0.000000,4241.282227,4218.717773,4220.000000,4224.230957,4220.897461,4210.256348,4211.666504,4210.000000,4205.769043,4219.358887,4245.128418,4153.077148,4205.128418,4212.820313,2986.000000,4.000000,86.000000,,,,0.000000,4.000000,4.000000,4.000000,4.000000,4.000000,4.000000,4.000000,2.000000,4.000000,4.000000,4.000000,4.000000,4.000000,4.000000,83.333336,,,,,,,,,,,,,,,,
1645710522.513296,226.000000,0.000000,4238.077148,4218.461426,4222.820313,4223.077148,4224.743652,4213.589844,4213.974121,4210.128418,4208.205078,4226.922852,4248.846191,4157.307617,4207.692383,4208.205078,2347.000000,4.000000,86.000000,,,,0.000000,4.000000,4.000000,4.000000,4.000000,4.000000,4.000000,4.000000,2.000000,4.000000,4.000000,4.000000,4.000000,4.000000,4.000000,83.333336,,,,,,,,,,,,,,,,
1645710522.517236,227.000000,0.000000,4235.000000,4216.922852,4223.974121,4221.282227,4227.948730,4216.282227,4215.128418,4210.641113,4208.846191,4234.102539,4252.051270,4159.358887,4209.358887,4206.153809,2731.000000,4.000000,86.000000,,,,0.000000,4.000000,4.000000,4.000000,4.000000,4.000000,4.000000,4.000000,2.000000,4.000000,4.000000,4.000000,4.000000,4.000000,4.000000,83.333336,,,,,,,,,,,,,,,,
1645710522.521176,228.000000,0.000000,4235.000000,4215.128418,4223.205078,4220.128418,4227.436035,4216.666504,4214.615234,4211.025879,4206.153809,4235.512695,4252.179688,4158.333496,4208.717773,4208.077148,3243.000000,4.000000,86.000000,,,,0.000000,4.000000,4.000000,4.000000,4.000000,4.000000,4.000000,4.000000,2.000000,4.000000,4.000000,4.000000,4.000000,4.000000,4.000000,83.333336,,,,,,,,,,,,,,,,
1645710522.525116,229.000000,0.000000,4237.307617,4215.000000,4221.153809,4220.384766,4223.974121,4215.769043,4212.948730,4210.000000,4201.282227,4230.000000,4249.615234,4155.512695,4206.666504,4212.692383,2986.000000,4.000000,86.000000,,,,0.000000,4.000000,4.000000,4.000000,4.000000,4.000000,4.000000,4.000000,2.000000,4.000000,4.000000,4.000000,4.000000,4.000000,4.000000,83.333336,,,,,,,,,,,,,,,,
1645710522.529056,230.000000,0.000000,4238.589844,4218.717773,4218.974121,4222.051270,4221.025879,4215.897461,4211.538574,4207.563965,4197.563965,4221.922852,4246.794922,4153.077148,4206.153809,4216.794922,2347.000000,4.000000,86.000000,,,,0.000000,4.000000,4.000000,4.000000,4.000000,4.000000,4.000000,4.000000,2.000000,4.000000,4.000000,4.000000,4.000000,4.000000,4.000000,83.333336,,,,,,,,,,,,,,,,
1645710522.532996,231.000000,0.000000,4237.820313,4225.641113,4217.820313,4224.487305,4221.282227,4217.820313,4211.666504,4205.256348,4197.051270,4216.666504,4245.769043,4152.948730,4208.589844,4218.077148,2731.000000,4.000000,86.000000,,,,0.000000,4.000000,4.000000,4.000000,4.000000,4.000000,4.000000,4.000000,2.000000,4.000000,4.000000,4.000000,4.000000,4.000000,4.000000,83.333336,,,,,,,,,,,,,,,,
1645710522.536937,232.000000,0.000000,4237.307617,4232.692383,4218.461426,4226.410156,4224.102539,4220.256348,4212.820313,4205.256348,4199.743652,4216.922852,4246.282227,4154.358887,4212.436035,4216.538574,3243.000000,4.000000,86.000000,,,,0.000000,4.000000,4.000000,4.000000,4.000000,4.000000,4.000000,4.000000,2.000000,4.000000,4.000000,4.000000,4.000000,4.000000,4.000000,83.333336,,,,,,,,,,,,,,,,
1645710522.540877,233.000000,0.000000,4239.743652,4237.051270,4220.897461,4227.307617,4226.538574,4221.025879,4214.102539,4207.820313,4202.948730,4220.897461,4246.153809,4155.256348,4215.128418,4213.717773,2986.000000,4.000000,86.000000,,,,0.000000,4.000000,4.000000,4.000000,4.000000,4.000000,4.000000,4.000000,2.000000,4.000000,4.000000,4.000000,4.000000,4.000000,4.000000,83.333336,,,,,,,,,,,,,,,,
1645710522.544817,234.000000,0.000000,4244.102539,4237.948730,4224.615234,4228.333496,4227.307617,4220.000000,4214.743652,4211.025879,4204.615234,4225.000000,4244.230957,4153.846191,4215.256348,4212.436035,2347.000000,4.000000,86.000000,,,,0.000000,4.000000,4.000000,4.000000,4.000000,4.000000,4.000000,4.000000,2.000000,4.000000,4.000000,4.000000,4.000000,4.000000,4.000000,83.333336,,,,,,,,,,,,,,,,
1645710522.548757,235.000000,0.000000,4246.538574,4237.307617,4228.717773,4231.282227,4227.436035,4218.717773,4214.358887,4212.307617,4203.846191,4226.794922,4241.538574,4150.512695,4213.461426,4213.589844,2731.000000,4.000000,86.000000,,,,0.000000,4.000000,4.000000,4.000000,4.000000,4.000000,4.000000,4.000000,2.000000,4.000000,4.000000,4.000000,4.000000,4.000000,4.000000,83.333336,,,,,,,,,,,,,,,,
1645710522.552697,236.000000,0.000000,4245.384766,4236.282227,4231.538574,4235.769043,4228.077148,4218.461426,4212.948730,4211.025879,4201.410156,4225.384766,4239.358887,4147.692383,4211.794922,4215.512695,3243.000000,4.000000,86.000000,,,,0.000000,4.000000,4.000000,4.000000,4.000000,4.000000,4.000000,4.000000,2.000000,4.000000,4.000000,4.000000,4.000000,4.000000,4.000000,83.333336,,,,,,,,,,,,,,,,
1645710522.556637,237.000000,0.000000,4242.692383,4234.358887,4232.179688,4239.230957,4228.974121,4218.717773,4210.769043,4208.974121,4198.461426,4221.025879,4237.692383,4147.307617,4210.897461,4215.641113,2986.000000,4.000000,86.000000,,,,0.000000,4.000000,4.000000,4.000000,4.000000,4.000000,4.000000,4.000000,2.000000,4.000000,4.000000,4.000000,4.000000,4.000000,4.000000,83.333336,,,,,,,,,,,,,,,,
1645710522.560577,238.000000,0.000000,4241.922852,4230.512695,4230.512695,4239.487305,4229.230957,4218.589844,4208.974121,4207.692383,4196.025879,4215.512695,4234.871582,4149.487305,4210.256348,4212.692383,2347.000000,4.000000,86.000000,,,,0.000000,4.000000,4.000000,4.000000,4.000000,4.000000,4.000000,4.000000,2.000000,4.000000,4.000000,4.000000,4.000000,4.000000,4.000000,83.333336,,,,,,,,,,,,,,,,
1645710522.564417,239.000000,0.000000,4243.461426,4225.897461,4227.436035,4236.922852,4228.846191,4218.077148,4208.846191,4207.307617,4194.743652,4211.922852,4231.666504,4152.820313,4209.358887,4208.461426,2731.000000,4.000000,86.000000,,,,0.000000,4.000000,4.000000,4.000000,4.000000,4.000000,4.000000,4.000000,2.000000,4.000000,4.000000,4.000000,4.000000,4.000000,4.000000,83.333336,,,,,,,,,,,,,,,,
1645710522.568358,240.000000,0.000000,4244.358887,4222.436035,4224.102539,4234.358887,4229.102539,4218.333496,4210.641113,4206.794922,4195.000000,4212.179688,4230.512695,4155.769043,4208.461426,4206.025879,3243.000000,4.000000,86.000000,,,,0.000000,4.000000,4.000000,4.000000,4.000000,4.000000,4.000000,4.000000,2.000000,4.000000,4.000000,4.000000,4.000000,4.000000,4.000000,83.333336,,,,,,,,,,,,,,,,
1645710522.572298,241.000000,0.000000,4243.077148,4221.538574,4222.051270,4234.358887,4230.384766,4220.384766,4213.205078,4205.769043,4196.025879,4215.256348,4234.102539,4157.820313,4208.974121,4206.794922,2986.000000,4.000000,86.000000,,,,0.000000,4.000000,4.000000,4.000000,4.000000,4.000000,4.000000,4.000000,2.000000,4.000000,4.000000,4.000000,4.000000,4.000000,4.000000,83.333336,,,,,,,,,,,,,,,,
1645710522.576238,242.000000,0.000000,4241.282227,4222.563965,4221.922852,4236.794922,4231.666504,4223.461426,4215.128418,4205.384766,4197.179688,4217.307617,4241.025879,4159.230957,4210.897461,4210.128418,2347.000000,4.000000,86.000000,,,,0.000000,4.000000,4.000000,4.000000,4.000000,4.000000,4.000000,4.000000,2.000000,4.000000,4.000000,4.000000,4.000000,4.000000,4.000000,83.333336,,,,,,,,,,,,,,,,
1645710522.580178,243.000000,0.000000,4241.538574,4223.717773,4223.461426,4239.102539,4231.922852,4226.025879,4216.538574,4207.307617,4197.820313,4216.025879,4247.051270,4160.641113,4213.333496,4214.230957,2731.000000,4.000000,86.000000,,,,0.000000,4.000000,4.000000,4.000000,4.000000,4.000000,4.000000,4.000000,2.000000,4.000000,4.000000,4.000000,4.000000,4.000000,4.000000,83.333336,,,,,,,,,,,,,,,,
1645710522.584118,244.000000,0.000000,4243.461426,4224.487305,4225.897461,4239.102539,4231.922852,4227.692383,4218.205078,4211.025879,4198.589844,4213.717773,4249.487305,4162.307617,4215.256348,4217.436035,3243.000000,4.000000,86.000000,,,,0.000000,4.000000,4.000000,4.000000,4.000000,4.000000,4.000000,4.000000,2.000000,4.000000,4.000000,4.000000,4.000000,4.000000,4.000000,83.333336,,,,,,,,,,,,,,,,
1645710522.588058,245.000000,0.000000,4243.974121,4225.512695,4227.820313,4236.922852,4233.077148,4229.102539,4220.897461,4214.102539,4199.358887,4214.871582,4248.846191,4163.846191,4216.410156,4218.846191,2986.000000,4.000000,86.000000,,,,0.000000,4.000000,4.000000,4.000000,4.000000,4.000000,4.000000,4.000000,2.000000,4.000000,4.000000,4.000000,4.000000,4.000000,4.000000,83.333336,,,,,,,,,,,,,,,,
1645710522.591998,246.000000,0.000000,4241.153809,4226.538574,4228.461426,4233.846191,4235.512695,4230.256348,4223.717773,4213.974121,4199.743652,4220.897461,4246.922852,4164.743652,4217.563965,4218.205078,2347.000000,4.000000,86.000000,,,,0.000000,4.000000,4.000000,4.000000,4.000000,4.000000,4.000000,4.000000,2.000000,4.000000,4.000000,4.000000,4.000000,4.000000,4.000000,83.333336,,,,,,,,,,,,,,,,
1645710522.595938,247.000000,0.000000,4237.563965,4226.538574,4227.563965,4231.794922,4236.666504,4230.000000,4225.000000,4211.025879,4198.846191,4227.563965,4244.871582,4164.358887,4218.333496,4216.025879,2731.000000,4.000000,86.000000,,,,0.000000,4.000000,4.000000,4.000000,4.000000,4.000000,4.000000,4.000000,2.000000,4.000000,4.000000,4.000000,4.000000,4.000000,4.000000,83.333336,,,,,,,,,,,,,,,,
1645710522.599878,248.000000,0.000000,4237.436035,4225.512695,4225.769043,4231.153809,4234.871582,4227.692383,4224.230957,4208.077148,4196.794922,4228.717773,4243.717773,4162.820313,4218.589844,4214.230957,3243.000000,4.000000,86.000000,,,,0.000000,4.000000,4.000000,4.000000,4.000000,4.000000,4.000000,4.000000,2.000000,4.000000,4.000000,4.000000,4.000000,4.000000,4.000000,83.333336,,,,,,,,,,,,,,,,
1645710522.603818,249.000000,0.000000,4241.410156,4225.256348,4224.743652,4232.692383,4231.794922,4224.487305,4221.922852,4207.820313,4195.128418,4223.717773,4244.615234,4161.794922,4219.102539,4215.128418,2986.000000,4.000000,86.000000,,,,0.000000,4.000000,4.000000,4.000000,4.000000,4.000000,4.000000,4.000000,2.000000,4.000000,4.000000,4.000000,4.000000,4.000000,4.000000,83.333336,,,,,,,,,,,,,,,,
1645710522.607759,250.000000,0.000000,4246.282227,4228.333496,4226.666504,4237.179688,4231.410156,4223.461426,4220.384766,4210.128418,4195.641113,4218.333496,4248.974121,4164.102539,4221.282227,4219.743652,2347.000000,4.000000,86.000000,,,,0.000000,4.000000,4.000000,4.000000,4.000000,4.000000,4.000000,4.000000,2.000000,4.000000,4.000000,4.000000,4.000000,4.000000,4.000000,83.333336,,,,,,,,,,,,,,,,
1645710522.611699,251.000000,0.000000,4249.743652,4235.256348,4231.922852,4244.102539,4236.025879,4226.153809,4221.025879,4212.563965,4198.461426,4218.974121,4256.025879,4170.384766,4225.769043,4226.538574,2731.000000,4.000000,86.000000,,,,0.000000,4.000000,4.000000,4.000000,4.000000,4.000000,4.000000,4.000000,2.000000,4.000000,4.000000,4.000000,4.000000,4.000000,4.000000,83.333336,,,,,,,,,,,,,,,,
1645710522.615639,252.000000,0.000000,4252.692383,4243.717773,4238.974121,4251.282227,4243.461426,4231.410156,4223.589844,4213.846191,4201.538574,4226.666504,4262.179688,4178.589844,4231.282227,4232.948730,3243.000000,4.000000,86.000000,,,,0.000000,4.000000,4.000000,4.000000,4.000000,4.000000,4.000000,4.000000,2.000000,4.000000,4.000000,4.000000,4.000000,4.000000,4.000000,83.333336,,,,,,,,,,,,,,,,
1645710522.619579,253.000000,0.000000,4257.436035,4250.000000,4245.384766,4255.641113,4249.102539,4235.512695,4226.153809,4214.102539,4202.948730,4236.153809,4263.974121,4185.256348,4235.769043,4237.307617,2986.000000,4.000000,86.000000,,,,0.000000,4.000000,4.000000,4.000000,4.000000,4.000000,4.000000,4.000000,2.000000,4.000000,4.000000,4.000000,4.000000,4.000000,4.000000,83.333336,,,,,,,,,,,,,,,,
1645710522.623519,254.000000,0.000000,4262.563965,4252.820313,4248.589844,4255.769043,4249.615234,4236.025879,4227.307617,4214.487305,4202.307617,4240.641113,4261.410156,4187.563965,4237.307617,4239.358887,2347.000000,4.000000,86.000000,,,,0.000000,4.000000,4.000000,4.000000,4.000000,4.000000,4.000000,4.000000,2.000000,4.000000,4.000000,4.000000,4.000000,4.000000,4.000000,83.333336,,,,,,,,,,,,,,,,
1645710522.627459,255.000000,0.000000,4264.102539,4252.820313,4247.563965,4253.333496,4245.512695,4233.205078,4226.666504,4215.128418,4200.512695,4237.307617,4256.922852,4185.384766,4235.256348,4239.230957,113.000000,4.000000,86.000000,,,,0.000000,4.000000,4.000000,4.000000,4.000000,4.000000,4.000000,4.000000,2.000000,4.000000,4.000000,4.000000,4.000000,4.000000,4.000000,83.333336,,,,,,,,,,,,,,,,
1645710522.631399,0.000000,0.000000,4260.769043,4251.410156,4242.820313,4250.384766,4240.128418,4229.230957,4224.487305,4215.256348,4199.102539,4229.230957,4253.461426,4180.000000,4230.641113,4236.794922,3283.000000,4.000000,86.000000,,,,0.000000,4.000000,4.000000,4.000000,4.000000,4.000000,4.000000,4.000000,2.000000,4.000000,4.000000,4.000000,4.000000,4.000000,4.000000,83.333336,,,,,,,,,,,,,,,,
1645710522.635339,1.000000,0.000000,4255.641113,4249.487305,4236.153809,4247.948730,4235.897461,4225.384766,4221.410156,4214.743652,4198.333496,4222.179688,4251.410156,4173.717773,4225.128418,4231.922852,3310.000000,4.000000,86.000000,,,,0.000000,4.000000,4.000000,4.000000,4.000000,4.000000,4.000000,4.000000,2.000000,4.000000,4.000000,4.000000,4.000000,4.000000,4.000000,83.333336,,,,,,,,,,,,,,,,
1645710522.639180,2.000000,0.000000,4253.205078,4246.922852,4230.897461,4245.512695,4233.846191,4222.563965,4218.717773,4214.358887,4197.948730,4219.615234,4250.128418,4168.717773,4220.256348,4225.769043,2473.000000,4.000000,86.000000,,,,0.000000,4.000000,4.000000,4.000000,4.000000,4.000000,4.000000,4.000000,2.000000,4.000000,4.000000,4.000000,4.000000,4.000000,4.000000,83.333336,,,,,,,,,,,,,,,,
1645710522.643120,3.000000,0.000000,4254.230957,4244.230957,4229.102539,4242.563965,4233.974121,4221.410156,4218.077148,4214.743652,4197.436035,4221.794922,4249.358887,4166.410156,4217.436035,4220.641113,3354.000000,4.000000,86.000000,,,,0.000000,4.000000,4.000000,4.000000,4.000000,4.000000,4.000000,4.000000,2.000000,4.000000,4.000000,4.000000,4.000000,4.000000,4.000000,83.333336,,,,,,,,,,,,,,,,
1645710522.647060,4.000000,0.000000,4255.128418,4242.692383,4230.512695,4240.000000,4235.769043,4222.179688,4219.743652,4215.384766,4197.307617,4226.025879,4250.000000,4167.307617,4218.077148,4217.948730,3734.000000,4.000000,86.000000,,,,0.000000,4.000000,4.000000,4.000000,4.000000,4.000000,4.000000,4.000000,2.000000,4.000000,4.000000,4.000000,4.000000,4.000000,4.000000,83.333336,,,,,,,,,,,,,,,,
1645710522.651000,5.000000,0.000000,4252.948730,4242.820313,4233.077148,4238.589844,4238.205078,4223.717773,4222.179688,4214.743652,4198.589844,4229.102539,4252.051270,4170.000000,4221.410156,4218.077148,3389.000000,4.000000,86.000000,,,,0.000000,4.000000,4.000000,4.000000,4.000000,4.000000,4.000000,4.000000,2.000000,4.000000,4.000000,4.000000,4.000000,4.000000,4.000000,83.333336,,,,,,,,,,,,,,,,
1645710522.654940,6.000000,0.000000,4248.974121,4243.333496,4234.358887,4238.333496,4239.358887,4223.846191,4223.077148,4213.077148,4201.922852,4229.358887,4253.589844,4171.922852,4224.487305,4220.128418,3372.000000,4.000000,86.000000,,,,0.000000,4.000000,4.000000,4.000000,4.000000,4.000000,4.000000,4.000000,2.000000,4.000000,4.000000,4.000000,4.000000,4.000000,4.000000,83.333336,,,,,,,,,,,,,,,,
1645710522.658880,7.000000,0.000000,4246.794922,4242.563965,4233.717773,4238.077148,4237.692383,4220.897461,4221.538574,4212.051270,4206.282227,4226.666504,4252.820313,4171.025879,4224.487305,4222.692383,1112.000000,4.000000,86.000000,,,,0.000000,4.000000,4.000000,4.000000,4.000000,4.000000,4.000000,4.000000,2.000000,4.000000,4.000000,4.000000,4.000000,4.000000,4.000000,83.333336,,,,,,,,,,,,,,,,
1645710522.662820,8.000000,0.000000,4247.563965,4239.871582,4231.922852,4237.563965,4233.333496,4216.922852,4218.974121,4212.692383,4209.230957,4223.333496,4249.615234,4167.179688,4220.897461,4224.615234,1337.000000,4.000000,86.000000,,,,0.000000,4.000000,4.000000,4.000000,4.000000,4.000000,4.000000,4.000000,2.000000,4.000000,4.000000,4.000000,4.000000,4.000000,4.000000,83.333336,,,,,,,,,,,,,,,,
1645710522.666760,9.000000,0.000000,4248.205078,4236.538574,4229.743652,4237.692383,4229.230957,4215.000000,4217.692383,4214.615234,4209.743652,4222.563965,4245.897461,4162.179688,4216.282227,4225.000000,2946.000000,4.000000,86.000000,,,,0.000000,4.000000,4.000000,4.000000,4.000000,4.000000,4.000000,4.000000,2.000000,4.000000,4.000000,4.000000,4.000000,4.000000,4.000000,83.333336,,,,,,,,,,,,,,,,
1645710522.670700,10.000000,0.000000,4245.512695,4233.717773,4227.307617,4238.589844,4227.948730,4217.051270,4218.846191,4216.025879,4208.077148,4225.128418,4243.589844,4157.948730,4213.461426,4222.948730,2357.000000,4.000000,86.000000,,,,0.000000,4.000000,4.000000,4.000000,4.000000,4.000000,4.000000,4.000000,2.000000,4.000000,4.000000,4.000000,4.000000,4.000000,4.000000,83.333336,,,,,,,,,,,,,,,,
1645710522.674640,11.000000,0.000000,4240.000000,4231.410156,4223.974121,4238.717773,4229.615234,4221.153809,4220.897461,4216.282227,4206.410156,4229.102539,4242.307617,4155.384766,4212.948730,4218.461426,2738.000000,4.000000,86.000000,,,,0.000000,4.000000,4.000000,4.000000,4.000000,4.000000,4.000000,4.000000,2.000000,4.000000,4.000000,4.000000,4.000000,4.000000,4.000000,83.333336,,,,,,,,,,,,,,,,
1645710522.678581,12.000000,0.000000,4235.000000,4228.974121,4220.000000,4235.897461,4231.410156,4223.846191,4221.794922,4215.512695,4205.897461,4230.897461,4240.897461,4153.846191,4213.846191,4212.948730,3437.000000,4.000000,86.000000,,,,0.000000,4.000000,4.000000,4.000000,4.000000,4.000000,4.000000,4.000000,2.000000,4.000000,4.000000,4.000000,4.000000,4.000000,4.000000,83.333336,,,,,,,,,,,,,,,,
1645710522.682521,13.000000,0.000000,4232.179688,4226.410156,4216.025879,4230.128418,4231.282227,4223.717773,4220.641113,4214.487305,4205.897461,4228.717773,4239.102539,4151.538574,4215.128418,4209.102539,2984.000000,4.000000,86.000000,,,,0.000000,4.000000,4.000000,4.000000,4.000000,4.000000,4.000000,4.000000,2.000000,4.000000,4.000000,4.000000,4.000000,4.000000,4.000000,83.333336,,,,,,,,,,,,,,,,
1645710522.686461,14.000000,0.000000,4230.769043,4224.871582,4213.589844,4223.717773,4229.871582,4221.922852,4218.461426,4213.205078,4205.512695,4224.487305,4238.717773,4147.820313,4217.051270,4208.461426,2357.000000,4.000000,86.000000,,,,0.000000,4.000000,4.000000,4.000000,4.000000,4.000000,4.000000,4.000000,2.000000,4.000000,4.000000,4.000000,4.000000,4.000000,4.000000,83.333336,,,,,,,,,,,,,,,,
1645710522.690401,15.000000,0.000000,4229.358887,4225.256348,4213.077148,4220.000000,4228.846191,4221.025879,4217.436035,4211.282227,4204.743652,4221.922852,4241.538574,4143.846191,4220.000000,4211.282227,2738.000000,4.000000,86.000000,,,,0.000000,4.000000,4.000000,4.000000,4.000000,4.000000,4.000000,4.000000,2.000000,4.000000,4.000000,4.000000,4.000000,4.000000,4.000000,83.333336,,,,,,,,,,,,,,,,
1645710522.694341,16.000000,0.000000,4228.846191,4226.410156,4213.846191,4219.871582,4228.589844,4221.666504,4218.077148,4209.743652,4204.743652,4223.077148,4247.307617,4142.563965,4223.589844,4215.641113,3437.000000,4.000000,86.000000,,,,0.000000,4.000000,4.000000,4.000000,4.000000,4.000000,4.000000,4.000000,2.000000,4.000000,4.000000,4.000000,4.000000,4.000000,4.000000,83.333336,,,,,,,,,,,,,,,,
1645710522.698281,17.000000,0.000000,4231.282227,4226.410156,4214.487305,4221.794922,4227.692383,4222.563965,4219.487305,4209.871582,4205.897461,4227.307617,4253.717773,4145.769043,4226.153809,4219.358887,2984.000000,4.000000,86.000000,,,,0.000000,4.000000,4.000000,4.000000,4.000000,4.000000,4.000000,4.000000,2.000000,4.000000,4.000000,4.000000,4.000000,4.000000,4.000000,83.333336,,,,,,,,,,,,,,,,
1645710522.702221,18.000000,0.000000,4235.897461,4224.102539,4214.487305,4223.205078,4226.025879,4222.820313,4220.897461,4212.051270,4207.948730,4232.179688,4257.692383,4152.820313,4226.922852,4220.641113,2357.000000,4.000000,86.000000,,,,0.000000,4.000000,4.000000,4.000000,4.000000,4.000000,4.000000,4.000000,2.000000,4.000000,4.000000,4.000000,4.000000,4.000000,4.000000,83.333336,,,,,,,,,,,,,,,,
1645710522.706161,19.000000,0.000000,4238.974121,4220.384766,4213.717773,4222.563965,4225.128418,4223.205078,4222.436035,4214.615234,4209.743652,4236.025879,4258.589844,4160.512695,4226.538574,4219.871582,2738.000000,4.000000,86.000000,,,,0.000000,4.000000,4.000000,4.000000,4.000000,4.000000,4.000000,4.000000,2.000000,4.000000,4.000000,4.000000,4.000000,4.000000,4.000000,83.333336,,,,,,,,,,,,,,,,
1645710522.710101,20.000000,0.000000,4237.051270,4217.179688,4212.307617,4219.487305,4226.794922,4225.128418,4223.974121,4216.025879,4210.384766,4237.820313,4257.948730,4165.384766,4226.538574,4218.077148,3437.000000,4.000000,86.000000,,,,0.000000,4.000000,4.000000,4.000000,4.000000,4.000000,4.000000,4.000000,2.000000,4.000000,4.000000,4.000000,4.000000,4.000000,4.000000,83.333336,,,,,,,,,,,,,,,,
1645710522.713942,21.000000,0.000000,4231.410156,4214.743652,4210.128418,4214.102539,4229.743652,4227.436035,4224.871582,4215.769043,4209.743652,4236.794922,4257.436035,4165.512695,4227.948730,4216.410156,2984.000000,4.000000,86.000000,,,,0.000000,4.000000,4.000000,4.000000,4.000000,4.000000,4.000000,4.000000,2.000000,4.000000,4.000000,4.000000,4.000000,4.000000,4.000000,83.333336,,,,,,,,,,,,,,,,
1645710522.717882,22.000000,0.000000,4226.794922,4211.794922,4206.666504,4207.179688,4230.000000,4227.179688,4223.846191,4214.743652,4207.692383,4232.436035,4256.410156,4161.538574,4229.358887,4215.128418,2357.000000,4.000000,86.000000,,,,0.000000,4.000000,4.000000,4.000000,4.000000,4.000000,4.000000,4.000000,2.000000,4.000000,4.000000,4.000000,4.000000,4.000000,4.000000,83.333336,,,,,,,,,,,,,,,,
1645710522.721822,23.000000,0.000000,4225.769043,4207.563965,4202.307617,4201.153809,4225.769043,4223.333496,4221.153809,4214.230957,4204.871582,4226.666504,4253.846191,4156.282227,4228.846191,4213.846191,2738.000000,4.000000,86.000000,,,,0.000000,4.000000,4.000000,4.000000,4.000000,4.000000,4.000000,4.000000,2.000000,4.000000,4.000000,4.000000,4.000000,4.000000,4.000000,83.333336,,,,,,,,,,,,,,,,
1645710522.725762,24.000000,0.000000,4226.538574,4203.205078,4198.589844,4199.615234,4219.743652,4217.948730,4218.333496,4213.974121,4203.205078,4223.461426,4250.641113,4153.077148,4226.282227,4212.179688,3437.000000,4.000000,86.000000,,,,0.000000,4.000000,4.000000,4.000000,4.000000,4.000000,4.000000,4.000000,2.000000,4.000000,4.000000,4.000000,4.000000,4.000000,4.000000,83.333336,,,,,,,,,,,,,,,,
1645710522.729702,25.000000,0.000000,4225.769043,4201.794922,4197.820313,4204.871582,4217.051270,4215.384766,4217.563965,4213.589844,4204.230957,4225.769043,4249.230957,4153.717773,4223.846191,4210.384766,2984.000000,4.000000,86.000000,,,,0.000000,4.000000,4.000000,4.000000,4.000000,4.000000,4.000000,4.000000,2.000000,4.000000,4.000000,4.000000,4.000000,4.000000,4.000000,83.333336,,,,,,,,,,,,,,,,
1645710522.733642,26.000000,0.000000,4223.717773,4205.000000,4200.897461,4214.743652,4219.871582,4217.307617,4219.102539,4213.461426,4208.077148,4231.794922,4250.769043,4157.692383,4223.846191,4209.102539,2357.000000,4.000000,86.000000,,,,0.000000,4.000000,4.000000,4.000000,4.000000,4.000000,4.000000,4.000000,2.000000,4.000000,4.000000,4.000000,4.000000,4.000000,4.000000,83.333336,,,,,,,,,,,,,,,,
1645710522.737582,27.000000,0.000000,4223.589844,4211.794922,4206.666504,4223.846191,4225.641113,4222.051270,4221.666504,4214.102539,4212.179688,4236.922852,4253.589844,4162.436035,4226.410156,4209.743652,2738.000000,4.000000,86.000000,,,,0.000000,4.000000,4.000000,4.000000,4.000000,4.000000,4.000000,4.000000,2.000000,4.000000,4.000000,4.000000,4.000000,4.000000,4.000000,83.333336,,,,,,,,,,,,,,,,
1645710522.741522,28.000000,0.000000,4227.179688,4218.461426,4212.179688,4227.820313,4230.384766,4225.897461,4223.974121,4215.512695,4213.717773,4237.436035,4255.256348,4166.282227,4229.487305,4212.948730,3437.000000,4.000000,86.000000,,,,0.000000,4.000000,4.000000,4.000000,4.000000,4.000000,4.000000,4.000000,2.000000,4.000000,4.000000,4.000000,4.000000,4.000000,4.000000,83.333336,,,,,,,,,,,,,,,,
1645710522.745462,29.000000,0.000000,4231.666504,4221.794922,4215.641113,4226.410156,4231.666504,4226.794922,4225.128418,4216.538574,4212.051270,4234.358887,4254.871582,4168.846191,4230.897461,4217.436035,2984.000000,4.000000,86.000000,,,,0.000000,4.000000,4.000000,4.000000,4.000000,4.000000,4.000000,4.000000,2.000000,4.000000,4.000000,4.000000,4.000000,4.000000,4.000000,83.333336,,,,,,,,,,,,,,,,
1645710522.749403,30.000000,0.000000,4233.077148,4220.512695,4216.410156,4223.333496,4230.769043,4225.256348,4225.641113,4215.641113,4208.846191,4231.153809,4253.461426,4171.025879,4229.871582,4220.256348,2357.000000,4.000000,86.000000,,,,0.000000,4.000000,4.000000,4.000000,4.000000,4.000000,4.000000,4.000000,2.000000,4.000000,4.000000,4.000000,4.000000,4.000000,4.000000,83.333336,,,,,,,,,,,,,,,,
1645710522.753343,31.000000,0.000000,4231.025879,4216.025879,4215.512695,4222.179688,4229.487305,4223.333496,4225.641113,4213.589844,4206.538574,4230.384766,4253.077148,4173.077148,4228.077148,4219.743652,2738.000000,4.000000,86.000000,,,,0.000000,4.000000,4.000000,4.000000,4.000000,4.000000,4.000000,4.000000,2.000000,4.000000,4.000000,4.000000,4.000000,4.000000,4.000000,83.333336,,,,,,,,,,,,,,,,
1645710522.757283,32.000000,0.000000,4229.487305,4211.666504,4214.615234,4223.846191,4228.589844,4222.948730,4225.512695,4212.051270,4206.282227,4231.410156,4253.846191,4174.743652,4227.179688,4217.179688,0.000000,4.000000,86.000000,,,,0.000000,4.000000,4.000000,4.000000,4.000000,4.000000,4.000000,4.000000,2.000000,4.000000,4.000000,4.000000,4.000000,4.000000,4.000000,83.333336,,,,,,,,,,,,,,,,
1645710522.761223,33.000000,0.000000,4231.410156,4210.512695,4214.615234,4226.538574,4227.948730,4224.871582,4225.384766,4212.692383,4207.436035,4232.820313,4254.871582,4175.512695,4228.333496,4216.410156,0.000000,4.000000,86.000000,,,,0.000000,4.000000,4.000000,4.000000,4.000000,4.000000,4.000000,4.000000,2.000000,4.000000,4.000000,4.000000,4.000000,4.000000,4.000000,83.333336,,,,,,,,,,,,,,,,
1645710522.765163,34.000000,0.000000,4235.000000,4213.717773,4216.153809,4228.077148,4227.436035,4228.461426,4225.641113,4214.230957,4208.461426,4235.000000,4256.153809,4175.128418,4231.410156,4219.615234,0.000000,4.000000,86.000000,,,,0.000000,4.000000,4.000000,4.000000,4.000000,4.000000,4.000000,4.000000,2.000000,4.000000,4.000000,4.000000,4.000000,4.000000,4.000000,83.333336,,,,,,,,,,,,,,,,
1645710522.769103,35.000000,0.000000,4236.922852,4220.512695,4218.974121,4227.692383,4227.563965,4232.307617,4226.410156,4214.743652,4208.461426,4238.846191,4258.077148,4174.102539,4235.384766,4225.897461,0.000000,4.000000,86.000000,,,,0.000000,4.000000,4.000000,4.000000,4.000000,4.000000,4.000000,4.000000,2.000000,4.000000,4.000000,4.000000,4.000000,4.000000,4.000000,83.333336,,,,,,,,,,,,,,,,
1645710522.773043,36.000000,0.000000,4236.410156,4227.820313,4221.922852,4226.153809,4228.205078,4234.230957,4226.794922,4213.333496,4207.307617,4242.948730,4260.769043,4173.205078,4238.461426,4231.153809,0.000000,4.000000,86.000000,,,,0.000000,4.000000,4.000000,4.000000,4.000000,4.000000,4.000000,4.000000,2.000000,4.000000,4.000000,4.000000,4.000000,4.000000,4.000000,83.333336,0.968750,75.000000,3.000000,4.000000,4.000000,4.000000,4.000000,4.000000,4.000000,2.000000,4.000000,4.000000,4.000000,4.000000,4.000000,4.000000
1645710522.776983,37.000000,0.000000,4236.410156,4232.051270,4224.487305,4224.871582,4229.230957,4233.077148,4226.666504,4211.410156,4205.641113,4243.846191,4262.692383,4173.717773,4239.487305,4231.922852,0.000000,4.000000,86.000000,,,,0.000000,4.000000,4.000000,4.000000,4.000000,4.000000,4.000000,4.000000,2.000000,4.000000,4.000000,4.000000,4.000000,4.000000,4.000000,83.333336,,,,,,,,,,,,,,,,
1645710522.780824,38.000000,0.000000,4239.358887,4232.179688,4226.794922,4224.871582,4230.769043,4230.128418,4226.282227,4211.538574,4204.615234,4240.128418,4262.948730,4176.410156,4238.333496,4228.333496,0.000000,4.000000,86.000000,,,,0.000000,4.000000,4.000000,4.000000,4.000000,4.000000,4.000000,4.000000,2.000000,4.000000,4.000000,4.000000,4.000000,4.000000,4.000000,83.333336,,,,,,,,,,,,,,,,
1645710522.784764,39.000000,0.000000,4244.230957,4229.743652,4229.102539,4227.436035,4232.948730,4228.333496,4226.922852,4214.102539,4205.256348,4234.358887,4261.666504,4181.282227,4236.922852,4224.358887,0.000000,4.000000,86.000000,,,,0.000000,4.000000,4.000000,4.000000,4.000000,4.000000,4.000000,4.000000,2.000000,4.000000,4.000000,4.000000,4.000000,4.000000,4.000000,83.333336,,,,,,,,,,,,,,,,
1645710522.788704,40.000000,0.000000,4246.922852,4228.205078,4231.410156,4232.436035,4235.769043,4229.230957,4228.205078,4217.051270,4207.307617,4231.538574,4259.615234,4186.025879,4236.538574,4223.589844,0.000000,4.000000,86.000000,,,,0.000000,4.000000,4.000000,4.000000,4.000000,4.000000,4.000000,4.000000,2.000000,4.000000,4.000000,4.000000,4.000000,4.000000,4.000000,83.333336,,,,,,,,,,,,,,,,
1645710522.792644,41.000000,0.000000,4245.897461,4228.846191,4233.077148,4236.794922,4237.563965,4232.051270,4228.589844,4218.461426,4209.230957,4233.461426,4256.410156,4187.436035,4236.794922,4226.025879,0.000000,4.000000,86.000000,,,,0.000000,4.000000,4.000000,4.000000,4.000000,4.000000,4.000000,4.000000,2.000000,4.000000,4.000000,4.000000,4.000000,4.000000,4.000000,83.333336,,,,,,,,,,,,,,,,
1645710522.796584,42.000000,0.000000,4243.333496,4230.512695,4233.333496,4236.794922,4237.179688,4233.461426,4226.794922,4218.077148,4208.717773,4237.307617,4250.897461,4183.717773,4235.512695,4228.589844,0.000000,4.000000,86.000000,,,,0.000000,4.000000,4.000000,4.000000,4.000000,4.000000,4.000000,4.000000,2.000000,4.000000,4.000000,4.000000,4.000000,4.000000,4.000000,83.333336,,,,,,,,,,,,,,,,
1645710522.800524,43.000000,0.000000,4242.436035,4230.384766,4232.051270,4231.153809,4234.615234,4231.410156,4223.461426,4216.794922,4205.641113,4238.205078,4244.102539,4176.794922,4231.410156,4227.948730,0.000000,4.000000,86.000000,,,,0.000000,4.000000,4.000000,4.000000,4.000000,4.000000,4.000000,4.000000,2.000000,4.000000,4.000000,4.000000,4.000000,4.000000,4.000000,83.333336,,,,,,,,,,,,,,,,
1645710522.804464,44.000000,0.000000,4242.820313,4227.307617,4230.641113,4223.077148,4231.922852,4227.692383,4221.410156,4215.897461,4202.307617,4234.487305,4239.487305,4170.256348,4225.512695,4223.974121,0.000000,4.000000,86.000000,,,,0.000000,4.000000,4.000000,4.000000,4.000000,4.000000,4.000000,4.000000,2.000000,4.000000,4.000000,4.000000,4.000000,4.000000,4.000000,83.333336,,,,,,,,,,,,,,,,
1645710522.808404,45.000000,0.000000,4242.563965,4222.820313,4230.384766,4217.820313,4231.922852,4226.025879,4222.820313,4215.128418,4201.282227,4229.358887,4239.871582,4167.307617,4221.282227,4218.717773,0.000000,4.000000,86.000000,,,,0.000000,4.000000,4.000000,4.000000,4.000000,4.000000,4.000000,4.000000,2.000000,4.000000,4.000000,4.000000,4.000000,4.000000,4.000000,83.333336,,,,,,,,,,,,,,,,
1645710522.812344,46.000000,0.000000,4240.641113,4218.846191,4231.794922,4218.205078,4234.871582,4228.461426,4227.563965,4215.000000,4203.846191,4227.436035,4244.743652,4168.077148,4220.641113,4215.256348,0.000000,4.000000,86.000000,,,,0.000000,4.000000,4.000000,4.000000,4.000000,4.000000,4.000000,4.000000,2.000000,4.000000,4.000000,4.000000,4.000000,4.000000,4.000000,83.333336,,,,,,,,,,,,,,,,
1645710522.816284,47.000000,0.000000,4239.102539,4216.538574,4234.230957,4222.307617,4238.461426,4233.333496,4232.563965,4216.025879,4208.077148,4229.871582,4249.871582,4170.000000,4223.077148,4215.384766,0.000000,4.000000,86.000000,,,,0.000000,4.000000,4.000000,4.000000,4.000000,4.000000,4.000000,4.000000,2.000000,4.000000,4.000000,4.000000,4.000000,4.000000,4.000000,83.333336,,,,,,,,,,,,,,,,
1645710522.820225,48.000000,0.000000,4240.128418,4215.769043,4236.666504,4226.282227,4239.615234,4237.307617,4235.384766,4218.589844,4211.282227,4234.358887,4251.794922,4170.256348,4226.282227,4218.717773,0.000000,4.000000,86.000000,,,,0.000000,4.000000,4.000000,4.000000,4.000000,4.000000,4.000000,4.000000,2.000000,4.000000,4.000000,4.000000,4.000000,4.000000,4.000000,83.333336,,,,,,,,,,,,,,,,
1645710522.824165,49.000000,0.000000,4243.077148,4216.922852,4238.717773,4227.820313,4237.948730,4238.461426,4234.743652,4221.025879,4211.282227,4237.436035,4251.153809,4168.717773,4228.461426,4222.692383,0.000000,4.000000,86.000000,,,,0.000000,4.000000,4.000000,4.000000,4.000000,4.000000,4.000000,4.000000,2.000000,4.000000,4.000000,4.000000,4.000000,4.000000,4.000000,83.333336,,,,,,,,,,,,,,,,
1645710522.828105,50.000000,0.000000,4245.641113,4220.256348,4240.769043,4228.077148,4236.282227,4237.307617,4232.307617,4221.282227,4208.974121,4238.333496,4251.922852,4168.077148,4229.358887,4224.743652,0.000000,4.000000,86.000000,,,,0.000000,4.000000,4.000000,4.000000,4.000000,4.000000,4.000000,4.000000,2.000000,4.000000,4.000000,4.000000,4.000000,4.000000,4.000000,83.333336,,,,,,,,,,,,,,,,
1645710522.832045,51.000000,0.000000,4246.410156,4224.871582,4243.589844,4229.102539,4236.666504,4235.256348,4229.871582,4218.974121,4206.410156,4238.077148,4256.666504,4170.384766,4230.128418,4225.128418,0.000000,4.000000,86.000000,,,,0.000000,4.000000,4.000000,4.000000,4.000000,4.000000,4.000000,4.000000,2.000000,4.000000,4.000000,4.000000,4.000000,4.000000,4.000000,83.333336,,,,,,,,,,,,,,,,
1645710522.835985,52.000000,0.000000,4246.922852,4228.333496,4246.794922,4230.769043,4239.102539,4233.589844,4228.846191,4216.410156,4205.897461,4237.692383,4263.205078,4175.512695,4231.538574,4225.897461,0.000000,4.000000,86.000000,,,,0.000000,4.000000,4.000000,4.000000,4.000000,4.000000,4.000000,4.000000,2.000000,4.000000,4.000000,4.000000,4.000000,4.000000,4.000000,83.333336,,,,,,,,,,,,,,,,
1645710522.839925,53.000000,0.000000,4248.846191,4229.230957,4249.230957,4231.538574,4240.769043,4232.820313,4228.589844,4215.384766,4207.948730,4237.948730,4267.436035,4180.641113,4233.461426,4228.461426,0.000000,4.000000,86.000000,,,,0.000000,4.000000,4.000000,4.000000,4.000000,4.000000,4.000000,4.000000,2.000000,4.000000,4.000000,4.000000,4.000000,4.000000,4.000000,83.333336,,,,,,,,,,,,,,,,
1645710522.843865,54.000000,0.000000,4251.025879,4227.820313,4249.358887,4231.025879,4240.384766,4233.333496,4228.333496,4216.153809,4211.282227,4238.846191,4267.436035,4182.820313,4236.282227,4231.538574,0.000000,4.000000,86.000000,,,,0.000000,4.000000,4.000000,4.000000,4.000000,4.000000,4.000000,4.000000,2.000000,4.000000,4.000000,4.000000,4.000000,4.000000,4.000000,83.333336,,,,,,,,,,,,,,,,
1645710522.847805,55.000000,0.000000,4250.512695,4226.153809,4246.282227,4230.512695,4238.846191,4234.615234,4227.436035,4216.666504,4214.230957,4239.871582,4265.256348,4181.794922,4239.487305,4233.205078,0.000000,4.000000,86.000000,,,,0.000000,4.000000,4.000000,4.000000,4.000000,4.000000,4.000000,4.000000,2.000000,4.000000,4.000000,4.000000,4.000000,4.000000,4.000000,83.333336,,,,,,,,,,,,,,,,
1645710522.851745,56.000000,0.000000,4246.282227,4225.641113,4240.897461,4231.410156,4237.692383,4235.000000,4226.153809,4215.897461,4215.256348,4239.871582,4263.846191,4179.487305,4242.051270,4232.051270,0.000000,4.000000,86.000000,,,,0.000000,4.000000,4.000000,4.000000,4.000000,4.000000,4.000000,4.000000,2.000000,4.000000,4.000000,4.000000,4.000000,4.000000,4.000000,83.333336,,,,,,,,,,,,,,,,
1645710522.855586,57.000000,0.000000,4241.410156,4226.025879,4235.128418,4232.948730,4237.051270,4232.563965,4224.743652,4214.230957,4214.230957,4237.692383,4264.102539,4178.205078,4242.820313,4229.102539,0.000000,4.000000,86.000000,,,,0.000000,4.000000,4.000000,4.000000,4.000000,4.000000,4.000000,4.000000,2.000000,4.000000,4.000000,4.000000,4.000000,4.000000,4.000000,83.333336,,,,,,,,,,,,,,,,
1645710522.859526,58.000000,0.000000,4239.743652,4226.153809,4231.410156,4233.333496,4236.025879,4227.179688,4223.846191,4213.589844,4212.179688,4233.205078,4264.615234,4178.589844,4241.538574,4227.051270,0.000000,4.000000,86.000000,,,,0.000000,4.000000,4.000000,4.000000,4.000000,4.000000,4.000000,4.000000,2.000000,4.000000,4.000000,4.000000,4.000000,4.000000,4.000000,83.333336,,,,,,,,,,,,,,,,
1645710522.863466,59.000000,0.000000,4241.282227,4225.256348,4230.641113,4231.794922,4234.615234,4221.410156,4223.589844,4214.487305,4210.769043,4228.461426,4264.487305,4179.358887,4239.487305,4227.307617,0.000000,4.000000,86.000000,,,,0.000000,4.000000,4.000000,4.000000,4.000000,4.000000,4.000000,4.000000,2.000000,4.000000,4.000000,4.000000,4.000000,4.000000,4.000000,83.333336,,,,,,,,,,,,,,,,
1645710522.867406,60.000000,0.000000,4242.307617,4223.974121,4231.538574,4229.615234,4234.102539,4219.230957,4224.230957,4216.025879,4211.282227,4226.282227,4264.230957,4179.102539,4238.461426,4228.974121,0.000000,4.000000,86.000000,,,,0.000000,4.000000,4.000000,4.000000,4.000000,4.000000,4.000000,4.000000,2.000000,4.000000,4.000000,4.000000,4.000000,4.000000,4.000000,83.333336,,,,,,,,,,,,,,,,
1645710522.871346,61.000000,0.000000,4239.615234,4222.820313,4232.179688,4228.077148,4235.512695,4222.307617,4224.871582,4216.794922,4213.077148,4227.179688,4265.256348,4177.563965,4239.102539,4229.743652,0.000000,4.000000,86.000000,,,,0.000000,4.000000,4.000000,4.000000,4.000000,4.000000,4.000000,4.000000,2.000000,4.000000,4.000000,4.000000,4.000000,4.000000,4.000000,83.333336,,,,,,,,,,,,,,,,
1645710522.875286,62.000000,0.000000,4234.871582,4221.282227,4231.282227,4226.666504,4237.563965,4227.563965,4224.743652,4216.538574,4214.230957,4229.358887,4266.538574,4174.743652,4240.000000,4228.461426,0.000000,4.000000,86.000000,,,,0.000000,4.000000,4.000000,4.000000,4.000000,4.000000,4.000000,4.000000,2.000000,4.000000,4.000000,4.000000,4.000000,4.000000,4.000000,83.333336,,,,,,,,,,,,,,,,
1645710522.879226,63.000000,0.000000,4231.794922,4219.358887,4228.974121,4225.000000,4238.846191,4230.769043,4223.717773,4216.025879,4213.589844,4229.871582,4266.282227,4171.538574,4239.615234,4226.538574,0.000000,4.000000,86.000000,,,,0.000000,4.000000,4.000000,4.000000,4.000000,4.000000,4.000000,4.000000,2.000000,4.000000,4.000000,4.000000,4.000000,4.000000,4.000000,83.333336,,,,,,,,,,,,,,,,
1645710522.883166,64.000000,0.000000,4232.563965,4218.333496,4227.436035,4224.102539,4238.846191,4230.384766,4222.948730,4215.897461,4211.666504,4228.077148,4263.333496,4168.717773,4237.692383,4226.282227,0.000000,4.000000,86.000000,,,,0.000000,4.000000,4.000000,4.000000,4.000000,4.000000,4.000000,4.000000,2.000000,4.000000,4.000000,4.000000,4.000000,4.000000,4.000000,83.333336,,,,,,,,,,,,,,,,
1645710522.887106,65.000000,0.000000,4235.384766,4220.000000,4228.461426,4225.641113,4239.743652,4228.974121,4223.589844,4215.897461,4210.384766,4226.153809,4259.871582,4167.820313,4236.282227,4228.333496,0.000000,4.000000,86.000000,,,,0.000000,4.000000,4.000000,4.000000,4.000000,4.000000,4.000000,4.000000,2.000000,4.000000,4.000000,4.000000,4.000000,4.000000,4.000000,83.333336,,,,,,,,,,,,,,,,
1645710522.891047,66.000000,0.000000,4237.563965,4224.615234,4231.666504,4229.358887,4242.563965,4229.358887,4225.384766,4215.641113,4211.025879,4227.179688,4258.205078,4169.615234,4236.922852,4231.153809,0.000000,4.000000,86.000000,,,,0.000000,4.000000,4.000000,4.000000,4.000000,4.000000,4.000000,4.000000,2.000000,4.000000,4.000000,4.000000,4.000000,4.000000,4.000000,83.333336,,,,,,,,,,,,,,,,
1645710522.894987,67.000000,0.000000,4238.846191,4229.615234,4234.871582,4233.333496,4245.897461,4231.794922,4226.538574,4215.384766,4213.333496,4231.025879,4259.615234,4173.077148,4238.974121,4232.436035,0.000000,4.000000,86.000000,,,,0.000000,4.000000,4.000000,4.000000,4.000000,4.000000,4.000000,4.000000,2.000000,4.000000,4.000000,4.000000,4.000000,4.000000,4.000000,83.333336,,,,,,,,,,,,,,,,
1645710522.898927,68.000000,0.000000,4239.871582,4231.666504,4235.769043,4235.000000,4246.666504,4233.077148,4225.769043,4215.641113,4214.871582,4235.641113,4262.820313,4175.897461,4240.384766,4231.410156,0.000000,4.000000,86.000000,,,,0.000000,4.000000,4.000000,4.000000,4.000000,4.000000,4.000000,4.000000,2.000000,4.000000,4.000000,4.000000,4.000000,4.000000,4.000000,83.333336,,,,,,,,,,,,,,,,
1645710522.902867,69.000000,0.000000,4240.769043,4229.743652,4233.974121,4233.974121,4243.846191,4230.897461,4223.589844,4216.025879,4213.717773,4238.846191,4266.410156,4176.538574,4239.871582,4228.717773,0.000000,4.000000,86.000000,,,,0.000000,4.000000,4.000000,4.000000,4.000000,4.000000,4.000000,4.000000,2.000000,4.000000,4.000000,4.000000,4.000000,4.000000,4.000000,83.333336,,,,,,,,,,,,,,,,
1645710522.906807,70.000000,0.000000,4240.000000,4225.641113,4231.794922,4231.410156,4239.871582,4226.025879,4221.282227,4215.769043,4210.641113,4240.000000,4269.743652,4175.384766,4238.589844,4226.282227,0.000000,4.000000,86.000000,,,,0.000000,4.000000,4.000000,4.000000,4.000000,4.000000,4.000000,4.000000,2.000000,4.000000,4.000000,4.000000,4.000000,4.000000,4.000000,83.333336,,,,,,,,,,,,,,,,
1645710522.910747,71.000000,0.000000,4237.051270,4222.692383,4231.153809,4229.230957,4237.051270,4221.922852,4220.512695,4214.615234,4207.948730,4239.615234,4272.436035,4174.358887,4238.974121,4225.897461,0.000000,4.000000,86.000000,,,,0.000000,4.000000,4.000000,4.000000,4.000000,4.000000,4.000000,4.000000,2.000000,4.000000,4.000000,4.000000,4.000000,4.000000,4.000000,83.333336,,,,,,,,,,,,,,,,
1645710522.914687,72.000000,0.000000,4234.871582,4222.307617,4232.692383,4227.948730,4236.153809,4221.282227,4220.769043,4213.333496,4207.563965,4238.717773,4273.589844,4174.743652,4241.666504,4227.948730,0.000000,4.000000,86.000000,,,,0.000000,4.000000,4.000000,4.000000,4.000000,4.000000,4.000000,4.000000,2.000000,4.000000,4.000000,4.000000,4.000000,4.000000,4.000000,83.333336,,,,,,,,,,,,,,,,
1645710522.918627,73.000000,0.000000,4236.538574,4223.846191,4235.512695,4227.307617,4235.641113,4224.102539,4221.410156,4213.205078,4209.358887,4237.692383,4272.179688,4177.051270,4244.871582,4231.410156,0.000000,4.000000,86.000000,,,,0.000000,4.000000,4.000000,4.000000,4.000000,4.000000,4.000000,4.000000,2.000000,4.000000,4.000000,4.000000,4.000000,4.000000,4.000000,83.333336,,,,,,,,,,,,,,,,
1645710522.922567,74.000000,0.000000,4242.179688,4225.384766,4238.077148,4227.436035,4234.871582,4227.692383,4221.794922,4214.743652,4211.410156,4237.051270,4269.358887,4180.384766,4246.410156,4234.487305,0.000000,4.000000,86.000000,,,,0.000000,4.000000,4.000000,4.000000,4.000000,4.000000,4.000000,4.000000,2.000000,4.000000,4.000000,4.000000,4.000000,4.000000,4.000000,83.333336,,,,,,,,,,,,,,,,
1645710522.926508,75.000000,0.000000,4247.179688,4226.153809,4239.487305,4228.333496,4234.871582,4229.743652,4221.794922,4216.538574,4212.179688,4237.820313,4267.307617,4182.692383,4245.897461,4236.153809,0.000000,4.000000,86.000000,,,,0.000000,4.000000,4.000000,4.000000,4.000000,4.000000,4.000000,4.000000,2.000000,4.000000,4.000000,4.000000,4.000000,4.000000,4.000000,83.333336,,,,,,,,,,,,,,,,
1645710522.930348,76.000000,0.000000,4248.077148,4227.051270,4239.487305,4229.743652,4236.410156,4229.230957,4221.666504,4217.051270,4211.410156,4240.000000,4267.948730,4182.051270,4244.743652,4236.025879,0.000000,4.000000,86.000000,,,,0.000000,4.000000,4.000000,4.000000,4.000000,4.000000,4.000000,4.000000,2.000000,4.000000,4.000000,4.000000,4.000000,4.000000,4.000000,83.333336,,,,,,,,,,,,,,,,
1645710522.934288,77.000000,0.000000,4245.641113,4228.461426,4238.461426,4230.384766,4238.205078,4226.794922,4221.153809,4216.410156,4210.256348,4242.307617,4270.128418,4178.717773,4244.743652,4233.974121,0.000000,4.000000,86.000000,,,,0.000000,4.000000,4.000000,4.000000,4.000000,4.000000,4.000000,4.000000,2.000000,4.000000,4.000000,4.000000,4.000000,4.000000,4.000000,83.333336,,,,,,,,,,,,,,,,
1645710522.938228,78.000000,0.000000,4244.230957,4230.128418,4237.692383,4229.230957,4237.820313,4224.230957,4220.512695,4216.025879,4209.487305,4243.333496,4271.153809,4175.384766,4245.897461,4231.025879,0.000000,4.000000,86.000000,,,,0.000000,4.000000,4.000000,4.000000,4.000000,4.000000,4.000000,4.000000,2.000000,4.000000,4.000000,4.000000,4.000000,4.000000,4.000000,83.333336,,,,,,,,,,,,,,,,
1645710522.942168,79.000000,0.000000,4246.410156,4231.282227,4238.974121,4227.307617,4234.871582,4223.717773,4220.000000,4216.666504,4209.743652,4243.077148,4269.615234,4175.000000,4247.179688,4228.589844,0.000000,4.000000,86.000000,,,,0.000000,4.000000,4.000000,4.000000,4.000000,4.000000,4.000000,4.000000,2.000000,4.000000,4.000000,4.000000,4.000000,4.000000,4.000000,83.333336,,,,,,,,,,,,,,,,
1645710522.946108,80.000000,0.000000,4250.384766,4231.410156,4242.307617,4226.666504,4231.922852,4226.538574,4220.512695,4217.948730,4211.025879,4243.333496,4266.922852,4178.205078,4247.692383,4228.205078,0.000000,4.000000,86.000000,,,,0.000000,4.000000,4.000000,4.000000,4.000000,4.000000,4.000000,4.000000,2.000000,4.000000,4.000000,4.000000,4.000000,4.000000,4.000000,83.333336,,,,,,,,,,,,,,,,
1645710522.950048,81.000000,0.000000,4252.692383,4231.025879,4246.410156,4229.102539,4232.436035,4231.025879,4221.922852,4218.077148,4213.077148,4245.512695,4265.769043,4182.692383,4247.436035,4230.000000,0.000000,4.000000,86.000000,,,,0.000000,4.000000,4.000000,4.000000,4.000000,4.000000,4.000000,4.000000,2.000000,4.000000,4.000000,4.000000,4.000000,4.000000,4.000000,83.333336,,,,,,,,,,,,,,,,
1645710522.953988,82.000000,0.000000,4252.692383,4230.384766,4248.717773,4233.333496,4236.538574,4233.461426,4223.461426,4216.538574,4214.230957,4248.333496,4267.051270,4185.384766,4246.538574,4233.461426,0.000000,4.000000,86.000000,,,,0.000000,4.000000,4.000000,4.000000,4.000000,4.000000,4.000000,4.000000,2.000000,4.000000,4.000000,4.000000,4.000000,4.000000,4.000000,83.333336,,,,,,,,,,,,,,,,
1645710522.957928,83.000000,0.000000,4252.307617,4229.487305,4247.692383,4236.922852,4241.153809,4231.282227,4224.102539,4214.743652,4213.333496,4248.717773,4269.358887,4185.128418,4245.512695,4237.307617,0.000000,4.000000,86.000000,,,,0.000000,4.000000,4.000000,4.000000,4.000000,4.000000,4.000000,4.000000,2.000000,4.000000,4.000000,4.000000,4.000000,4.000000,4.000000,83.333336,,,,,,,,,,,,,,,,
1645710522.961869,84.000000,0.000000,4252.563965,4227.948730,4244.230957,4237.307617,4242.307617,4225.641113,4223.846191,4214.230957,4210.641113,4245.384766,4270.512695,4183.205078,4244.358887,4239.871582,0.000000,4.000000,86.000000,,,,0.000000,4.000000,4.000000,4.000000,4.000000,4.000000,4.000000,4.000000,2.000000,4.000000,4.000000,4.000000,4.000000,4.000000,4.000000,83.333336,,,,,,,,,,,,,,,,
1645710522.965809,85.000000,0.000000,4252.051270,4226.025879,4240.256348,4234.615234,4239.743652,4220.897461,4223.333496,4215.000000,4208.461426,4240.128418,4270.000000,4181.666504,4243.846191,4239.615234,0.000000,4.000000,86.000000,,,,0.000000,4.000000,4.000000,4.000000,4.000000,4.000000,4.000000,4.000000,2.000000,4.000000,4.000000,4.000000,4.000000,4.000000,4.000000,83.333336,,,,,,,,,,,,,,,,
1645710522.969749,86.000000,0.000000,4248.717773,4224.487305,4237.820313,4231.410156,4236.410156,4220.641113,4223.589844,4215.512695,4208.846191,4237.051270,4269.102539,4181.538574,4244.615234,4236.153809,0.000000,4.000000,86.000000,,,,0.000000,4.000000,4.000000,4.000000,4.000000,4.000000,4.000000,4.000000,2.000000,4.000000,4.000000,4.000000,4.000000,4.000000,4.000000,83.333336,,,,,,,,,,,,,,,,
1645710522.973689,87.000000,0.000000,4244.102539,4224.230957,4237.820313,4230.256348,4235.769043,4224.358887,4225.000000,4215.256348,4211.922852,4238.205078,4269.230957,4182.820313,4246.666504,4231.410156,0.000000,4.000000,86.000000,,,,0.000000,4.000000,4.000000,4.000000,4.000000,4.000000,4.000000,4.000000,2.000000,4.000000,4.000000,4.000000,4.000000,4.000000,4.000000,83.333336,,,,,,,,,,,,,,,,
1645710522.977629,88.000000,0.000000,4242.692383,4225.641113,4240.128418,4232.051270,4238.077148,4228.717773,4227.307617,4215.128418,4215.128418,4242.563965,4270.769043,4184.743652,4249.102539,4228.846191,0.000000,4.000000,86.000000,,,,0.000000,4.000000,4.000000,4.000000,4.000000,4.000000,4.000000,4.000000,2.000000,4.000000,4.000000,4.000000,4.000000,4.000000,4.000000,83.333336,,,,,,,,,,,,,,,,
1645710522.981569,89.000000,0.000000,4246.538574,4228.077148,4243.589844,4235.384766,4241.922852,4230.384766,4229.743652,4215.897461,4216.153809,4247.051270,4273.717773,4187.692383,4251.282227,4231.025879,0.000000,4.000000,86.000000,,,,0.000000,4.000000,4.000000,4.000000,4.000000,4.000000,4.000000,4.000000,2.000000,4.000000,4.000000,4.000000,4.000000,4.000000,4.000000,83.333336,,,,,,,,,,,,,,,,
1645710522.985509,90.000000,0.000000,4252.179688,4230.512695,4246.538574,4237.692383,4245.641113,4229.487305,4231.538574,4216.666504,4214.358887,4249.230957,4277.948730,4191.666504,4253.077148,4237.179688,0.000000,4.000000,86.000000,,,,0.000000,4.000000,4.000000,4.000000,4.000000,4.000000,4.000000,4.000000,2.000000,4.000000,4.000000,4.000000,4.000000,4.000000,4.000000,83.333336,,,,,,,,,,,,,,,,
1645710522.989449,91.000000,0.000000,4254.358887,4231.794922,4247.563965,4237.692383,4247.820313,4228.077148,4232.051270,4216.410156,4211.538574,4248.974121,4282.692383,4195.897461,4255.512695,4244.102539,0.000000,4.000000,86.000000,,,,0.000000,4.000000,4.000000,4.000000,4.000000,4.000000,4.000000,4.000000,2.000000,4.000000,4.000000,4.000000,4.000000,4.000000,4.000000,83.333336,,,,,,,,,,,,,,,,
1645710522.993389,92.000000,0.000000,4251.538574,4230.000000,4246.794922,4235.256348,4247.692383,4227.948730,4231.153809,4214.743652,4209.615234,4246.922852,4286.666504,4198.974121,4258.589844,4247.820313,0.000000,4.000000,86.000000,,,,0.000000,4.000000,4.000000,4.000000,4.000000,4.000000,4.000000,4.000000,2.000000,4.000000,4.000000,4.000000,4.000000,4.000000,4.000000,83.333336,,,,,,,,,,,,,,,,
1645710522.997330,93.000000,0.000000,4247.179688,4224.615234,4245.256348,4231.153809,4244.487305,4228.717773,4229.487305,4213.333496,4209.358887,4243.333496,4287.820313,4199.743652,4261.025879,4246.410156,0.000000,4.000000,86.000000,,,,0.000000,4.000000,4.000000,4.000000,4.000000,4.000000,4.000000,4.000000,2.000000,4.000000,4.000000,4.000000,4.000000,4.000000,4.000000,83.333336,,,,,,,,,,,,,,,,
1645710523.001270,94.000000,0.000000,4244.615234,4217.307617,4244.102539,4227.179688,4239.230957,4229.230957,4228.205078,4213.717773,4210.512695,4239.230957,4285.384766,4198.589844,4260.769043,4241.153809,0.000000,4.000000,86.000000,,,,0.000000,4.000000,4.000000,4.000000,4.000000,4.000000,4.000000,4.000000,2.000000,4.000000,4.000000,4.000000,4.000000,4.000000,4.000000,83.333336,,,,,,,,,,,,,,,,
1645710523.005110,95.000000,0.000000,4243.974121,4211.922852,4243.717773,4225.512695,4234.871582,4228.461426,4228.077148,4215.128418,4212.563965,4236.282227,4281.410156,4196.922852,4257.820313,4235.512695,0.000000,4.000000,86.000000,,,,0.000000,4.000000,4.000000,4.000000,4.000000,4.000000,4.000000,4.000000,2.000000,4.000000,4.000000,4.000000,4.000000,4.000000,4.000000,83.333336,,,,,,,,,,,,,,,,
1645710523.009050,96.000000,0.000000,4243.461426,4211.794922,4243.717773,4227.179688,4233.846191,4227.436035,4228.974121,4216.025879,4214.743652,4236.538574,4278.589844,4196.794922,4253.077148,4232.436035,0.000000,4.000000,86.000000,,,,0.000000,4.000000,4.000000,4.000000,4.000000,4.000000,4.000000,4.000000,2.000000,4.000000,4.000000,4.000000,4.000000,4.000000,4.000000,83.333336,,,,,,,,,,,,,,,,
1645710523.012990,97.000000,0.000000,4243.205078,4216.025879,4243.846191,4230.641113,4235.641113,4226.538574,4229.743652,4216.025879,4216.282227,4239.743652,4278.077148,4198.589844,4248.205078,4232.179688,0.000000,4.000000,86.000000,,,,0.000000,4.000000,4.000000,4.000000,4.000000,4.000000,4.000000,4.000000,2.000000,4.000000,4.000000,4.000000,4.000000,4.000000,4.000000,83.333336,,,,,,,,,,,,,,,,
1645710523.016930,98.000000,0.000000,4244.871582,4220.512695,4244.487305,4232.820313,4236.666504,4225.256348,4229.230957,4216.025879,4216.282227,4242.436035,4278.077148,4201.153809,4244.358887,4233.077148,0.000000,4.000000,86.000000,,,,0.000000,4.000000,4.000000,4.000000,4.000000,4.000000,4.000000,4.000000,2.000000,4.000000,4.000000,4.000000,4.000000,4.000000,4.000000,83.333336,,,,,,,,,,,,,,,,
1645710523.020870,99.000000,0.000000,4248.717773,4220.769043,4245.897461,4231.666504,4234.743652,4223.077148,4227.948730,4216.922852,4214.615234,4241.153809,4276.282227,4201.410156,4241.666504,4233.717773,0.000000,4.000000,86.000000,,,,0.000000,4.000000,4.000000,4.000000,4.000000,4.000000,4.000000,4.000000,2.000000,4.000000,4.000000,4.000000,4.000000,4.000000,4.000000,83.333336,,,,,,,,,,,,,,,,
1645710523.024810,100.000000,0.000000,4251.794922,4216.282227,4247.563965,4227.820313,4231.025879,4220.512695,4227.307617,4217.820313,4212.179688,4235.384766,4271.666504,4197.820313,4240.384766,4233.461426,0.000000,4.000000,86.000000,,,,0.000000,4.000000,4.000000,4.000000,4.000000,4.000000,4.000000,4.000000,2.000000,4.000000,4.000000,4.000000,4.000000,4.000000,4.000000,83.333336,,,,,,,,,,,,,,,,
1645710523.028750,101.000000,0.000000,4250.769043,4210.641113,4248.846191,4223.717773,4228.846191,4219.102539,4228.205078,4216.794922,4210.384766,4228.333496,4266.153809,4191.538574,4240.000000,4232.820313,0.000000,4.000000,86.000000,,,,0.000000,4.000000,4.000000,4.000000,4.000000,4.000000,4.000000,4.000000,2.000000,4.000000,4.000000,4.000000,4.000000,4.000000,4.000000,83.333336,,,,,,,,,,,,,,,,
1645710523.032691,102.000000,0.000000,4246.666504,4208.077148,4248.974121,4221.025879,4229.871582,4219.487305,4229.358887,4213.846191,4209.871582,4223.717773,4262.307617,4186.025879,4239.743652,4232.179688,0.000000,4.000000,86.000000,,,,0.000000,4.000000,4.000000,4.000000,4.000000,4.000000,4.000000,4.000000,2.000000,4.000000,4.000000,4.000000,4.000000,4.000000,4.000000,83.333336,,,,,,,,,,,,,,,,
1645710523.036631,103.000000,0.000000,4244.102539,4209.743652,4247.948730,4219.615234,4232.692383,4220.256348,4228.846191,4211.025879,4210.256348,4223.077148,4261.153809,4183.846191,4238.589844,4231.666504,0.000000,4.000000,86.000000,,,,0.000000,4.000000,4.000000,4.000000,4.000000,4.000000,4.000000,4.000000,2.000000,4.000000,4.000000,4.000000,4.000000,4.000000,4.000000,83.333336,,,,,,,,,,,,,,,,
1645710523.040571,104.000000,0.000000,4246.153809,4212.820313,4246.794922,4218.846191,4234.487305,4220.384766,4226.153809,4210.641113,4211.025879,4225.512695,4262.436035,4185.641113,4236.666504,4231.410156,0.000000,4.000000,86.000000,,,,0.000000,4.000000,4.000000,4.000000,4.000000,4.000000,4.000000,4.000000,2.000000,4.000000,4.000000,4.000000,4.000000,4.000000,4.000000,83.333336,,,,,,,,,,,,,,,,
1645710523.044511,105.000000,0.000000,4250.769043,4215.000000,4246.538574,4219.743652,4235.000000,4220.384766,4223.205078,4212.307617,4211.794922,4229.230957,4265.128418,4189.358887,4235.512695,4231.538574,0.000000,4.000000,86.000000,,,,0.000000,4.000000,4.000000,4.000000,4.000000,4.000000,4.000000,4.000000,2.000000,4.000000,4.000000,4.000000,4.000000,4.000000,4.000000,83.333336,,,,,,,,,,,,,,,,
1645710523.048451,106.000000,0.000000,4253.205078,4215.384766,4247.436035,4223.589844,4235.897461,4221.410156,4222.179688,4214.230957,4212.436035,4233.077148,4267.948730,4192.436035,4236.794922,4232.307617,0.000000,4.000000,86.000000,,,,0.000000,4.000000,4.000000,4.000000,4.000000,4.000000,4.000000,4.000000,2.000000,4.000000,4.000000,4.000000,4.000000,4.000000,4.000000,83.333336,,,,,,,,,,,,,,,,
1645710523.052391,107.000000,0.000000,4250.897461,4214.743652,4249.102539,4229.358887,4238.461426,4223.846191,4223.846191,4215.128418,4212.692383,4235.512695,4269.102539,4192.563965,4239.871582,4232.692383,0.000000,4.000000,86.000000,,,,0.000000,4.000000,4.000000,4.000000,4.000000,4.000000,4.000000,4.000000,2.000000,4.000000,4.000000,4.000000,4.000000,4.000000,4.000000,83.333336,,,,,,,,,,,,,,,,
1645710523.056331,108.000000,0.000000,4246.794922,4213.974121,4249.487305,4233.205078,4241.666504,4226.025879,4226.538574,4215.256348,4212.179688,4235.128418,4266.666504,4188.974121,4242.436035,4231.794922,0.000000,4.000000,86.000000,,,,0.000000,4.000000,4.000000,4.000000,4.000000,4.000000,4.000000,4.000000,2.000000,4.000000,4.000000,4.000000,4.000000,4.000000,4.000000,83.333336,,,,,,,,,,,,,,,,
1645710523.060271,109.000000,0.000000,4244.358887,4213.589844,4247.436035,4231.922852,4243.205078,4226.410156,4228.974121,4215.769043,4211.282227,4231.153809,4261.538574,4182.692383,4241.666504,4229.102539,0.000000,4.000000,86.000000,,,,0.000000,4.000000,4.000000,4.000000,4.000000,4.000000,4.000000,4.000000,2.000000,4.000000,4.000000,4.000000,4.000000,4.000000,4.000000,83.333336,,,,,,,,,,,,,,,,
1645710523.064211,110.000000,0.000000,4244.230957,4214.358887,4242.948730,4226.922852,4242.436035,4226.025879,4231.153809,4216.538574,4210.769043,4225.384766,4257.051270,4176.282227,4238.333496,4225.256348,0.000000,4.000000,86.000000,,,,0.000000,4.000000,4.000000,4.000000,4.000000,4.000000,4.000000,4.000000,2.000000,4.000000,4.000000,4.000000,4.000000,4.000000,4.000000,83.333336,,,,,,,,,,,,,,,,
1645710523.068152,111.000000,0.000000,4243.846191,4216.666504,4238.333496,4222.820313,4241.538574,4227.051270,4233.077148,4216.794922,4211.410156,4221.922852,4256.666504,4172.436035,4236.025879,4221.666504,0.000000,4.000000,86.000000,,,,0.000000,4.000000,4.000000,4.000000,4.000000,4.000000,4.000000,4.000000,2.000000,4.000000,4.000000,4.000000,4.000000,4.000000,4.000000,83.333336,,,,,,,,,,,,,,,,
1645710523.071992,112.000000,0.000000,4241.794922,4219.487305,4235.512695,4223.077148,4242.692383,4230.384766,4234.358887,4216.282227,4212.436035,4223.717773,4261.025879,4171.282227,4237.179688,4219.743652,0.000000,4.000000,86.000000,,,,0.000000,4.000000,4.000000,4.000000,4.000000,4.000000,4.000000,4.000000,2.000000,4.000000,4.000000,4.000000,4.000000,4.000000,4.000000,83.333336,,,,,,,,,,,,,,,,
1645710523.075932,113.000000,0.000000,4240.128418,4221.282227,4235.128418,4226.666504,4245.769043,4233.974121,4234.487305,4216.025879,4213.333496,4230.512695,4266.410156,4171.666504,4241.153809,4220.128418,0.000000,4.000000,86.000000,,,,0.000000,4.000000,4.000000,4.000000,4.000000,4.000000,4.000000,4.000000,2.000000,4.000000,4.000000,4.000000,4.000000,4.000000,4.000000,83.333336,,,,,,,,,,,,,,,,
1645710523.079872,114.000000,0.000000,4240.769043,4221.410156,4236.025879,4229.743652,4248.846191,4234.871582,4233.333496,4216.922852,4213.846191,4238.461426,4268.589844,4171.794922,4245.256348,4222.051270,0.000000,4.000000,86.000000,,,,0.000000,4.000000,4.000000,4.000000,4.000000,4.000000,4.000000,4.000000,2.000000,4.000000,4.000000,4.000000,4.000000,4.000000,4.000000,83.333336,,,,,,,,,,,,,,,,
1645710523.083812,115.000000,0.000000,4242.948730,4221.025879,4236.410156,4229.871582,4250.384766,4232.436035,4231.794922,4218.717773,4214.615234,4243.589844,4266.538574,4171.025879,4246.922852,4223.846191,0.000000,4.000000,86.000000,,,,0.000000,4.000000,4.000000,4.000000,4.000000,4.000000,4.000000,4.000000,2.000000,4.000000,4.000000,4.000000,4.000000,4.000000,4.000000,83.333336,,,,,,,,,,,,,,,,
1645710523.087752,116.000000,0.000000,4243.333496,4221.794922,4235.512695,4228.077148,4250.384766,4229.487305,4231.153809,4219.871582,4216.410156,4244.358887,4263.205078,4170.000000,4246.282227,4223.846191,0.000000,4.000000,86.000000,,,,0.000000,4.000000,4.000000,4.000000,4.000000,4.000000,4.000000,4.000000,2.000000,4.000000,4.000000,4.000000,4.000000,4.000000,4.000000,83.333336,,,,,,,,,,,,,,,,
1645710523.091592,117.000000,0.000000,4240.512695,4223.846191,4233.461426,4227.436035,4249.487305,4228.589844,4231.538574,4219.615234,4218.461426,4241.666504,4262.179688,4169.487305,4245.000000,4221.282227,0.000000,4.000000,86.000000,,,,0.000000,4.000000,4.000000,4.000000,4.000000,4.000000,4.000000,4.000000,2.000000,4.000000,4.000000,4.000000,4.000000,4.000000,4.000000,83.333336,,,,,,,,,,,,,,,,
1645710523.095532,118.000000,0.000000,4237.307617,4225.641113,4231.538574,4229.230957,4248.077148,4229.871582,4232.179688,4218.333496,4219.358887,4237.051270,4264.230957,4169.743652,4244.615234,4217.179688,0.000000,4.000000,86.000000,,,,0.000000,4.000000,4.000000,4.000000,4.000000,4.000000,4.000000,4.000000,2.000000,4.000000,4.000000,4.000000,4.000000,4.000000,4.000000,83.333336,,,,,,,,,,,,,,,,
1645710523.099473,119.000000,0.000000,4237.307617,4226.025879,4230.641113,4231.922852,4246.410156,4231.410156,4232.436035,4217.179688,4217.948730,4232.820313,4267.307617,4169.743652,4245.897461,4213.974121,0.000000,4.000000,86.000000,,,,0.000000,4.000000,4.000000,4.000000,4.000000,4.000000,4.000000,4.000000,2.000000,4.000000,4.000000,4.000000,4.000000,4.000000,4.000000,83.333336,,,,,,,,,,,,,,,,
1645710523.103413,120.000000,0.000000,4240.769043,4225.128418,4231.153809,4233.077148,4245.512695,4232.051270,4232.051270,4216.410156,4215.128418,4231.666504,4269.230957,4169.615234,4248.589844,4214.102539,0.000000,4.000000,86.000000,,,,0.000000,4.000000,4.000000,4.000000,4.000000,4.000000,4.000000,4.000000,2.000000,4.000000,4.000000,4.000000,4.000000,4.000000,4.000000,83.333336,,,,,,,,,,,,,,,,
1645710523.107353,121.000000,0.000000,4244.102539,4225.384766,4232.307617,4232.051270,4246.794922,4232.179688,4231.922852,4215.769043,4213.205078,4235.000000,4269.871582,4170.000000,4252.820313,4217.948730,0.000000,4.000000,86.000000,,,,0.000000,4.000000,4.000000,4.000000,4.000000,4.000000,4.000000,4.000000,2.000000,4.000000,4.000000,4.000000,4.000000,4.000000,4.000000,83.333336,,,,,,,,,,,,,,,,
1645710523.111293,122.000000,0.000000,4244.102539,4228.077148,4232.948730,4230.384766,4250.512695,4232.948730,4231.922852,4215.256348,4213.589844,4240.897461,4269.871582,4171.282227,4257.307617,4223.205078,0.000000,4.000000,86.000000,,,,0.000000,4.000000,4.000000,4.000000,4.000000,4.000000,4.000000,4.000000,2.000000,4.000000,4.000000,4.000000,4.000000,4.000000,4.000000,83.333336,,,,,,,,,,,,,,,,
1645710523.115233,123.000000,0.000000,4241.794922,4232.307617,4232.563965,4230.512695,4254.358887,4234.615234,4231.538574,4215.256348,4216.025879,4245.128418,4269.487305,4173.077148,4260.256348,4226.922852,0.000000,4.000000,86.000000,,,,0.000000,4.000000,4.000000,4.000000,4.000000,4.000000,4.000000,4.000000,2.000000,4.000000,4.000000,4.000000,4.000000,4.000000,4.000000,83.333336,,,,,,,,,,,,,,,,
1645710523.119173,124.000000,0.000000,4240.641113,4235.769043,4232.051270,4233.461426,4256.153809,4236.025879,4230.512695,4216.025879,4217.948730,4244.358887,4268.205078,4174.615234,4259.615234,4227.436035,0.000000,4.000000,86.000000,,,,0.000000,4.000000,4.000000,4.000000,4.000000,4.000000,4.000000,4.000000,2.000000,4.000000,4.000000,4.000000,4.000000,4.000000,4.000000,83.333336,,,,,,,,,,,,,,,,
1645710523.123113,125.000000,0.000000,4241.666504,4237.436035,4232.436035,4238.077148,4255.897461,4236.153809,4228.589844,4217.179688,4217.948730,4239.871582,4266.410156,4175.641113,4255.897461,4225.512695,0.000000,4.000000,86.000000,,,,0.000000,4.000000,4.000000,4.000000,4.000000,4.000000,4.000000,4.000000,2.000000,4.000000,4.000000,4.000000,4.000000,4.000000,4.000000,83.333336,,,,,,,,,,,,,,,,
1645710523.127053,126.000000,0.000000,4242.563965,4238.077148,4234.102539,4242.179688,4255.641113,4235.128418,4226.538574,4217.179688,4216.794922,4235.769043,4265.384766,4175.512695,4251.153809,4223.205078,0.000000,4.000000,86.000000,,,,0.000000,4.000000,4.000000,4.000000,4.000000,4.000000,4.000000,4.000000,2.000000,4.000000,4.000000,4.000000,4.000000,4.000000,4.000000,83.333336,,,,,,,,,,,,,,,,
1645710523.130993,127.000000,0.000000,4240.897461,4237.820313,4235.128418,4242.820313,4256.538574,4233.717773,4224.743652,4215.769043,4216.410156,4235.641113,4265.641113,4173.846191,4248.077148,4221.538574,0.000000,4.000000,86.000000,,,,0.000000,4.000000,4.000000,4.000000,4.000000,4.000000,4.000000,4.000000,2.000000,4.000000,4.000000,4.000000,4.000000,4.000000,4.000000,83.333336,,,,,,,,,,,,,,,,
1645710523.134934,128.000000,0.000000,4237.948730,4236.410156,4233.846191,4239.230957,4256.794922,4232.692383,4223.717773,4214.358887,4217.692383,4239.230957,4265.641113,4170.897461,4246.922852,4220.641113,3283.000000,4.000000,86.000000,,,,0.000000,4.000000,4.000000,4.000000,4.000000,4.000000,4.000000,4.000000,2.000000,4.000000,4.000000,4.000000,4.000000,4.000000,4.000000,83.333336,,,,,,,,,,,,,,,,
1645710523.138874,129.000000,0.000000,4236.153809,4233.461426,4230.000000,4233.077148,4253.846191,4232.307617,4224.102539,4214.871582,4220.128418,4243.461426,4263.461426,4167.820313,4246.666504,4220.256348,3383.000000,4.000000,86.000000,,,,0.000000,4.000000,4.000000,4.000000,4.000000,4.000000,4.000000,4.000000,2.000000,4.000000,4.000000,4.000000,4.000000,4.000000,4.000000,83.333336,,,,,,,,,,,,,,,,
1645710523.142814,130.000000,0.000000,4235.897461,4230.128418,4225.512695,4227.692383,4248.077148,4232.948730,4226.410156,4217.436035,4222.692383,4245.897461,4258.846191,4166.153809,4246.282227,4220.256348,2122.000000,4.000000,86.000000,,,,0.000000,4.000000,4.000000,4.000000,4.000000,4.000000,4.000000,4.000000,2.000000,4.000000,4.000000,4.000000,4.000000,4.000000,4.000000,83.333336,,,,,,,,,,,,,,,,
1645710523.146754,131.000000,0.000000,4234.358887,4228.205078,4222.692383,4226.153809,4243.077148,4234.358887,4230.512695,4220.384766,4223.846191,4246.666504,4254.615234,4166.666504,4246.025879,4220.897461,3336.000000,4.000000,86.000000,,,,0.000000,4.000000,4.000000,4.000000,4.000000,4.000000,4.000000,4.000000,2.000000,4.000000,4.000000,4.000000,4.000000,4.000000,4.000000,83.333336,,,,,,,,,,,,,,,,
1645710523.150694,132.000000,0.000000,4230.769043,4228.589844,4223.205078,4228.717773,4242.563965,4235.769043,4234.358887,4221.538574,4223.077148,4246.666504,4253.717773,4169.102539,4246.666504,4221.666504,3604.000000,4.000000,86.000000,,,,0.000000,4.000000,4.000000,4.000000,4.000000,4.000000,4.000000,4.000000,2.000000,4.000000,4.000000,4.000000,4.000000,4.000000,4.000000,83.333336,,,,,,,,,,,,,,,,
1645710523.154634,133.000000,0.000000,4227.948730,4230.000000,4226.025879,4232.820313,4245.641113,4235.384766,4235.897461,4220.512695,4220.384766,4245.769043,4256.153809,4171.538574,4247.948730,4222.307617,3384.000000,4.000000,86.000000,,,,0.000000,4.000000,4.000000,4.000000,4.000000,4.000000,4.000000,4.000000,2.000000,4.000000,4.000000,4.000000,4.000000,4.000000,4.000000,83.333336,,,,,,,,,,,,,,,,
1645710523.158474,134.000000,0.000000,4229.743652,4230.000000,4229.230957,4234.743652,4248.333496,4232.692383,4233.461426,4218.846191,4217.179688,4242.436035,4258.717773,4172.436035,4248.717773,4222.051270,3305.000000,4.000000,86.000000,,,,0.000000,4.000000,4.000000,4.000000,4.000000,4.000000,4.000000,4.000000,2.000000,4.000000,4.000000,4.000000,4.000000,4.000000,4.000000,83.333336,,,,,,,,,,,,,,,,
1645710523.162414,135.000000,0.000000,4235.384766,4227.436035,4231.025879,4232.436035,4247.307617,4228.589844,4228.333496,4217.820313,4215.000000,4236.794922,4258.589844,4171.282227,4247.563965,4220.897461,961.000000,4.000000,86.000000,,,,0.000000,4.000000,4.000000,4.000000,4.000000,4.000000,4.000000,4.000000,2.000000,4.000000,4.000000,4.000000,4.000000,4.000000,4.000000,83.333336,,,,,,,,,,,,,,,,
1645710523.166354,136.000000,0.000000,4240.384766,4223.589844,4231.666504,4227.563965,4243.461426,4225.512695,4223.846191,4217.307617,4214.487305,4231.794922,4255.641113,4169.358887,4244.615234,4219.871582,1338.000000,4.000000,86.000000,,,,0.000000,4.000000,4.000000,4.000000,4.000000,4.000000,4.000000,4.000000,2.000000,4.000000,4.000000,4.000000,4.000000,4.000000,4.000000,83.333336,,,,,,,,,,,,,,,,
1645710523.170295,137.000000,0.000000,4241.153809,4221.538574,4231.922852,4223.333496,4240.256348,4224.871582,4222.179688,4216.282227,4215.384766,4230.641113,4252.820313,4169.102539,4241.794922,4220.769043,3033.000000,4.000000,86.000000,,,,0.000000,4.000000,4.000000,4.000000,4.000000,4.000000,4.000000,4.000000,2.000000,4.000000,4.000000,4.000000,4.000000,4.000000,4.000000,83.333336,,,,,,,,,,,,,,,,
1645710523.174235,138.000000,0.000000,4239.487305,4223.333496,4233.333496,4222.051270,4240.000000,4225.512695,4222.820313,4215.128418,4216.153809,4233.846191,4252.820313,4172.307617,4241.666504,4224.871582,2363.000000,4.000000,86.000000,,,,0.000000,4.000000,4.000000,4.000000,4.000000,4.000000,4.000000,4.000000,2.000000,4.000000,4.000000,4.000000,4.000000,4.000000,4.000000,83.333336,,,,,,,,,,,,,,,,
1645710523.178175,139.000000,0.000000,4240.256348,4228.205078,4236.538574,4223.974121,4241.666504,4225.384766,4223.717773,4214.615234,4215.897461,4239.230957,4256.666504,4179.487305,4245.256348,4232.692383,2472.000000,4.000000,86.000000,,,,0.000000,4.000000,4.000000,4.000000,4.000000,4.000000,4.000000,4.000000,2.000000,4.000000,4.000000,4.000000,4.000000,4.000000,4.000000,83.333336,,,,,,,,,,,,,,,,
1645710523.182115,140.000000,0.000000,4245.641113,4233.461426,4241.538574,4227.948730,4243.333496,4223.974121,4223.205078,4215.000000,4215.128418,4244.102539,4264.230957,4188.589844,4251.666504,4242.051270,3298.000000,4.000000,86.000000,,,,0.000000,4.000000,4.000000,4.000000,4.000000,4.000000,4.000000,4.000000,2.000000,4.000000,4.000000,4.000000,4.000000,4.000000,4.000000,83.333336,,,,,,,,,,,,,,,,
1645710523.186055,141.000000,0.000000,4252.436035,4236.282227,4248.077148,4232.820313,4243.717773,4223.205078,4222.436035,4215.256348,4214.871582,4247.563965,4274.102539,4197.436035,4258.589844,4249.487305,2777.000000,4.000000,86.000000,,,,0.000000,4.000000,4.000000,4.000000,4.000000,4.000000,4.000000,4.000000,2.000000,4.000000,4.000000,4.000000,4.000000,4.000000,4.000000,83.333336,,,,,,,,,,,,,,,,
1645710523.189995,142.000000,0.000000,4255.897461,4235.000000,4254.871582,4237.179688,4243.461426,4225.128418,4223.205078,4214.358887,4216.410156,4250.256348,4284.102539,4203.717773,4263.077148,4252.179688,2363.000000,4.000000,86.000000,,,,0.000000,4.000000,4.000000,4.000000,4.000000,4.000000,4.000000,4.000000,2.000000,4.000000,4.000000,4.000000,4.000000,4.000000,4.000000,83.333336,,,,,,,,,,,,,,,,
1645710523.193935,143.000000,0.000000,4254.358887,4229.871582,4259.743652,4238.333496,4242.820313,4229.102539,4226.922852,4212.692383,4218.974121,4252.051270,4290.384766,4205.897461,4263.333496,4250.128418,2472.000000,4.000000,86.000000,,,,0.000000,4.000000,4.000000,4.000000,4.000000,4.000000,4.000000,4.000000,2.000000,4.000000,4.000000,4.000000,4.000000,4.000000,4.000000,83.333336,,,,,,,,,,,,,,,,
