title:Alex-1Cq5YjzM3eu-XaCck7Z5jQ, start timestamp:1645710330.234868, stop timestamp:1645710356.096721, headset type:EPOCPLUS, headset serial:3B9AEBFF, headset firmware:626, channels:55, sampling rate:eeg_256, samples:6565      , version:2.1, 
Timestamp,EEG.Counter,EEG.Interpolated,EEG.AF3,EEG.F7,EEG.F3,EEG.FC5,EEG.T7,EEG.P7,EEG.O1,EEG.O2,EEG.P8,EEG.T8,EEG.FC6,EEG.F4,EEG.F8,EEG.AF4,EEG.RawCq,EEG.Battery,EEG.BatteryPercent,MarkerIndex,MarkerType,MarkerValueInt,EEG.MarkerHardware,CQ.AF3,CQ.F7,CQ.F3,CQ.FC5,CQ.T7,CQ.P7,CQ.O1,CQ.O2,CQ.P8,CQ.T8,CQ.FC6,CQ.F4,CQ.F8,CQ.AF4,CQ.Overall,EQ.SampleRateQuality,EQ.OVERALL,EQ.AF3,EQ.F7,EQ.F3,EQ.FC5,EQ.T7,EQ.P7,EQ.O1,EQ.O2,EQ.P8,EQ.T8,EQ.FC6,EQ.F4,EQ.F8,EQ.AF4
1645710330.234868,61.000000,0.000000,4221.153809,4220.256348,4225.512695,4196.794922,4216.410156,4208.974121,4221.282227,4225.128418,4220.256348,4229.358887,4213.974121,4170.000000,4203.589844,4213.333496,0.000000,4.000000,86.000000,,,,0.000000,4.000000,4.000000,4.000000,4.000000,4.000000,4.000000,4.000000,4.000000,4.000000,4.000000,4.000000,4.000000,4.000000,4.000000,100.000000,,,,,,,,,,,,,,,,
1645710330.238908,62.000000,0.000000,4220.641113,4218.974121,4223.589844,4200.512695,4213.974121,4207.948730,4218.333496,4221.922852,4213.846191,4221.666504,4211.538574,4169.358887,4199.358887,4213.717773,0.000000,4.000000,86.000000,,,,0.000000,4.000000,4.000000,4.000000,4.000000,4.000000,4.000000,4.000000,4.000000,4.000000,4.000000,4.000000,4.000000,4.000000,4.000000,100.000000,,,,,,,,,,,,,,,,
1645710330.242848,63.000000,0.000000,4220.769043,4215.000000,4221.282227,4207.820313,4214.487305,4210.897461,4217.051270,4220.384766,4210.897461,4220.897461,4207.436035,4169.615234,4197.820313,4221.282227,0.000000,4.000000,86.000000,,,,0.000000,4.000000,4.000000,4.000000,4.000000,4.000000,4.000000,4.000000,4.000000,4.000000,4.000000,4.000000,4.000000,4.000000,4.000000,100.000000,,,,,,,,,,,,,,,,
1645710330.246788,64.000000,0.000000,4220.384766,4211.282227,4219.487305,4213.974121,4217.820313,4216.025879,4216.922852,4221.025879,4213.974121,4228.717773,4204.743652,4170.512695,4200.897461,4232.051270,0.000000,4.000000,86.000000,,,,0.000000,4.000000,4.000000,4.000000,4.000000,4.000000,4.000000,4.000000,4.000000,4.000000,4.000000,4.000000,4.000000,4.000000,4.000000,100.000000,,,,,,,,,,,,,,,,
1645710330.250728,65.000000,0.000000,4219.743652,4211.410156,4218.717773,4215.128418,4221.794922,4220.641113,4217.051270,4223.333496,4221.153809,4240.256348,4205.641113,4171.538574,4208.205078,4240.769043,0.000000,4.000000,86.000000,,,,0.000000,4.000000,4.000000,4.000000,4.000000,4.000000,4.000000,4.000000,4.000000,4.000000,4.000000,4.000000,4.000000,4.000000,4.000000,100.000000,,,,,,,,,,,,,,,,
1645710330.254668,66.000000,0.000000,4220.512695,4215.897461,4219.230957,4211.282227,4223.077148,4222.051270,4217.179688,4225.769043,4227.948730,4247.692383,4210.256348,4172.436035,4216.153809,4243.717773,0.000000,4.000000,86.000000,,,,0.000000,4.000000,4.000000,4.000000,4.000000,4.000000,4.000000,4.000000,4.000000,4.000000,4.000000,4.000000,4.000000,4.000000,4.000000,100.000000,,,,,,,,,,,,,,,,
1645710330.258608,67.000000,0.000000,4222.051270,4221.282227,4219.615234,4204.743652,4220.384766,4220.384766,4217.820313,4227.051270,4230.128418,4246.794922,4216.282227,4172.948730,4220.000000,4240.512695,0.000000,4.000000,86.000000,,,,0.000000,4.000000,4.000000,4.000000,4.000000,4.000000,4.000000,4.000000,4.000000,4.000000,4.000000,4.000000,4.000000,4.000000,4.000000,100.000000,,,,,,,,,,,,,,,,
1645710330.262548,68.000000,0.000000,4222.307617,4223.461426,4218.974121,4199.358887,4215.384766,4217.051270,4218.333496,4226.153809,4227.179688,4240.641113,4221.153809,4172.051270,4217.948730,4233.717773,0.000000,4.000000,86.000000,,,,0.000000,4.000000,4.000000,4.000000,4.000000,4.000000,4.000000,4.000000,4.000000,4.000000,4.000000,4.000000,4.000000,4.000000,4.000000,100.000000,,,,,,,,,,,,,,,,
1645710330.266488,69.000000,0.000000,4220.000000,4220.897461,4216.794922,4197.307617,4211.538574,4214.102539,4217.948730,4223.205078,4221.922852,4235.641113,4222.948730,4169.230957,4212.563965,4228.205078,0.000000,4.000000,86.000000,,,,0.000000,4.000000,4.000000,4.000000,4.000000,4.000000,4.000000,4.000000,4.000000,4.000000,4.000000,4.000000,4.000000,4.000000,4.000000,100.000000,,,,,,,,,,,,,,,,
1645710330.270428,70.000000,0.000000,4216.666504,4216.153809,4214.487305,4198.846191,4210.769043,4212.563965,4216.282227,4220.000000,4218.974121,4236.153809,4220.769043,4165.384766,4208.333496,4226.794922,0.000000,4.000000,86.000000,,,,0.000000,4.000000,4.000000,4.000000,4.000000,4.000000,4.000000,4.000000,4.000000,4.000000,4.000000,4.000000,4.000000,4.000000,4.000000,100.000000,,,,,,,,,,,,,,,,
1645710330.274369,71.000000,0.000000,4215.128418,4212.307617,4213.205078,4202.820313,4212.692383,4212.179688,4214.358887,4219.230957,4220.256348,4241.025879,4215.512695,4162.051270,4207.948730,4228.846191,0.000000,4.000000,86.000000,,,,0.000000,4.000000,4.000000,4.000000,4.000000,4.000000,4.000000,4.000000,4.000000,4.000000,4.000000,4.000000,4.000000,4.000000,4.000000,100.000000,,,,,,,,,,,,,,,,
1645710330.278309,72.000000,0.000000,4216.538574,4211.025879,4213.077148,4207.563965,4214.358887,4212.051270,4214.102539,4221.666504,4224.615234,4245.256348,4209.871582,4160.512695,4210.384766,4230.769043,0.000000,4.000000,86.000000,,,,0.000000,4.000000,4.000000,4.000000,4.000000,4.000000,4.000000,4.000000,4.000000,4.000000,4.000000,4.000000,4.000000,4.000000,4.000000,100.000000,,,,,,,,,,,,,,,,
1645710330.282249,73.000000,0.000000,4218.717773,4211.025879,4212.948730,4211.153809,4213.974121,4211.794922,4215.641113,4224.871582,4228.717773,4244.358887,4207.307617,4160.641113,4212.692383,4230.128418,0.000000,4.000000,86.000000,,,,0.000000,4.000000,4.000000,4.000000,4.000000,4.000000,4.000000,4.000000,4.000000,4.000000,4.000000,4.000000,4.000000,4.000000,4.000000,100.000000,,,,,,,,,,,,,,,,
1645710330.286189,74.000000,0.000000,4218.974121,4210.769043,4211.153809,4211.922852,4211.666504,4211.794922,4217.436035,4225.769043,4229.102539,4238.205078,4208.589844,4160.897461,4212.820313,4227.820313,0.000000,4.000000,86.000000,,,,0.000000,4.000000,4.000000,4.000000,4.000000,4.000000,4.000000,4.000000,4.000000,4.000000,4.000000,4.000000,4.000000,4.000000,4.000000,100.000000,,,,,,,,,,,,,,,,
1645710330.290129,75.000000,0.000000,4217.179688,4209.487305,4207.692383,4208.974121,4208.974121,4211.794922,4217.692383,4223.333496,4225.000000,4230.256348,4211.666504,4159.743652,4210.256348,4226.410156,0.000000,4.000000,86.000000,,,,0.000000,4.000000,4.000000,4.000000,4.000000,4.000000,4.000000,4.000000,4.000000,4.000000,4.000000,4.000000,4.000000,4.000000,4.000000,100.000000,,,,,,,,,,,,,,,,
1645710330.294069,76.000000,0.000000,4214.743652,4207.563965,4203.846191,4203.205078,4207.307617,4212.051270,4216.025879,4219.615234,4218.717773,4224.871582,4213.717773,4157.051270,4206.666504,4227.563965,0.000000,4.000000,86.000000,,,,0.000000,4.000000,4.000000,4.000000,4.000000,4.000000,4.000000,4.000000,4.000000,4.000000,4.000000,4.000000,4.000000,4.000000,4.000000,100.000000,,,,,,,,,,,,,,,,
1645710330.298009,77.000000,0.000000,4213.077148,4206.282227,4201.282227,4196.538574,4207.692383,4212.692383,4214.358887,4217.307617,4214.358887,4224.615234,4213.333496,4154.102539,4204.487305,4229.871582,0.000000,4.000000,86.000000,,,,0.000000,4.000000,4.000000,4.000000,4.000000,4.000000,4.000000,4.000000,4.000000,4.000000,4.000000,4.000000,4.000000,4.000000,4.000000,100.000000,,,,,,,,,,,,,,,,
1645710330.301949,78.000000,0.000000,4211.922852,4207.307617,4200.384766,4191.410156,4211.025879,4214.358887,4214.102539,4217.307617,4214.871582,4228.717773,4211.922852,4152.820313,4204.743652,4231.153809,0.000000,4.000000,86.000000,,,,0.000000,4.000000,4.000000,4.000000,4.000000,4.000000,4.000000,4.000000,4.000000,4.000000,4.000000,4.000000,4.000000,4.000000,4.000000,100.000000,,,,,,,,,,,,,,,,
1645710330.305889,79.000000,0.000000,4210.897461,4211.282227,4200.769043,4190.512695,4216.153809,4216.794922,4215.641113,4218.846191,4219.102539,4233.974121,4211.410156,4153.846191,4206.794922,4229.230957,0.000000,4.000000,86.000000,,,,0.000000,4.000000,4.000000,4.000000,4.000000,4.000000,4.000000,4.000000,4.000000,4.000000,4.000000,4.000000,4.000000,4.000000,4.000000,100.000000,,,,,,,,,,,,,,,,
1645710330.309830,80.000000,0.000000,4210.641113,4216.153809,4201.794922,4194.230957,4220.512695,4218.205078,4217.692383,4220.641113,4223.205078,4236.794922,4211.538574,4155.512695,4207.563965,4224.102539,0.000000,4.000000,86.000000,,,,0.000000,4.000000,4.000000,4.000000,4.000000,4.000000,4.000000,4.000000,4.000000,4.000000,4.000000,4.000000,4.000000,4.000000,4.000000,100.000000,,,,,,,,,,,,,,,,
1645710330.313770,81.000000,0.000000,4212.307617,4218.077148,4202.307617,4200.512695,4221.153809,4217.051270,4218.461426,4221.538574,4223.717773,4234.230957,4209.487305,4156.025879,4205.128418,4217.948730,0.000000,4.000000,86.000000,,,,0.000000,4.000000,4.000000,4.000000,4.000000,4.000000,4.000000,4.000000,4.000000,4.000000,4.000000,4.000000,4.000000,4.000000,4.000000,100.000000,,,,,,,,,,,,,,,,
1645710330.317710,82.000000,0.000000,4215.384766,4215.897461,4201.922852,4206.538574,4218.077148,4214.102539,4217.179688,4220.512695,4220.641113,4226.794922,4203.461426,4154.615234,4200.256348,4213.205078,0.000000,4.000000,86.000000,,,,0.000000,4.000000,4.000000,4.000000,4.000000,4.000000,4.000000,4.000000,4.000000,4.000000,4.000000,4.000000,4.000000,4.000000,4.000000,100.000000,1.000000,100.000000,4.000000,4.000000,4.000000,4.000000,4.000000,4.000000,4.000000,4.000000,4.000000,4.000000,4.000000,4.000000,4.000000,4.000000
1645710330.321650,83.000000,0.000000,4217.307617,4211.794922,4200.897461,4210.384766,4214.743652,4212.563965,4214.871582,4217.563965,4216.282227,4218.077148,4195.512695,4152.436035,4195.769043,4212.051270,0.000000,4.000000,86.000000,,,,0.000000,4.000000,4.000000,4.000000,4.000000,4.000000,4.000000,4.000000,4.000000,4.000000,4.000000,4.000000,4.000000,4.000000,4.000000,100.000000,,,,,,,,,,,,,,,,
1645710330.325690,84.000000,0.000000,4216.794922,4209.102539,4199.871582,4211.282227,4214.230957,4214.743652,4214.102539,4214.230957,4213.717773,4213.077148,4189.871582,4151.153809,4193.846191,4214.358887,0.000000,4.000000,86.000000,,,,0.000000,4.000000,4.000000,4.000000,4.000000,4.000000,4.000000,4.000000,4.000000,4.000000,4.000000,4.000000,4.000000,4.000000,4.000000,100.000000,,,,,,,,,,,,,,,,
1645710330.329630,85.000000,0.000000,4214.487305,4209.230957,4199.102539,4208.974121,4217.051270,4219.615234,4215.384766,4212.820313,4213.846191,4214.487305,4189.487305,4151.666504,4194.358887,4217.436035,0.000000,4.000000,86.000000,,,,0.000000,4.000000,4.000000,4.000000,4.000000,4.000000,4.000000,4.000000,4.000000,4.000000,4.000000,4.000000,4.000000,4.000000,4.000000,100.000000,,,,,,,,,,,,,,,,
1645710330.333570,86.000000,0.000000,4213.077148,4210.641113,4198.461426,4204.102539,4220.641113,4222.948730,4217.179688,4214.358887,4215.512695,4221.025879,4193.589844,4153.205078,4195.256348,4218.717773,0.000000,4.000000,86.000000,,,,0.000000,4.000000,4.000000,4.000000,4.000000,4.000000,4.000000,4.000000,4.000000,4.000000,4.000000,4.000000,4.000000,4.000000,4.000000,100.000000,,,,,,,,,,,,,,,,
1645710330.337510,87.000000,0.000000,4213.333496,4211.025879,4198.077148,4198.846191,4222.179688,4222.307617,4217.563965,4217.436035,4216.922852,4229.102539,4198.589844,4154.102539,4195.256348,4217.436035,0.000000,4.000000,86.000000,,,,0.000000,4.000000,4.000000,4.000000,4.000000,4.000000,4.000000,4.000000,4.000000,4.000000,4.000000,4.000000,4.000000,4.000000,4.000000,100.000000,,,,,,,,,,,,,,,,
1645710330.341450,88.000000,0.000000,4213.974121,4210.000000,4197.948730,4195.897461,4221.666504,4217.820313,4216.282227,4219.358887,4217.307617,4234.358887,4202.179688,4153.717773,4195.384766,4215.641113,0.000000,4.000000,86.000000,,,,0.000000,4.000000,4.000000,4.000000,4.000000,4.000000,4.000000,4.000000,4.000000,4.000000,4.000000,4.000000,4.000000,4.000000,4.000000,100.000000,,,,,,,,,,,,,,,,
1645710330.345390,89.000000,0.000000,4213.077148,4209.615234,4198.846191,4196.666504,4220.256348,4212.820313,4214.615234,4219.102539,4217.179688,4235.128418,4204.230957,4152.948730,4197.563965,4215.769043,0.000000,4.000000,86.000000,,,,0.000000,4.000000,4.000000,4.000000,4.000000,4.000000,4.000000,4.000000,4.000000,4.000000,4.000000,4.000000,4.000000,4.000000,4.000000,100.000000,,,,,,,,,,,,,,,,
1645710330.349330,90.000000,0.000000,4211.282227,4210.897461,4200.641113,4199.102539,4219.102539,4209.743652,4213.846191,4217.563965,4217.179688,4232.051270,4205.641113,4152.948730,4201.666504,4218.589844,0.000000,4.000000,86.000000,,,,0.000000,4.000000,4.000000,4.000000,4.000000,4.000000,4.000000,4.000000,4.000000,4.000000,4.000000,4.000000,4.000000,4.000000,4.000000,100.000000,,,,,,,,,,,,,,,,
1645710330.353271,91.000000,0.000000,4210.384766,4213.077148,4202.563965,4199.743652,4217.179688,4208.846191,4213.589844,4216.153809,4217.051270,4227.179688,4206.794922,4154.102539,4204.871582,4222.948730,0.000000,4.000000,86.000000,,,,0.000000,4.000000,4.000000,4.000000,4.000000,4.000000,4.000000,4.000000,4.000000,4.000000,4.000000,4.000000,4.000000,4.000000,4.000000,100.000000,,,,,,,,,,,,,,,,
1645710330.357211,92.000000,0.000000,4210.512695,4214.230957,4203.846191,4197.179688,4213.846191,4209.230957,4212.948730,4215.128418,4216.538574,4222.948730,4207.307617,4155.128418,4204.358887,4226.025879,0.000000,4.000000,86.000000,,,,0.000000,4.000000,4.000000,4.000000,4.000000,4.000000,4.000000,4.000000,4.000000,4.000000,4.000000,4.000000,4.000000,4.000000,4.000000,100.000000,,,,,,,,,,,,,,,,
1645710330.361151,93.000000,0.000000,4210.000000,4212.692383,4203.589844,4194.487305,4210.256348,4209.743652,4211.282227,4213.974121,4215.256348,4219.871582,4206.794922,4155.000000,4199.743652,4225.897461,0.000000,4.000000,86.000000,,,,0.000000,4.000000,4.000000,4.000000,4.000000,4.000000,4.000000,4.000000,4.000000,4.000000,4.000000,4.000000,4.000000,4.000000,4.000000,100.000000,,,,,,,,,,,,,,,,
1645710330.365091,94.000000,0.000000,4207.820313,4208.974121,4202.051270,4196.025879,4208.717773,4210.512695,4209.615234,4212.948730,4213.461426,4217.692383,4204.230957,4153.717773,4193.333496,4222.692383,0.000000,4.000000,86.000000,,,,0.000000,4.000000,4.000000,4.000000,4.000000,4.000000,4.000000,4.000000,4.000000,4.000000,4.000000,4.000000,4.000000,4.000000,4.000000,100.000000,,,,,,,,,,,,,,,,
1645710330.369031,95.000000,0.000000,4205.512695,4204.487305,4200.128418,4202.692383,4210.256348,4212.051270,4209.615234,4213.205078,4211.922852,4215.641113,4198.974121,4151.922852,4188.205078,4218.461426,0.000000,4.000000,86.000000,,,,0.000000,4.000000,4.000000,4.000000,4.000000,4.000000,4.000000,4.000000,4.000000,4.000000,4.000000,4.000000,4.000000,4.000000,4.000000,100.000000,,,,,,,,,,,,,,,,
1645710330.372971,96.000000,0.000000,4205.897461,4201.666504,4198.846191,4209.487305,4213.589844,4214.615234,4211.794922,4215.000000,4211.153809,4213.589844,4192.179688,4151.538574,4186.538574,4215.897461,0.000000,4.000000,86.000000,,,,0.000000,4.000000,4.000000,4.000000,4.000000,4.000000,4.000000,4.000000,4.000000,4.000000,4.000000,4.000000,4.000000,4.000000,4.000000,100.000000,,,,,,,,,,,,,,,,
1645710330.376911,97.000000,0.000000,4209.871582,4202.820313,4199.358887,4209.743652,4216.794922,4217.179688,4215.128418,4217.436035,4211.410156,4213.333496,4187.179688,4153.974121,4188.205078,4216.538574,0.000000,4.000000,86.000000,,,,0.000000,4.000000,4.000000,4.000000,4.000000,4.000000,4.000000,4.000000,4.000000,4.000000,4.000000,4.000000,4.000000,4.000000,4.000000,100.000000,,,,,,,,,,,,,,,,
1645710330.380851,98.000000,0.000000,4214.871582,4207.948730,4201.922852,4201.794922,4218.205078,4218.077148,4217.436035,4219.230957,4212.436035,4216.922852,4188.077148,4158.974121,4192.948730,4220.128418,0.000000,4.000000,86.000000,,,,0.000000,4.000000,4.000000,4.000000,4.000000,4.000000,4.000000,4.000000,4.000000,4.000000,4.000000,4.000000,4.000000,4.000000,4.000000,100.000000,,,,,,,,,,,,,,,,
1645710330.384791,99.000000,0.000000,4217.563965,4214.358887,4205.641113,4191.153809,4217.179688,4215.769043,4217.051270,4219.358887,4214.487305,4224.230957,4196.666504,4164.358887,4199.230957,4224.230957,0.000000,4.000000,86.000000,,,,0.000000,4.000000,4.000000,4.000000,4.000000,4.000000,4.000000,4.000000,4.000000,4.000000,4.000000,4.000000,4.000000,4.000000,4.000000,100.000000,,,,,,,,,,,,,,,,
1645710330.388732,100.000000,0.000000,4216.666504,4217.820313,4208.077148,4185.512695,4213.846191,4210.256348,4214.230957,4218.077148,4217.179688,4232.179688,4209.743652,4167.948730,4205.512695,4227.307617,0.000000,4.000000,86.000000,,,,0.000000,4.000000,4.000000,4.000000,4.000000,4.000000,4.000000,4.000000,4.000000,4.000000,4.000000,4.000000,4.000000,4.000000,4.000000,100.000000,,,,,,,,,,,,,,,,
1645710330.392672,101.000000,0.000000,4214.102539,4215.897461,4208.077148,4188.846191,4209.230957,4203.846191,4210.512695,4217.051270,4219.230957,4236.794922,4221.025879,4168.717773,4210.128418,4228.974121,0.000000,4.000000,86.000000,,,,0.000000,4.000000,4.000000,4.000000,4.000000,4.000000,4.000000,4.000000,4.000000,4.000000,4.000000,4.000000,4.000000,4.000000,4.000000,100.000000,,,,,,,,,,,,,,,,
1645710330.396612,102.000000,0.000000,4212.692383,4209.871582,4206.025879,4198.205078,4205.384766,4200.128418,4208.461426,4217.563965,4218.974121,4236.153809,4225.000000,4167.179688,4211.666504,4230.384766,0.000000,4.000000,86.000000,,,,0.000000,4.000000,4.000000,4.000000,4.000000,4.000000,4.000000,4.000000,4.000000,4.000000,4.000000,4.000000,4.000000,4.000000,4.000000,100.000000,,,,,,,,,,,,,,,,
1645710330.400552,103.000000,0.000000,4213.205078,4205.128418,4204.615234,4207.307617,4204.487305,4201.025879,4209.487305,4219.230957,4215.384766,4232.563965,4221.153809,4164.743652,4210.128418,4232.307617,0.000000,4.000000,86.000000,,,,0.000000,4.000000,4.000000,4.000000,4.000000,4.000000,4.000000,4.000000,4.000000,4.000000,4.000000,4.000000,4.000000,4.000000,4.000000,100.000000,,,,,,,,,,,,,,,,
1645710330.404592,104.000000,0.000000,4214.487305,4206.153809,4205.769043,4211.922852,4207.563965,4205.641113,4213.205078,4219.615234,4210.384766,4229.487305,4214.102539,4163.333496,4207.179688,4233.846191,0.000000,4.000000,86.000000,,,,0.000000,4.000000,4.000000,4.000000,4.000000,4.000000,4.000000,4.000000,4.000000,4.000000,4.000000,4.000000,4.000000,4.000000,4.000000,100.000000,,,,,,,,,,,,,,,,
1645710330.408532,105.000000,0.000000,4215.897461,4213.333496,4210.000000,4211.922852,4213.461426,4210.512695,4216.538574,4217.051270,4206.794922,4228.205078,4209.230957,4164.358887,4205.641113,4233.717773,0.000000,4.000000,86.000000,,,,0.000000,4.000000,4.000000,4.000000,4.000000,4.000000,4.000000,4.000000,4.000000,4.000000,4.000000,4.000000,4.000000,4.000000,4.000000,100.000000,,,,,,,,,,,,,,,,
1645710330.412472,106.000000,0.000000,4217.820313,4222.820313,4215.641113,4210.384766,4218.717773,4212.692383,4216.794922,4212.179688,4206.666504,4228.205078,4209.230957,4167.436035,4207.307617,4231.922852,0.000000,4.000000,86.000000,,,,0.000000,4.000000,4.000000,4.000000,4.000000,4.000000,4.000000,4.000000,4.000000,4.000000,4.000000,4.000000,4.000000,4.000000,4.000000,100.000000,,,,,,,,,,,,,,,,
1645710330.416412,107.000000,0.000000,4220.769043,4228.974121,4220.128418,4209.743652,4219.743652,4211.153809,4214.102539,4207.948730,4209.102539,4228.077148,4213.333496,4170.897461,4211.282227,4230.641113,0.000000,4.000000,86.000000,,,,0.000000,4.000000,4.000000,4.000000,4.000000,4.000000,4.000000,4.000000,4.000000,4.000000,4.000000,4.000000,4.000000,4.000000,4.000000,100.000000,,,,,,,,,,,,,,,,
1645710330.420352,108.000000,0.000000,4223.589844,4228.717773,4221.666504,4209.615234,4215.897461,4207.692383,4210.641113,4206.794922,4211.794922,4227.563965,4218.461426,4171.794922,4214.102539,4231.282227,0.000000,4.000000,86.000000,,,,0.000000,4.000000,4.000000,4.000000,4.000000,4.000000,4.000000,4.000000,4.000000,4.000000,4.000000,4.000000,4.000000,4.000000,4.000000,100.000000,,,,,,,,,,,,,,,,
1645710330.424292,109.000000,0.000000,4224.230957,4223.589844,4219.743652,4207.948730,4210.384766,4205.384766,4208.333496,4208.461426,4213.077148,4227.820313,4221.282227,4168.717773,4213.717773,4232.820313,0.000000,4.000000,86.000000,,,,0.000000,4.000000,4.000000,4.000000,4.000000,4.000000,4.000000,4.000000,4.000000,4.000000,4.000000,4.000000,4.000000,4.000000,4.000000,100.000000,,,,,,,,,,,,,,,,
1645710330.428232,110.000000,0.000000,4222.307617,4216.922852,4216.282227,4203.846191,4207.692383,4205.769043,4208.077148,4210.897461,4213.333496,4228.974121,4220.000000,4163.589844,4210.384766,4232.436035,0.000000,4.000000,86.000000,,,,0.000000,4.000000,4.000000,4.000000,4.000000,4.000000,4.000000,4.000000,4.000000,4.000000,4.000000,4.000000,4.000000,4.000000,4.000000,100.000000,,,,,,,,,,,,,,,,
1645710330.432173,111.000000,0.000000,4220.000000,4212.436035,4213.589844,4199.487305,4209.871582,4208.589844,4209.743652,4212.436035,4213.333496,4229.871582,4215.769043,4159.615234,4206.282227,4229.102539,0.000000,4.000000,86.000000,,,,0.000000,4.000000,4.000000,4.000000,4.000000,4.000000,4.000000,4.000000,4.000000,4.000000,4.000000,4.000000,4.000000,4.000000,4.000000,100.000000,,,,,,,,,,,,,,,,
1645710330.436113,112.000000,0.000000,4219.230957,4211.410156,4213.205078,4198.205078,4215.384766,4211.538574,4212.948730,4212.948730,4213.589844,4228.974121,4211.282227,4159.487305,4203.717773,4224.358887,0.000000,4.000000,86.000000,,,,0.000000,4.000000,4.000000,4.000000,4.000000,4.000000,4.000000,4.000000,4.000000,4.000000,4.000000,4.000000,4.000000,4.000000,4.000000,100.000000,,,,,,,,,,,,,,,,
1645710330.440053,113.000000,0.000000,4219.743652,4213.461426,4215.000000,4202.307617,4220.512695,4213.205078,4216.410156,4213.717773,4213.589844,4226.538574,4208.846191,4162.948730,4203.846191,4220.641113,0.000000,4.000000,86.000000,,,,0.000000,4.000000,4.000000,4.000000,4.000000,4.000000,4.000000,4.000000,4.000000,4.000000,4.000000,4.000000,4.000000,4.000000,4.000000,100.000000,,,,,,,,,,,,,,,,
1645710330.443993,114.000000,0.000000,4219.615234,4217.051270,4217.179688,4209.102539,4222.179688,4213.205078,4218.461426,4214.871582,4212.179688,4225.000000,4208.589844,4166.794922,4205.897461,4219.358887,0.000000,4.000000,86.000000,,,,0.000000,4.000000,4.000000,4.000000,4.000000,4.000000,4.000000,4.000000,4.000000,4.000000,4.000000,4.000000,4.000000,4.000000,4.000000,100.000000,,,,,,,,,,,,,,,,
1645710330.447933,115.000000,0.000000,4218.077148,4221.153809,4218.077148,4213.333496,4219.615234,4211.922852,4218.205078,4215.384766,4208.974121,4225.641113,4208.846191,4167.436035,4207.820313,4220.000000,0.000000,4.000000,86.000000,,,,0.000000,4.000000,4.000000,4.000000,4.000000,4.000000,4.000000,4.000000,4.000000,4.000000,4.000000,4.000000,4.000000,4.000000,4.000000,100.000000,,,,,,,,,,,,,,,,
1645710330.451873,116.000000,0.000000,4216.666504,4225.128418,4216.922852,4211.410156,4214.743652,4210.128418,4216.025879,4214.230957,4205.512695,4227.179688,4207.948730,4163.846191,4207.563965,4220.769043,0.000000,4.000000,86.000000,,,,0.000000,4.000000,4.000000,4.000000,4.000000,4.000000,4.000000,4.000000,4.000000,4.000000,4.000000,4.000000,4.000000,4.000000,4.000000,100.000000,,,,,,,,,,,,,,,,
1645710330.455813,117.000000,0.000000,4217.948730,4228.077148,4214.871582,4206.538574,4211.410156,4208.717773,4213.717773,4211.282227,4203.846191,4227.307617,4205.897461,4158.077148,4205.000000,4220.897461,0.000000,4.000000,86.000000,,,,0.000000,4.000000,4.000000,4.000000,4.000000,4.000000,4.000000,4.000000,4.000000,4.000000,4.000000,4.000000,4.000000,4.000000,4.000000,100.000000,,,,,,,,,,,,,,,,
1645710330.459753,118.000000,0.000000,4221.794922,4229.743652,4213.717773,4205.384766,4212.692383,4208.846191,4213.077148,4208.717773,4205.384766,4225.384766,4204.615234,4154.230957,4202.051270,4220.897461,0.000000,4.000000,86.000000,,,,0.000000,4.000000,4.000000,4.000000,4.000000,4.000000,4.000000,4.000000,4.000000,4.000000,4.000000,4.000000,4.000000,4.000000,4.000000,100.000000,,,,,,,,,,,,,,,,
1645710330.463693,119.000000,0.000000,4225.256348,4230.000000,4214.358887,4211.538574,4218.974121,4211.410156,4214.358887,4208.846191,4209.743652,4223.717773,4206.922852,4155.384766,4201.794922,4223.205078,0.000000,4.000000,86.000000,,,,0.000000,4.000000,4.000000,4.000000,4.000000,4.000000,4.000000,4.000000,4.000000,4.000000,4.000000,4.000000,4.000000,4.000000,4.000000,100.000000,,,,,,,,,,,,,,,,
1645710330.467634,120.000000,0.000000,4225.897461,4228.974121,4216.538574,4220.512695,4226.538574,4215.769043,4216.922852,4213.077148,4214.871582,4224.615234,4213.205078,4161.025879,4204.615234,4228.717773,0.000000,4.000000,86.000000,,,,0.000000,4.000000,4.000000,4.000000,4.000000,4.000000,4.000000,4.000000,4.000000,4.000000,4.000000,4.000000,4.000000,4.000000,4.000000,100.000000,,,,,,,,,,,,,,,,
1645710330.471574,121.000000,0.000000,4223.589844,4226.538574,4218.205078,4225.000000,4230.384766,4219.615234,4218.974121,4220.000000,4218.461426,4228.333496,4220.256348,4167.563965,4208.846191,4234.743652,0.000000,4.000000,86.000000,,,,0.000000,4.000000,4.000000,4.000000,4.000000,4.000000,4.000000,4.000000,4.000000,4.000000,4.000000,4.000000,4.000000,4.000000,4.000000,100.000000,,,,,,,,,,,,,,,,
1645710330.475614,122.000000,0.000000,4221.025879,4222.948730,4217.692383,4221.794922,4228.461426,4221.025879,4219.230957,4225.512695,4219.615234,4232.948730,4223.461426,4171.025879,4211.538574,4237.179688,0.000000,4.000000,86.000000,,,,0.000000,4.000000,4.000000,4.000000,4.000000,4.000000,4.000000,4.000000,4.000000,4.000000,4.000000,4.000000,4.000000,4.000000,4.000000,100.000000,,,,,,,,,,,,,,,,
1645710330.479554,123.000000,0.000000,4219.871582,4219.487305,4215.512695,4215.384766,4222.948730,4220.000000,4218.205078,4226.025879,4218.589844,4236.410156,4220.897461,4170.512695,4211.282227,4233.589844,0.000000,4.000000,86.000000,,,,0.000000,4.000000,4.000000,4.000000,4.000000,4.000000,4.000000,4.000000,4.000000,4.000000,4.000000,4.000000,4.000000,4.000000,4.000000,100.000000,,,,,,,,,,,,,,,,
1645710330.483494,124.000000,0.000000,4220.641113,4218.461426,4214.230957,4212.692383,4218.717773,4218.589844,4217.307617,4221.025879,4216.538574,4238.205078,4214.871582,4168.077148,4209.358887,4225.641113,0.000000,4.000000,86.000000,1,1,0,0.000000,4.000000,4.000000,4.000000,4.000000,4.000000,4.000000,4.000000,4.000000,4.000000,4.000000,4.000000,4.000000,4.000000,4.000000,100.000000,,,,,,,,,,,,,,,,
1645710330.487434,125.000000,0.000000,4222.436035,4221.025879,4215.384766,4215.512695,4218.846191,4218.717773,4217.436035,4214.102539,4214.102539,4238.974121,4209.615234,4166.666504,4207.820313,4218.333496,0.000000,4.000000,86.000000,,,,0.000000,4.000000,4.000000,4.000000,4.000000,4.000000,4.000000,4.000000,4.000000,4.000000,4.000000,4.000000,4.000000,4.000000,4.000000,100.000000,,,,,,,,,,,,,,,,
1645710330.491374,126.000000,0.000000,4224.871582,4226.153809,4218.974121,4219.358887,4222.051270,4220.000000,4218.717773,4210.128418,4211.794922,4238.717773,4208.333496,4167.051270,4207.948730,4216.410156,0.000000,4.000000,86.000000,,,,0.000000,4.000000,4.000000,4.000000,4.000000,4.000000,4.000000,4.000000,4.000000,4.000000,4.000000,4.000000,4.000000,4.000000,4.000000,100.000000,,,,,,,,,,,,,,,,
1645710330.495314,127.000000,0.000000,4227.436035,4231.282227,4222.692383,4218.846191,4224.871582,4221.410156,4220.384766,4211.282227,4210.256348,4237.563965,4211.153809,4168.205078,4209.487305,4221.153809,0.000000,4.000000,86.000000,,,,0.000000,4.000000,4.000000,4.000000,4.000000,4.000000,4.000000,4.000000,4.000000,4.000000,4.000000,4.000000,4.000000,4.000000,4.000000,100.000000,,,,,,,,,,,,,,,,
1645710330.499254,128.000000,0.000000,4229.102539,4234.615234,4224.743652,4214.102539,4226.025879,4222.563965,4221.922852,4215.641113,4210.897461,4235.769043,4216.410156,4169.487305,4212.051270,4228.974121,3272.000000,4.000000,86.000000,,,,0.000000,4.000000,4.000000,4.000000,4.000000,4.000000,4.000000,4.000000,4.000000,4.000000,4.000000,4.000000,4.000000,4.000000,4.000000,100.000000,,,,,,,,,,,,,,,,
1645710330.503194,129.000000,0.000000,4228.974121,4235.128418,4224.743652,4211.538574,4227.051270,4223.974121,4222.692383,4219.358887,4213.846191,4234.487305,4221.794922,4170.897461,4214.871582,4234.871582,3413.000000,4.000000,86.000000,,,,0.000000,4.000000,4.000000,4.000000,4.000000,4.000000,4.000000,4.000000,4.000000,4.000000,4.000000,4.000000,4.000000,4.000000,4.000000,100.000000,,,,,,,,,,,,,,,,
1645710330.507134,130.000000,0.000000,4227.563965,4232.820313,4223.589844,4217.179688,4229.358887,4225.897461,4223.077148,4220.000000,4217.307617,4234.487305,4225.512695,4173.205078,4217.436035,4235.897461,2431.000000,4.000000,86.000000,,,,0.000000,4.000000,4.000000,4.000000,4.000000,4.000000,4.000000,4.000000,4.000000,4.000000,4.000000,4.000000,4.000000,4.000000,4.000000,100.000000,,,,,,,,,,,,,,,,
1645710330.511075,131.000000,0.000000,4226.538574,4229.358887,4222.051270,4229.871582,4232.436035,4227.307617,4223.077148,4217.948730,4218.974121,4235.897461,4227.051270,4176.025879,4219.230957,4233.461426,3296.000000,4.000000,86.000000,,,,0.000000,4.000000,4.000000,4.000000,4.000000,4.000000,4.000000,4.000000,4.000000,4.000000,4.000000,4.000000,4.000000,4.000000,4.000000,100.000000,,,,,,,,,,,,,,,,
1645710330.515015,132.000000,0.000000,4226.922852,4226.922852,4221.153809,4241.666504,4233.461426,4227.179688,4222.692383,4215.897461,4217.948730,4238.717773,4226.410156,4178.333496,4219.487305,4231.153809,3508.000000,4.000000,86.000000,,,,0.000000,4.000000,4.000000,4.000000,4.000000,4.000000,4.000000,4.000000,4.000000,4.000000,4.000000,4.000000,4.000000,4.000000,4.000000,100.000000,,,,,,,,,,,,,,,,
1645710330.518955,133.000000,0.000000,4227.948730,4227.307617,4221.410156,4244.871582,4231.282227,4226.025879,4222.051270,4215.897461,4215.897461,4241.794922,4224.871582,4178.846191,4218.205078,4231.153809,3370.000000,4.000000,86.000000,,,,0.000000,4.000000,4.000000,4.000000,4.000000,4.000000,4.000000,4.000000,4.000000,4.000000,4.000000,4.000000,4.000000,4.000000,4.000000,100.000000,,,,,,,,,,,,,,,,
1645710330.522895,134.000000,0.000000,4227.307617,4229.615234,4221.922852,4237.820313,4227.436035,4225.641113,4221.794922,4217.820313,4215.384766,4243.846191,4223.461426,4177.179688,4215.769043,4232.948730,3193.000000,4.000000,86.000000,,,,0.000000,4.000000,4.000000,4.000000,4.000000,4.000000,4.000000,4.000000,4.000000,4.000000,4.000000,4.000000,4.000000,4.000000,4.000000,100.000000,,,,,,,,,,,,,,,,
1645710330.526835,135.000000,0.000000,4224.102539,4231.025879,4221.282227,4226.410156,4225.256348,4227.051270,4222.051270,4220.256348,4217.179688,4243.717773,4221.794922,4173.589844,4212.820313,4233.846191,1865.000000,4.000000,86.000000,,,,0.000000,4.000000,4.000000,4.000000,4.000000,4.000000,4.000000,4.000000,4.000000,4.000000,4.000000,4.000000,4.000000,4.000000,4.000000,100.000000,,,,,,,,,,,,,,,,
1645710330.530775,136.000000,0.000000,4219.743652,4229.102539,4218.461426,4218.333496,4226.025879,4228.717773,4222.179688,4221.282227,4219.871582,4240.897461,4218.333496,4169.358887,4209.743652,4231.922852,1487.000000,4.000000,86.000000,,,,0.000000,4.000000,4.000000,4.000000,4.000000,4.000000,4.000000,4.000000,4.000000,4.000000,4.000000,4.000000,4.000000,4.000000,4.000000,100.000000,,,,,,,,,,,,,,,,
1645710330.534715,137.000000,0.000000,4216.538574,4223.717773,4214.358887,4217.307617,4228.077148,4227.948730,4220.769043,4220.128418,4220.641113,4235.641113,4212.820313,4165.512695,4207.307617,4226.538574,3056.000000,4.000000,86.000000,,,,0.000000,4.000000,4.000000,4.000000,4.000000,4.000000,4.000000,4.000000,4.000000,4.000000,4.000000,4.000000,4.000000,4.000000,4.000000,100.000000,,,,,,,,,,,,,,,,
1645710330.538755,138.000000,0.000000,4215.256348,4217.307617,4210.641113,4221.025879,4228.461426,4224.358887,4217.692383,4216.922852,4218.589844,4229.358887,4207.179688,4162.436035,4205.769043,4219.615234,2365.000000,4.000000,86.000000,,,,0.000000,4.000000,4.000000,4.000000,4.000000,4.000000,4.000000,4.000000,4.000000,4.000000,4.000000,4.000000,4.000000,4.000000,4.000000,100.000000,,,,,,,,,,,,,,,,
1645710330.542695,139.000000,0.000000,4214.615234,4212.692383,4208.846191,4223.846191,4225.641113,4219.615234,4214.743652,4213.461426,4215.769043,4224.358887,4205.000000,4159.871582,4205.256348,4213.846191,2735.000000,4.000000,86.000000,,,,0.000000,4.000000,4.000000,4.000000,4.000000,4.000000,4.000000,4.000000,4.000000,4.000000,4.000000,4.000000,4.000000,4.000000,4.000000,100.000000,,,,,,,,,,,,,,,,
1645710330.546635,140.000000,0.000000,4213.461426,4211.666504,4208.589844,4221.922852,4220.769043,4216.794922,4213.846191,4211.410156,4214.871582,4222.436035,4207.436035,4157.307617,4205.641113,4211.025879,3322.000000,4.000000,86.000000,,,,0.000000,4.000000,4.000000,4.000000,4.000000,4.000000,4.000000,4.000000,4.000000,4.000000,4.000000,4.000000,4.000000,4.000000,4.000000,100.000000,,,,,,,,,,,,,,,,
1645710330.550576,141.000000,0.000000,4212.436035,4212.948730,4208.846191,4216.153809,4216.282227,4216.282227,4214.743652,4211.666504,4216.922852,4223.846191,4212.563965,4155.128418,4205.512695,4210.512695,2983.000000,4.000000,86.000000,,,,0.000000,4.000000,4.000000,4.000000,4.000000,4.000000,4.000000,4.000000,4.000000,4.000000,4.000000,4.000000,4.000000,4.000000,4.000000,100.000000,,,,,,,,,,,,,,,,
1645710330.554516,142.000000,0.000000,4212.692383,4214.102539,4208.717773,4210.256348,4214.102539,4216.410156,4215.256348,4213.461426,4220.256348,4226.922852,4216.025879,4154.358887,4203.461426,4211.282227,2365.000000,4.000000,86.000000,,,,0.000000,4.000000,4.000000,4.000000,4.000000,4.000000,4.000000,4.000000,4.000000,4.000000,4.000000,4.000000,4.000000,4.000000,4.000000,100.000000,,,,,,,,,,,,,,,,
1645710330.558456,143.000000,0.000000,4214.230957,4213.589844,4207.820313,4207.563965,4214.487305,4214.871582,4213.205078,4216.025879,4222.692383,4229.615234,4215.000000,4154.871582,4199.358887,4212.436035,2735.000000,4.000000,86.000000,,,,0.000000,4.000000,4.000000,4.000000,4.000000,4.000000,4.000000,4.000000,4.000000,4.000000,4.000000,4.000000,4.000000,4.000000,4.000000,100.000000,,,,,,,,,,,,,,,,
1645710330.562396,144.000000,0.000000,4215.384766,4212.436035,4206.410156,4208.717773,4216.282227,4211.538574,4209.230957,4217.692383,4222.948730,4230.897461,4209.743652,4155.384766,4194.871582,4213.717773,3322.000000,4.000000,86.000000,,,,0.000000,4.000000,4.000000,4.000000,4.000000,4.000000,4.000000,4.000000,4.000000,4.000000,4.000000,4.000000,4.000000,4.000000,4.000000,100.000000,,,,,,,,,,,,,,,,
1645710330.566336,145.000000,0.000000,4214.615234,4211.794922,4204.743652,4212.820313,4217.563965,4208.333496,4205.641113,4217.692383,4221.538574,4231.410156,4203.461426,4154.230957,4192.436035,4215.384766,2983.000000,4.000000,86.000000,,,,0.000000,4.000000,4.000000,4.000000,4.000000,4.000000,4.000000,4.000000,4.000000,4.000000,4.000000,4.000000,4.000000,4.000000,4.000000,100.000000,,,,,,,,,,,,,,,,
1645710330.570276,146.000000,0.000000,4212.051270,4211.922852,4202.820313,4217.820313,4216.794922,4206.794922,4204.487305,4216.282227,4219.871582,4231.538574,4199.230957,4151.410156,4192.948730,4216.922852,2365.000000,4.000000,86.000000,,,,0.000000,4.000000,4.000000,4.000000,4.000000,4.000000,4.000000,4.000000,4.000000,4.000000,4.000000,4.000000,4.000000,4.000000,4.000000,100.000000,,,,,,,,,,,,,,,,
1645710330.574116,147.000000,0.000000,4209.615234,4211.794922,4201.282227,4220.769043,4213.717773,4207.179688,4206.538574,4214.230957,4218.717773,4230.897461,4198.205078,4147.948730,4195.256348,4217.820313,2735.000000,4.000000,86.000000,,,,0.000000,4.000000,4.000000,4.000000,4.000000,4.000000,4.000000,4.000000,4.000000,4.000000,4.000000,4.000000,4.000000,4.000000,4.000000,100.000000,,,,,,,,,,,,,,,,
1645710330.578056,148.000000,0.000000,4208.205078,4210.256348,4199.871582,4219.230957,4209.615234,4208.205078,4210.128418,4212.563965,4217.563965,4228.589844,4199.743652,4145.384766,4197.307617,4217.436035,3322.000000,4.000000,86.000000,,,,0.000000,4.000000,4.000000,4.000000,4.000000,4.000000,4.000000,4.000000,4.000000,4.000000,4.000000,4.000000,4.000000,4.000000,4.000000,100.000000,,,,,,,,,,,,,,,,
1645710330.581996,149.000000,0.000000,4207.820313,4207.820313,4198.974121,4213.333496,4207.436035,4209.487305,4212.948730,4210.769043,4216.282227,4225.384766,4202.948730,4144.615234,4198.333496,4216.025879,2983.000000,4.000000,86.000000,,,,0.000000,4.000000,4.000000,4.000000,4.000000,4.000000,4.000000,4.000000,4.000000,4.000000,4.000000,4.000000,4.000000,4.000000,4.000000,100.000000,,,,,,,,,,,,,,,,
1645710330.585937,150.000000,0.000000,4207.692383,4205.897461,4199.230957,4206.666504,4208.717773,4211.153809,4213.333496,4209.358887,4215.384766,4223.717773,4207.563965,4145.769043,4198.717773,4214.487305,2365.000000,4.000000,86.000000,,,,0.000000,4.000000,4.000000,4.000000,4.000000,4.000000,4.000000,4.000000,4.000000,4.000000,4.000000,4.000000,4.000000,4.000000,4.000000,100.000000,,,,,,,,,,,,,,,,
1645710330.589877,151.000000,0.000000,4208.717773,4206.538574,4201.922852,4204.102539,4212.820313,4213.974121,4212.051270,4209.102539,4215.512695,4225.512695,4212.692383,4149.230957,4200.000000,4213.717773,2735.000000,4.000000,86.000000,,,,0.000000,4.000000,4.000000,4.000000,4.000000,4.000000,4.000000,4.000000,4.000000,4.000000,4.000000,4.000000,4.000000,4.000000,4.000000,100.000000,,,,,,,,,,,,,,,,
1645710330.593817,152.000000,0.000000,4212.436035,4210.384766,4207.179688,4208.333496,4217.820313,4217.692383,4211.153809,4210.897461,4217.436035,4230.512695,4217.436035,4154.487305,4202.307617,4214.358887,3322.000000,4.000000,86.000000,,,,0.000000,4.000000,4.000000,4.000000,4.000000,4.000000,4.000000,4.000000,4.000000,4.000000,4.000000,4.000000,4.000000,4.000000,4.000000,100.000000,,,,,,,,,,,,,,,,
1645710330.597757,153.000000,0.000000,4218.461426,4216.410156,4213.205078,4217.051270,4221.922852,4221.538574,4212.051270,4214.358887,4220.384766,4236.025879,4220.641113,4160.769043,4205.000000,4216.410156,2983.000000,4.000000,86.000000,,,,0.000000,4.000000,4.000000,4.000000,4.000000,4.000000,4.000000,4.000000,4.000000,4.000000,4.000000,4.000000,4.000000,4.000000,4.000000,100.000000,,,,,,,,,,,,,,,,
1645710330.601697,154.000000,0.000000,4223.589844,4222.563965,4217.563965,4224.743652,4224.487305,4223.846191,4214.358887,4217.692383,4223.077148,4239.102539,4222.179688,4166.794922,4207.051270,4219.358887,2365.000000,4.000000,86.000000,,,,0.000000,4.000000,4.000000,4.000000,4.000000,4.000000,4.000000,4.000000,4.000000,4.000000,4.000000,4.000000,4.000000,4.000000,4.000000,100.000000,,,,,,,,,,,,,,,,
1645710330.605637,155.000000,0.000000,4224.358887,4226.922852,4218.333496,4225.384766,4225.384766,4223.717773,4216.282227,4219.743652,4224.102539,4239.358887,4222.436035,4171.282227,4207.563965,4222.051270,2735.000000,4.000000,86.000000,,,,0.000000,4.000000,4.000000,4.000000,4.000000,4.000000,4.000000,4.000000,4.000000,4.000000,4.000000,4.000000,4.000000,4.000000,4.000000,100.000000,,,,,,,,,,,,,,,,
1645710330.609577,156.000000,0.000000,4220.256348,4227.692383,4215.641113,4217.307617,4223.846191,4220.512695,4216.025879,4219.743652,4222.948730,4237.692383,4221.025879,4173.077148,4205.897461,4222.820313,3322.000000,4.000000,86.000000,,,,0.000000,4.000000,4.000000,4.000000,4.000000,4.000000,4.000000,4.000000,4.000000,4.000000,4.000000,4.000000,4.000000,4.000000,4.000000,100.000000,,,,,,,,,,,,,,,,
1645710330.613517,157.000000,0.000000,4214.230957,4223.974121,4211.282227,4204.487305,4219.102539,4215.256348,4213.461426,4218.205078,4219.871582,4234.358887,4217.179688,4171.282227,4202.179688,4220.641113,2983.000000,4.000000,86.000000,,,,0.000000,4.000000,4.000000,4.000000,4.000000,4.000000,4.000000,4.000000,4.000000,4.000000,4.000000,4.000000,4.000000,4.000000,4.000000,100.000000,,,,,,,,,,,,,,,,
1645710330.617457,158.000000,0.000000,4208.974121,4216.538574,4206.666504,4194.743652,4212.563965,4210.384766,4210.512695,4216.153809,4216.794922,4230.000000,4211.282227,4166.025879,4197.692383,4216.025879,2365.000000,4.000000,86.000000,,,,0.000000,4.000000,4.000000,4.000000,4.000000,4.000000,4.000000,4.000000,4.000000,4.000000,4.000000,4.000000,4.000000,4.000000,4.000000,100.000000,,,,,,,,,,,,,,,,
1645710330.621398,159.000000,0.000000,4206.025879,4208.846191,4202.820313,4193.333496,4207.692383,4208.461426,4209.615234,4214.615234,4215.384766,4226.025879,4206.025879,4159.230957,4194.743652,4211.538574,2735.000000,4.000000,86.000000,,,,0.000000,4.000000,4.000000,4.000000,4.000000,4.000000,4.000000,4.000000,4.000000,4.000000,4.000000,4.000000,4.000000,4.000000,4.000000,100.000000,,,,,,,,,,,,,,,,
1645710330.625338,160.000000,0.000000,4204.871582,4205.000000,4201.025879,4200.256348,4207.563965,4210.000000,4211.538574,4214.358887,4216.282227,4224.743652,4204.743652,4154.358887,4194.358887,4209.102539,3322.000000,4.000000,86.000000,,,,0.000000,4.000000,4.000000,4.000000,4.000000,4.000000,4.000000,4.000000,4.000000,4.000000,4.000000,4.000000,4.000000,4.000000,4.000000,100.000000,,,,,,,,,,,,,,,,
1645710330.629278,161.000000,0.000000,4205.384766,4205.897461,4201.922852,4209.358887,4212.051270,4213.589844,4215.000000,4215.256348,4217.948730,4225.641113,4207.820313,4154.102539,4195.897461,4209.615234,2983.000000,4.000000,86.000000,,,,0.000000,4.000000,4.000000,4.000000,4.000000,4.000000,4.000000,4.000000,4.000000,4.000000,4.000000,4.000000,4.000000,4.000000,4.000000,100.000000,,,,,,,,,,,,,,,,
1645710330.633218,162.000000,0.000000,4207.948730,4208.846191,4205.512695,4214.230957,4217.948730,4217.307617,4218.461426,4216.153809,4218.589844,4227.179688,4212.436035,4158.717773,4197.436035,4211.922852,2365.000000,4.000000,86.000000,2,1,0,0.000000,4.000000,4.000000,4.000000,4.000000,4.000000,4.000000,4.000000,4.000000,4.000000,4.000000,4.000000,4.000000,4.000000,4.000000,100.000000,,,,,,,,,,,,,,,,
1645710330.637158,163.000000,0.000000,4212.051270,4210.641113,4210.641113,4212.179688,4221.282227,4219.615234,4221.282227,4216.410156,4217.563965,4227.948730,4214.615234,4165.128418,4198.333496,4214.615234,2735.000000,4.000000,86.000000,,,,0.000000,4.000000,4.000000,4.000000,4.000000,4.000000,4.000000,4.000000,4.000000,4.000000,4.000000,4.000000,4.000000,4.000000,4.000000,100.000000,,,,,,,,,,,,,,,,
1645710330.641098,164.000000,0.000000,4215.256348,4210.512695,4215.256348,4206.282227,4220.641113,4220.256348,4222.820313,4215.897461,4215.641113,4228.846191,4213.077148,4169.230957,4199.230957,4216.538574,3322.000000,4.000000,86.000000,,,,0.000000,4.000000,4.000000,4.000000,4.000000,4.000000,4.000000,4.000000,4.000000,4.000000,4.000000,4.000000,4.000000,4.000000,4.000000,100.000000,,,,,,,,,,,,,,,,
1645710330.645038,165.000000,0.000000,4215.512695,4209.615234,4217.692383,4201.922852,4217.307617,4220.128418,4222.820313,4215.128418,4214.358887,4231.025879,4209.487305,4168.461426,4200.128418,4217.179688,2983.000000,4.000000,86.000000,,,,0.000000,4.000000,4.000000,4.000000,4.000000,4.000000,4.000000,4.000000,4.000000,4.000000,4.000000,4.000000,4.000000,4.000000,4.000000,100.000000,,,,,,,,,,,,,,,,
1645710330.648978,166.000000,0.000000,4213.205078,4209.230957,4217.179688,4202.179688,4213.205078,4219.615234,4220.897461,4215.384766,4214.615234,4233.077148,4206.922852,4163.589844,4200.897461,4216.666504,2365.000000,4.000000,86.000000,,,,0.000000,4.000000,4.000000,4.000000,4.000000,4.000000,4.000000,4.000000,4.000000,4.000000,4.000000,4.000000,4.000000,4.000000,4.000000,100.000000,,,,,,,,,,,,,,,,
1645710330.652918,167.000000,0.000000,4211.153809,4210.128418,4214.615234,4205.256348,4210.000000,4218.846191,4217.948730,4216.538574,4215.384766,4232.307617,4206.666504,4157.820313,4200.384766,4215.641113,2735.000000,4.000000,86.000000,,,,0.000000,4.000000,4.000000,4.000000,4.000000,4.000000,4.000000,4.000000,4.000000,4.000000,4.000000,4.000000,4.000000,4.000000,4.000000,100.000000,,,,,,,,,,,,,,,,
1645710330.656759,168.000000,0.000000,4211.538574,4212.179688,4212.307617,4208.077148,4208.333496,4218.205078,4215.769043,4217.563965,4215.512695,4227.692383,4208.333496,4154.743652,4198.974121,4215.128418,3322.000000,4.000000,86.000000,,,,0.000000,4.000000,4.000000,4.000000,4.000000,4.000000,4.000000,4.000000,4.000000,4.000000,4.000000,4.000000,4.000000,4.000000,4.000000,100.000000,,,,,,,,,,,,,,,,
1645710330.660699,169.000000,0.000000,4213.717773,4215.000000,4211.794922,4209.487305,4208.846191,4218.717773,4215.384766,4217.563965,4215.000000,4222.179688,4210.256348,4155.641113,4198.077148,4215.000000,2983.000000,4.000000,86.000000,,,,0.000000,4.000000,4.000000,4.000000,4.000000,4.000000,4.000000,4.000000,4.000000,4.000000,4.000000,4.000000,4.000000,4.000000,4.000000,100.000000,,,,,,,,,,,,,,,,
1645710330.664639,170.000000,0.000000,4215.384766,4217.948730,4213.589844,4210.000000,4211.538574,4220.384766,4216.538574,4216.410156,4214.487305,4220.384766,4210.512695,4158.846191,4198.717773,4214.743652,2365.000000,4.000000,86.000000,,,,0.000000,4.000000,4.000000,4.000000,4.000000,4.000000,4.000000,4.000000,4.000000,4.000000,4.000000,4.000000,4.000000,4.000000,4.000000,100.000000,,,,,,,,,,,,,,,,
1645710330.668579,171.000000,0.000000,4215.769043,4220.000000,4216.282227,4210.128418,4215.256348,4221.794922,4217.820313,4215.512695,4214.871582,4224.358887,4209.230957,4161.282227,4200.641113,4214.871582,2735.000000,4.000000,86.000000,,,,0.000000,4.000000,4.000000,4.000000,4.000000,4.000000,4.000000,4.000000,4.000000,4.000000,4.000000,4.000000,4.000000,4.000000,4.000000,100.000000,,,,,,,,,,,,,,,,
1645710330.672519,172.000000,0.000000,4216.025879,4220.256348,4218.717773,4209.230957,4218.205078,4221.794922,4218.333496,4215.641113,4215.897461,4231.410156,4207.820313,4161.025879,4202.948730,4215.897461,3322.000000,4.000000,86.000000,,,,0.000000,4.000000,4.000000,4.000000,4.000000,4.000000,4.000000,4.000000,4.000000,4.000000,4.000000,4.000000,4.000000,4.000000,4.000000,100.000000,,,,,,,,,,,,,,,,
1645710330.676459,173.000000,0.000000,4217.563965,4217.436035,4219.871582,4207.436035,4219.487305,4220.769043,4217.820313,4217.179688,4217.051270,4237.307617,4208.717773,4159.230957,4205.000000,4218.205078,2983.000000,4.000000,86.000000,,,,0.000000,4.000000,4.000000,4.000000,4.000000,4.000000,4.000000,4.000000,4.000000,4.000000,4.000000,4.000000,4.000000,4.000000,4.000000,100.000000,,,,,,,,,,,,,,,,
1645710330.680399,174.000000,0.000000,4219.487305,4212.436035,4219.871582,4206.025879,4218.717773,4219.743652,4217.436035,4218.974121,4217.820313,4239.743652,4212.307617,4158.333496,4206.666504,4220.128418,2365.000000,4.000000,86.000000,,,,0.000000,4.000000,4.000000,4.000000,4.000000,4.000000,4.000000,4.000000,4.000000,4.000000,4.000000,4.000000,4.000000,4.000000,4.000000,100.000000,,,,,,,,,,,,,,,,
1645710330.684339,175.000000,0.000000,4219.871582,4207.692383,4219.230957,4206.666504,4217.051270,4220.000000,4218.333496,4219.743652,4218.205078,4239.743652,4216.282227,4159.743652,4207.051270,4219.871582,2735.000000,4.000000,86.000000,,,,0.000000,4.000000,4.000000,4.000000,4.000000,4.000000,4.000000,4.000000,4.000000,4.000000,4.000000,4.000000,4.000000,4.000000,4.000000,100.000000,,,,,,,,,,,,,,,,
1645710330.688279,176.000000,0.000000,4218.205078,4206.025879,4218.205078,4208.846191,4215.128418,4221.282227,4219.615234,4218.974121,4218.461426,4239.358887,4217.563965,4162.692383,4205.384766,4217.051270,3322.000000,4.000000,86.000000,,,,0.000000,4.000000,4.000000,4.000000,4.000000,4.000000,4.000000,4.000000,4.000000,4.000000,4.000000,4.000000,4.000000,4.000000,4.000000,100.000000,,,,,,,,,,,,,,,,
1645710330.692220,177.000000,0.000000,4216.282227,4208.205078,4216.538574,4211.025879,4213.077148,4222.179688,4220.128418,4217.436035,4218.717773,4238.589844,4215.128418,4165.256348,4201.538574,4214.487305,2983.000000,4.000000,86.000000,,,,0.000000,4.000000,4.000000,4.000000,4.000000,4.000000,4.000000,4.000000,4.000000,4.000000,4.000000,4.000000,4.000000,4.000000,4.000000,100.000000,,,,,,,,,,,,,,,,
1645710330.696160,178.000000,0.000000,4216.153809,4213.205078,4215.000000,4212.563965,4211.538574,4221.666504,4219.230957,4216.410156,4218.333496,4236.410156,4212.307617,4166.922852,4197.179688,4215.769043,2365.000000,4.000000,86.000000,,,,0.000000,4.000000,4.000000,4.000000,4.000000,4.000000,4.000000,4.000000,4.000000,4.000000,4.000000,4.000000,4.000000,4.000000,4.000000,100.000000,,,,,,,,,,,,,,,,
1645710330.700100,179.000000,0.000000,4217.948730,4219.102539,4214.743652,4213.974121,4211.922852,4220.256348,4218.205078,4216.282227,4217.179688,4233.077148,4213.333496,4167.948730,4194.743652,4221.153809,2735.000000,4.000000,86.000000,,,,0.000000,4.000000,4.000000,4.000000,4.000000,4.000000,4.000000,4.000000,4.000000,4.000000,4.000000,4.000000,4.000000,4.000000,4.000000,100.000000,,,,,,,,,,,,,,,,
1645710330.704040,180.000000,0.000000,4220.128418,4223.974121,4216.410156,4216.410156,4214.871582,4219.743652,4218.846191,4216.282227,4216.282227,4231.282227,4219.358887,4169.743652,4195.512695,4227.563965,3322.000000,4.000000,86.000000,,,,0.000000,4.000000,4.000000,4.000000,4.000000,4.000000,4.000000,4.000000,4.000000,4.000000,4.000000,4.000000,4.000000,4.000000,4.000000,100.000000,,,,,,,,,,,,,,,,
1645710330.707980,181.000000,0.000000,4221.153809,4226.794922,4219.871582,4219.615234,4219.487305,4221.153809,4221.153809,4216.025879,4216.794922,4232.948730,4226.538574,4172.563965,4198.974121,4230.512695,2983.000000,4.000000,86.000000,,,,0.000000,4.000000,4.000000,4.000000,4.000000,4.000000,4.000000,4.000000,4.000000,4.000000,4.000000,4.000000,4.000000,4.000000,4.000000,100.000000,,,,,,,,,,,,,,,,
1645710330.711920,182.000000,0.000000,4221.666504,4227.307617,4223.461426,4221.794922,4223.461426,4223.589844,4223.717773,4215.769043,4218.717773,4237.436035,4228.974121,4175.384766,4203.205078,4228.974121,2365.000000,4.000000,86.000000,,,,0.000000,4.000000,4.000000,4.000000,4.000000,4.000000,4.000000,4.000000,4.000000,4.000000,4.000000,4.000000,4.000000,4.000000,4.000000,100.000000,,,,,,,,,,,,,,,,
1645710330.715860,183.000000,0.000000,4222.436035,4225.641113,4225.384766,4222.051270,4224.615234,4224.871582,4225.000000,4216.538574,4221.282227,4242.179688,4224.358887,4176.794922,4205.512695,4225.256348,2735.000000,4.000000,86.000000,,,,0.000000,4.000000,4.000000,4.000000,4.000000,4.000000,4.000000,4.000000,4.000000,4.000000,4.000000,4.000000,4.000000,4.000000,4.000000,100.000000,,,,,,,,,,,,,,,,
1645710330.719800,184.000000,0.000000,4222.563965,4222.307617,4224.615234,4220.128418,4222.179688,4223.461426,4223.846191,4218.205078,4222.436035,4244.358887,4215.512695,4175.769043,4204.230957,4222.948730,3322.000000,4.000000,86.000000,,,,0.000000,4.000000,4.000000,4.000000,4.000000,4.000000,4.000000,4.000000,4.000000,4.000000,4.000000,4.000000,4.000000,4.000000,4.000000,100.000000,,,,,,,,,,,,,,,,
1645710330.723740,185.000000,0.000000,4220.384766,4217.307617,4221.666504,4217.051270,4217.563965,4219.358887,4220.641113,4219.358887,4221.794922,4242.563965,4208.333496,4172.692383,4199.743652,4223.589844,2983.000000,4.000000,86.000000,,,,0.000000,4.000000,4.000000,4.000000,4.000000,4.000000,4.000000,4.000000,4.000000,4.000000,4.000000,4.000000,4.000000,4.000000,4.000000,100.000000,,,,,,,,,,,,,,,,
1645710330.727581,186.000000,0.000000,4216.025879,4212.051270,4218.077148,4213.589844,4212.563965,4214.871582,4217.051270,4218.205078,4219.743652,4237.307617,4206.794922,4168.846191,4194.102539,4226.025879,2365.000000,4.000000,86.000000,,,,0.000000,4.000000,4.000000,4.000000,4.000000,4.000000,4.000000,4.000000,4.000000,4.000000,4.000000,4.000000,4.000000,4.000000,4.000000,100.000000,,,,,,,,,,,,,,,,
1645710330.731521,187.000000,0.000000,4212.563965,4208.717773,4214.743652,4210.000000,4208.333496,4212.179688,4214.743652,4215.641113,4217.563965,4231.922852,4210.384766,4166.538574,4190.000000,4228.974121,2735.000000,4.000000,86.000000,,,,0.000000,4.000000,4.000000,4.000000,4.000000,4.000000,4.000000,4.000000,4.000000,4.000000,4.000000,4.000000,4.000000,4.000000,4.000000,100.000000,,,,,,,,,,,,,,,,
1645710330.735461,188.000000,0.000000,4213.717773,4208.974121,4212.948730,4207.436035,4205.897461,4212.436035,4214.615234,4214.358887,4216.153809,4229.615234,4214.743652,4166.666504,4189.230957,4231.025879,3322.000000,4.000000,86.000000,,,,0.000000,4.000000,4.000000,4.000000,4.000000,4.000000,4.000000,4.000000,4.000000,4.000000,4.000000,4.000000,4.000000,4.000000,4.000000,100.000000,,,,,,,,,,,,,,,,
1645710330.739401,189.000000,0.000000,4219.487305,4212.820313,4213.333496,4207.307617,4205.641113,4215.769043,4216.410156,4216.666504,4215.512695,4231.922852,4215.769043,4168.846191,4191.794922,4231.666504,2983.000000,4.000000,86.000000,,,,0.000000,4.000000,4.000000,4.000000,4.000000,4.000000,4.000000,4.000000,4.000000,4.000000,4.000000,4.000000,4.000000,4.000000,4.000000,100.000000,,,,,,,,,,,,,,,,
1645710330.743341,190.000000,0.000000,4225.769043,4218.205078,4216.282227,4210.641113,4207.948730,4220.384766,4219.102539,4221.410156,4216.153809,4237.436035,4213.333496,4171.666504,4196.282227,4231.282227,2365.000000,4.000000,86.000000,,,,0.000000,4.000000,4.000000,4.000000,4.000000,4.000000,4.000000,4.000000,4.000000,4.000000,4.000000,4.000000,4.000000,4.000000,4.000000,100.000000,,,,,,,,,,,,,,,,
1645710330.747281,191.000000,0.000000,4228.333496,4222.307617,4220.512695,4215.641113,4211.922852,4223.589844,4220.769043,4225.256348,4218.461426,4242.307617,4210.256348,4174.230957,4200.641113,4229.743652,2735.000000,4.000000,86.000000,,,,0.000000,4.000000,4.000000,4.000000,4.000000,4.000000,4.000000,4.000000,4.000000,4.000000,4.000000,4.000000,4.000000,4.000000,4.000000,100.000000,,,,,,,,,,,,,,,,
1645710330.751221,192.000000,0.000000,4226.410156,4223.461426,4224.487305,4219.615234,4215.512695,4223.461426,4220.128418,4226.282227,4222.179688,4243.717773,4209.230957,4175.512695,4203.461426,4227.436035,3322.000000,4.000000,86.000000,,,,0.000000,4.000000,4.000000,4.000000,4.000000,4.000000,4.000000,4.000000,4.000000,4.000000,4.000000,4.000000,4.000000,4.000000,4.000000,100.000000,,,,,,,,,,,,,,,,
1645710330.755161,193.000000,0.000000,4222.820313,4222.179688,4226.153809,4220.256348,4217.307617,4220.256348,4217.307617,4225.384766,4225.769043,4241.282227,4210.512695,4175.128418,4204.102539,4225.000000,2983.000000,4.000000,86.000000,,,,0.000000,4.000000,4.000000,4.000000,4.000000,4.000000,4.000000,4.000000,4.000000,4.000000,4.000000,4.000000,4.000000,4.000000,4.000000,100.000000,,,,,,,,,,,,,,,,
1645710330.759101,194.000000,0.000000,4220.512695,4220.897461,4225.128418,4218.077148,4217.307617,4216.794922,4214.615234,4225.128418,4227.307617,4238.077148,4212.179688,4173.077148,4202.307617,4224.358887,2365.000000,4.000000,86.000000,,,,0.000000,4.000000,4.000000,4.000000,4.000000,4.000000,4.000000,4.000000,4.000000,4.000000,4.000000,4.000000,4.000000,4.000000,4.000000,100.000000,,,,,,,,,,,,,,,,
1645710330.763042,195.000000,0.000000,4219.871582,4221.794922,4222.820313,4215.641113,4217.051270,4216.153809,4215.000000,4226.794922,4226.153809,4237.179688,4212.563965,4170.641113,4199.230957,4226.922852,2735.000000,4.000000,86.000000,,,,0.000000,4.000000,4.000000,4.000000,4.000000,4.000000,4.000000,4.000000,4.000000,4.000000,4.000000,4.000000,4.000000,4.000000,4.000000,100.000000,,,,,,,,,,,,,,,,
1645710330.766982,196.000000,0.000000,4220.128418,4224.871582,4221.025879,4215.256348,4217.820313,4219.743652,4219.102539,4228.589844,4223.717773,4238.846191,4211.410156,4169.230957,4197.563965,4231.410156,3322.000000,4.000000,86.000000,,,,0.000000,4.000000,4.000000,4.000000,4.000000,4.000000,4.000000,4.000000,4.000000,4.000000,4.000000,4.000000,4.000000,4.000000,4.000000,100.000000,,,,,,,,,,,,,,,,
1645710330.770922,197.000000,0.000000,4220.897461,4228.077148,4221.025879,4216.666504,4219.871582,4225.641113,4225.000000,4228.333496,4221.794922,4241.282227,4209.615234,4169.487305,4199.358887,4234.615234,2983.000000,4.000000,86.000000,,,,0.000000,4.000000,4.000000,4.000000,4.000000,4.000000,4.000000,4.000000,4.000000,4.000000,4.000000,4.000000,4.000000,4.000000,4.000000,100.000000,,,,,,,,,,,,,,,,
1645710330.774862,198.000000,0.000000,4222.692383,4229.487305,4223.077148,4217.179688,4222.179688,4230.384766,4229.102539,4225.000000,4221.794922,4242.948730,4209.487305,4171.282227,4204.615234,4233.717773,2365.000000,4.000000,86.000000,,,,0.000000,4.000000,4.000000,4.000000,4.000000,4.000000,4.000000,4.000000,4.000000,4.000000,4.000000,4.000000,4.000000,4.000000,4.000000,100.000000,,,,,,,,,,,,,,,,
1645710330.778802,199.000000,0.000000,4224.871582,4229.871582,4225.384766,4215.000000,4223.974121,4231.794922,4229.615234,4220.641113,4223.333496,4243.717773,4212.563965,4173.333496,4210.897461,4229.230957,2735.000000,4.000000,86.000000,,,,0.000000,4.000000,4.000000,4.000000,4.000000,4.000000,4.000000,4.000000,4.000000,4.000000,4.000000,4.000000,4.000000,4.000000,4.000000,100.000000,,,,,,,,,,,,,,,,
1645710330.782742,200.000000,0.000000,4226.153809,4230.128418,4226.025879,4211.153809,4224.487305,4230.384766,4226.794922,4217.563965,4224.487305,4243.974121,4218.589844,4174.487305,4215.769043,4225.128418,3322.000000,4.000000,86.000000,,,,0.000000,4.000000,4.000000,4.000000,4.000000,4.000000,4.000000,4.000000,4.000000,4.000000,4.000000,4.000000,4.000000,4.000000,4.000000,100.000000,,,,,,,,,,,,,,,,
1645710330.786682,201.000000,0.000000,4225.256348,4230.128418,4223.846191,4208.974121,4223.461426,4228.077148,4222.563965,4217.051270,4223.974121,4242.820313,4224.871582,4174.230957,4217.820313,4224.487305,2983.000000,4.000000,86.000000,,,,0.000000,4.000000,4.000000,4.000000,4.000000,4.000000,4.000000,4.000000,4.000000,4.000000,4.000000,4.000000,4.000000,4.000000,4.000000,100.000000,,,,,,,,,,,,,,,,
1645710330.790722,202.000000,0.000000,4222.563965,4227.820313,4219.615234,4210.897461,4220.384766,4225.769043,4219.230957,4218.974121,4221.666504,4239.102539,4226.922852,4172.948730,4216.794922,4226.922852,2365.000000,4.000000,86.000000,,,,0.000000,4.000000,4.000000,4.000000,4.000000,4.000000,4.000000,4.000000,4.000000,4.000000,4.000000,4.000000,4.000000,4.000000,4.000000,100.000000,,,,,,,,,,,,,,,,
1645710330.794662,203.000000,0.000000,4220.000000,4221.922852,4215.256348,4215.256348,4215.512695,4223.461426,4217.820313,4222.051270,4219.102539,4233.717773,4222.436035,4171.025879,4213.589844,4228.717773,2735.000000,4.000000,86.000000,,,,0.000000,4.000000,4.000000,4.000000,4.000000,4.000000,4.000000,4.000000,4.000000,4.000000,4.000000,4.000000,4.000000,4.000000,4.000000,100.000000,,,,,,,,,,,,,,,,
1645710330.798602,204.000000,0.000000,4218.205078,4213.974121,4212.692383,4217.948730,4210.128418,4221.282227,4218.077148,4224.743652,4218.077148,4229.871582,4214.358887,4169.358887,4209.615234,4227.307617,3322.000000,4.000000,86.000000,,,,0.000000,4.000000,4.000000,4.000000,4.000000,4.000000,4.000000,4.000000,4.000000,4.000000,4.000000,4.000000,4.000000,4.000000,4.000000,100.000000,,,,,,,,,,,,,,,,
1645710330.802542,205.000000,0.000000,4216.922852,4209.102539,4212.436035,4215.769043,4206.922852,4220.000000,4218.205078,4226.282227,4219.230957,4229.743652,4208.333496,4168.333496,4207.436035,4223.333496,2983.000000,4.000000,86.000000,,,,0.000000,4.000000,4.000000,4.000000,4.000000,4.000000,4.000000,4.000000,4.000000,4.000000,4.000000,4.000000,4.000000,4.000000,4.000000,100.000000,,,,,,,,,,,,,,,,
1645710330.806483,206.000000,0.000000,4215.769043,4211.410156,4213.717773,4209.743652,4207.692383,4220.256348,4217.051270,4226.922852,4221.025879,4233.205078,4208.333496,4168.205078,4208.077148,4220.000000,2365.000000,4.000000,86.000000,,,,0.000000,4.000000,4.000000,4.000000,4.000000,4.000000,4.000000,4.000000,4.000000,4.000000,4.000000,4.000000,4.000000,4.000000,4.000000,100.000000,,,,,,,,,,,,,,,,
1645710330.810423,207.000000,0.000000,4215.512695,4221.025879,4215.000000,4203.846191,4211.410156,4222.051270,4215.128418,4226.666504,4221.666504,4237.307617,4212.436035,4168.717773,4210.769043,4219.871582,2735.000000,4.000000,86.000000,,,,0.000000,4.000000,4.000000,4.000000,4.000000,4.000000,4.000000,4.000000,4.000000,4.000000,4.000000,4.000000,4.000000,4.000000,4.000000,100.000000,,,,,,,,,,,,,,,,
1645710330.814363,208.000000,0.000000,4216.794922,4232.436035,4215.384766,4202.051270,4214.358887,4223.461426,4213.717773,4225.641113,4220.128418,4238.974121,4214.487305,4169.358887,4213.333496,4223.205078,3322.000000,4.000000,86.000000,,,,0.000000,4.000000,4.000000,4.000000,4.000000,4.000000,4.000000,4.000000,4.000000,4.000000,4.000000,4.000000,4.000000,4.000000,4.000000,100.000000,,,,,,,,,,,,,,,,
1645710330.818303,209.000000,0.000000,4218.846191,4238.589844,4215.256348,4205.128418,4213.846191,4223.589844,4213.717773,4223.077148,4217.820313,4237.179688,4210.641113,4169.615234,4213.974121,4227.307617,2983.000000,4.000000,86.000000,,,,0.000000,4.000000,4.000000,4.000000,4.000000,4.000000,4.000000,4.000000,4.000000,4.000000,4.000000,4.000000,4.000000,4.000000,4.000000,100.000000,,,,,,,,,,,,,,,,
1645710330.822243,210.000000,0.000000,4220.512695,4236.922852,4215.769043,4210.769043,4210.897461,4222.307617,4214.743652,4219.358887,4216.666504,4233.974121,4204.230957,4169.230957,4212.948730,4229.230957,2365.000000,4.000000,86.000000,,,,0.000000,4.000000,4.000000,4.000000,4.000000,4.000000,4.000000,4.000000,4.000000,4.000000,4.000000,4.000000,4.000000,4.000000,4.000000,100.000000,1.000000,100.000000,4.000000,4.000000,4.000000,4.000000,4.000000,4.000000,4.000000,4.000000,4.000000,4.000000,4.000000,4.000000,4.000000,4.000000
1645710330.826183,211.000000,0.000000,4221.282227,4230.000000,4217.820313,4215.512695,4209.358887,4221.282227,4216.282227,4215.641113,4217.436035,4232.436035,4201.666504,4169.102539,4212.307617,4228.205078,2735.000000,4.000000,86.000000,,,,0.000000,4.000000,4.000000,4.000000,4.000000,4.000000,4.000000,4.000000,4.000000,4.000000,4.000000,4.000000,4.000000,4.000000,4.000000,100.000000,,,,,,,,,,,,,,,,
1645710330.830123,212.000000,0.000000,4222.179688,4223.205078,4220.769043,4216.922852,4211.538574,4221.282227,4217.051270,4213.846191,4218.589844,4233.589844,4206.794922,4169.615234,4213.589844,4225.769043,3322.000000,4.000000,86.000000,,,,0.000000,4.000000,4.000000,4.000000,4.000000,4.000000,4.000000,4.000000,4.000000,4.000000,4.000000,4.000000,4.000000,4.000000,4.000000,100.000000,,,,,,,,,,,,,,,,
1645710330.834063,213.000000,0.000000,4223.974121,4219.487305,4223.461426,4213.974121,4215.641113,4222.436035,4216.922852,4214.358887,4218.589844,4236.025879,4216.153809,4170.512695,4216.153809,4223.846191,2983.000000,4.000000,86.000000,,,,0.000000,4.000000,4.000000,4.000000,4.000000,4.000000,4.000000,4.000000,4.000000,4.000000,4.000000,4.000000,4.000000,4.000000,4.000000,100.000000,,,,,,,,,,,,,,,,
1645710330.838003,214.000000,0.000000,4225.769043,4218.846191,4224.615234,4208.333496,4218.205078,4223.333496,4216.538574,4216.282227,4217.307617,4237.563965,4223.333496,4170.897461,4217.820313,4223.461426,2365.000000,4.000000,86.000000,,,,0.000000,4.000000,4.000000,4.000000,4.000000,4.000000,4.000000,4.000000,4.000000,4.000000,4.000000,4.000000,4.000000,4.000000,4.000000,100.000000,,,,,,,,,,,,,,,,
1645710330.841944,215.000000,0.000000,4225.256348,4219.615234,4223.589844,4202.820313,4217.436035,4223.974121,4217.179688,4217.820313,4215.897461,4237.307617,4223.974121,4170.512695,4217.948730,4224.487305,2735.000000,4.000000,86.000000,,,,0.000000,4.000000,4.000000,4.000000,4.000000,4.000000,4.000000,4.000000,4.000000,4.000000,4.000000,4.000000,4.000000,4.000000,4.000000,100.000000,,,,,,,,,,,,,,,,
1645710330.845884,216.000000,0.000000,4222.563965,4221.282227,4221.538574,4201.025879,4215.000000,4224.743652,4219.743652,4217.820313,4215.641113,4235.897461,4219.871582,4170.384766,4217.820313,4226.410156,3322.000000,4.000000,86.000000,,,,0.000000,4.000000,4.000000,4.000000,4.000000,4.000000,4.000000,4.000000,4.000000,4.000000,4.000000,4.000000,4.000000,4.000000,4.000000,100.000000,,,,,,,,,,,,,,,,
1645710330.849824,217.000000,0.000000,4220.769043,4223.974121,4220.897461,4204.743652,4213.974121,4225.897461,4223.077148,4216.538574,4216.538574,4234.230957,4215.769043,4171.410156,4218.589844,4229.615234,2983.000000,4.000000,86.000000,,,,0.000000,4.000000,4.000000,4.000000,4.000000,4.000000,4.000000,4.000000,4.000000,4.000000,4.000000,4.000000,4.000000,4.000000,4.000000,100.000000,,,,,,,,,,,,,,,,
1645710330.853764,218.000000,0.000000,4223.077148,4227.820313,4223.333496,4212.948730,4215.641113,4227.179688,4225.128418,4215.384766,4217.179688,4232.436035,4214.871582,4174.102539,4220.000000,4233.974121,2365.000000,4.000000,86.000000,,,,0.000000,4.000000,4.000000,4.000000,4.000000,4.000000,4.000000,4.000000,4.000000,4.000000,4.000000,4.000000,4.000000,4.000000,4.000000,100.000000,,,,,,,,,,,,,,,,
1645710330.857704,219.000000,0.000000,4229.230957,4231.922852,4228.461426,4222.436035,4218.589844,4227.563965,4224.615234,4216.025879,4216.410156,4231.025879,4216.538574,4176.794922,4220.641113,4237.948730,2735.000000,4.000000,86.000000,,,,0.000000,4.000000,4.000000,4.000000,4.000000,4.000000,4.000000,4.000000,4.000000,4.000000,4.000000,4.000000,4.000000,4.000000,4.000000,100.000000,,,,,,,,,,,,,,,,
1645710330.861644,220.000000,0.000000,4234.871582,4234.743652,4233.333496,4228.717773,4220.384766,4226.922852,4222.307617,4218.077148,4215.256348,4231.153809,4218.205078,4177.948730,4220.256348,4239.230957,3322.000000,4.000000,86.000000,,,,0.000000,4.000000,4.000000,4.000000,4.000000,4.000000,4.000000,4.000000,4.000000,4.000000,4.000000,4.000000,4.000000,4.000000,4.000000,100.000000,,,,,,,,,,,,,,,,
1645710330.865584,221.000000,0.000000,4235.384766,4235.256348,4235.000000,4228.461426,4220.128418,4225.256348,4220.256348,4220.641113,4215.512695,4234.102539,4218.717773,4176.410156,4219.743652,4236.794922,2983.000000,4.000000,86.000000,,,,0.000000,4.000000,4.000000,4.000000,4.000000,4.000000,4.000000,4.000000,4.000000,4.000000,4.000000,4.000000,4.000000,4.000000,4.000000,100.000000,,,,,,,,,,,,,,,,
1645710330.869524,222.000000,0.000000,4230.769043,4233.077148,4232.692383,4221.410156,4218.461426,4223.461426,4220.000000,4222.436035,4217.948730,4240.384766,4218.974121,4173.333496,4220.384766,4232.307617,2365.000000,4.000000,86.000000,,,,0.000000,4.000000,4.000000,4.000000,4.000000,4.000000,4.000000,4.000000,4.000000,4.000000,4.000000,4.000000,4.000000,4.000000,4.000000,100.000000,,,,,,,,,,,,,,,,
1645710330.873464,223.000000,0.000000,4224.743652,4229.102539,4228.717773,4211.282227,4216.922852,4221.922852,4221.282227,4223.077148,4221.538574,4248.205078,4220.512695,4170.769043,4222.179688,4229.358887,2735.000000,4.000000,86.000000,,,,0.000000,4.000000,4.000000,4.000000,4.000000,4.000000,4.000000,4.000000,4.000000,4.000000,4.000000,4.000000,4.000000,4.000000,4.000000,100.000000,,,,,,,,,,,,,,,,
1645710330.877405,224.000000,0.000000,4220.897461,4225.384766,4226.025879,4203.974121,4217.051270,4221.153809,4223.205078,4223.205078,4224.615234,4254.230957,4223.589844,4169.871582,4223.717773,4229.871582,3322.000000,4.000000,86.000000,,,,0.000000,4.000000,4.000000,4.000000,4.000000,4.000000,4.000000,4.000000,4.000000,4.000000,4.000000,4.000000,4.000000,4.000000,4.000000,100.000000,,,,,,,,,,,,,,,,
1645710330.881245,225.000000,0.000000,4220.384766,4223.717773,4226.410156,4203.461426,4219.102539,4221.410156,4224.487305,4223.461426,4226.410156,4256.538574,4227.051270,4170.000000,4223.589844,4232.820313,2983.000000,4.000000,86.000000,,,,0.000000,4.000000,4.000000,4.000000,4.000000,4.000000,4.000000,4.000000,4.000000,4.000000,4.000000,4.000000,4.000000,4.000000,4.000000,100.000000,,,,,,,,,,,,,,,,
1645710330.885185,226.000000,0.000000,4221.153809,4224.102539,4228.589844,4208.717773,4221.666504,4222.307617,4224.871582,4224.615234,4227.051270,4255.512695,4228.461426,4170.128418,4221.922852,4234.871582,2365.000000,4.000000,86.000000,,,,0.000000,4.000000,4.000000,4.000000,4.000000,4.000000,4.000000,4.000000,4.000000,4.000000,4.000000,4.000000,4.000000,4.000000,4.000000,100.000000,,,,,,,,,,,,,,,,
1645710330.889125,227.000000,0.000000,4222.436035,4225.128418,4229.743652,4215.256348,4222.307617,4223.077148,4225.128418,4227.307617,4227.692383,4253.589844,4227.051270,4169.871582,4220.128418,4233.333496,2735.000000,4.000000,86.000000,,,,0.000000,4.000000,4.000000,4.000000,4.000000,4.000000,4.000000,4.000000,4.000000,4.000000,4.000000,4.000000,4.000000,4.000000,4.000000,100.000000,,,,,,,,,,,,,,,,
1645710330.893065,228.000000,0.000000,4224.615234,4225.769043,4228.846191,4217.948730,4220.128418,4223.333496,4226.410156,4231.410156,4229.358887,4252.563965,4223.974121,4170.000000,4219.615234,4228.974121,3322.000000,4.000000,86.000000,,,,0.000000,4.000000,4.000000,4.000000,4.000000,4.000000,4.000000,4.000000,4.000000,4.000000,4.000000,4.000000,4.000000,4.000000,4.000000,100.000000,,,,,,,,,,,,,,,,
1645710330.897005,229.000000,0.000000,4228.333496,4226.538574,4227.563965,4216.153809,4217.179688,4223.205078,4228.974121,4235.641113,4231.410156,4252.692383,4222.563965,4172.307617,4220.512695,4225.512695,2983.000000,4.000000,86.000000,,,,0.000000,4.000000,4.000000,4.000000,4.000000,4.000000,4.000000,4.000000,4.000000,4.000000,4.000000,4.000000,4.000000,4.000000,4.000000,100.000000,,,,,,,,,,,,,,,,
1645710330.900945,230.000000,0.000000,4231.666504,4228.846191,4227.692383,4213.077148,4216.922852,4224.102539,4232.179688,4238.461426,4233.333496,4254.102539,4224.743652,4177.051270,4222.436035,4226.153809,2365.000000,4.000000,86.000000,,,,0.000000,4.000000,4.000000,4.000000,4.000000,4.000000,4.000000,4.000000,4.000000,4.000000,4.000000,4.000000,4.000000,4.000000,4.000000,100.000000,,,,,,,,,,,,,,,,
1645710330.904885,231.000000,0.000000,4231.538574,4232.692383,4228.589844,4212.820313,4220.897461,4226.794922,4234.743652,4239.230957,4234.487305,4256.666504,4230.128418,4182.563965,4224.743652,4231.538574,2735.000000,4.000000,86.000000,,,,0.000000,4.000000,4.000000,4.000000,4.000000,4.000000,4.000000,4.000000,4.000000,4.000000,4.000000,4.000000,4.000000,4.000000,4.000000,100.000000,,,,,,,,,,,,,,,,
1645710330.908825,232.000000,0.000000,4227.563965,4235.512695,4228.205078,4217.051270,4226.025879,4230.000000,4235.128418,4238.205078,4235.256348,4259.358887,4235.512695,4185.897461,4226.922852,4238.846191,3322.000000,4.000000,86.000000,,,,0.000000,4.000000,4.000000,4.000000,4.000000,4.000000,4.000000,4.000000,4.000000,4.000000,4.000000,4.000000,4.000000,4.000000,4.000000,100.000000,,,,,,,,,,,,,,,,
1645710330.912766,233.000000,0.000000,4222.692383,4235.256348,4225.769043,4223.846191,4227.948730,4231.538574,4233.461426,4237.051270,4235.769043,4260.512695,4238.205078,4185.384766,4228.461426,4244.102539,2983.000000,4.000000,86.000000,,,,0.000000,4.000000,4.000000,4.000000,4.000000,4.000000,4.000000,4.000000,4.000000,4.000000,4.000000,4.000000,4.000000,4.000000,4.000000,100.000000,,,,,,,,,,,,,,,,
1645710330.916706,234.000000,0.000000,4220.512695,4232.179688,4222.820313,4229.487305,4224.743652,4230.128418,4231.153809,4236.794922,4235.256348,4258.461426,4237.692383,4181.410156,4228.333496,4244.358887,2365.000000,4.000000,86.000000,,,,0.000000,4.000000,4.000000,4.000000,4.000000,4.000000,4.000000,4.000000,4.000000,4.000000,4.000000,4.000000,4.000000,4.000000,4.000000,100.000000,,,,,,,,,,,,,,,,
1645710330.920646,235.000000,0.000000,4221.666504,4229.230957,4221.538574,4230.897461,4218.589844,4226.922852,4230.384766,4236.538574,4232.692383,4253.461426,4235.384766,4176.794922,4226.922852,4239.615234,2735.000000,4.000000,86.000000,,,,0.000000,4.000000,4.000000,4.000000,4.000000,4.000000,4.000000,4.000000,4.000000,4.000000,4.000000,4.000000,4.000000,4.000000,4.000000,100.000000,,,,,,,,,,,,,,,,
1645710330.924586,236.000000,0.000000,4223.846191,4229.358887,4222.307617,4226.410156,4213.974121,4225.128418,4232.307617,4234.871582,4228.846191,4248.205078,4232.563965,4174.102539,4225.384766,4232.820313,3322.000000,4.000000,86.000000,,,,0.000000,4.000000,4.000000,4.000000,4.000000,4.000000,4.000000,4.000000,4.000000,4.000000,4.000000,4.000000,4.000000,4.000000,4.000000,100.000000,,,,,,,,,,,,,,,,
1645710330.928526,237.000000,0.000000,4224.615234,4232.948730,4223.461426,4217.179688,4213.205078,4226.025879,4235.769043,4231.538574,4225.769043,4246.153809,4229.487305,4173.846191,4224.743652,4228.077148,2983.000000,4.000000,86.000000,,,,0.000000,4.000000,4.000000,4.000000,4.000000,4.000000,4.000000,4.000000,4.000000,4.000000,4.000000,4.000000,4.000000,4.000000,4.000000,100.000000,,,,,,,,,,,,,,,,
1645710330.932466,238.000000,0.000000,4223.846191,4237.307617,4223.205078,4207.051270,4215.641113,4228.717773,4237.948730,4228.589844,4225.384766,4248.717773,4226.153809,4174.871582,4225.256348,4227.307617,2365.000000,4.000000,86.000000,,,,0.000000,4.000000,4.000000,4.000000,4.000000,4.000000,4.000000,4.000000,4.000000,4.000000,4.000000,4.000000,4.000000,4.000000,4.000000,100.000000,,,,,,,,,,,,,,,,
1645710330.936406,239.000000,0.000000,4222.948730,4238.333496,4221.025879,4201.410156,4218.589844,4231.153809,4236.410156,4228.077148,4227.436035,4253.974121,4224.102539,4175.512695,4226.025879,4229.743652,2735.000000,4.000000,86.000000,,,,0.000000,4.000000,4.000000,4.000000,4.000000,4.000000,4.000000,4.000000,4.000000,4.000000,4.000000,4.000000,4.000000,4.000000,4.000000,100.000000,,,,,,,,,,,,,,,,
1645710330.940346,240.000000,0.000000,4222.820313,4234.743652,4218.077148,4203.333496,4219.871582,4231.538574,4231.538574,4229.615234,4230.000000,4258.205078,4224.102539,4175.000000,4226.538574,4232.179688,3322.000000,4.000000,86.000000,,,,0.000000,4.000000,4.000000,4.000000,4.000000,4.000000,4.000000,4.000000,4.000000,4.000000,4.000000,4.000000,4.000000,4.000000,4.000000,100.000000,,,,,,,,,,,,,,,,
1645710330.944286,241.000000,0.000000,4222.948730,4228.333496,4215.897461,4211.794922,4218.846191,4230.256348,4225.897461,4230.128418,4231.153809,4258.846191,4225.641113,4173.589844,4226.794922,4231.794922,2983.000000,4.000000,86.000000,,,,0.000000,4.000000,4.000000,4.000000,4.000000,4.000000,4.000000,4.000000,4.000000,4.000000,4.000000,4.000000,4.000000,4.000000,4.000000,100.000000,,,,,,,,,,,,,,,,
1645710330.948227,242.000000,0.000000,4222.692383,4222.948730,4215.641113,4221.538574,4216.410156,4228.333496,4221.794922,4227.692383,4229.871582,4255.384766,4225.897461,4172.179688,4227.436035,4227.820313,2365.000000,4.000000,86.000000,,,,0.000000,4.000000,4.000000,4.000000,4.000000,4.000000,4.000000,4.000000,4.000000,4.000000,4.000000,4.000000,4.000000,4.000000,4.000000,100.000000,,,,,,,,,,,,,,,,
1645710330.952167,243.000000,0.000000,4222.179688,4221.025879,4216.794922,4226.666504,4214.102539,4226.538574,4220.512695,4222.948730,4226.538574,4249.230957,4223.077148,4170.897461,4228.077148,4222.051270,2735.000000,4.000000,86.000000,,,,0.000000,4.000000,4.000000,4.000000,4.000000,4.000000,4.000000,4.000000,4.000000,4.000000,4.000000,4.000000,4.000000,4.000000,4.000000,100.000000,,,,,,,,,,,,,,,,
1645710330.956007,244.000000,0.000000,4221.153809,4222.179688,4217.692383,4224.487305,4212.948730,4225.256348,4221.794922,4219.102539,4223.205078,4242.692383,4217.307617,4169.871582,4227.692383,4216.794922,3322.000000,4.000000,86.000000,,,,0.000000,4.000000,4.000000,4.000000,4.000000,4.000000,4.000000,4.000000,4.000000,4.000000,4.000000,4.000000,4.000000,4.000000,4.000000,100.000000,,,,,,,,,,,,,,,,
1645710330.959947,245.000000,0.000000,4219.230957,4223.846191,4217.307617,4216.666504,4212.820313,4224.615234,4224.358887,4218.846191,4221.410156,4237.820313,4211.922852,4168.846191,4225.512695,4213.974121,2983.000000,4.000000,86.000000,,,,0.000000,4.000000,4.000000,4.000000,4.000000,4.000000,4.000000,4.000000,4.000000,4.000000,4.000000,4.000000,4.000000,4.000000,4.000000,100.000000,,,,,,,,,,,,,,,,
1645710330.963887,246.000000,0.000000,4216.025879,4224.102539,4215.384766,4208.333496,4213.077148,4224.487305,4227.179688,4222.179688,4221.922852,4236.282227,4210.769043,4168.077148,4222.051270,4214.102539,2365.000000,4.000000,86.000000,,,,0.000000,4.000000,4.000000,4.000000,4.000000,4.000000,4.000000,4.000000,4.000000,4.000000,4.000000,4.000000,4.000000,4.000000,4.000000,100.000000,,,,,,,,,,,,,,,,
1645710330.967827,247.000000,0.000000,4213.461426,4223.077148,4213.589844,4204.487305,4213.077148,4225.128418,4228.589844,4226.922852,4223.846191,4238.205078,4215.256348,4167.692383,4218.974121,4217.051270,2735.000000,4.000000,86.000000,,,,0.000000,4.000000,4.000000,4.000000,4.000000,4.000000,4.000000,4.000000,4.000000,4.000000,4.000000,4.000000,4.000000,4.000000,4.000000,100.000000,,,,,,,,,,,,,,,,
1645710330.971767,248.000000,0.000000,4214.102539,4223.077148,4213.846191,4206.666504,4213.077148,4225.897461,4227.948730,4230.000000,4226.025879,4242.563965,4222.692383,4167.948730,4218.461426,4222.179688,3322.000000,4.000000,86.000000,,,,0.000000,4.000000,4.000000,4.000000,4.000000,4.000000,4.000000,4.000000,4.000000,4.000000,4.000000,4.000000,4.000000,4.000000,4.000000,100.000000,,,,,,,,,,,,,,,,
1645710330.975707,249.000000,0.000000,4218.461426,4225.128418,4216.282227,4212.563965,4213.589844,4226.410156,4225.512695,4230.000000,4227.692383,4247.436035,4228.846191,4168.846191,4221.794922,4228.205078,2983.000000,4.000000,86.000000,,,,0.000000,4.000000,4.000000,4.000000,4.000000,4.000000,4.000000,4.000000,4.000000,4.000000,4.000000,4.000000,4.000000,4.000000,4.000000,100.000000,,,,,,,,,,,,,,,,
1645710330.979647,250.000000,0.000000,4223.461426,4228.461426,4219.102539,4216.922852,4214.871582,4226.410156,4222.948730,4228.077148,4228.846191,4251.922852,4230.897461,4170.256348,4228.589844,4232.820313,2365.000000,4.000000,86.000000,,,,0.000000,4.000000,4.000000,4.000000,4.000000,4.000000,4.000000,4.000000,4.000000,4.000000,4.000000,4.000000,4.000000,4.000000,4.000000,100.000000,,,,,,,,,,,,,,,,
1645710330.983588,251.000000,0.000000,4225.128418,4230.512695,4220.000000,4216.282227,4216.282227,4226.410156,4222.307617,4227.051270,4230.641113,4256.025879,4229.743652,4171.666504,4236.153809,4234.871582,2735.000000,4.000000,86.000000,,,,0.000000,4.000000,4.000000,4.000000,4.000000,4.000000,4.000000,4.000000,4.000000,4.000000,4.000000,4.000000,4.000000,4.000000,4.000000,100.000000,,,,,,,,,,,,,,,,
1645710330.987528,252.000000,0.000000,4222.563965,4229.230957,4218.717773,4210.512695,4216.410156,4225.897461,4224.102539,4228.717773,4233.077148,4259.487305,4227.948730,4172.563965,4240.897461,4234.358887,3322.000000,4.000000,86.000000,,,,0.000000,4.000000,4.000000,4.000000,4.000000,4.000000,4.000000,4.000000,4.000000,4.000000,4.000000,4.000000,4.000000,4.000000,4.000000,100.000000,,,,,,,,,,,,,,,,
1645710330.991468,253.000000,0.000000,4219.102539,4224.615234,4216.922852,4202.820313,4214.102539,4223.974121,4226.538574,4232.051270,4234.871582,4261.153809,4227.692383,4172.563965,4240.512695,4232.948730,2983.000000,4.000000,86.000000,,,,0.000000,4.000000,4.000000,4.000000,4.000000,4.000000,4.000000,4.000000,4.000000,4.000000,4.000000,4.000000,4.000000,4.000000,4.000000,100.000000,,,,,,,,,,,,,,,,
1645710330.995408,254.000000,0.000000,4217.948730,4218.077148,4216.410156,4198.077148,4209.615234,4220.769043,4227.692383,4233.717773,4234.102539,4259.871582,4228.846191,4171.666504,4235.897461,4231.410156,2365.000000,4.000000,86.000000,,,,0.000000,4.000000,4.000000,4.000000,4.000000,4.000000,4.000000,4.000000,4.000000,4.000000,4.000000,4.000000,4.000000,4.000000,4.000000,100.000000,,,,,,,,,,,,,,,,
1645710330.999348,255.000000,0.000000,4219.230957,4212.179688,4216.922852,4199.358887,4205.512695,4218.077148,4226.410156,4231.025879,4230.512695,4255.769043,4229.743652,4170.256348,4230.512695,4229.102539,113.000000,4.000000,86.000000,,,,0.000000,4.000000,4.000000,4.000000,4.000000,4.000000,4.000000,4.000000,4.000000,4.000000,4.000000,4.000000,4.000000,4.000000,4.000000,100.000000,,,,,,,,,,,,,,,,
1645710331.003288,0.000000,0.000000,4220.128418,4209.487305,4217.563965,4206.410156,4204.871582,4217.948730,4223.205078,4224.102539,4225.512695,4250.769043,4229.615234,4168.717773,4227.948730,4225.769043,3272.000000,4.000000,86.000000,,,,0.000000,4.000000,4.000000,4.000000,4.000000,4.000000,4.000000,4.000000,4.000000,4.000000,4.000000,4.000000,4.000000,4.000000,4.000000,100.000000,,,,,,,,,,,,,,,,
1645710331.007228,1.000000,0.000000,4218.717773,4210.641113,4217.563965,4216.025879,4208.846191,4220.384766,4219.743652,4216.794922,4220.512695,4246.794922,4228.333496,4167.692383,4228.717773,4222.436035,3382.000000,4.000000,86.000000,,,,0.000000,4.000000,4.000000,4.000000,4.000000,4.000000,4.000000,4.000000,4.000000,4.000000,4.000000,4.000000,4.000000,4.000000,4.000000,100.000000,,,,,,,,,,,,,,,,
1645710331.011168,2.000000,0.000000,4216.410156,4213.205078,4217.051270,4223.205078,4215.000000,4223.205078,4217.436035,4213.077148,4216.282227,4244.743652,4226.153809,4167.307617,4229.743652,4220.641113,2337.000000,4.000000,86.000000,,,,0.000000,4.000000,4.000000,4.000000,4.000000,4.000000,4.000000,4.000000,4.000000,4.000000,4.000000,4.000000,4.000000,4.000000,4.000000,100.000000,,,,,,,,,,,,,,,,
1645710331.015108,3.000000,0.000000,4215.512695,4213.717773,4216.666504,4224.102539,4219.487305,4223.461426,4216.794922,4213.846191,4213.333496,4244.230957,4223.461426,4167.436035,4227.948730,4221.794922,3190.000000,4.000000,86.000000,,,,0.000000,4.000000,4.000000,4.000000,4.000000,4.000000,4.000000,4.000000,4.000000,4.000000,4.000000,4.000000,4.000000,4.000000,4.000000,100.000000,,,,,,,,,,,,,,,,
1645710331.019049,4.000000,0.000000,4216.538574,4211.153809,4216.538574,4218.717773,4219.487305,4220.384766,4217.563965,4216.410156,4212.307617,4244.743652,4220.897461,4167.948730,4223.589844,4226.025879,3617.000000,4.000000,86.000000,,,,0.000000,4.000000,4.000000,4.000000,4.000000,4.000000,4.000000,4.000000,4.000000,4.000000,4.000000,4.000000,4.000000,4.000000,4.000000,100.000000,,,,,,,,,,,,,,,,
1645710331.022989,5.000000,0.000000,4218.077148,4207.948730,4217.051270,4211.794922,4216.025879,4215.897461,4218.717773,4217.436035,4213.333496,4245.512695,4220.256348,4168.717773,4220.256348,4232.051270,3396.000000,4.000000,86.000000,,,,0.000000,4.000000,4.000000,4.000000,4.000000,4.000000,4.000000,4.000000,4.000000,4.000000,4.000000,4.000000,4.000000,4.000000,4.000000,100.000000,,,,,,,,,,,,,,,,
1645710331.026829,6.000000,0.000000,4218.846191,4207.307617,4217.563965,4208.333496,4211.922852,4212.820313,4219.102539,4216.282227,4215.769043,4245.641113,4222.179688,4169.615234,4221.538574,4237.179688,3074.000000,4.000000,86.000000,,,,0.000000,4.000000,4.000000,4.000000,4.000000,4.000000,4.000000,4.000000,4.000000,4.000000,4.000000,4.000000,4.000000,4.000000,4.000000,100.000000,,,,,,,,,,,,,,,,
1645710331.030769,7.000000,0.000000,4218.846191,4209.615234,4217.563965,4209.615234,4209.615234,4212.948730,4218.077148,4214.743652,4217.692383,4244.102539,4225.512695,4170.769043,4226.538574,4238.205078,1814.000000,4.000000,86.000000,,,,0.000000,4.000000,4.000000,4.000000,4.000000,4.000000,4.000000,4.000000,4.000000,4.000000,4.000000,4.000000,4.000000,4.000000,4.000000,100.000000,,,,,,,,,,,,,,,,
1645710331.034709,8.000000,0.000000,4218.717773,4212.051270,4216.794922,4212.563965,4209.487305,4215.384766,4216.282227,4214.871582,4218.205078,4241.410156,4227.436035,4171.922852,4231.025879,4234.487305,1239.000000,4.000000,86.000000,,,,0.000000,4.000000,4.000000,4.000000,4.000000,4.000000,4.000000,4.000000,4.000000,4.000000,4.000000,4.000000,4.000000,4.000000,4.000000,100.000000,,,,,,,,,,,,,,,,
1645710331.038649,9.000000,0.000000,4218.717773,4212.179688,4216.282227,4213.461426,4210.641113,4218.205078,4215.256348,4216.282227,4217.307617,4238.974121,4226.538574,4172.692383,4231.666504,4228.333496,3054.000000,4.000000,86.000000,,,,0.000000,4.000000,4.000000,4.000000,4.000000,4.000000,4.000000,4.000000,4.000000,4.000000,4.000000,4.000000,4.000000,4.000000,4.000000,100.000000,,,,,,,,,,,,,,,,
1645710331.042589,10.000000,0.000000,4217.692383,4210.384766,4217.307617,4211.666504,4212.179688,4220.000000,4215.641113,4217.307617,4216.410156,4238.974121,4223.846191,4172.692383,4228.589844,4223.205078,2347.000000,4.000000,86.000000,,,,0.000000,4.000000,4.000000,4.000000,4.000000,4.000000,4.000000,4.000000,4.000000,4.000000,4.000000,4.000000,4.000000,4.000000,4.000000,100.000000,,,,,,,,,,,,,,,,
1645710331.046529,11.000000,0.000000,4215.512695,4208.589844,4219.871582,4209.358887,4212.820313,4221.282227,4217.820313,4216.538574,4216.922852,4242.179688,4222.179688,4171.666504,4224.230957,4221.410156,2736.000000,4.000000,86.000000,,,,0.000000,4.000000,4.000000,4.000000,4.000000,4.000000,4.000000,4.000000,4.000000,4.000000,4.000000,4.000000,4.000000,4.000000,4.000000,100.000000,,,,,,,,,,,,,,,,
1645710331.050469,12.000000,0.000000,4213.717773,4208.846191,4222.051270,4208.589844,4212.307617,4222.436035,4221.282227,4215.256348,4218.974121,4246.410156,4222.307617,4170.128418,4221.922852,4222.436035,3372.000000,4.000000,86.000000,,,,0.000000,4.000000,4.000000,4.000000,4.000000,4.000000,4.000000,4.000000,4.000000,4.000000,4.000000,4.000000,4.000000,4.000000,4.000000,100.000000,,,,,,,,,,,,,,,,
1645710331.054410,13.000000,0.000000,4214.230957,4211.025879,4222.436035,4209.358887,4210.769043,4223.717773,4225.256348,4216.153809,4221.922852,4248.589844,4222.948730,4169.102539,4222.692383,4224.230957,2981.000000,4.000000,86.000000,,,,0.000000,4.000000,4.000000,4.000000,4.000000,4.000000,4.000000,4.000000,4.000000,4.000000,4.000000,4.000000,4.000000,4.000000,4.000000,100.000000,,,,,,,,,,,,,,,,
1645710331.058350,14.000000,0.000000,4217.051270,4213.846191,4221.666504,4210.384766,4210.000000,4225.000000,4228.974121,4220.384766,4224.615234,4247.563965,4222.436035,4169.487305,4226.025879,4225.641113,2347.000000,4.000000,86.000000,,,,0.000000,4.000000,4.000000,4.000000,4.000000,4.000000,4.000000,4.000000,4.000000,4.000000,4.000000,4.000000,4.000000,4.000000,4.000000,100.000000,,,,,,,,,,,,,,,,
1645710331.062290,15.000000,0.000000,4220.256348,4216.025879,4222.179688,4211.153809,4212.051270,4226.794922,4231.282227,4226.538574,4226.666504,4245.000000,4221.282227,4171.538574,4230.000000,4226.410156,2736.000000,4.000000,86.000000,,,,0.000000,4.000000,4.000000,4.000000,4.000000,4.000000,4.000000,4.000000,4.000000,4.000000,4.000000,4.000000,4.000000,4.000000,4.000000,100.000000,,,,,,,,,,,,,,,,
1645710331.066330,16.000000,0.000000,4221.922852,4217.179688,4225.384766,4213.461426,4217.563965,4229.358887,4231.794922,4231.282227,4228.589844,4244.615234,4221.794922,4174.230957,4233.205078,4227.179688,3372.000000,4.000000,86.000000,,,,0.000000,4.000000,4.000000,4.000000,4.000000,4.000000,4.000000,4.000000,4.000000,4.000000,4.000000,4.000000,4.000000,4.000000,4.000000,100.000000,,,,,,,,,,,,,,,,
1645710331.070270,17.000000,0.000000,4222.051270,4217.948730,4230.000000,4218.717773,4223.974121,4232.051270,4231.025879,4231.922852,4230.641113,4248.461426,4225.000000,4176.538574,4234.743652,4227.820313,2981.000000,4.000000,86.000000,,,,0.000000,4.000000,4.000000,4.000000,4.000000,4.000000,4.000000,4.000000,4.000000,4.000000,4.000000,4.000000,4.000000,4.000000,4.000000,100.000000,,,,,,,,,,,,,,,,
1645710331.074210,18.000000,0.000000,4221.538574,4219.358887,4232.692383,4226.538574,4226.922852,4233.077148,4229.615234,4228.461426,4232.563965,4254.615234,4230.000000,4177.307617,4234.358887,4228.461426,2347.000000,4.000000,86.000000,,,,0.000000,4.000000,4.000000,4.000000,4.000000,4.000000,4.000000,4.000000,4.000000,4.000000,4.000000,4.000000,4.000000,4.000000,4.000000,100.000000,,,,,,,,,,,,,,,,
1645710331.078150,19.000000,0.000000,4221.666504,4222.051270,4231.410156,4233.717773,4224.487305,4232.051270,4228.333496,4223.461426,4232.692383,4258.846191,4234.358887,4176.025879,4232.692383,4229.102539,2736.000000,4.000000,86.000000,,,,0.000000,4.000000,4.000000,4.000000,4.000000,4.000000,4.000000,4.000000,4.000000,4.000000,4.000000,4.000000,4.000000,4.000000,4.000000,100.000000,,,,,,,,,,,,,,,,
1645710331.082090,20.000000,0.000000,4222.179688,4226.153809,4227.179688,4237.179688,4219.230957,4230.000000,4227.436035,4220.128418,4229.615234,4258.205078,4236.410156,4173.589844,4230.769043,4230.512695,3372.000000,4.000000,86.000000,,,,0.000000,4.000000,4.000000,4.000000,4.000000,4.000000,4.000000,4.000000,4.000000,4.000000,4.000000,4.000000,4.000000,4.000000,4.000000,100.000000,,,,,,,,,,,,,,,,
1645710331.085930,21.000000,0.000000,4223.077148,4230.512695,4223.077148,4236.538574,4215.641113,4228.974121,4226.794922,4219.743652,4224.102539,4252.692383,4236.025879,4171.538574,4229.615234,4232.179688,2981.000000,4.000000,86.000000,,,,0.000000,4.000000,4.000000,4.000000,4.000000,4.000000,4.000000,4.000000,4.000000,4.000000,4.000000,4.000000,4.000000,4.000000,4.000000,100.000000,,,,,,,,,,,,,,,,
1645710331.089871,22.000000,0.000000,4224.487305,4232.948730,4221.666504,4233.333496,4216.538574,4229.358887,4225.641113,4221.025879,4218.974121,4245.512695,4234.358887,4170.769043,4229.230957,4233.205078,2347.000000,4.000000,86.000000,,,,0.000000,4.000000,4.000000,4.000000,4.000000,4.000000,4.000000,4.000000,4.000000,4.000000,4.000000,4.000000,4.000000,4.000000,4.000000,100.000000,,,,,,,,,,,,,,,,
1645710331.093811,23.000000,0.000000,4226.025879,4232.436035,4222.820313,4229.487305,4220.128418,4229.358887,4223.333496,4222.436035,4217.051270,4240.769043,4232.563965,4171.282227,4229.102539,4232.436035,2736.000000,4.000000,86.000000,,,,0.000000,4.000000,4.000000,4.000000,4.000000,4.000000,4.000000,4.000000,4.000000,4.000000,4.000000,4.000000,4.000000,4.000000,4.000000,100.000000,,,,,,,,,,,,,,,,
1645710331.097751,24.000000,0.000000,4226.410156,4229.871582,4224.102539,4226.282227,4222.307617,4227.179688,4219.743652,4222.692383,4218.974121,4240.384766,4231.282227,4171.922852,4228.461426,4229.230957,3372.000000,4.000000,86.000000,,,,0.000000,4.000000,4.000000,4.000000,4.000000,4.000000,4.000000,4.000000,4.000000,4.000000,4.000000,4.000000,4.000000,4.000000,4.000000,100.000000,,,,,,,,,,,,,,,,
1645710331.101691,25.000000,0.000000,4223.974121,4227.051270,4222.820313,4223.846191,4220.769043,4222.948730,4215.641113,4221.410156,4222.820313,4243.205078,4230.384766,4171.282227,4227.179688,4224.615234,2981.000000,4.000000,86.000000,,,,0.000000,4.000000,4.000000,4.000000,4.000000,4.000000,4.000000,4.000000,4.000000,4.000000,4.000000,4.000000,4.000000,4.000000,4.000000,100.000000,,,,,,,,,,,,,,,,
1645710331.105631,26.000000,0.000000,4218.846191,4224.743652,4218.974121,4221.538574,4216.282227,4218.717773,4212.436035,4218.717773,4225.897461,4246.025879,4229.102539,4169.102539,4225.384766,4220.128418,2347.000000,4.000000,86.000000,,,,0.000000,4.000000,4.000000,4.000000,4.000000,4.000000,4.000000,4.000000,4.000000,4.000000,4.000000,4.000000,4.000000,4.000000,4.000000,100.000000,,,,,,,,,,,,,,,,
1645710331.109571,27.000000,0.000000,4213.333496,4222.051270,4214.102539,4218.846191,4211.794922,4215.897461,4211.025879,4215.512695,4225.769043,4246.025879,4226.025879,4166.410156,4224.102539,4217.692383,2736.000000,4.000000,86.000000,,,,0.000000,4.000000,4.000000,4.000000,4.000000,4.000000,4.000000,4.000000,4.000000,4.000000,4.000000,4.000000,4.000000,4.000000,4.000000,100.000000,,,,,,,,,,,,,,,,
1645710331.113511,28.000000,0.000000,4210.641113,4218.717773,4210.769043,4216.153809,4209.358887,4214.743652,4210.897461,4213.846191,4221.922852,4243.077148,4221.794922,4164.871582,4224.102539,4218.589844,3372.000000,4.000000,86.000000,,,,0.000000,4.000000,4.000000,4.000000,4.000000,4.000000,4.000000,4.000000,4.000000,4.000000,4.000000,4.000000,4.000000,4.000000,4.000000,100.000000,,,,,,,,,,,,,,,,
1645710331.117451,29.000000,0.000000,4211.666504,4216.025879,4210.512695,4215.000000,4209.230957,4214.743652,4211.410156,4215.000000,4216.410156,4239.487305,4218.461426,4165.128418,4225.641113,4222.948730,2981.000000,4.000000,86.000000,,,,0.000000,4.000000,4.000000,4.000000,4.000000,4.000000,4.000000,4.000000,4.000000,4.000000,4.000000,4.000000,4.000000,4.000000,4.000000,100.000000,,,,,,,,,,,,,,,,
1645710331.121391,30.000000,0.000000,4214.871582,4215.897461,4212.436035,4216.153809,4210.897461,4215.128418,4212.436035,4218.717773,4212.948730,4239.230957,4218.846191,4166.794922,4228.077148,4228.461426,2347.000000,4.000000,86.000000,,,,0.000000,4.000000,4.000000,4.000000,4.000000,4.000000,4.000000,4.000000,4.000000,4.000000,4.000000,4.000000,4.000000,4.000000,4.000000,100.000000,,,,,,,,,,,,,,,,
1645710331.125331,31.000000,0.000000,4217.436035,4217.563965,4214.230957,4218.717773,4213.333496,4216.282227,4214.615234,4223.077148,4214.358887,4244.358887,4223.205078,4168.974121,4229.615234,4232.436035,2736.000000,4.000000,86.000000,,,,0.000000,4.000000,4.000000,4.000000,4.000000,4.000000,4.000000,4.000000,4.000000,4.000000,4.000000,4.000000,4.000000,4.000000,4.000000,100.000000,,,,,,,,,,,,,,,,
1645710331.129272,32.000000,0.000000,4218.077148,4219.230957,4214.615234,4220.384766,4215.641113,4218.461426,4218.205078,4225.769043,4220.384766,4252.436035,4228.333496,4170.769043,4229.230957,4233.077148,0.000000,4.000000,86.000000,,,,0.000000,4.000000,4.000000,4.000000,4.000000,4.000000,4.000000,4.000000,4.000000,4.000000,4.000000,4.000000,4.000000,4.000000,4.000000,100.000000,,,,,,,,,,,,,,,,
1645710331.133212,33.000000,0.000000,4217.948730,4219.102539,4213.974121,4219.615234,4216.794922,4221.153809,4222.563965,4225.897461,4227.179688,4258.077148,4230.000000,4171.794922,4226.922852,4231.153809,0.000000,4.000000,86.000000,,,,0.000000,4.000000,4.000000,4.000000,4.000000,4.000000,4.000000,4.000000,4.000000,4.000000,4.000000,4.000000,4.000000,4.000000,4.000000,100.000000,,,,,,,,,,,,,,,,
1645710331.137152,34.000000,0.000000,4218.205078,4217.692383,4213.846191,4217.948730,4216.666504,4223.461426,4226.538574,4224.102539,4230.128418,4257.820313,4227.179688,4172.307617,4223.205078,4228.717773,0.000000,4.000000,86.000000,,,,0.000000,4.000000,4.000000,4.000000,4.000000,4.000000,4.000000,4.000000,4.000000,4.000000,4.000000,4.000000,4.000000,4.000000,4.000000,100.000000,,,,,,,,,,,,,,,,
1645710331.141092,35.000000,0.000000,4218.846191,4217.051270,4214.487305,4218.077148,4215.769043,4224.615234,4228.461426,4221.153809,4227.948730,4251.794922,4223.077148,4172.051270,4219.487305,4227.948730,0.000000,4.000000,86.000000,,,,0.000000,4.000000,4.000000,4.000000,4.000000,4.000000,4.000000,4.000000,4.000000,4.000000,4.000000,4.000000,4.000000,4.000000,4.000000,100.000000,,,,,,,,,,,,,,,,
1645710331.145032,36.000000,0.000000,4218.333496,4217.820313,4215.384766,4221.153809,4214.230957,4224.358887,4227.051270,4218.589844,4222.948730,4243.846191,4221.410156,4171.153809,4218.077148,4229.102539,0.000000,4.000000,86.000000,,,,0.000000,4.000000,4.000000,4.000000,4.000000,4.000000,4.000000,4.000000,4.000000,4.000000,4.000000,4.000000,4.000000,4.000000,4.000000,100.000000,,,,,,,,,,,,,,,,
1645710331.148972,37.000000,0.000000,4216.282227,4218.717773,4215.384766,4224.871582,4211.666504,4222.436035,4222.563965,4217.692383,4219.358887,4237.948730,4222.820313,4169.871582,4219.358887,4230.000000,0.000000,4.000000,86.000000,,,,0.000000,4.000000,4.000000,4.000000,4.000000,4.000000,4.000000,4.000000,4.000000,4.000000,4.000000,4.000000,4.000000,4.000000,4.000000,100.000000,,,,,,,,,,,,,,,,
1645710331.152912,38.000000,0.000000,4214.358887,4217.436035,4214.871582,4225.512695,4207.820313,4219.615234,4217.307617,4218.589844,4218.717773,4236.025879,4223.974121,4168.461426,4221.538574,4228.589844,0.000000,4.000000,86.000000,,,,0.000000,4.000000,4.000000,4.000000,4.000000,4.000000,4.000000,4.000000,4.000000,4.000000,4.000000,4.000000,4.000000,4.000000,4.000000,100.000000,,,,,,,,,,,,,,,,
1645710331.156852,39.000000,0.000000,4214.102539,4213.974121,4214.743652,4221.922852,4203.717773,4217.820313,4214.743652,4220.512695,4220.256348,4237.307617,4221.666504,4167.051270,4222.179688,4225.128418,0.000000,4.000000,86.000000,,,,0.000000,4.000000,4.000000,4.000000,4.000000,4.000000,4.000000,4.000000,4.000000,4.000000,4.000000,4.000000,4.000000,4.000000,4.000000,100.000000,,,,,,,,,,,,,,,,
1645710331.160693,40.000000,0.000000,4215.769043,4211.025879,4215.897461,4217.179688,4201.922852,4218.077148,4216.410156,4221.794922,4222.051270,4240.256348,4216.282227,4166.153809,4221.153809,4221.922852,0.000000,4.000000,86.000000,,,,0.000000,4.000000,4.000000,4.000000,4.000000,4.000000,4.000000,4.000000,4.000000,4.000000,4.000000,4.000000,4.000000,4.000000,4.000000,100.000000,,,,,,,,,,,,,,,,
1645710331.164633,41.000000,0.000000,4217.692383,4212.179688,4217.948730,4215.384766,4203.077148,4219.743652,4220.128418,4222.051270,4223.205078,4243.589844,4211.794922,4166.666504,4220.128418,4220.512695,0.000000,4.000000,86.000000,,,,0.000000,4.000000,4.000000,4.000000,4.000000,4.000000,4.000000,4.000000,4.000000,4.000000,4.000000,4.000000,4.000000,4.000000,4.000000,100.000000,,,,,,,,,,,,,,,,
1645710331.168573,42.000000,0.000000,4218.589844,4217.307617,4219.358887,4216.922852,4205.256348,4220.000000,4222.307617,4221.666504,4223.717773,4246.922852,4211.282227,4168.077148,4220.897461,4221.410156,0.000000,4.000000,86.000000,,,,0.000000,4.000000,4.000000,4.000000,4.000000,4.000000,4.000000,4.000000,4.000000,4.000000,4.000000,4.000000,4.000000,4.000000,4.000000,100.000000,,,,,,,,,,,,,,,,
1645710331.172513,43.000000,0.000000,4218.333496,4222.436035,4219.487305,4218.717773,4205.641113,4217.179688,4221.153809,4221.410156,4223.974121,4249.230957,4214.487305,4169.487305,4223.205078,4223.846191,0.000000,4.000000,86.000000,,,,0.000000,4.000000,4.000000,4.000000,4.000000,4.000000,4.000000,4.000000,4.000000,4.000000,4.000000,4.000000,4.000000,4.000000,4.000000,100.000000,,,,,,,,,,,,,,,,
1645710331.176453,44.000000,0.000000,4218.205078,4222.692383,4218.333496,4217.820313,4203.717773,4212.179688,4217.948730,4221.025879,4224.487305,4249.487305,4217.948730,4169.230957,4225.000000,4226.794922,0.000000,4.000000,86.000000,,,,0.000000,4.000000,4.000000,4.000000,4.000000,4.000000,4.000000,4.000000,4.000000,4.000000,4.000000,4.000000,4.000000,4.000000,4.000000,100.000000,,,,,,,,,,,,,,,,
1645710331.180393,45.000000,0.000000,4218.077148,4217.179688,4216.922852,4214.871582,4201.922852,4208.589844,4215.769043,4220.000000,4225.128418,4246.538574,4218.589844,4167.179688,4224.743652,4228.974121,0.000000,4.000000,86.000000,,,,0.000000,4.000000,4.000000,4.000000,4.000000,4.000000,4.000000,4.000000,4.000000,4.000000,4.000000,4.000000,4.000000,4.000000,4.000000,100.000000,,,,,,,,,,,,,,,,
1645710331.184333,46.000000,0.000000,4216.922852,4209.102539,4216.025879,4212.179688,4202.179688,4208.589844,4216.282227,4218.205078,4225.128418,4240.512695,4215.897461,4163.846191,4222.692383,4229.487305,0.000000,4.000000,86.000000,,,,0.000000,4.000000,4.000000,4.000000,4.000000,4.000000,4.000000,4.000000,4.000000,4.000000,4.000000,4.000000,4.000000,4.000000,4.000000,100.000000,,,,,,,,,,,,,,,,
1645710331.188273,47.000000,0.000000,4214.102539,4203.461426,4214.871582,4210.769043,4204.102539,4210.897461,4218.333496,4216.282227,4223.589844,4233.205078,4211.282227,4160.128418,4219.487305,4227.436035,0.000000,4.000000,86.000000,,,,0.000000,4.000000,4.000000,4.000000,4.000000,4.000000,4.000000,4.000000,4.000000,4.000000,4.000000,4.000000,4.000000,4.000000,4.000000,100.000000,,,,,,,,,,,,,,,,
1645710331.192213,48.000000,0.000000,4210.769043,4202.820313,4212.563965,4209.487305,4205.128418,4212.307617,4219.743652,4215.641113,4220.512695,4226.538574,4206.538574,4156.666504,4216.410156,4223.333496,0.000000,4.000000,86.000000,,,,0.000000,4.000000,4.000000,4.000000,4.000000,4.000000,4.000000,4.000000,4.000000,4.000000,4.000000,4.000000,4.000000,4.000000,4.000000,100.000000,,,,,,,,,,,,,,,,
1645710331.196153,49.000000,0.000000,4208.717773,4205.512695,4208.717773,4206.922852,4203.333496,4210.641113,4218.846191,4216.153809,4217.436035,4222.820313,4202.948730,4153.589844,4214.102539,4218.589844,0.000000,4.000000,86.000000,,,,0.000000,4.000000,4.000000,4.000000,4.000000,4.000000,4.000000,4.000000,4.000000,4.000000,4.000000,4.000000,4.000000,4.000000,4.000000,100.000000,,,,,,,,,,,,,,,,
1645710331.200094,50.000000,0.000000,4207.563965,4207.307617,4203.974121,4204.230957,4199.230957,4206.922852,4216.410156,4216.922852,4216.538574,4223.717773,4200.256348,4151.282227,4213.077148,4214.743652,0.000000,4.000000,86.000000,,,,0.000000,4.000000,4.000000,4.000000,4.000000,4.000000,4.000000,4.000000,4.000000,4.000000,4.000000,4.000000,4.000000,4.000000,4.000000,100.000000,,,,,,,,,,,,,,,,
1645710331.204034,51.000000,0.000000,4205.769043,4206.025879,4199.487305,4204.102539,4195.384766,4203.461426,4214.102539,4217.307617,4218.461426,4228.717773,4198.205078,4150.256348,4212.948730,4212.692383,0.000000,4.000000,86.000000,,,,0.000000,4.000000,4.000000,4.000000,4.000000,4.000000,4.000000,4.000000,4.000000,4.000000,4.000000,4.000000,4.000000,4.000000,4.000000,100.000000,,,,,,,,,,,,,,,,
1645710331.207974,52.000000,0.000000,4202.692383,4202.820313,4196.025879,4207.563965,4193.846191,4202.436035,4213.461426,4216.666504,4221.538574,4234.615234,4196.025879,4150.384766,4212.436035,4211.922852,0.000000,4.000000,86.000000,,,,0.000000,4.000000,4.000000,4.000000,4.000000,4.000000,4.000000,4.000000,4.000000,4.000000,4.000000,4.000000,4.000000,4.000000,4.000000,100.000000,,,,,,,,,,,,,,,,
1645710331.211914,53.000000,0.000000,4200.641113,4201.666504,4194.743652,4212.436035,4195.128418,4203.846191,4214.487305,4215.512695,4223.333496,4237.820313,4194.487305,4151.153809,4211.025879,4212.307617,0.000000,4.000000,86.000000,,,,0.000000,4.000000,4.000000,4.000000,4.000000,4.000000,4.000000,4.000000,4.000000,4.000000,4.000000,4.000000,4.000000,4.000000,4.000000,100.000000,,,,,,,,,,,,,,,,
1645710331.215854,54.000000,0.000000,4202.051270,4204.230957,4196.410156,4215.128418,4197.948730,4206.538574,4216.410156,4214.871582,4222.563965,4236.538574,4194.615234,4151.794922,4210.000000,4213.461426,0.000000,4.000000,86.000000,,,,0.000000,4.000000,4.000000,4.000000,4.000000,4.000000,4.000000,4.000000,4.000000,4.000000,4.000000,4.000000,4.000000,4.000000,4.000000,100.000000,,,,,,,,,,,,,,,,
1645710331.219794,55.000000,0.000000,4206.666504,4208.589844,4200.384766,4214.358887,4200.769043,4208.589844,4217.692383,4215.256348,4220.897461,4232.563965,4197.307617,4151.666504,4211.153809,4214.743652,0.000000,4.000000,86.000000,,,,0.000000,4.000000,4.000000,4.000000,4.000000,4.000000,4.000000,4.000000,4.000000,4.000000,4.000000,4.000000,4.000000,4.000000,4.000000,100.000000,,,,,,,,,,,,,,,,
1645710331.223734,56.000000,0.000000,4210.512695,4210.384766,4204.230957,4212.051270,4202.692383,4208.846191,4216.922852,4216.282227,4220.000000,4229.487305,4202.179688,4151.538574,4214.487305,4215.128418,0.000000,4.000000,86.000000,,,,0.000000,4.000000,4.000000,4.000000,4.000000,4.000000,4.000000,4.000000,4.000000,4.000000,4.000000,4.000000,4.000000,4.000000,4.000000,100.000000,,,,,,,,,,,,,,,,
1645710331.227674,57.000000,0.000000,4210.512695,4207.692383,4205.641113,4210.256348,4203.077148,4206.410156,4213.589844,4217.051270,4220.641113,4229.358887,4207.692383,4152.179688,4218.077148,4214.487305,0.000000,4.000000,86.000000,,,,0.000000,4.000000,4.000000,4.000000,4.000000,4.000000,4.000000,4.000000,4.000000,4.000000,4.000000,4.000000,4.000000,4.000000,4.000000,100.000000,,,,,,,,,,,,,,,,
1645710331.231714,58.000000,0.000000,4207.307617,4202.051270,4204.487305,4210.000000,4201.538574,4201.666504,4207.948730,4216.282227,4221.410156,4231.025879,4211.025879,4153.846191,4219.230957,4214.102539,0.000000,4.000000,86.000000,,,,0.000000,4.000000,4.000000,4.000000,4.000000,4.000000,4.000000,4.000000,4.000000,4.000000,4.000000,4.000000,4.000000,4.000000,4.000000,100.000000,,,,,,,,,,,,,,,,
1645710331.235654,59.000000,0.000000,4204.615234,4198.077148,4202.436035,4210.512695,4197.948730,4196.538574,4201.666504,4213.589844,4220.769043,4231.922852,4210.512695,4155.769043,4217.179688,4215.384766,0.000000,4.000000,86.000000,,,,0.000000,4.000000,4.000000,4.000000,4.000000,4.000000,4.000000,4.000000,4.000000,4.000000,4.000000,4.000000,4.000000,4.000000,4.000000,100.000000,,,,,,,,,,,,,,,,
1645710331.239595,60.000000,0.000000,4205.384766,4199.230957,4202.436035,4210.512695,4193.974121,4193.461426,4197.692383,4209.743652,4218.205078,4230.512695,4206.666504,4156.410156,4213.717773,4217.563965,0.000000,4.000000,86.000000,,,,0.000000,4.000000,4.000000,4.000000,4.000000,4.000000,4.000000,4.000000,4.000000,4.000000,4.000000,4.000000,4.000000,4.000000,4.000000,100.000000,,,,,,,,,,,,,,,,
1645710331.243535,61.000000,0.000000,4208.974121,4205.512695,4205.641113,4209.358887,4192.436035,4195.000000,4198.205078,4207.051270,4214.743652,4228.077148,4202.307617,4155.256348,4211.666504,4218.846191,0.000000,4.000000,86.000000,,,,0.000000,4.000000,4.000000,4.000000,4.000000,4.000000,4.000000,4.000000,4.000000,4.000000,4.000000,4.000000,4.000000,4.000000,4.000000,100.000000,,,,,,,,,,,,,,,,
1645710331.247475,62.000000,0.000000,4213.461426,4213.461426,4211.025879,4207.692383,4195.000000,4200.384766,4203.333496,4207.179688,4211.922852,4226.410156,4200.384766,4153.077148,4212.692383,4218.461426,0.000000,4.000000,86.000000,,,,0.000000,4.000000,4.000000,4.000000,4.000000,4.000000,4.000000,4.000000,4.000000,4.000000,4.000000,4.000000,4.000000,4.000000,4.000000,100.000000,,,,,,,,,,,,,,,,
1645710331.251415,63.000000,0.000000,4217.179688,4219.230957,4215.769043,4207.307617,4200.256348,4206.538574,4210.000000,4210.256348,4211.666504,4227.051270,4202.307617,4151.922852,4216.025879,4218.077148,0.000000,4.000000,86.000000,,,,0.000000,4.000000,4.000000,4.000000,4.000000,4.000000,4.000000,4.000000,4.000000,4.000000,4.000000,4.000000,4.000000,4.000000,4.000000,100.000000,,,,,,,,,,,,,,,,
1645710331.255355,64.000000,0.000000,4220.000000,4220.897461,4217.948730,4208.974121,4205.000000,4209.871582,4213.717773,4214.615234,4214.487305,4229.743652,4207.436035,4154.230957,4220.000000,4219.615234,0.000000,4.000000,86.000000,,,,0.000000,4.000000,4.000000,4.000000,4.000000,4.000000,4.000000,4.000000,4.000000,4.000000,4.000000,4.000000,4.000000,4.000000,4.000000,100.000000,,,,,,,,,,,,,,,,
1645710331.259295,65.000000,0.000000,4221.666504,4219.358887,4217.563965,4212.563965,4206.538574,4209.102539,4212.563965,4217.692383,4219.230957,4234.358887,4213.846191,4159.743652,4223.717773,4223.589844,0.000000,4.000000,86.000000,,,,0.000000,4.000000,4.000000,4.000000,4.000000,4.000000,4.000000,4.000000,4.000000,4.000000,4.000000,4.000000,4.000000,4.000000,4.000000,100.000000,,,,,,,,,,,,,,,,
1645710331.263235,66.000000,0.000000,4221.794922,4217.563965,4217.307617,4216.153809,4205.128418,4206.025879,4207.820313,4217.820313,4223.077148,4240.384766,4219.358887,4166.538574,4227.179688,4229.102539,0.000000,4.000000,86.000000,,,,0.000000,4.000000,4.000000,4.000000,4.000000,4.000000,4.000000,4.000000,4.000000,4.000000,4.000000,4.000000,4.000000,4.000000,4.000000,100.000000,,,,,,,,,,,,,,,,
1645710331.267175,67.000000,0.000000,4221.538574,4217.820313,4219.871582,4218.589844,4203.461426,4203.846191,4203.717773,4215.897461,4224.102539,4246.410156,4222.948730,4171.538574,4231.153809,4234.871582,0.000000,4.000000,86.000000,,,,0.000000,4.000000,4.000000,4.000000,4.000000,4.000000,4.000000,4.000000,4.000000,4.000000,4.000000,4.000000,4.000000,4.000000,4.000000,100.000000,,,,,,,,,,,,,,,,
1645710331.271115,68.000000,0.000000,4223.077148,4220.641113,4225.384766,4220.641113,4203.846191,4204.487305,4203.205078,4214.102539,4222.051270,4249.871582,4225.000000,4173.205078,4235.641113,4238.589844,0.000000,4.000000,86.000000,,,,0.000000,4.000000,4.000000,4.000000,4.000000,4.000000,4.000000,4.000000,4.000000,4.000000,4.000000,4.000000,4.000000,4.000000,4.000000,100.000000,,,,,,,,,,,,,,,,
1645710331.275055,69.000000,0.000000,4226.794922,4224.102539,4231.025879,4222.820313,4206.282227,4207.179688,4206.794922,4214.102539,4218.589844,4248.846191,4226.794922,4172.436035,4239.230957,4238.589844,0.000000,4.000000,86.000000,,,,0.000000,4.000000,4.000000,4.000000,4.000000,4.000000,4.000000,4.000000,4.000000,4.000000,4.000000,4.000000,4.000000,4.000000,4.000000,100.000000,,,,,,,,,,,,,,,,
1645710331.278996,70.000000,0.000000,4230.128418,4225.512695,4232.436035,4224.487305,4208.846191,4210.128418,4212.051270,4215.769043,4216.153809,4244.358887,4228.717773,4170.897461,4240.384766,4235.128418,0.000000,4.000000,86.000000,,,,0.000000,4.000000,4.000000,4.000000,4.000000,4.000000,4.000000,4.000000,4.000000,4.000000,4.000000,4.000000,4.000000,4.000000,4.000000,100.000000,,,,,,,,,,,,,,,,
1645710331.282936,71.000000,0.000000,4229.102539,4224.487305,4228.333496,4224.871582,4210.128418,4211.922852,4216.282227,4217.692383,4216.282227,4240.512695,4230.512695,4170.384766,4238.974121,4230.641113,0.000000,4.000000,86.000000,,,,0.000000,4.000000,4.000000,4.000000,4.000000,4.000000,4.000000,4.000000,4.000000,4.000000,4.000000,4.000000,4.000000,4.000000,4.000000,100.000000,,,,,,,,,,,,,,,,
1645710331.286876,72.000000,0.000000,4223.717773,4222.820313,4220.769043,4224.102539,4210.769043,4213.077148,4218.461426,4218.077148,4218.205078,4240.512695,4231.538574,4170.769043,4236.538574,4228.333496,0.000000,4.000000,86.000000,,,,0.000000,4.000000,4.000000,4.000000,4.000000,4.000000,4.000000,4.000000,4.000000,4.000000,4.000000,4.000000,4.000000,4.000000,4.000000,100.000000,,,,,,,,,,,,,,,,
1645710331.290816,73.000000,0.000000,4218.077148,4222.948730,4214.230957,4223.205078,4211.153809,4214.230957,4218.461426,4217.051270,4220.000000,4244.230957,4230.641113,4171.025879,4235.256348,4229.487305,0.000000,4.000000,86.000000,,,,0.000000,4.000000,4.000000,4.000000,4.000000,4.000000,4.000000,4.000000,4.000000,4.000000,4.000000,4.000000,4.000000,4.000000,4.000000,100.000000,,,,,,,,,,,,,,,,
1645710331.294756,74.000000,0.000000,4216.410156,4225.128418,4211.538574,4223.717773,4211.025879,4215.641113,4217.692383,4216.153809,4220.128418,4248.077148,4227.563965,4170.128418,4235.000000,4232.179688,0.000000,4.000000,86.000000,,,,0.000000,4.000000,4.000000,4.000000,4.000000,4.000000,4.000000,4.000000,4.000000,4.000000,4.000000,4.000000,4.000000,4.000000,4.000000,100.000000,,,,,,,,,,,,,,,,
1645710331.298696,75.000000,0.000000,4218.717773,4226.794922,4211.794922,4224.871582,4209.358887,4216.282227,4217.307617,4216.282227,4218.589844,4248.589844,4222.948730,4167.307617,4233.974121,4232.436035,0.000000,4.000000,86.000000,,,,0.000000,4.000000,4.000000,4.000000,4.000000,4.000000,4.000000,4.000000,4.000000,4.000000,4.000000,4.000000,4.000000,4.000000,4.000000,100.000000,,,,,,,,,,,,,,,,
1645710331.302636,76.000000,0.000000,4219.871582,4225.512695,4211.666504,4224.743652,4206.025879,4215.512695,4218.461426,4217.051270,4216.922852,4245.384766,4218.333496,4162.948730,4230.769043,4228.205078,0.000000,4.000000,86.000000,,,,0.000000,4.000000,4.000000,4.000000,4.000000,4.000000,4.000000,4.000000,4.000000,4.000000,4.000000,4.000000,4.000000,4.000000,4.000000,100.000000,,,,,,,,,,,,,,,,
1645710331.306676,77.000000,0.000000,4216.410156,4220.512695,4208.846191,4221.410156,4202.436035,4213.589844,4220.512695,4217.820313,4216.794922,4241.025879,4215.512695,4157.948730,4226.025879,4220.769043,0.000000,4.000000,86.000000,,,,0.000000,4.000000,4.000000,4.000000,4.000000,4.000000,4.000000,4.000000,4.000000,4.000000,4.000000,4.000000,4.000000,4.000000,4.000000,100.000000,,,,,,,,,,,,,,,,
1645710331.310616,78.000000,0.000000,4209.358887,4212.948730,4203.846191,4215.128418,4200.641113,4211.666504,4221.922852,4217.820313,4218.717773,4238.589844,4215.256348,4153.846191,4221.922852,4214.102539,0.000000,4.000000,86.000000,,,,0.000000,4.000000,4.000000,4.000000,4.000000,4.000000,4.000000,4.000000,4.000000,4.000000,4.000000,4.000000,4.000000,4.000000,4.000000,100.000000,,,,,,,,,,,,,,,,
1645710331.314556,79.000000,0.000000,4203.974121,4205.512695,4199.358887,4208.589844,4201.922852,4210.384766,4221.666504,4217.307617,4221.025879,4238.717773,4216.922852,4151.410156,4220.512695,4211.666504,0.000000,4.000000,86.000000,,,,0.000000,4.000000,4.000000,4.000000,4.000000,4.000000,4.000000,4.000000,4.000000,4.000000,4.000000,4.000000,4.000000,4.000000,4.000000,100.000000,,,,,,,,,,,,,,,,
1645710331.318497,80.000000,0.000000,4203.717773,4201.666504,4197.948730,4204.743652,4206.025879,4210.769043,4220.641113,4216.282227,4221.922852,4239.615234,4219.102539,4151.153809,4221.922852,4213.974121,0.000000,4.000000,86.000000,,,,0.000000,4.000000,4.000000,4.000000,4.000000,4.000000,4.000000,4.000000,4.000000,4.000000,4.000000,4.000000,4.000000,4.000000,4.000000,100.000000,,,,,,,,,,,,,,,,
1645710331.322437,81.000000,0.000000,4207.692383,4204.487305,4200.256348,4204.487305,4211.794922,4213.205078,4220.769043,4215.256348,4221.025879,4238.846191,4220.256348,4152.436035,4224.230957,4217.692383,0.000000,4.000000,86.000000,,,,0.000000,4.000000,4.000000,4.000000,4.000000,4.000000,4.000000,4.000000,4.000000,4.000000,4.000000,4.000000,4.000000,4.000000,4.000000,100.000000,,,,,,,,,,,,,,,,
1645710331.326377,82.000000,0.000000,4211.794922,4213.333496,4204.615234,4207.436035,4216.410156,4217.307617,4222.820313,4214.871582,4219.358887,4235.897461,4218.461426,4153.974121,4225.000000,4218.461426,0.000000,4.000000,86.000000,,,,0.000000,4.000000,4.000000,4.000000,4.000000,4.000000,4.000000,4.000000,4.000000,4.000000,4.000000,4.000000,4.000000,4.000000,4.000000,100.000000,1.000000,91.666664,3.000000,4.000000,4.000000,4.000000,4.000000,4.000000,4.000000,4.000000,4.000000,4.000000,4.000000,4.000000,4.000000,4.000000
1645710331.330317,83.000000,0.000000,4213.333496,4223.461426,4208.333496,4211.538574,4217.307617,4221.153809,4225.769043,4215.897461,4218.461426,4232.563965,4212.692383,4154.358887,4222.692383,4214.743652,0.000000,4.000000,86.000000,,,,0.000000,4.000000,4.000000,4.000000,4.000000,4.000000,4.000000,4.000000,4.000000,4.000000,4.000000,4.000000,4.000000,4.000000,4.000000,100.000000,,,,,,,,,,,,,,,,
1645710331.334257,84.000000,0.000000,4211.922852,4228.333496,4210.384766,4214.871582,4213.846191,4222.307617,4227.436035,4217.820313,4219.487305,4231.666504,4205.256348,4153.974121,4217.820313,4209.102539,0.000000,4.000000,86.000000,,,,0.000000,4.000000,4.000000,4.000000,4.000000,4.000000,4.000000,4.000000,4.000000,4.000000,4.000000,4.000000,4.000000,4.000000,4.000000,100.000000,,,,,,,,,,,,,,,,
1645710331.338197,85.000000,0.000000,4209.487305,4225.256348,4211.282227,4216.922852,4208.077148,4220.000000,4226.538574,4220.128418,4221.666504,4234.871582,4200.897461,4154.102539,4213.589844,4206.666504,0.000000,4.000000,86.000000,,,,0.000000,4.000000,4.000000,4.000000,4.000000,4.000000,4.000000,4.000000,4.000000,4.000000,4.000000,4.000000,4.000000,4.000000,4.000000,100.000000,,,,,,,,,,,,,,,,
1645710331.342137,86.000000,0.000000,4207.692383,4217.948730,4212.692383,4218.717773,4204.230957,4215.641113,4223.077148,4221.153809,4223.205078,4241.410156,4204.358887,4156.282227,4214.102539,4210.128418,0.000000,4.000000,86.000000,,,,0.000000,4.000000,4.000000,4.000000,4.000000,4.000000,4.000000,4.000000,4.000000,4.000000,4.000000,4.000000,4.000000,4.000000,4.000000,100.000000,,,,,,,,,,,,,,,,
1645710331.346077,87.000000,0.000000,4207.820313,4213.077148,4214.871582,4221.282227,4204.871582,4212.436035,4218.461426,4219.743652,4222.563965,4247.820313,4215.384766,4160.128418,4220.128418,4218.333496,0.000000,4.000000,86.000000,,,,0.000000,4.000000,4.000000,4.000000,4.000000,4.000000,4.000000,4.000000,4.000000,4.000000,4.000000,4.000000,4.000000,4.000000,4.000000,100.000000,,,,,,,,,,,,,,,,
1645710331.350017,88.000000,0.000000,4210.641113,4214.487305,4217.179688,4224.487305,4209.487305,4211.794922,4214.487305,4215.641113,4220.128418,4250.641113,4228.461426,4164.358887,4228.846191,4226.153809,0.000000,4.000000,86.000000,,,,0.000000,4.000000,4.000000,4.000000,4.000000,4.000000,4.000000,4.000000,4.000000,4.000000,4.000000,4.000000,4.000000,4.000000,4.000000,100.000000,,,,,,,,,,,,,,,,
1645710331.353957,89.000000,0.000000,4215.641113,4220.512695,4218.589844,4226.538574,4214.358887,4213.077148,4212.436035,4211.410156,4217.692383,4248.717773,4236.538574,4167.436035,4234.743652,4228.974121,0.000000,4.000000,86.000000,,,,0.000000,4.000000,4.000000,4.000000,4.000000,4.000000,4.000000,4.000000,4.000000,4.000000,4.000000,4.000000,4.000000,4.000000,4.000000,100.000000,,,,,,,,,,,,,,,,
1645710331.357898,90.000000,0.000000,4220.256348,4226.794922,4218.974121,4225.897461,4216.922852,4214.743652,4213.077148,4210.000000,4217.307617,4244.743652,4235.769043,4168.846191,4234.358887,4226.025879,0.000000,4.000000,86.000000,,,,0.000000,4.000000,4.000000,4.000000,4.000000,4.000000,4.000000,4.000000,4.000000,4.000000,4.000000,4.000000,4.000000,4.000000,4.000000,100.000000,,,,,,,,,,,,,,,,
1645710331.361838,91.000000,0.000000,4221.922852,4230.128418,4219.230957,4223.589844,4216.922852,4216.153809,4216.153809,4212.563965,4219.358887,4242.307617,4228.974121,4169.230957,4228.717773,4220.256348,0.000000,4.000000,86.000000,,,,0.000000,4.000000,4.000000,4.000000,4.000000,4.000000,4.000000,4.000000,4.000000,4.000000,4.000000,4.000000,4.000000,4.000000,4.000000,100.000000,,,,,,,,,,,,,,,,
1645710331.365778,92.000000,0.000000,4220.000000,4229.615234,4219.615234,4221.794922,4216.410156,4217.563965,4220.384766,4216.538574,4222.179688,4243.333496,4221.410156,4168.589844,4222.948730,4215.512695,0.000000,4.000000,86.000000,,,,0.000000,4.000000,4.000000,4.000000,4.000000,4.000000,4.000000,4.000000,4.000000,4.000000,4.000000,4.000000,4.000000,4.000000,4.000000,100.000000,,,,,,,,,,,,,,,,
1645710331.369718,93.000000,0.000000,4216.410156,4225.000000,4219.487305,4221.538574,4216.153809,4218.974121,4223.589844,4218.077148,4223.205078,4245.641113,4216.922852,4167.179688,4221.025879,4213.717773,0.000000,4.000000,86.000000,,,,0.000000,4.000000,4.000000,4.000000,4.000000,4.000000,4.000000,4.000000,4.000000,4.000000,4.000000,4.000000,4.000000,4.000000,4.000000,100.000000,,,,,,,,,,,,,,,,
1645710331.373658,94.000000,0.000000,4213.333496,4217.436035,4217.948730,4221.666504,4214.871582,4219.487305,4224.102539,4215.128418,4221.153809,4244.615234,4214.615234,4164.743652,4222.948730,4214.230957,0.000000,4.000000,86.000000,,,,0.000000,4.000000,4.000000,4.000000,4.000000,4.000000,4.000000,4.000000,4.000000,4.000000,4.000000,4.000000,4.000000,4.000000,4.000000,100.000000,,,,,,,,,,,,,,,,
1645710331.377598,95.000000,0.000000,4211.153809,4209.230957,4214.358887,4219.871582,4211.666504,4218.077148,4222.692383,4208.974121,4217.307617,4238.461426,4212.436035,4161.025879,4225.256348,4215.128418,0.000000,4.000000,86.000000,,,,0.000000,4.000000,4.000000,4.000000,4.000000,4.000000,4.000000,4.000000,4.000000,4.000000,4.000000,4.000000,4.000000,4.000000,4.000000,100.000000,,,,,,,,,,,,,,,,
1645710331.381638,96.000000,0.000000,4208.589844,4203.717773,4209.102539,4214.358887,4207.179688,4215.641113,4220.769043,4204.102539,4214.358887,4230.256348,4209.871582,4156.794922,4224.615234,4214.487305,0.000000,4.000000,86.000000,,,,0.000000,4.000000,4.000000,4.000000,4.000000,4.000000,4.000000,4.000000,4.000000,4.000000,4.000000,4.000000,4.000000,4.000000,4.000000,100.000000,,,,,,,,,,,,,,,,
1645710331.385578,97.000000,0.000000,4204.871582,4203.333496,4203.589844,4205.384766,4204.102539,4213.333496,4219.871582,4203.717773,4214.615234,4225.384766,4208.077148,4152.820313,4220.128418,4211.410156,0.000000,4.000000,86.000000,,,,0.000000,4.000000,4.000000,4.000000,4.000000,4.000000,4.000000,4.000000,4.000000,4.000000,4.000000,4.000000,4.000000,4.000000,4.000000,100.000000,,,,,,,,,,,,,,,,
1645710331.389518,98.000000,0.000000,4201.025879,4206.922852,4199.615234,4195.769043,4203.461426,4212.436035,4219.743652,4208.461426,4217.179688,4226.410156,4207.692383,4150.128418,4213.589844,4206.025879,0.000000,4.000000,86.000000,,,,0.000000,4.000000,4.000000,4.000000,4.000000,4.000000,4.000000,4.000000,4.000000,4.000000,4.000000,4.000000,4.000000,4.000000,4.000000,100.000000,,,,,,,,,,,,,,,,
1645710331.393458,99.000000,0.000000,4199.487305,4211.282227,4198.205078,4190.128418,4204.871582,4213.077148,4220.000000,4215.000000,4219.487305,4231.153809,4207.820313,4149.358887,4207.820313,4200.256348,0.000000,4.000000,86.000000,,,,0.000000,4.000000,4.000000,4.000000,4.000000,4.000000,4.000000,4.000000,4.000000,4.000000,4.000000,4.000000,4.000000,4.000000,4.000000,100.000000,,,,,,,,,,,,,,,,
1645710331.397399,100.000000,0.000000,4200.897461,4213.974121,4199.102539,4192.436035,4206.794922,4214.230957,4220.512695,4218.974121,4218.974121,4235.128418,4207.051270,4150.128418,4204.743652,4197.179688,0.000000,4.000000,86.000000,,,,0.000000,4.000000,4.000000,4.000000,4.000000,4.000000,4.000000,4.000000,4.000000,4.000000,4.000000,4.000000,4.000000,4.000000,4.000000,100.000000,,,,,,,,,,,,,,,,
1645710331.401339,101.000000,0.000000,4202.692383,4213.589844,4200.384766,4203.333496,4208.077148,4215.128418,4220.897461,4218.717773,4216.410156,4236.153809,4205.769043,4151.538574,4204.743652,4199.102539,0.000000,4.000000,86.000000,,,,0.000000,4.000000,4.000000,4.000000,4.000000,4.000000,4.000000,4.000000,4.000000,4.000000,4.000000,4.000000,4.000000,4.000000,4.000000,100.000000,,,,,,,,,,,,,,,,
