title:Alex-UBVsMKyfdI5HvV9ToOR8UA, start timestamp:1645711220.454646, stop timestamp:1645711246.073105, headset type:EPOCPLUS, headset serial:3B9AEBFF, headset firmware:626, channels:55, sampling rate:eeg_256, samples:6505      , version:2.1, 
Timestamp,OriginalTimestamp,EEG.Counter,EEG.Interpolated,EEG.AF3,EEG.F7,EEG.F3,EEG.FC5,EEG.T7,EEG.P7,EEG.O1,EEG.O2,EEG.P8,EEG.T8,EEG.FC6,EEG.F4,EEG.F8,EEG.AF4,EEG.RawCq,EEG.Battery,EEG.BatteryPercent,MarkerIndex,MarkerType,MarkerValueInt,EEG.MarkerHardware,CQ.AF3,CQ.F7,CQ.F3,CQ.FC5,CQ.T7,CQ.P7,CQ.O1,CQ.O2,CQ.P8,CQ.T8,CQ.FC6,CQ.F4,CQ.F8,CQ.AF4,CQ.Overall,EQ.SampleRateQuality,EQ.OVERALL,EQ.AF3,EQ.F7,EQ.F3,EQ.FC5,EQ.T7,EQ.P7,EQ.O1,EQ.O2,EQ.P8,EQ.T8,EQ.FC6,EQ.F4,EQ.F8,EQ.AF4
1645711220.454646,1645711220.474791,87.000000,0.000000,4222.820313,4236.153809,4234.230957,4242.692383,4205.000000,4201.153809,4216.282227,4193.717773,4220.897461,4227.179688,4208.846191,4189.102539,4236.025879,4128.205078,0.000000,4.000000,86.000000,,,,0.000000,4.000000,4.000000,4.000000,4.000000,4.000000,4.000000,4.000000,4.000000,4.000000,4.000000,4.000000,4.000000,4.000000,4.000000,100.000000,,,,,,,,,,,,,,,,
1645711220.458585,1645711220.478629,88.000000,0.000000,4227.948730,4229.358887,4229.871582,4236.794922,4213.077148,4206.410156,4213.461426,4188.077148,4218.589844,4218.461426,4201.666504,4186.153809,4231.025879,4128.461426,0.000000,4.000000,86.000000,,,,0.000000,4.000000,4.000000,4.000000,4.000000,4.000000,4.000000,4.000000,4.000000,4.000000,4.000000,4.000000,4.000000,4.000000,4.000000,100.000000,,,,,,,,,,,,,,,,
1645711220.462524,1645711220.482567,89.000000,0.000000,4228.333496,4228.333496,4228.205078,4238.974121,4227.436035,4214.743652,4216.922852,4188.589844,4221.922852,4220.897461,4203.077148,4188.974121,4232.179688,4134.358887,0.000000,4.000000,86.000000,,,,0.000000,4.000000,4.000000,4.000000,4.000000,4.000000,4.000000,4.000000,4.000000,4.000000,4.000000,4.000000,4.000000,4.000000,4.000000,100.000000,,,,,,,,,,,,,,,,
1645711220.466463,1645711220.486505,90.000000,0.000000,4224.102539,4232.948730,4230.384766,4247.563965,4238.589844,4218.846191,4222.948730,4195.256348,4228.205078,4233.333496,4214.358887,4196.922852,4240.384766,4141.922852,0.000000,4.000000,86.000000,,,,0.000000,4.000000,4.000000,4.000000,4.000000,4.000000,4.000000,4.000000,4.000000,4.000000,4.000000,4.000000,4.000000,4.000000,4.000000,100.000000,,,,,,,,,,,,,,,,
1645711220.470402,1645711220.490443,91.000000,0.000000,4222.692383,4237.179688,4233.846191,4254.487305,4235.384766,4211.666504,4225.512695,4202.563965,4232.820313,4244.230957,4226.794922,4204.358887,4250.384766,4146.666504,0.000000,4.000000,86.000000,,,,0.000000,4.000000,4.000000,4.000000,4.000000,4.000000,4.000000,4.000000,4.000000,4.000000,4.000000,4.000000,4.000000,4.000000,4.000000,100.000000,,,,,,,,,,,,,,,,
1645711220.474341,1645711220.494381,92.000000,0.000000,4228.077148,4236.025879,4235.384766,4253.717773,4216.922852,4195.512695,4223.077148,4205.128418,4232.948730,4243.846191,4231.025879,4206.282227,4255.256348,4147.692383,0.000000,4.000000,86.000000,,,,0.000000,4.000000,4.000000,4.000000,4.000000,4.000000,4.000000,4.000000,4.000000,4.000000,4.000000,4.000000,4.000000,4.000000,4.000000,100.000000,,,,,,,,,,,,,,,,
1645711220.478279,1645711220.498319,93.000000,0.000000,4234.102539,4231.282227,4234.358887,4247.820313,4197.820313,4182.820313,4219.615234,4202.307617,4229.743652,4234.487305,4226.025879,4202.563965,4253.077148,4146.025879,0.000000,4.000000,86.000000,,,,0.000000,4.000000,4.000000,4.000000,4.000000,4.000000,4.000000,4.000000,4.000000,4.000000,4.000000,4.000000,4.000000,4.000000,4.000000,100.000000,,,,,,,,,,,,,,,,
1645711220.482218,1645711220.502257,94.000000,0.000000,4232.179688,4228.846191,4232.179688,4244.871582,4195.128418,4185.256348,4219.743652,4197.692383,4226.410156,4226.538574,4217.820313,4196.153809,4246.666504,4142.051270,0.000000,4.000000,86.000000,,,,0.000000,4.000000,4.000000,4.000000,4.000000,4.000000,4.000000,4.000000,4.000000,4.000000,4.000000,4.000000,4.000000,4.000000,4.000000,100.000000,,,,,,,,,,,,,,,,
1645711220.486157,1645711220.506195,95.000000,0.000000,4223.205078,4231.410156,4230.384766,4248.589844,4212.436035,4201.922852,4223.717773,4195.000000,4224.358887,4226.410156,4211.410156,4190.769043,4239.871582,4135.512695,0.000000,4.000000,86.000000,,,,0.000000,4.000000,4.000000,4.000000,4.000000,4.000000,4.000000,4.000000,4.000000,4.000000,4.000000,4.000000,4.000000,4.000000,4.000000,100.000000,,,,,,,,,,,,,,,,
1645711220.490096,1645711220.510133,96.000000,0.000000,4217.051270,4235.128418,4229.102539,4254.487305,4235.512695,4219.615234,4227.436035,4194.615234,4222.692383,4231.282227,4207.051270,4187.563965,4234.358887,4128.077148,0.000000,4.000000,86.000000,,,,0.000000,4.000000,4.000000,4.000000,4.000000,4.000000,4.000000,4.000000,4.000000,4.000000,4.000000,4.000000,4.000000,4.000000,4.000000,100.000000,,,,,,,,,,,,,,,,
1645711220.494035,1645711220.514071,97.000000,0.000000,4220.769043,4235.769043,4228.589844,4256.282227,4247.436035,4225.512695,4227.692383,4195.384766,4220.384766,4234.102539,4203.974121,4187.307617,4231.282227,4124.230957,0.000000,4.000000,86.000000,,,,0.000000,4.000000,4.000000,4.000000,4.000000,4.000000,4.000000,4.000000,4.000000,4.000000,4.000000,4.000000,4.000000,4.000000,4.000000,100.000000,,,,,,,,,,,,,,,,
1645711220.497974,1645711220.518009,98.000000,0.000000,4229.487305,4233.717773,4228.974121,4253.589844,4242.692383,4218.717773,4225.000000,4196.922852,4219.102539,4233.461426,4204.358887,4190.512695,4231.922852,4126.794922,0.000000,4.000000,86.000000,,,,0.000000,4.000000,4.000000,4.000000,4.000000,4.000000,4.000000,4.000000,4.000000,4.000000,4.000000,4.000000,4.000000,4.000000,4.000000,100.000000,,,,,,,,,,,,,,,,
1645711220.501913,1645711220.521946,99.000000,0.000000,4231.794922,4232.948730,4230.000000,4251.025879,4228.846191,4208.205078,4221.794922,4199.358887,4221.410156,4234.358887,4210.512695,4195.641113,4236.282227,4133.205078,0.000000,4.000000,86.000000,,,,0.000000,4.000000,4.000000,4.000000,4.000000,4.000000,4.000000,4.000000,4.000000,4.000000,4.000000,4.000000,4.000000,4.000000,4.000000,100.000000,,,,,,,,,,,,,,,,
1645711220.505852,1645711220.525884,100.000000,0.000000,4224.230957,4233.717773,4228.974121,4250.641113,4214.615234,4202.051270,4218.974121,4201.282227,4226.666504,4238.846191,4218.333496,4197.948730,4240.897461,4136.666504,0.000000,4.000000,86.000000,,,,0.000000,4.000000,4.000000,4.000000,4.000000,4.000000,4.000000,4.000000,4.000000,4.000000,4.000000,4.000000,4.000000,4.000000,4.000000,100.000000,,,,,,,,,,,,,,,,
1645711220.509791,1645711220.529822,101.000000,0.000000,4214.230957,4231.538574,4223.205078,4249.615234,4202.692383,4200.384766,4215.128418,4200.128418,4230.769043,4241.794922,4219.230957,4192.692383,4240.256348,4133.077148,0.000000,4.000000,86.000000,,,,0.000000,4.000000,4.000000,4.000000,4.000000,4.000000,4.000000,4.000000,4.000000,4.000000,4.000000,4.000000,4.000000,4.000000,4.000000,100.000000,,,,,,,,,,,,,,,,
1645711220.513729,1645711220.533760,102.000000,0.000000,4210.384766,4223.974121,4213.717773,4245.256348,4193.974121,4200.000000,4210.512695,4195.128418,4229.487305,4235.641113,4209.102539,4180.000000,4232.948730,4124.743652,0.000000,4.000000,86.000000,,,,0.000000,4.000000,4.000000,4.000000,4.000000,4.000000,4.000000,4.000000,4.000000,4.000000,4.000000,4.000000,4.000000,4.000000,4.000000,100.000000,,,,,,,,,,,,,,,,
1645711220.517668,1645711220.537698,103.000000,0.000000,4212.307617,4216.025879,4205.641113,4240.641113,4193.205078,4200.384766,4207.692383,4189.615234,4223.717773,4220.512695,4194.743652,4166.794922,4224.102539,4118.333496,0.000000,4.000000,86.000000,,,,0.000000,4.000000,4.000000,4.000000,4.000000,4.000000,4.000000,4.000000,4.000000,4.000000,4.000000,4.000000,4.000000,4.000000,4.000000,100.000000,,,,,,,,,,,,,,,,
1645711220.521607,1645711220.541636,104.000000,0.000000,4213.846191,4215.128418,4204.358887,4241.282227,4206.025879,4204.102539,4208.974121,4187.820313,4217.820313,4205.641113,4187.307617,4161.153809,4221.025879,4117.563965,0.000000,4.000000,86.000000,,,,0.000000,4.000000,4.000000,4.000000,4.000000,4.000000,4.000000,4.000000,4.000000,4.000000,4.000000,4.000000,4.000000,4.000000,4.000000,100.000000,,,,,,,,,,,,,,,,
1645711220.525546,1645711220.545474,105.000000,0.000000,4211.794922,4222.307617,4210.000000,4247.179688,4227.820313,4210.897461,4212.948730,4189.871582,4215.384766,4198.717773,4190.641113,4164.487305,4225.769043,4120.897461,0.000000,4.000000,86.000000,,,,0.000000,4.000000,4.000000,4.000000,4.000000,4.000000,4.000000,4.000000,4.000000,4.000000,4.000000,4.000000,4.000000,4.000000,4.000000,100.000000,,,,,,,,,,,,,,,,
1645711220.529485,1645711220.549412,106.000000,0.000000,4210.641113,4229.615234,4217.051270,4251.153809,4242.820313,4215.384766,4215.769043,4192.179688,4215.769043,4199.230957,4197.307617,4170.897461,4233.077148,4124.358887,0.000000,4.000000,86.000000,,,,0.000000,4.000000,4.000000,4.000000,4.000000,4.000000,4.000000,4.000000,4.000000,4.000000,4.000000,4.000000,4.000000,4.000000,4.000000,100.000000,,,,,,,,,,,,,,,,
1645711220.533424,1645711220.553350,107.000000,0.000000,4214.615234,4229.743652,4219.743652,4247.307617,4238.461426,4212.436035,4215.769043,4191.282227,4216.282227,4202.051270,4198.461426,4173.589844,4236.282227,4126.153809,0.000000,4.000000,86.000000,,,,0.000000,4.000000,4.000000,4.000000,4.000000,4.000000,4.000000,4.000000,4.000000,4.000000,4.000000,4.000000,4.000000,4.000000,4.000000,100.000000,,,,,,,,,,,,,,,,
1645711220.537363,1645711220.557288,108.000000,0.000000,4220.641113,4223.461426,4218.205078,4238.461426,4219.615234,4204.230957,4215.256348,4187.820313,4216.025879,4205.384766,4194.102539,4171.538574,4234.871582,4127.436035,0.000000,4.000000,86.000000,,,,0.000000,4.000000,4.000000,4.000000,4.000000,4.000000,4.000000,4.000000,4.000000,4.000000,4.000000,4.000000,4.000000,4.000000,4.000000,100.000000,,,,,,,,,,,,,,,,
1645711220.541302,1645711220.561226,109.000000,0.000000,4221.666504,4218.589844,4216.410156,4234.358887,4204.871582,4198.077148,4217.307617,4186.410156,4217.051270,4212.051270,4192.179688,4169.615234,4233.717773,4129.358887,0.000000,4.000000,86.000000,,,,0.000000,4.000000,4.000000,4.000000,4.000000,4.000000,4.000000,4.000000,4.000000,4.000000,4.000000,4.000000,4.000000,4.000000,4.000000,100.000000,,,,,,,,,,,,,,,,
1645711220.545241,1645711220.565164,110.000000,0.000000,4216.666504,4220.000000,4217.051270,4239.871582,4206.153809,4198.461426,4220.897461,4188.846191,4219.615234,4222.051270,4197.436035,4170.897461,4236.922852,4131.153809,0.000000,4.000000,86.000000,,,,0.000000,4.000000,4.000000,4.000000,4.000000,4.000000,4.000000,4.000000,4.000000,4.000000,4.000000,4.000000,4.000000,4.000000,4.000000,100.000000,,,,,,,,,,,,,,,,
1645711220.549179,1645711220.569102,111.000000,0.000000,4212.307617,4224.102539,4218.205078,4249.871582,4217.307617,4201.794922,4222.179688,4192.436035,4221.666504,4229.358887,4205.256348,4174.102539,4242.179688,4131.282227,0.000000,4.000000,86.000000,,,,0.000000,4.000000,4.000000,4.000000,4.000000,4.000000,4.000000,4.000000,4.000000,4.000000,4.000000,4.000000,4.000000,4.000000,4.000000,100.000000,,,,,,,,,,,,,,,,
1645711220.553118,1645711220.573040,112.000000,0.000000,4214.487305,4223.846191,4216.666504,4255.000000,4222.820313,4202.179688,4219.102539,4192.563965,4221.153809,4227.948730,4207.179688,4175.512695,4244.102539,4130.000000,0.000000,4.000000,86.000000,,,,0.000000,4.000000,4.000000,4.000000,4.000000,4.000000,4.000000,4.000000,4.000000,4.000000,4.000000,4.000000,4.000000,4.000000,4.000000,100.000000,,,,,,,,,,,,,,,,
1645711220.557057,1645711220.576978,113.000000,0.000000,4220.384766,4218.333496,4212.436035,4252.692383,4217.436035,4199.871582,4214.230957,4188.846191,4218.717773,4220.000000,4202.051270,4174.102539,4240.897461,4129.358887,0.000000,4.000000,86.000000,,,,0.000000,4.000000,4.000000,4.000000,4.000000,4.000000,4.000000,4.000000,4.000000,4.000000,4.000000,4.000000,4.000000,4.000000,4.000000,100.000000,,,,,,,,,,,,,,,,
1645711220.560996,1645711220.580916,114.000000,0.000000,4221.922852,4214.102539,4209.358887,4248.205078,4210.897461,4200.128418,4212.307617,4185.256348,4217.820313,4215.897461,4197.179688,4172.948730,4236.666504,4130.384766,0.000000,4.000000,86.000000,,,,0.000000,4.000000,4.000000,4.000000,4.000000,4.000000,4.000000,4.000000,4.000000,4.000000,4.000000,4.000000,4.000000,4.000000,4.000000,100.000000,,,,,,,,,,,,,,,,
1645711220.564935,1645711220.584854,115.000000,0.000000,4217.307617,4217.051270,4210.897461,4246.794922,4213.846191,4205.769043,4214.230957,4185.769043,4220.641113,4222.307617,4199.358887,4174.871582,4235.641113,4132.051270,0.000000,4.000000,86.000000,,,,0.000000,4.000000,4.000000,4.000000,4.000000,4.000000,4.000000,4.000000,4.000000,4.000000,4.000000,4.000000,4.000000,4.000000,4.000000,100.000000,,,,,,,,,,,,,,,,
1645711220.568874,1645711220.588792,116.000000,0.000000,4214.102539,4225.384766,4216.025879,4248.077148,4224.615234,4212.307617,4216.410156,4189.487305,4224.487305,4233.589844,4206.922852,4179.487305,4238.205078,4133.077148,0.000000,4.000000,86.000000,,,,0.000000,4.000000,4.000000,4.000000,4.000000,4.000000,4.000000,4.000000,4.000000,4.000000,4.000000,4.000000,4.000000,4.000000,4.000000,100.000000,,,,,,,,,,,,,,,,
1645711220.572813,1645711220.592730,117.000000,0.000000,4218.974121,4233.205078,4220.769043,4248.333496,4233.205078,4213.333496,4215.769043,4192.820313,4225.641113,4237.563965,4213.077148,4183.974121,4241.153809,4133.846191,0.000000,4.000000,86.000000,,,,0.000000,4.000000,4.000000,4.000000,4.000000,4.000000,4.000000,4.000000,4.000000,4.000000,4.000000,4.000000,4.000000,4.000000,4.000000,100.000000,,,,,,,,,,,,,,,,
1645711220.576752,1645711220.596668,118.000000,0.000000,4228.717773,4237.307617,4222.563965,4248.077148,4233.974121,4208.846191,4213.461426,4193.846191,4223.461426,4230.384766,4214.871582,4186.922852,4242.692383,4136.282227,0.000000,4.000000,86.000000,,,,0.000000,4.000000,4.000000,4.000000,4.000000,4.000000,4.000000,4.000000,4.000000,4.000000,4.000000,4.000000,4.000000,4.000000,4.000000,100.000000,,,,,,,,,,,,,,,,
1645711220.580691,1645711220.600606,119.000000,0.000000,4232.948730,4239.871582,4222.436035,4251.153809,4231.025879,4205.512695,4213.077148,4194.743652,4221.538574,4220.641113,4216.153809,4189.102539,4244.102539,4140.128418,0.000000,4.000000,86.000000,,,,0.000000,4.000000,4.000000,4.000000,4.000000,4.000000,4.000000,4.000000,4.000000,4.000000,4.000000,4.000000,4.000000,4.000000,4.000000,100.000000,,,,,,,,,,,,,,,,
1645711220.584629,1645711220.604544,120.000000,0.000000,4227.051270,4242.436035,4221.666504,4258.077148,4229.358887,4207.692383,4215.897461,4198.205078,4223.461426,4219.358887,4219.871582,4191.666504,4246.922852,4142.820313,0.000000,4.000000,86.000000,,,,0.000000,4.000000,4.000000,4.000000,4.000000,4.000000,4.000000,4.000000,4.000000,4.000000,4.000000,4.000000,4.000000,4.000000,4.000000,100.000000,,,,,,,,,,,,,,,,
1645711220.588568,1645711220.608482,121.000000,0.000000,4218.077148,4242.820313,4220.384766,4262.692383,4228.461426,4211.282227,4218.846191,4203.589844,4227.948730,4226.922852,4223.205078,4192.820313,4250.256348,4141.666504,0.000000,4.000000,86.000000,,,,0.000000,4.000000,4.000000,4.000000,4.000000,4.000000,4.000000,4.000000,4.000000,4.000000,4.000000,4.000000,4.000000,4.000000,4.000000,100.000000,,,,,,,,,,,,,,,,
1645711220.592507,1645711220.612420,122.000000,0.000000,4215.769043,4237.948730,4217.563965,4258.461426,4224.615234,4210.641113,4218.974121,4206.794922,4230.128418,4234.102539,4219.871582,4190.769043,4250.769043,4137.307617,0.000000,4.000000,86.000000,,,,0.000000,4.000000,4.000000,4.000000,4.000000,4.000000,4.000000,4.000000,4.000000,4.000000,4.000000,4.000000,4.000000,4.000000,4.000000,100.000000,,,,,,,,,,,,,,,,
1645711220.596446,1645711220.616258,123.000000,0.000000,4220.512695,4230.000000,4214.743652,4247.179688,4218.717773,4205.897461,4217.051270,4204.743652,4226.794922,4232.820313,4209.743652,4185.256348,4247.948730,4133.205078,0.000000,4.000000,86.000000,,,,0.000000,4.000000,4.000000,4.000000,4.000000,4.000000,4.000000,4.000000,4.000000,4.000000,4.000000,4.000000,4.000000,4.000000,4.000000,100.000000,,,,,,,,,,,,,,,,
1645711220.600385,1645711220.620196,124.000000,0.000000,4223.846191,4225.256348,4214.358887,4238.461426,4216.666504,4203.717773,4216.025879,4198.589844,4220.256348,4224.487305,4200.256348,4178.717773,4244.358887,4131.794922,0.000000,4.000000,86.000000,,,,0.000000,4.000000,4.000000,4.000000,4.000000,4.000000,4.000000,4.000000,4.000000,4.000000,4.000000,4.000000,4.000000,4.000000,4.000000,100.000000,,,,,,,,,,,,,,,,
1645711220.604324,1645711220.624134,125.000000,0.000000,4220.384766,4227.820313,4216.794922,4239.487305,4220.641113,4208.077148,4216.794922,4192.179688,4215.128418,4215.641113,4198.077148,4173.717773,4242.948730,4132.692383,0.000000,4.000000,86.000000,,,,0.000000,4.000000,4.000000,4.000000,4.000000,4.000000,4.000000,4.000000,4.000000,4.000000,4.000000,4.000000,4.000000,4.000000,4.000000,100.000000,,,,,,,,,,,,,,,,
1645711220.608262,1645711220.628072,126.000000,0.000000,4214.871582,4234.358887,4219.743652,4247.307617,4225.512695,4214.615234,4217.307617,4188.589844,4213.974121,4211.922852,4202.692383,4171.410156,4243.846191,4133.974121,0.000000,4.000000,86.000000,,,,0.000000,4.000000,4.000000,4.000000,4.000000,4.000000,4.000000,4.000000,4.000000,4.000000,4.000000,4.000000,4.000000,4.000000,4.000000,100.000000,,,,,,,,,,,,,,,,
1645711220.612201,1645711220.632010,127.000000,0.000000,4216.410156,4237.820313,4220.897461,4253.589844,4224.871582,4215.512695,4215.384766,4188.333496,4216.282227,4214.358887,4208.205078,4172.436035,4244.743652,4135.641113,0.000000,4.000000,86.000000,,,,0.000000,4.000000,4.000000,4.000000,4.000000,4.000000,4.000000,4.000000,4.000000,4.000000,4.000000,4.000000,4.000000,4.000000,4.000000,100.000000,,,,,,,,,,,,,,,,
1645711220.616140,1645711220.635948,128.000000,0.000000,4225.384766,4235.256348,4220.897461,4253.461426,4218.974121,4209.358887,4212.051270,4190.512695,4219.743652,4221.538574,4211.282227,4177.692383,4244.871582,4138.717773,3313.000000,4.000000,86.000000,,,,0.000000,4.000000,4.000000,4.000000,4.000000,4.000000,4.000000,4.000000,4.000000,4.000000,4.000000,4.000000,4.000000,4.000000,4.000000,100.000000,,,,,,,,,,,,,,,,
1645711220.620079,1645711220.639885,129.000000,0.000000,4232.307617,4230.641113,4222.051270,4250.000000,4214.102539,4202.179688,4209.871582,4193.717773,4222.820313,4230.256348,4214.615234,4186.922852,4246.025879,4142.948730,3474.000000,4.000000,86.000000,,,,0.000000,4.000000,4.000000,4.000000,4.000000,4.000000,4.000000,4.000000,4.000000,4.000000,4.000000,4.000000,4.000000,4.000000,4.000000,100.000000,,,,,,,,,,,,,,,,
1645711220.624018,1645711220.643823,130.000000,0.000000,4230.512695,4228.974121,4225.384766,4248.077148,4213.589844,4200.128418,4209.358887,4196.410156,4224.487305,4236.153809,4220.384766,4196.410156,4249.230957,4145.641113,2270.000000,4.000000,86.000000,,,,0.000000,4.000000,4.000000,4.000000,4.000000,4.000000,4.000000,4.000000,4.000000,4.000000,4.000000,4.000000,4.000000,4.000000,4.000000,100.000000,,,,,,,,,,,,,,,,
1645711220.627957,1645711220.647761,131.000000,0.000000,4223.974121,4231.153809,4228.461426,4248.846191,4215.000000,4202.820313,4208.461426,4196.538574,4223.846191,4235.000000,4225.384766,4201.282227,4252.179688,4144.743652,3230.000000,4.000000,86.000000,,,,0.000000,4.000000,4.000000,4.000000,4.000000,4.000000,4.000000,4.000000,4.000000,4.000000,4.000000,4.000000,4.000000,4.000000,4.000000,100.000000,,,,,,,,,,,,,,,,
1645711220.631896,1645711220.651699,132.000000,0.000000,4222.436035,4233.589844,4228.974121,4250.128418,4215.769043,4205.128418,4206.025879,4193.589844,4221.025879,4227.692383,4224.358887,4198.846191,4252.179688,4141.538574,3549.000000,4.000000,86.000000,,,,0.000000,4.000000,4.000000,4.000000,4.000000,4.000000,4.000000,4.000000,4.000000,4.000000,4.000000,4.000000,4.000000,4.000000,4.000000,100.000000,,,,,,,,,,,,,,,,
1645711220.635835,1645711220.655637,133.000000,0.000000,4228.077148,4234.871582,4227.436035,4251.282227,4218.717773,4204.871582,4204.871582,4189.743652,4218.461426,4220.897461,4217.692383,4192.436035,4249.615234,4140.384766,3277.000000,4.000000,86.000000,,,,0.000000,4.000000,4.000000,4.000000,4.000000,4.000000,4.000000,4.000000,4.000000,4.000000,4.000000,4.000000,4.000000,4.000000,4.000000,100.000000,,,,,,,,,,,,,,,,
1645711220.639773,1645711220.659575,134.000000,0.000000,4233.717773,4237.051270,4227.051270,4254.743652,4227.820313,4205.384766,4208.077148,4188.589844,4219.102539,4223.205078,4213.077148,4188.205078,4247.948730,4143.205078,3241.000000,4.000000,86.000000,,,,0.000000,4.000000,4.000000,4.000000,4.000000,4.000000,4.000000,4.000000,4.000000,4.000000,4.000000,4.000000,4.000000,4.000000,4.000000,100.000000,,,,,,,,,,,,,,,,
1645711220.643712,1645711220.663513,135.000000,0.000000,4233.461426,4242.051270,4229.871582,4260.897461,4240.641113,4209.615234,4215.128418,4191.922852,4223.717773,4234.871582,4216.538574,4189.615234,4249.871582,4147.820313,2591.000000,4.000000,86.000000,,,,0.000000,4.000000,4.000000,4.000000,4.000000,4.000000,4.000000,4.000000,4.000000,4.000000,4.000000,4.000000,4.000000,4.000000,4.000000,100.000000,,,,,,,,,,,,,,,,
1645711220.647651,1645711220.667451,136.000000,0.000000,4230.384766,4246.922852,4233.077148,4265.641113,4247.820313,4215.897461,4221.410156,4197.436035,4228.846191,4246.538574,4225.769043,4195.128418,4252.692383,4151.025879,1596.000000,4.000000,86.000000,,,,0.000000,4.000000,4.000000,4.000000,4.000000,4.000000,4.000000,4.000000,4.000000,4.000000,4.000000,4.000000,4.000000,4.000000,4.000000,100.000000,,,,,,,,,,,,,,,,
1645711220.651590,1645711220.671389,137.000000,0.000000,4231.282227,4247.307617,4233.205078,4264.102539,4243.333496,4219.358887,4222.820313,4201.666504,4230.128418,4248.077148,4231.922852,4199.871582,4252.820313,4152.692383,3358.000000,4.000000,86.000000,,,,0.000000,4.000000,4.000000,4.000000,4.000000,4.000000,4.000000,4.000000,4.000000,4.000000,4.000000,4.000000,4.000000,4.000000,4.000000,100.000000,,,,,,,,,,,,,,,,
1645711220.655529,1645711220.675327,138.000000,0.000000,4235.512695,4243.205078,4230.128418,4258.077148,4231.538574,4218.461426,4220.897461,4203.589844,4227.051270,4241.153809,4231.282227,4201.922852,4250.256348,4155.512695,2303.000000,4.000000,86.000000,,,,0.000000,4.000000,4.000000,4.000000,4.000000,4.000000,4.000000,4.000000,4.000000,4.000000,4.000000,4.000000,4.000000,4.000000,4.000000,100.000000,,,,,,,,,,,,,,,,
1645711220.659468,1645711220.679265,139.000000,0.000000,4233.333496,4240.897461,4227.820313,4255.128418,4223.717773,4216.538574,4220.256348,4205.769043,4224.358887,4238.077148,4229.358887,4204.230957,4249.615234,4161.538574,2683.000000,4.000000,86.000000,,,,0.000000,4.000000,4.000000,4.000000,4.000000,4.000000,4.000000,4.000000,4.000000,4.000000,4.000000,4.000000,4.000000,4.000000,4.000000,100.000000,,,,,,,,,,,,,,,,
1645711220.663407,1645711220.683203,140.000000,0.000000,4217.307617,4245.769043,4230.128418,4260.512695,4226.794922,4217.307617,4223.717773,4210.512695,4226.922852,4247.820313,4233.461426,4208.974121,4255.256348,4168.461426,3236.000000,4.000000,86.000000,,,,0.000000,4.000000,4.000000,4.000000,4.000000,4.000000,4.000000,4.000000,4.000000,4.000000,4.000000,4.000000,4.000000,4.000000,4.000000,100.000000,,,,,,,,,,,,,,,,
1645711220.667346,1645711220.687141,141.000000,0.000000,4192.948730,4254.487305,4235.769043,4270.384766,4236.153809,4220.000000,4228.077148,4215.769043,4233.974121,4263.846191,4241.922852,4213.846191,4264.102539,4171.282227,3334.000000,4.000000,86.000000,,,,0.000000,4.000000,4.000000,4.000000,4.000000,4.000000,4.000000,4.000000,4.000000,4.000000,4.000000,4.000000,4.000000,4.000000,4.000000,100.000000,,,,,,,,,,,,,,,,
1645711220.671285,1645711220.690979,142.000000,0.000000,4173.333496,4258.077148,4239.230957,4275.256348,4241.794922,4221.794922,4228.846191,4216.922852,4239.358887,4269.487305,4245.641113,4213.333496,4268.077148,4167.051270,2303.000000,4.000000,86.000000,1,1,0,0.000000,4.000000,4.000000,4.000000,4.000000,4.000000,4.000000,4.000000,4.000000,4.000000,4.000000,4.000000,4.000000,4.000000,4.000000,100.000000,,,,,,,,,,,,,,,,
1645711220.675223,1645711220.694917,143.000000,0.000000,4165.384766,4251.153809,4236.410156,4270.384766,4238.333496,4221.922852,4224.615234,4212.436035,4237.692383,4255.641113,4237.692383,4203.974121,4262.051270,4157.436035,2683.000000,4.000000,86.000000,,,,0.000000,4.000000,4.000000,4.000000,4.000000,4.000000,4.000000,4.000000,4.000000,4.000000,4.000000,4.000000,4.000000,4.000000,4.000000,100.000000,,,,,,,,,,,,,,,,
1645711220.679162,1645711220.698855,144.000000,0.000000,4164.230957,4237.948730,4228.205078,4260.512695,4231.025879,4222.948730,4219.358887,4206.153809,4230.128418,4231.282227,4222.179688,4188.974121,4249.871582,4146.922852,3236.000000,4.000000,86.000000,,,,0.000000,4.000000,4.000000,4.000000,4.000000,4.000000,4.000000,4.000000,4.000000,4.000000,4.000000,4.000000,4.000000,4.000000,4.000000,100.000000,,,,,,,,,,,,,,,,
1645711220.683101,1645711220.702793,145.000000,0.000000,4161.666504,4227.692383,4219.615234,4254.102539,4229.487305,4226.538574,4217.563965,4203.589844,4222.179688,4214.230957,4209.743652,4175.384766,4240.641113,4139.102539,3334.000000,4.000000,86.000000,,,,0.000000,4.000000,4.000000,4.000000,4.000000,4.000000,4.000000,4.000000,4.000000,4.000000,4.000000,4.000000,4.000000,4.000000,4.000000,100.000000,,,,,,,,,,,,,,,,
1645711220.687040,1645711220.706731,146.000000,0.000000,4156.922852,4225.128418,4214.487305,4253.461426,4237.051270,4230.000000,4220.128418,4206.282227,4218.589844,4212.820313,4205.512695,4168.205078,4239.102539,4135.384766,2303.000000,4.000000,86.000000,,,,0.000000,4.000000,4.000000,4.000000,4.000000,4.000000,4.000000,4.000000,4.000000,4.000000,4.000000,4.000000,4.000000,4.000000,4.000000,100.000000,0.984375,41.666668,1.000000,4.000000,4.000000,4.000000,1.000000,3.000000,4.000000,4.000000,4.000000,3.000000,4.000000,4.000000,4.000000,3.000000
1645711220.690979,1645711220.710669,147.000000,0.000000,4156.666504,4226.922852,4213.333496,4254.487305,4247.179688,4229.102539,4224.230957,4210.384766,4219.230957,4220.128418,4206.794922,4167.692383,4242.948730,4135.128418,2683.000000,4.000000,86.000000,,,,0.000000,4.000000,4.000000,4.000000,4.000000,4.000000,4.000000,4.000000,4.000000,4.000000,4.000000,4.000000,4.000000,4.000000,4.000000,100.000000,,,,,,,,,,,,,,,,
1645711220.694918,1645711220.714607,148.000000,0.000000,4163.846191,4228.205078,4214.102539,4253.205078,4252.051270,4224.102539,4227.179688,4211.794922,4221.666504,4225.641113,4208.461426,4171.153809,4246.025879,4137.948730,3236.000000,4.000000,86.000000,,,,0.000000,4.000000,4.000000,4.000000,4.000000,4.000000,4.000000,4.000000,4.000000,4.000000,4.000000,4.000000,4.000000,4.000000,4.000000,100.000000,,,,,,,,,,,,,,,,
1645711220.698857,1645711220.718545,149.000000,0.000000,4172.692383,4228.077148,4215.641113,4251.153809,4250.897461,4220.641113,4228.461426,4210.641113,4224.743652,4228.205078,4209.871582,4176.922852,4246.282227,4142.436035,3334.000000,4.000000,86.000000,,,,0.000000,4.000000,4.000000,4.000000,4.000000,4.000000,4.000000,4.000000,4.000000,4.000000,4.000000,4.000000,4.000000,4.000000,4.000000,100.000000,,,,,,,,,,,,,,,,
1645711220.702796,1645711220.722483,150.000000,0.000000,4175.512695,4228.589844,4217.051270,4252.307617,4248.077148,4222.948730,4228.333496,4210.000000,4228.333496,4234.230957,4213.333496,4183.461426,4245.897461,4146.666504,2303.000000,4.000000,86.000000,,,,0.000000,4.000000,4.000000,4.000000,4.000000,4.000000,4.000000,4.000000,4.000000,4.000000,4.000000,4.000000,4.000000,4.000000,4.000000,100.000000,,,,,,,,,,,,,,,,
1645711220.706735,1645711220.726421,151.000000,0.000000,4172.307617,4230.000000,4216.666504,4256.282227,4244.871582,4227.563965,4226.410156,4212.051270,4231.794922,4245.384766,4217.436035,4187.563965,4246.282227,4148.333496,2683.000000,4.000000,86.000000,,,,0.000000,4.000000,4.000000,4.000000,4.000000,4.000000,4.000000,4.000000,4.000000,4.000000,4.000000,4.000000,4.000000,4.000000,4.000000,100.000000,,,,,,,,,,,,,,,,
1645711220.710673,1645711220.730359,152.000000,0.000000,4169.871582,4229.487305,4213.205078,4258.077148,4237.179688,4225.897461,4222.307617,4214.615234,4232.307617,4252.563965,4216.922852,4185.769043,4246.025879,4146.794922,3236.000000,4.000000,86.000000,,,,0.000000,4.000000,4.000000,4.000000,4.000000,4.000000,4.000000,4.000000,4.000000,4.000000,4.000000,4.000000,4.000000,4.000000,4.000000,100.000000,,,,,,,,,,,,,,,,
1645711220.714612,1645711220.734297,153.000000,0.000000,4172.563965,4225.512695,4207.948730,4255.000000,4223.974121,4215.384766,4218.077148,4214.615234,4228.333496,4247.179688,4209.871582,4178.333496,4243.205078,4144.358887,3334.000000,4.000000,86.000000,,,,0.000000,4.000000,4.000000,4.000000,4.000000,4.000000,4.000000,4.000000,4.000000,4.000000,4.000000,4.000000,4.000000,4.000000,4.000000,100.000000,,,,,,,,,,,,,,,,
1645711220.718551,1645711220.738235,154.000000,0.000000,4176.794922,4221.538574,4204.871582,4250.384766,4213.205078,4203.461426,4216.282227,4211.922852,4222.179688,4232.051270,4201.666504,4169.871582,4239.230957,4143.589844,2303.000000,4.000000,86.000000,,,,0.000000,4.000000,4.000000,4.000000,4.000000,4.000000,4.000000,4.000000,4.000000,4.000000,4.000000,4.000000,4.000000,4.000000,4.000000,100.000000,,,,,,,,,,,,,,,,
1645711220.722490,1645711220.742173,155.000000,0.000000,4176.025879,4221.922852,4207.179688,4250.384766,4215.641113,4200.641113,4217.563965,4209.358887,4218.717773,4219.871582,4199.615234,4166.410156,4236.922852,4145.000000,2683.000000,4.000000,86.000000,,,,0.000000,4.000000,4.000000,4.000000,4.000000,4.000000,4.000000,4.000000,4.000000,4.000000,4.000000,4.000000,4.000000,4.000000,4.000000,100.000000,,,,,,,,,,,,,,,,
1645711220.726429,1645711220.746110,156.000000,0.000000,4170.641113,4226.025879,4213.077148,4256.282227,4231.025879,4208.461426,4219.358887,4208.846191,4220.000000,4218.974121,4204.358887,4168.589844,4237.436035,4146.922852,3236.000000,4.000000,86.000000,,,,0.000000,4.000000,4.000000,4.000000,4.000000,4.000000,4.000000,4.000000,4.000000,4.000000,4.000000,4.000000,4.000000,4.000000,4.000000,100.000000,,,,,,,,,,,,,,,,
1645711220.730368,1645711220.750048,157.000000,0.000000,4167.692383,4228.974121,4217.820313,4263.077148,4246.153809,4217.948730,4218.205078,4209.615234,4223.974121,4226.922852,4209.743652,4172.948730,4238.974121,4147.948730,3334.000000,4.000000,86.000000,,,,0.000000,4.000000,4.000000,4.000000,4.000000,4.000000,4.000000,4.000000,4.000000,4.000000,4.000000,4.000000,4.000000,4.000000,4.000000,100.000000,,,,,,,,,,,,,,,,
1645711220.734307,1645711220.753986,158.000000,0.000000,4172.051270,4227.820313,4218.205078,4265.000000,4248.333496,4219.487305,4214.743652,4209.871582,4226.538574,4235.897461,4211.153809,4175.897461,4239.871582,4149.358887,2303.000000,4.000000,86.000000,,,,0.000000,4.000000,4.000000,4.000000,4.000000,4.000000,4.000000,4.000000,4.000000,4.000000,4.000000,4.000000,4.000000,4.000000,4.000000,100.000000,,,,,,,,,,,,,,,,
1645711220.738246,1645711220.757924,159.000000,0.000000,4179.615234,4225.641113,4216.538574,4262.820313,4239.358887,4213.974121,4212.820313,4209.743652,4226.538574,4242.563965,4210.897461,4177.692383,4240.897461,4152.563965,2683.000000,4.000000,86.000000,,,,0.000000,4.000000,4.000000,4.000000,4.000000,4.000000,4.000000,4.000000,4.000000,4.000000,4.000000,4.000000,4.000000,4.000000,4.000000,100.000000,,,,,,,,,,,,,,,,
1645711220.742184,1645711220.761762,160.000000,0.000000,4182.820313,4227.948730,4217.179688,4261.153809,4232.051270,4210.256348,4215.256348,4210.897461,4225.512695,4246.922852,4214.102539,4180.256348,4243.461426,4156.410156,3236.000000,4.000000,86.000000,,,,0.000000,4.000000,4.000000,4.000000,4.000000,4.000000,4.000000,4.000000,4.000000,4.000000,4.000000,4.000000,4.000000,4.000000,4.000000,100.000000,,,,,,,,,,,,,,,,
1645711220.746123,1645711220.765700,161.000000,0.000000,4180.256348,4234.230957,4220.512695,4262.051270,4234.487305,4213.974121,4220.128418,4213.333496,4224.871582,4246.282227,4219.487305,4182.820313,4246.025879,4157.307617,3334.000000,4.000000,86.000000,2,1,0,0.000000,4.000000,4.000000,4.000000,4.000000,4.000000,4.000000,4.000000,4.000000,4.000000,4.000000,4.000000,4.000000,4.000000,4.000000,100.000000,,,,,,,,,,,,,,,,
1645711220.750062,1645711220.769638,162.000000,0.000000,4177.692383,4238.205078,4222.179688,4262.436035,4240.769043,4220.897461,4222.307617,4215.000000,4223.974121,4235.897461,4219.871582,4182.692383,4244.871582,4153.717773,2303.000000,4.000000,86.000000,,,,0.000000,4.000000,4.000000,4.000000,4.000000,4.000000,4.000000,4.000000,4.000000,4.000000,4.000000,4.000000,4.000000,4.000000,4.000000,100.000000,,,,,,,,,,,,,,,,
1645711220.754001,1645711220.773576,163.000000,0.000000,4180.512695,4235.384766,4219.230957,4259.358887,4240.641113,4223.589844,4219.615234,4213.846191,4222.563965,4218.461426,4212.179688,4179.230957,4239.102539,4149.102539,2683.000000,4.000000,86.000000,,,,0.000000,4.000000,4.000000,4.000000,4.000000,4.000000,4.000000,4.000000,4.000000,4.000000,4.000000,4.000000,4.000000,4.000000,4.000000,100.000000,,,,,,,,,,,,,,,,
1645711220.757940,1645711220.777514,164.000000,0.000000,4185.641113,4229.487305,4213.717773,4254.871582,4233.077148,4219.871582,4215.000000,4211.282227,4222.436035,4206.922852,4203.717773,4176.025879,4233.205078,4148.589844,3236.000000,4.000000,86.000000,,,,0.000000,4.000000,4.000000,4.000000,4.000000,4.000000,4.000000,4.000000,4.000000,4.000000,4.000000,4.000000,4.000000,4.000000,4.000000,100.000000,,,,,,,,,,,,,,,,
1645711220.761879,1645711220.781452,165.000000,0.000000,4186.538574,4228.077148,4211.410156,4253.333496,4226.282227,4215.256348,4213.205078,4210.256348,4225.769043,4213.717773,4205.256348,4177.307617,4233.333496,4153.333496,3334.000000,4.000000,86.000000,,,,0.000000,4.000000,4.000000,4.000000,4.000000,4.000000,4.000000,4.000000,4.000000,4.000000,4.000000,4.000000,4.000000,4.000000,4.000000,100.000000,,,,,,,,,,,,,,,,
1645711220.765818,1645711220.785390,166.000000,0.000000,4182.051270,4233.717773,4215.000000,4255.384766,4226.410156,4214.487305,4214.871582,4211.282227,4231.025879,4235.769043,4217.692383,4182.179688,4240.128418,4158.974121,2303.000000,4.000000,86.000000,,,,0.000000,4.000000,4.000000,4.000000,4.000000,4.000000,4.000000,4.000000,4.000000,4.000000,4.000000,4.000000,4.000000,4.000000,4.000000,100.000000,,,,,,,,,,,,,,,,
1645711220.769756,1645711220.789328,167.000000,0.000000,4178.717773,4241.153809,4221.282227,4256.538574,4230.384766,4217.179688,4216.410156,4212.051270,4233.846191,4255.384766,4229.487305,4185.256348,4247.307617,4160.128418,2683.000000,4.000000,86.000000,,,,0.000000,4.000000,4.000000,4.000000,4.000000,4.000000,4.000000,4.000000,4.000000,4.000000,4.000000,4.000000,4.000000,4.000000,4.000000,100.000000,,,,,,,,,,,,,,,,
1645711220.773695,1645711220.793266,168.000000,0.000000,4181.794922,4243.846191,4224.871582,4254.230957,4232.436035,4220.000000,4215.641113,4209.743652,4230.769043,4255.769043,4229.230957,4182.563965,4248.333496,4156.666504,3236.000000,4.000000,86.000000,,,,0.000000,4.000000,4.000000,4.000000,4.000000,4.000000,4.000000,4.000000,4.000000,4.000000,4.000000,4.000000,4.000000,4.000000,4.000000,100.000000,,,,,,,,,,,,,,,,
1645711220.777634,1645711220.797204,169.000000,0.000000,4187.563965,4241.666504,4223.974121,4252.307617,4232.692383,4222.179688,4213.974121,4205.512695,4224.230957,4237.307617,4217.692383,4176.410156,4243.205078,4152.563965,3334.000000,4.000000,86.000000,,,,0.000000,4.000000,4.000000,4.000000,4.000000,4.000000,4.000000,4.000000,4.000000,4.000000,4.000000,4.000000,4.000000,4.000000,4.000000,100.000000,,,,,,,,,,,,,,,,
1645711220.781573,1645711220.801142,170.000000,0.000000,4188.461426,4239.487305,4221.153809,4256.794922,4235.384766,4225.128418,4213.974121,4202.692383,4219.743652,4216.538574,4206.666504,4172.436035,4237.692383,4151.538574,2303.000000,4.000000,86.000000,,,,0.000000,4.000000,4.000000,4.000000,4.000000,4.000000,4.000000,4.000000,4.000000,4.000000,4.000000,4.000000,4.000000,4.000000,4.000000,100.000000,,,,,,,,,,,,,,,,
1645711220.785512,1645711220.805080,171.000000,0.000000,4183.717773,4240.128418,4219.102539,4267.307617,4240.128418,4226.666504,4215.000000,4204.230957,4220.256348,4210.128418,4205.641113,4173.717773,4237.436035,4153.846191,2683.000000,4.000000,86.000000,,,,0.000000,4.000000,4.000000,4.000000,4.000000,4.000000,4.000000,4.000000,4.000000,4.000000,4.000000,4.000000,4.000000,4.000000,4.000000,100.000000,,,,,,,,,,,,,,,,
1645711220.789451,1645711220.809018,172.000000,0.000000,4181.282227,4240.769043,4218.333496,4275.128418,4240.256348,4222.563965,4213.974121,4208.205078,4223.205078,4219.871582,4213.205078,4178.461426,4241.922852,4157.436035,3236.000000,4.000000,86.000000,,,,0.000000,4.000000,4.000000,4.000000,4.000000,4.000000,4.000000,4.000000,4.000000,4.000000,4.000000,4.000000,4.000000,4.000000,4.000000,100.000000,,,,,,,,,,,,,,,,
1645711220.793390,1645711220.812956,173.000000,0.000000,4187.307617,4237.948730,4217.692383,4272.436035,4231.666504,4211.922852,4209.230957,4210.897461,4224.102539,4234.615234,4221.025879,4182.436035,4246.794922,4160.897461,3334.000000,4.000000,86.000000,,,,0.000000,4.000000,4.000000,4.000000,4.000000,4.000000,4.000000,4.000000,4.000000,4.000000,4.000000,4.000000,4.000000,4.000000,4.000000,100.000000,,,,,,,,,,,,,,,,
1645711220.797329,1645711220.816894,174.000000,0.000000,4197.307617,4232.436035,4217.307617,4261.153809,4220.128418,4201.794922,4203.846191,4210.512695,4221.538574,4242.563965,4223.717773,4184.102539,4249.102539,4163.461426,2303.000000,4.000000,86.000000,,,,0.000000,4.000000,4.000000,4.000000,4.000000,4.000000,4.000000,4.000000,4.000000,4.000000,4.000000,4.000000,4.000000,4.000000,4.000000,100.000000,,,,,,,,,,,,,,,,
1645711220.801268,1645711220.820832,175.000000,0.000000,4200.897461,4229.230957,4218.461426,4251.794922,4215.769043,4201.025879,4202.179688,4208.846191,4218.589844,4241.153809,4223.077148,4184.358887,4249.487305,4164.230957,2683.000000,4.000000,86.000000,,,,0.000000,4.000000,4.000000,4.000000,4.000000,4.000000,4.000000,4.000000,4.000000,4.000000,4.000000,4.000000,4.000000,4.000000,4.000000,100.000000,,,,,,,,,,,,,,,,
1645711220.805206,1645711220.824670,176.000000,0.000000,4194.871582,4230.897461,4221.153809,4251.794922,4222.820313,4210.256348,4205.641113,4208.974121,4218.333496,4235.000000,4223.461426,4185.256348,4250.128418,4162.179688,3236.000000,4.000000,86.000000,,,,0.000000,4.000000,4.000000,4.000000,4.000000,4.000000,4.000000,4.000000,4.000000,4.000000,4.000000,4.000000,4.000000,4.000000,4.000000,100.000000,,,,,,,,,,,,,,,,
1645711220.809145,1645711220.828608,177.000000,0.000000,4187.307617,4235.000000,4223.461426,4257.563965,4235.769043,4220.897461,4211.153809,4211.410156,4221.410156,4229.615234,4225.256348,4186.538574,4251.538574,4158.461426,3334.000000,4.000000,86.000000,,,,0.000000,4.000000,4.000000,4.000000,4.000000,4.000000,4.000000,4.000000,4.000000,4.000000,4.000000,4.000000,4.000000,4.000000,4.000000,100.000000,,,,,,,,,,,,,,,,
1645711220.813084,1645711220.832547,178.000000,0.000000,4187.563965,4236.794922,4223.717773,4260.769043,4245.897461,4224.743652,4215.256348,4214.487305,4225.769043,4227.563965,4225.769043,4187.179688,4252.692383,4156.794922,2303.000000,4.000000,86.000000,,,,0.000000,4.000000,4.000000,4.000000,4.000000,4.000000,4.000000,4.000000,4.000000,4.000000,4.000000,4.000000,4.000000,4.000000,4.000000,100.000000,,,,,,,,,,,,,,,,
1645711220.817023,1645711220.836485,179.000000,0.000000,4194.871582,4235.256348,4222.051270,4257.948730,4248.717773,4220.641113,4217.051270,4216.282227,4229.102539,4229.615234,4223.846191,4186.666504,4252.948730,4159.615234,2683.000000,4.000000,86.000000,,,,0.000000,4.000000,4.000000,4.000000,4.000000,4.000000,4.000000,4.000000,4.000000,4.000000,4.000000,4.000000,4.000000,4.000000,4.000000,100.000000,,,,,,,,,,,,,,,,
1645711220.820962,1645711220.840423,180.000000,0.000000,4200.128418,4233.974121,4219.487305,4254.358887,4245.128418,4214.487305,4217.436035,4216.538574,4230.641113,4235.000000,4221.025879,4185.384766,4252.948730,4165.000000,3236.000000,4.000000,86.000000,,,,0.000000,4.000000,4.000000,4.000000,4.000000,4.000000,4.000000,4.000000,4.000000,4.000000,4.000000,4.000000,4.000000,4.000000,4.000000,100.000000,,,,,,,,,,,,,,,,
1645711220.824901,1645711220.844361,181.000000,0.000000,4198.077148,4234.871582,4216.025879,4254.615234,4235.769043,4209.871582,4216.153809,4215.128418,4230.000000,4240.000000,4217.820313,4183.589844,4252.307617,4167.563965,3334.000000,4.000000,86.000000,,,,0.000000,4.000000,4.000000,4.000000,4.000000,4.000000,4.000000,4.000000,4.000000,4.000000,4.000000,4.000000,4.000000,4.000000,4.000000,100.000000,,,,,,,,,,,,,,,,
1645711220.828840,1645711220.848299,182.000000,0.000000,4192.820313,4235.256348,4211.025879,4256.153809,4219.615234,4206.153809,4211.794922,4212.051270,4226.922852,4238.589844,4211.922852,4179.743652,4249.358887,4164.358887,2303.000000,4.000000,86.000000,,,,0.000000,4.000000,4.000000,4.000000,4.000000,4.000000,4.000000,4.000000,4.000000,4.000000,4.000000,4.000000,4.000000,4.000000,4.000000,100.000000,,,,,,,,,,,,,,,,
1645711220.832779,1645711220.852238,183.000000,0.000000,4191.025879,4231.410156,4205.512695,4252.692383,4199.487305,4202.307617,4205.128418,4207.307617,4221.922852,4229.102539,4202.436035,4173.589844,4243.461426,4157.820313,2683.000000,4.000000,86.000000,,,,0.000000,4.000000,4.000000,4.000000,4.000000,4.000000,4.000000,4.000000,4.000000,4.000000,4.000000,4.000000,4.000000,4.000000,4.000000,100.000000,,,,,,,,,,,,,,,,
1645711220.836717,1645711220.856176,184.000000,0.000000,4192.051270,4224.358887,4202.436035,4244.230957,4186.282227,4202.179688,4200.512695,4203.333496,4217.563965,4218.077148,4193.974121,4167.948730,4237.436035,4153.333496,3236.000000,4.000000,86.000000,,,,0.000000,4.000000,4.000000,4.000000,4.000000,4.000000,4.000000,4.000000,4.000000,4.000000,4.000000,4.000000,4.000000,4.000000,4.000000,100.000000,,,,,,,,,,,,,,,,
1645711220.840656,1645711220.860114,185.000000,0.000000,4189.871582,4220.897461,4204.743652,4238.589844,4191.794922,4210.641113,4202.563965,4203.333496,4217.051270,4215.769043,4194.230957,4167.307617,4236.282227,4154.230957,3334.000000,4.000000,86.000000,,,,0.000000,4.000000,4.000000,4.000000,4.000000,4.000000,4.000000,4.000000,4.000000,4.000000,4.000000,4.000000,4.000000,4.000000,4.000000,100.000000,,,,,,,,,,,,,,,,
1645711220.844595,1645711220.864052,186.000000,0.000000,4183.333496,4225.384766,4211.794922,4242.436035,4217.436035,4225.384766,4210.641113,4208.461426,4221.794922,4225.128418,4204.743652,4172.820313,4241.666504,4158.974121,2303.000000,4.000000,86.000000,,,,0.000000,4.000000,4.000000,4.000000,4.000000,4.000000,4.000000,4.000000,4.000000,4.000000,4.000000,4.000000,4.000000,4.000000,4.000000,100.000000,,,,,,,,,,,,,,,,
1645711220.848534,1645711220.867990,187.000000,0.000000,4180.769043,4235.128418,4219.615234,4253.205078,4248.846191,4236.282227,4219.487305,4215.641113,4228.461426,4237.436035,4218.333496,4181.153809,4249.487305,4164.487305,2683.000000,4.000000,86.000000,,,,0.000000,4.000000,4.000000,4.000000,4.000000,4.000000,4.000000,4.000000,4.000000,4.000000,4.000000,4.000000,4.000000,4.000000,4.000000,100.000000,,,,,,,,,,,,,,,,
1645711220.852473,1645711220.871929,188.000000,0.000000,4189.487305,4243.461426,4223.846191,4262.051270,4266.794922,4233.846191,4223.846191,4220.128418,4232.307617,4241.538574,4225.128418,4186.922852,4253.589844,4168.589844,3236.000000,4.000000,86.000000,,,,0.000000,4.000000,4.000000,4.000000,4.000000,4.000000,4.000000,4.000000,4.000000,4.000000,4.000000,4.000000,4.000000,4.000000,4.000000,100.000000,,,,,,,,,,,,,,,,
1645711220.856412,1645711220.875867,189.000000,0.000000,4204.743652,4246.410156,4224.487305,4263.333496,4262.692383,4219.743652,4223.077148,4220.384766,4231.538574,4235.641113,4223.333496,4188.077148,4252.563965,4171.666504,3334.000000,4.000000,86.000000,,,,0.000000,4.000000,4.000000,4.000000,4.000000,4.000000,4.000000,4.000000,4.000000,4.000000,4.000000,4.000000,4.000000,4.000000,4.000000,100.000000,,,,,,,,,,,,,,,,
1645711220.860351,1645711220.879805,190.000000,0.000000,4213.333496,4245.769043,4223.846191,4260.256348,4245.641113,4206.025879,4220.128418,4218.846191,4228.846191,4229.615234,4219.358887,4185.897461,4250.256348,4173.205078,2303.000000,4.000000,86.000000,,,,0.000000,4.000000,4.000000,4.000000,4.000000,4.000000,4.000000,4.000000,4.000000,4.000000,4.000000,4.000000,4.000000,4.000000,4.000000,100.000000,,,,,,,,,,,,,,,,
1645711220.864290,1645711220.883743,191.000000,0.000000,4208.077148,4244.615234,4223.589844,4258.846191,4232.563965,4202.948730,4217.179688,4218.205078,4227.563965,4231.666504,4219.871582,4183.205078,4250.256348,4172.051270,2683.000000,4.000000,86.000000,,,,0.000000,4.000000,4.000000,4.000000,4.000000,4.000000,4.000000,4.000000,4.000000,4.000000,4.000000,4.000000,4.000000,4.000000,4.000000,100.000000,,,,,,,,,,,,,,,,
1645711220.868229,1645711220.887681,192.000000,0.000000,4196.282227,4242.692383,4222.948730,4260.512695,4232.307617,4210.256348,4214.743652,4218.333496,4227.948730,4238.974121,4223.717773,4181.025879,4251.666504,4168.205078,3236.000000,4.000000,86.000000,,,,0.000000,4.000000,4.000000,4.000000,4.000000,4.000000,4.000000,4.000000,4.000000,4.000000,4.000000,4.000000,4.000000,4.000000,4.000000,100.000000,,,,,,,,,,,,,,,,
1645711220.872167,1645711220.891619,193.000000,0.000000,4190.897461,4238.077148,4220.512695,4261.794922,4239.102539,4219.615234,4212.436035,4216.922852,4227.436035,4241.538574,4224.487305,4179.871582,4251.282227,4163.974121,3334.000000,4.000000,86.000000,,,,0.000000,4.000000,4.000000,4.000000,4.000000,4.000000,4.000000,4.000000,4.000000,4.000000,4.000000,4.000000,4.000000,4.000000,4.000000,100.000000,,,,,,,,,,,,,,,,
1645711220.876106,1645711220.895558,194.000000,0.000000,4195.256348,4232.051270,4216.922852,4260.641113,4242.179688,4224.487305,4211.666504,4213.717773,4224.743652,4234.743652,4220.128418,4179.230957,4248.205078,4163.077148,2303.000000,4.000000,86.000000,,,,0.000000,4.000000,4.000000,4.000000,4.000000,4.000000,4.000000,4.000000,4.000000,4.000000,4.000000,4.000000,4.000000,4.000000,4.000000,100.000000,,,,,,,,,,,,,,,,
1645711220.880045,1645711220.899396,195.000000,0.000000,4200.769043,4229.230957,4214.102539,4259.743652,4236.666504,4225.000000,4213.077148,4211.410156,4221.666504,4225.512695,4215.641113,4179.871582,4246.153809,4165.641113,2683.000000,4.000000,86.000000,,,,0.000000,4.000000,4.000000,4.000000,4.000000,4.000000,4.000000,4.000000,4.000000,4.000000,4.000000,4.000000,4.000000,4.000000,4.000000,100.000000,,,,,,,,,,,,,,,,
1645711220.883984,1645711220.903334,196.000000,0.000000,4199.358887,4232.820313,4213.717773,4261.538574,4226.282227,4223.974121,4214.743652,4212.948730,4221.153809,4223.333496,4216.922852,4181.282227,4247.820313,4168.589844,3236.000000,4.000000,86.000000,,,,0.000000,4.000000,4.000000,4.000000,4.000000,4.000000,4.000000,4.000000,4.000000,4.000000,4.000000,4.000000,4.000000,4.000000,4.000000,100.000000,,,,,,,,,,,,,,,,
1645711220.887923,1645711220.907272,197.000000,0.000000,4194.102539,4239.487305,4214.871582,4264.487305,4216.922852,4221.794922,4213.589844,4217.820313,4223.333496,4229.102539,4222.563965,4182.307617,4251.666504,4168.717773,3334.000000,4.000000,86.000000,,,,0.000000,4.000000,4.000000,4.000000,4.000000,4.000000,4.000000,4.000000,4.000000,4.000000,4.000000,4.000000,4.000000,4.000000,4.000000,100.000000,,,,,,,,,,,,,,,,
1645711220.891862,1645711220.911210,198.000000,0.000000,4193.717773,4243.077148,4216.410156,4264.102539,4211.666504,4217.436035,4208.846191,4222.307617,4225.512695,4235.000000,4225.384766,4181.922852,4253.205078,4166.666504,2303.000000,4.000000,86.000000,,,,0.000000,4.000000,4.000000,4.000000,4.000000,4.000000,4.000000,4.000000,4.000000,4.000000,4.000000,4.000000,4.000000,4.000000,4.000000,100.000000,,,,,,,,,,,,,,,,
1645711220.895800,1645711220.915148,199.000000,0.000000,4200.384766,4240.897461,4218.077148,4259.743652,4211.794922,4212.179688,4204.358887,4223.717773,4225.641113,4234.871582,4222.051270,4181.153809,4250.769043,4166.282227,2683.000000,4.000000,86.000000,,,,0.000000,4.000000,4.000000,4.000000,4.000000,4.000000,4.000000,4.000000,4.000000,4.000000,4.000000,4.000000,4.000000,4.000000,4.000000,100.000000,,,,,,,,,,,,,,,,
1645711220.899739,1645711220.919086,200.000000,0.000000,4206.282227,4236.922852,4220.512695,4256.666504,4219.615234,4211.282227,4204.487305,4222.563965,4224.615234,4230.128418,4217.692383,4182.307617,4247.179688,4169.487305,3236.000000,4.000000,86.000000,,,,0.000000,4.000000,4.000000,4.000000,4.000000,4.000000,4.000000,4.000000,4.000000,4.000000,4.000000,4.000000,4.000000,4.000000,4.000000,100.000000,,,,,,,,,,,,,,,,
1645711220.903678,1645711220.923024,201.000000,0.000000,4204.358887,4235.256348,4223.205078,4258.974121,4233.974121,4217.307617,4209.230957,4220.897461,4224.871582,4226.410156,4218.205078,4185.769043,4246.153809,4173.333496,3334.000000,4.000000,86.000000,,,,0.000000,4.000000,4.000000,4.000000,4.000000,4.000000,4.000000,4.000000,4.000000,4.000000,4.000000,4.000000,4.000000,4.000000,4.000000,100.000000,,,,,,,,,,,,,,,,
1645711220.907617,1645711220.926961,202.000000,0.000000,4197.820313,4235.512695,4223.589844,4263.974121,4247.307617,4226.666504,4213.974121,4219.230957,4226.666504,4225.769043,4222.436035,4187.948730,4247.563965,4173.846191,2303.000000,4.000000,86.000000,,,,0.000000,4.000000,4.000000,4.000000,4.000000,4.000000,4.000000,4.000000,4.000000,4.000000,4.000000,4.000000,4.000000,4.000000,4.000000,100.000000,,,,,,,,,,,,,,,,
1645711220.911556,1645711220.930899,203.000000,0.000000,4195.769043,4233.846191,4220.000000,4265.512695,4249.615234,4231.282227,4214.487305,4217.436035,4228.077148,4226.538574,4223.461426,4186.153809,4248.461426,4170.512695,2683.000000,4.000000,86.000000,,,,0.000000,4.000000,4.000000,4.000000,4.000000,4.000000,4.000000,4.000000,4.000000,4.000000,4.000000,4.000000,4.000000,4.000000,4.000000,100.000000,,,,,,,,,,,,,,,,
1645711220.915495,1645711220.934837,204.000000,0.000000,4200.769043,4230.384766,4214.615234,4262.051270,4240.641113,4228.333496,4212.051270,4216.153809,4228.077148,4228.589844,4219.230957,4181.794922,4247.948730,4167.563965,3236.000000,4.000000,86.000000,,,,0.000000,4.000000,4.000000,4.000000,4.000000,4.000000,4.000000,4.000000,4.000000,4.000000,4.000000,4.000000,4.000000,4.000000,4.000000,100.000000,,,,,,,,,,,,,,,,
1645711220.919434,1645711220.938775,205.000000,0.000000,4206.153809,4230.512695,4212.436035,4258.333496,4231.025879,4223.077148,4211.794922,4217.948730,4228.846191,4235.000000,4216.282227,4180.000000,4249.102539,4169.358887,3334.000000,4.000000,86.000000,,,,0.000000,4.000000,4.000000,4.000000,4.000000,4.000000,4.000000,4.000000,4.000000,4.000000,4.000000,4.000000,4.000000,4.000000,4.000000,100.000000,,,,,,,,,,,,,,,,
1645711220.923373,1645711220.942713,206.000000,0.000000,4205.384766,4237.436035,4215.512695,4258.846191,4231.410156,4222.051270,4215.897461,4223.205078,4232.563965,4245.897461,4220.769043,4183.846191,4254.230957,4175.256348,2303.000000,4.000000,86.000000,,,,0.000000,4.000000,4.000000,4.000000,4.000000,4.000000,4.000000,4.000000,4.000000,4.000000,4.000000,4.000000,4.000000,4.000000,4.000000,100.000000,,,,,,,,,,,,,,,,
1645711220.927312,1645711220.946651,207.000000,0.000000,4200.256348,4245.897461,4219.615234,4261.538574,4238.846191,4225.000000,4221.410156,4228.974121,4237.179688,4253.846191,4229.871582,4189.487305,4260.769043,4180.512695,2683.000000,4.000000,86.000000,,,,0.000000,4.000000,4.000000,4.000000,4.000000,4.000000,4.000000,4.000000,4.000000,4.000000,4.000000,4.000000,4.000000,4.000000,4.000000,100.000000,,,,,,,,,,,,,,,,
1645711220.931250,1645711220.950589,208.000000,0.000000,4197.692383,4246.666504,4218.589844,4260.769043,4241.282227,4225.641113,4222.948730,4230.256348,4238.077148,4249.358887,4233.846191,4190.897461,4263.077148,4181.666504,3236.000000,4.000000,86.000000,,,,0.000000,4.000000,4.000000,4.000000,4.000000,4.000000,4.000000,4.000000,4.000000,4.000000,4.000000,4.000000,4.000000,4.000000,4.000000,100.000000,,,,,,,,,,,,,,,,
1645711220.935189,1645711220.954527,209.000000,0.000000,4199.743652,4236.922852,4211.153809,4255.256348,4232.179688,4221.794922,4219.871582,4225.769043,4233.461426,4232.563965,4228.205078,4185.897461,4258.974121,4179.358887,3334.000000,4.000000,86.000000,,,,0.000000,4.000000,4.000000,4.000000,4.000000,4.000000,4.000000,4.000000,4.000000,4.000000,4.000000,4.000000,4.000000,4.000000,4.000000,100.000000,,,,,,,,,,,,,,,,
1645711220.939128,1645711220.958465,210.000000,0.000000,4200.512695,4224.743652,4202.563965,4250.897461,4220.384766,4218.333496,4216.538574,4219.230957,4226.666504,4215.769043,4218.974121,4178.205078,4252.948730,4176.922852,2303.000000,4.000000,86.000000,,,,0.000000,4.000000,4.000000,4.000000,4.000000,4.000000,4.000000,4.000000,4.000000,4.000000,4.000000,4.000000,4.000000,4.000000,4.000000,100.000000,,,,,,,,,,,,,,,,
1645711220.943067,1645711220.962403,211.000000,0.000000,4195.512695,4220.384766,4199.358887,4253.333496,4218.461426,4221.410156,4217.179688,4215.897461,4222.948730,4212.820313,4214.871582,4173.333496,4250.897461,4175.641113,2683.000000,4.000000,86.000000,,,,0.000000,4.000000,4.000000,4.000000,4.000000,4.000000,4.000000,4.000000,4.000000,4.000000,4.000000,4.000000,4.000000,4.000000,4.000000,100.000000,,,,,,,,,,,,,,,,
1645711220.947006,1645711220.966341,212.000000,0.000000,4188.846191,4226.410156,4202.051270,4260.641113,4227.307617,4228.974121,4220.897461,4216.922852,4223.333496,4224.102539,4217.179688,4172.692383,4253.717773,4174.358887,3236.000000,4.000000,86.000000,,,,0.000000,4.000000,4.000000,4.000000,4.000000,4.000000,4.000000,4.000000,4.000000,4.000000,4.000000,4.000000,4.000000,4.000000,4.000000,100.000000,,,,,,,,,,,,,,,,
1645711220.950945,1645711220.970279,213.000000,0.000000,4188.717773,4235.512695,4205.769043,4265.000000,4235.512695,4233.205078,4223.205078,4218.717773,4224.487305,4236.410156,4219.230957,4173.333496,4256.922852,4172.051270,3334.000000,4.000000,86.000000,,,,0.000000,4.000000,4.000000,4.000000,4.000000,4.000000,4.000000,4.000000,4.000000,4.000000,4.000000,4.000000,4.000000,4.000000,4.000000,100.000000,,,,,,,,,,,,,,,,
1645711220.954884,1645711220.974117,214.000000,0.000000,4196.282227,4239.487305,4206.153809,4262.563965,4233.717773,4229.871582,4221.153809,4217.948730,4223.461426,4237.179688,4216.282227,4172.436035,4255.769043,4170.384766,2303.000000,4.000000,86.000000,,,,0.000000,4.000000,4.000000,4.000000,4.000000,4.000000,4.000000,4.000000,4.000000,4.000000,4.000000,4.000000,4.000000,4.000000,4.000000,100.000000,,,,,,,,,,,,,,,,
1645711220.958823,1645711220.978055,215.000000,0.000000,4202.948730,4237.692383,4203.461426,4257.436035,4226.410156,4223.333496,4216.666504,4215.384766,4221.153809,4226.922852,4212.051270,4171.153809,4252.051270,4171.153809,2683.000000,4.000000,86.000000,,,,0.000000,4.000000,4.000000,4.000000,4.000000,4.000000,4.000000,4.000000,4.000000,4.000000,4.000000,4.000000,4.000000,4.000000,4.000000,100.000000,,,,,,,,,,,,,,,,
1645711220.962762,1645711220.981993,216.000000,0.000000,4200.769043,4235.256348,4201.153809,4255.897461,4225.000000,4220.769043,4213.589844,4214.871582,4221.025879,4217.307617,4212.948730,4172.692383,4250.769043,4174.230957,3236.000000,4.000000,86.000000,,,,0.000000,4.000000,4.000000,4.000000,4.000000,4.000000,4.000000,4.000000,4.000000,4.000000,4.000000,4.000000,4.000000,4.000000,4.000000,100.000000,,,,,,,,,,,,,,,,
1645711220.966700,1645711220.985931,217.000000,0.000000,4193.077148,4235.641113,4201.410156,4258.333496,4233.333496,4223.205078,4213.461426,4218.333496,4224.358887,4217.692383,4218.717773,4177.179688,4253.589844,4176.794922,3334.000000,4.000000,86.000000,,,,0.000000,4.000000,4.000000,4.000000,4.000000,4.000000,4.000000,4.000000,4.000000,4.000000,4.000000,4.000000,4.000000,4.000000,4.000000,100.000000,,,,,,,,,,,,,,,,
1645711220.970639,1645711220.989869,218.000000,0.000000,4189.615234,4237.179688,4203.205078,4259.230957,4243.461426,4225.897461,4215.128418,4222.820313,4228.461426,4226.025879,4221.922852,4180.769043,4257.051270,4176.538574,2303.000000,4.000000,86.000000,,,,0.000000,4.000000,4.000000,4.000000,4.000000,4.000000,4.000000,4.000000,4.000000,4.000000,4.000000,4.000000,4.000000,4.000000,4.000000,100.000000,,,,,,,,,,,,,,,,
1645711220.974578,1645711220.993807,219.000000,0.000000,4195.512695,4237.307617,4204.487305,4255.769043,4245.384766,4225.128418,4217.051270,4224.487305,4229.743652,4233.461426,4217.307617,4179.743652,4256.922852,4174.102539,2683.000000,4.000000,86.000000,,,,0.000000,4.000000,4.000000,4.000000,4.000000,4.000000,4.000000,4.000000,4.000000,4.000000,4.000000,4.000000,4.000000,4.000000,4.000000,100.000000,,,,,,,,,,,,,,,,
1645711220.978517,1645711220.997745,220.000000,0.000000,4204.358887,4237.179688,4205.512695,4252.692383,4238.846191,4223.333496,4218.846191,4222.563965,4227.563965,4235.128418,4208.974121,4175.512695,4253.205078,4171.666504,3236.000000,4.000000,86.000000,,,,0.000000,4.000000,4.000000,4.000000,4.000000,4.000000,4.000000,4.000000,4.000000,4.000000,4.000000,4.000000,4.000000,4.000000,4.000000,100.000000,,,,,,,,,,,,,,,,
1645711220.982456,1645711221.001683,221.000000,0.000000,4206.922852,4239.615234,4206.922852,4255.897461,4231.666504,4225.000000,4220.897461,4219.487305,4224.230957,4232.820313,4205.000000,4171.538574,4250.000000,4170.256348,3334.000000,4.000000,86.000000,,,,0.000000,4.000000,4.000000,4.000000,4.000000,4.000000,4.000000,4.000000,4.000000,4.000000,4.000000,4.000000,4.000000,4.000000,4.000000,100.000000,,,,,,,,,,,,,,,,
1645711220.986395,1645711221.005621,222.000000,0.000000,4202.307617,4243.589844,4208.077148,4263.589844,4230.256348,4229.743652,4222.179688,4217.179688,4221.922852,4229.743652,4207.563965,4169.743652,4249.230957,4168.974121,2303.000000,4.000000,86.000000,,,,0.000000,4.000000,4.000000,4.000000,4.000000,4.000000,4.000000,4.000000,4.000000,4.000000,4.000000,4.000000,4.000000,4.000000,4.000000,100.000000,,,,,,,,,,,,,,,,
1645711220.990334,1645711221.009559,223.000000,0.000000,4197.563965,4243.717773,4206.538574,4267.563965,4233.077148,4231.794922,4221.666504,4215.384766,4220.384766,4225.512695,4210.000000,4168.589844,4248.717773,4167.051270,2683.000000,4.000000,86.000000,,,,0.000000,4.000000,4.000000,4.000000,4.000000,4.000000,4.000000,4.000000,4.000000,4.000000,4.000000,4.000000,4.000000,4.000000,4.000000,100.000000,,,,,,,,,,,,,,,,
1645711220.994273,1645711221.013497,224.000000,0.000000,4197.563965,4236.794922,4201.794922,4261.794922,4234.487305,4228.333496,4219.487305,4213.077148,4218.333496,4218.846191,4206.153809,4165.897461,4245.512695,4165.256348,3236.000000,4.000000,86.000000,,,,0.000000,4.000000,4.000000,4.000000,4.000000,4.000000,4.000000,4.000000,4.000000,4.000000,4.000000,4.000000,4.000000,4.000000,4.000000,100.000000,,,,,,,,,,,,,,,,
1645711220.998212,1645711221.017435,225.000000,0.000000,4198.589844,4226.538574,4196.538574,4250.512695,4232.436035,4223.205078,4218.205078,4211.153809,4216.666504,4211.794922,4197.820313,4162.563965,4240.256348,4165.000000,3334.000000,4.000000,86.000000,,,,0.000000,4.000000,4.000000,4.000000,4.000000,4.000000,4.000000,4.000000,4.000000,4.000000,4.000000,4.000000,4.000000,4.000000,4.000000,100.000000,,,,,,,,,,,,,,,,
1645711221.002150,1645711221.021373,226.000000,0.000000,4195.256348,4220.384766,4194.615234,4242.820313,4229.102539,4222.948730,4218.846191,4211.794922,4217.051270,4208.461426,4192.820313,4161.538574,4236.794922,4166.025879,2303.000000,4.000000,86.000000,,,,0.000000,4.000000,4.000000,4.000000,4.000000,4.000000,4.000000,4.000000,4.000000,4.000000,4.000000,4.000000,4.000000,4.000000,4.000000,100.000000,,,,,,,,,,,,,,,,
1645711221.006089,1645711221.025311,227.000000,0.000000,4189.487305,4221.666504,4197.307617,4243.205078,4225.769043,4227.563965,4220.384766,4215.641113,4219.358887,4210.128418,4195.256348,4163.974121,4237.563965,4166.538574,2683.000000,4.000000,86.000000,,,,0.000000,4.000000,4.000000,4.000000,4.000000,4.000000,4.000000,4.000000,4.000000,4.000000,4.000000,4.000000,4.000000,4.000000,4.000000,100.000000,,,,,,,,,,,,,,,,
1645711221.010028,1645711221.029249,228.000000,0.000000,4189.615234,4226.666504,4202.436035,4247.820313,4221.153809,4230.384766,4220.128418,4220.128418,4221.410156,4213.205078,4202.051270,4167.948730,4241.025879,4166.410156,3236.000000,4.000000,86.000000,,,,0.000000,4.000000,4.000000,4.000000,4.000000,4.000000,4.000000,4.000000,4.000000,4.000000,4.000000,4.000000,4.000000,4.000000,4.000000,100.000000,,,,,,,,,,,,,,,,
1645711221.013967,1645711221.033186,229.000000,0.000000,4198.974121,4230.000000,4206.922852,4250.641113,4215.128418,4226.666504,4217.948730,4222.820313,4221.282227,4214.615234,4207.436035,4171.282227,4244.615234,4167.948730,3334.000000,4.000000,86.000000,,,,0.000000,4.000000,4.000000,4.000000,4.000000,4.000000,4.000000,4.000000,4.000000,4.000000,4.000000,4.000000,4.000000,4.000000,4.000000,100.000000,,,,,,,,,,,,,,,,
1645711221.017906,1645711221.037124,230.000000,0.000000,4210.512695,4231.666504,4209.743652,4251.410156,4212.051270,4219.615234,4216.794922,4224.102539,4220.641113,4217.307617,4210.000000,4173.333496,4247.820313,4173.077148,2303.000000,4.000000,86.000000,,,,0.000000,4.000000,4.000000,4.000000,4.000000,4.000000,4.000000,4.000000,4.000000,4.000000,4.000000,4.000000,4.000000,4.000000,4.000000,100.000000,,,,,,,,,,,,,,,,
1645711221.021845,1645711221.041062,231.000000,0.000000,4214.102539,4235.256348,4211.666504,4253.846191,4217.692383,4216.282227,4218.333496,4225.641113,4222.820313,4225.769043,4213.333496,4175.384766,4252.179688,4179.871582,2683.000000,4.000000,86.000000,,,,0.000000,4.000000,4.000000,4.000000,4.000000,4.000000,4.000000,4.000000,4.000000,4.000000,4.000000,4.000000,4.000000,4.000000,4.000000,100.000000,,,,,,,,,,,,,,,,
1645711221.025784,1645711221.044901,232.000000,0.000000,4208.846191,4241.410156,4212.820313,4259.487305,4230.128418,4218.846191,4220.897461,4227.692383,4228.077148,4238.461426,4218.717773,4177.179688,4257.563965,4184.615234,3236.000000,4.000000,86.000000,,,,0.000000,4.000000,4.000000,4.000000,4.000000,4.000000,4.000000,4.000000,4.000000,4.000000,4.000000,4.000000,4.000000,4.000000,4.000000,100.000000,,,,,,,,,,,,,,,,
1645711221.029722,1645711221.048839,233.000000,0.000000,4203.461426,4245.512695,4212.179688,4264.230957,4240.000000,4223.205078,4220.512695,4228.205078,4232.692383,4246.794922,4222.436035,4177.563965,4260.897461,4185.256348,3334.000000,4.000000,86.000000,,,,0.000000,4.000000,4.000000,4.000000,4.000000,4.000000,4.000000,4.000000,4.000000,4.000000,4.000000,4.000000,4.000000,4.000000,4.000000,100.000000,,,,,,,,,,,,,,,,
1645711221.033661,1645711221.052778,234.000000,0.000000,4205.384766,4243.461426,4209.487305,4263.717773,4240.384766,4224.230957,4216.538574,4225.641113,4233.077148,4245.000000,4220.769043,4175.769043,4259.743652,4183.589844,2303.000000,4.000000,86.000000,,,,0.000000,4.000000,4.000000,4.000000,4.000000,4.000000,4.000000,4.000000,4.000000,4.000000,4.000000,4.000000,4.000000,4.000000,4.000000,100.000000,,,,,,,,,,,,,,,,
1645711221.037600,1645711221.056716,235.000000,0.000000,4211.666504,4237.692383,4206.922852,4258.974121,4235.000000,4222.820313,4212.563965,4222.307617,4230.000000,4236.794922,4216.025879,4173.974121,4255.641113,4182.948730,2683.000000,4.000000,86.000000,,,,0.000000,4.000000,4.000000,4.000000,4.000000,4.000000,4.000000,4.000000,4.000000,4.000000,4.000000,4.000000,4.000000,4.000000,4.000000,100.000000,,,,,,,,,,,,,,,,
1645711221.041539,1645711221.060555,236.000000,0.000000,4213.717773,4235.128418,4207.563965,4254.743652,4234.102539,4223.589844,4212.179688,4222.051270,4227.820313,4232.563965,4214.230957,4175.000000,4253.205078,4184.102539,3236.000000,4.000000,86.000000,,,,0.000000,4.000000,4.000000,4.000000,4.000000,4.000000,4.000000,4.000000,4.000000,4.000000,4.000000,4.000000,4.000000,4.000000,4.000000,100.000000,,,,,,,,,,,,,,,,
1645711221.045478,1645711221.064493,237.000000,0.000000,4209.358887,4238.461426,4210.897461,4253.717773,4241.794922,4227.436035,4215.128418,4226.410156,4228.974121,4236.794922,4217.820313,4178.846191,4255.000000,4185.256348,3334.000000,4.000000,86.000000,,,,0.000000,4.000000,4.000000,4.000000,4.000000,4.000000,4.000000,4.000000,4.000000,4.000000,4.000000,4.000000,4.000000,4.000000,4.000000,100.000000,,,,,,,,,,,,,,,,
1645711221.049417,1645711221.068432,238.000000,0.000000,4205.000000,4243.077148,4213.205078,4254.102539,4249.358887,4229.487305,4217.307617,4232.948730,4232.179688,4243.589844,4222.436035,4181.922852,4258.974121,4185.384766,2303.000000,4.000000,86.000000,,,,0.000000,4.000000,4.000000,4.000000,4.000000,4.000000,4.000000,4.000000,4.000000,4.000000,4.000000,4.000000,4.000000,4.000000,4.000000,100.000000,,,,,,,,,,,,,,,,
1645711221.053356,1645711221.072370,239.000000,0.000000,4207.051270,4242.948730,4211.410156,4252.820313,4245.641113,4225.256348,4216.538574,4237.820313,4234.102539,4244.871582,4223.717773,4182.179688,4261.538574,4186.025879,2683.000000,4.000000,86.000000,,,,0.000000,4.000000,4.000000,4.000000,4.000000,4.000000,4.000000,4.000000,4.000000,4.000000,4.000000,4.000000,4.000000,4.000000,4.000000,100.000000,,,,,,,,,,,,,,,,
1645711221.057294,1645711221.076309,240.000000,0.000000,4212.820313,4237.948730,4207.307617,4251.025879,4229.743652,4217.307617,4214.102539,4239.743652,4233.846191,4240.256348,4222.692383,4181.025879,4262.563965,4188.974121,3236.000000,4.000000,86.000000,,,,0.000000,4.000000,4.000000,4.000000,4.000000,4.000000,4.000000,4.000000,4.000000,4.000000,4.000000,4.000000,4.000000,4.000000,4.000000,100.000000,,,,,,,,,,,,,,,,
1645711221.061233,1645711221.080247,241.000000,0.000000,4214.487305,4233.717773,4204.871582,4252.051270,4212.436035,4212.692383,4212.563965,4239.230957,4233.205078,4237.179688,4223.717773,4181.410156,4264.230957,4192.692383,3334.000000,4.000000,86.000000,,,,0.000000,4.000000,4.000000,4.000000,4.000000,4.000000,4.000000,4.000000,4.000000,4.000000,4.000000,4.000000,4.000000,4.000000,4.000000,100.000000,,,,,,,,,,,,,,,,
1645711221.065172,1645711221.084185,242.000000,0.000000,4209.615234,4233.077148,4205.256348,4255.641113,4204.230957,4215.000000,4212.051270,4237.692383,4233.589844,4239.615234,4226.794922,4182.563965,4267.051270,4193.205078,2303.000000,4.000000,86.000000,,,,0.000000,4.000000,4.000000,4.000000,4.000000,4.000000,4.000000,4.000000,4.000000,4.000000,4.000000,4.000000,4.000000,4.000000,4.000000,100.000000,,,,,,,,,,,,,,,,
1645711221.069111,1645711221.088124,243.000000,0.000000,4204.615234,4233.461426,4205.512695,4256.794922,4205.641113,4220.512695,4210.384766,4234.487305,4233.589844,4241.922852,4226.025879,4181.153809,4267.692383,4187.820313,2683.000000,4.000000,86.000000,,,,0.000000,4.000000,4.000000,4.000000,4.000000,4.000000,4.000000,4.000000,4.000000,4.000000,4.000000,4.000000,4.000000,4.000000,4.000000,100.000000,,,,,,,,,,,,,,,,
1645711221.073050,1645711221.092062,244.000000,0.000000,4205.384766,4231.153809,4202.051270,4252.692383,4211.410156,4223.717773,4207.820313,4230.256348,4231.794922,4236.666504,4216.922852,4175.256348,4263.205078,4179.358887,3236.000000,4.000000,86.000000,,,,0.000000,4.000000,4.000000,4.000000,4.000000,4.000000,4.000000,4.000000,4.000000,4.000000,4.000000,4.000000,4.000000,4.000000,4.000000,100.000000,,,,,,,,,,,,,,,,
1645711221.076989,1645711221.096001,245.000000,0.000000,4209.615234,4227.948730,4196.538574,4247.051270,4220.128418,4224.230957,4207.563965,4227.948730,4229.102539,4225.769043,4205.512695,4169.102539,4256.282227,4174.102539,3334.000000,4.000000,86.000000,,,,0.000000,4.000000,4.000000,4.000000,4.000000,4.000000,4.000000,4.000000,4.000000,4.000000,4.000000,4.000000,4.000000,4.000000,4.000000,100.000000,,,,,,,,,,,,,,,,
1645711221.080928,1645711221.099939,246.000000,0.000000,4210.128418,4229.615234,4194.743652,4247.051270,4234.102539,4226.666504,4212.820313,4230.897461,4228.846191,4221.410156,4203.589844,4169.102539,4253.717773,4176.025879,2303.000000,4.000000,86.000000,,,,0.000000,4.000000,4.000000,4.000000,4.000000,4.000000,4.000000,4.000000,4.000000,4.000000,4.000000,4.000000,4.000000,4.000000,4.000000,100.000000,,,,,,,,,,,,,,,,
1645711221.084867,1645711221.103878,247.000000,0.000000,4205.384766,4237.948730,4199.871582,4253.846191,4251.153809,4232.307617,4221.282227,4238.974121,4231.922852,4231.153809,4215.897461,4177.307617,4259.230957,4183.333496,2683.000000,4.000000,86.000000,,,,0.000000,4.000000,4.000000,4.000000,4.000000,4.000000,4.000000,4.000000,4.000000,4.000000,4.000000,4.000000,4.000000,4.000000,4.000000,100.000000,,,,,,,,,,,,,,,,
1645711221.088806,1645711221.107816,248.000000,0.000000,4202.820313,4246.410156,4208.589844,4260.384766,4260.384766,4236.666504,4226.410156,4246.794922,4235.641113,4248.846191,4233.333496,4188.077148,4268.846191,4191.153809,3236.000000,4.000000,86.000000,,,,0.000000,4.000000,4.000000,4.000000,4.000000,4.000000,4.000000,4.000000,4.000000,4.000000,4.000000,4.000000,4.000000,4.000000,4.000000,100.000000,,,,,,,,,,,,,,,,
1645711221.092744,1645711221.111754,249.000000,0.000000,4208.205078,4247.692383,4214.230957,4259.102539,4252.179688,4234.358887,4224.102539,4248.333496,4236.794922,4260.000000,4241.666504,4193.461426,4275.128418,4195.256348,3334.000000,4.000000,86.000000,,,,0.000000,4.000000,4.000000,4.000000,4.000000,4.000000,4.000000,4.000000,4.000000,4.000000,4.000000,4.000000,4.000000,4.000000,4.000000,100.000000,,,,,,,,,,,,,,,,
1645711221.096683,1645711221.115693,250.000000,0.000000,4217.436035,4241.025879,4213.974121,4250.641113,4230.512695,4226.410156,4217.307617,4242.820313,4235.512695,4257.436035,4236.153809,4191.153809,4274.358887,4195.256348,2303.000000,4.000000,86.000000,,,,0.000000,4.000000,4.000000,4.000000,4.000000,4.000000,4.000000,4.000000,4.000000,4.000000,4.000000,4.000000,4.000000,4.000000,4.000000,100.000000,,,,,,,,,,,,,,,,
1645711221.100622,1645711221.119532,251.000000,0.000000,4219.871582,4233.589844,4210.384766,4243.205078,4211.282227,4219.871582,4212.820313,4235.384766,4234.358887,4247.307617,4224.615234,4185.128418,4269.358887,4192.436035,2683.000000,4.000000,86.000000,,,,0.000000,4.000000,4.000000,4.000000,4.000000,4.000000,4.000000,4.000000,4.000000,4.000000,4.000000,4.000000,4.000000,4.000000,4.000000,100.000000,,,,,,,,,,,,,,,,
1645711221.104561,1645711221.123470,252.000000,0.000000,4211.666504,4231.282227,4207.051270,4242.563965,4207.051270,4219.743652,4213.974121,4231.538574,4234.615234,4238.717773,4217.051270,4180.641113,4264.487305,4188.077148,3236.000000,4.000000,86.000000,,,,0.000000,4.000000,4.000000,4.000000,4.000000,4.000000,4.000000,4.000000,4.000000,4.000000,4.000000,4.000000,4.000000,4.000000,4.000000,100.000000,,,,,,,,,,,,,,,,
1645711221.108500,1645711221.127409,253.000000,0.000000,4201.025879,4232.692383,4204.743652,4245.512695,4215.128418,4223.846191,4218.077148,4232.051270,4234.743652,4233.589844,4215.256348,4178.846191,4260.897461,4183.974121,3334.000000,4.000000,86.000000,,,,0.000000,4.000000,4.000000,4.000000,4.000000,4.000000,4.000000,4.000000,4.000000,4.000000,4.000000,4.000000,4.000000,4.000000,4.000000,100.000000,,,,,,,,,,,,,,,,
1645711221.112439,1645711221.131348,254.000000,0.000000,4198.846191,4232.948730,4203.205078,4245.384766,4223.846191,4226.410156,4221.025879,4234.102539,4232.436035,4228.205078,4214.615234,4178.589844,4258.205078,4182.436035,2303.000000,4.000000,86.000000,,,,0.000000,4.000000,4.000000,4.000000,4.000000,4.000000,4.000000,4.000000,4.000000,4.000000,4.000000,4.000000,4.000000,4.000000,4.000000,100.000000,,,,,,,,,,,,,,,,
1645711221.116378,1645711221.135286,255.000000,0.000000,4205.512695,4231.410156,4202.692383,4241.025879,4226.282227,4225.384766,4222.179688,4235.384766,4228.717773,4222.948730,4212.563965,4179.102539,4256.922852,4185.512695,113.000000,4.000000,86.000000,,,,0.000000,4.000000,4.000000,4.000000,4.000000,4.000000,4.000000,4.000000,4.000000,4.000000,4.000000,4.000000,4.000000,4.000000,4.000000,100.000000,,,,,,,,,,,,,,,,
1645711221.120317,1645711221.139225,0.000000,0.000000,4212.179688,4231.922852,4204.743652,4238.205078,4225.256348,4224.358887,4223.333496,4236.922852,4227.436035,4224.102539,4211.922852,4180.256348,4258.974121,4191.410156,3320.000000,4.000000,86.000000,,,,0.000000,4.000000,4.000000,4.000000,4.000000,4.000000,4.000000,4.000000,4.000000,4.000000,4.000000,4.000000,4.000000,4.000000,4.000000,100.000000,,,,,,,,,,,,,,,,
1645711221.124256,1645711221.143164,1.000000,0.000000,4211.282227,4236.282227,4208.205078,4241.025879,4226.025879,4226.282227,4225.641113,4239.487305,4230.384766,4233.974121,4214.871582,4181.025879,4263.717773,4195.641113,3428.000000,4.000000,86.000000,,,,0.000000,4.000000,4.000000,4.000000,4.000000,4.000000,4.000000,4.000000,4.000000,4.000000,4.000000,4.000000,4.000000,4.000000,4.000000,100.000000,,,,,,,,,,,,,,,,
1645711221.128194,1645711221.147102,2.000000,0.000000,4206.410156,4240.512695,4209.743652,4246.410156,4227.820313,4230.128418,4227.051270,4241.794922,4235.128418,4244.102539,4218.333496,4179.358887,4267.179688,4194.230957,2034.000000,4.000000,86.000000,,,,0.000000,4.000000,4.000000,4.000000,4.000000,4.000000,4.000000,4.000000,4.000000,4.000000,4.000000,4.000000,4.000000,4.000000,4.000000,100.000000,,,,,,,,,,,,,,,,
1645711221.132133,1645711221.151041,3.000000,0.000000,4205.641113,4238.846191,4207.563965,4247.563965,4227.563965,4232.051270,4225.769043,4241.282227,4236.922852,4242.563965,4218.077148,4174.487305,4265.897461,4188.717773,3308.000000,4.000000,86.000000,,,,0.000000,4.000000,4.000000,4.000000,4.000000,4.000000,4.000000,4.000000,4.000000,4.000000,4.000000,4.000000,4.000000,4.000000,4.000000,100.000000,,,,,,,,,,,,,,,,
1645711221.136072,1645711221.154980,4.000000,0.000000,4210.897461,4231.922852,4204.230957,4243.589844,4226.025879,4231.410156,4222.692383,4238.589844,4234.487305,4228.461426,4215.128418,4170.000000,4262.051270,4185.000000,3229.000000,4.000000,86.000000,,,,0.000000,4.000000,4.000000,4.000000,4.000000,4.000000,4.000000,4.000000,4.000000,4.000000,4.000000,4.000000,4.000000,4.000000,4.000000,100.000000,,,,,,,,,,,,,,,,
1645711221.140011,1645711221.158918,5.000000,0.000000,4215.256348,4226.538574,4204.487305,4241.025879,4227.436035,4230.384766,4220.641113,4237.179688,4231.282227,4215.128418,4215.769043,4170.512695,4261.538574,4187.563965,3322.000000,4.000000,86.000000,,,,0.000000,4.000000,4.000000,4.000000,4.000000,4.000000,4.000000,4.000000,4.000000,4.000000,4.000000,4.000000,4.000000,4.000000,4.000000,100.000000,,,,,,,,,,,,,,,,
1645711221.143950,1645711221.162857,6.000000,0.000000,4213.461426,4227.307617,4209.743652,4245.384766,4232.436035,4229.615234,4220.384766,4240.000000,4231.282227,4216.410156,4223.205078,4176.922852,4267.307617,4194.743652,2961.000000,4.000000,86.000000,,,,0.000000,4.000000,4.000000,4.000000,4.000000,4.000000,4.000000,4.000000,4.000000,4.000000,4.000000,4.000000,4.000000,4.000000,4.000000,100.000000,,,,,,,,,,,,,,,,
1645711221.147889,1645711221.166796,7.000000,0.000000,4208.077148,4231.794922,4215.769043,4253.333496,4235.512695,4226.410156,4220.000000,4245.384766,4234.230957,4232.692383,4231.922852,4183.974121,4275.256348,4201.153809,2429.000000,4.000000,86.000000,,,,0.000000,4.000000,4.000000,4.000000,4.000000,4.000000,4.000000,4.000000,4.000000,4.000000,4.000000,4.000000,4.000000,4.000000,4.000000,100.000000,,,,,,,,,,,,,,,,
1645711221.151828,1645711221.170734,8.000000,0.000000,4206.410156,4234.230957,4217.692383,4256.538574,4230.384766,4218.974121,4218.077148,4248.846191,4236.538574,4251.025879,4233.205078,4186.153809,4278.589844,4203.077148,1594.000000,4.000000,86.000000,,,,0.000000,4.000000,4.000000,4.000000,4.000000,4.000000,4.000000,4.000000,4.000000,4.000000,4.000000,4.000000,4.000000,4.000000,4.000000,100.000000,,,,,,,,,,,,,,,,
1645711221.155767,1645711221.174673,9.000000,0.000000,4209.871582,4232.948730,4214.743652,4251.666504,4219.487305,4211.410156,4216.025879,4247.948730,4235.769043,4259.615234,4225.512695,4182.692383,4274.615234,4201.794922,3209.000000,4.000000,86.000000,,,,0.000000,4.000000,4.000000,4.000000,4.000000,4.000000,4.000000,4.000000,4.000000,4.000000,4.000000,4.000000,4.000000,4.000000,4.000000,100.000000,,,,,,,,,,,,,,,,
1645711221.159705,1645711221.178612,10.000000,0.000000,4212.948730,4232.179688,4210.641113,4244.358887,4213.205078,4211.025879,4216.410156,4244.871582,4233.589844,4257.179688,4217.820313,4177.820313,4268.077148,4200.512695,2301.000000,4.000000,86.000000,,,,0.000000,4.000000,4.000000,4.000000,4.000000,4.000000,4.000000,4.000000,4.000000,4.000000,4.000000,4.000000,4.000000,4.000000,4.000000,100.000000,,,,,,,,,,,,,,,,
1645711221.163644,1645711221.182550,11.000000,0.000000,4210.897461,4235.897461,4208.846191,4242.307617,4219.102539,4219.743652,4219.358887,4242.820313,4232.692383,4249.230957,4217.948730,4175.897461,4264.743652,4199.871582,2691.000000,4.000000,86.000000,,,,0.000000,4.000000,4.000000,4.000000,4.000000,4.000000,4.000000,4.000000,4.000000,4.000000,4.000000,4.000000,4.000000,4.000000,4.000000,100.000000,,,,,,,,,,,,,,,,
1645711221.167583,1645711221.186489,12.000000,0.000000,4207.179688,4241.538574,4209.743652,4245.512695,4231.922852,4230.256348,4221.153809,4242.179688,4233.077148,4239.230957,4224.358887,4176.666504,4265.384766,4198.717773,2975.000000,4.000000,86.000000,,,,0.000000,4.000000,4.000000,4.000000,4.000000,4.000000,4.000000,4.000000,4.000000,4.000000,4.000000,4.000000,4.000000,4.000000,4.000000,100.000000,,,,,,,,,,,,,,,,
1645711221.171522,1645711221.190428,13.000000,0.000000,4208.205078,4242.563965,4210.769043,4247.820313,4238.846191,4232.948730,4218.846191,4239.743652,4231.922852,4227.563965,4227.692383,4176.538574,4265.769043,4195.769043,3241.000000,4.000000,86.000000,,,,0.000000,4.000000,4.000000,4.000000,4.000000,4.000000,4.000000,4.000000,4.000000,4.000000,4.000000,4.000000,4.000000,4.000000,4.000000,100.000000,,,,,,,,,,,,,,,,
1645711221.175461,1645711221.194267,14.000000,0.000000,4213.461426,4236.794922,4210.897461,4245.256348,4233.461426,4225.897461,4213.461426,4233.205078,4227.051270,4216.153809,4222.692383,4173.589844,4263.077148,4192.692383,2301.000000,4.000000,86.000000,,,,0.000000,4.000000,4.000000,4.000000,4.000000,4.000000,4.000000,4.000000,4.000000,4.000000,4.000000,4.000000,4.000000,4.000000,4.000000,100.000000,,,,,,,,,,,,,,,,
1645711221.179400,1645711221.198205,15.000000,0.000000,4216.025879,4229.871582,4211.282227,4241.794922,4221.922852,4217.563965,4209.358887,4224.230957,4220.256348,4210.641113,4214.358887,4169.615234,4259.615234,4191.282227,2691.000000,4.000000,86.000000,,,,0.000000,4.000000,4.000000,4.000000,4.000000,4.000000,4.000000,4.000000,4.000000,4.000000,4.000000,4.000000,4.000000,4.000000,4.000000,100.000000,,,,,,,,,,,,,,,,
1645711221.183339,1645711221.202144,16.000000,0.000000,4211.922852,4229.102539,4213.589844,4243.461426,4215.128418,4216.922852,4208.974121,4217.948730,4215.641113,4214.230957,4210.897461,4168.333496,4259.230957,4192.179688,2975.000000,4.000000,86.000000,,,,0.000000,4.000000,4.000000,4.000000,4.000000,4.000000,4.000000,4.000000,4.000000,4.000000,4.000000,4.000000,4.000000,4.000000,4.000000,100.000000,,,,,,,,,,,,,,,,
1645711221.187277,1645711221.206083,17.000000,0.000000,4207.307617,4235.256348,4217.307617,4250.769043,4216.538574,4223.461426,4210.897461,4217.692383,4215.384766,4222.051270,4214.487305,4170.769043,4263.461426,4194.102539,3241.000000,4.000000,86.000000,,,,0.000000,4.000000,4.000000,4.000000,4.000000,4.000000,4.000000,4.000000,4.000000,4.000000,4.000000,4.000000,4.000000,4.000000,4.000000,100.000000,,,,,,,,,,,,,,,,
1645711221.191216,1645711221.210021,18.000000,0.000000,4210.512695,4242.563965,4220.641113,4257.948730,4221.153809,4229.358887,4211.922852,4222.436035,4218.205078,4225.897461,4220.128418,4174.743652,4269.230957,4196.538574,2301.000000,4.000000,86.000000,,,,0.000000,4.000000,4.000000,4.000000,4.000000,4.000000,4.000000,4.000000,4.000000,4.000000,4.000000,4.000000,4.000000,4.000000,4.000000,100.000000,0.984375,58.333332,3.000000,4.000000,4.000000,4.000000,1.000000,4.000000,4.000000,4.000000,4.000000,3.000000,4.000000,4.000000,4.000000,4.000000
1645711221.195155,1645711221.213960,19.000000,0.000000,4221.025879,4245.512695,4222.307617,4261.025879,4224.743652,4229.871582,4211.538574,4228.205078,4221.538574,4223.846191,4222.563965,4177.692383,4273.205078,4199.743652,2691.000000,4.000000,86.000000,,,,0.000000,4.000000,4.000000,4.000000,4.000000,4.000000,4.000000,4.000000,4.000000,4.000000,4.000000,4.000000,4.000000,4.000000,4.000000,100.000000,,,,,,,,,,,,,,,,
1645711221.199094,1645711221.217899,20.000000,0.000000,4228.333496,4244.102539,4222.820313,4261.538574,4229.487305,4228.077148,4211.666504,4232.179688,4224.230957,4221.922852,4222.179688,4178.717773,4275.000000,4202.948730,2975.000000,4.000000,86.000000,,,,0.000000,4.000000,4.000000,4.000000,4.000000,4.000000,4.000000,4.000000,4.000000,4.000000,4.000000,4.000000,4.000000,4.000000,4.000000,100.000000,,,,,,,,,,,,,,,,
1645711221.203033,1645711221.221837,21.000000,0.000000,4223.974121,4241.410156,4223.205078,4262.820313,4238.717773,4229.358887,4213.333496,4233.333496,4226.538574,4226.410156,4222.051270,4178.077148,4275.769043,4204.230957,3241.000000,4.000000,86.000000,,,,0.000000,4.000000,4.000000,4.000000,4.000000,4.000000,4.000000,4.000000,4.000000,4.000000,4.000000,4.000000,4.000000,4.000000,4.000000,100.000000,,,,,,,,,,,,,,,,
1645711221.206972,1645711221.225776,22.000000,0.000000,4212.820313,4238.974121,4223.589844,4264.358887,4249.102539,4233.461426,4215.384766,4232.563965,4227.563965,4235.256348,4222.307617,4176.666504,4276.153809,4202.179688,2301.000000,4.000000,86.000000,,,,0.000000,4.000000,4.000000,4.000000,4.000000,4.000000,4.000000,4.000000,4.000000,4.000000,4.000000,4.000000,4.000000,4.000000,4.000000,100.000000,,,,,,,,,,,,,,,,
1645711221.210911,1645711221.229715,23.000000,0.000000,4207.436035,4235.769043,4223.846191,4263.077148,4251.666504,4234.358887,4216.153809,4231.282227,4226.282227,4240.384766,4220.512695,4174.871582,4274.358887,4198.461426,2691.000000,4.000000,86.000000,,,,0.000000,4.000000,4.000000,4.000000,4.000000,4.000000,4.000000,4.000000,4.000000,4.000000,4.000000,4.000000,4.000000,4.000000,4.000000,100.000000,,,,,,,,,,,,,,,,
1645711221.214850,1645711221.233653,24.000000,0.000000,4212.948730,4232.051270,4224.615234,4258.461426,4242.820313,4229.615234,4215.512695,4230.897461,4222.692383,4237.179688,4216.025879,4173.461426,4270.000000,4196.794922,2975.000000,4.000000,86.000000,,,,0.000000,4.000000,4.000000,4.000000,4.000000,4.000000,4.000000,4.000000,4.000000,4.000000,4.000000,4.000000,4.000000,4.000000,4.000000,100.000000,,,,,,,,,,,,,,,,
1645711221.218789,1645711221.237592,25.000000,0.000000,4221.410156,4230.000000,4225.897461,4255.384766,4228.974121,4223.846191,4215.384766,4232.307617,4219.743652,4228.461426,4213.333496,4173.205078,4265.256348,4198.205078,3241.000000,4.000000,86.000000,,,,0.000000,4.000000,4.000000,4.000000,4.000000,4.000000,4.000000,4.000000,4.000000,4.000000,4.000000,4.000000,4.000000,4.000000,4.000000,100.000000,,,,,,,,,,,,,,,,
1645711221.222727,1645711221.241531,26.000000,0.000000,4222.051270,4231.538574,4227.307617,4257.307617,4219.871582,4223.589844,4215.897461,4235.128418,4220.000000,4220.256348,4216.025879,4173.589844,4262.820313,4199.871582,2301.000000,4.000000,86.000000,,,,0.000000,4.000000,4.000000,4.000000,4.000000,4.000000,4.000000,4.000000,4.000000,4.000000,4.000000,4.000000,4.000000,4.000000,4.000000,100.000000,,,,,,,,,,,,,,,,
1645711221.226666,1645711221.245469,27.000000,0.000000,4214.743652,4233.974121,4226.794922,4261.282227,4217.179688,4227.948730,4215.256348,4237.179688,4222.563965,4215.512695,4220.897461,4172.179688,4262.563965,4197.820313,2691.000000,4.000000,86.000000,,,,0.000000,4.000000,4.000000,4.000000,4.000000,4.000000,4.000000,4.000000,4.000000,4.000000,4.000000,4.000000,4.000000,4.000000,4.000000,100.000000,,,,,,,,,,,,,,,,
1645711221.230605,1645711221.249408,28.000000,0.000000,4208.717773,4232.692383,4223.077148,4260.769043,4215.384766,4230.641113,4212.051270,4236.410156,4224.102539,4212.563965,4220.384766,4167.563965,4261.410156,4192.179688,2975.000000,4.000000,86.000000,,,,0.000000,4.000000,4.000000,4.000000,4.000000,4.000000,4.000000,4.000000,4.000000,4.000000,4.000000,4.000000,4.000000,4.000000,4.000000,100.000000,,,,,,,,,,,,,,,,
1645711221.234544,1645711221.253347,29.000000,0.000000,4210.641113,4226.538574,4217.692383,4253.974121,4212.051270,4228.846191,4208.589844,4234.358887,4222.820313,4210.769043,4212.051270,4162.051270,4258.589844,4188.205078,3241.000000,4.000000,86.000000,,,,0.000000,4.000000,4.000000,4.000000,4.000000,4.000000,4.000000,4.000000,4.000000,4.000000,4.000000,4.000000,4.000000,4.000000,4.000000,100.000000,,,,,,,,,,,,,,,,
1645711221.238483,1645711221.257285,30.000000,0.000000,4216.282227,4221.025879,4215.512695,4247.436035,4214.230957,4227.563965,4209.487305,4235.256348,4220.897461,4212.563965,4203.461426,4159.871582,4256.794922,4190.641113,2301.000000,4.000000,86.000000,,,,0.000000,4.000000,4.000000,4.000000,4.000000,4.000000,4.000000,4.000000,4.000000,4.000000,4.000000,4.000000,4.000000,4.000000,4.000000,100.000000,,,,,,,,,,,,,,,,
1645711221.242422,1645711221.261125,31.000000,0.000000,4217.820313,4221.922852,4219.230957,4248.717773,4229.102539,4233.077148,4216.538574,4241.538574,4222.179688,4219.102539,4204.102539,4163.077148,4259.487305,4197.948730,2691.000000,4.000000,86.000000,,,,0.000000,4.000000,4.000000,4.000000,4.000000,4.000000,4.000000,4.000000,4.000000,4.000000,4.000000,4.000000,4.000000,4.000000,4.000000,100.000000,,,,,,,,,,,,,,,,
1645711221.246361,1645711221.265064,32.000000,0.000000,4214.230957,4228.846191,4226.922852,4257.307617,4251.922852,4243.589844,4225.384766,4250.512695,4227.051270,4226.538574,4213.717773,4168.717773,4265.000000,4203.717773,0.000000,4.000000,86.000000,,,,0.000000,4.000000,4.000000,4.000000,4.000000,4.000000,4.000000,4.000000,4.000000,4.000000,4.000000,4.000000,4.000000,4.000000,4.000000,100.000000,,,,,,,,,,,,,,,,
1645711221.250300,1645711221.269003,33.000000,0.000000,4211.922852,4234.358887,4232.307617,4264.615234,4266.282227,4249.358887,4229.358887,4255.641113,4231.538574,4227.948730,4221.538574,4170.512695,4267.692383,4203.205078,0.000000,4.000000,86.000000,,,,0.000000,4.000000,4.000000,4.000000,4.000000,4.000000,4.000000,4.000000,4.000000,4.000000,4.000000,4.000000,4.000000,4.000000,4.000000,100.000000,,,,,,,,,,,,,,,,
1645711221.254238,1645711221.272942,34.000000,0.000000,4214.615234,4232.948730,4231.794922,4263.846191,4261.538574,4243.205078,4226.282227,4252.948730,4231.538574,4221.922852,4218.077148,4166.282227,4264.615234,4197.820313,0.000000,4.000000,86.000000,,,,0.000000,4.000000,4.000000,4.000000,4.000000,4.000000,4.000000,4.000000,4.000000,4.000000,4.000000,4.000000,4.000000,4.000000,4.000000,100.000000,,,,,,,,,,,,,,,,
1645711221.258177,1645711221.276881,35.000000,0.000000,4218.205078,4227.051270,4227.692383,4257.051270,4243.461426,4229.358887,4220.256348,4245.641113,4228.077148,4215.512695,4206.794922,4160.000000,4259.230957,4193.461426,0.000000,4.000000,86.000000,,,,0.000000,4.000000,4.000000,4.000000,4.000000,4.000000,4.000000,4.000000,4.000000,4.000000,4.000000,4.000000,4.000000,4.000000,4.000000,100.000000,,,,,,,,,,,,,,,,
1645711221.262116,1645711221.280820,36.000000,0.000000,4216.538574,4223.717773,4224.871582,4252.307617,4226.794922,4218.461426,4216.666504,4240.769043,4225.641113,4217.436035,4199.487305,4157.820313,4258.589844,4194.487305,0.000000,4.000000,86.000000,,,,0.000000,4.000000,4.000000,4.000000,4.000000,4.000000,4.000000,4.000000,4.000000,4.000000,4.000000,4.000000,4.000000,4.000000,4.000000,100.000000,,,,,,,,,,,,,,,,
1645711221.266055,1645711221.284760,37.000000,0.000000,4211.025879,4225.897461,4225.641113,4253.333496,4219.743652,4216.666504,4216.794922,4242.179688,4227.436035,4228.077148,4203.205078,4161.538574,4265.000000,4199.871582,0.000000,4.000000,86.000000,,,,0.000000,4.000000,4.000000,4.000000,4.000000,4.000000,4.000000,4.000000,4.000000,4.000000,4.000000,4.000000,4.000000,4.000000,4.000000,100.000000,,,,,,,,,,,,,,,,
1645711221.269994,1645711221.288699,38.000000,0.000000,4209.615234,4229.358887,4227.436035,4256.538574,4219.230957,4221.153809,4218.461426,4247.436035,4231.282227,4239.102539,4213.333496,4167.436035,4273.717773,4205.641113,0.000000,4.000000,86.000000,,,,0.000000,4.000000,4.000000,4.000000,4.000000,4.000000,4.000000,4.000000,4.000000,4.000000,4.000000,4.000000,4.000000,4.000000,4.000000,100.000000,,,,,,,,,,,,,,,,
1645711221.273933,1645711221.292638,39.000000,0.000000,4215.769043,4229.615234,4227.307617,4256.538574,4220.641113,4226.666504,4220.000000,4251.922852,4233.846191,4242.948730,4220.897461,4171.153809,4278.589844,4208.717773,0.000000,4.000000,86.000000,,,,0.000000,4.000000,4.000000,4.000000,4.000000,4.000000,4.000000,4.000000,4.000000,4.000000,4.000000,4.000000,4.000000,4.000000,4.000000,100.000000,,,,,,,,,,,,,,,,
1645711221.277872,1645711221.296577,40.000000,0.000000,4223.077148,4226.922852,4225.128418,4253.717773,4225.000000,4231.153809,4222.179688,4253.205078,4234.358887,4241.282227,4223.077148,4171.794922,4278.205078,4209.102539,0.000000,4.000000,86.000000,,,,0.000000,4.000000,4.000000,4.000000,4.000000,4.000000,4.000000,4.000000,4.000000,4.000000,4.000000,4.000000,4.000000,4.000000,4.000000,100.000000,,,,,,,,,,,,,,,,
1645711221.281811,1645711221.300516,41.000000,0.000000,4222.436035,4225.384766,4223.333496,4251.538574,4233.974121,4235.384766,4224.743652,4252.436035,4234.615234,4240.512695,4223.205078,4170.897461,4276.282227,4207.179688,0.000000,4.000000,86.000000,,,,0.000000,4.000000,4.000000,4.000000,4.000000,4.000000,4.000000,4.000000,4.000000,4.000000,4.000000,4.000000,4.000000,4.000000,4.000000,100.000000,,,,,,,,,,,,,,,,
1645711221.285750,1645711221.304455,42.000000,0.000000,4213.589844,4225.897461,4222.179688,4251.025879,4241.410156,4237.179688,4224.487305,4250.000000,4235.000000,4241.794922,4223.589844,4168.846191,4275.512695,4203.333496,0.000000,4.000000,86.000000,,,,0.000000,4.000000,4.000000,4.000000,4.000000,4.000000,4.000000,4.000000,4.000000,4.000000,4.000000,4.000000,4.000000,4.000000,4.000000,100.000000,,,,,,,,,,,,,,,,
1645711221.289688,1645711221.308394,43.000000,0.000000,4206.282227,4224.871582,4220.000000,4248.974121,4236.666504,4232.051270,4218.589844,4245.512695,4233.461426,4239.615234,4221.922852,4164.358887,4274.743652,4198.461426,0.000000,4.000000,86.000000,,,,0.000000,4.000000,4.000000,4.000000,4.000000,4.000000,4.000000,4.000000,4.000000,4.000000,4.000000,4.000000,4.000000,4.000000,4.000000,100.000000,,,,,,,,,,,,,,,,
1645711221.293627,1645711221.312334,44.000000,0.000000,4208.205078,4220.000000,4216.410156,4243.589844,4218.717773,4220.641113,4208.846191,4239.487305,4229.615234,4230.769043,4216.410156,4159.102539,4272.436035,4195.769043,0.000000,4.000000,86.000000,,,,0.000000,4.000000,4.000000,4.000000,4.000000,4.000000,4.000000,4.000000,4.000000,4.000000,4.000000,4.000000,4.000000,4.000000,4.000000,100.000000,,,,,,,,,,,,,,,,
1645711221.297566,1645711221.316374,45.000000,1.000000,4208.942383,4218.910156,4216.907227,4241.875000,4217.692383,4220.000000,4208.942383,4239.936035,4228.253418,4228.846191,4216.282227,4159.871582,4272.900879,4197.339844,0.000000,4.000000,86.000000,,,,0.000000,4.000000,4.000000,4.000000,4.000000,4.000000,4.000000,4.000000,4.000000,4.000000,4.000000,4.000000,4.000000,4.000000,4.000000,100.000000,,,,,,,,,,,,,,,,
1645711221.301505,1645711221.320314,46.000000,1.000000,4209.679688,4217.820313,4217.403809,4240.160156,4216.666504,4219.358887,4209.038574,4240.384766,4226.891113,4226.922852,4216.153809,4160.641113,4273.365234,4198.910156,0.000000,4.000000,86.000000,,,,0.000000,4.000000,4.000000,4.000000,4.000000,4.000000,4.000000,4.000000,4.000000,4.000000,4.000000,4.000000,4.000000,4.000000,4.000000,100.000000,,,,,,,,,,,,,,,,
1645711221.305444,1645711221.324254,47.000000,1.000000,4210.416504,4216.730957,4217.900879,4238.445313,4215.641113,4218.717773,4209.134766,4240.833496,4225.528809,4225.000000,4216.025879,4161.410156,4273.830078,4200.480957,0.000000,4.000000,86.000000,,,,0.000000,4.000000,4.000000,4.000000,4.000000,4.000000,4.000000,4.000000,4.000000,4.000000,4.000000,4.000000,4.000000,4.000000,4.000000,100.000000,,,,,,,,,,,,,,,,
1645711221.309383,1645711221.328194,48.000000,1.000000,4211.153809,4215.641113,4218.397461,4236.730957,4214.615234,4218.077148,4209.230957,4241.282227,4224.166504,4223.077148,4215.897461,4162.179688,4274.294922,4202.051270,0.000000,4.000000,86.000000,,,,0.000000,4.000000,4.000000,4.000000,4.000000,4.000000,4.000000,4.000000,4.000000,4.000000,4.000000,4.000000,4.000000,4.000000,4.000000,100.000000,,,,,,,,,,,,,,,,
1645711221.313322,1645711221.332134,49.000000,1.000000,4211.891113,4214.551270,4218.894043,4235.016113,4213.589844,4217.436035,4209.327148,4241.730957,4222.804688,4221.153809,4215.769043,4162.948730,4274.759766,4203.621582,0.000000,4.000000,86.000000,,,,0.000000,4.000000,4.000000,4.000000,4.000000,4.000000,4.000000,4.000000,4.000000,4.000000,4.000000,4.000000,4.000000,4.000000,4.000000,100.000000,,,,,,,,,,,,,,,,
1645711221.317260,1645711221.336074,50.000000,1.000000,4212.628418,4213.461426,4219.391113,4233.301270,4212.563965,4216.794922,4209.422852,4242.179688,4221.442383,4219.230957,4215.641113,4163.717773,4275.224121,4205.192383,0.000000,4.000000,86.000000,,,,0.000000,4.000000,4.000000,4.000000,4.000000,4.000000,4.000000,4.000000,4.000000,4.000000,4.000000,4.000000,4.000000,4.000000,4.000000,100.000000,,,,,,,,,,,,,,,,
1645711221.321199,1645711221.340014,51.000000,1.000000,4213.365234,4212.371582,4219.887695,4231.586426,4211.538574,4216.153809,4209.519043,4242.628418,4220.080078,4217.307617,4215.512695,4164.487305,4275.688965,4206.762695,0.000000,4.000000,86.000000,,,,0.000000,4.000000,4.000000,4.000000,4.000000,4.000000,4.000000,4.000000,4.000000,4.000000,4.000000,4.000000,4.000000,4.000000,4.000000,100.000000,,,,,,,,,,,,,,,,
1645711221.325138,1645711221.343954,52.000000,0.000000,4214.102539,4211.282227,4220.384766,4229.871582,4210.512695,4215.512695,4209.615234,4243.077148,4218.717773,4215.384766,4215.384766,4165.256348,4276.153809,4208.333496,0.000000,4.000000,86.000000,,,,0.000000,4.000000,4.000000,4.000000,4.000000,4.000000,4.000000,4.000000,4.000000,4.000000,4.000000,4.000000,4.000000,4.000000,4.000000,100.000000,,,,,,,,,,,,,,,,
1645711221.329077,1645711221.347894,53.000000,0.000000,4208.846191,4216.538574,4223.333496,4237.563965,4206.410156,4218.077148,4209.871582,4241.666504,4221.538574,4220.256348,4217.436035,4170.897461,4277.179688,4207.436035,0.000000,4.000000,86.000000,,,,0.000000,4.000000,4.000000,4.000000,4.000000,4.000000,4.000000,4.000000,4.000000,4.000000,4.000000,4.000000,4.000000,4.000000,4.000000,100.000000,,,,,,,,,,,,,,,,
1645711221.333016,1645711221.351835,54.000000,0.000000,4212.051270,4218.974121,4225.128418,4242.307617,4207.179688,4216.666504,4208.974121,4238.333496,4222.820313,4221.025879,4215.256348,4175.512695,4274.358887,4207.051270,0.000000,4.000000,86.000000,,,,0.000000,4.000000,4.000000,4.000000,4.000000,4.000000,4.000000,4.000000,4.000000,4.000000,4.000000,4.000000,4.000000,4.000000,4.000000,100.000000,,,,,,,,,,,,,,,,
1645711221.336955,1645711221.355775,55.000000,0.000000,4219.871582,4217.820313,4226.025879,4241.666504,4211.922852,4212.436035,4207.820313,4234.230957,4221.282227,4215.897461,4209.743652,4176.282227,4268.974121,4209.743652,0.000000,4.000000,86.000000,,,,0.000000,4.000000,4.000000,4.000000,4.000000,4.000000,4.000000,4.000000,4.000000,4.000000,4.000000,4.000000,4.000000,4.000000,4.000000,100.000000,,,,,,,,,,,,,,,,
1645711221.340894,1645711221.359715,56.000000,0.000000,4222.820313,4217.692383,4227.436035,4239.743652,4221.410156,4212.179688,4208.974121,4232.948730,4220.512695,4212.820313,4207.179688,4174.615234,4266.153809,4214.230957,0.000000,4.000000,86.000000,,,,0.000000,4.000000,4.000000,4.000000,4.000000,4.000000,4.000000,4.000000,4.000000,4.000000,4.000000,4.000000,4.000000,4.000000,4.000000,100.000000,,,,,,,,,,,,,,,,
1645711221.344833,1645711221.363655,57.000000,0.000000,4217.179688,4220.512695,4228.846191,4240.769043,4232.436035,4219.102539,4212.179688,4235.897461,4222.948730,4218.461426,4210.769043,4172.820313,4268.717773,4215.897461,0.000000,4.000000,86.000000,,,,0.000000,4.000000,4.000000,4.000000,4.000000,4.000000,4.000000,4.000000,4.000000,4.000000,4.000000,4.000000,4.000000,4.000000,4.000000,100.000000,,,,,,,,,,,,,,,,
1645711221.348771,1645711221.367595,58.000000,0.000000,4209.487305,4222.692383,4227.563965,4243.077148,4236.922852,4228.589844,4214.615234,4239.871582,4227.436035,4228.205078,4215.512695,4170.769043,4273.589844,4211.410156,0.000000,4.000000,86.000000,,,,0.000000,4.000000,4.000000,4.000000,4.000000,4.000000,4.000000,4.000000,4.000000,4.000000,4.000000,4.000000,4.000000,4.000000,4.000000,100.000000,,,,,,,,,,,,,,,,
1645711221.352710,1645711221.371535,59.000000,0.000000,4208.461426,4220.128418,4222.179688,4243.205078,4230.769043,4232.692383,4213.974121,4240.897461,4230.256348,4233.461426,4215.384766,4168.846191,4275.512695,4204.230957,0.000000,4.000000,86.000000,,,,0.000000,4.000000,4.000000,4.000000,4.000000,4.000000,4.000000,4.000000,4.000000,4.000000,4.000000,4.000000,4.000000,4.000000,4.000000,100.000000,,,,,,,,,,,,,,,,
1645711221.356649,1645711221.375475,60.000000,0.000000,4214.102539,4214.615234,4216.410156,4242.436035,4219.871582,4229.230957,4211.922852,4238.461426,4230.512695,4232.436035,4212.051270,4168.846191,4274.230957,4201.282227,0.000000,4.000000,86.000000,,,,0.000000,4.000000,4.000000,4.000000,4.000000,4.000000,4.000000,4.000000,4.000000,4.000000,4.000000,4.000000,4.000000,4.000000,4.000000,100.000000,,,,,,,,,,,,,,,,
1645711221.360588,1645711221.379415,61.000000,0.000000,4219.358887,4213.333496,4215.384766,4245.512695,4215.897461,4222.948730,4211.538574,4236.666504,4230.128418,4231.922852,4212.563965,4172.948730,4274.487305,4206.153809,0.000000,4.000000,86.000000,,,,0.000000,4.000000,4.000000,4.000000,4.000000,4.000000,4.000000,4.000000,4.000000,4.000000,4.000000,4.000000,4.000000,4.000000,4.000000,100.000000,,,,,,,,,,,,,,,,
1645711221.364527,1645711221.383355,62.000000,0.000000,4219.743652,4219.102539,4221.153809,4253.717773,4222.948730,4218.974121,4213.333496,4238.846191,4230.512695,4237.179688,4219.230957,4179.743652,4278.717773,4215.000000,0.000000,4.000000,86.000000,,,,0.000000,4.000000,4.000000,4.000000,4.000000,4.000000,4.000000,4.000000,4.000000,4.000000,4.000000,4.000000,4.000000,4.000000,4.000000,100.000000,,,,,,,,,,,,,,,,
1645711221.368466,1645711221.387296,63.000000,0.000000,4218.205078,4226.794922,4228.717773,4261.025879,4231.410156,4217.307617,4214.230957,4242.948730,4230.256348,4243.589844,4224.230957,4182.948730,4283.589844,4220.256348,0.000000,4.000000,86.000000,,,,0.000000,4.000000,4.000000,4.000000,4.000000,4.000000,4.000000,4.000000,4.000000,4.000000,4.000000,4.000000,4.000000,4.000000,4.000000,100.000000,,,,,,,,,,,,,,,,
1645711221.372405,1645711221.391236,64.000000,0.000000,4219.230957,4227.948730,4230.769043,4259.871582,4228.974121,4215.897461,4211.794922,4243.974121,4226.922852,4241.922852,4218.461426,4177.051270,4283.077148,4217.820313,0.000000,4.000000,86.000000,,,,0.000000,4.000000,4.000000,4.000000,4.000000,4.000000,4.000000,4.000000,4.000000,4.000000,4.000000,4.000000,4.000000,4.000000,4.000000,100.000000,,,,,,,,,,,,,,,,
1645711221.376344,1645711221.395176,65.000000,0.000000,4220.641113,4221.153809,4225.769043,4250.384766,4216.025879,4215.128418,4207.692383,4239.358887,4221.282227,4230.769043,4203.333496,4163.461426,4276.025879,4210.128418,0.000000,4.000000,86.000000,,,,0.000000,4.000000,4.000000,4.000000,4.000000,4.000000,4.000000,4.000000,4.000000,4.000000,4.000000,4.000000,4.000000,4.000000,4.000000,100.000000,,,,,,,,,,,,,,,,
1645711221.380283,1645711221.399116,66.000000,0.000000,4216.794922,4213.077148,4218.461426,4240.384766,4207.820313,4218.333496,4206.538574,4233.077148,4217.563965,4219.487305,4191.282227,4150.512695,4267.948730,4202.948730,0.000000,4.000000,86.000000,,,,0.000000,4.000000,4.000000,4.000000,4.000000,4.000000,4.000000,4.000000,4.000000,4.000000,4.000000,4.000000,4.000000,4.000000,4.000000,100.000000,,,,,,,,,,,,,,,,
1645711221.384221,1645711221.403056,67.000000,0.000000,4208.077148,4210.512695,4215.128418,4237.307617,4216.794922,4225.641113,4210.128418,4230.897461,4218.846191,4217.436035,4192.436035,4145.512695,4265.128418,4199.871582,0.000000,4.000000,86.000000,,,,0.000000,4.000000,4.000000,4.000000,4.000000,4.000000,4.000000,4.000000,4.000000,4.000000,4.000000,4.000000,4.000000,4.000000,4.000000,100.000000,,,,,,,,,,,,,,,,
1645711221.388160,1645711221.406996,68.000000,0.000000,4202.563965,4212.948730,4216.538574,4240.512695,4237.948730,4231.666504,4215.641113,4234.487305,4224.230957,4222.948730,4203.461426,4147.820313,4267.307617,4200.512695,0.000000,4.000000,86.000000,,,,0.000000,4.000000,4.000000,4.000000,4.000000,4.000000,4.000000,4.000000,4.000000,4.000000,4.000000,4.000000,4.000000,4.000000,4.000000,100.000000,,,,,,,,,,,,,,,,
1645711221.392099,1645711221.410835,69.000000,0.000000,4206.282227,4214.102539,4218.205078,4243.461426,4252.820313,4231.153809,4218.461426,4239.358887,4229.487305,4226.794922,4211.794922,4150.897461,4269.615234,4201.922852,0.000000,4.000000,86.000000,,,,0.000000,4.000000,4.000000,4.000000,4.000000,4.000000,4.000000,4.000000,4.000000,4.000000,4.000000,4.000000,4.000000,4.000000,4.000000,100.000000,,,,,,,,,,,,,,,,
1645711221.396038,1645711221.414774,70.000000,0.000000,4215.128418,4210.641113,4216.282227,4241.794922,4249.230957,4225.256348,4216.794922,4240.897461,4231.282227,4223.333496,4209.102539,4149.230957,4267.948730,4202.436035,0.000000,4.000000,86.000000,,,,0.000000,4.000000,4.000000,4.000000,4.000000,4.000000,4.000000,4.000000,4.000000,4.000000,4.000000,4.000000,4.000000,4.000000,4.000000,100.000000,,,,,,,,,,,,,,,,
1645711221.399977,1645711221.418713,71.000000,0.000000,4218.077148,4205.897461,4211.666504,4237.563965,4232.179688,4220.897461,4213.461426,4238.717773,4229.871582,4218.077148,4199.871582,4143.717773,4264.102539,4201.025879,0.000000,4.000000,86.000000,,,,0.000000,4.000000,4.000000,4.000000,4.000000,4.000000,4.000000,4.000000,4.000000,4.000000,4.000000,4.000000,4.000000,4.000000,4.000000,100.000000,,,,,,,,,,,,,,,,
1645711221.403916,1645711221.422652,72.000000,0.000000,4210.769043,4205.000000,4207.692383,4235.128418,4216.666504,4222.179688,4211.282227,4236.282227,4227.692383,4219.487305,4194.230957,4139.487305,4262.179688,4198.589844,0.000000,4.000000,86.000000,,,,0.000000,4.000000,4.000000,4.000000,4.000000,4.000000,4.000000,4.000000,4.000000,4.000000,4.000000,4.000000,4.000000,4.000000,4.000000,100.000000,,,,,,,,,,,,,,,,
1645711221.407855,1645711221.426591,73.000000,0.000000,4201.153809,4207.948730,4206.538574,4235.000000,4211.794922,4225.256348,4211.153809,4235.897461,4225.641113,4228.205078,4196.922852,4139.487305,4263.077148,4196.282227,0.000000,4.000000,86.000000,,,,0.000000,4.000000,4.000000,4.000000,4.000000,4.000000,4.000000,4.000000,4.000000,4.000000,4.000000,4.000000,4.000000,4.000000,4.000000,100.000000,,,,,,,,,,,,,,,,
1645711221.411794,1645711221.430530,74.000000,0.000000,4199.743652,4210.000000,4207.563965,4234.743652,4215.512695,4223.974121,4211.794922,4237.051270,4223.461426,4235.256348,4203.205078,4142.179688,4264.615234,4196.282227,0.000000,4.000000,86.000000,,,,0.000000,4.000000,4.000000,4.000000,4.000000,4.000000,4.000000,4.000000,4.000000,4.000000,4.000000,4.000000,4.000000,4.000000,4.000000,100.000000,,,,,,,,,,,,,,,,
1645711221.415733,1645711221.434469,75.000000,0.000000,4207.436035,4208.589844,4209.230957,4234.743652,4223.205078,4218.974121,4213.333496,4238.077148,4221.410156,4233.461426,4207.179688,4145.512695,4265.000000,4200.000000,0.000000,4.000000,86.000000,,,,0.000000,4.000000,4.000000,4.000000,4.000000,4.000000,4.000000,4.000000,4.000000,4.000000,4.000000,4.000000,4.000000,4.000000,4.000000,100.000000,,,,,,,,,,,,,,,,
1645711221.419671,1645711221.438407,76.000000,0.000000,4214.615234,4206.538574,4211.794922,4238.717773,4234.102539,4216.666504,4217.307617,4238.717773,4221.282227,4226.538574,4208.205078,4148.589844,4265.128418,4206.025879,0.000000,4.000000,86.000000,,,,0.000000,4.000000,4.000000,4.000000,4.000000,4.000000,4.000000,4.000000,4.000000,4.000000,4.000000,4.000000,4.000000,4.000000,4.000000,100.000000,,,,,,,,,,,,,,,,
1645711221.423610,1645711221.442346,77.000000,0.000000,4214.102539,4208.333496,4215.512695,4248.077148,4247.692383,4221.025879,4222.692383,4239.743652,4224.102539,4223.333496,4208.461426,4151.666504,4267.179688,4211.025879,0.000000,4.000000,86.000000,,,,0.000000,4.000000,4.000000,4.000000,4.000000,4.000000,4.000000,4.000000,4.000000,4.000000,4.000000,4.000000,4.000000,4.000000,4.000000,100.000000,,,,,,,,,,,,,,,,
1645711221.427549,1645711221.446285,78.000000,0.000000,4209.487305,4213.205078,4219.230957,4256.666504,4256.025879,4227.436035,4226.282227,4240.256348,4227.692383,4226.153809,4207.948730,4154.230957,4270.384766,4212.307617,0.000000,4.000000,86.000000,,,,0.000000,4.000000,4.000000,4.000000,4.000000,4.000000,4.000000,4.000000,4.000000,4.000000,4.000000,4.000000,4.000000,4.000000,4.000000,100.000000,,,,,,,,,,,,,,,,
1645711221.431488,1645711221.450224,79.000000,0.000000,4210.128418,4216.025879,4220.512695,4256.410156,4249.102539,4227.820313,4224.871582,4238.589844,4228.974121,4229.102539,4204.871582,4154.615234,4271.922852,4211.538574,0.000000,4.000000,86.000000,,,,0.000000,4.000000,4.000000,4.000000,4.000000,4.000000,4.000000,4.000000,4.000000,4.000000,4.000000,4.000000,4.000000,4.000000,4.000000,100.000000,,,,,,,,,,,,,,,,
1645711221.435427,1645711221.454163,80.000000,0.000000,4217.563965,4214.358887,4218.974121,4246.794922,4227.436035,4221.025879,4219.871582,4234.487305,4226.794922,4226.666504,4200.897461,4153.589844,4270.769043,4212.436035,0.000000,4.000000,86.000000,,,,0.000000,4.000000,4.000000,4.000000,4.000000,4.000000,4.000000,4.000000,4.000000,4.000000,4.000000,4.000000,4.000000,4.000000,4.000000,100.000000,,,,,,,,,,,,,,,,
1645711221.439366,1645711221.458102,81.000000,0.000000,4223.846191,4211.538574,4217.179688,4236.538574,4205.512695,4214.743652,4216.025879,4230.512695,4223.589844,4220.897461,4201.282227,4154.102539,4269.615234,4216.025879,0.000000,4.000000,86.000000,,,,0.000000,4.000000,4.000000,4.000000,4.000000,4.000000,4.000000,4.000000,4.000000,4.000000,4.000000,4.000000,4.000000,4.000000,4.000000,100.000000,,,,,,,,,,,,,,,,
1645711221.443305,1645711221.462041,82.000000,0.000000,4222.563965,4212.179688,4218.077148,4234.615234,4199.871582,4216.538574,4216.282227,4229.615234,4222.179688,4218.974121,4208.717773,4158.461426,4271.538574,4219.743652,0.000000,4.000000,86.000000,,,,0.000000,4.000000,4.000000,4.000000,4.000000,4.000000,4.000000,4.000000,4.000000,4.000000,4.000000,4.000000,4.000000,4.000000,4.000000,100.000000,,,,,,,,,,,,,,,,
1645711221.447243,1645711221.465980,83.000000,0.000000,4217.436035,4216.410156,4221.794922,4241.282227,4214.358887,4225.256348,4219.487305,4232.307617,4223.461426,4223.461426,4218.333496,4165.769043,4275.769043,4220.769043,0.000000,4.000000,86.000000,,,,0.000000,4.000000,4.000000,4.000000,4.000000,4.000000,4.000000,4.000000,4.000000,4.000000,4.000000,4.000000,4.000000,4.000000,4.000000,100.000000,,,,,,,,,,,,,,,,
1645711221.451182,1645711221.469919,84.000000,0.000000,4217.948730,4220.641113,4226.153809,4249.743652,4237.307617,4233.589844,4222.692383,4236.282227,4225.384766,4230.128418,4222.692383,4172.563965,4279.358887,4219.871582,0.000000,4.000000,86.000000,,,,0.000000,4.000000,4.000000,4.000000,4.000000,4.000000,4.000000,4.000000,4.000000,4.000000,4.000000,4.000000,4.000000,4.000000,4.000000,100.000000,,,,,,,,,,,,,,,,
1645711221.455121,1645711221.473858,85.000000,0.000000,4225.897461,4221.922852,4229.230957,4253.846191,4253.333496,4236.538574,4225.384766,4239.487305,4226.538574,4233.205078,4219.743652,4176.410156,4280.256348,4220.128418,0.000000,4.000000,86.000000,,,,0.000000,4.000000,4.000000,4.000000,4.000000,4.000000,4.000000,4.000000,4.000000,4.000000,4.000000,4.000000,4.000000,4.000000,4.000000,100.000000,,,,,,,,,,,,,,,,
1645711221.459060,1645711221.477797,86.000000,0.000000,4232.692383,4221.153809,4230.641113,4253.846191,4255.128418,4235.769043,4228.205078,4241.410156,4226.794922,4231.538574,4215.128418,4177.820313,4279.615234,4222.820313,0.000000,4.000000,86.000000,,,,0.000000,4.000000,4.000000,4.000000,4.000000,4.000000,4.000000,4.000000,4.000000,4.000000,4.000000,4.000000,4.000000,4.000000,4.000000,100.000000,,,,,,,,,,,,,,,,
1645711221.462999,1645711221.481736,87.000000,0.000000,4230.128418,4220.256348,4230.128418,4252.820313,4246.153809,4235.000000,4230.512695,4242.307617,4227.051270,4228.717773,4214.871582,4177.692383,4279.487305,4225.384766,0.000000,4.000000,86.000000,,,,0.000000,4.000000,4.000000,4.000000,4.000000,4.000000,4.000000,4.000000,4.000000,4.000000,4.000000,4.000000,4.000000,4.000000,4.000000,100.000000,,,,,,,,,,,,,,,,
1645711221.466938,1645711221.485674,88.000000,0.000000,4221.538574,4218.717773,4227.307617,4250.897461,4234.871582,4234.743652,4229.487305,4241.282227,4227.436035,4227.307617,4218.717773,4177.436035,4280.641113,4225.769043,0.000000,4.000000,86.000000,,,,0.000000,4.000000,4.000000,4.000000,4.000000,4.000000,4.000000,4.000000,4.000000,4.000000,4.000000,4.000000,4.000000,4.000000,4.000000,100.000000,,,,,,,,,,,,,,,,
1645711221.470877,1645711221.489613,89.000000,0.000000,4217.563965,4215.512695,4222.820313,4246.794922,4228.589844,4232.179688,4224.743652,4238.333496,4226.794922,4228.205078,4222.307617,4178.461426,4282.820313,4225.256348,0.000000,4.000000,86.000000,,,,0.000000,4.000000,4.000000,4.000000,4.000000,4.000000,4.000000,4.000000,4.000000,4.000000,4.000000,4.000000,4.000000,4.000000,4.000000,100.000000,,,,,,,,,,,,,,,,
1645711221.474815,1645711221.493452,90.000000,0.000000,4223.205078,4212.820313,4220.256348,4242.307617,4230.769043,4227.436035,4219.743652,4235.512695,4225.897461,4232.436035,4224.102539,4182.948730,4286.410156,4228.077148,0.000000,4.000000,86.000000,,,,0.000000,4.000000,4.000000,4.000000,4.000000,4.000000,4.000000,4.000000,4.000000,4.000000,4.000000,4.000000,4.000000,4.000000,4.000000,100.000000,,,,,,,,,,,,,,,,
1645711221.478754,1645711221.497390,91.000000,0.000000,4231.922852,4215.641113,4223.077148,4243.461426,4241.025879,4225.128418,4219.358887,4236.153809,4226.794922,4241.282227,4228.205078,4191.794922,4292.820313,4235.512695,0.000000,4.000000,86.000000,,,,0.000000,4.000000,4.000000,4.000000,4.000000,4.000000,4.000000,4.000000,4.000000,4.000000,4.000000,4.000000,4.000000,4.000000,4.000000,100.000000,,,,,,,,,,,,,,,,
1645711221.482693,1645711221.501329,92.000000,0.000000,4234.358887,4225.769043,4230.128418,4253.205078,4253.717773,4229.230957,4224.230957,4241.025879,4230.769043,4252.179688,4236.282227,4201.538574,4300.769043,4243.077148,0.000000,4.000000,86.000000,,,,0.000000,4.000000,4.000000,4.000000,4.000000,4.000000,4.000000,4.000000,4.000000,4.000000,4.000000,4.000000,4.000000,4.000000,4.000000,100.000000,,,,,,,,,,,,,,,,
1645711221.486632,1645711221.505267,93.000000,0.000000,4229.871582,4238.077148,4235.641113,4266.282227,4261.025879,4237.436035,4229.487305,4246.153809,4235.512695,4257.563965,4243.589844,4206.025879,4305.641113,4244.615234,0.000000,4.000000,86.000000,,,,0.000000,4.000000,4.000000,4.000000,4.000000,4.000000,4.000000,4.000000,4.000000,4.000000,4.000000,4.000000,4.000000,4.000000,4.000000,100.000000,,,,,,,,,,,,,,,,
1645711221.490571,1645711221.509206,94.000000,0.000000,4226.025879,4243.717773,4235.256348,4272.563965,4257.820313,4242.307617,4230.769043,4246.794922,4236.666504,4250.769043,4242.692383,4202.307617,4303.461426,4239.487305,0.000000,4.000000,86.000000,,,,0.000000,4.000000,4.000000,4.000000,4.000000,4.000000,4.000000,4.000000,4.000000,4.000000,4.000000,4.000000,4.000000,4.000000,4.000000,100.000000,,,,,,,,,,,,,,,,
1645711221.494510,1645711221.513144,95.000000,0.000000,4227.307617,4239.615234,4230.000000,4268.461426,4246.922852,4239.615234,4228.077148,4242.692383,4233.077148,4235.897461,4233.333496,4194.102539,4295.641113,4233.333496,0.000000,4.000000,86.000000,,,,0.000000,4.000000,4.000000,4.000000,4.000000,4.000000,4.000000,4.000000,4.000000,4.000000,4.000000,4.000000,4.000000,4.000000,4.000000,100.000000,,,,,,,,,,,,,,,,
1645711221.498449,1645711221.517083,96.000000,0.000000,4229.743652,4232.051270,4225.512695,4260.897461,4237.307617,4232.692383,4225.897461,4238.589844,4228.589844,4226.282227,4224.615234,4189.230957,4289.230957,4231.794922,0.000000,4.000000,86.000000,,,,0.000000,4.000000,4.000000,4.000000,4.000000,4.000000,4.000000,4.000000,4.000000,4.000000,4.000000,4.000000,4.000000,4.000000,4.000000,100.000000,,,,,,,,,,,,,,,,
1645711221.502388,1645711221.521021,97.000000,0.000000,4227.436035,4229.230957,4225.897461,4258.846191,4235.000000,4227.820313,4226.666504,4238.974121,4227.948730,4231.410156,4225.000000,4191.538574,4290.128418,4234.743652,0.000000,4.000000,86.000000,,,,0.000000,4.000000,4.000000,4.000000,4.000000,4.000000,4.000000,4.000000,4.000000,4.000000,4.000000,4.000000,4.000000,4.000000,4.000000,100.000000,,,,,,,,,,,,,,,,
1645711221.506327,1645711221.524959,98.000000,0.000000,4222.179688,4232.820313,4229.358887,4263.333496,4238.333496,4228.461426,4228.461426,4243.077148,4231.538574,4245.128418,4232.948730,4197.051270,4296.922852,4236.922852,0.000000,4.000000,86.000000,,,,0.000000,4.000000,4.000000,4.000000,4.000000,4.000000,4.000000,4.000000,4.000000,4.000000,4.000000,4.000000,4.000000,4.000000,4.000000,100.000000,,,,,,,,,,,,,,,,
1645711221.510265,1645711221.528898,99.000000,0.000000,4221.666504,4237.436035,4231.282227,4266.922852,4242.307617,4232.563965,4227.820313,4246.025879,4235.256348,4252.179688,4238.589844,4199.230957,4302.692383,4234.615234,0.000000,4.000000,86.000000,,,,0.000000,4.000000,4.000000,4.000000,4.000000,4.000000,4.000000,4.000000,4.000000,4.000000,4.000000,4.000000,4.000000,4.000000,4.000000,100.000000,,,,,,,,,,,,,,,,
1645711221.514204,1645711221.532836,100.000000,0.000000,4228.846191,4238.205078,4230.384766,4265.512695,4245.769043,4237.820313,4225.384766,4244.487305,4235.512695,4245.512695,4235.897461,4196.410156,4302.563965,4230.128418,0.000000,4.000000,86.000000,,,,0.000000,4.000000,4.000000,4.000000,4.000000,4.000000,4.000000,4.000000,4.000000,4.000000,4.000000,4.000000,4.000000,4.000000,4.000000,100.000000,,,,,,,,,,,,,,,,
1645711221.518143,1645711221.536775,101.000000,0.000000,4237.692383,4237.307617,4229.743652,4263.333496,4253.205078,4243.974121,4225.256348,4241.153809,4233.077148,4233.846191,4228.974121,4192.563965,4298.974121,4228.333496,0.000000,4.000000,86.000000,,,,0.000000,4.000000,4.000000,4.000000,4.000000,4.000000,4.000000,4.000000,4.000000,4.000000,4.000000,4.000000,4.000000,4.000000,4.000000,100.000000,,,,,,,,,,,,,,,,
1645711221.522082,1645711221.540713,102.000000,0.000000,4240.128418,4239.743652,4232.692383,4266.922852,4265.256348,4250.000000,4229.487305,4241.025879,4231.410156,4231.153809,4226.025879,4192.692383,4297.436035,4231.153809,0.000000,4.000000,86.000000,,,,0.000000,4.000000,4.000000,4.000000,4.000000,4.000000,4.000000,4.000000,4.000000,4.000000,4.000000,4.000000,4.000000,4.000000,4.000000,100.000000,,,,,,,,,,,,,,,,
1645711221.526021,1645711221.544652,103.000000,0.000000,4236.922852,4245.641113,4238.589844,4275.256348,4273.974121,4251.794922,4235.256348,4245.128418,4231.922852,4240.769043,4229.358887,4196.538574,4300.384766,4235.769043,0.000000,4.000000,86.000000,,,,0.000000,4.000000,4.000000,4.000000,4.000000,4.000000,4.000000,4.000000,4.000000,4.000000,4.000000,4.000000,4.000000,4.000000,4.000000,100.000000,,,,,,,,,,,,,,,,
1645711221.529960,1645711221.548590,104.000000,0.000000,4235.128418,4249.615234,4242.820313,4279.358887,4268.461426,4245.000000,4237.051270,4248.717773,4232.436035,4252.179688,4232.820313,4199.102539,4304.230957,4238.077148,0.000000,4.000000,86.000000,,,,0.000000,4.000000,4.000000,4.000000,4.000000,4.000000,4.000000,4.000000,4.000000,4.000000,4.000000,4.000000,4.000000,4.000000,4.000000,100.000000,,,,,,,,,,,,,,,,
1645711221.533899,1645711221.552528,105.000000,0.000000,4238.589844,4246.794922,4242.179688,4273.333496,4248.333496,4231.666504,4233.461426,4247.179688,4230.769043,4253.846191,4230.897461,4196.922852,4305.000000,4236.922852,0.000000,4.000000,86.000000,,,,0.000000,4.000000,4.000000,4.000000,4.000000,4.000000,4.000000,4.000000,4.000000,4.000000,4.000000,4.000000,4.000000,4.000000,4.000000,100.000000,,,,,,,,,,,,,,,,
1645711221.537838,1645711221.556367,106.000000,0.000000,4241.922852,4240.000000,4237.820313,4260.641113,4227.948730,4221.410156,4227.820313,4241.282227,4228.333496,4246.410156,4225.384766,4192.051270,4302.948730,4234.743652,0.000000,4.000000,86.000000,,,,0.000000,4.000000,4.000000,4.000000,4.000000,4.000000,4.000000,4.000000,4.000000,4.000000,4.000000,4.000000,4.000000,4.000000,4.000000,100.000000,,,,,,,,,,,,,,,,
1645711221.541777,1645711221.560306,107.000000,0.000000,4238.205078,4236.153809,4233.846191,4250.897461,4225.000000,4222.948730,4225.128418,4236.538574,4228.333496,4240.256348,4222.692383,4189.487305,4301.538574,4233.333496,0.000000,4.000000,86.000000,,,,0.000000,4.000000,4.000000,4.000000,4.000000,4.000000,4.000000,4.000000,4.000000,4.000000,4.000000,4.000000,4.000000,4.000000,4.000000,100.000000,,,,,,,,,,,,,,,,
1645711221.545715,1645711221.564245,108.000000,0.000000,4228.846191,4238.077148,4232.179688,4249.358887,4242.179688,4234.871582,4226.153809,4236.025879,4231.538574,4242.563965,4224.871582,4191.410156,4302.051270,4231.666504,0.000000,4.000000,86.000000,,,,0.000000,4.000000,4.000000,4.000000,4.000000,4.000000,4.000000,4.000000,4.000000,4.000000,4.000000,4.000000,4.000000,4.000000,4.000000,100.000000,,,,,,,,,,,,,,,,
1645711221.549654,1645711221.568183,109.000000,0.000000,4223.077148,4240.897461,4231.922852,4253.333496,4263.333496,4245.641113,4227.820313,4237.692383,4234.487305,4248.077148,4225.897461,4195.000000,4301.025879,4228.974121,0.000000,4.000000,86.000000,,,,0.000000,4.000000,4.000000,4.000000,4.000000,4.000000,4.000000,4.000000,4.000000,4.000000,4.000000,4.000000,4.000000,4.000000,4.000000,100.000000,,,,,,,,,,,,,,,,
1645711221.553593,1645711221.572122,110.000000,0.000000,4226.538574,4238.333496,4231.025879,4257.051270,4268.974121,4245.769043,4227.307617,4237.179688,4233.077148,4247.179688,4220.000000,4195.769043,4295.384766,4226.153809,0.000000,4.000000,86.000000,,,,0.000000,4.000000,4.000000,4.000000,4.000000,4.000000,4.000000,4.000000,4.000000,4.000000,4.000000,4.000000,4.000000,4.000000,4.000000,100.000000,,,,,,,,,,,,,,,,
1645711221.557532,1645711221.576061,111.000000,0.000000,4233.589844,4230.384766,4228.717773,4258.205078,4255.641113,4237.179688,4224.871582,4232.948730,4227.307617,4237.307617,4208.974121,4192.692383,4286.410156,4224.871582,0.000000,4.000000,86.000000,,,,0.000000,4.000000,4.000000,4.000000,4.000000,4.000000,4.000000,4.000000,4.000000,4.000000,4.000000,4.000000,4.000000,4.000000,4.000000,100.000000,,,,,,,,,,,,,,,,
1645711221.561471,1645711221.579999,112.000000,0.000000,4234.358887,4222.820313,4226.153809,4258.461426,4236.922852,4230.384766,4223.077148,4227.820313,4220.769043,4225.000000,4200.897461,4188.205078,4279.358887,4224.487305,0.000000,4.000000,86.000000,,,,0.000000,4.000000,4.000000,4.000000,4.000000,4.000000,4.000000,4.000000,4.000000,4.000000,4.000000,4.000000,4.000000,4.000000,4.000000,100.000000,,,,,,,,,,,,,,,,
1645711221.565410,1645711221.583938,113.000000,0.000000,4227.436035,4220.000000,4224.102539,4257.563965,4227.436035,4231.922852,4222.692383,4225.000000,4217.436035,4216.666504,4200.641113,4185.128418,4277.563965,4223.205078,0.000000,4.000000,86.000000,,,,0.000000,4.000000,4.000000,4.000000,4.000000,4.000000,4.000000,4.000000,4.000000,4.000000,4.000000,4.000000,4.000000,4.000000,4.000000,100.000000,,,,,,,,,,,,,,,,
1645711221.569349,1645711221.587877,114.000000,0.000000,4221.025879,4221.153809,4222.692383,4253.717773,4229.743652,4238.077148,4222.948730,4225.256348,4217.948730,4211.794922,4204.743652,4183.846191,4280.256348,4220.512695,0.000000,4.000000,86.000000,,,,0.000000,4.000000,4.000000,4.000000,4.000000,4.000000,4.000000,4.000000,4.000000,4.000000,4.000000,4.000000,4.000000,4.000000,4.000000,100.000000,,,,,,,,,,,,,,,,
