title:Alex-XLXQA4TsPWHNn310C5R8QQ, start timestamp:1644853552.231348, stop timestamp:1644853579.318954, headset type:EPOCPLUS, headset serial:3B9AEBFF, headset firmware:626, channels:55, sampling rate:eeg_256, samples:6876      , version:2.1, 
Timestamp,OriginalTimestamp,EEG.Counter,EEG.Interpolated,EEG.AF3,EEG.F7,EEG.F3,EEG.FC5,EEG.T7,EEG.P7,EEG.O1,EEG.O2,EEG.P8,EEG.T8,EEG.FC6,EEG.F4,EEG.F8,EEG.AF4,EEG.RawCq,EEG.Battery,EEG.BatteryPercent,MarkerIndex,MarkerType,MarkerValueInt,EEG.MarkerHardware,CQ.AF3,CQ.F7,CQ.F3,CQ.FC5,CQ.T7,CQ.P7,CQ.O1,CQ.O2,CQ.P8,CQ.T8,CQ.FC6,CQ.F4,CQ.F8,CQ.AF4,CQ.Overall,EQ.SampleRateQuality,EQ.OVERALL,EQ.AF3,EQ.F7,EQ.F3,EQ.FC5,EQ.T7,EQ.P7,EQ.O1,EQ.O2,EQ.P8,EQ.T8,EQ.FC6,EQ.F4,EQ.F8,EQ.AF4
1644853552.231348,1644853552.235736,82.000000,0.000000,4216.410156,4180.512695,4216.538574,4131.794922,4194.230957,4198.333496,4202.436035,4208.077148,4202.820313,4211.922852,4033.333252,4197.179688,4220.769043,4163.846191,0.000000,4.000000,86.000000,,,,0.000000,4.000000,4.000000,4.000000,4.000000,4.000000,4.000000,4.000000,4.000000,4.000000,4.000000,4.000000,4.000000,4.000000,4.000000,100.000000,,,,,,,,,,,,,,,,
1644853552.235288,1644853552.239776,83.000000,0.000000,4215.000000,4185.512695,4213.846191,4133.717773,4196.794922,4202.307617,4202.179688,4207.948730,4206.666504,4221.410156,4038.974365,4201.153809,4223.333496,4165.512695,0.000000,4.000000,86.000000,,,,0.000000,4.000000,4.000000,4.000000,4.000000,4.000000,4.000000,4.000000,4.000000,4.000000,4.000000,4.000000,4.000000,4.000000,4.000000,100.000000,,,,,,,,,,,,,,,,
1644853552.239228,1644853552.243717,84.000000,0.000000,4216.794922,4189.615234,4210.128418,4148.974121,4202.179688,4207.436035,4202.563965,4207.307617,4208.846191,4227.436035,4051.538574,4204.230957,4230.641113,4177.692383,0.000000,4.000000,86.000000,,,,0.000000,4.000000,4.000000,4.000000,4.000000,4.000000,4.000000,4.000000,4.000000,4.000000,4.000000,4.000000,4.000000,4.000000,4.000000,100.000000,,,,,,,,,,,,,,,,
1644853552.243168,1644853552.247657,85.000000,0.000000,4218.205078,4188.589844,4207.820313,4164.230957,4207.692383,4210.897461,4204.615234,4206.922852,4207.820313,4226.025879,4062.820557,4204.358887,4237.051270,4192.692383,0.000000,4.000000,86.000000,,,,0.000000,4.000000,4.000000,4.000000,4.000000,4.000000,4.000000,4.000000,4.000000,4.000000,4.000000,4.000000,4.000000,4.000000,4.000000,100.000000,,,,,,,,,,,,,,,,
1644853552.247108,1644853552.251597,86.000000,0.000000,4217.563965,4182.563965,4208.589844,4169.230957,4211.666504,4211.794922,4206.794922,4207.307617,4205.128418,4219.358887,4066.794922,4202.563965,4237.436035,4199.102539,0.000000,4.000000,86.000000,,,,0.000000,4.000000,4.000000,4.000000,4.000000,4.000000,4.000000,4.000000,4.000000,4.000000,4.000000,4.000000,4.000000,4.000000,4.000000,100.000000,,,,,,,,,,,,,,,,
1644853552.251048,1644853552.255538,87.000000,0.000000,4215.384766,4175.897461,4211.153809,4164.743652,4213.077148,4210.128418,4207.563965,4208.846191,4203.974121,4213.717773,4063.718018,4201.025879,4231.794922,4191.410156,0.000000,4.000000,86.000000,,,,0.000000,4.000000,4.000000,4.000000,4.000000,4.000000,4.000000,4.000000,4.000000,4.000000,4.000000,4.000000,4.000000,4.000000,4.000000,100.000000,,,,,,,,,,,,,,,,
1644853552.254988,1644853552.259478,88.000000,0.000000,4213.717773,4173.077148,4213.461426,4158.717773,4210.897461,4207.307617,4206.282227,4210.641113,4206.153809,4212.692383,4058.333252,4200.897461,4225.128418,4175.256348,0.000000,4.000000,86.000000,,,,0.000000,4.000000,4.000000,4.000000,4.000000,4.000000,4.000000,4.000000,4.000000,4.000000,4.000000,4.000000,4.000000,4.000000,4.000000,100.000000,,,,,,,,,,,,,,,,
1644853552.258928,1644853552.263418,89.000000,0.000000,4213.974121,4174.871582,4213.589844,4156.666504,4204.871582,4205.128418,4205.000000,4211.666504,4209.615234,4215.000000,4054.487061,4201.282227,4222.436035,4162.820313,0.000000,4.000000,86.000000,,,,0.000000,4.000000,4.000000,4.000000,4.000000,4.000000,4.000000,4.000000,4.000000,4.000000,4.000000,4.000000,4.000000,4.000000,4.000000,100.000000,,,,,,,,,,,,,,,,
1644853552.262868,1644853552.267359,90.000000,0.000000,4215.769043,4178.205078,4211.794922,4156.410156,4196.410156,4204.487305,4205.000000,4210.897461,4211.410156,4217.051270,4051.153809,4200.512695,4224.615234,4162.179688,0.000000,4.000000,86.000000,,,,0.000000,4.000000,4.000000,4.000000,4.000000,4.000000,4.000000,4.000000,4.000000,4.000000,4.000000,4.000000,4.000000,4.000000,4.000000,100.000000,,,,,,,,,,,,,,,,
1644853552.266808,1644853552.271299,91.000000,0.000000,4217.307617,4179.615234,4209.743652,4151.922852,4189.487305,4205.512695,4205.512695,4208.205078,4209.487305,4216.922852,4045.512939,4197.820313,4227.948730,4170.769043,0.000000,4.000000,86.000000,,,,0.000000,4.000000,4.000000,4.000000,4.000000,4.000000,4.000000,4.000000,4.000000,4.000000,4.000000,4.000000,4.000000,4.000000,4.000000,100.000000,,,,,,,,,,,,,,,,
1644853552.270748,1644853552.275240,92.000000,0.000000,4217.307617,4177.820313,4209.230957,4141.025879,4187.692383,4207.820313,4205.128418,4205.256348,4205.512695,4216.410156,4038.205078,4194.615234,4227.948730,4179.230957,0.000000,4.000000,86.000000,,,,0.000000,4.000000,4.000000,4.000000,4.000000,4.000000,4.000000,4.000000,4.000000,4.000000,4.000000,4.000000,4.000000,4.000000,4.000000,100.000000,,,,,,,,,,,,,,,,
1644853552.274688,1644853552.279180,93.000000,0.000000,4216.025879,4173.717773,4211.025879,4128.461426,4192.051270,4210.769043,4204.358887,4204.487305,4203.077148,4218.461426,4034.487061,4193.461426,4224.358887,4181.025879,0.000000,4.000000,86.000000,,,,0.000000,4.000000,4.000000,4.000000,4.000000,4.000000,4.000000,4.000000,4.000000,4.000000,4.000000,4.000000,4.000000,4.000000,4.000000,100.000000,,,,,,,,,,,,,,,,
1644853552.278628,1644853552.283120,94.000000,0.000000,4214.871582,4168.717773,4214.230957,4123.846191,4200.769043,4213.589844,4205.256348,4207.820313,4205.256348,4223.974121,4039.871826,4195.256348,4221.666504,4177.820313,0.000000,4.000000,86.000000,,,,0.000000,4.000000,4.000000,4.000000,4.000000,4.000000,4.000000,4.000000,4.000000,4.000000,4.000000,4.000000,4.000000,4.000000,4.000000,100.000000,,,,,,,,,,,,,,,,
1644853552.282568,1644853552.287061,95.000000,0.000000,4215.512695,4164.871582,4216.794922,4134.358887,4210.256348,4215.641113,4208.205078,4214.230957,4211.282227,4231.025879,4053.205078,4198.589844,4224.487305,4176.538574,0.000000,4.000000,86.000000,,,,0.000000,4.000000,4.000000,4.000000,4.000000,4.000000,4.000000,4.000000,4.000000,4.000000,4.000000,4.000000,4.000000,4.000000,4.000000,100.000000,,,,,,,,,,,,,,,,
1644853552.286508,1644853552.291001,96.000000,0.000000,4217.948730,4164.615234,4216.922852,4157.820313,4216.410156,4216.794922,4210.897461,4219.230957,4217.307617,4235.512695,4066.281982,4201.153809,4233.846191,4182.436035,0.000000,4.000000,86.000000,,,,0.000000,4.000000,4.000000,4.000000,4.000000,4.000000,4.000000,4.000000,4.000000,4.000000,4.000000,4.000000,4.000000,4.000000,4.000000,100.000000,,,,,,,,,,,,,,,,
1644853552.290448,1644853552.294941,97.000000,0.000000,4220.641113,4168.077148,4214.615234,4181.538574,4216.153809,4216.666504,4210.641113,4219.358887,4218.717773,4234.230957,4069.615479,4202.179688,4244.871582,4192.820313,0.000000,4.000000,86.000000,,,,0.000000,4.000000,4.000000,4.000000,4.000000,4.000000,4.000000,4.000000,4.000000,4.000000,4.000000,4.000000,4.000000,4.000000,4.000000,100.000000,,,,,,,,,,,,,,,,
1644853552.294388,1644853552.298882,98.000000,0.000000,4221.538574,4172.307617,4212.051270,4190.000000,4210.128418,4215.256348,4207.563965,4214.743652,4214.615234,4227.436035,4061.538574,4202.948730,4250.256348,4199.230957,0.000000,4.000000,86.000000,,,,0.000000,4.000000,4.000000,4.000000,4.000000,4.000000,4.000000,4.000000,4.000000,4.000000,4.000000,4.000000,4.000000,4.000000,4.000000,100.000000,,,,,,,,,,,,,,,,
1644853552.298328,1644853552.302822,99.000000,0.000000,4220.384766,4172.692383,4211.922852,4176.153809,4201.794922,4213.077148,4205.384766,4209.743652,4208.205078,4219.487305,4049.358887,4204.743652,4246.666504,4195.641113,0.000000,4.000000,86.000000,,,,0.000000,4.000000,4.000000,4.000000,4.000000,4.000000,4.000000,4.000000,4.000000,4.000000,4.000000,4.000000,4.000000,4.000000,4.000000,100.000000,,,,,,,,,,,,,,,,
1644853552.302268,1644853552.306762,100.000000,0.000000,4217.692383,4167.051270,4215.256348,4148.077148,4195.128418,4211.538574,4207.051270,4208.333496,4204.487305,4216.282227,4043.846191,4207.692383,4237.436035,4183.589844,0.000000,4.000000,86.000000,,,,0.000000,4.000000,4.000000,4.000000,4.000000,4.000000,4.000000,4.000000,4.000000,4.000000,4.000000,4.000000,4.000000,4.000000,4.000000,100.000000,,,,,,,,,,,,,,,,
1644853552.306208,1644853552.310803,101.000000,0.000000,4215.512695,4158.846191,4219.871582,4123.717773,4192.692383,4212.563965,4211.538574,4211.410156,4206.410156,4220.769043,4048.974365,4211.282227,4230.641113,4172.051270,0.000000,4.000000,86.000000,,,,0.000000,4.000000,4.000000,4.000000,4.000000,4.000000,4.000000,4.000000,4.000000,4.000000,4.000000,4.000000,4.000000,4.000000,4.000000,100.000000,,,,,,,,,,,,,,,,
1644853552.310148,1644853552.314743,102.000000,0.000000,4215.384766,4154.358887,4222.692383,4118.333496,4195.256348,4216.538574,4214.871582,4217.051270,4213.333496,4230.384766,4059.871826,4214.743652,4232.051270,4170.128418,0.000000,4.000000,86.000000,,,,0.000000,4.000000,4.000000,4.000000,4.000000,4.000000,4.000000,4.000000,4.000000,4.000000,4.000000,4.000000,4.000000,4.000000,4.000000,100.000000,1.000000,41.666668,4.000000,4.000000,4.000000,1.000000,3.000000,4.000000,4.000000,4.000000,4.000000,4.000000,1.000000,4.000000,4.000000,4.000000
1644853552.314088,1644853552.318684,103.000000,0.000000,4217.948730,4158.077148,4221.666504,4134.615234,4201.922852,4221.538574,4214.487305,4221.794922,4220.897461,4238.846191,4067.564209,4218.205078,4239.615234,4180.000000,0.000000,4.000000,86.000000,,,,0.000000,4.000000,4.000000,4.000000,4.000000,4.000000,4.000000,4.000000,4.000000,4.000000,4.000000,4.000000,4.000000,4.000000,4.000000,100.000000,,,,,,,,,,,,,,,,
1644853552.318028,1644853552.322624,104.000000,0.000000,4220.897461,4167.692383,4218.461426,4161.410156,4210.512695,4223.717773,4212.051270,4223.846191,4223.974121,4240.897461,4067.179443,4220.897461,4245.512695,4194.871582,0.000000,4.000000,86.000000,,,,0.000000,4.000000,4.000000,4.000000,4.000000,4.000000,4.000000,4.000000,4.000000,4.000000,4.000000,4.000000,4.000000,4.000000,4.000000,100.000000,,,,,,,,,,,,,,,,
1644853552.321968,1644853552.326565,105.000000,0.000000,4220.769043,4175.384766,4215.384766,4181.794922,4216.282227,4220.128418,4210.384766,4222.820313,4221.025879,4236.153809,4060.384521,4220.256348,4242.820313,4204.615234,0.000000,4.000000,86.000000,,,,0.000000,4.000000,4.000000,4.000000,4.000000,4.000000,4.000000,4.000000,4.000000,4.000000,4.000000,4.000000,4.000000,4.000000,4.000000,100.000000,,,,,,,,,,,,,,,,
1644853552.325908,1644853552.330506,106.000000,0.000000,4216.410156,4173.077148,4213.974121,4185.512695,4215.128418,4211.922852,4210.000000,4219.487305,4214.487305,4228.205078,4052.820557,4214.743652,4231.538574,4202.692383,0.000000,4.000000,86.000000,,,,0.000000,4.000000,4.000000,4.000000,4.000000,4.000000,4.000000,4.000000,4.000000,4.000000,4.000000,4.000000,4.000000,4.000000,4.000000,100.000000,,,,,,,,,,,,,,,,
1644853552.329848,1644853552.334446,107.000000,0.000000,4210.512695,4159.743652,4213.589844,4176.153809,4207.436035,4204.102539,4208.974121,4215.384766,4208.974121,4221.922852,4050.641113,4205.512695,4218.846191,4190.897461,0.000000,4.000000,86.000000,,,,0.000000,4.000000,4.000000,4.000000,4.000000,4.000000,4.000000,4.000000,4.000000,4.000000,4.000000,4.000000,4.000000,4.000000,4.000000,100.000000,,,,,,,,,,,,,,,,
1644853552.333788,1644853552.338387,108.000000,0.000000,4206.794922,4142.563965,4212.692383,4166.666504,4199.615234,4201.153809,4206.410156,4212.692383,4207.307617,4219.871582,4055.000000,4196.794922,4213.717773,4177.051270,0.000000,4.000000,86.000000,,,,0.000000,4.000000,4.000000,4.000000,4.000000,4.000000,4.000000,4.000000,4.000000,4.000000,4.000000,4.000000,4.000000,4.000000,4.000000,100.000000,,,,,,,,,,,,,,,,
1644853552.337728,1644853552.342327,109.000000,0.000000,4207.179688,4133.846191,4210.897461,4167.051270,4198.717773,4203.974121,4203.717773,4212.692383,4208.846191,4221.025879,4061.153809,4193.717773,4219.230957,4168.589844,0.000000,4.000000,86.000000,,,,0.000000,4.000000,4.000000,4.000000,4.000000,4.000000,4.000000,4.000000,4.000000,4.000000,4.000000,4.000000,4.000000,4.000000,4.000000,100.000000,,,,,,,,,,,,,,,,
1644853552.341668,1644853552.346268,110.000000,0.000000,4210.256348,4141.025879,4209.615234,4174.615234,4204.871582,4208.717773,4203.333496,4215.512695,4211.153809,4222.692383,4062.435791,4197.948730,4229.487305,4167.692383,0.000000,4.000000,86.000000,,,,0.000000,4.000000,4.000000,4.000000,4.000000,4.000000,4.000000,4.000000,4.000000,4.000000,4.000000,4.000000,4.000000,4.000000,4.000000,100.000000,,,,,,,,,,,,,,,,
1644853552.345608,1644853552.350209,111.000000,0.000000,4212.692383,4160.128418,4209.743652,4176.666504,4209.743652,4211.282227,4205.512695,4219.230957,4212.436035,4222.692383,4056.410156,4206.410156,4234.615234,4170.897461,0.000000,4.000000,86.000000,,,,0.000000,4.000000,4.000000,4.000000,4.000000,4.000000,4.000000,4.000000,4.000000,4.000000,4.000000,4.000000,4.000000,4.000000,4.000000,100.000000,,,,,,,,,,,,,,,,
1644853552.349548,1644853552.354149,112.000000,0.000000,4211.922852,4178.589844,4211.153809,4163.717773,4204.230957,4210.128418,4207.820313,4220.384766,4211.922852,4220.897461,4047.692383,4213.077148,4228.846191,4173.333496,0.000000,4.000000,86.000000,,,,0.000000,4.000000,4.000000,4.000000,4.000000,4.000000,4.000000,4.000000,4.000000,4.000000,4.000000,4.000000,4.000000,4.000000,4.000000,100.000000,,,,,,,,,,,,,,,,
1644853552.353488,1644853552.358090,113.000000,0.000000,4207.692383,4185.000000,4213.333496,4139.871582,4188.077148,4207.563965,4208.205078,4217.692383,4210.128418,4218.589844,4042.307617,4213.333496,4215.641113,4173.077148,0.000000,4.000000,86.000000,,,,0.000000,4.000000,4.000000,4.000000,4.000000,4.000000,4.000000,4.000000,4.000000,4.000000,4.000000,4.000000,4.000000,4.000000,4.000000,100.000000,,,,,,,,,,,,,,,,
1644853552.357428,1644853552.362030,114.000000,0.000000,4201.410156,4177.563965,4215.128418,4121.538574,4171.666504,4206.794922,4206.538574,4212.820313,4207.179688,4217.692383,4042.307617,4207.051270,4204.487305,4171.538574,0.000000,4.000000,86.000000,,,,0.000000,4.000000,4.000000,4.000000,4.000000,4.000000,4.000000,4.000000,4.000000,4.000000,4.000000,4.000000,4.000000,4.000000,4.000000,100.000000,,,,,,,,,,,,,,,,
1644853552.361369,1644853552.365971,115.000000,0.000000,4196.025879,4165.641113,4215.897461,4124.615234,4167.307617,4209.230957,4205.000000,4208.717773,4203.461426,4219.487305,4045.128174,4198.974121,4203.333496,4171.410156,0.000000,4.000000,86.000000,,,,0.000000,4.000000,4.000000,4.000000,4.000000,4.000000,4.000000,4.000000,4.000000,4.000000,4.000000,4.000000,4.000000,4.000000,4.000000,100.000000,,,,,,,,,,,,,,,,
1644853552.365308,1644853552.369911,116.000000,0.000000,4194.358887,4160.384766,4215.000000,4149.871582,4180.128418,4213.205078,4204.615234,4207.307617,4200.256348,4223.077148,4048.461426,4194.358887,4212.563965,4173.974121,0.000000,4.000000,86.000000,,,,0.000000,4.000000,4.000000,4.000000,4.000000,4.000000,4.000000,4.000000,4.000000,4.000000,4.000000,4.000000,4.000000,4.000000,4.000000,100.000000,,,,,,,,,,,,,,,,
1644853552.369249,1644853552.373852,117.000000,0.000000,4198.205078,4165.000000,4212.820313,4181.538574,4202.948730,4215.641113,4205.000000,4208.333496,4198.846191,4226.282227,4051.410156,4194.871582,4224.871582,4178.333496,0.000000,4.000000,86.000000,,,,0.000000,4.000000,4.000000,4.000000,4.000000,4.000000,4.000000,4.000000,4.000000,4.000000,4.000000,4.000000,4.000000,4.000000,4.000000,100.000000,,,,,,,,,,,,,,,,
1644853552.373189,1644853552.377793,118.000000,0.000000,4206.025879,4174.102539,4210.897461,4199.358887,4221.666504,4214.487305,4205.512695,4210.128418,4200.000000,4226.666504,4053.846191,4198.205078,4232.051270,4182.436035,0.000000,4.000000,86.000000,,,,0.000000,4.000000,4.000000,4.000000,4.000000,4.000000,4.000000,4.000000,4.000000,4.000000,4.000000,4.000000,4.000000,4.000000,4.000000,100.000000,,,,,,,,,,,,,,,,
1644853552.377128,1644853552.381733,119.000000,0.000000,4213.461426,4179.358887,4210.641113,4194.615234,4225.256348,4211.410156,4206.666504,4211.282227,4202.692383,4223.077148,4055.256348,4200.641113,4230.128418,4184.358887,0.000000,4.000000,86.000000,,,,0.000000,4.000000,4.000000,4.000000,4.000000,4.000000,4.000000,4.000000,4.000000,4.000000,4.000000,4.000000,4.000000,4.000000,4.000000,100.000000,,,,,,,,,,,,,,,,
1644853552.381069,1644853552.385774,120.000000,0.000000,4216.153809,4177.692383,4212.179688,4176.282227,4213.333496,4209.743652,4209.358887,4211.666504,4204.615234,4216.922852,4054.487061,4200.256348,4222.179688,4183.205078,0.000000,4.000000,86.000000,,,,0.000000,4.000000,4.000000,4.000000,4.000000,4.000000,4.000000,4.000000,4.000000,4.000000,4.000000,4.000000,4.000000,4.000000,4.000000,100.000000,,,,,,,,,,,,,,,,
1644853552.385008,1644853552.389714,121.000000,0.000000,4213.333496,4171.922852,4213.717773,4161.538574,4195.641113,4211.794922,4211.922852,4211.922852,4204.102539,4210.897461,4051.410156,4197.948730,4214.358887,4179.871582,0.000000,4.000000,86.000000,,,,0.000000,4.000000,4.000000,4.000000,4.000000,4.000000,4.000000,4.000000,4.000000,4.000000,4.000000,4.000000,4.000000,4.000000,4.000000,100.000000,,,,,,,,,,,,,,,,
1644853552.388949,1644853552.393655,122.000000,0.000000,4207.179688,4167.563965,4213.717773,4160.256348,4184.487305,4216.410156,4211.666504,4212.820313,4202.051270,4208.461426,4047.692383,4196.025879,4211.153809,4176.538574,0.000000,4.000000,86.000000,,,,0.000000,4.000000,4.000000,4.000000,4.000000,4.000000,4.000000,4.000000,4.000000,4.000000,4.000000,4.000000,4.000000,4.000000,4.000000,100.000000,,,,,,,,,,,,,,,,
1644853552.392889,1644853552.397595,123.000000,0.000000,4200.769043,4167.692383,4212.307617,4169.230957,4184.615234,4220.128418,4208.333496,4213.974121,4200.641113,4211.153809,4045.897461,4195.512695,4211.922852,4175.000000,0.000000,4.000000,86.000000,,,,0.000000,4.000000,4.000000,4.000000,4.000000,4.000000,4.000000,4.000000,4.000000,4.000000,4.000000,4.000000,4.000000,4.000000,4.000000,100.000000,,,,,,,,,,,,,,,,
1644853552.396829,1644853552.401536,124.000000,0.000000,4195.897461,4170.641113,4211.410156,4177.179688,4191.153809,4220.000000,4205.000000,4214.615234,4201.282227,4217.692383,4047.820557,4196.025879,4212.820313,4175.384766,0.000000,4.000000,86.000000,,,,0.000000,4.000000,4.000000,4.000000,4.000000,4.000000,4.000000,4.000000,4.000000,4.000000,4.000000,4.000000,4.000000,4.000000,4.000000,100.000000,,,,,,,,,,,,,,,,
1644853552.400769,1644853552.405477,125.000000,0.000000,4193.205078,4172.307617,4212.692383,4177.051270,4195.769043,4217.051270,4205.384766,4213.974121,4204.102539,4225.000000,4052.307617,4197.307617,4211.282227,4176.282227,0.000000,4.000000,86.000000,,,,0.000000,4.000000,4.000000,4.000000,4.000000,4.000000,4.000000,4.000000,4.000000,4.000000,4.000000,4.000000,4.000000,4.000000,4.000000,100.000000,,,,,,,,,,,,,,,,
1644853552.404709,1644853552.409417,126.000000,0.000000,4193.333496,4169.743652,4215.384766,4171.538574,4194.743652,4214.487305,4209.743652,4212.436035,4207.563965,4229.230957,4055.897461,4199.487305,4208.205078,4175.512695,0.000000,4.000000,86.000000,,,,0.000000,4.000000,4.000000,4.000000,4.000000,4.000000,4.000000,4.000000,4.000000,4.000000,4.000000,4.000000,4.000000,4.000000,4.000000,100.000000,,,,,,,,,,,,,,,,
1644853552.408649,1644853552.413358,127.000000,0.000000,4195.769043,4163.461426,4217.307617,4168.461426,4191.538574,4215.128418,4213.846191,4210.897461,4209.615234,4228.461426,4055.512939,4202.307617,4207.436035,4172.948730,0.000000,4.000000,86.000000,,,,0.000000,4.000000,4.000000,4.000000,4.000000,4.000000,4.000000,4.000000,4.000000,4.000000,4.000000,4.000000,4.000000,4.000000,4.000000,100.000000,,,,,,,,,,,,,,,,
1644853552.412589,1644853552.417298,128.000000,0.000000,4199.871582,4157.948730,4216.282227,4172.820313,4191.666504,4218.461426,4214.230957,4210.512695,4208.846191,4223.974121,4050.641113,4204.871582,4210.384766,4170.256348,3408.000000,4.000000,86.000000,,,,0.000000,4.000000,4.000000,4.000000,4.000000,4.000000,4.000000,4.000000,4.000000,4.000000,4.000000,4.000000,4.000000,4.000000,4.000000,100.000000,,,,,,,,,,,,,,,,
1644853552.416529,1644853552.421239,129.000000,0.000000,4205.128418,4158.077148,4212.179688,4181.922852,4197.051270,4221.538574,4211.153809,4211.410156,4205.769043,4219.358887,4044.615479,4205.256348,4215.000000,4169.743652,3420.000000,4.000000,86.000000,,,,0.000000,4.000000,4.000000,4.000000,4.000000,4.000000,4.000000,4.000000,4.000000,4.000000,4.000000,4.000000,4.000000,4.000000,4.000000,100.000000,,,,,,,,,,,,,,,,
1644853552.420469,1644853552.425180,130.000000,0.000000,4210.897461,4165.256348,4207.820313,4190.641113,4204.871582,4222.436035,4208.717773,4213.589844,4202.051270,4217.436035,4043.718018,4203.333496,4217.692383,4172.563965,3307.000000,4.000000,86.000000,,,,0.000000,4.000000,4.000000,4.000000,4.000000,4.000000,4.000000,4.000000,4.000000,4.000000,4.000000,4.000000,4.000000,4.000000,4.000000,100.000000,,,,,,,,,,,,,,,,
1644853552.424409,1644853552.429120,131.000000,0.000000,4215.897461,4176.282227,4205.897461,4194.871582,4210.897461,4221.666504,4209.487305,4215.769043,4200.128418,4219.230957,4051.923096,4200.769043,4218.461426,4177.692383,3525.000000,4.000000,86.000000,,,,0.000000,4.000000,4.000000,4.000000,4.000000,4.000000,4.000000,4.000000,4.000000,4.000000,4.000000,4.000000,4.000000,4.000000,4.000000,100.000000,,,,,,,,,,,,,,,,
1644853552.428349,1644853552.433061,132.000000,0.000000,4218.205078,4185.128418,4207.179688,4193.974121,4213.461426,4220.769043,4212.051270,4216.666504,4201.025879,4223.461426,4066.666748,4199.615234,4220.128418,4183.461426,3335.000000,4.000000,86.000000,,,,0.000000,4.000000,4.000000,4.000000,4.000000,4.000000,4.000000,4.000000,4.000000,4.000000,4.000000,4.000000,4.000000,4.000000,4.000000,100.000000,,,,,,,,,,,,,,,,
1644853552.432289,1644853552.437001,133.000000,0.000000,4216.794922,4187.563965,4210.128418,4188.589844,4213.589844,4219.871582,4212.948730,4216.282227,4204.230957,4227.820313,4079.487061,4200.256348,4224.102539,4187.820313,3340.000000,4.000000,86.000000,,,,0.000000,4.000000,4.000000,4.000000,4.000000,4.000000,4.000000,4.000000,4.000000,4.000000,4.000000,4.000000,4.000000,4.000000,4.000000,100.000000,,,,,,,,,,,,,,,,
1644853552.436229,1644853552.440942,134.000000,0.000000,4212.307617,4183.589844,4212.179688,4181.153809,4211.538574,4218.717773,4211.666504,4215.512695,4207.692383,4230.000000,4082.307617,4201.794922,4228.717773,4189.487305,2407.000000,4.000000,86.000000,,,,0.000000,4.000000,4.000000,4.000000,4.000000,4.000000,4.000000,4.000000,4.000000,4.000000,4.000000,4.000000,4.000000,4.000000,4.000000,100.000000,,,,,,,,,,,,,,,,
1644853552.440169,1644853552.444982,135.000000,0.000000,4206.025879,4177.051270,4212.179688,4175.512695,4206.922852,4217.436035,4210.256348,4215.256348,4209.358887,4228.846191,4075.256348,4202.307617,4229.871582,4187.948730,3049.000000,4.000000,86.000000,,,,0.000000,4.000000,4.000000,4.000000,4.000000,4.000000,4.000000,4.000000,4.000000,4.000000,4.000000,4.000000,4.000000,4.000000,4.000000,100.000000,,,,,,,,,,,,,,,,
1644853552.444109,1644853552.448923,136.000000,0.000000,4199.358887,4171.794922,4211.153809,4175.512695,4200.256348,4216.538574,4210.641113,4215.000000,4208.461426,4225.128418,4065.769287,4201.153809,4225.384766,4183.461426,3285.000000,4.000000,86.000000,,,,0.000000,4.000000,4.000000,4.000000,4.000000,4.000000,4.000000,4.000000,4.000000,4.000000,4.000000,4.000000,4.000000,4.000000,4.000000,100.000000,,,,,,,,,,,,,,,,
1644853552.448049,1644853552.452864,137.000000,0.000000,4193.461426,4170.000000,4210.128418,4181.666504,4194.615234,4216.538574,4211.794922,4214.615234,4206.666504,4221.153809,4062.948730,4199.487305,4216.922852,4176.794922,3562.000000,4.000000,86.000000,,,,0.000000,4.000000,4.000000,4.000000,4.000000,4.000000,4.000000,4.000000,4.000000,4.000000,4.000000,4.000000,4.000000,4.000000,4.000000,100.000000,,,,,,,,,,,,,,,,
1644853552.451989,1644853552.456804,138.000000,0.000000,4190.512695,4171.153809,4209.743652,4190.256348,4193.333496,4216.538574,4212.307617,4214.230957,4206.538574,4219.871582,4069.230713,4198.846191,4209.102539,4170.512695,3542.000000,4.000000,86.000000,1,1,0,0.000000,4.000000,4.000000,4.000000,4.000000,4.000000,4.000000,4.000000,4.000000,4.000000,4.000000,4.000000,4.000000,4.000000,4.000000,100.000000,,,,,,,,,,,,,,,,
1644853552.455929,1644853552.460845,139.000000,0.000000,4192.692383,4173.077148,4209.358887,4196.153809,4196.794922,4216.410156,4211.794922,4214.615234,4208.974121,4222.307617,4078.846191,4200.128418,4206.666504,4168.461426,3119.000000,4.000000,86.000000,,,,0.000000,4.000000,4.000000,4.000000,4.000000,4.000000,4.000000,4.000000,4.000000,4.000000,4.000000,4.000000,4.000000,4.000000,4.000000,100.000000,,,,,,,,,,,,,,,,
1644853552.459869,1644853552.464785,140.000000,0.000000,4200.384766,4173.717773,4208.205078,4196.410156,4202.051270,4216.282227,4211.794922,4216.282227,4212.692383,4227.692383,4083.461426,4201.794922,4211.282227,4173.589844,3313.000000,4.000000,86.000000,,,,0.000000,4.000000,4.000000,4.000000,4.000000,4.000000,4.000000,4.000000,4.000000,4.000000,4.000000,4.000000,4.000000,4.000000,4.000000,100.000000,,,,,,,,,,,,,,,,
1644853552.463809,1644853552.468726,141.000000,0.000000,4210.000000,4172.692383,4207.179688,4191.410156,4205.384766,4216.666504,4212.820313,4218.717773,4215.512695,4233.846191,4079.615479,4202.307617,4220.384766,4184.615234,3514.000000,4.000000,86.000000,,,,0.000000,4.000000,4.000000,4.000000,4.000000,4.000000,4.000000,4.000000,4.000000,4.000000,4.000000,4.000000,4.000000,4.000000,4.000000,100.000000,,,,,,,,,,,,,,,,
1644853552.467749,1644853552.472666,142.000000,0.000000,4216.153809,4171.025879,4207.436035,4183.846191,4205.384766,4217.563965,4213.717773,4220.128418,4216.153809,4238.205078,4071.538574,4201.538574,4228.974121,4196.538574,3542.000000,4.000000,86.000000,,,,0.000000,4.000000,4.000000,4.000000,4.000000,4.000000,4.000000,4.000000,4.000000,4.000000,4.000000,4.000000,4.000000,4.000000,4.000000,100.000000,,,,,,,,,,,,,,,,
1644853552.471689,1644853552.476607,143.000000,0.000000,4215.384766,4170.128418,4210.256348,4177.692383,4203.205078,4218.461426,4212.563965,4219.358887,4215.384766,4239.230957,4066.153809,4201.538574,4232.436035,4202.307617,3119.000000,4.000000,86.000000,,,,0.000000,4.000000,4.000000,4.000000,4.000000,4.000000,4.000000,4.000000,4.000000,4.000000,4.000000,4.000000,4.000000,4.000000,4.000000,100.000000,,,,,,,,,,,,,,,,
1644853552.475629,1644853552.480547,144.000000,0.000000,4209.487305,4170.512695,4215.512695,4177.051270,4200.641113,4218.846191,4210.128418,4216.538574,4214.358887,4237.307617,4067.692383,4204.102539,4229.102539,4199.230957,3313.000000,4.000000,86.000000,,,,0.000000,4.000000,4.000000,4.000000,4.000000,4.000000,4.000000,4.000000,4.000000,4.000000,4.000000,4.000000,4.000000,4.000000,4.000000,100.000000,,,,,,,,,,,,,,,,
1644853552.479569,1644853552.484488,145.000000,0.000000,4204.358887,4172.307617,4221.538574,4183.717773,4200.256348,4218.589844,4208.461426,4213.846191,4213.461426,4234.615234,4074.230713,4209.615234,4221.922852,4191.410156,3514.000000,4.000000,86.000000,,,,0.000000,4.000000,4.000000,4.000000,4.000000,4.000000,4.000000,4.000000,4.000000,4.000000,4.000000,4.000000,4.000000,4.000000,4.000000,100.000000,,,,,,,,,,,,,,,,
1644853552.483509,1644853552.488429,146.000000,0.000000,4204.871582,4175.256348,4226.410156,4194.871582,4203.589844,4218.205078,4209.358887,4212.820313,4212.051270,4233.077148,4082.692383,4215.769043,4216.410156,4186.410156,3542.000000,4.000000,86.000000,,,,0.000000,4.000000,4.000000,4.000000,4.000000,4.000000,4.000000,4.000000,4.000000,4.000000,4.000000,4.000000,4.000000,4.000000,4.000000,100.000000,,,,,,,,,,,,,,,,
1644853552.487449,1644853552.492369,147.000000,0.000000,4211.410156,4179.487305,4228.846191,4203.333496,4209.871582,4218.077148,4211.410156,4213.717773,4210.384766,4233.461426,4090.641113,4220.256348,4216.282227,4188.846191,3119.000000,4.000000,86.000000,,,,0.000000,4.000000,4.000000,4.000000,4.000000,4.000000,4.000000,4.000000,4.000000,4.000000,4.000000,4.000000,4.000000,4.000000,4.000000,100.000000,,,,,,,,,,,,,,,,
1644853552.491389,1644853552.496310,148.000000,0.000000,4219.871582,4184.487305,4229.230957,4202.692383,4214.743652,4218.077148,4212.307617,4214.743652,4209.102539,4234.487305,4097.051270,4221.538574,4221.282227,4196.153809,3313.000000,4.000000,86.000000,,,,0.000000,4.000000,4.000000,4.000000,4.000000,4.000000,4.000000,4.000000,4.000000,4.000000,4.000000,4.000000,4.000000,4.000000,4.000000,100.000000,,,,,,,,,,,,,,,,
1644853552.495329,1644853552.500250,149.000000,0.000000,4224.615234,4188.974121,4228.974121,4192.436035,4213.205078,4217.820313,4211.538574,4214.102539,4208.589844,4233.974121,4099.743652,4219.871582,4226.666504,4201.153809,3514.000000,4.000000,86.000000,,,,0.000000,4.000000,4.000000,4.000000,4.000000,4.000000,4.000000,4.000000,4.000000,4.000000,4.000000,4.000000,4.000000,4.000000,4.000000,100.000000,,,,,,,,,,,,,,,,
1644853552.499269,1644853552.504191,150.000000,0.000000,4223.077148,4191.025879,4228.333496,4178.205078,4204.615234,4216.794922,4210.641113,4211.922852,4208.077148,4230.000000,4096.153809,4216.282227,4228.077148,4198.461426,3542.000000,4.000000,86.000000,,,,0.000000,4.000000,4.000000,4.000000,4.000000,4.000000,4.000000,4.000000,4.000000,4.000000,4.000000,4.000000,4.000000,4.000000,4.000000,100.000000,,,,,,,,,,,,,,,,
1644853552.503209,1644853552.508132,151.000000,0.000000,4217.692383,4190.000000,4226.794922,4168.717773,4193.846191,4215.641113,4211.153809,4209.487305,4206.794922,4223.974121,4086.281982,4211.666504,4223.589844,4188.846191,3119.000000,4.000000,86.000000,,,,0.000000,4.000000,4.000000,4.000000,4.000000,4.000000,4.000000,4.000000,4.000000,4.000000,4.000000,4.000000,4.000000,4.000000,4.000000,100.000000,,,,,,,,,,,,,,,,
1644853552.507149,1644853552.512072,152.000000,0.000000,4212.948730,4186.794922,4223.333496,4170.256348,4187.692383,4214.743652,4212.179688,4207.948730,4205.000000,4219.358887,4075.512939,4206.282227,4215.512695,4178.077148,3313.000000,4.000000,86.000000,,,,0.000000,4.000000,4.000000,4.000000,4.000000,4.000000,4.000000,4.000000,4.000000,4.000000,4.000000,4.000000,4.000000,4.000000,4.000000,100.000000,,,,,,,,,,,,,,,,
1644853552.511089,1644853552.516013,153.000000,0.000000,4211.922852,4184.102539,4218.205078,4183.077148,4189.358887,4214.743652,4211.538574,4208.077148,4203.846191,4218.846191,4070.769287,4200.641113,4207.820313,4172.563965,3514.000000,4.000000,86.000000,,,,0.000000,4.000000,4.000000,4.000000,4.000000,4.000000,4.000000,4.000000,4.000000,4.000000,4.000000,4.000000,4.000000,4.000000,4.000000,100.000000,,,,,,,,,,,,,,,,
1644853552.515029,1644853552.520053,154.000000,0.000000,4214.358887,4183.461426,4213.846191,4200.641113,4196.282227,4215.256348,4209.615234,4209.358887,4204.487305,4221.282227,4074.871826,4196.666504,4204.230957,4174.615234,3542.000000,4.000000,86.000000,,,,0.000000,4.000000,4.000000,4.000000,4.000000,4.000000,4.000000,4.000000,4.000000,4.000000,4.000000,4.000000,4.000000,4.000000,4.000000,100.000000,,,,,,,,,,,,,,,,
1644853552.518969,1644853552.523993,155.000000,0.000000,4217.948730,4184.487305,4213.461426,4213.205078,4203.077148,4215.769043,4208.461426,4211.282227,4206.922852,4224.102539,4084.615479,4196.410156,4206.153809,4182.436035,3119.000000,4.000000,86.000000,,,,0.000000,4.000000,4.000000,4.000000,4.000000,4.000000,4.000000,4.000000,4.000000,4.000000,4.000000,4.000000,4.000000,4.000000,4.000000,100.000000,,,,,,,,,,,,,,,,
1644853552.522909,1644853552.527934,156.000000,0.000000,4220.000000,4185.769043,4217.563965,4213.974121,4205.000000,4215.641113,4209.358887,4213.077148,4210.384766,4225.641113,4092.820557,4200.000000,4213.077148,4191.410156,3313.000000,4.000000,86.000000,,,,0.000000,4.000000,4.000000,4.000000,4.000000,4.000000,4.000000,4.000000,4.000000,4.000000,4.000000,4.000000,4.000000,4.000000,4.000000,100.000000,,,,,,,,,,,,,,,,
1644853552.526849,1644853552.531874,157.000000,0.000000,4219.230957,4186.153809,4223.205078,4204.487305,4202.436035,4215.000000,4211.410156,4214.230957,4213.205078,4227.051270,4094.743652,4205.384766,4222.692383,4197.307617,3514.000000,4.000000,86.000000,,,,0.000000,4.000000,4.000000,4.000000,4.000000,4.000000,4.000000,4.000000,4.000000,4.000000,4.000000,4.000000,4.000000,4.000000,4.000000,100.000000,,,,,,,,,,,,,,,,
1644853552.530789,1644853552.535814,158.000000,0.000000,4215.641113,4186.025879,4226.666504,4193.333496,4199.358887,4214.487305,4212.051270,4214.358887,4214.102539,4230.384766,4092.564209,4210.000000,4232.051270,4198.589844,3542.000000,4.000000,86.000000,,,,0.000000,4.000000,4.000000,4.000000,4.000000,4.000000,4.000000,4.000000,4.000000,4.000000,4.000000,4.000000,4.000000,4.000000,4.000000,100.000000,,,,,,,,,,,,,,,,
1644853552.534729,1644853552.539755,159.000000,0.000000,4210.256348,4185.769043,4226.794922,4188.461426,4199.230957,4214.871582,4211.025879,4214.358887,4212.563965,4235.128418,4091.794922,4212.051270,4236.538574,4197.179688,3119.000000,4.000000,86.000000,,,,0.000000,4.000000,4.000000,4.000000,4.000000,4.000000,4.000000,4.000000,4.000000,4.000000,4.000000,4.000000,4.000000,4.000000,4.000000,100.000000,,,,,,,,,,,,,,,,
1644853552.538669,1644853552.543695,160.000000,0.000000,4204.487305,4185.000000,4225.256348,4191.410156,4202.051270,4216.282227,4210.128418,4215.384766,4210.000000,4237.948730,4096.282227,4211.282227,4233.077148,4195.897461,3313.000000,4.000000,86.000000,,,,0.000000,4.000000,4.000000,4.000000,4.000000,4.000000,4.000000,4.000000,4.000000,4.000000,4.000000,4.000000,4.000000,4.000000,4.000000,100.000000,,,,,,,,,,,,,,,,
1644853552.542609,1644853552.547635,161.000000,0.000000,4201.282227,4183.461426,4224.230957,4197.436035,4204.230957,4217.820313,4211.282227,4217.563965,4208.589844,4235.897461,4104.871582,4209.358887,4222.051270,4195.512695,3514.000000,4.000000,86.000000,,,,0.000000,4.000000,4.000000,4.000000,4.000000,4.000000,4.000000,4.000000,4.000000,4.000000,4.000000,4.000000,4.000000,4.000000,4.000000,100.000000,,,,,,,,,,,,,,,,
1644853552.546549,1644853552.551576,162.000000,0.000000,4203.461426,4181.666504,4224.743652,4200.000000,4201.025879,4218.717773,4213.589844,4220.000000,4210.256348,4229.487305,4111.794922,4208.077148,4210.512695,4195.000000,3542.000000,4.000000,86.000000,2,1,0,0.000000,4.000000,4.000000,4.000000,4.000000,4.000000,4.000000,4.000000,4.000000,4.000000,4.000000,4.000000,4.000000,4.000000,4.000000,100.000000,,,,,,,,,,,,,,,,
1644853552.550489,1644853552.555516,163.000000,0.000000,4210.512695,4181.025879,4225.641113,4196.025879,4191.794922,4219.102539,4214.358887,4220.897461,4215.000000,4223.333496,4111.025879,4208.589844,4207.051270,4193.077148,3119.000000,4.000000,86.000000,,,,0.000000,4.000000,4.000000,4.000000,4.000000,4.000000,4.000000,4.000000,4.000000,4.000000,4.000000,4.000000,4.000000,4.000000,4.000000,100.000000,,,,,,,,,,,,,,,,
1644853552.554429,1644853552.559456,164.000000,0.000000,4217.692383,4181.794922,4224.871582,4186.538574,4180.641113,4218.589844,4212.307617,4219.743652,4220.128418,4222.692383,4101.538574,4210.384766,4215.512695,4190.769043,3313.000000,4.000000,86.000000,,,,0.000000,4.000000,4.000000,4.000000,4.000000,4.000000,4.000000,4.000000,4.000000,4.000000,4.000000,4.000000,4.000000,4.000000,4.000000,100.000000,,,,,,,,,,,,,,,,
1644853552.558369,1644853552.563397,165.000000,0.000000,4220.512695,4182.948730,4221.794922,4176.538574,4175.512695,4217.051270,4209.358887,4217.563965,4222.436035,4228.077148,4088.846191,4212.179688,4230.641113,4190.512695,3514.000000,4.000000,86.000000,,,,0.000000,4.000000,4.000000,4.000000,4.000000,4.000000,4.000000,4.000000,4.000000,4.000000,4.000000,4.000000,4.000000,4.000000,4.000000,100.000000,,,,,,,,,,,,,,,,
1644853552.562309,1644853552.567337,166.000000,0.000000,4218.717773,4183.589844,4217.692383,4172.051270,4182.436035,4214.487305,4208.333496,4216.666504,4221.538574,4235.384766,4081.410156,4212.948730,4242.307617,4192.948730,3542.000000,4.000000,86.000000,,,,0.000000,4.000000,4.000000,4.000000,4.000000,4.000000,4.000000,4.000000,4.000000,4.000000,4.000000,4.000000,4.000000,4.000000,4.000000,100.000000,,,,,,,,,,,,,,,,
1644853552.566249,1644853552.571277,167.000000,0.000000,4215.512695,4184.102539,4215.512695,4176.025879,4199.487305,4212.307617,4210.000000,4217.692383,4219.615234,4240.384766,4083.974365,4212.820313,4242.948730,4196.153809,3119.000000,4.000000,86.000000,,,,0.000000,4.000000,4.000000,4.000000,4.000000,4.000000,4.000000,4.000000,4.000000,4.000000,4.000000,4.000000,4.000000,4.000000,4.000000,100.000000,,,,,,,,,,,,,,,,
1644853552.570189,1644853552.575218,168.000000,0.000000,4214.487305,4185.769043,4217.307617,4186.922852,4217.307617,4212.692383,4212.307617,4219.230957,4219.358887,4241.922852,4094.358887,4213.077148,4233.846191,4196.794922,3313.000000,4.000000,86.000000,,,,0.000000,4.000000,4.000000,4.000000,4.000000,4.000000,4.000000,4.000000,4.000000,4.000000,4.000000,4.000000,4.000000,4.000000,4.000000,100.000000,,,,,,,,,,,,,,,,
1644853552.574129,1644853552.579158,169.000000,0.000000,4215.641113,4189.102539,4222.436035,4198.974121,4225.512695,4216.922852,4213.589844,4219.230957,4221.025879,4241.410156,4106.153809,4214.615234,4222.563965,4194.743652,3514.000000,4.000000,86.000000,,,,0.000000,4.000000,4.000000,4.000000,4.000000,4.000000,4.000000,4.000000,4.000000,4.000000,4.000000,4.000000,4.000000,4.000000,4.000000,100.000000,,,,,,,,,,,,,,,,
1644853552.578069,1644853552.583098,170.000000,0.000000,4216.282227,4193.205078,4228.205078,4205.769043,4221.025879,4222.692383,4214.102539,4216.666504,4221.538574,4239.358887,4113.589844,4216.666504,4216.922852,4192.820313,3542.000000,4.000000,86.000000,,,,0.000000,4.000000,4.000000,4.000000,4.000000,4.000000,4.000000,4.000000,4.000000,4.000000,4.000000,4.000000,4.000000,4.000000,4.000000,100.000000,,,,,,,,,,,,,,,,
1644853552.582009,1644853552.587039,171.000000,0.000000,4213.974121,4195.897461,4231.794922,4203.846191,4209.487305,4226.153809,4215.000000,4212.563965,4217.948730,4234.743652,4115.000000,4216.922852,4218.333496,4193.077148,3119.000000,4.000000,86.000000,,,,0.000000,4.000000,4.000000,4.000000,4.000000,4.000000,4.000000,4.000000,4.000000,4.000000,4.000000,4.000000,4.000000,4.000000,4.000000,100.000000,,,,,,,,,,,,,,,,
1644853552.585949,1644853552.591079,172.000000,0.000000,4209.743652,4195.897461,4231.410156,4194.743652,4199.743652,4225.128418,4215.769043,4208.717773,4210.769043,4226.922852,4111.538574,4214.615234,4222.692383,4194.230957,3313.000000,4.000000,86.000000,,,,0.000000,4.000000,4.000000,4.000000,4.000000,4.000000,4.000000,4.000000,4.000000,4.000000,4.000000,4.000000,4.000000,4.000000,4.000000,100.000000,,,,,,,,,,,,,,,,
1644853552.589889,1644853552.595020,173.000000,0.000000,4207.179688,4193.717773,4228.333496,4183.846191,4197.179688,4221.538574,4215.256348,4206.922852,4204.102539,4217.948730,4105.128418,4211.922852,4224.102539,4192.307617,3514.000000,4.000000,86.000000,,,,0.000000,4.000000,4.000000,4.000000,4.000000,4.000000,4.000000,4.000000,4.000000,4.000000,4.000000,4.000000,4.000000,4.000000,4.000000,100.000000,,,,,,,,,,,,,,,,
1644853552.593829,1644853552.598960,174.000000,0.000000,4209.743652,4190.512695,4224.871582,4177.692383,4201.025879,4219.487305,4213.461426,4207.692383,4202.179688,4212.051270,4097.820313,4211.538574,4219.487305,4185.641113,3542.000000,4.000000,86.000000,,,,0.000000,4.000000,4.000000,4.000000,4.000000,4.000000,4.000000,4.000000,4.000000,4.000000,4.000000,4.000000,4.000000,4.000000,4.000000,100.000000,,,,,,,,,,,,,,,,
1644853552.597769,1644853552.602901,175.000000,0.000000,4216.538574,4187.820313,4223.589844,4179.358887,4205.128418,4220.769043,4212.563965,4209.615234,4205.384766,4211.538574,4091.666748,4213.717773,4210.641113,4177.051270,3119.000000,4.000000,86.000000,,,,0.000000,4.000000,4.000000,4.000000,4.000000,4.000000,4.000000,4.000000,4.000000,4.000000,4.000000,4.000000,4.000000,4.000000,4.000000,100.000000,,,,,,,,,,,,,,,,
1644853552.601709,1644853552.606842,176.000000,0.000000,4222.563965,4185.384766,4223.974121,4186.538574,4204.487305,4224.487305,4214.487305,4211.410156,4210.384766,4215.512695,4088.718018,4215.641113,4203.205078,4172.179688,3313.000000,4.000000,86.000000,,,,0.000000,4.000000,4.000000,4.000000,4.000000,4.000000,4.000000,4.000000,4.000000,4.000000,4.000000,4.000000,4.000000,4.000000,4.000000,100.000000,,,,,,,,,,,,,,,,
1644853552.605649,1644853552.610882,177.000000,0.000000,4222.820313,4183.589844,4223.205078,4192.436035,4199.230957,4227.436035,4218.077148,4212.179688,4213.205078,4220.512695,4089.615479,4214.487305,4202.436035,4175.128418,3514.000000,4.000000,86.000000,,,,0.000000,4.000000,4.000000,4.000000,4.000000,4.000000,4.000000,4.000000,4.000000,4.000000,4.000000,4.000000,4.000000,4.000000,4.000000,100.000000,,,,,,,,,,,,,,,,
1644853552.609589,1644853552.614822,178.000000,0.000000,4218.205078,4183.077148,4219.743652,4191.410156,4194.743652,4227.948730,4220.256348,4212.307617,4212.307617,4223.461426,4093.205078,4210.512695,4209.230957,4185.000000,3542.000000,4.000000,86.000000,,,,0.000000,4.000000,4.000000,4.000000,4.000000,4.000000,4.000000,4.000000,4.000000,4.000000,4.000000,4.000000,4.000000,4.000000,4.000000,100.000000,,,,,,,,,,,,,,,,
1644853552.613530,1644853552.618763,179.000000,0.000000,4213.461426,4184.615234,4215.128418,4183.205078,4196.282227,4226.153809,4219.487305,4212.820313,4209.358887,4224.230957,4096.922852,4206.922852,4219.102539,4196.666504,3119.000000,4.000000,86.000000,,,,0.000000,4.000000,4.000000,4.000000,4.000000,4.000000,4.000000,4.000000,4.000000,4.000000,4.000000,4.000000,4.000000,4.000000,4.000000,100.000000,,,,,,,,,,,,,,,,
1644853552.617469,1644853552.622703,180.000000,0.000000,4212.179688,4188.205078,4212.948730,4173.333496,4202.563965,4223.974121,4217.692383,4213.974121,4207.051270,4224.487305,4098.333496,4206.666504,4225.641113,4204.487305,3313.000000,4.000000,86.000000,,,,0.000000,4.000000,4.000000,4.000000,4.000000,4.000000,4.000000,4.000000,4.000000,4.000000,4.000000,4.000000,4.000000,4.000000,4.000000,100.000000,,,,,,,,,,,,,,,,
1644853552.621410,1644853552.626643,181.000000,0.000000,4213.077148,4192.307617,4216.282227,4168.077148,4207.692383,4223.077148,4217.563965,4215.256348,4207.436035,4226.153809,4097.051270,4210.256348,4225.256348,4206.025879,3514.000000,4.000000,86.000000,,,,0.000000,4.000000,4.000000,4.000000,4.000000,4.000000,4.000000,4.000000,4.000000,4.000000,4.000000,4.000000,4.000000,4.000000,4.000000,100.000000,,,,,,,,,,,,,,,,
1644853552.625349,1644853552.630584,182.000000,0.000000,4213.205078,4195.641113,4224.102539,4170.256348,4206.666504,4223.333496,4219.358887,4215.512695,4210.000000,4228.846191,4095.000000,4215.000000,4219.230957,4202.563965,3542.000000,4.000000,86.000000,,,,0.000000,4.000000,4.000000,4.000000,4.000000,4.000000,4.000000,4.000000,4.000000,4.000000,4.000000,4.000000,4.000000,4.000000,4.000000,100.000000,,,,,,,,,,,,,,,,
1644853552.629290,1644853552.634524,183.000000,0.000000,4211.025879,4197.436035,4231.666504,4177.179688,4200.256348,4223.589844,4220.000000,4214.358887,4213.077148,4230.641113,4095.641113,4218.077148,4211.922852,4197.436035,3119.000000,4.000000,86.000000,,,,0.000000,4.000000,4.000000,4.000000,4.000000,4.000000,4.000000,4.000000,4.000000,4.000000,4.000000,4.000000,4.000000,4.000000,4.000000,100.000000,,,,,,,,,,,,,,,,
1644853552.633230,1644853552.638464,184.000000,0.000000,4208.717773,4197.307617,4234.358887,4184.102539,4193.974121,4222.051270,4217.307617,4212.692383,4214.871582,4228.846191,4101.153809,4218.461426,4207.563965,4193.333496,3313.000000,4.000000,86.000000,,,,0.000000,4.000000,4.000000,4.000000,4.000000,4.000000,4.000000,4.000000,4.000000,4.000000,4.000000,4.000000,4.000000,4.000000,4.000000,100.000000,,,,,,,,,,,,,,,,
1644853552.637169,1644853552.642405,185.000000,0.000000,4209.871582,4195.000000,4231.410156,4187.563965,4192.563965,4218.717773,4212.436035,4212.179688,4214.871582,4223.333496,4111.025879,4217.307617,4207.948730,4191.538574,3514.000000,4.000000,86.000000,,,,0.000000,4.000000,4.000000,4.000000,4.000000,4.000000,4.000000,4.000000,4.000000,4.000000,4.000000,4.000000,4.000000,4.000000,4.000000,100.000000,,,,,,,,,,,,,,,,
1644853552.641110,1644853552.646345,186.000000,0.000000,4215.512695,4190.256348,4226.282227,4186.794922,4195.512695,4214.871582,4209.102539,4213.717773,4213.846191,4217.179688,4121.025879,4216.410156,4213.333496,4191.922852,3542.000000,4.000000,86.000000,,,,0.000000,4.000000,4.000000,4.000000,4.000000,4.000000,4.000000,4.000000,4.000000,4.000000,4.000000,4.000000,4.000000,4.000000,4.000000,100.000000,,,,,,,,,,,,,,,,
1644853552.645050,1644853552.650285,187.000000,0.000000,4222.307617,4183.589844,4222.692383,4182.563965,4197.948730,4212.948730,4209.102539,4216.282227,4213.333496,4214.487305,4126.153809,4216.153809,4222.179688,4193.333496,3119.000000,4.000000,86.000000,,,,0.000000,4.000000,4.000000,4.000000,4.000000,4.000000,4.000000,4.000000,4.000000,4.000000,4.000000,4.000000,4.000000,4.000000,4.000000,100.000000,,,,,,,,,,,,,,,,
1644853552.648990,1644853552.654226,188.000000,0.000000,4225.128418,4175.897461,4221.282227,4176.282227,4195.897461,4213.589844,4210.897461,4217.948730,4213.717773,4217.307617,4124.230957,4215.641113,4231.538574,4194.615234,3313.000000,4.000000,86.000000,,,,0.000000,4.000000,4.000000,4.000000,4.000000,4.000000,4.000000,4.000000,4.000000,4.000000,4.000000,4.000000,4.000000,4.000000,4.000000,100.000000,,,,,,,,,,,,,,,,
1644853552.652930,1644853552.658266,189.000000,0.000000,4222.051270,4168.717773,4220.897461,4168.846191,4190.641113,4215.641113,4212.436035,4217.820313,4213.846191,4223.846191,4118.974121,4214.102539,4237.692383,4195.769043,3514.000000,4.000000,86.000000,,,,0.000000,4.000000,4.000000,4.000000,4.000000,4.000000,4.000000,4.000000,4.000000,4.000000,4.000000,4.000000,4.000000,4.000000,4.000000,100.000000,,,,,,,,,,,,,,,,
1644853552.656870,1644853552.662207,190.000000,0.000000,4217.051270,4163.846191,4220.641113,4161.666504,4188.333496,4217.307617,4213.589844,4216.794922,4213.333496,4229.487305,4115.641113,4212.051270,4238.461426,4197.051270,3542.000000,4.000000,86.000000,,,,0.000000,4.000000,4.000000,4.000000,4.000000,4.000000,4.000000,4.000000,4.000000,4.000000,4.000000,4.000000,4.000000,4.000000,4.000000,100.000000,,,,,,,,,,,,,,,,
1644853552.660810,1644853552.666147,191.000000,0.000000,4215.512695,4161.538574,4221.025879,4156.538574,4193.717773,4218.077148,4216.025879,4216.666504,4212.692383,4230.512695,4116.025879,4211.666504,4234.102539,4199.102539,3119.000000,4.000000,86.000000,,,,0.000000,4.000000,4.000000,4.000000,4.000000,4.000000,4.000000,4.000000,4.000000,4.000000,4.000000,4.000000,4.000000,4.000000,4.000000,100.000000,,,,,,,,,,,,,,,,
1644853552.664750,1644853552.670088,192.000000,0.000000,4218.974121,4160.769043,4222.948730,4154.743652,4205.384766,4218.461426,4218.846191,4217.820313,4213.461426,4227.563965,4117.179688,4214.230957,4227.307617,4200.384766,3313.000000,4.000000,86.000000,,,,0.000000,4.000000,4.000000,4.000000,4.000000,4.000000,4.000000,4.000000,4.000000,4.000000,4.000000,4.000000,4.000000,4.000000,4.000000,100.000000,,,,,,,,,,,,,,,,
1644853552.668690,1644853552.674028,193.000000,0.000000,4224.230957,4159.615234,4225.897461,4155.512695,4216.025879,4218.461426,4219.615234,4219.102539,4216.282227,4224.871582,4115.769043,4218.717773,4221.025879,4199.615234,3514.000000,4.000000,86.000000,,,,0.000000,4.000000,4.000000,4.000000,4.000000,4.000000,4.000000,4.000000,4.000000,4.000000,4.000000,4.000000,4.000000,4.000000,4.000000,100.000000,,,,,,,,,,,,,,,,
1644853552.672630,1644853552.677969,194.000000,0.000000,4225.769043,4157.179688,4228.333496,4156.282227,4219.102539,4217.820313,4216.794922,4218.974121,4219.743652,4226.282227,4113.077148,4221.666504,4217.051270,4197.179688,3542.000000,4.000000,86.000000,,,,0.000000,4.000000,4.000000,4.000000,4.000000,4.000000,4.000000,4.000000,4.000000,4.000000,4.000000,4.000000,4.000000,4.000000,4.000000,100.000000,,,,,,,,,,,,,,,,
1644853552.676570,1644853552.681910,195.000000,0.000000,4221.153809,4153.333496,4228.205078,4154.230957,4213.333496,4216.153809,4212.563965,4217.179688,4221.410156,4231.666504,4111.922852,4219.615234,4215.512695,4195.000000,3119.000000,4.000000,86.000000,,,,0.000000,4.000000,4.000000,4.000000,4.000000,4.000000,4.000000,4.000000,4.000000,4.000000,4.000000,4.000000,4.000000,4.000000,4.000000,100.000000,,,,,,,,,,,,,,,,
1644853552.680510,1644853552.685850,196.000000,0.000000,4212.436035,4148.974121,4224.487305,4149.230957,4202.692383,4214.230957,4210.641113,4214.743652,4220.000000,4237.307617,4114.102539,4212.179688,4216.410156,4193.974121,3313.000000,4.000000,86.000000,,,,0.000000,4.000000,4.000000,4.000000,4.000000,4.000000,4.000000,4.000000,4.000000,4.000000,4.000000,4.000000,4.000000,4.000000,4.000000,100.000000,,,,,,,,,,,,,,,,
1644853552.684450,1644853552.689791,197.000000,0.000000,4204.871582,4145.000000,4218.589844,4144.871582,4193.333496,4212.948730,4212.051270,4212.948730,4216.922852,4239.615234,4118.077148,4203.717773,4220.641113,4193.205078,3514.000000,4.000000,86.000000,,,,0.000000,4.000000,4.000000,4.000000,4.000000,4.000000,4.000000,4.000000,4.000000,4.000000,4.000000,4.000000,4.000000,4.000000,4.000000,100.000000,,,,,,,,,,,,,,,,
1644853552.688390,1644853552.693731,198.000000,0.000000,4203.077148,4142.179688,4213.589844,4144.871582,4188.974121,4212.948730,4215.128418,4213.205078,4215.128418,4237.563965,4122.563965,4199.102539,4228.461426,4191.666504,3542.000000,4.000000,86.000000,3,1,0,0.000000,4.000000,4.000000,4.000000,4.000000,4.000000,4.000000,4.000000,4.000000,4.000000,4.000000,4.000000,4.000000,4.000000,4.000000,100.000000,,,,,,,,,,,,,,,,
1644853552.692330,1644853552.697672,199.000000,0.000000,4207.307617,4140.641113,4212.051270,4149.102539,4189.102539,4213.846191,4216.794922,4215.256348,4216.666504,4233.333496,4127.307617,4200.128418,4237.051270,4189.230957,3119.000000,4.000000,86.000000,,,,0.000000,4.000000,4.000000,4.000000,4.000000,4.000000,4.000000,4.000000,4.000000,4.000000,4.000000,4.000000,4.000000,4.000000,4.000000,100.000000,,,,,,,,,,,,,,,,
1644853552.696270,1644853552.701613,200.000000,0.000000,4213.461426,4140.384766,4214.102539,4152.692383,4190.641113,4215.769043,4216.794922,4218.077148,4220.769043,4230.256348,4132.179688,4203.974121,4240.512695,4188.205078,3313.000000,4.000000,86.000000,4,1,0,0.000000,4.000000,4.000000,4.000000,4.000000,4.000000,4.000000,4.000000,4.000000,4.000000,4.000000,4.000000,4.000000,4.000000,4.000000,100.000000,,,,,,,,,,,,,,,,
1644853552.700210,1644853552.705553,201.000000,0.000000,4216.666504,4140.897461,4216.666504,4151.282227,4191.282227,4218.589844,4216.666504,4219.871582,4224.487305,4229.487305,4135.641113,4206.410156,4234.102539,4189.358887,3514.000000,4.000000,86.000000,,,,0.000000,4.000000,4.000000,4.000000,4.000000,4.000000,4.000000,4.000000,4.000000,4.000000,4.000000,4.000000,4.000000,4.000000,4.000000,100.000000,,,,,,,,,,,,,,,,
1644853552.704150,1644853552.709494,202.000000,0.000000,4215.384766,4141.794922,4216.282227,4144.615234,4191.666504,4221.794922,4217.307617,4220.000000,4224.743652,4229.358887,4135.128418,4205.000000,4218.077148,4191.153809,3542.000000,4.000000,86.000000,,,,0.000000,4.000000,4.000000,4.000000,4.000000,4.000000,4.000000,4.000000,4.000000,4.000000,4.000000,4.000000,4.000000,4.000000,4.000000,100.000000,,,,,,,,,,,,,,,,
1644853552.708090,1644853552.713434,203.000000,0.000000,4211.153809,4142.948730,4212.179688,4137.179688,4193.333496,4224.230957,4217.436035,4218.717773,4221.025879,4227.820313,4129.358887,4201.153809,4199.615234,4190.256348,3119.000000,4.000000,86.000000,,,,0.000000,4.000000,4.000000,4.000000,4.000000,4.000000,4.000000,4.000000,4.000000,4.000000,4.000000,4.000000,4.000000,4.000000,4.000000,100.000000,,,,,,,,,,,,,,,,
1644853552.712030,1644853552.717475,204.000000,0.000000,4207.051270,4144.487305,4207.307617,4134.743652,4196.410156,4224.871582,4215.769043,4216.794922,4216.153809,4224.487305,4120.128418,4198.461426,4187.948730,4185.641113,3313.000000,4.000000,86.000000,,,,0.000000,4.000000,4.000000,4.000000,4.000000,4.000000,4.000000,4.000000,4.000000,4.000000,4.000000,4.000000,4.000000,4.000000,4.000000,100.000000,,,,,,,,,,,,,,,,
1644853552.715970,1644853552.721415,205.000000,0.000000,4205.512695,4146.025879,4205.897461,4138.461426,4199.487305,4223.717773,4213.205078,4215.256348,4213.205078,4220.897461,4112.179688,4198.717773,4188.717773,4179.615234,3514.000000,4.000000,86.000000,,,,0.000000,4.000000,4.000000,4.000000,4.000000,4.000000,4.000000,4.000000,4.000000,4.000000,4.000000,4.000000,4.000000,4.000000,4.000000,100.000000,,,,,,,,,,,,,,,,
1644853552.719910,1644853552.725356,206.000000,0.000000,4206.922852,4147.692383,4208.974121,4144.358887,4201.025879,4221.794922,4211.922852,4214.743652,4213.717773,4218.974121,4109.871582,4200.256348,4200.384766,4176.410156,3542.000000,4.000000,86.000000,,,,0.000000,4.000000,4.000000,4.000000,4.000000,4.000000,4.000000,4.000000,4.000000,4.000000,4.000000,4.000000,4.000000,4.000000,4.000000,100.000000,,,,,,,,,,,,,,,,
1644853552.723850,1644853552.729296,207.000000,0.000000,4210.000000,4149.615234,4214.102539,4146.282227,4201.410156,4219.871582,4212.948730,4214.871582,4215.897461,4220.384766,4114.358887,4199.487305,4215.128418,4177.563965,3119.000000,4.000000,86.000000,,,,0.000000,4.000000,4.000000,4.000000,4.000000,4.000000,4.000000,4.000000,4.000000,4.000000,4.000000,4.000000,4.000000,4.000000,4.000000,100.000000,,,,,,,,,,,,,,,,
1644853552.727790,1644853552.733237,208.000000,0.000000,4212.948730,4151.666504,4217.179688,4142.179688,4202.179688,4218.461426,4214.487305,4214.615234,4216.794922,4224.615234,4121.922852,4194.487305,4224.615234,4181.025879,3313.000000,4.000000,86.000000,,,,0.000000,4.000000,4.000000,4.000000,4.000000,4.000000,4.000000,4.000000,4.000000,4.000000,4.000000,4.000000,4.000000,4.000000,4.000000,100.000000,,,,,,,,,,,,,,,,
1644853552.731730,1644853552.737178,209.000000,0.000000,4214.871582,4153.589844,4216.794922,4135.897461,4203.077148,4217.563965,4214.743652,4213.589844,4215.000000,4229.487305,4125.897461,4187.692383,4225.769043,4183.589844,3514.000000,4.000000,86.000000,,,,0.000000,4.000000,4.000000,4.000000,4.000000,4.000000,4.000000,4.000000,4.000000,4.000000,4.000000,4.000000,4.000000,4.000000,4.000000,100.000000,,,,,,,,,,,,,,,,
1644853552.735670,1644853552.741218,210.000000,0.000000,4215.897461,4154.743652,4214.871582,4134.358887,4201.025879,4217.051270,4213.717773,4212.179688,4211.282227,4231.794922,4121.922852,4184.615234,4221.666504,4183.589844,3542.000000,4.000000,86.000000,,,,0.000000,4.000000,4.000000,4.000000,4.000000,4.000000,4.000000,4.000000,4.000000,4.000000,4.000000,4.000000,4.000000,4.000000,4.000000,100.000000,,,,,,,,,,,,,,,,
1644853552.739610,1644853552.745159,211.000000,0.000000,4216.538574,4154.743652,4214.487305,4140.897461,4193.717773,4216.922852,4213.461426,4211.538574,4208.333496,4229.871582,4112.820313,4189.102539,4216.922852,4181.794922,3119.000000,4.000000,86.000000,,,,0.000000,4.000000,4.000000,4.000000,4.000000,4.000000,4.000000,4.000000,4.000000,4.000000,4.000000,4.000000,4.000000,4.000000,4.000000,100.000000,,,,,,,,,,,,,,,,
1644853552.743550,1644853552.749099,212.000000,0.000000,4217.307617,4154.615234,4217.307617,4152.179688,4182.948730,4217.051270,4215.256348,4212.307617,4207.820313,4225.256348,4106.666504,4200.641113,4213.846191,4179.743652,3313.000000,4.000000,86.000000,,,,0.000000,4.000000,4.000000,4.000000,4.000000,4.000000,4.000000,4.000000,4.000000,4.000000,4.000000,4.000000,4.000000,4.000000,4.000000,100.000000,,,,,,,,,,,,,,,,
1644853552.747490,1644853552.753040,213.000000,0.000000,4218.589844,4155.256348,4222.692383,4159.358887,4175.769043,4217.563965,4217.563965,4214.230957,4210.641113,4221.666504,4110.641113,4214.102539,4211.794922,4179.230957,3514.000000,4.000000,86.000000,,,,0.000000,4.000000,4.000000,4.000000,4.000000,4.000000,4.000000,4.000000,4.000000,4.000000,4.000000,4.000000,4.000000,4.000000,4.000000,100.000000,,,,,,,,,,,,,,,,
1644853552.751430,1644853552.756980,214.000000,0.000000,4220.256348,4156.922852,4227.692383,4156.282227,4178.589844,4218.589844,4218.717773,4216.025879,4215.128418,4221.153809,4123.077148,4222.948730,4210.256348,4181.538574,3542.000000,4.000000,86.000000,,,,0.000000,4.000000,4.000000,4.000000,4.000000,4.000000,4.000000,4.000000,4.000000,4.000000,4.000000,4.000000,4.000000,4.000000,4.000000,100.000000,,,,,,,,,,,,,,,,
1644853552.755370,1644853552.760921,215.000000,0.000000,4221.282227,4158.333496,4229.743652,4143.205078,4190.641113,4219.743652,4218.846191,4216.794922,4218.333496,4222.692383,4134.358887,4222.948730,4208.974121,4186.025879,3119.000000,4.000000,86.000000,,,,0.000000,4.000000,4.000000,4.000000,4.000000,4.000000,4.000000,4.000000,4.000000,4.000000,4.000000,4.000000,4.000000,4.000000,4.000000,100.000000,,,,,,,,,,,,,,,,
1644853552.759310,1644853552.764961,216.000000,0.000000,4220.512695,4157.563965,4228.717773,4126.794922,4202.307617,4219.871582,4219.615234,4216.410156,4217.436035,4223.205078,4136.153809,4215.000000,4208.205078,4190.384766,3313.000000,4.000000,86.000000,,,,0.000000,4.000000,4.000000,4.000000,4.000000,4.000000,4.000000,4.000000,4.000000,4.000000,4.000000,4.000000,4.000000,4.000000,4.000000,100.000000,,,,,,,,,,,,,,,,
1644853552.763250,1644853552.768902,217.000000,0.000000,4217.820313,4153.974121,4226.922852,4115.641113,4203.461426,4218.589844,4221.538574,4215.128418,4212.436035,4221.025879,4128.333496,4205.000000,4208.333496,4192.051270,3514.000000,4.000000,86.000000,,,,0.000000,4.000000,4.000000,4.000000,4.000000,4.000000,4.000000,4.000000,4.000000,4.000000,4.000000,4.000000,4.000000,4.000000,4.000000,100.000000,,,,,,,,,,,,,,,,
1644853552.767190,1644853552.772842,218.000000,0.000000,4215.256348,4149.615234,4226.153809,4114.615234,4192.820313,4216.922852,4222.692383,4214.230957,4206.794922,4217.179688,4119.102539,4199.871582,4210.000000,4191.153809,3542.000000,4.000000,86.000000,,,,0.000000,4.000000,4.000000,4.000000,4.000000,4.000000,4.000000,4.000000,4.000000,4.000000,4.000000,4.000000,4.000000,4.000000,4.000000,100.000000,,,,,,,,,,,,,,,,
1644853552.771130,1644853552.776782,219.000000,0.000000,4214.487305,4147.820313,4226.794922,4122.820313,4179.358887,4216.538574,4221.025879,4213.974121,4204.230957,4214.871582,4116.794922,4202.051270,4213.205078,4189.615234,3119.000000,4.000000,86.000000,,,,0.000000,4.000000,4.000000,4.000000,4.000000,4.000000,4.000000,4.000000,4.000000,4.000000,4.000000,4.000000,4.000000,4.000000,4.000000,100.000000,,,,,,,,,,,,,,,,
1644853552.775070,1644853552.780723,220.000000,0.000000,4215.897461,4149.615234,4226.922852,4134.230957,4174.230957,4218.205078,4216.922852,4214.615234,4206.025879,4216.410156,4122.307617,4208.333496,4215.897461,4188.717773,3313.000000,4.000000,86.000000,,,,0.000000,4.000000,4.000000,4.000000,4.000000,4.000000,4.000000,4.000000,4.000000,4.000000,4.000000,4.000000,4.000000,4.000000,4.000000,100.000000,,,,,,,,,,,,,,,,
1644853552.779010,1644853552.784763,221.000000,0.000000,4217.307617,4152.820313,4225.128418,4141.153809,4181.025879,4220.128418,4213.333496,4216.153809,4210.384766,4221.538574,4129.358887,4213.717773,4216.153809,4188.717773,3514.000000,4.000000,86.000000,,,,0.000000,4.000000,4.000000,4.000000,4.000000,4.000000,4.000000,4.000000,4.000000,4.000000,4.000000,4.000000,4.000000,4.000000,4.000000,100.000000,,,,,,,,,,,,,,,,
1644853552.782950,1644853552.788704,222.000000,0.000000,4217.307617,4153.846191,4222.307617,4138.461426,4192.948730,4220.000000,4213.077148,4218.333496,4213.717773,4227.307617,4131.282227,4214.487305,4213.333496,4188.461426,3542.000000,4.000000,86.000000,,,,0.000000,4.000000,4.000000,4.000000,4.000000,4.000000,4.000000,4.000000,4.000000,4.000000,4.000000,4.000000,4.000000,4.000000,4.000000,100.000000,,,,,,,,,,,,,,,,
1644853552.786890,1644853552.792644,223.000000,0.000000,4216.153809,4151.410156,4220.769043,4126.666504,4199.487305,4217.820313,4215.128418,4220.384766,4215.128418,4230.769043,4126.794922,4210.769043,4209.487305,4187.307617,3119.000000,4.000000,86.000000,,,,0.000000,4.000000,4.000000,4.000000,4.000000,4.000000,4.000000,4.000000,4.000000,4.000000,4.000000,4.000000,4.000000,4.000000,4.000000,100.000000,,,,,,,,,,,,,,,,
1644853552.790830,1644853552.796585,224.000000,0.000000,4216.025879,4147.436035,4221.794922,4112.563965,4195.769043,4215.641113,4216.538574,4221.538574,4216.153809,4230.128418,4121.794922,4205.512695,4207.692383,4185.512695,3313.000000,4.000000,86.000000,,,,0.000000,4.000000,4.000000,4.000000,4.000000,4.000000,4.000000,4.000000,4.000000,4.000000,4.000000,4.000000,4.000000,4.000000,4.000000,100.000000,,,,,,,,,,,,,,,,
1644853552.794770,1644853552.800525,225.000000,0.000000,4218.717773,4145.128418,4224.102539,4104.358887,4185.897461,4216.282227,4216.282227,4221.794922,4218.333496,4226.538574,4121.794922,4202.051270,4209.487305,4184.487305,3514.000000,4.000000,86.000000,5,1,0,0.000000,4.000000,4.000000,4.000000,4.000000,4.000000,4.000000,4.000000,4.000000,4.000000,4.000000,4.000000,4.000000,4.000000,4.000000,100.000000,,,,,,,,,,,,,,,,
1644853552.798710,1644853552.804466,226.000000,0.000000,4223.077148,4145.769043,4225.512695,4105.512695,4178.077148,4220.384766,4215.897461,4221.410156,4221.025879,4222.563965,4127.051270,4202.051270,4213.461426,4185.128418,3542.000000,4.000000,86.000000,,,,0.000000,4.000000,4.000000,4.000000,4.000000,4.000000,4.000000,4.000000,4.000000,4.000000,4.000000,4.000000,4.000000,4.000000,4.000000,100.000000,,,,,,,,,,,,,,,,
1644853552.802650,1644853552.808407,227.000000,0.000000,4224.871582,4148.077148,4225.128418,4113.077148,4177.692383,4225.384766,4217.307617,4220.769043,4222.179688,4221.410156,4131.538574,4204.102539,4216.025879,4185.769043,3119.000000,4.000000,86.000000,,,,0.000000,4.000000,4.000000,4.000000,4.000000,4.000000,4.000000,4.000000,4.000000,4.000000,4.000000,4.000000,4.000000,4.000000,4.000000,100.000000,,,,,,,,,,,,,,,,
1644853552.806590,1644853552.812347,228.000000,0.000000,4221.410156,4149.487305,4223.461426,4120.769043,4183.974121,4227.820313,4219.615234,4219.615234,4220.384766,4224.358887,4129.358887,4205.384766,4214.358887,4183.333496,3313.000000,4.000000,86.000000,,,,0.000000,4.000000,4.000000,4.000000,4.000000,4.000000,4.000000,4.000000,4.000000,4.000000,4.000000,4.000000,4.000000,4.000000,4.000000,100.000000,,,,,,,,,,,,,,,,
1644853552.810530,1644853552.816288,229.000000,0.000000,4213.205078,4148.717773,4221.410156,4123.461426,4191.538574,4226.282227,4220.128418,4217.436035,4216.025879,4229.102539,4119.615234,4203.461426,4207.948730,4175.384766,3514.000000,4.000000,86.000000,,,,0.000000,4.000000,4.000000,4.000000,4.000000,4.000000,4.000000,4.000000,4.000000,4.000000,4.000000,4.000000,4.000000,4.000000,4.000000,100.000000,,,,,,,,,,,,,,,,
1644853552.814470,1644853552.820228,230.000000,0.000000,4203.974121,4146.538574,4218.461426,4119.615234,4194.743652,4222.692383,4217.692383,4214.487305,4211.153809,4230.384766,4107.692383,4197.563965,4198.974121,4163.846191,3542.000000,4.000000,86.000000,,,,0.000000,4.000000,4.000000,4.000000,4.000000,4.000000,4.000000,4.000000,4.000000,4.000000,4.000000,4.000000,4.000000,4.000000,4.000000,100.000000,1.000000,41.666668,4.000000,4.000000,4.000000,1.000000,3.000000,4.000000,4.000000,4.000000,4.000000,4.000000,1.000000,4.000000,4.000000,4.000000
1644853552.818410,1644853552.824169,231.000000,0.000000,4198.077148,4144.487305,4214.358887,4110.897461,4191.282227,4220.000000,4214.615234,4211.666504,4207.563965,4224.230957,4100.641113,4190.256348,4190.897461,4153.717773,3119.000000,4.000000,86.000000,,,,0.000000,4.000000,4.000000,4.000000,4.000000,4.000000,4.000000,4.000000,4.000000,4.000000,4.000000,4.000000,4.000000,4.000000,4.000000,100.000000,,,,,,,,,,,,,,,,
1644853552.822350,1644853552.828110,232.000000,0.000000,4197.179688,4143.333496,4209.743652,4101.922852,4184.230957,4220.384766,4213.974121,4211.025879,4206.410156,4212.436035,4101.538574,4185.256348,4186.666504,4149.871582,3313.000000,4.000000,86.000000,,,,0.000000,4.000000,4.000000,4.000000,4.000000,4.000000,4.000000,4.000000,4.000000,4.000000,4.000000,4.000000,4.000000,4.000000,4.000000,100.000000,,,,,,,,,,,,,,,,
1644853552.826290,1644853552.832150,233.000000,0.000000,4199.743652,4143.589844,4205.769043,4096.794922,4179.871582,4223.717773,4216.282227,4213.461426,4208.461426,4203.205078,4109.487305,4184.743652,4188.589844,4153.589844,3514.000000,4.000000,86.000000,,,,0.000000,4.000000,4.000000,4.000000,4.000000,4.000000,4.000000,4.000000,4.000000,4.000000,4.000000,4.000000,4.000000,4.000000,4.000000,100.000000,,,,,,,,,,,,,,,,
1644853552.830230,1644853552.836090,234.000000,0.000000,4203.461426,4144.487305,4204.102539,4097.179688,4182.948730,4228.077148,4218.846191,4217.563965,4213.333496,4203.461426,4120.000000,4187.820313,4196.410156,4162.820313,3542.000000,4.000000,86.000000,,,,0.000000,4.000000,4.000000,4.000000,4.000000,4.000000,4.000000,4.000000,4.000000,4.000000,4.000000,4.000000,4.000000,4.000000,4.000000,100.000000,,,,,,,,,,,,,,,,
1644853552.834170,1644853552.840030,235.000000,0.000000,4205.897461,4145.128418,4205.000000,4101.025879,4191.922852,4230.000000,4219.102539,4221.025879,4219.230957,4214.615234,4128.717773,4190.897461,4207.436035,4173.205078,3119.000000,4.000000,86.000000,,,,0.000000,4.000000,4.000000,4.000000,4.000000,4.000000,4.000000,4.000000,4.000000,4.000000,4.000000,4.000000,4.000000,4.000000,4.000000,100.000000,,,,,,,,,,,,,,,,
1644853552.838110,1644853552.843971,236.000000,0.000000,4205.897461,4144.871582,4207.307617,4103.974121,4200.256348,4227.692383,4217.307617,4221.794922,4223.589844,4230.641113,4132.436035,4191.025879,4216.794922,4180.384766,3313.000000,4.000000,86.000000,,,,0.000000,4.000000,4.000000,4.000000,4.000000,4.000000,4.000000,4.000000,4.000000,4.000000,4.000000,4.000000,4.000000,4.000000,4.000000,100.000000,,,,,,,,,,,,,,,,
1644853552.842050,1644853552.847911,237.000000,0.000000,4203.205078,4144.743652,4208.846191,4102.948730,4201.666504,4222.051270,4215.256348,4220.641113,4224.487305,4242.820313,4131.282227,4188.205078,4221.410156,4181.666504,3514.000000,4.000000,86.000000,,,,0.000000,4.000000,4.000000,4.000000,4.000000,4.000000,4.000000,4.000000,4.000000,4.000000,4.000000,4.000000,4.000000,4.000000,4.000000,100.000000,,,,,,,,,,,,,,,,
1644853552.845990,1644853552.851852,238.000000,0.000000,4198.846191,4146.153809,4207.948730,4098.974121,4195.897461,4216.794922,4214.615234,4219.615234,4222.563965,4245.641113,4127.820313,4185.512695,4220.512695,4176.794922,3542.000000,4.000000,86.000000,,,,0.000000,4.000000,4.000000,4.000000,4.000000,4.000000,4.000000,4.000000,4.000000,4.000000,4.000000,4.000000,4.000000,4.000000,4.000000,100.000000,,,,,,,,,,,,,,,,
1644853552.849930,1644853552.855792,239.000000,0.000000,4194.102539,4148.974121,4205.256348,4095.641113,4187.948730,4215.128418,4214.871582,4219.743652,4220.384766,4240.000000,4126.025879,4186.025879,4215.769043,4168.461426,3119.000000,4.000000,86.000000,,,,0.000000,4.000000,4.000000,4.000000,4.000000,4.000000,4.000000,4.000000,4.000000,4.000000,4.000000,4.000000,4.000000,4.000000,4.000000,100.000000,,,,,,,,,,,,,,,,
1644853552.853871,1644853552.859832,240.000000,0.000000,4190.256348,4151.538574,4203.717773,4096.282227,4183.461426,4217.948730,4215.512695,4221.153809,4220.000000,4231.794922,4127.948730,4191.410156,4209.871582,4161.153809,3313.000000,4.000000,86.000000,,,,0.000000,4.000000,4.000000,4.000000,4.000000,4.000000,4.000000,4.000000,4.000000,4.000000,4.000000,4.000000,4.000000,4.000000,4.000000,100.000000,,,,,,,,,,,,,,,,
1644853552.857810,1644853552.863773,241.000000,0.000000,4188.205078,4151.922852,4205.897461,4100.641113,4184.615234,4222.307617,4216.410156,4222.563965,4221.922852,4227.436035,4131.666504,4199.871582,4206.153809,4159.743652,3514.000000,4.000000,86.000000,,,,0.000000,4.000000,4.000000,4.000000,4.000000,4.000000,4.000000,4.000000,4.000000,4.000000,4.000000,4.000000,4.000000,4.000000,4.000000,100.000000,,,,,,,,,,,,,,,,
1644853552.861750,1644853552.867714,242.000000,0.000000,4188.717773,4150.384766,4212.179688,4105.641113,4189.487305,4224.615234,4217.436035,4223.589844,4224.743652,4229.615234,4135.000000,4207.820313,4206.666504,4165.897461,3542.000000,4.000000,86.000000,,,,0.000000,4.000000,4.000000,4.000000,4.000000,4.000000,4.000000,4.000000,4.000000,4.000000,4.000000,4.000000,4.000000,4.000000,4.000000,100.000000,,,,,,,,,,,,,,,,
1644853552.865690,1644853552.871654,243.000000,0.000000,4192.563965,4149.487305,4218.974121,4108.333496,4194.230957,4223.205078,4217.436035,4223.974121,4227.051270,4236.282227,4136.538574,4212.051270,4210.641113,4176.410156,3119.000000,4.000000,86.000000,,,,0.000000,4.000000,4.000000,4.000000,4.000000,4.000000,4.000000,4.000000,4.000000,4.000000,4.000000,4.000000,4.000000,4.000000,4.000000,100.000000,,,,,,,,,,,,,,,,
1644853552.869630,1644853552.875595,244.000000,0.000000,4199.358887,4150.897461,4221.666504,4106.922852,4194.743652,4219.102539,4215.256348,4223.589844,4228.461426,4242.948730,4136.410156,4211.282227,4215.641113,4184.487305,3313.000000,4.000000,86.000000,,,,0.000000,4.000000,4.000000,4.000000,4.000000,4.000000,4.000000,4.000000,4.000000,4.000000,4.000000,4.000000,4.000000,4.000000,4.000000,100.000000,,,,,,,,,,,,,,,,
1644853552.873571,1644853552.879535,245.000000,0.000000,4207.179688,4153.846191,4218.461426,4101.025879,4189.615234,4215.000000,4211.410156,4222.051270,4228.589844,4246.282227,4134.743652,4207.051270,4219.487305,4185.384766,3514.000000,4.000000,86.000000,,,,0.000000,4.000000,4.000000,4.000000,4.000000,4.000000,4.000000,4.000000,4.000000,4.000000,4.000000,4.000000,4.000000,4.000000,4.000000,100.000000,,,,,,,,,,,,,,,,
1644853552.877510,1644853552.883476,246.000000,0.000000,4212.436035,4155.641113,4211.410156,4093.333252,4181.794922,4213.205078,4209.615234,4220.000000,4227.563965,4244.743652,4132.307617,4202.307617,4221.153809,4179.358887,3542.000000,4.000000,86.000000,,,,0.000000,4.000000,4.000000,4.000000,4.000000,4.000000,4.000000,4.000000,4.000000,4.000000,4.000000,4.000000,4.000000,4.000000,4.000000,100.000000,,,,,,,,,,,,,,,,
1644853552.881451,1644853552.887416,247.000000,0.000000,4212.436035,4154.487305,4205.000000,4088.076904,4177.051270,4214.487305,4212.307617,4218.846191,4225.384766,4238.717773,4130.512695,4199.230957,4221.282227,4171.666504,3119.000000,4.000000,86.000000,,,,0.000000,4.000000,4.000000,4.000000,4.000000,4.000000,4.000000,4.000000,4.000000,4.000000,4.000000,4.000000,4.000000,4.000000,4.000000,100.000000,,,,,,,,,,,,,,,,
1644853552.885390,1644853552.891357,248.000000,0.000000,4206.794922,4151.410156,4202.436035,4088.589844,4178.717773,4217.820313,4217.692383,4219.487305,4222.692383,4230.384766,4131.025879,4198.717773,4220.769043,4168.077148,3313.000000,4.000000,86.000000,,,,0.000000,4.000000,4.000000,4.000000,4.000000,4.000000,4.000000,4.000000,4.000000,4.000000,4.000000,4.000000,4.000000,4.000000,4.000000,100.000000,,,,,,,,,,,,,,,,
1644853552.889331,1644853552.895298,249.000000,0.000000,4198.846191,4148.333496,4204.102539,4093.589844,4185.256348,4220.512695,4221.282227,4221.538574,4220.641113,4223.589844,4134.230957,4200.256348,4220.512695,4170.256348,3514.000000,4.000000,86.000000,,,,0.000000,4.000000,4.000000,4.000000,4.000000,4.000000,4.000000,4.000000,4.000000,4.000000,4.000000,4.000000,4.000000,4.000000,4.000000,100.000000,,,,,,,,,,,,,,,,
1644853552.893271,1644853552.899238,250.000000,0.000000,4192.563965,4147.051270,4208.333496,4097.948730,4190.769043,4220.769043,4220.256348,4223.077148,4220.512695,4222.051270,4138.461426,4202.436035,4220.512695,4175.641113,3542.000000,4.000000,86.000000,,,,0.000000,4.000000,4.000000,4.000000,4.000000,4.000000,4.000000,4.000000,4.000000,4.000000,4.000000,4.000000,4.000000,4.000000,4.000000,100.000000,,,,,,,,,,,,,,,,
1644853552.897210,1644853552.903179,251.000000,0.000000,4190.769043,4147.948730,4212.948730,4097.820313,4191.025879,4218.589844,4216.153809,4223.077148,4222.051270,4226.153809,4141.025879,4204.230957,4220.128418,4180.384766,3119.000000,4.000000,86.000000,,,,0.000000,4.000000,4.000000,4.000000,4.000000,4.000000,4.000000,4.000000,4.000000,4.000000,4.000000,4.000000,4.000000,4.000000,4.000000,100.000000,,,,,,,,,,,,,,,,
1644853552.901151,1644853552.907219,252.000000,0.000000,4193.589844,4150.641113,4217.307617,4094.358887,4186.666504,4216.025879,4213.077148,4222.051270,4224.230957,4232.820313,4140.769043,4205.256348,4218.846191,4182.051270,3313.000000,4.000000,86.000000,,,,0.000000,4.000000,4.000000,4.000000,4.000000,4.000000,4.000000,4.000000,4.000000,4.000000,4.000000,4.000000,4.000000,4.000000,4.000000,100.000000,,,,,,,,,,,,,,,,
1644853552.905091,1644853552.911160,253.000000,0.000000,4199.487305,4154.871582,4221.025879,4092.307617,4181.922852,4214.871582,4212.692383,4221.153809,4225.769043,4237.820313,4138.333496,4206.538574,4217.179688,4181.410156,3514.000000,4.000000,86.000000,,,,0.000000,4.000000,4.000000,4.000000,4.000000,4.000000,4.000000,4.000000,4.000000,4.000000,4.000000,4.000000,4.000000,4.000000,4.000000,100.000000,,,,,,,,,,,,,,,,
1644853552.909031,1644853552.915100,254.000000,0.000000,4207.307617,4160.256348,4223.974121,4096.153809,4180.256348,4215.512695,4213.589844,4220.769043,4226.025879,4238.846191,4135.641113,4209.358887,4217.436035,4180.897461,3542.000000,4.000000,86.000000,,,,0.000000,4.000000,4.000000,4.000000,4.000000,4.000000,4.000000,4.000000,4.000000,4.000000,4.000000,4.000000,4.000000,4.000000,4.000000,100.000000,,,,,,,,,,,,,,,,
1644853552.912971,1644853552.919041,255.000000,0.000000,4215.769043,4165.384766,4226.153809,4106.153809,4182.051270,4216.666504,4213.974121,4220.769043,4225.128418,4237.307617,4133.846191,4213.461426,4221.538574,4182.563965,113.000000,4.000000,86.000000,,,,0.000000,4.000000,4.000000,4.000000,4.000000,4.000000,4.000000,4.000000,4.000000,4.000000,4.000000,4.000000,4.000000,4.000000,4.000000,100.000000,,,,,,,,,,,,,,,,
1644853552.916911,1644853552.922982,0.000000,0.000000,4223.974121,4169.358887,4227.692383,4118.846191,4185.769043,4217.820313,4214.615234,4221.282227,4224.358887,4236.922852,4133.717773,4217.179688,4228.589844,4186.410156,3415.000000,4.000000,86.000000,,,,0.000000,4.000000,4.000000,4.000000,4.000000,4.000000,4.000000,4.000000,4.000000,4.000000,4.000000,4.000000,4.000000,4.000000,4.000000,100.000000,,,,,,,,,,,,,,,,
1644853552.920851,1644853552.926922,1.000000,0.000000,4229.871582,4170.897461,4228.461426,4128.461426,4189.871582,4219.230957,4217.179688,4222.307617,4224.743652,4239.871582,4136.153809,4218.461426,4234.487305,4191.153809,3348.000000,4.000000,86.000000,,,,0.000000,4.000000,4.000000,4.000000,4.000000,4.000000,4.000000,4.000000,4.000000,4.000000,4.000000,4.000000,4.000000,4.000000,4.000000,100.000000,,,,,,,,,,,,,,,,
1644853552.924791,1644853552.930863,2.000000,0.000000,4230.897461,4169.743652,4227.948730,4130.769043,4193.717773,4221.282227,4221.282227,4223.589844,4226.922852,4244.871582,4141.410156,4216.794922,4235.897461,4195.641113,3618.000000,4.000000,86.000000,,,,0.000000,4.000000,4.000000,4.000000,4.000000,4.000000,4.000000,4.000000,4.000000,4.000000,4.000000,4.000000,4.000000,4.000000,4.000000,100.000000,,,,,,,,,,,,,,,,
1644853552.928731,1644853552.934803,3.000000,0.000000,4225.769043,4166.025879,4226.153809,4125.384766,4196.025879,4223.461426,4223.589844,4224.743652,4230.256348,4248.461426,4147.948730,4214.102539,4232.307617,4198.589844,3537.000000,4.000000,86.000000,,,,0.000000,4.000000,4.000000,4.000000,4.000000,4.000000,4.000000,4.000000,4.000000,4.000000,4.000000,4.000000,4.000000,4.000000,4.000000,100.000000,,,,,,,,,,,,,,,,
1644853552.932671,1644853552.938744,4.000000,0.000000,4216.282227,4161.538574,4222.948730,4115.384766,4194.871582,4223.974121,4221.538574,4225.256348,4233.205078,4247.563965,4152.307617,4212.692383,4226.922852,4198.589844,3485.000000,4.000000,86.000000,,,,0.000000,4.000000,4.000000,4.000000,4.000000,4.000000,4.000000,4.000000,4.000000,4.000000,4.000000,4.000000,4.000000,4.000000,4.000000,100.000000,,,,,,,,,,,,,,,,
1644853552.936611,1644853552.942684,5.000000,0.000000,4206.922852,4158.205078,4219.615234,4104.487305,4189.102539,4221.922852,4216.538574,4225.000000,4233.717773,4241.666504,4151.922852,4212.948730,4222.948730,4194.102539,3340.000000,4.000000,86.000000,,,,0.000000,4.000000,4.000000,4.000000,4.000000,4.000000,4.000000,4.000000,4.000000,4.000000,4.000000,4.000000,4.000000,4.000000,4.000000,100.000000,,,,,,,,,,,,,,,,
1644853552.940551,1644853552.946625,6.000000,0.000000,4202.692383,4157.051270,4217.307617,4096.025879,4180.897461,4218.077148,4212.307617,4223.589844,4231.025879,4233.077148,4146.794922,4213.589844,4221.666504,4185.128418,2570.000000,4.000000,86.000000,,,,0.000000,4.000000,4.000000,4.000000,4.000000,4.000000,4.000000,4.000000,4.000000,4.000000,4.000000,4.000000,4.000000,4.000000,4.000000,100.000000,,,,,,,,,,,,,,,,
1644853552.944491,1644853552.950566,7.000000,0.000000,4204.871582,4157.307617,4216.666504,4092.307617,4175.000000,4214.871582,4211.410156,4220.769043,4226.794922,4225.769043,4139.102539,4213.077148,4222.179688,4173.974121,3170.000000,4.000000,86.000000,,,,0.000000,4.000000,4.000000,4.000000,4.000000,4.000000,4.000000,4.000000,4.000000,4.000000,4.000000,4.000000,4.000000,4.000000,4.000000,100.000000,,,,,,,,,,,,,,,,
1644853552.948431,1644853552.954506,8.000000,0.000000,4210.384766,4158.077148,4216.922852,4094.615479,4175.256348,4214.102539,4212.692383,4217.051270,4223.589844,4223.846191,4132.692383,4210.641113,4222.820313,4165.000000,3283.000000,4.000000,86.000000,,,,0.000000,4.000000,4.000000,4.000000,4.000000,4.000000,4.000000,4.000000,4.000000,4.000000,4.000000,4.000000,4.000000,4.000000,4.000000,100.000000,,,,,,,,,,,,,,,,
1644853552.952371,1644853552.958447,9.000000,0.000000,4214.230957,4158.589844,4216.153809,4102.051270,4182.051270,4215.256348,4213.333496,4213.974121,4222.948730,4228.974121,4131.538574,4206.410156,4223.333496,4161.538574,3533.000000,4.000000,86.000000,,,,0.000000,4.000000,4.000000,4.000000,4.000000,4.000000,4.000000,4.000000,4.000000,4.000000,4.000000,4.000000,4.000000,4.000000,4.000000,100.000000,,,,,,,,,,,,,,,,
1644853552.956311,1644853552.962387,10.000000,0.000000,4213.333496,4158.974121,4213.974121,4111.922852,4190.769043,4216.410156,4212.436035,4213.077148,4223.717773,4237.692383,4136.666504,4202.051270,4223.846191,4164.871582,3516.000000,4.000000,86.000000,,,,0.000000,4.000000,4.000000,4.000000,4.000000,4.000000,4.000000,4.000000,4.000000,4.000000,4.000000,4.000000,4.000000,4.000000,4.000000,100.000000,,,,,,,,,,,,,,,,
1644853552.960251,1644853552.966328,11.000000,0.000000,4208.333496,4159.615234,4211.282227,4120.128418,4195.256348,4215.641113,4211.410156,4215.128418,4224.358887,4243.717773,4145.000000,4199.358887,4224.230957,4172.692383,3113.000000,4.000000,86.000000,,,,0.000000,4.000000,4.000000,4.000000,4.000000,4.000000,4.000000,4.000000,4.000000,4.000000,4.000000,4.000000,4.000000,4.000000,4.000000,100.000000,,,,,,,,,,,,,,,,
1644853552.964191,1644853552.970269,12.000000,0.000000,4201.794922,4160.641113,4210.256348,4122.948730,4192.307617,4213.333496,4211.666504,4218.717773,4224.230957,4242.820313,4151.025879,4199.102539,4224.871582,4180.384766,3549.000000,4.000000,86.000000,,,,0.000000,4.000000,4.000000,4.000000,4.000000,4.000000,4.000000,4.000000,4.000000,4.000000,4.000000,4.000000,4.000000,4.000000,4.000000,100.000000,,,,,,,,,,,,,,,,
1644853552.968131,1644853552.974209,13.000000,0.000000,4196.410156,4161.282227,4211.282227,4118.717773,4184.230957,4211.538574,4212.436035,4220.897461,4223.205078,4236.153809,4151.922852,4200.769043,4225.256348,4184.358887,3479.000000,4.000000,86.000000,,,,0.000000,4.000000,4.000000,4.000000,4.000000,4.000000,4.000000,4.000000,4.000000,4.000000,4.000000,4.000000,4.000000,4.000000,4.000000,100.000000,,,,,,,,,,,,,,,,
1644853552.972071,1644853552.978150,14.000000,0.000000,4193.589844,4160.256348,4212.692383,4109.615234,4177.307617,4211.666504,4212.051270,4219.615234,4221.794922,4228.333496,4149.230957,4202.563965,4223.846191,4183.717773,3516.000000,4.000000,86.000000,,,,0.000000,4.000000,4.000000,4.000000,4.000000,4.000000,4.000000,4.000000,4.000000,4.000000,4.000000,4.000000,4.000000,4.000000,4.000000,100.000000,,,,,,,,,,,,,,,,
1644853552.976011,1644853552.982190,15.000000,0.000000,4193.077148,4157.948730,4212.948730,4100.897461,4176.794922,4213.846191,4210.769043,4215.769043,4220.128418,4223.205078,4146.025879,4203.205078,4219.615234,4179.871582,3113.000000,4.000000,86.000000,,,,0.000000,4.000000,4.000000,4.000000,4.000000,4.000000,4.000000,4.000000,4.000000,4.000000,4.000000,4.000000,4.000000,4.000000,4.000000,100.000000,,,,,,,,,,,,,,,,
1644853552.979951,1644853552.986130,16.000000,0.000000,4193.717773,4155.512695,4212.436035,4097.179688,4181.794922,4216.538574,4210.256348,4211.794922,4218.077148,4221.538574,4143.717773,4202.820313,4212.692383,4174.615234,3549.000000,4.000000,86.000000,,,,0.000000,4.000000,4.000000,4.000000,4.000000,4.000000,4.000000,4.000000,4.000000,4.000000,4.000000,4.000000,4.000000,4.000000,4.000000,100.000000,,,,,,,,,,,,,,,,
1644853552.983891,1644853552.990071,17.000000,0.000000,4194.871582,4154.230957,4211.922852,4099.615234,4186.794922,4218.333496,4211.538574,4209.487305,4215.769043,4221.410156,4140.897461,4203.077148,4205.512695,4168.974121,3479.000000,4.000000,86.000000,,,,0.000000,4.000000,4.000000,4.000000,4.000000,4.000000,4.000000,4.000000,4.000000,4.000000,4.000000,4.000000,4.000000,4.000000,4.000000,100.000000,,,,,,,,,,,,,,,,
1644853552.987831,1644853552.994011,18.000000,0.000000,4196.666504,4155.000000,4211.922852,4104.615234,4186.922852,4218.589844,4213.333496,4208.846191,4213.846191,4220.897461,4135.641113,4204.102539,4200.897461,4163.589844,3516.000000,4.000000,86.000000,,,,0.000000,4.000000,4.000000,4.000000,4.000000,4.000000,4.000000,4.000000,4.000000,4.000000,4.000000,4.000000,4.000000,4.000000,4.000000,100.000000,,,,,,,,,,,,,,,,
1644853552.991771,1644853552.997851,19.000000,0.000000,4198.205078,4156.666504,4212.307617,4107.436035,4182.563965,4217.820313,4213.077148,4208.717773,4213.077148,4220.256348,4128.846191,4205.000000,4200.641113,4160.000000,3113.000000,4.000000,86.000000,,,,0.000000,4.000000,4.000000,4.000000,4.000000,4.000000,4.000000,4.000000,4.000000,4.000000,4.000000,4.000000,4.000000,4.000000,4.000000,100.000000,,,,,,,,,,,,,,,,
1644853552.995711,1644853553.001792,20.000000,0.000000,4198.589844,4158.461426,4212.307617,4105.769043,4178.333496,4216.794922,4210.641113,4208.846191,4214.230957,4220.769043,4123.461426,4204.358887,4203.974121,4160.769043,3549.000000,4.000000,86.000000,,,,0.000000,4.000000,4.000000,4.000000,4.000000,4.000000,4.000000,4.000000,4.000000,4.000000,4.000000,4.000000,4.000000,4.000000,4.000000,100.000000,,,,,,,,,,,,,,,,
1644853552.999651,1644853553.005732,21.000000,0.000000,4197.436035,4159.743652,4212.179688,4101.922852,4178.717773,4215.769043,4208.461426,4209.871582,4216.922852,4223.589844,4123.717773,4201.922852,4209.102539,4166.025879,3479.000000,4.000000,86.000000,,,,0.000000,4.000000,4.000000,4.000000,4.000000,4.000000,4.000000,4.000000,4.000000,4.000000,4.000000,4.000000,4.000000,4.000000,4.000000,100.000000,,,,,,,,,,,,,,,,
1644853553.003591,1644853553.009672,22.000000,0.000000,4196.282227,4161.282227,4212.179688,4100.897461,4185.000000,4215.128418,4208.589844,4212.051270,4220.128418,4228.077148,4130.897461,4199.102539,4214.743652,4173.589844,3516.000000,4.000000,86.000000,,,,0.000000,4.000000,4.000000,4.000000,4.000000,4.000000,4.000000,4.000000,4.000000,4.000000,4.000000,4.000000,4.000000,4.000000,4.000000,100.000000,,,,,,,,,,,,,,,,
1644853553.007531,1644853553.013713,23.000000,0.000000,4197.948730,4164.230957,4212.820313,4105.512695,4193.846191,4214.871582,4210.128418,4214.487305,4222.307617,4231.666504,4142.051270,4197.820313,4220.256348,4178.846191,3113.000000,4.000000,86.000000,,,,0.000000,4.000000,4.000000,4.000000,4.000000,4.000000,4.000000,4.000000,4.000000,4.000000,4.000000,4.000000,4.000000,4.000000,4.000000,100.000000,,,,,,,,,,,,,,,,
1644853553.011471,1644853553.017653,24.000000,0.000000,4202.692383,4168.461426,4213.846191,4113.333496,4200.000000,4214.615234,4210.897461,4215.128418,4222.436035,4231.794922,4150.897461,4198.461426,4224.487305,4179.358887,3549.000000,4.000000,86.000000,,,,0.000000,4.000000,4.000000,4.000000,4.000000,4.000000,4.000000,4.000000,4.000000,4.000000,4.000000,4.000000,4.000000,4.000000,4.000000,100.000000,,,,,,,,,,,,,,,,
1644853553.015411,1644853553.021593,25.000000,0.000000,4207.692383,4172.563965,4214.743652,4119.230957,4199.743652,4213.589844,4210.000000,4212.436035,4220.256348,4228.589844,4151.153809,4199.487305,4225.000000,4176.666504,3479.000000,4.000000,86.000000,,,,0.000000,4.000000,4.000000,4.000000,4.000000,4.000000,4.000000,4.000000,4.000000,4.000000,4.000000,4.000000,4.000000,4.000000,4.000000,100.000000,,,,,,,,,,,,,,,,
1644853553.019351,1644853553.025534,26.000000,0.000000,4209.358887,4174.487305,4215.512695,4120.512695,4193.333496,4210.897461,4208.974121,4207.563965,4215.897461,4223.589844,4140.641113,4198.717773,4220.384766,4174.743652,3516.000000,4.000000,86.000000,,,,0.000000,4.000000,4.000000,4.000000,4.000000,4.000000,4.000000,4.000000,4.000000,4.000000,4.000000,4.000000,4.000000,4.000000,4.000000,100.000000,,,,,,,,,,,,,,,,
1644853553.023291,1644853553.029474,27.000000,0.000000,4206.282227,4173.589844,4215.256348,4118.077148,4184.743652,4207.051270,4209.230957,4203.461426,4210.897461,4218.974121,4124.743652,4194.743652,4211.410156,4175.256348,3113.000000,4.000000,86.000000,,,,0.000000,4.000000,4.000000,4.000000,4.000000,4.000000,4.000000,4.000000,4.000000,4.000000,4.000000,4.000000,4.000000,4.000000,4.000000,100.000000,,,,,,,,,,,,,,,,
1644853553.027231,1644853553.033414,28.000000,0.000000,4201.153809,4171.153809,4213.077148,4114.358887,4179.230957,4203.461426,4210.256348,4202.179688,4206.922852,4215.000000,4113.333496,4188.717773,4201.025879,4176.666504,3549.000000,4.000000,86.000000,,,,0.000000,4.000000,4.000000,4.000000,4.000000,4.000000,4.000000,4.000000,4.000000,4.000000,4.000000,4.000000,4.000000,4.000000,4.000000,100.000000,,,,,,,,,,,,,,,,
1644853553.031171,1644853553.037355,29.000000,0.000000,4197.692383,4168.589844,4208.974121,4110.512695,4179.230957,4201.410156,4209.615234,4203.717773,4205.128418,4210.769043,4113.589844,4184.102539,4192.563965,4175.512695,3479.000000,4.000000,86.000000,,,,0.000000,4.000000,4.000000,4.000000,4.000000,4.000000,4.000000,4.000000,4.000000,4.000000,4.000000,4.000000,4.000000,4.000000,4.000000,100.000000,,,,,,,,,,,,,,,,
1644853553.035111,1644853553.041295,30.000000,0.000000,4196.922852,4165.897461,4204.358887,4105.256348,4182.307617,4200.769043,4206.922852,4206.153809,4205.384766,4206.025879,4123.846191,4183.205078,4188.333496,4170.897461,3516.000000,4.000000,86.000000,,,,0.000000,4.000000,4.000000,4.000000,4.000000,4.000000,4.000000,4.000000,4.000000,4.000000,4.000000,4.000000,4.000000,4.000000,4.000000,100.000000,,,,,,,,,,,,,,,,
1644853553.039051,1644853553.045235,31.000000,0.000000,4195.897461,4161.922852,4201.410156,4098.333496,4183.717773,4200.512695,4204.102539,4207.563965,4206.666504,4202.436035,4135.384766,4185.128418,4188.974121,4164.743652,3113.000000,4.000000,86.000000,,,,0.000000,4.000000,4.000000,4.000000,4.000000,4.000000,4.000000,4.000000,4.000000,4.000000,4.000000,4.000000,4.000000,4.000000,4.000000,100.000000,,,,,,,,,,,,,,,,
1644853553.042991,1644853553.049176,32.000000,0.000000,4192.436035,4156.282227,4201.153809,4091.794922,4180.128418,4199.487305,4203.717773,4207.692383,4207.692383,4202.820313,4139.358887,4186.922852,4192.692383,4159.743652,0.000000,4.000000,86.000000,,,,0.000000,4.000000,4.000000,4.000000,4.000000,4.000000,4.000000,4.000000,4.000000,4.000000,4.000000,4.000000,4.000000,4.000000,4.000000,100.000000,,,,,,,,,,,,,,,,
1644853553.046931,1644853553.053116,33.000000,0.000000,4187.051270,4150.641113,4202.692383,4089.743652,4173.205078,4198.461426,4205.769043,4206.922852,4208.205078,4207.820313,4134.358887,4186.666504,4197.179688,4157.051270,0.000000,4.000000,86.000000,,,,0.000000,4.000000,4.000000,4.000000,4.000000,4.000000,4.000000,4.000000,4.000000,4.000000,4.000000,4.000000,4.000000,4.000000,4.000000,100.000000,,,,,,,,,,,,,,,,
1644853553.050871,1644853553.057056,34.000000,0.000000,4183.589844,4148.974121,4203.974121,4094.487061,4168.333496,4199.487305,4208.333496,4206.666504,4208.974121,4214.615234,4126.025879,4185.384766,4200.384766,4156.153809,0.000000,4.000000,86.000000,,,,0.000000,4.000000,4.000000,4.000000,4.000000,4.000000,4.000000,4.000000,4.000000,4.000000,4.000000,4.000000,4.000000,4.000000,4.000000,100.000000,,,,,,,,,,,,,,,,
1644853553.054811,1644853553.060997,35.000000,0.000000,4184.615234,4154.230957,4204.358887,4105.128418,4170.769043,4203.589844,4209.871582,4207.948730,4210.769043,4219.487305,4122.051270,4185.769043,4201.922852,4157.307617,0.000000,4.000000,86.000000,,,,0.000000,4.000000,4.000000,4.000000,4.000000,4.000000,4.000000,4.000000,4.000000,4.000000,4.000000,4.000000,4.000000,4.000000,4.000000,100.000000,,,,,,,,,,,,,,,,
1644853553.058751,1644853553.064937,36.000000,0.000000,4189.871582,4165.769043,4204.743652,4116.410156,4180.512695,4209.743652,4211.153809,4211.282227,4214.358887,4221.025879,4126.282227,4189.487305,4204.102539,4161.922852,0.000000,4.000000,86.000000,,,,0.000000,4.000000,4.000000,4.000000,4.000000,4.000000,4.000000,4.000000,4.000000,4.000000,4.000000,4.000000,4.000000,4.000000,4.000000,100.000000,,,,,,,,,,,,,,,,
1644853553.062691,1644853553.068878,37.000000,0.000000,4196.410156,4178.461426,4206.666504,4122.563965,4192.051270,4214.487305,4213.077148,4216.410156,4219.358887,4221.922852,4137.051270,4195.000000,4209.615234,4170.769043,0.000000,4.000000,86.000000,,,,0.000000,4.000000,4.000000,4.000000,4.000000,4.000000,4.000000,4.000000,4.000000,4.000000,4.000000,4.000000,4.000000,4.000000,4.000000,100.000000,,,,,,,,,,,,,,,,
1644853553.066631,1644853553.072918,38.000000,0.000000,4201.666504,4186.410156,4209.871582,4120.512695,4198.589844,4215.256348,4214.871582,4221.538574,4225.000000,4225.641113,4149.487305,4199.871582,4219.615234,4182.307617,0.000000,4.000000,86.000000,,,,0.000000,4.000000,4.000000,4.000000,4.000000,4.000000,4.000000,4.000000,4.000000,4.000000,4.000000,4.000000,4.000000,4.000000,4.000000,100.000000,,,,,,,,,,,,,,,,
1644853553.070571,1644853553.076859,39.000000,0.000000,4204.487305,4186.410156,4212.948730,4113.589844,4197.307617,4212.436035,4214.743652,4225.512695,4230.256348,4233.077148,4159.487305,4202.692383,4232.051270,4192.820313,0.000000,4.000000,86.000000,,,,0.000000,4.000000,4.000000,4.000000,4.000000,4.000000,4.000000,4.000000,4.000000,4.000000,4.000000,4.000000,4.000000,4.000000,4.000000,100.000000,,,,,,,,,,,,,,,,
1644853553.074511,1644853553.080799,40.000000,0.000000,4204.487305,4180.128418,4213.974121,4108.846191,4191.282227,4209.230957,4212.692383,4227.436035,4234.358887,4240.897461,4164.871582,4203.333496,4242.179688,4198.589844,0.000000,4.000000,86.000000,,,,0.000000,4.000000,4.000000,4.000000,4.000000,4.000000,4.000000,4.000000,4.000000,4.000000,4.000000,4.000000,4.000000,4.000000,4.000000,100.000000,,,,,,,,,,,,,,,,
1644853553.078451,1644853553.084740,41.000000,0.000000,4201.794922,4172.436035,4212.179688,4111.153809,4186.153809,4208.846191,4211.153809,4227.563965,4236.410156,4244.358887,4166.666504,4202.948730,4245.512695,4198.333496,0.000000,4.000000,86.000000,,,,0.000000,4.000000,4.000000,4.000000,4.000000,4.000000,4.000000,4.000000,4.000000,4.000000,4.000000,4.000000,4.000000,4.000000,4.000000,100.000000,,,,,,,,,,,,,,,,
1644853553.082391,1644853553.088680,42.000000,0.000000,4197.563965,4167.436035,4208.461426,4117.820313,4185.512695,4211.794922,4212.179688,4226.666504,4235.512695,4241.922852,4166.666504,4202.307617,4241.666504,4193.974121,0.000000,4.000000,86.000000,,,,0.000000,4.000000,4.000000,4.000000,4.000000,4.000000,4.000000,4.000000,4.000000,4.000000,4.000000,4.000000,4.000000,4.000000,4.000000,100.000000,,,,,,,,,,,,,,,,
1644853553.086331,1644853553.092621,43.000000,0.000000,4193.589844,4167.179688,4205.256348,4120.641113,4187.948730,4215.641113,4214.358887,4225.256348,4231.794922,4236.025879,4165.769043,4201.538574,4234.102539,4188.974121,0.000000,4.000000,86.000000,,,,0.000000,4.000000,4.000000,4.000000,4.000000,4.000000,4.000000,4.000000,4.000000,4.000000,4.000000,4.000000,4.000000,4.000000,4.000000,100.000000,,,,,,,,,,,,,,,,
1644853553.090271,1644853553.096561,44.000000,0.000000,4191.410156,4169.615234,4203.974121,4113.717773,4189.230957,4216.538574,4214.871582,4223.589844,4226.794922,4230.384766,4162.948730,4200.000000,4227.436035,4185.897461,0.000000,4.000000,86.000000,,,,0.000000,4.000000,4.000000,4.000000,4.000000,4.000000,4.000000,4.000000,4.000000,4.000000,4.000000,4.000000,4.000000,4.000000,4.000000,100.000000,,,,,,,,,,,,,,,,
1644853553.094211,1644853553.100502,45.000000,0.000000,4190.769043,4170.641113,4204.743652,4099.615234,4186.025879,4212.692383,4212.051270,4221.666504,4222.563965,4226.922852,4157.051270,4197.948730,4223.333496,4183.846191,0.000000,4.000000,86.000000,,,,0.000000,4.000000,4.000000,4.000000,4.000000,4.000000,4.000000,4.000000,4.000000,4.000000,4.000000,4.000000,4.000000,4.000000,4.000000,100.000000,,,,,,,,,,,,,,,,
1644853553.098151,1644853553.104443,46.000000,0.000000,4190.256348,4167.179688,4206.282227,4087.435791,4179.615234,4206.153809,4208.333496,4220.000000,4219.871582,4224.358887,4149.487305,4196.153809,4220.641113,4179.743652,0.000000,4.000000,86.000000,,,,0.000000,4.000000,4.000000,4.000000,4.000000,4.000000,4.000000,4.000000,4.000000,4.000000,4.000000,4.000000,4.000000,4.000000,4.000000,100.000000,,,,,,,,,,,,,,,,
1644853553.102091,1644853553.108383,47.000000,0.000000,4188.974121,4159.487305,4206.922852,4085.897461,4175.000000,4201.282227,4207.051270,4219.358887,4218.974121,4221.922852,4144.615234,4196.153809,4216.922852,4171.794922,0.000000,4.000000,86.000000,,,,0.000000,4.000000,4.000000,4.000000,4.000000,4.000000,4.000000,4.000000,4.000000,4.000000,4.000000,4.000000,4.000000,4.000000,4.000000,100.000000,,,,,,,,,,,,,,,,
1644853553.106031,1644853553.112324,48.000000,0.000000,4187.179688,4152.179688,4206.282227,4095.384521,4177.307617,4201.410156,4209.102539,4220.256348,4220.000000,4220.897461,4146.282227,4198.974121,4212.051270,4162.307617,0.000000,4.000000,86.000000,,,,0.000000,4.000000,4.000000,4.000000,4.000000,4.000000,4.000000,4.000000,4.000000,4.000000,4.000000,4.000000,4.000000,4.000000,4.000000,100.000000,,,,,,,,,,,,,,,,
1644853553.109971,1644853553.116264,49.000000,0.000000,4186.666504,4149.743652,4204.743652,4108.974121,4186.794922,4206.282227,4212.051270,4222.179688,4223.077148,4224.615234,4152.948730,4203.205078,4208.974121,4156.794922,0.000000,4.000000,86.000000,,,,0.000000,4.000000,4.000000,4.000000,4.000000,4.000000,4.000000,4.000000,4.000000,4.000000,4.000000,4.000000,4.000000,4.000000,4.000000,100.000000,,,,,,,,,,,,,,,,
1644853553.113912,1644853553.120205,50.000000,0.000000,4188.974121,4153.589844,4203.077148,4117.692383,4197.820313,4212.692383,4213.461426,4223.846191,4226.794922,4232.436035,4158.846191,4206.282227,4210.897461,4160.128418,0.000000,4.000000,86.000000,,,,0.000000,4.000000,4.000000,4.000000,4.000000,4.000000,4.000000,4.000000,4.000000,4.000000,4.000000,4.000000,4.000000,4.000000,4.000000,100.000000,,,,,,,,,,,,,,,,
1644853553.117851,1644853553.124146,51.000000,0.000000,4193.461426,4160.897461,4201.794922,4116.794922,4203.333496,4217.051270,4213.461426,4224.487305,4229.102539,4238.846191,4158.333496,4205.384766,4217.948730,4171.922852,0.000000,4.000000,86.000000,,,,0.000000,4.000000,4.000000,4.000000,4.000000,4.000000,4.000000,4.000000,4.000000,4.000000,4.000000,4.000000,4.000000,4.000000,4.000000,100.000000,,,,,,,,,,,,,,,,
1644853553.121791,1644853553.128086,52.000000,0.000000,4197.820313,4167.179688,4201.538574,4109.102539,4201.282227,4217.820313,4213.717773,4223.461426,4228.333496,4237.307617,4151.538574,4201.666504,4225.897461,4186.282227,0.000000,4.000000,86.000000,,,,0.000000,4.000000,4.000000,4.000000,4.000000,4.000000,4.000000,4.000000,4.000000,4.000000,4.000000,4.000000,4.000000,4.000000,4.000000,100.000000,,,,,,,,,,,,,,,,
1644853553.125731,1644853553.132027,53.000000,0.000000,4199.871582,4169.871582,4202.563965,4102.307617,4195.384766,4215.641113,4214.615234,4222.179688,4225.000000,4227.436035,4144.743652,4198.589844,4230.000000,4195.256348,0.000000,4.000000,86.000000,,,,0.000000,4.000000,4.000000,4.000000,4.000000,4.000000,4.000000,4.000000,4.000000,4.000000,4.000000,4.000000,4.000000,4.000000,4.000000,100.000000,,,,,,,,,,,,,,,,
1644853553.129671,1644853553.135967,54.000000,0.000000,4200.000000,4169.743652,4204.871582,4101.666504,4191.794922,4212.820313,4214.871582,4222.051270,4221.922852,4217.051270,4145.128418,4199.871582,4228.461426,4194.743652,0.000000,4.000000,86.000000,,,,0.000000,4.000000,4.000000,4.000000,4.000000,4.000000,4.000000,4.000000,4.000000,4.000000,4.000000,4.000000,4.000000,4.000000,4.000000,100.000000,,,,,,,,,,,,,,,,
1644853553.133612,1644853553.139908,55.000000,0.000000,4200.128418,4169.871582,4208.077148,4106.538574,4192.179688,4211.025879,4213.846191,4223.974121,4221.922852,4215.897461,4154.743652,4205.769043,4223.846191,4186.666504,0.000000,4.000000,86.000000,,,,0.000000,4.000000,4.000000,4.000000,4.000000,4.000000,4.000000,4.000000,4.000000,4.000000,4.000000,4.000000,4.000000,4.000000,4.000000,100.000000,,,,,,,,,,,,,,,,
1644853553.137551,1644853553.143948,56.000000,0.000000,4201.538574,4171.410156,4211.666504,4111.794922,4192.692383,4210.512695,4212.948730,4227.179688,4225.128418,4226.794922,4168.077148,4213.333496,4219.102539,4177.692383,0.000000,4.000000,86.000000,,,,0.000000,4.000000,4.000000,4.000000,4.000000,4.000000,4.000000,4.000000,4.000000,4.000000,4.000000,4.000000,4.000000,4.000000,4.000000,100.000000,,,,,,,,,,,,,,,,
1644853553.141492,1644853553.147888,57.000000,0.000000,4202.948730,4173.205078,4214.358887,4112.436035,4188.077148,4209.871582,4213.205078,4230.256348,4228.846191,4242.436035,4176.153809,4217.820313,4216.025879,4173.589844,0.000000,4.000000,86.000000,,,,0.000000,4.000000,4.000000,4.000000,4.000000,4.000000,4.000000,4.000000,4.000000,4.000000,4.000000,4.000000,4.000000,4.000000,4.000000,100.000000,,,,,,,,,,,,,,,,
1644853553.145432,1644853553.151829,58.000000,0.000000,4202.051270,4172.436035,4214.615234,4108.333496,4177.820313,4207.307617,4213.974121,4232.051270,4230.128418,4251.282227,4173.717773,4216.666504,4214.230957,4175.641113,0.000000,4.000000,86.000000,,,,0.000000,4.000000,4.000000,4.000000,4.000000,4.000000,4.000000,4.000000,4.000000,4.000000,4.000000,4.000000,4.000000,4.000000,4.000000,100.000000,,,,,,,,,,,,,,,,
1644853553.149372,1644853553.155769,59.000000,0.000000,4197.692383,4167.948730,4211.922852,4102.820313,4167.563965,4203.589844,4213.205078,4232.051270,4228.461426,4247.179688,4163.717773,4211.153809,4212.948730,4180.897461,0.000000,4.000000,86.000000,,,,0.000000,4.000000,4.000000,4.000000,4.000000,4.000000,4.000000,4.000000,4.000000,4.000000,4.000000,4.000000,4.000000,4.000000,4.000000,100.000000,,,,,,,,,,,,,,,,
1644853553.153312,1644853553.159710,60.000000,0.000000,4191.538574,4161.025879,4207.179688,4099.102539,4164.615234,4201.025879,4210.641113,4230.769043,4226.025879,4233.333496,4153.974121,4205.000000,4211.794922,4185.128418,0.000000,4.000000,86.000000,,,,0.000000,4.000000,4.000000,4.000000,4.000000,4.000000,4.000000,4.000000,4.000000,4.000000,4.000000,4.000000,4.000000,4.000000,4.000000,100.000000,,,,,,,,,,,,,,,,
1644853553.157251,1644853553.163650,61.000000,0.000000,4186.410156,4155.256348,4202.820313,4098.461426,4171.282227,4201.666504,4208.589844,4229.230957,4224.743652,4219.615234,4150.641113,4201.666504,4211.538574,4186.666504,0.000000,4.000000,86.000000,,,,0.000000,4.000000,4.000000,4.000000,4.000000,4.000000,4.000000,4.000000,4.000000,4.000000,4.000000,4.000000,4.000000,4.000000,4.000000,100.000000,,,,,,,,,,,,,,,,
1644853553.161192,1644853553.167590,62.000000,0.000000,4185.256348,4153.717773,4201.410156,4100.384766,4182.692383,4204.615234,4209.487305,4228.461426,4224.487305,4215.512695,4153.589844,4202.436035,4213.717773,4186.922852,0.000000,4.000000,86.000000,,,,0.000000,4.000000,4.000000,4.000000,4.000000,4.000000,4.000000,4.000000,4.000000,4.000000,4.000000,4.000000,4.000000,4.000000,4.000000,100.000000,,,,,,,,,,,,,,,,
1644853553.165132,1644853553.171531,63.000000,0.000000,4189.102539,4157.051270,4203.205078,4104.615234,4191.025879,4207.179688,4212.692383,4228.205078,4223.974121,4223.461426,4158.077148,4205.897461,4219.743652,4188.205078,0.000000,4.000000,86.000000,,,,0.000000,4.000000,4.000000,4.000000,4.000000,4.000000,4.000000,4.000000,4.000000,4.000000,4.000000,4.000000,4.000000,4.000000,4.000000,100.000000,,,,,,,,,,,,,,,,
1644853553.169072,1644853553.175471,64.000000,0.000000,4196.410156,4163.846191,4206.666504,4110.897461,4192.436035,4207.436035,4214.487305,4227.563965,4222.820313,4237.436035,4160.128418,4209.615234,4228.974121,4191.538574,0.000000,4.000000,86.000000,,,,0.000000,4.000000,4.000000,4.000000,4.000000,4.000000,4.000000,4.000000,4.000000,4.000000,4.000000,4.000000,4.000000,4.000000,4.000000,100.000000,,,,,,,,,,,,,,,,
1644853553.173012,1644853553.179411,65.000000,0.000000,4204.871582,4171.666504,4210.000000,4117.948730,4189.358887,4205.769043,4212.820313,4225.897461,4222.179688,4247.563965,4160.128418,4211.794922,4238.717773,4196.153809,0.000000,4.000000,86.000000,,,,0.000000,4.000000,4.000000,4.000000,4.000000,4.000000,4.000000,4.000000,4.000000,4.000000,4.000000,4.000000,4.000000,4.000000,4.000000,100.000000,,,,,,,,,,,,,,,,
1644853553.176952,1644853553.183352,66.000000,0.000000,4211.666504,4178.589844,4212.820313,4122.436035,4187.051270,4204.102539,4210.000000,4224.487305,4222.948730,4247.692383,4161.282227,4212.692383,4244.102539,4200.641113,0.000000,4.000000,86.000000,,,,0.000000,4.000000,4.000000,4.000000,4.000000,4.000000,4.000000,4.000000,4.000000,4.000000,4.000000,4.000000,4.000000,4.000000,4.000000,100.000000,,,,,,,,,,,,,,,,
1644853553.180892,1644853553.187292,67.000000,0.000000,4215.000000,4182.948730,4215.256348,4122.179688,4188.333496,4203.717773,4209.358887,4224.743652,4224.743652,4239.487305,4165.641113,4213.589844,4241.666504,4203.077148,0.000000,4.000000,86.000000,,,,0.000000,4.000000,4.000000,4.000000,4.000000,4.000000,4.000000,4.000000,4.000000,4.000000,4.000000,4.000000,4.000000,4.000000,4.000000,100.000000,,,,,,,,,,,,,,,,
1644853553.184832,1644853553.191232,68.000000,0.000000,4214.230957,4184.743652,4216.666504,4118.077148,4191.153809,4205.256348,4211.922852,4226.410156,4226.025879,4230.384766,4171.282227,4215.641113,4232.307617,4201.666504,0.000000,4.000000,86.000000,,,,0.000000,4.000000,4.000000,4.000000,4.000000,4.000000,4.000000,4.000000,4.000000,4.000000,4.000000,4.000000,4.000000,4.000000,4.000000,100.000000,,,,,,,,,,,,,,,,
1644853553.188772,1644853553.195173,69.000000,0.000000,4210.641113,4184.615234,4215.384766,4114.102539,4191.282227,4208.461426,4214.615234,4227.820313,4225.897461,4227.307617,4174.871582,4218.461426,4221.794922,4196.025879,0.000000,4.000000,86.000000,,,,0.000000,4.000000,4.000000,4.000000,4.000000,4.000000,4.000000,4.000000,4.000000,4.000000,4.000000,4.000000,4.000000,4.000000,4.000000,100.000000,,,,,,,,,,,,,,,,
1644853553.192712,1644853553.199113,70.000000,0.000000,4206.794922,4183.333496,4211.538574,4113.461426,4187.436035,4212.179688,4214.230957,4227.436035,4224.615234,4231.282227,4174.615234,4220.256348,4216.922852,4188.333496,0.000000,4.000000,86.000000,,,,0.000000,4.000000,4.000000,4.000000,4.000000,4.000000,4.000000,4.000000,4.000000,4.000000,4.000000,4.000000,4.000000,4.000000,4.000000,100.000000,,,,,,,,,,,,,,,,
1644853553.196652,1644853553.203053,71.000000,0.000000,4204.615234,4181.666504,4206.794922,4116.410156,4182.436035,4214.743652,4211.410156,4225.256348,4223.205078,4237.307617,4172.051270,4218.974121,4220.128418,4181.794922,0.000000,4.000000,86.000000,,,,0.000000,4.000000,4.000000,4.000000,4.000000,4.000000,4.000000,4.000000,4.000000,4.000000,4.000000,4.000000,4.000000,4.000000,4.000000,100.000000,,,,,,,,,,,,,,,,
1644853553.200592,1644853553.206994,72.000000,0.000000,4203.333496,4179.230957,4203.333496,4119.871582,4180.384766,4214.358887,4208.974121,4222.692383,4222.820313,4239.358887,4169.487305,4214.102539,4227.436035,4178.717773,0.000000,4.000000,86.000000,,,,0.000000,4.000000,4.000000,4.000000,4.000000,4.000000,4.000000,4.000000,4.000000,4.000000,4.000000,4.000000,4.000000,4.000000,4.000000,100.000000,,,,,,,,,,,,,,,,
1644853553.204532,1644853553.210934,73.000000,0.000000,4200.897461,4175.769043,4201.538574,4120.000000,4182.948730,4210.384766,4208.461426,4220.769043,4223.333496,4235.256348,4167.179688,4207.307617,4231.410156,4178.717773,0.000000,4.000000,86.000000,,,,0.000000,4.000000,4.000000,4.000000,4.000000,4.000000,4.000000,4.000000,4.000000,4.000000,4.000000,4.000000,4.000000,4.000000,4.000000,100.000000,,,,,,,,,,,,,,,,
1644853553.208472,1644853553.214974,74.000000,0.000000,4196.153809,4171.282227,4200.256348,4114.743652,4187.051270,4204.615234,4208.846191,4219.230957,4223.077148,4227.179688,4163.589844,4200.512695,4227.179688,4179.743652,0.000000,4.000000,86.000000,,,,0.000000,4.000000,4.000000,4.000000,4.000000,4.000000,4.000000,4.000000,4.000000,4.000000,4.000000,4.000000,4.000000,4.000000,4.000000,100.000000,,,,,,,,,,,,,,,,
1644853553.212412,1644853553.218915,75.000000,0.000000,4190.384766,4167.692383,4198.589844,4105.256348,4188.333496,4200.512695,4208.077148,4217.307617,4220.384766,4219.487305,4158.333496,4196.153809,4216.794922,4180.384766,0.000000,4.000000,86.000000,,,,0.000000,4.000000,4.000000,4.000000,4.000000,4.000000,4.000000,4.000000,4.000000,4.000000,4.000000,4.000000,4.000000,4.000000,4.000000,100.000000,,,,,,,,,,,,,,,,
1644853553.216352,1644853553.222855,76.000000,0.000000,4186.794922,4167.307617,4197.820313,4095.897461,4184.871582,4200.128418,4206.794922,4214.871582,4215.641113,4215.384766,4153.974121,4195.384766,4206.922852,4181.025879,0.000000,4.000000,86.000000,,,,0.000000,4.000000,4.000000,4.000000,4.000000,4.000000,4.000000,4.000000,4.000000,4.000000,4.000000,4.000000,4.000000,4.000000,4.000000,100.000000,,,,,,,,,,,,,,,,
1644853553.220292,1644853553.226795,77.000000,0.000000,4188.205078,4171.153809,4199.743652,4090.897461,4179.615234,4203.461426,4207.563965,4213.717773,4211.794922,4215.641113,4154.487305,4198.717773,4204.102539,4182.436035,0.000000,4.000000,86.000000,,,,0.000000,4.000000,4.000000,4.000000,4.000000,4.000000,4.000000,4.000000,4.000000,4.000000,4.000000,4.000000,4.000000,4.000000,4.000000,100.000000,,,,,,,,,,,,,,,,
1644853553.224232,1644853553.230736,78.000000,0.000000,4194.230957,4177.692383,4204.102539,4092.051270,4178.205078,4208.333496,4211.153809,4215.256348,4211.666504,4219.615234,4160.769043,4204.102539,4209.358887,4184.871582,0.000000,4.000000,86.000000,,,,0.000000,4.000000,4.000000,4.000000,4.000000,4.000000,4.000000,4.000000,4.000000,4.000000,4.000000,4.000000,4.000000,4.000000,4.000000,100.000000,,,,,,,,,,,,,,,,
1644853553.228172,1644853553.234676,79.000000,0.000000,4200.512695,4183.589844,4207.820313,4097.179688,4183.589844,4212.436035,4215.256348,4219.230957,4215.897461,4225.897461,4167.948730,4208.461426,4217.307617,4187.436035,0.000000,4.000000,86.000000,,,,0.000000,4.000000,4.000000,4.000000,4.000000,4.000000,4.000000,4.000000,4.000000,4.000000,4.000000,4.000000,4.000000,4.000000,4.000000,100.000000,,,,,,,,,,,,,,,,
1644853553.232112,1644853553.238616,80.000000,0.000000,4201.538574,4185.128418,4207.051270,4103.333496,4192.948730,4214.358887,4216.410156,4222.692383,4221.666504,4232.692383,4169.230957,4207.948730,4220.897461,4188.333496,0.000000,4.000000,86.000000,,,,0.000000,4.000000,4.000000,4.000000,4.000000,4.000000,4.000000,4.000000,4.000000,4.000000,4.000000,4.000000,4.000000,4.000000,4.000000,100.000000,,,,,,,,,,,,,,,,
1644853553.236052,1644853553.242557,81.000000,0.000000,4195.256348,4180.769043,4200.641113,4108.205078,4199.230957,4213.846191,4213.846191,4223.333496,4224.743652,4236.922852,4161.538574,4201.794922,4216.922852,4186.538574,0.000000,4.000000,86.000000,,,,0.000000,4.000000,4.000000,4.000000,4.000000,4.000000,4.000000,4.000000,4.000000,4.000000,4.000000,4.000000,4.000000,4.000000,4.000000,100.000000,,,,,,,,,,,,,,,,
1644853553.239992,1644853553.246497,82.000000,0.000000,4185.512695,4172.179688,4191.282227,4110.384766,4196.922852,4212.051270,4210.641113,4220.512695,4222.820313,4236.282227,4149.615234,4192.820313,4208.589844,4183.077148,0.000000,4.000000,86.000000,,,,0.000000,4.000000,4.000000,4.000000,4.000000,4.000000,4.000000,4.000000,4.000000,4.000000,4.000000,4.000000,4.000000,4.000000,4.000000,100.000000,,,,,,,,,,,,,,,,
1644853553.243932,1644853553.250437,83.000000,0.000000,4179.487305,4164.230957,4184.487305,4108.846191,4187.948730,4211.282227,4209.487305,4216.282227,4217.436035,4230.512695,4142.563965,4185.641113,4202.179688,4180.256348,0.000000,4.000000,86.000000,,,,0.000000,4.000000,4.000000,4.000000,4.000000,4.000000,4.000000,4.000000,4.000000,4.000000,4.000000,4.000000,4.000000,4.000000,4.000000,100.000000,,,,,,,,,,,,,,,,
1644853553.247872,1644853553.254378,84.000000,0.000000,4180.769043,4162.179688,4184.743652,4103.461426,4179.871582,4212.563965,4210.641113,4212.692383,4212.436035,4222.436035,4145.897461,4184.358887,4202.051270,4180.000000,0.000000,4.000000,86.000000,,,,0.000000,4.000000,4.000000,4.000000,4.000000,4.000000,4.000000,4.000000,4.000000,4.000000,4.000000,4.000000,4.000000,4.000000,4.000000,100.000000,,,,,,,,,,,,,,,,
1644853553.251812,1644853553.258318,85.000000,0.000000,4186.282227,4167.436035,4192.563965,4095.897461,4179.102539,4214.871582,4211.538574,4210.897461,4210.641113,4216.282227,4156.410156,4189.615234,4206.794922,4181.153809,0.000000,4.000000,86.000000,,,,0.000000,4.000000,4.000000,4.000000,4.000000,4.000000,4.000000,4.000000,4.000000,4.000000,4.000000,4.000000,4.000000,4.000000,4.000000,100.000000,,,,,,,,,,,,,,,,
1644853553.255752,1644853553.262258,86.000000,0.000000,4189.871582,4175.897461,4203.846191,4090.384521,4185.384766,4216.025879,4210.897461,4211.153809,4211.282227,4214.102539,4165.256348,4198.589844,4210.256348,4182.051270,0.000000,4.000000,86.000000,,,,0.000000,4.000000,4.000000,4.000000,4.000000,4.000000,4.000000,4.000000,4.000000,4.000000,4.000000,4.000000,4.000000,4.000000,4.000000,100.000000,,,,,,,,,,,,,,,,
1644853553.259692,1644853553.266199,87.000000,0.000000,4188.717773,4181.282227,4211.922852,4091.153809,4192.051270,4214.358887,4209.358887,4212.051270,4211.794922,4214.743652,4166.153809,4205.512695,4207.692383,4182.179688,0.000000,4.000000,86.000000,,,,0.000000,4.000000,4.000000,4.000000,4.000000,4.000000,4.000000,4.000000,4.000000,4.000000,4.000000,4.000000,4.000000,4.000000,4.000000,100.000000,,,,,,,,,,,,,,,,
1644853553.263632,1644853553.270139,88.000000,0.000000,4186.025879,4181.282227,4212.563965,4098.846191,4193.846191,4211.538574,4208.077148,4212.692383,4210.256348,4215.384766,4159.358887,4205.897461,4201.025879,4182.563965,0.000000,4.000000,86.000000,,,,0.000000,4.000000,4.000000,4.000000,4.000000,4.000000,4.000000,4.000000,4.000000,4.000000,4.000000,4.000000,4.000000,4.000000,4.000000,100.000000,,,,,,,,,,,,,,,,
1644853553.267572,1644853553.274079,89.000000,0.000000,4187.820313,4178.846191,4206.922852,4109.230957,4191.410156,4210.256348,4207.692383,4212.563965,4208.077148,4214.487305,4150.769043,4199.615234,4197.307617,4184.102539,0.000000,4.000000,86.000000,,,,0.000000,4.000000,4.000000,4.000000,4.000000,4.000000,4.000000,4.000000,4.000000,4.000000,4.000000,4.000000,4.000000,4.000000,4.000000,100.000000,,,,,,,,,,,,,,,,
1644853553.271512,1644853553.278020,90.000000,0.000000,4195.512695,4178.589844,4199.615234,4115.897461,4189.487305,4211.922852,4208.205078,4212.179688,4207.179688,4213.461426,4145.384766,4191.025879,4201.538574,4185.512695,0.000000,4.000000,86.000000,,,,0.000000,4.000000,4.000000,4.000000,4.000000,4.000000,4.000000,4.000000,4.000000,4.000000,4.000000,4.000000,4.000000,4.000000,4.000000,100.000000,,,,,,,,,,,,,,,,
1644853553.275452,1644853553.282060,91.000000,0.000000,4203.846191,4180.769043,4195.000000,4115.000000,4191.794922,4215.769043,4209.871582,4212.179688,4208.333496,4214.230957,4143.717773,4185.897461,4211.794922,4184.230957,0.000000,4.000000,86.000000,,,,0.000000,4.000000,4.000000,4.000000,4.000000,4.000000,4.000000,4.000000,4.000000,4.000000,4.000000,4.000000,4.000000,4.000000,4.000000,100.000000,,,,,,,,,,,,,,,,
1644853553.279392,1644853553.286001,92.000000,0.000000,4205.897461,4182.436035,4194.102539,4108.333496,4197.307617,4218.077148,4212.563965,4212.820313,4209.871582,4217.820313,4143.333496,4186.666504,4220.256348,4179.487305,0.000000,4.000000,86.000000,,,,0.000000,4.000000,4.000000,4.000000,4.000000,4.000000,4.000000,4.000000,4.000000,4.000000,4.000000,4.000000,4.000000,4.000000,4.000000,100.000000,,,,,,,,,,,,,,,,
1644853553.283332,1644853553.289941,93.000000,0.000000,4199.871582,4180.641113,4195.769043,4101.282227,4201.922852,4216.922852,4214.871582,4213.717773,4210.384766,4222.948730,4143.205078,4190.769043,4220.256348,4173.974121,0.000000,4.000000,86.000000,,,,0.000000,4.000000,4.000000,4.000000,4.000000,4.000000,4.000000,4.000000,4.000000,4.000000,4.000000,4.000000,4.000000,4.000000,4.000000,100.000000,,,,,,,,,,,,,,,,
1644853553.287272,1644853553.293882,94.000000,0.000000,4190.512695,4176.282227,4197.820313,4099.230957,4202.307617,4213.077148,4214.358887,4213.974121,4209.487305,4226.666504,4145.384766,4193.077148,4212.051270,4172.436035,0.000000,4.000000,86.000000,,,,0.000000,4.000000,4.000000,4.000000,4.000000,4.000000,4.000000,4.000000,4.000000,4.000000,4.000000,4.000000,4.000000,4.000000,4.000000,100.000000,,,,,,,,,,,,,,,,
1644853553.291212,1644853553.297823,95.000000,0.000000,4184.871582,4172.820313,4198.717773,4103.717773,4198.205078,4209.743652,4210.384766,4212.948730,4207.948730,4226.282227,4152.820313,4190.897461,4202.051270,4177.563965,0.000000,4.000000,86.000000,,,,0.000000,4.000000,4.000000,4.000000,4.000000,4.000000,4.000000,4.000000,4.000000,4.000000,4.000000,4.000000,4.000000,4.000000,4.000000,100.000000,,,,,,,,,,,,,,,,
1644853553.295152,1644853553.301763,96.000000,0.000000,4186.538574,4173.846191,4199.358887,4112.563965,4191.794922,4209.487305,4205.256348,4210.512695,4205.897461,4222.563965,4164.230957,4186.410156,4198.077148,4188.205078,0.000000,4.000000,86.000000,,,,0.000000,4.000000,4.000000,4.000000,4.000000,4.000000,4.000000,4.000000,4.000000,4.000000,4.000000,4.000000,4.000000,4.000000,4.000000,100.000000,,,,,,,,,,,,,,,,
1644853553.299092,1644853553.305704,97.000000,0.000000,4192.307617,4178.717773,4200.769043,4121.410156,4185.897461,4211.410156,4203.205078,4208.461426,4203.461426,4218.205078,4174.230957,4183.333496,4203.589844,4200.384766,0.000000,4.000000,86.000000,,,,0.000000,4.000000,4.000000,4.000000,4.000000,4.000000,4.000000,4.000000,4.000000,4.000000,4.000000,4.000000,4.000000,4.000000,4.000000,100.000000,,,,,,,,,,,,,,,,
1644853553.303032,1644853553.309644,98.000000,0.000000,4195.641113,4183.717773,4203.589844,4126.025879,4182.307617,4213.077148,4206.410156,4208.077148,4201.153809,4216.025879,4176.410156,4183.461426,4215.512695,4208.589844,0.000000,4.000000,86.000000,,,,0.000000,4.000000,4.000000,4.000000,4.000000,4.000000,4.000000,4.000000,4.000000,4.000000,4.000000,4.000000,4.000000,4.000000,4.000000,100.000000,,,,,,,,,,,,,,,,
1644853553.306972,1644853553.313585,99.000000,0.000000,4192.948730,4185.000000,4206.153809,4124.871582,4181.025879,4212.051270,4211.666504,4208.589844,4199.871582,4216.025879,4169.615234,4184.871582,4227.563965,4209.743652,0.000000,4.000000,86.000000,,,,0.000000,4.000000,4.000000,4.000000,4.000000,4.000000,4.000000,4.000000,4.000000,4.000000,4.000000,4.000000,4.000000,4.000000,4.000000,100.000000,,,,,,,,,,,,,,,,
1644853553.310912,1644853553.317525,100.000000,0.000000,4186.666504,4181.922852,4206.794922,4120.641113,4181.666504,4208.333496,4214.102539,4208.589844,4200.000000,4215.897461,4159.230957,4185.256348,4232.820313,4203.846191,0.000000,4.000000,86.000000,,,,0.000000,4.000000,4.000000,4.000000,4.000000,4.000000,4.000000,4.000000,4.000000,4.000000,4.000000,4.000000,4.000000,4.000000,4.000000,100.000000,,,,,,,,,,,,,,,,
1644853553.314852,1644853553.321466,101.000000,0.000000,4182.692383,4177.051270,4205.128418,4118.205078,4184.615234,4204.230957,4211.666504,4207.692383,4201.153809,4213.077148,4152.436035,4184.487305,4227.307617,4194.487305,0.000000,4.000000,86.000000,,,,0.000000,4.000000,4.000000,4.000000,4.000000,4.000000,4.000000,4.000000,4.000000,4.000000,4.000000,4.000000,4.000000,4.000000,4.000000,100.000000,,,,,,,,,,,,,,,,
1644853553.318792,1644853553.325407,102.000000,0.000000,4184.358887,4174.615234,4202.820313,4120.897461,4189.743652,4202.563965,4207.948730,4207.051270,4201.794922,4207.436035,4151.666504,4185.256348,4212.179688,4185.897461,0.000000,4.000000,86.000000,,,,0.000000,4.000000,4.000000,4.000000,4.000000,4.000000,4.000000,4.000000,4.000000,4.000000,4.000000,4.000000,4.000000,4.000000,4.000000,100.000000,1.000000,25.000000,4.000000,4.000000,4.000000,1.000000,1.000000,4.000000,3.000000,4.000000,4.000000,4.000000,1.000000,4.000000,4.000000,4.000000
1644853553.322732,1644853553.329347,103.000000,0.000000,4189.230957,4176.410156,4201.666504,4126.666504,4194.615234,4205.256348,4207.179688,4207.563965,4201.153809,4201.794922,4152.948730,4189.230957,4193.717773,4180.512695,0.000000,4.000000,86.000000,,,,0.000000,4.000000,4.000000,4.000000,4.000000,4.000000,4.000000,4.000000,4.000000,4.000000,4.000000,4.000000,4.000000,4.000000,4.000000,100.000000,,,,,,,,,,,,,,,,
1644853553.326672,1644853553.333288,104.000000,0.000000,4191.410156,4180.384766,4201.666504,4129.102539,4195.384766,4211.025879,4209.871582,4208.974121,4199.743652,4198.974121,4151.282227,4195.641113,4180.641113,4177.820313,0.000000,4.000000,86.000000,,,,0.000000,4.000000,4.000000,4.000000,4.000000,4.000000,4.000000,4.000000,4.000000,4.000000,4.000000,4.000000,4.000000,4.000000,4.000000,100.000000,,,,,,,,,,,,,,,,
1644853553.330612,1644853553.337328,105.000000,0.000000,4187.820313,4181.922852,4201.538574,4122.948730,4189.871582,4216.538574,4212.820313,4210.000000,4198.974121,4200.641113,4145.769043,4201.153809,4179.102539,4176.538574,0.000000,4.000000,86.000000,,,,0.000000,4.000000,4.000000,4.000000,4.000000,4.000000,4.000000,4.000000,4.000000,4.000000,4.000000,4.000000,4.000000,4.000000,4.000000,100.000000,,,,,,,,,,,,,,,,
1644853553.334552,1644853553.341269,106.000000,0.000000,4180.769043,4178.461426,4200.256348,4109.615234,4180.384766,4218.717773,4213.333496,4210.256348,4199.743652,4205.769043,4141.153809,4202.820313,4188.333496,4177.179688,0.000000,4.000000,86.000000,,,,0.000000,4.000000,4.000000,4.000000,4.000000,4.000000,4.000000,4.000000,4.000000,4.000000,4.000000,4.000000,4.000000,4.000000,4.000000,100.000000,,,,,,,,,,,,,,,,
1644853553.338492,1644853553.345209,107.000000,0.000000,4176.922852,4172.307617,4199.230957,4097.820313,4173.333496,4217.051270,4212.179688,4211.153809,4202.307617,4212.436035,4142.692383,4200.897461,4201.794922,4181.410156,0.000000,4.000000,86.000000,,,,0.000000,4.000000,4.000000,4.000000,4.000000,4.000000,4.000000,4.000000,4.000000,4.000000,4.000000,4.000000,4.000000,4.000000,4.000000,100.000000,,,,,,,,,,,,,,,,
1644853553.342432,1644853553.349150,108.000000,0.000000,4180.897461,4169.230957,4200.128418,4096.538574,4173.846191,4214.102539,4212.307617,4214.487305,4206.025879,4219.102539,4151.538574,4198.333496,4212.436035,4188.974121,0.000000,4.000000,86.000000,,,,0.000000,4.000000,4.000000,4.000000,4.000000,4.000000,4.000000,4.000000,4.000000,4.000000,4.000000,4.000000,4.000000,4.000000,4.000000,100.000000,,,,,,,,,,,,,,,,
1644853553.346372,1644853553.353091,109.000000,0.000000,4191.538574,4172.948730,4203.077148,4108.205078,4182.179688,4212.948730,4214.102539,4219.743652,4210.512695,4225.641113,4164.230957,4198.846191,4217.179688,4197.051270,0.000000,4.000000,86.000000,,,,0.000000,4.000000,4.000000,4.000000,4.000000,4.000000,4.000000,4.000000,4.000000,4.000000,4.000000,4.000000,4.000000,4.000000,4.000000,100.000000,,,,,,,,,,,,,,,,
