title:Alex-7D0PKuLFVeRhsfu13kzv_g, start timestamp:1644854811.692133, stop timestamp:1644854838.767695, headset type:EPOCPLUS, headset serial:3B9AEBFF, headset firmware:626, channels:55, sampling rate:eeg_256, samples:6872      , version:2.1, 
Timestamp,EEG.Counter,EEG.Interpolated,EEG.AF3,EEG.F7,EEG.F3,EEG.FC5,EEG.T7,EEG.P7,EEG.O1,EEG.O2,EEG.P8,EEG.T8,EEG.FC6,EEG.F4,EEG.F8,EEG.AF4,EEG.RawCq,EEG.Battery,EEG.BatteryPercent,MarkerIndex,MarkerType,MarkerValueInt,EEG.MarkerHardware,CQ.AF3,CQ.F7,CQ.F3,CQ.FC5,CQ.T7,CQ.P7,CQ.O1,CQ.O2,CQ.P8,CQ.T8,CQ.FC6,CQ.F4,CQ.F8,CQ.AF4,CQ.Overall,EQ.SampleRateQuality,EQ.OVERALL,EQ.AF3,EQ.F7,EQ.F3,EQ.FC5,EQ.T7,EQ.P7,EQ.O1,EQ.O2,EQ.P8,EQ.T8,EQ.FC6,EQ.F4,EQ.F8,EQ.AF4
1644854811.692133,252.000000,0.000000,4215.000000,4218.461426,4221.538574,4241.666504,4220.000000,4219.487305,4223.333496,4230.641113,4229.487305,4221.153809,4206.666504,4200.512695,4345.769043,4207.948730,3483.000000,4.000000,82.000000,,,,0.000000,4.000000,4.000000,4.000000,4.000000,4.000000,4.000000,4.000000,4.000000,4.000000,4.000000,4.000000,4.000000,4.000000,4.000000,100.000000,,,,,,,,,,,,,,,,
1644854811.695974,253.000000,0.000000,4219.871582,4222.563965,4223.974121,4239.358887,4221.538574,4221.282227,4222.820313,4231.153809,4234.487305,4228.461426,4211.538574,4202.436035,4346.922852,4205.769043,3241.000000,4.000000,82.000000,,,,0.000000,4.000000,4.000000,4.000000,4.000000,4.000000,4.000000,4.000000,4.000000,4.000000,4.000000,4.000000,4.000000,4.000000,4.000000,100.000000,,,,,,,,,,,,,,,,
1644854811.699914,254.000000,0.000000,4220.769043,4226.538574,4222.948730,4231.922852,4223.077148,4223.333496,4221.282227,4231.538574,4237.307617,4236.153809,4219.615234,4201.410156,4351.410156,4205.641113,3527.000000,4.000000,82.000000,,,,0.000000,4.000000,4.000000,4.000000,4.000000,4.000000,4.000000,4.000000,4.000000,4.000000,4.000000,4.000000,4.000000,4.000000,4.000000,100.000000,,,,,,,,,,,,,,,,
1644854811.703854,255.000000,0.000000,4218.846191,4228.846191,4220.897461,4222.692383,4225.384766,4225.384766,4221.922852,4233.333496,4237.051270,4240.256348,4228.717773,4199.230957,4354.743652,4208.974121,112.000000,4.000000,82.000000,,,,0.000000,4.000000,4.000000,4.000000,4.000000,4.000000,4.000000,4.000000,4.000000,4.000000,4.000000,4.000000,4.000000,4.000000,4.000000,100.000000,,,,,,,,,,,,,,,,
1644854811.707794,0.000000,0.000000,4217.307617,4229.871582,4219.871582,4218.333496,4228.461426,4226.794922,4225.897461,4235.897461,4234.358887,4238.333496,4236.025879,4197.563965,4353.846191,4213.717773,3385.000000,4.000000,82.000000,,,,0.000000,4.000000,4.000000,4.000000,4.000000,4.000000,4.000000,4.000000,4.000000,4.000000,4.000000,4.000000,4.000000,4.000000,4.000000,100.000000,,,,,,,,,,,,,,,,
1644854811.711734,1.000000,0.000000,4218.589844,4230.000000,4219.871582,4222.436035,4230.256348,4226.922852,4229.871582,4236.666504,4230.256348,4231.025879,4237.436035,4197.051270,4348.974121,4216.025879,3320.000000,4.000000,82.000000,,,,0.000000,4.000000,4.000000,4.000000,4.000000,4.000000,4.000000,4.000000,4.000000,4.000000,4.000000,4.000000,4.000000,4.000000,4.000000,100.000000,,,,,,,,,,,,,,,,
1644854811.715674,2.000000,0.000000,4220.256348,4228.461426,4219.230957,4231.410156,4227.436035,4225.128418,4229.615234,4232.948730,4224.743652,4220.256348,4230.384766,4196.025879,4342.436035,4213.717773,3745.000000,4.000000,82.000000,,,,0.000000,4.000000,4.000000,4.000000,4.000000,4.000000,4.000000,4.000000,4.000000,4.000000,4.000000,4.000000,4.000000,4.000000,4.000000,100.000000,,,,,,,,,,,,,,,,
1644854811.719614,3.000000,0.000000,4217.948730,4224.230957,4216.538574,4236.794922,4219.102539,4220.897461,4225.256348,4224.487305,4217.563965,4208.589844,4215.384766,4192.820313,4335.641113,4208.589844,3534.000000,4.000000,82.000000,,,,0.000000,4.000000,4.000000,4.000000,4.000000,4.000000,4.000000,4.000000,4.000000,4.000000,4.000000,4.000000,4.000000,4.000000,4.000000,100.000000,,,,,,,,,,,,,,,,
1644854811.723554,4.000000,0.000000,4209.743652,4217.436035,4212.307617,4232.692383,4208.461426,4215.256348,4220.769043,4215.128418,4210.000000,4198.589844,4198.205078,4186.666504,4329.102539,4203.974121,3717.000000,4.000000,82.000000,,,,0.000000,4.000000,4.000000,4.000000,4.000000,4.000000,4.000000,4.000000,4.000000,4.000000,4.000000,4.000000,4.000000,4.000000,4.000000,100.000000,,,,,,,,,,,,,,,,
1644854811.727495,5.000000,0.000000,4200.128418,4210.769043,4209.102539,4221.666504,4201.922852,4211.410156,4219.743652,4209.358887,4205.384766,4193.846191,4187.179688,4180.128418,4323.717773,4201.282227,3326.000000,4.000000,82.000000,,,,0.000000,4.000000,4.000000,4.000000,4.000000,4.000000,4.000000,4.000000,4.000000,4.000000,4.000000,4.000000,4.000000,4.000000,4.000000,100.000000,,,,,,,,,,,,,,,,
1644854811.731435,6.000000,0.000000,4196.922852,4208.589844,4210.128418,4213.333496,4204.102539,4212.436035,4222.179688,4210.256348,4206.794922,4196.922852,4188.846191,4177.820313,4321.538574,4199.743652,2829.000000,4.000000,82.000000,,,,0.000000,4.000000,4.000000,4.000000,4.000000,4.000000,4.000000,4.000000,4.000000,4.000000,4.000000,4.000000,4.000000,4.000000,4.000000,100.000000,,,,,,,,,,,,,,,,
1644854811.735375,7.000000,0.000000,4204.102539,4213.205078,4216.410156,4215.641113,4213.846191,4218.589844,4225.000000,4216.922852,4214.102539,4206.538574,4201.794922,4182.820313,4324.102539,4198.846191,3031.000000,4.000000,82.000000,,,,0.000000,4.000000,4.000000,4.000000,4.000000,4.000000,4.000000,4.000000,4.000000,4.000000,4.000000,4.000000,4.000000,4.000000,4.000000,100.000000,,,,,,,,,,,,,,,,
1644854811.739315,8.000000,0.000000,4218.461426,4222.820313,4225.769043,4228.717773,4225.897461,4226.025879,4226.410156,4225.256348,4222.563965,4217.563965,4218.205078,4193.333496,4330.384766,4200.769043,3309.000000,4.000000,82.000000,,,,0.000000,4.000000,4.000000,4.000000,4.000000,4.000000,4.000000,4.000000,4.000000,4.000000,4.000000,4.000000,4.000000,4.000000,4.000000,100.000000,,,,,,,,,,,,,,,,
1644854811.743255,9.000000,0.000000,4231.922852,4232.948730,4234.358887,4244.487305,4234.487305,4230.256348,4226.666504,4230.256348,4226.922852,4223.717773,4229.487305,4203.846191,4337.948730,4208.461426,3486.000000,4.000000,82.000000,,,,0.000000,4.000000,4.000000,4.000000,4.000000,4.000000,4.000000,4.000000,4.000000,4.000000,4.000000,4.000000,4.000000,4.000000,4.000000,100.000000,,,,,,,,,,,,,,,,
1644854811.747195,10.000000,0.000000,4237.948730,4239.230957,4238.717773,4254.615234,4237.051270,4229.487305,4226.666504,4228.974121,4224.871582,4223.333496,4232.051270,4209.358887,4344.487305,4221.538574,3528.000000,4.000000,82.000000,,,,0.000000,4.000000,4.000000,4.000000,4.000000,4.000000,4.000000,4.000000,4.000000,4.000000,4.000000,4.000000,4.000000,4.000000,4.000000,100.000000,,,,,,,,,,,,,,,,
1644854811.751135,11.000000,0.000000,4236.282227,4241.025879,4238.846191,4255.769043,4236.153809,4226.282227,4226.410156,4223.589844,4219.102539,4219.487305,4228.461426,4208.717773,4348.846191,4234.230957,2378.000000,4.000000,82.000000,,,,0.000000,4.000000,4.000000,4.000000,4.000000,4.000000,4.000000,4.000000,4.000000,4.000000,4.000000,4.000000,4.000000,4.000000,4.000000,100.000000,,,,,,,,,,,,,,,,
1644854811.755075,12.000000,0.000000,4231.922852,4240.000000,4236.538574,4250.128418,4234.743652,4223.717773,4225.128418,4218.717773,4214.487305,4217.051270,4224.358887,4205.000000,4350.641113,4239.615234,3618.000000,4.000000,82.000000,,,,0.000000,4.000000,4.000000,4.000000,4.000000,4.000000,4.000000,4.000000,4.000000,4.000000,4.000000,4.000000,4.000000,4.000000,4.000000,100.000000,,,,,,,,,,,,,,,,
1644854811.759015,13.000000,0.000000,4231.025879,4237.948730,4233.717773,4241.922852,4233.974121,4223.077148,4223.205078,4218.205078,4214.230957,4217.820313,4223.846191,4202.051270,4350.000000,4235.128418,3455.000000,4.000000,82.000000,,,,0.000000,4.000000,4.000000,4.000000,4.000000,4.000000,4.000000,4.000000,4.000000,4.000000,4.000000,4.000000,4.000000,4.000000,4.000000,100.000000,,,,,,,,,,,,,,,,
1644854811.762955,14.000000,0.000000,4235.128418,4235.769043,4230.769043,4234.230957,4232.563965,4224.230957,4222.179688,4221.666504,4217.179688,4219.871582,4226.794922,4201.922852,4346.922852,4224.358887,3528.000000,4.000000,82.000000,,,,0.000000,4.000000,4.000000,4.000000,4.000000,4.000000,4.000000,4.000000,4.000000,4.000000,4.000000,4.000000,4.000000,4.000000,4.000000,100.000000,,,,,,,,,,,,,,,,
1644854811.766796,15.000000,0.000000,4239.615234,4233.846191,4227.307617,4227.820313,4229.102539,4225.256348,4222.051270,4225.512695,4219.358887,4220.000000,4228.974121,4203.974121,4341.410156,4212.692383,2378.000000,4.000000,82.000000,,,,0.000000,4.000000,4.000000,4.000000,4.000000,4.000000,4.000000,4.000000,4.000000,4.000000,4.000000,4.000000,4.000000,4.000000,4.000000,100.000000,,,,,,,,,,,,,,,,
1644854811.770736,16.000000,0.000000,4237.563965,4231.666504,4223.077148,4222.692383,4223.717773,4225.128418,4221.282227,4226.153809,4217.820313,4216.794922,4224.871582,4205.641113,4333.974121,4203.589844,3618.000000,4.000000,82.000000,,,,0.000000,4.000000,4.000000,4.000000,4.000000,4.000000,4.000000,4.000000,4.000000,4.000000,4.000000,4.000000,4.000000,4.000000,4.000000,100.000000,,,,,,,,,,,,,,,,
1644854811.774676,17.000000,0.000000,4227.051270,4228.717773,4218.461426,4219.743652,4217.692383,4223.077148,4218.077148,4221.922852,4212.179688,4211.025879,4211.666504,4204.358887,4324.358887,4198.333496,3455.000000,4.000000,82.000000,,,,0.000000,4.000000,4.000000,4.000000,4.000000,4.000000,4.000000,4.000000,4.000000,4.000000,4.000000,4.000000,4.000000,4.000000,4.000000,100.000000,,,,,,,,,,,,,,,,
1644854811.778616,18.000000,0.000000,4212.692383,4224.102539,4215.000000,4220.641113,4212.563965,4219.615234,4214.230957,4214.871582,4205.512695,4204.487305,4193.077148,4199.230957,4313.461426,4196.922852,3528.000000,4.000000,82.000000,,,,0.000000,4.000000,4.000000,4.000000,4.000000,4.000000,4.000000,4.000000,4.000000,4.000000,4.000000,4.000000,4.000000,4.000000,4.000000,100.000000,,,,,,,,,,,,,,,,
1644854811.782556,19.000000,0.000000,4201.922852,4218.205078,4213.461426,4225.256348,4209.871582,4216.282227,4213.205078,4209.102539,4201.282227,4198.974121,4178.717773,4191.410156,4303.589844,4199.615234,2378.000000,4.000000,82.000000,,,,0.000000,4.000000,4.000000,4.000000,4.000000,4.000000,4.000000,4.000000,4.000000,4.000000,4.000000,4.000000,4.000000,4.000000,4.000000,100.000000,,,,,,,,,,,,,,,,
1644854811.786496,20.000000,0.000000,4198.846191,4212.307617,4213.717773,4229.615234,4210.641113,4215.000000,4216.153809,4208.205078,4201.410156,4196.410156,4177.820313,4183.846191,4298.717773,4204.743652,3618.000000,4.000000,82.000000,,,,0.000000,4.000000,4.000000,4.000000,4.000000,4.000000,4.000000,4.000000,4.000000,4.000000,4.000000,4.000000,4.000000,4.000000,4.000000,100.000000,,,,,,,,,,,,,,,,
1644854811.790436,21.000000,0.000000,4201.922852,4208.846191,4213.974121,4228.589844,4214.615234,4216.153809,4220.256348,4212.436035,4206.025879,4198.205078,4191.410156,4179.487305,4301.153809,4209.230957,3455.000000,4.000000,82.000000,,,,0.000000,4.000000,4.000000,4.000000,4.000000,4.000000,4.000000,4.000000,4.000000,4.000000,4.000000,4.000000,4.000000,4.000000,4.000000,100.000000,,,,,,,,,,,,,,,,
1644854811.794376,22.000000,0.000000,4206.025879,4208.974121,4213.205078,4220.769043,4220.000000,4218.589844,4221.666504,4218.846191,4213.333496,4204.615234,4210.384766,4179.743652,4309.358887,4211.153809,3528.000000,4.000000,82.000000,,,,0.000000,4.000000,4.000000,4.000000,4.000000,4.000000,4.000000,4.000000,4.000000,4.000000,4.000000,4.000000,4.000000,4.000000,4.000000,100.000000,,,,,,,,,,,,,,,,
1644854811.798317,23.000000,0.000000,4207.820313,4212.692383,4211.794922,4210.641113,4224.102539,4220.256348,4220.000000,4224.230957,4220.512695,4213.846191,4222.948730,4183.974121,4319.230957,4211.538574,2378.000000,4.000000,82.000000,,,,0.000000,4.000000,4.000000,4.000000,4.000000,4.000000,4.000000,4.000000,4.000000,4.000000,4.000000,4.000000,4.000000,4.000000,4.000000,100.000000,,,,,,,,,,,,,,,,
1644854811.802257,24.000000,0.000000,4207.436035,4218.589844,4211.922852,4206.025879,4224.487305,4220.128418,4218.205078,4226.666504,4225.256348,4222.563965,4223.846191,4189.615234,4326.922852,4212.307617,3618.000000,4.000000,82.000000,,,,0.000000,4.000000,4.000000,4.000000,4.000000,4.000000,4.000000,4.000000,4.000000,4.000000,4.000000,4.000000,4.000000,4.000000,4.000000,100.000000,,,,,,,,,,,,,,,,
1644854811.806197,25.000000,0.000000,4207.436035,4224.743652,4215.256348,4210.128418,4220.769043,4218.589844,4218.974121,4226.666504,4227.307617,4226.538574,4217.692383,4193.333496,4331.282227,4214.102539,3455.000000,4.000000,82.000000,,,,0.000000,4.000000,4.000000,4.000000,4.000000,4.000000,4.000000,4.000000,4.000000,4.000000,4.000000,4.000000,4.000000,4.000000,4.000000,100.000000,,,,,,,,,,,,,,,,
1644854811.810137,26.000000,0.000000,4210.000000,4230.128418,4220.128418,4218.589844,4215.128418,4216.922852,4221.025879,4225.384766,4226.794922,4223.717773,4211.922852,4192.307617,4333.205078,4215.128418,3528.000000,4.000000,82.000000,,,,0.000000,4.000000,4.000000,4.000000,4.000000,4.000000,4.000000,4.000000,4.000000,4.000000,4.000000,4.000000,4.000000,4.000000,4.000000,100.000000,,,,,,,,,,,,,,,,
1644854811.814077,27.000000,0.000000,4214.615234,4233.589844,4223.717773,4223.205078,4211.794922,4216.282227,4221.666504,4223.461426,4224.871582,4216.538574,4210.512695,4186.922852,4333.077148,4213.846191,2378.000000,4.000000,82.000000,,,,0.000000,4.000000,4.000000,4.000000,4.000000,4.000000,4.000000,4.000000,4.000000,4.000000,4.000000,4.000000,4.000000,4.000000,4.000000,100.000000,,,,,,,,,,,,,,,,
1644854811.818017,28.000000,0.000000,4218.333496,4234.743652,4223.461426,4220.256348,4213.589844,4216.410156,4219.615234,4221.538574,4222.179688,4210.384766,4212.692383,4180.512695,4330.000000,4212.307617,3618.000000,4.000000,82.000000,,,,0.000000,4.000000,4.000000,4.000000,4.000000,4.000000,4.000000,4.000000,4.000000,4.000000,4.000000,4.000000,4.000000,4.000000,4.000000,100.000000,,,,,,,,,,,,,,,,
1644854811.821957,29.000000,0.000000,4218.846191,4232.820313,4219.743652,4213.077148,4220.384766,4217.051270,4216.666504,4220.384766,4219.358887,4210.128418,4216.794922,4177.563965,4322.820313,4212.563965,3455.000000,4.000000,82.000000,,,,0.000000,4.000000,4.000000,4.000000,4.000000,4.000000,4.000000,4.000000,4.000000,4.000000,4.000000,4.000000,4.000000,4.000000,4.000000,100.000000,,,,,,,,,,,,,,,,
1644854811.825897,30.000000,0.000000,4215.769043,4227.820313,4215.128418,4209.487305,4227.820313,4217.820313,4214.871582,4219.871582,4217.179688,4214.871582,4220.769043,4180.641113,4312.436035,4213.717773,3528.000000,4.000000,82.000000,,,,0.000000,4.000000,4.000000,4.000000,4.000000,4.000000,4.000000,4.000000,4.000000,4.000000,4.000000,4.000000,4.000000,4.000000,4.000000,100.000000,,,,,,,,,,,,,,,,
1644854811.829837,31.000000,0.000000,4212.307617,4220.897461,4212.563965,4213.589844,4231.153809,4218.461426,4214.358887,4220.000000,4216.025879,4219.358887,4221.153809,4188.205078,4302.436035,4211.410156,2378.000000,4.000000,82.000000,,,,0.000000,4.000000,4.000000,4.000000,4.000000,4.000000,4.000000,4.000000,4.000000,4.000000,4.000000,4.000000,4.000000,4.000000,4.000000,100.000000,,,,,,,,,,,,,,,,
1644854811.833777,32.000000,0.000000,4211.794922,4214.871582,4212.820313,4223.205078,4228.205078,4218.589844,4213.717773,4220.384766,4216.410156,4217.948730,4214.871582,4196.282227,4298.077148,4203.846191,0.000000,4.000000,82.000000,,,,0.000000,4.000000,4.000000,4.000000,4.000000,4.000000,4.000000,4.000000,4.000000,4.000000,4.000000,4.000000,4.000000,4.000000,4.000000,100.000000,,,,,,,,,,,,,,,,
1644854811.837817,33.000000,0.000000,4215.641113,4212.692383,4214.615234,4232.307617,4221.025879,4218.205078,4213.077148,4221.282227,4217.692383,4209.358887,4202.307617,4200.512695,4301.538574,4195.512695,0.000000,4.000000,82.000000,,,,0.000000,4.000000,4.000000,4.000000,4.000000,4.000000,4.000000,4.000000,4.000000,4.000000,4.000000,4.000000,4.000000,4.000000,4.000000,100.000000,,,,,,,,,,,,,,,,
1644854811.841758,34.000000,0.000000,4221.410156,4215.256348,4215.897461,4236.282227,4214.358887,4217.179688,4214.230957,4222.436035,4218.077148,4197.948730,4188.461426,4198.589844,4310.000000,4193.589844,0.000000,4.000000,82.000000,,,,0.000000,4.000000,4.000000,4.000000,4.000000,4.000000,4.000000,4.000000,4.000000,4.000000,4.000000,4.000000,4.000000,4.000000,4.000000,100.000000,1.000000,91.666664,4.000000,4.000000,4.000000,4.000000,4.000000,4.000000,4.000000,4.000000,4.000000,4.000000,3.000000,4.000000,4.000000,4.000000
1644854811.845698,35.000000,0.000000,4225.128418,4220.512695,4216.153809,4234.871582,4212.692383,4216.282227,4218.077148,4223.589844,4216.410156,4191.282227,4181.538574,4192.179688,4316.922852,4201.282227,0.000000,4.000000,82.000000,,,,0.000000,4.000000,4.000000,4.000000,4.000000,4.000000,4.000000,4.000000,4.000000,4.000000,4.000000,4.000000,4.000000,4.000000,4.000000,100.000000,,,,,,,,,,,,,,,,
1644854811.849638,36.000000,0.000000,4225.512695,4225.000000,4216.025879,4231.410156,4216.025879,4216.410156,4222.820313,4224.487305,4214.230957,4194.487305,4187.692383,4186.025879,4319.102539,4213.846191,0.000000,4.000000,82.000000,,,,0.000000,4.000000,4.000000,4.000000,4.000000,4.000000,4.000000,4.000000,4.000000,4.000000,4.000000,4.000000,4.000000,4.000000,4.000000,100.000000,,,,,,,,,,,,,,,,
1644854811.853578,37.000000,0.000000,4225.256348,4227.307617,4216.922852,4229.615234,4220.897461,4218.333496,4225.384766,4225.384766,4214.358887,4206.538574,4207.051270,4184.102539,4318.974121,4223.974121,0.000000,4.000000,82.000000,,,,0.000000,4.000000,4.000000,4.000000,4.000000,4.000000,4.000000,4.000000,4.000000,4.000000,4.000000,4.000000,4.000000,4.000000,4.000000,100.000000,,,,,,,,,,,,,,,,
1644854811.857518,38.000000,0.000000,4226.025879,4227.948730,4219.487305,4230.641113,4223.461426,4221.922852,4225.641113,4227.179688,4218.461426,4222.051270,4231.666504,4186.538574,4321.153809,4228.974121,0.000000,4.000000,82.000000,,,,0.000000,4.000000,4.000000,4.000000,4.000000,4.000000,4.000000,4.000000,4.000000,4.000000,4.000000,4.000000,4.000000,4.000000,4.000000,100.000000,,,,,,,,,,,,,,,,
1644854811.861458,39.000000,0.000000,4226.666504,4228.589844,4223.461426,4231.922852,4221.794922,4226.025879,4225.769043,4230.512695,4225.000000,4233.205078,4248.077148,4189.230957,4326.538574,4231.410156,0.000000,4.000000,82.000000,,,,0.000000,4.000000,4.000000,4.000000,4.000000,4.000000,4.000000,4.000000,4.000000,4.000000,4.000000,4.000000,4.000000,4.000000,4.000000,100.000000,,,,,,,,,,,,,,,,
1644854811.865398,40.000000,0.000000,4224.615234,4229.358887,4226.794922,4229.871582,4216.922852,4228.461426,4227.436035,4234.487305,4230.256348,4235.128418,4246.153809,4188.717773,4330.000000,4232.692383,0.000000,4.000000,82.000000,1,1,3,0.000000,4.000000,4.000000,4.000000,4.000000,4.000000,4.000000,4.000000,4.000000,4.000000,4.000000,4.000000,4.000000,4.000000,4.000000,100.000000,,,,,,,,,,,,,,,,
1644854811.869338,41.000000,0.000000,4218.846191,4228.717773,4227.179688,4223.205078,4212.307617,4227.563965,4229.230957,4236.666504,4231.538574,4228.846191,4226.666504,4186.153809,4325.128418,4229.615234,0.000000,4.000000,82.000000,,,,0.000000,4.000000,4.000000,4.000000,4.000000,4.000000,4.000000,4.000000,4.000000,4.000000,4.000000,4.000000,4.000000,4.000000,4.000000,100.000000,,,,,,,,,,,,,,,,
1644854811.873278,42.000000,0.000000,4210.769043,4225.000000,4224.487305,4215.256348,4211.538574,4223.846191,4227.948730,4235.384766,4228.717773,4220.384766,4201.922852,4186.153809,4310.769043,4217.307617,0.000000,4.000000,82.000000,,,,0.000000,4.000000,4.000000,4.000000,4.000000,4.000000,4.000000,4.000000,4.000000,4.000000,4.000000,4.000000,4.000000,4.000000,4.000000,100.000000,,,,,,,,,,,,,,,,
1644854811.877219,43.000000,0.000000,4203.205078,4217.820313,4220.512695,4211.922852,4216.153809,4219.102539,4223.589844,4231.282227,4223.974121,4216.282227,4187.948730,4191.794922,4292.820313,4196.922852,0.000000,4.000000,82.000000,,,,0.000000,4.000000,4.000000,4.000000,4.000000,4.000000,4.000000,4.000000,4.000000,4.000000,4.000000,4.000000,4.000000,4.000000,4.000000,100.000000,,,,,,,,,,,,,,,,
1644854811.881159,44.000000,0.000000,4199.487305,4209.358887,4217.948730,4216.282227,4223.461426,4215.897461,4219.743652,4227.051270,4220.256348,4218.077148,4192.179688,4200.512695,4281.025879,4178.717773,0.000000,4.000000,82.000000,,,,0.000000,4.000000,4.000000,4.000000,4.000000,4.000000,4.000000,4.000000,4.000000,4.000000,4.000000,4.000000,4.000000,4.000000,4.000000,100.000000,,,,,,,,,,,,,,,,
1644854811.885099,45.000000,0.000000,4201.922852,4203.589844,4217.436035,4226.025879,4228.589844,4215.512695,4219.871582,4224.358887,4218.461426,4221.794922,4209.487305,4206.025879,4282.307617,4174.487305,0.000000,4.000000,82.000000,,,,0.000000,4.000000,4.000000,4.000000,4.000000,4.000000,4.000000,4.000000,4.000000,4.000000,4.000000,4.000000,4.000000,4.000000,4.000000,100.000000,,,,,,,,,,,,,,,,
1644854811.889039,46.000000,0.000000,4210.128418,4203.589844,4217.436035,4233.846191,4228.589844,4217.179688,4223.077148,4222.563965,4218.333496,4222.948730,4226.410156,4203.846191,4296.794922,4187.692383,0.000000,4.000000,82.000000,,,,0.000000,4.000000,4.000000,4.000000,4.000000,4.000000,4.000000,4.000000,4.000000,4.000000,4.000000,4.000000,4.000000,4.000000,4.000000,100.000000,,,,,,,,,,,,,,,,
1644854811.892979,47.000000,0.000000,4219.358887,4208.974121,4216.410156,4233.333496,4224.743652,4219.230957,4225.641113,4220.256348,4218.205078,4219.743652,4232.563965,4195.128418,4317.436035,4210.897461,0.000000,4.000000,82.000000,,,,0.000000,4.000000,4.000000,4.000000,4.000000,4.000000,4.000000,4.000000,4.000000,4.000000,4.000000,4.000000,4.000000,4.000000,4.000000,100.000000,,,,,,,,,,,,,,,,
1644854811.896919,48.000000,0.000000,4223.333496,4216.794922,4214.743652,4224.230957,4221.282227,4220.256348,4224.743652,4216.538574,4217.179688,4215.256348,4226.410156,4186.025879,4332.436035,4230.769043,0.000000,4.000000,82.000000,,,,0.000000,4.000000,4.000000,4.000000,4.000000,4.000000,4.000000,4.000000,4.000000,4.000000,4.000000,4.000000,4.000000,4.000000,4.000000,100.000000,,,,,,,,,,,,,,,,
1644854811.900859,49.000000,0.000000,4217.820313,4221.922852,4214.487305,4213.333496,4220.641113,4219.487305,4221.410156,4213.077148,4215.128418,4212.692383,4213.974121,4181.538574,4332.820313,4238.205078,0.000000,4.000000,82.000000,,,,0.000000,4.000000,4.000000,4.000000,4.000000,4.000000,4.000000,4.000000,4.000000,4.000000,4.000000,4.000000,4.000000,4.000000,4.000000,100.000000,,,,,,,,,,,,,,,,
1644854811.904799,50.000000,0.000000,4205.256348,4220.769043,4216.282227,4208.717773,4221.922852,4217.948730,4218.589844,4211.794922,4212.948730,4213.205078,4202.820313,4181.538574,4317.948730,4232.692383,0.000000,4.000000,82.000000,,,,0.000000,4.000000,4.000000,4.000000,4.000000,4.000000,4.000000,4.000000,4.000000,4.000000,4.000000,4.000000,4.000000,4.000000,4.000000,100.000000,,,,,,,,,,,,,,,,
1644854811.908739,51.000000,0.000000,4193.077148,4213.846191,4218.205078,4213.205078,4221.666504,4216.922852,4217.436035,4212.307617,4211.410156,4214.358887,4196.794922,4181.794922,4296.794922,4220.000000,0.000000,4.000000,82.000000,,,,0.000000,4.000000,4.000000,4.000000,4.000000,4.000000,4.000000,4.000000,4.000000,4.000000,4.000000,4.000000,4.000000,4.000000,4.000000,100.000000,,,,,,,,,,,,,,,,
1644854811.912779,52.000000,0.000000,4188.974121,4205.000000,4217.179688,4221.538574,4217.948730,4216.922852,4216.666504,4212.436035,4210.256348,4212.563965,4195.769043,4179.102539,4281.794922,4207.051270,0.000000,4.000000,82.000000,,,,0.000000,4.000000,4.000000,4.000000,4.000000,4.000000,4.000000,4.000000,4.000000,4.000000,4.000000,4.000000,4.000000,4.000000,4.000000,100.000000,,,,,,,,,,,,,,,,
1644854811.916719,53.000000,0.000000,4194.871582,4199.102539,4212.051270,4224.871582,4212.179688,4217.436035,4215.384766,4210.769043,4208.461426,4205.000000,4197.692383,4173.461426,4279.358887,4198.461426,0.000000,4.000000,82.000000,,,,0.000000,4.000000,4.000000,4.000000,4.000000,4.000000,4.000000,4.000000,4.000000,4.000000,4.000000,4.000000,4.000000,4.000000,4.000000,100.000000,,,,,,,,,,,,,,,,
1644854811.920660,54.000000,0.000000,4205.897461,4197.692383,4205.000000,4218.717773,4208.333496,4217.563965,4214.743652,4207.307617,4205.000000,4193.333496,4200.256348,4168.589844,4286.025879,4195.256348,0.000000,4.000000,82.000000,,,,0.000000,4.000000,4.000000,4.000000,4.000000,4.000000,4.000000,4.000000,4.000000,4.000000,4.000000,4.000000,4.000000,4.000000,4.000000,100.000000,,,,,,,,,,,,,,,,
1644854811.924600,55.000000,0.000000,4213.461426,4199.743652,4200.769043,4206.282227,4208.974121,4217.436035,4216.153809,4204.358887,4200.512695,4183.589844,4202.948730,4168.974121,4293.077148,4195.384766,0.000000,4.000000,82.000000,,,,0.000000,4.000000,4.000000,4.000000,4.000000,4.000000,4.000000,4.000000,4.000000,4.000000,4.000000,4.000000,4.000000,4.000000,4.000000,100.000000,,,,,,,,,,,,,,,,
1644854811.928540,56.000000,0.000000,4212.179688,4203.589844,4202.051270,4195.641113,4214.102539,4217.563965,4218.717773,4204.487305,4197.436035,4181.922852,4205.256348,4175.000000,4295.256348,4196.538574,0.000000,4.000000,82.000000,,,,0.000000,4.000000,4.000000,4.000000,4.000000,4.000000,4.000000,4.000000,4.000000,4.000000,4.000000,4.000000,4.000000,4.000000,4.000000,100.000000,,,,,,,,,,,,,,,,
1644854811.932480,57.000000,0.000000,4203.717773,4208.205078,4207.563965,4192.692383,4221.282227,4218.077148,4219.871582,4207.692383,4197.563965,4190.256348,4205.641113,4182.179688,4293.205078,4197.692383,0.000000,4.000000,82.000000,,,,0.000000,4.000000,4.000000,4.000000,4.000000,4.000000,4.000000,4.000000,4.000000,4.000000,4.000000,4.000000,4.000000,4.000000,4.000000,100.000000,,,,,,,,,,,,,,,,
1644854811.936420,58.000000,0.000000,4194.615234,4212.948730,4213.461426,4198.077148,4227.179688,4218.205078,4218.461426,4212.179688,4201.025879,4204.358887,4201.922852,4185.641113,4290.769043,4200.000000,0.000000,4.000000,82.000000,,,,0.000000,4.000000,4.000000,4.000000,4.000000,4.000000,4.000000,4.000000,4.000000,4.000000,4.000000,4.000000,4.000000,4.000000,4.000000,100.000000,,,,,,,,,,,,,,,,
1644854811.940360,59.000000,0.000000,4191.794922,4217.179688,4216.794922,4208.077148,4228.974121,4217.692383,4216.410156,4215.897461,4206.025879,4216.410156,4192.820313,4184.102539,4289.230957,4204.487305,0.000000,4.000000,82.000000,,,,0.000000,4.000000,4.000000,4.000000,4.000000,4.000000,4.000000,4.000000,4.000000,4.000000,4.000000,4.000000,4.000000,4.000000,4.000000,100.000000,,,,,,,,,,,,,,,,
1644854811.944300,60.000000,0.000000,4197.820313,4220.641113,4217.563965,4218.461426,4226.282227,4216.282227,4217.051270,4217.820313,4210.384766,4220.128418,4181.922852,4181.666504,4287.307617,4208.974121,0.000000,4.000000,82.000000,,,,0.000000,4.000000,4.000000,4.000000,4.000000,4.000000,4.000000,4.000000,4.000000,4.000000,4.000000,4.000000,4.000000,4.000000,4.000000,100.000000,,,,,,,,,,,,,,,,
1644854811.948240,61.000000,0.000000,4209.615234,4223.461426,4218.205078,4227.692383,4221.410156,4215.384766,4220.897461,4218.974121,4212.820313,4215.512695,4176.538574,4182.436035,4284.871582,4210.384766,0.000000,4.000000,82.000000,,,,0.000000,4.000000,4.000000,4.000000,4.000000,4.000000,4.000000,4.000000,4.000000,4.000000,4.000000,4.000000,4.000000,4.000000,4.000000,100.000000,,,,,,,,,,,,,,,,
1644854811.952180,62.000000,0.000000,4220.000000,4225.384766,4220.384766,4235.897461,4218.077148,4216.153809,4225.000000,4220.769043,4214.358887,4208.717773,4183.077148,4186.794922,4283.333496,4207.948730,0.000000,4.000000,82.000000,,,,0.000000,4.000000,4.000000,4.000000,4.000000,4.000000,4.000000,4.000000,4.000000,4.000000,4.000000,4.000000,4.000000,4.000000,4.000000,100.000000,,,,,,,,,,,,,,,,
1644854811.956121,63.000000,0.000000,4222.563965,4225.000000,4222.948730,4242.436035,4218.717773,4218.589844,4225.897461,4223.333496,4216.282227,4206.666504,4200.256348,4190.000000,4284.871582,4204.871582,0.000000,4.000000,82.000000,,,,0.000000,4.000000,4.000000,4.000000,4.000000,4.000000,4.000000,4.000000,4.000000,4.000000,4.000000,4.000000,4.000000,4.000000,4.000000,100.000000,,,,,,,,,,,,,,,,
1644854811.960061,64.000000,0.000000,4215.256348,4220.897461,4223.077148,4244.102539,4222.948730,4220.897461,4223.077148,4225.384766,4218.461426,4210.256348,4217.948730,4187.436035,4289.487305,4204.487305,0.000000,4.000000,82.000000,,,,0.000000,4.000000,4.000000,4.000000,4.000000,4.000000,4.000000,4.000000,4.000000,4.000000,4.000000,4.000000,4.000000,4.000000,4.000000,100.000000,,,,,,,,,,,,,,,,
1644854811.964001,65.000000,0.000000,4202.179688,4213.717773,4218.846191,4237.692383,4227.179688,4220.384766,4218.461426,4225.256348,4218.717773,4213.974121,4224.102539,4178.589844,4294.743652,4205.897461,0.000000,4.000000,82.000000,,,,0.000000,4.000000,4.000000,4.000000,4.000000,4.000000,4.000000,4.000000,4.000000,4.000000,4.000000,4.000000,4.000000,4.000000,4.000000,100.000000,,,,,,,,,,,,,,,,
1644854811.967941,66.000000,0.000000,4190.000000,4207.307617,4211.922852,4224.358887,4227.436035,4216.153809,4214.487305,4222.179688,4216.025879,4211.410156,4214.102539,4168.077148,4297.563965,4205.128418,0.000000,4.000000,82.000000,,,,0.000000,4.000000,4.000000,4.000000,4.000000,4.000000,4.000000,4.000000,4.000000,4.000000,4.000000,4.000000,4.000000,4.000000,4.000000,100.000000,,,,,,,,,,,,,,,,
1644854811.971881,67.000000,0.000000,4184.743652,4206.025879,4205.897461,4209.743652,4222.051270,4210.384766,4211.666504,4217.307617,4211.666504,4201.538574,4195.256348,4162.820313,4296.025879,4200.256348,0.000000,4.000000,82.000000,,,,0.000000,4.000000,4.000000,4.000000,4.000000,4.000000,4.000000,4.000000,4.000000,4.000000,4.000000,4.000000,4.000000,4.000000,4.000000,100.000000,,,,,,,,,,,,,,,,
1644854811.975921,68.000000,0.000000,4187.820313,4210.769043,4204.487305,4201.153809,4213.077148,4207.307617,4210.256348,4213.589844,4209.102539,4190.641113,4181.153809,4166.666504,4290.128418,4194.358887,0.000000,4.000000,82.000000,,,,0.000000,4.000000,4.000000,4.000000,4.000000,4.000000,4.000000,4.000000,4.000000,4.000000,4.000000,4.000000,4.000000,4.000000,4.000000,100.000000,,,,,,,,,,,,,,,,
1644854811.979861,69.000000,0.000000,4195.000000,4218.077148,4208.717773,4201.282227,4205.256348,4208.974121,4211.025879,4213.077148,4210.512695,4187.820313,4181.153809,4178.333496,4282.179688,4193.205078,0.000000,4.000000,82.000000,,,,0.000000,4.000000,4.000000,4.000000,4.000000,4.000000,4.000000,4.000000,4.000000,4.000000,4.000000,4.000000,4.000000,4.000000,4.000000,100.000000,,,,,,,,,,,,,,,,
1644854811.983801,70.000000,0.000000,4200.897461,4222.948730,4215.769043,4206.794922,4202.948730,4214.230957,4214.487305,4216.025879,4215.384766,4197.820313,4193.589844,4191.666504,4276.153809,4198.461426,0.000000,4.000000,82.000000,,,,0.000000,4.000000,4.000000,4.000000,4.000000,4.000000,4.000000,4.000000,4.000000,4.000000,4.000000,4.000000,4.000000,4.000000,4.000000,100.000000,,,,,,,,,,,,,,,,
1644854811.987741,71.000000,0.000000,4202.307617,4223.077148,4221.666504,4212.948730,4208.205078,4219.487305,4219.230957,4220.769043,4221.025879,4216.666504,4208.461426,4200.384766,4276.666504,4206.025879,0.000000,4.000000,82.000000,,,,0.000000,4.000000,4.000000,4.000000,4.000000,4.000000,4.000000,4.000000,4.000000,4.000000,4.000000,4.000000,4.000000,4.000000,4.000000,100.000000,,,,,,,,,,,,,,,,
1644854811.991681,72.000000,0.000000,4200.512695,4220.256348,4224.358887,4218.846191,4219.743652,4222.563965,4222.307617,4225.000000,4225.000000,4234.615234,4216.666504,4202.563965,4285.897461,4210.769043,0.000000,4.000000,82.000000,,,,0.000000,4.000000,4.000000,4.000000,4.000000,4.000000,4.000000,4.000000,4.000000,4.000000,4.000000,4.000000,4.000000,4.000000,4.000000,100.000000,,,,,,,,,,,,,,,,
1644854811.995522,73.000000,0.000000,4199.615234,4218.589844,4224.615234,4227.051270,4233.205078,4223.589844,4221.666504,4227.307617,4226.538574,4242.436035,4217.436035,4200.769043,4302.563965,4212.179688,0.000000,4.000000,82.000000,,,,0.000000,4.000000,4.000000,4.000000,4.000000,4.000000,4.000000,4.000000,4.000000,4.000000,4.000000,4.000000,4.000000,4.000000,4.000000,100.000000,,,,,,,,,,,,,,,,
1644854811.999462,74.000000,0.000000,4202.948730,4220.256348,4224.871582,4238.333496,4243.589844,4224.230957,4219.230957,4227.563965,4225.897461,4238.205078,4216.153809,4198.717773,4321.153809,4214.358887,0.000000,4.000000,82.000000,,,,0.000000,4.000000,4.000000,4.000000,4.000000,4.000000,4.000000,4.000000,4.000000,4.000000,4.000000,4.000000,4.000000,4.000000,4.000000,100.000000,,,,,,,,,,,,,,,,
1644854812.003402,75.000000,0.000000,4210.256348,4224.230957,4226.794922,4248.077148,4247.436035,4225.128418,4218.589844,4226.794922,4224.230957,4227.307617,4217.948730,4198.205078,4334.487305,4219.615234,0.000000,4.000000,82.000000,,,,0.000000,4.000000,4.000000,4.000000,4.000000,4.000000,4.000000,4.000000,4.000000,4.000000,4.000000,4.000000,4.000000,4.000000,4.000000,100.000000,,,,,,,,,,,,,,,,
1644854812.007342,76.000000,0.000000,4217.436035,4228.077148,4230.256348,4249.358887,4244.230957,4226.282227,4220.897461,4226.025879,4222.820313,4218.461426,4222.820313,4198.717773,4336.922852,4224.358887,0.000000,4.000000,82.000000,,,,0.000000,4.000000,4.000000,4.000000,4.000000,4.000000,4.000000,4.000000,4.000000,4.000000,4.000000,4.000000,4.000000,4.000000,4.000000,100.000000,,,,,,,,,,,,,,,,
1644854812.011282,77.000000,0.000000,4221.025879,4230.128418,4233.205078,4240.128418,4237.179688,4227.179688,4223.589844,4226.153809,4223.846191,4217.692383,4226.538574,4200.384766,4327.436035,4222.179688,0.000000,4.000000,82.000000,,,,0.000000,4.000000,4.000000,4.000000,4.000000,4.000000,4.000000,4.000000,4.000000,4.000000,4.000000,4.000000,4.000000,4.000000,4.000000,100.000000,,,,,,,,,,,,,,,,
1644854812.015222,78.000000,0.000000,4220.512695,4230.897461,4234.230957,4226.153809,4230.384766,4228.333496,4223.717773,4227.051270,4227.692383,4225.000000,4226.153809,4203.333496,4310.512695,4210.897461,0.000000,4.000000,82.000000,,,,0.000000,4.000000,4.000000,4.000000,4.000000,4.000000,4.000000,4.000000,4.000000,4.000000,4.000000,4.000000,4.000000,4.000000,4.000000,100.000000,,,,,,,,,,,,,,,,
1644854812.019162,79.000000,0.000000,4218.846191,4231.538574,4233.333496,4217.307617,4226.153809,4229.615234,4221.153809,4228.974121,4232.820313,4235.512695,4223.205078,4207.436035,4295.641113,4197.179688,0.000000,4.000000,82.000000,,,,0.000000,4.000000,4.000000,4.000000,4.000000,4.000000,4.000000,4.000000,4.000000,4.000000,4.000000,4.000000,4.000000,4.000000,4.000000,100.000000,,,,,,,,,,,,,,,,
1644854812.023102,80.000000,0.000000,4220.128418,4233.333496,4232.563965,4219.615234,4224.743652,4230.128418,4218.717773,4231.666504,4236.410156,4242.820313,4221.666504,4210.769043,4291.410156,4191.153809,0.000000,4.000000,82.000000,2,1,3,0.000000,4.000000,4.000000,4.000000,4.000000,4.000000,4.000000,4.000000,4.000000,4.000000,4.000000,4.000000,4.000000,4.000000,4.000000,100.000000,,,,,,,,,,,,,,,,
1644854812.027042,81.000000,0.000000,4225.641113,4236.538574,4233.077148,4231.025879,4224.871582,4229.230957,4218.846191,4235.128418,4237.436035,4244.358887,4223.589844,4211.153809,4300.512695,4198.461426,0.000000,4.000000,82.000000,,,,0.000000,4.000000,4.000000,4.000000,4.000000,4.000000,4.000000,4.000000,4.000000,4.000000,4.000000,4.000000,4.000000,4.000000,4.000000,100.000000,,,,,,,,,,,,,,,,
1644854812.030983,82.000000,0.000000,4232.436035,4240.384766,4234.871582,4243.205078,4225.384766,4226.922852,4220.769043,4239.230957,4237.436035,4242.692383,4227.436035,4208.333496,4317.307617,4215.512695,0.000000,4.000000,82.000000,,,,0.000000,4.000000,4.000000,4.000000,4.000000,4.000000,4.000000,4.000000,4.000000,4.000000,4.000000,4.000000,4.000000,4.000000,4.000000,100.000000,,,,,,,,,,,,,,,,
1644854812.034923,83.000000,0.000000,4235.384766,4243.205078,4236.794922,4248.846191,4226.410156,4224.358887,4222.307617,4243.461426,4238.846191,4241.794922,4231.282227,4204.871582,4332.307617,4231.794922,0.000000,4.000000,82.000000,,,,0.000000,4.000000,4.000000,4.000000,4.000000,4.000000,4.000000,4.000000,4.000000,4.000000,4.000000,4.000000,4.000000,4.000000,4.000000,100.000000,,,,,,,,,,,,,,,,
1644854812.038863,84.000000,0.000000,4231.153809,4242.692383,4238.205078,4247.307617,4228.077148,4223.333496,4223.205078,4246.794922,4241.794922,4242.820313,4235.000000,4203.717773,4338.205078,4238.717773,0.000000,4.000000,82.000000,,,,0.000000,4.000000,4.000000,4.000000,4.000000,4.000000,4.000000,4.000000,4.000000,4.000000,4.000000,4.000000,4.000000,4.000000,4.000000,100.000000,,,,,,,,,,,,,,,,
1644854812.042803,85.000000,0.000000,4221.282227,4237.563965,4239.230957,4243.846191,4230.384766,4224.743652,4224.743652,4248.205078,4243.589844,4243.461426,4238.717773,4205.897461,4334.102539,4234.102539,0.000000,4.000000,82.000000,,,,0.000000,4.000000,4.000000,4.000000,4.000000,4.000000,4.000000,4.000000,4.000000,4.000000,4.000000,4.000000,4.000000,4.000000,4.000000,100.000000,,,,,,,,,,,,,,,,
1644854812.046743,86.000000,0.000000,4210.897461,4228.205078,4239.487305,4243.589844,4232.692383,4228.077148,4227.436035,4246.666504,4241.538574,4240.641113,4241.282227,4209.358887,4324.487305,4222.692383,0.000000,4.000000,82.000000,,,,0.000000,4.000000,4.000000,4.000000,4.000000,4.000000,4.000000,4.000000,4.000000,4.000000,4.000000,4.000000,4.000000,4.000000,4.000000,100.000000,,,,,,,,,,,,,,,,
1644854812.050783,87.000000,0.000000,4204.487305,4218.077148,4237.948730,4246.025879,4234.743652,4232.307617,4229.230957,4242.179688,4235.256348,4235.128418,4238.846191,4210.384766,4315.897461,4211.153809,0.000000,4.000000,82.000000,,,,0.000000,4.000000,4.000000,4.000000,4.000000,4.000000,4.000000,4.000000,4.000000,4.000000,4.000000,4.000000,4.000000,4.000000,4.000000,100.000000,,,,,,,,,,,,,,,,
1644854812.054723,88.000000,0.000000,4204.230957,4212.307617,4234.230957,4245.128418,4235.897461,4235.512695,4228.205078,4236.538574,4227.820313,4230.128418,4227.948730,4206.538574,4311.666504,4203.461426,0.000000,4.000000,82.000000,,,,0.000000,4.000000,4.000000,4.000000,4.000000,4.000000,4.000000,4.000000,4.000000,4.000000,4.000000,4.000000,4.000000,4.000000,4.000000,100.000000,,,,,,,,,,,,,,,,
1644854812.058663,89.000000,0.000000,4209.230957,4214.487305,4229.230957,4235.897461,4234.487305,4235.641113,4225.256348,4232.179688,4222.436035,4228.077148,4209.615234,4199.102539,4309.871582,4199.871582,0.000000,4.000000,82.000000,,,,0.000000,4.000000,4.000000,4.000000,4.000000,4.000000,4.000000,4.000000,4.000000,4.000000,4.000000,4.000000,4.000000,4.000000,4.000000,100.000000,,,,,,,,,,,,,,,,
1644854812.062603,90.000000,0.000000,4216.538574,4223.717773,4225.000000,4220.769043,4229.743652,4232.051270,4223.333496,4230.641113,4220.641113,4228.589844,4190.641113,4191.410156,4306.410156,4199.230957,0.000000,4.000000,82.000000,,,,0.000000,4.000000,4.000000,4.000000,4.000000,4.000000,4.000000,4.000000,4.000000,4.000000,4.000000,4.000000,4.000000,4.000000,4.000000,100.000000,,,,,,,,,,,,,,,,
1644854812.066543,91.000000,0.000000,4221.794922,4233.974121,4223.589844,4208.461426,4223.461426,4226.153809,4223.846191,4231.666504,4221.666504,4229.615234,4181.922852,4187.436035,4299.487305,4199.487305,0.000000,4.000000,82.000000,,,,0.000000,4.000000,4.000000,4.000000,4.000000,4.000000,4.000000,4.000000,4.000000,4.000000,4.000000,4.000000,4.000000,4.000000,4.000000,100.000000,,,,,,,,,,,,,,,,
1644854812.070483,92.000000,0.000000,4222.436035,4238.717773,4224.871582,4207.051270,4218.846191,4221.025879,4224.743652,4233.717773,4223.846191,4229.871582,4191.410156,4188.974121,4292.692383,4200.128418,0.000000,4.000000,82.000000,,,,0.000000,4.000000,4.000000,4.000000,4.000000,4.000000,4.000000,4.000000,4.000000,4.000000,4.000000,4.000000,4.000000,4.000000,4.000000,100.000000,,,,,,,,,,,,,,,,
1644854812.074424,93.000000,0.000000,4218.461426,4235.384766,4227.692383,4216.794922,4218.589844,4219.230957,4223.717773,4235.512695,4225.769043,4230.384766,4216.410156,4194.487305,4292.179688,4202.307617,0.000000,4.000000,82.000000,,,,0.000000,4.000000,4.000000,4.000000,4.000000,4.000000,4.000000,4.000000,4.000000,4.000000,4.000000,4.000000,4.000000,4.000000,4.000000,100.000000,,,,,,,,,,,,,,,,
1644854812.078364,94.000000,0.000000,4212.563965,4227.436035,4230.000000,4229.230957,4222.307617,4220.641113,4221.538574,4236.410156,4227.051270,4233.077148,4243.333496,4200.384766,4300.897461,4207.692383,0.000000,4.000000,82.000000,,,,0.000000,4.000000,4.000000,4.000000,4.000000,4.000000,4.000000,4.000000,4.000000,4.000000,4.000000,4.000000,4.000000,4.000000,4.000000,100.000000,,,,,,,,,,,,,,,,
1644854812.082304,95.000000,0.000000,4208.846191,4221.025879,4231.282227,4235.384766,4227.051270,4223.589844,4221.153809,4235.769043,4227.563965,4238.077148,4256.922852,4203.974121,4315.384766,4215.897461,0.000000,4.000000,82.000000,,,,0.000000,4.000000,4.000000,4.000000,4.000000,4.000000,4.000000,4.000000,4.000000,4.000000,4.000000,4.000000,4.000000,4.000000,4.000000,100.000000,,,,,,,,,,,,,,,,
1644854812.086244,96.000000,0.000000,4210.384766,4220.769043,4232.307617,4233.205078,4229.743652,4226.153809,4223.846191,4234.230957,4227.692383,4242.820313,4251.025879,4205.512695,4328.333496,4223.205078,0.000000,4.000000,82.000000,,,,0.000000,4.000000,4.000000,4.000000,4.000000,4.000000,4.000000,4.000000,4.000000,4.000000,4.000000,4.000000,4.000000,4.000000,4.000000,100.000000,,,,,,,,,,,,,,,,
1644854812.090184,97.000000,0.000000,4218.205078,4227.307617,4233.846191,4228.717773,4230.256348,4227.563965,4226.922852,4233.333496,4227.563965,4244.871582,4233.461426,4206.538574,4334.102539,4225.769043,0.000000,4.000000,82.000000,,,,0.000000,4.000000,4.000000,4.000000,4.000000,4.000000,4.000000,4.000000,4.000000,4.000000,4.000000,4.000000,4.000000,4.000000,4.000000,100.000000,,,,,,,,,,,,,,,,
1644854812.094124,98.000000,0.000000,4230.256348,4236.922852,4236.282227,4230.000000,4229.871582,4227.692383,4226.794922,4234.615234,4226.794922,4243.333496,4218.333496,4207.820313,4332.948730,4223.333496,0.000000,4.000000,82.000000,,,,0.000000,4.000000,4.000000,4.000000,4.000000,4.000000,4.000000,4.000000,4.000000,4.000000,4.000000,4.000000,4.000000,4.000000,4.000000,100.000000,,,,,,,,,,,,,,,,
1644854812.098064,99.000000,0.000000,4241.410156,4243.846191,4238.461426,4239.358887,4228.846191,4227.307617,4223.333496,4236.794922,4225.769043,4239.487305,4214.743652,4207.820313,4328.974121,4219.743652,0.000000,4.000000,82.000000,,,,0.000000,4.000000,4.000000,4.000000,4.000000,4.000000,4.000000,4.000000,4.000000,4.000000,4.000000,4.000000,4.000000,4.000000,4.000000,100.000000,,,,,,,,,,,,,,,,
1644854812.102004,100.000000,0.000000,4245.128418,4243.461426,4239.743652,4250.384766,4226.794922,4226.794922,4220.000000,4236.025879,4225.000000,4234.871582,4220.000000,4205.641113,4324.871582,4218.589844,0.000000,4.000000,82.000000,,,,0.000000,4.000000,4.000000,4.000000,4.000000,4.000000,4.000000,4.000000,4.000000,4.000000,4.000000,4.000000,4.000000,4.000000,4.000000,100.000000,,,,,,,,,,,,,,,,
1644854812.105944,101.000000,0.000000,4237.948730,4234.871582,4239.358887,4252.948730,4224.102539,4226.666504,4220.128418,4226.666504,4225.000000,4231.153809,4224.358887,4202.563965,4319.358887,4217.820313,0.000000,4.000000,82.000000,,,,0.000000,4.000000,4.000000,4.000000,4.000000,4.000000,4.000000,4.000000,4.000000,4.000000,4.000000,4.000000,4.000000,4.000000,4.000000,100.000000,,,,,,,,,,,,,,,,
1644854812.109885,102.000000,0.000000,4223.205078,4221.794922,4237.436035,4242.307617,4222.692383,4227.179688,4222.948730,4206.153809,4225.384766,4230.000000,4220.769043,4200.897461,4310.000000,4212.820313,0.000000,4.000000,82.000000,,,,0.000000,4.000000,4.000000,4.000000,4.000000,4.000000,4.000000,4.000000,4.000000,4.000000,4.000000,4.000000,4.000000,4.000000,4.000000,100.000000,,,,,,,,,,,,,,,,
1644854812.113825,103.000000,0.000000,4209.358887,4210.512695,4234.487305,4223.974121,4224.358887,4228.077148,4225.128418,4176.922852,4225.128418,4231.410156,4212.436035,4201.794922,4297.820313,4202.436035,0.000000,4.000000,82.000000,,,,0.000000,4.000000,4.000000,4.000000,4.000000,4.000000,4.000000,4.000000,4.000000,4.000000,4.000000,4.000000,4.000000,4.000000,4.000000,100.000000,,,,,,,,,,,,,,,,
1644854812.117765,104.000000,0.000000,4203.846191,4206.282227,4231.410156,4210.641113,4227.948730,4228.333496,4224.871582,4147.436035,4223.846191,4233.205078,4207.692383,4203.974121,4286.666504,4193.077148,0.000000,4.000000,82.000000,,,,0.000000,4.000000,4.000000,4.000000,4.000000,4.000000,4.000000,4.000000,4.000000,4.000000,4.000000,4.000000,4.000000,4.000000,4.000000,100.000000,,,,,,,,,,,,,,,,
1644854812.121805,105.000000,0.000000,4207.948730,4210.256348,4228.589844,4212.051270,4230.897461,4227.179688,4223.205078,4127.948730,4221.666504,4233.333496,4211.666504,4205.000000,4281.666504,4193.077148,0.000000,4.000000,82.000000,,,,0.000000,4.000000,4.000000,4.000000,4.000000,4.000000,4.000000,4.000000,4.000000,4.000000,4.000000,4.000000,4.000000,4.000000,4.000000,100.000000,,,,,,,,,,,,,,,,
1644854812.125745,106.000000,0.000000,4215.897461,4219.102539,4226.538574,4227.563965,4230.769043,4225.128418,4222.692383,4125.000000,4219.615234,4231.282227,4220.641113,4203.077148,4284.743652,4203.974121,0.000000,4.000000,82.000000,,,,0.000000,4.000000,4.000000,4.000000,4.000000,4.000000,4.000000,4.000000,4.000000,4.000000,4.000000,4.000000,4.000000,4.000000,4.000000,100.000000,,,,,,,,,,,,,,,,
1644854812.129685,107.000000,0.000000,4220.641113,4227.692383,4225.512695,4246.410156,4228.846191,4223.589844,4223.974121,4137.563965,4219.102539,4229.102539,4226.410156,4198.589844,4294.358887,4217.820313,0.000000,4.000000,82.000000,,,,0.000000,4.000000,4.000000,4.000000,4.000000,4.000000,4.000000,4.000000,4.000000,4.000000,4.000000,4.000000,4.000000,4.000000,4.000000,100.000000,,,,,,,,,,,,,,,,
1644854812.133625,108.000000,0.000000,4220.641113,4232.692383,4225.769043,4255.256348,4228.846191,4224.615234,4225.769043,4157.436035,4220.512695,4228.846191,4223.461426,4193.205078,4305.769043,4224.615234,0.000000,4.000000,82.000000,,,,0.000000,4.000000,4.000000,4.000000,4.000000,4.000000,4.000000,4.000000,4.000000,4.000000,4.000000,4.000000,4.000000,4.000000,4.000000,100.000000,,,,,,,,,,,,,,,,
1644854812.137565,109.000000,0.000000,4218.974121,4232.948730,4226.794922,4248.333496,4233.461426,4228.205078,4227.179688,4175.128418,4222.563965,4230.641113,4213.589844,4188.717773,4312.692383,4221.666504,0.000000,4.000000,82.000000,,,,0.000000,4.000000,4.000000,4.000000,4.000000,4.000000,4.000000,4.000000,4.000000,4.000000,4.000000,4.000000,4.000000,4.000000,4.000000,100.000000,,,,,,,,,,,,,,,,
1644854812.141505,110.000000,0.000000,4219.230957,4229.487305,4227.307617,4230.512695,4240.641113,4231.922852,4228.589844,4185.128418,4223.205078,4231.794922,4203.461426,4185.641113,4311.794922,4214.358887,0.000000,4.000000,82.000000,,,,0.000000,4.000000,4.000000,4.000000,4.000000,4.000000,4.000000,4.000000,4.000000,4.000000,4.000000,4.000000,4.000000,4.000000,4.000000,100.000000,,,,,,,,,,,,,,,,
1644854812.145445,111.000000,0.000000,4220.897461,4224.743652,4226.794922,4214.358887,4244.487305,4233.333496,4230.256348,4187.820313,4221.794922,4229.743652,4199.615234,4183.589844,4303.846191,4209.358887,0.000000,4.000000,82.000000,,,,0.000000,4.000000,4.000000,4.000000,4.000000,4.000000,4.000000,4.000000,4.000000,4.000000,4.000000,4.000000,4.000000,4.000000,4.000000,100.000000,,,,,,,,,,,,,,,,
1644854812.149386,112.000000,0.000000,4221.153809,4220.769043,4225.000000,4210.384766,4240.769043,4231.153809,4230.641113,4187.820313,4219.743652,4225.000000,4203.461426,4183.333496,4293.461426,4207.563965,0.000000,4.000000,82.000000,,,,0.000000,4.000000,4.000000,4.000000,4.000000,4.000000,4.000000,4.000000,4.000000,4.000000,4.000000,4.000000,4.000000,4.000000,4.000000,100.000000,,,,,,,,,,,,,,,,
1644854812.153326,113.000000,0.000000,4218.205078,4217.436035,4222.179688,4220.512695,4230.769043,4226.922852,4228.461426,4189.230957,4219.102539,4221.153809,4211.410156,4185.769043,4285.641113,4205.897461,0.000000,4.000000,82.000000,,,,0.000000,4.000000,4.000000,4.000000,4.000000,4.000000,4.000000,4.000000,4.000000,4.000000,4.000000,4.000000,4.000000,4.000000,4.000000,100.000000,,,,,,,,,,,,,,,,
1644854812.157266,114.000000,0.000000,4213.461426,4213.717773,4219.487305,4236.922852,4221.666504,4223.205078,4224.743652,4193.077148,4220.897461,4222.307617,4218.333496,4190.512695,4282.948730,4202.948730,0.000000,4.000000,82.000000,3,1,3,0.000000,4.000000,4.000000,4.000000,4.000000,4.000000,4.000000,4.000000,4.000000,4.000000,4.000000,4.000000,4.000000,4.000000,4.000000,100.000000,,,,,,,,,,,,,,,,
1644854812.161206,115.000000,0.000000,4211.153809,4209.871582,4218.717773,4248.461426,4219.871582,4221.922852,4222.820313,4197.948730,4224.230957,4228.846191,4222.051270,4195.641113,4285.000000,4201.410156,0.000000,4.000000,82.000000,,,,0.000000,4.000000,4.000000,4.000000,4.000000,4.000000,4.000000,4.000000,4.000000,4.000000,4.000000,4.000000,4.000000,4.000000,4.000000,100.000000,,,,,,,,,,,,,,,,
1644854812.165146,116.000000,0.000000,4213.846191,4208.205078,4220.384766,4247.948730,4225.769043,4223.205078,4224.358887,4202.179688,4227.563965,4236.666504,4223.461426,4198.077148,4290.641113,4204.230957,0.000000,4.000000,82.000000,,,,0.000000,4.000000,4.000000,4.000000,4.000000,4.000000,4.000000,4.000000,4.000000,4.000000,4.000000,4.000000,4.000000,4.000000,4.000000,100.000000,,,,,,,,,,,,,,,,
1644854812.169086,117.000000,0.000000,4220.641113,4210.769043,4223.589844,4236.794922,4234.230957,4225.256348,4227.179688,4204.487305,4229.743652,4240.641113,4223.846191,4196.666504,4298.589844,4209.871582,0.000000,4.000000,82.000000,,,,0.000000,4.000000,4.000000,4.000000,4.000000,4.000000,4.000000,4.000000,4.000000,4.000000,4.000000,4.000000,4.000000,4.000000,4.000000,100.000000,,,,,,,,,,,,,,,,
1644854812.173026,118.000000,0.000000,4226.794922,4216.538574,4225.897461,4223.077148,4238.077148,4225.384766,4227.307617,4203.846191,4229.230957,4238.461426,4223.461426,4192.692383,4306.538574,4212.820313,0.000000,4.000000,82.000000,,,,0.000000,4.000000,4.000000,4.000000,4.000000,4.000000,4.000000,4.000000,4.000000,4.000000,4.000000,4.000000,4.000000,4.000000,4.000000,100.000000,,,,,,,,,,,,,,,,
1644854812.176966,119.000000,0.000000,4227.692383,4221.282227,4225.769043,4214.871582,4234.358887,4222.436035,4223.717773,4200.384766,4225.641113,4231.282227,4220.512695,4189.487305,4310.512695,4209.743652,0.000000,4.000000,82.000000,,,,0.000000,4.000000,4.000000,4.000000,4.000000,4.000000,4.000000,4.000000,4.000000,4.000000,4.000000,4.000000,4.000000,4.000000,4.000000,100.000000,,,,,,,,,,,,,,,,
1644854812.180906,120.000000,0.000000,4222.179688,4220.641113,4224.358887,4216.153809,4225.256348,4218.077148,4219.871582,4196.538574,4219.871582,4223.077148,4213.589844,4189.487305,4306.666504,4202.948730,0.000000,4.000000,82.000000,,,,0.000000,4.000000,4.000000,4.000000,4.000000,4.000000,4.000000,4.000000,4.000000,4.000000,4.000000,4.000000,4.000000,4.000000,4.000000,100.000000,,,,,,,,,,,,,,,,
1644854812.184846,121.000000,0.000000,4214.358887,4215.512695,4223.974121,4224.102539,4217.307617,4215.128418,4220.384766,4195.256348,4214.871582,4217.692383,4205.256348,4192.692383,4296.025879,4199.230957,0.000000,4.000000,82.000000,4,1,3,0.000000,4.000000,4.000000,4.000000,4.000000,4.000000,4.000000,4.000000,4.000000,4.000000,4.000000,4.000000,4.000000,4.000000,4.000000,100.000000,,,,,,,,,,,,,,,,
1644854812.188787,122.000000,0.000000,4210.128418,4210.641113,4225.769043,4232.692383,4216.282227,4215.897461,4224.743652,4197.051270,4213.589844,4217.820313,4201.922852,4195.897461,4284.358887,4203.461426,0.000000,4.000000,82.000000,,,,0.000000,4.000000,4.000000,4.000000,4.000000,4.000000,4.000000,4.000000,4.000000,4.000000,4.000000,4.000000,4.000000,4.000000,4.000000,100.000000,,,,,,,,,,,,,,,,
1644854812.192727,123.000000,0.000000,4211.922852,4210.256348,4228.077148,4236.410156,4222.692383,4219.358887,4228.846191,4199.230957,4216.025879,4222.820313,4207.692383,4195.256348,4278.077148,4213.333496,0.000000,4.000000,82.000000,,,,0.000000,4.000000,4.000000,4.000000,4.000000,4.000000,4.000000,4.000000,4.000000,4.000000,4.000000,4.000000,4.000000,4.000000,4.000000,100.000000,,,,,,,,,,,,,,,,
1644854812.196567,124.000000,0.000000,4216.922852,4213.333496,4228.717773,4233.205078,4230.897461,4222.307617,4228.974121,4199.102539,4219.358887,4229.358887,4219.615234,4189.743652,4279.230957,4221.410156,0.000000,4.000000,82.000000,,,,0.000000,4.000000,4.000000,4.000000,4.000000,4.000000,4.000000,4.000000,4.000000,4.000000,4.000000,4.000000,4.000000,4.000000,4.000000,100.000000,,,,,,,,,,,,,,,,
1644854812.200507,125.000000,0.000000,4219.358887,4215.000000,4226.794922,4225.256348,4233.974121,4222.692383,4226.282227,4196.410156,4220.128418,4233.461426,4229.871582,4183.077148,4284.743652,4221.025879,0.000000,4.000000,82.000000,,,,0.000000,4.000000,4.000000,4.000000,4.000000,4.000000,4.000000,4.000000,4.000000,4.000000,4.000000,4.000000,4.000000,4.000000,4.000000,100.000000,,,,,,,,,,,,,,,,
1644854812.204447,126.000000,0.000000,4216.538574,4212.051270,4224.230957,4216.538574,4229.743652,4221.282227,4224.358887,4193.717773,4217.563965,4233.717773,4232.563965,4181.410156,4289.102539,4211.666504,0.000000,4.000000,82.000000,,,,0.000000,4.000000,4.000000,4.000000,4.000000,4.000000,4.000000,4.000000,4.000000,4.000000,4.000000,4.000000,4.000000,4.000000,4.000000,100.000000,,,,,,,,,,,,,,,,
1644854812.208387,127.000000,0.000000,4211.153809,4205.641113,4222.948730,4211.282227,4222.820313,4221.153809,4225.000000,4193.205078,4214.230957,4231.282227,4228.717773,4187.563965,4290.128418,4198.974121,0.000000,4.000000,82.000000,,,,0.000000,4.000000,4.000000,4.000000,4.000000,4.000000,4.000000,4.000000,4.000000,4.000000,4.000000,4.000000,4.000000,4.000000,4.000000,100.000000,,,,,,,,,,,,,,,,
1644854812.212427,128.000000,0.000000,4207.563965,4200.000000,4223.589844,4211.538574,4220.128418,4224.615234,4226.794922,4195.641113,4213.974121,4227.948730,4223.333496,4198.589844,4288.205078,4191.025879,3421.000000,4.000000,82.000000,,,,0.000000,4.000000,4.000000,4.000000,4.000000,4.000000,4.000000,4.000000,4.000000,4.000000,4.000000,4.000000,4.000000,4.000000,4.000000,100.000000,,,,,,,,,,,,,,,,
1644854812.216367,129.000000,0.000000,4207.692383,4198.717773,4225.128418,4215.641113,4223.461426,4230.769043,4227.436035,4199.358887,4217.436035,4224.871582,4220.512695,4208.077148,4284.358887,4193.077148,3327.000000,4.000000,82.000000,,,,0.000000,4.000000,4.000000,4.000000,4.000000,4.000000,4.000000,4.000000,4.000000,4.000000,4.000000,4.000000,4.000000,4.000000,4.000000,100.000000,,,,,,,,,,,,,,,,
1644854812.220307,130.000000,0.000000,4208.846191,4201.025879,4225.897461,4218.846191,4228.461426,4235.256348,4226.794922,4202.307617,4221.538574,4222.179688,4219.487305,4209.871582,4279.102539,4204.230957,3393.000000,4.000000,82.000000,,,,0.000000,4.000000,4.000000,4.000000,4.000000,4.000000,4.000000,4.000000,4.000000,4.000000,4.000000,4.000000,4.000000,4.000000,4.000000,100.000000,,,,,,,,,,,,,,,,
1644854812.224248,131.000000,0.000000,4206.794922,4202.948730,4225.000000,4216.538574,4229.102539,4234.230957,4225.769043,4203.717773,4222.179688,4219.230957,4216.538574,4202.692383,4273.589844,4217.563965,3530.000000,4.000000,82.000000,,,,0.000000,4.000000,4.000000,4.000000,4.000000,4.000000,4.000000,4.000000,4.000000,4.000000,4.000000,4.000000,4.000000,4.000000,4.000000,100.000000,,,,,,,,,,,,,,,,
1644854812.228188,132.000000,0.000000,4201.282227,4201.153809,4222.179688,4208.077148,4223.461426,4227.948730,4224.358887,4203.077148,4218.333496,4216.410156,4209.871582,4190.641113,4269.871582,4225.384766,3550.000000,4.000000,82.000000,,,,0.000000,4.000000,4.000000,4.000000,4.000000,4.000000,4.000000,4.000000,4.000000,4.000000,4.000000,4.000000,4.000000,4.000000,4.000000,100.000000,,,,,,,,,,,,,,,,
1644854812.232128,133.000000,0.000000,4196.538574,4196.794922,4218.461426,4198.077148,4216.025879,4220.256348,4221.922852,4201.153809,4212.692383,4214.487305,4202.179688,4180.897461,4271.025879,4223.589844,3369.000000,4.000000,82.000000,,,,0.000000,4.000000,4.000000,4.000000,4.000000,4.000000,4.000000,4.000000,4.000000,4.000000,4.000000,4.000000,4.000000,4.000000,4.000000,100.000000,,,,,,,,,,,,,,,,
1644854812.236068,134.000000,0.000000,4197.563965,4194.230957,4216.025879,4194.102539,4212.563965,4216.153809,4218.846191,4199.487305,4209.358887,4214.487305,4198.333496,4178.974121,4277.436035,4215.000000,2664.000000,4.000000,82.000000,,,,0.000000,4.000000,4.000000,4.000000,4.000000,4.000000,4.000000,4.000000,4.000000,4.000000,4.000000,4.000000,4.000000,4.000000,4.000000,100.000000,,,,,,,,,,,,,,,,
1644854812.240008,135.000000,0.000000,4206.025879,4197.179688,4216.666504,4200.897461,4215.897461,4218.333496,4217.692383,4200.000000,4210.641113,4217.436035,4201.153809,4184.743652,4285.769043,4206.538574,2865.000000,4.000000,82.000000,,,,0.000000,4.000000,4.000000,4.000000,4.000000,4.000000,4.000000,4.000000,4.000000,4.000000,4.000000,4.000000,4.000000,4.000000,4.000000,100.000000,,,,,,,,,,,,,,,,
1644854812.243948,136.000000,0.000000,4218.589844,4204.487305,4219.743652,4216.666504,4223.589844,4225.000000,4219.743652,4203.205078,4215.897461,4223.333496,4209.743652,4192.692383,4291.794922,4203.461426,3124.000000,4.000000,82.000000,,,,0.000000,4.000000,4.000000,4.000000,4.000000,4.000000,4.000000,4.000000,4.000000,4.000000,4.000000,4.000000,4.000000,4.000000,4.000000,100.000000,,,,,,,,,,,,,,,,
1644854812.247888,137.000000,0.000000,4228.846191,4210.769043,4222.436035,4232.051270,4230.384766,4230.769043,4223.077148,4207.692383,4221.282227,4230.769043,4220.128418,4196.666504,4292.436035,4205.128418,3527.000000,4.000000,82.000000,,,,0.000000,4.000000,4.000000,4.000000,4.000000,4.000000,4.000000,4.000000,4.000000,4.000000,4.000000,4.000000,4.000000,4.000000,4.000000,100.000000,,,,,,,,,,,,,,,,
1644854812.251828,138.000000,0.000000,4230.641113,4210.769043,4221.922852,4236.538574,4232.179688,4231.025879,4223.846191,4210.384766,4223.717773,4235.897461,4228.077148,4194.358887,4287.563965,4207.179688,3532.000000,4.000000,82.000000,,,,0.000000,4.000000,4.000000,4.000000,4.000000,4.000000,4.000000,4.000000,4.000000,4.000000,4.000000,4.000000,4.000000,4.000000,4.000000,100.000000,,,,,,,,,,,,,,,,
1644854812.255768,139.000000,0.000000,4222.051270,4203.205078,4217.692383,4225.641113,4228.717773,4225.128418,4220.512695,4209.487305,4221.922852,4233.974121,4230.769043,4188.974121,4278.974121,4206.666504,2380.000000,4.000000,82.000000,,,,0.000000,4.000000,4.000000,4.000000,4.000000,4.000000,4.000000,4.000000,4.000000,4.000000,4.000000,4.000000,4.000000,4.000000,4.000000,100.000000,,,,,,,,,,,,,,,,
1644854812.259708,140.000000,0.000000,4206.666504,4192.307617,4212.436035,4206.282227,4223.333496,4217.179688,4216.666504,4206.282227,4218.205078,4223.846191,4226.794922,4185.897461,4269.615234,4204.615234,3312.000000,4.000000,82.000000,,,,0.000000,4.000000,4.000000,4.000000,4.000000,4.000000,4.000000,4.000000,4.000000,4.000000,4.000000,4.000000,4.000000,4.000000,4.000000,100.000000,,,,,,,,,,,,,,,,
1644854812.263649,141.000000,0.000000,4192.692383,4185.256348,4209.743652,4192.948730,4220.128418,4212.051270,4216.153809,4203.717773,4215.512695,4210.128418,4218.077148,4188.077148,4262.948730,4204.230957,3483.000000,4.000000,82.000000,,,,0.000000,4.000000,4.000000,4.000000,4.000000,4.000000,4.000000,4.000000,4.000000,4.000000,4.000000,4.000000,4.000000,4.000000,4.000000,100.000000,,,,,,,,,,,,,,,,
1644854812.267589,142.000000,0.000000,4188.205078,4186.922852,4211.282227,4196.282227,4221.282227,4212.179688,4219.615234,4204.102539,4215.256348,4201.538574,4209.487305,4193.846191,4262.179688,4206.410156,3532.000000,4.000000,82.000000,,,,0.000000,4.000000,4.000000,4.000000,4.000000,4.000000,4.000000,4.000000,4.000000,4.000000,4.000000,4.000000,4.000000,4.000000,4.000000,100.000000,,,,,,,,,,,,,,,,
1644854812.271529,143.000000,0.000000,4196.794922,4196.153809,4215.384766,4213.589844,4226.153809,4215.897461,4222.820313,4207.179688,4217.051270,4204.358887,4206.282227,4198.846191,4269.487305,4210.128418,2380.000000,4.000000,82.000000,5,1,3,0.000000,4.000000,4.000000,4.000000,4.000000,4.000000,4.000000,4.000000,4.000000,4.000000,4.000000,4.000000,4.000000,4.000000,4.000000,100.000000,,,,,,,,,,,,,,,,
1644854812.275469,144.000000,0.000000,4214.743652,4207.692383,4219.615234,4231.282227,4231.538574,4219.615234,4222.307617,4211.282227,4219.230957,4216.922852,4209.615234,4198.974121,4284.102539,4215.000000,3312.000000,4.000000,82.000000,,,,0.000000,4.000000,4.000000,4.000000,4.000000,4.000000,4.000000,4.000000,4.000000,4.000000,4.000000,4.000000,4.000000,4.000000,4.000000,100.000000,,,,,,,,,,,,,,,,
1644854812.279309,145.000000,0.000000,4233.717773,4215.897461,4222.563965,4237.051270,4235.512695,4221.153809,4218.589844,4215.000000,4220.384766,4231.025879,4216.410156,4194.871582,4301.922852,4222.436035,3483.000000,4.000000,82.000000,,,,0.000000,4.000000,4.000000,4.000000,4.000000,4.000000,4.000000,4.000000,4.000000,4.000000,4.000000,4.000000,4.000000,4.000000,4.000000,100.000000,,,,,,,,,,,,,,,,
1644854812.283249,146.000000,0.000000,4245.897461,4218.461426,4224.102539,4230.000000,4237.563965,4221.153809,4216.153809,4217.051270,4220.256348,4237.948730,4221.922852,4190.512695,4315.897461,4232.179688,3532.000000,4.000000,82.000000,,,,0.000000,4.000000,4.000000,4.000000,4.000000,4.000000,4.000000,4.000000,4.000000,4.000000,4.000000,4.000000,4.000000,4.000000,4.000000,100.000000,,,,,,,,,,,,,,,,
1644854812.287189,147.000000,0.000000,4248.846191,4216.794922,4225.256348,4220.000000,4238.974121,4222.307617,4218.077148,4217.563965,4219.615234,4235.000000,4223.589844,4190.384766,4318.846191,4239.615234,2380.000000,4.000000,82.000000,,,,0.000000,4.000000,4.000000,4.000000,4.000000,4.000000,4.000000,4.000000,4.000000,4.000000,4.000000,4.000000,4.000000,4.000000,4.000000,100.000000,,,,,,,,,,,,,,,,
1644854812.291129,148.000000,0.000000,4245.384766,4215.256348,4226.025879,4217.692383,4240.641113,4226.282227,4223.077148,4217.179688,4220.000000,4226.794922,4222.563965,4195.641113,4307.820313,4237.820313,3312.000000,4.000000,82.000000,,,,0.000000,4.000000,4.000000,4.000000,4.000000,4.000000,4.000000,4.000000,4.000000,4.000000,4.000000,4.000000,4.000000,4.000000,4.000000,100.000000,,,,,,,,,,,,,,,,
1644854812.295070,149.000000,0.000000,4240.641113,4216.666504,4225.769043,4224.871582,4242.307617,4231.794922,4227.051270,4216.666504,4221.666504,4220.512695,4221.538574,4203.077148,4288.205078,4225.128418,3483.000000,4.000000,82.000000,,,,0.000000,4.000000,4.000000,4.000000,4.000000,4.000000,4.000000,4.000000,4.000000,4.000000,4.000000,4.000000,4.000000,4.000000,4.000000,100.000000,,,,,,,,,,,,,,,,
1644854812.299010,150.000000,0.000000,4237.051270,4220.512695,4224.358887,4235.000000,4242.563965,4235.000000,4227.436035,4216.666504,4223.589844,4220.641113,4222.692383,4207.563965,4270.512695,4208.205078,3532.000000,4.000000,82.000000,,,,0.000000,4.000000,4.000000,4.000000,4.000000,4.000000,4.000000,4.000000,4.000000,4.000000,4.000000,4.000000,4.000000,4.000000,4.000000,100.000000,,,,,,,,,,,,,,,,
1644854812.302950,151.000000,0.000000,4233.077148,4222.692383,4221.794922,4241.025879,4239.487305,4232.692383,4225.128418,4216.794922,4223.846191,4225.512695,4225.000000,4204.358887,4263.974121,4197.820313,2380.000000,4.000000,82.000000,,,,0.000000,4.000000,4.000000,4.000000,4.000000,4.000000,4.000000,4.000000,4.000000,4.000000,4.000000,4.000000,4.000000,4.000000,4.000000,100.000000,,,,,,,,,,,,,,,,
1644854812.306890,152.000000,0.000000,4226.282227,4219.615234,4219.230957,4241.025879,4232.820313,4225.256348,4222.051270,4216.282227,4221.153809,4229.743652,4225.897461,4193.717773,4270.384766,4200.384766,3312.000000,4.000000,82.000000,,,,0.000000,4.000000,4.000000,4.000000,4.000000,4.000000,4.000000,4.000000,4.000000,4.000000,4.000000,4.000000,4.000000,4.000000,4.000000,100.000000,,,,,,,,,,,,,,,,
1644854812.310830,153.000000,0.000000,4216.794922,4212.179688,4218.077148,4237.563965,4224.871582,4217.179688,4219.615234,4214.358887,4217.051270,4229.102539,4223.846191,4180.897461,4283.717773,4212.307617,3483.000000,4.000000,82.000000,,,,0.000000,4.000000,4.000000,4.000000,4.000000,4.000000,4.000000,4.000000,4.000000,4.000000,4.000000,4.000000,4.000000,4.000000,4.000000,100.000000,,,,,,,,,,,,,,,,
1644854812.314770,154.000000,0.000000,4208.333496,4205.000000,4219.230957,4233.461426,4220.128418,4214.102539,4218.077148,4211.922852,4214.230957,4223.846191,4220.000000,4173.333496,4294.743652,4224.615234,3532.000000,4.000000,82.000000,,,,0.000000,4.000000,4.000000,4.000000,4.000000,4.000000,4.000000,4.000000,4.000000,4.000000,4.000000,4.000000,4.000000,4.000000,4.000000,100.000000,,,,,,,,,,,,,,,,
1644854812.318710,155.000000,0.000000,4205.512695,4202.436035,4222.692383,4229.487305,4222.179688,4218.077148,4218.333496,4211.282227,4214.871582,4217.692383,4217.179688,4176.153809,4297.948730,4229.743652,2380.000000,4.000000,82.000000,,,,0.000000,4.000000,4.000000,4.000000,4.000000,4.000000,4.000000,4.000000,4.000000,4.000000,4.000000,4.000000,4.000000,4.000000,4.000000,100.000000,,,,,,,,,,,,,,,,
1644854812.322650,156.000000,0.000000,4211.153809,4205.384766,4227.563965,4225.000000,4230.769043,4226.410156,4221.025879,4213.974121,4219.230957,4215.256348,4218.205078,4188.461426,4293.589844,4226.922852,3312.000000,4.000000,82.000000,,,,0.000000,4.000000,4.000000,4.000000,4.000000,4.000000,4.000000,4.000000,4.000000,4.000000,4.000000,4.000000,4.000000,4.000000,4.000000,100.000000,,,,,,,,,,,,,,,,
1644854812.326590,157.000000,0.000000,4223.846191,4211.153809,4232.692383,4220.256348,4241.922852,4233.333496,4225.384766,4219.358887,4225.000000,4218.461426,4222.948730,4204.230957,4285.897461,4221.025879,3483.000000,4.000000,82.000000,,,,0.000000,4.000000,4.000000,4.000000,4.000000,4.000000,4.000000,4.000000,4.000000,4.000000,4.000000,4.000000,4.000000,4.000000,4.000000,100.000000,,,,,,,,,,,,,,,,
1644854812.330530,158.000000,0.000000,4238.077148,4214.871582,4235.384766,4216.666504,4249.487305,4234.871582,4228.077148,4225.384766,4229.743652,4226.410156,4229.230957,4215.512695,4280.000000,4217.436035,3532.000000,4.000000,82.000000,,,,0.000000,4.000000,4.000000,4.000000,4.000000,4.000000,4.000000,4.000000,4.000000,4.000000,4.000000,4.000000,4.000000,4.000000,4.000000,100.000000,,,,,,,,,,,,,,,,
1644854812.334471,159.000000,0.000000,4246.538574,4212.307617,4233.846191,4215.256348,4248.974121,4231.538574,4226.794922,4229.871582,4231.794922,4235.256348,4233.846191,4217.563965,4278.205078,4218.846191,2380.000000,4.000000,82.000000,,,,0.000000,4.000000,4.000000,4.000000,4.000000,4.000000,4.000000,4.000000,4.000000,4.000000,4.000000,4.000000,4.000000,4.000000,4.000000,100.000000,,,,,,,,,,,,,,,,
1644854812.338411,160.000000,0.000000,4244.743652,4203.333496,4228.461426,4215.128418,4240.256348,4226.025879,4223.077148,4232.051270,4231.666504,4240.512695,4234.487305,4211.153809,4280.256348,4224.102539,3312.000000,4.000000,82.000000,,,,0.000000,4.000000,4.000000,4.000000,4.000000,4.000000,4.000000,4.000000,4.000000,4.000000,4.000000,4.000000,4.000000,4.000000,4.000000,100.000000,,,,,,,,,,,,,,,,
1644854812.342351,161.000000,0.000000,4233.974121,4191.922852,4222.563965,4215.384766,4228.333496,4221.922852,4221.153809,4232.563965,4230.897461,4238.717773,4232.436035,4202.563965,4283.461426,4229.358887,3483.000000,4.000000,82.000000,,,,0.000000,4.000000,4.000000,4.000000,4.000000,4.000000,4.000000,4.000000,4.000000,4.000000,4.000000,4.000000,4.000000,4.000000,4.000000,100.000000,,,,,,,,,,,,,,,,
1644854812.346191,162.000000,0.000000,4220.769043,4183.077148,4219.487305,4215.384766,4221.025879,4220.641113,4223.205078,4232.563965,4230.384766,4231.025879,4231.025879,4197.692383,4285.256348,4230.000000,3532.000000,4.000000,82.000000,,,,0.000000,4.000000,4.000000,4.000000,4.000000,4.000000,4.000000,4.000000,4.000000,4.000000,4.000000,4.000000,4.000000,4.000000,4.000000,100.000000,1.000000,75.000000,4.000000,4.000000,4.000000,4.000000,4.000000,4.000000,4.000000,3.000000,4.000000,4.000000,3.000000,4.000000,3.000000,4.000000
1644854812.350131,163.000000,0.000000,4212.692383,4179.615234,4220.128418,4215.512695,4223.077148,4221.922852,4227.051270,4232.563965,4230.128418,4222.051270,4231.922852,4198.077148,4284.871582,4224.102539,2380.000000,4.000000,82.000000,,,,0.000000,4.000000,4.000000,4.000000,4.000000,4.000000,4.000000,4.000000,4.000000,4.000000,4.000000,4.000000,4.000000,4.000000,4.000000,100.000000,,,,,,,,,,,,,,,,
1644854812.354071,164.000000,0.000000,4212.179688,4181.025879,4222.051270,4216.666504,4232.179688,4223.974121,4228.333496,4231.794922,4228.589844,4217.820313,4232.307617,4200.512695,4282.948730,4213.333496,3312.000000,4.000000,82.000000,,,,0.000000,4.000000,4.000000,4.000000,4.000000,4.000000,4.000000,4.000000,4.000000,4.000000,4.000000,4.000000,4.000000,4.000000,4.000000,100.000000,,,,,,,,,,,,,,,,
1644854812.358011,165.000000,0.000000,4215.128418,4184.358887,4222.820313,4218.846191,4240.128418,4224.615234,4225.512695,4229.487305,4224.615234,4220.128418,4227.307617,4200.897461,4279.487305,4203.333496,3483.000000,4.000000,82.000000,,,,0.000000,4.000000,4.000000,4.000000,4.000000,4.000000,4.000000,4.000000,4.000000,4.000000,4.000000,4.000000,4.000000,4.000000,4.000000,100.000000,,,,,,,,,,,,,,,,
1644854812.361951,166.000000,0.000000,4216.282227,4187.179688,4221.538574,4220.897461,4239.615234,4223.077148,4221.025879,4225.512695,4218.846191,4225.384766,4216.410156,4197.820313,4274.487305,4199.358887,3532.000000,4.000000,82.000000,,,,0.000000,4.000000,4.000000,4.000000,4.000000,4.000000,4.000000,4.000000,4.000000,4.000000,4.000000,4.000000,4.000000,4.000000,4.000000,100.000000,,,,,,,,,,,,,,,,
1644854812.365892,167.000000,0.000000,4214.102539,4188.461426,4219.615234,4221.794922,4230.641113,4220.000000,4218.461426,4220.897461,4213.717773,4228.205078,4205.000000,4193.589844,4268.846191,4202.563965,2380.000000,4.000000,82.000000,,,,0.000000,4.000000,4.000000,4.000000,4.000000,4.000000,4.000000,4.000000,4.000000,4.000000,4.000000,4.000000,4.000000,4.000000,4.000000,100.000000,,,,,,,,,,,,,,,,
1644854812.369832,168.000000,0.000000,4212.692383,4189.743652,4219.230957,4222.051270,4220.384766,4217.820313,4218.717773,4217.051270,4211.794922,4225.256348,4201.666504,4191.025879,4265.384766,4210.000000,3312.000000,4.000000,82.000000,,,,0.000000,4.000000,4.000000,4.000000,4.000000,4.000000,4.000000,4.000000,4.000000,4.000000,4.000000,4.000000,4.000000,4.000000,4.000000,100.000000,,,,,,,,,,,,,,,,
1644854812.373772,169.000000,0.000000,4216.794922,4192.820313,4221.153809,4223.846191,4216.025879,4218.589844,4220.384766,4215.384766,4213.589844,4218.974121,4211.410156,4192.179688,4266.922852,4217.692383,3483.000000,4.000000,82.000000,,,,0.000000,4.000000,4.000000,4.000000,4.000000,4.000000,4.000000,4.000000,4.000000,4.000000,4.000000,4.000000,4.000000,4.000000,4.000000,100.000000,,,,,,,,,,,,,,,,
1644854812.377712,170.000000,0.000000,4226.153809,4197.563965,4224.102539,4227.307617,4219.615234,4222.436035,4221.794922,4216.025879,4217.692383,4213.974121,4230.384766,4195.897461,4272.307617,4223.205078,3532.000000,4.000000,82.000000,,,,0.000000,4.000000,4.000000,4.000000,4.000000,4.000000,4.000000,4.000000,4.000000,4.000000,4.000000,4.000000,4.000000,4.000000,4.000000,100.000000,,,,,,,,,,,,,,,,
1644854812.381652,171.000000,0.000000,4234.487305,4201.666504,4225.256348,4230.128418,4227.820313,4227.051270,4222.820313,4218.077148,4220.641113,4212.948730,4247.436035,4199.102539,4277.051270,4225.897461,2380.000000,4.000000,82.000000,,,,0.000000,4.000000,4.000000,4.000000,4.000000,4.000000,4.000000,4.000000,4.000000,4.000000,4.000000,4.000000,4.000000,4.000000,4.000000,100.000000,,,,,,,,,,,,,,,,
1644854812.385692,172.000000,0.000000,4234.743652,4202.563965,4223.333496,4228.333496,4235.000000,4229.871582,4223.846191,4220.384766,4220.000000,4214.871582,4250.769043,4198.974121,4277.436035,4225.512695,3312.000000,4.000000,82.000000,,,,0.000000,4.000000,4.000000,4.000000,4.000000,4.000000,4.000000,4.000000,4.000000,4.000000,4.000000,4.000000,4.000000,4.000000,4.000000,100.000000,,,,,,,,,,,,,,,,
1644854812.389632,173.000000,0.000000,4224.871582,4200.000000,4219.615234,4220.769043,4237.820313,4229.615234,4223.974121,4221.153809,4215.897461,4215.897461,4237.436035,4195.384766,4273.589844,4221.410156,3483.000000,4.000000,82.000000,,,,0.000000,4.000000,4.000000,4.000000,4.000000,4.000000,4.000000,4.000000,4.000000,4.000000,4.000000,4.000000,4.000000,4.000000,4.000000,100.000000,,,,,,,,,,,,,,,,
1644854812.393572,174.000000,0.000000,4210.897461,4195.641113,4216.794922,4211.794922,4235.769043,4227.179688,4222.563965,4219.487305,4211.282227,4213.717773,4215.000000,4190.512695,4269.743652,4215.128418,3532.000000,4.000000,82.000000,,,,0.000000,4.000000,4.000000,4.000000,4.000000,4.000000,4.000000,4.000000,4.000000,4.000000,4.000000,4.000000,4.000000,4.000000,4.000000,100.000000,,,,,,,,,,,,,,,,
1644854812.397512,175.000000,0.000000,4202.307617,4192.051270,4217.563965,4208.589844,4231.538574,4224.358887,4220.769043,4216.282227,4209.487305,4209.102539,4196.666504,4187.307617,4269.871582,4210.128418,2380.000000,4.000000,82.000000,,,,0.000000,4.000000,4.000000,4.000000,4.000000,4.000000,4.000000,4.000000,4.000000,4.000000,4.000000,4.000000,4.000000,4.000000,4.000000,100.000000,,,,,,,,,,,,,,,,
1644854812.401452,176.000000,0.000000,4205.769043,4191.153809,4221.666504,4215.128418,4228.846191,4222.563965,4220.897461,4214.358887,4211.666504,4205.897461,4191.666504,4187.307617,4274.230957,4210.256348,3312.000000,4.000000,82.000000,,,,0.000000,4.000000,4.000000,4.000000,4.000000,4.000000,4.000000,4.000000,4.000000,4.000000,4.000000,4.000000,4.000000,4.000000,4.000000,100.000000,,,,,,,,,,,,,,,,
1644854812.405392,177.000000,0.000000,4219.615234,4193.589844,4226.538574,4228.205078,4229.230957,4222.692383,4223.333496,4215.897461,4216.538574,4207.948730,4200.769043,4190.384766,4279.615234,4214.871582,3483.000000,4.000000,82.000000,,,,0.000000,4.000000,4.000000,4.000000,4.000000,4.000000,4.000000,4.000000,4.000000,4.000000,4.000000,4.000000,4.000000,4.000000,4.000000,100.000000,,,,,,,,,,,,,,,,
1644854812.409333,178.000000,0.000000,4234.358887,4198.077148,4228.974121,4239.487305,4231.410156,4224.487305,4225.256348,4220.384766,4221.666504,4215.384766,4216.282227,4194.487305,4282.051270,4219.358887,3532.000000,4.000000,82.000000,,,,0.000000,4.000000,4.000000,4.000000,4.000000,4.000000,4.000000,4.000000,4.000000,4.000000,4.000000,4.000000,4.000000,4.000000,4.000000,100.000000,,,,,,,,,,,,,,,,
1644854812.413173,179.000000,0.000000,4240.256348,4202.563965,4227.692383,4241.153809,4232.436035,4225.641113,4223.333496,4225.256348,4225.384766,4223.589844,4228.461426,4197.820313,4279.230957,4218.974121,2380.000000,4.000000,82.000000,,,,0.000000,4.000000,4.000000,4.000000,4.000000,4.000000,4.000000,4.000000,4.000000,4.000000,4.000000,4.000000,4.000000,4.000000,4.000000,100.000000,,,,,,,,,,,,,,,,
1644854812.417113,180.000000,0.000000,4234.871582,4205.128418,4225.000000,4232.307617,4230.641113,4223.974121,4218.333496,4227.692383,4226.666504,4226.794922,4231.282227,4199.743652,4270.769043,4214.615234,3312.000000,4.000000,82.000000,,,,0.000000,4.000000,4.000000,4.000000,4.000000,4.000000,4.000000,4.000000,4.000000,4.000000,4.000000,4.000000,4.000000,4.000000,4.000000,100.000000,,,,,,,,,,,,,,,,
1644854812.421153,181.000000,0.000000,4224.230957,4204.615234,4224.230957,4219.102539,4226.025879,4219.102539,4214.615234,4227.307617,4226.153809,4222.692383,4225.897461,4201.153809,4259.743652,4211.794922,3483.000000,4.000000,82.000000,,,,0.000000,4.000000,4.000000,4.000000,4.000000,4.000000,4.000000,4.000000,4.000000,4.000000,4.000000,4.000000,4.000000,4.000000,4.000000,100.000000,,,,,,,,,,,,,,,,
1644854812.425093,182.000000,0.000000,4218.205078,4201.666504,4227.051270,4210.384766,4220.641113,4214.102539,4215.897461,4225.641113,4225.000000,4214.487305,4220.000000,4203.589844,4251.922852,4214.743652,3532.000000,4.000000,82.000000,,,,0.000000,4.000000,4.000000,4.000000,4.000000,4.000000,4.000000,4.000000,4.000000,4.000000,4.000000,4.000000,4.000000,4.000000,4.000000,100.000000,,,,,,,,,,,,,,,,
1644854812.429033,183.000000,0.000000,4221.153809,4198.461426,4231.922852,4211.410156,4217.051270,4212.820313,4220.897461,4224.615234,4224.230957,4208.974121,4220.897461,4207.692383,4253.205078,4222.179688,2380.000000,4.000000,82.000000,,,,0.000000,4.000000,4.000000,4.000000,4.000000,4.000000,4.000000,4.000000,4.000000,4.000000,4.000000,4.000000,4.000000,4.000000,4.000000,100.000000,,,,,,,,,,,,,,,,
1644854812.432973,184.000000,0.000000,4230.000000,4197.179688,4236.410156,4220.128418,4216.666504,4216.410156,4225.128418,4225.641113,4225.128418,4210.256348,4229.102539,4212.820313,4264.358887,4228.846191,3312.000000,4.000000,82.000000,,,,0.000000,4.000000,4.000000,4.000000,4.000000,4.000000,4.000000,4.000000,4.000000,4.000000,4.000000,4.000000,4.000000,4.000000,4.000000,100.000000,,,,,,,,,,,,,,,,
1644854812.436913,185.000000,0.000000,4237.820313,4197.179688,4239.102539,4230.256348,4219.487305,4222.307617,4226.025879,4228.333496,4227.948730,4217.563965,4237.307617,4216.666504,4279.102539,4231.025879,3483.000000,4.000000,82.000000,,,,0.000000,4.000000,4.000000,4.000000,4.000000,4.000000,4.000000,4.000000,4.000000,4.000000,4.000000,4.000000,4.000000,4.000000,4.000000,100.000000,,,,,,,,,,,,,,,,
1644854812.440853,186.000000,0.000000,4239.743652,4196.282227,4239.615234,4235.769043,4223.974121,4227.051270,4224.871582,4231.410156,4231.153809,4226.153809,4236.538574,4216.922852,4288.077148,4229.230957,3532.000000,4.000000,82.000000,,,,0.000000,4.000000,4.000000,4.000000,4.000000,4.000000,4.000000,4.000000,4.000000,4.000000,4.000000,4.000000,4.000000,4.000000,4.000000,100.000000,,,,,,,,,,,,,,,,
1644854812.444794,187.000000,0.000000,4236.282227,4192.436035,4238.205078,4234.615234,4228.846191,4228.333496,4224.487305,4233.846191,4232.563965,4231.282227,4223.846191,4213.333496,4285.769043,4226.538574,2380.000000,4.000000,82.000000,,,,0.000000,4.000000,4.000000,4.000000,4.000000,4.000000,4.000000,4.000000,4.000000,4.000000,4.000000,4.000000,4.000000,4.000000,4.000000,100.000000,,,,,,,,,,,,,,,,
1644854812.448734,188.000000,0.000000,4232.307617,4187.051270,4235.641113,4229.487305,4232.436035,4226.538574,4225.641113,4234.487305,4231.282227,4231.282227,4205.512695,4207.820313,4275.128418,4225.769043,3312.000000,4.000000,82.000000,,,,0.000000,4.000000,4.000000,4.000000,4.000000,4.000000,4.000000,4.000000,4.000000,4.000000,4.000000,4.000000,4.000000,4.000000,4.000000,100.000000,,,,,,,,,,,,,,,,
1644854812.452674,189.000000,0.000000,4231.410156,4183.589844,4232.948730,4225.256348,4233.717773,4223.461426,4226.538574,4233.333496,4228.333496,4227.820313,4193.333496,4203.205078,4264.358887,4227.820313,3483.000000,4.000000,82.000000,,,,0.000000,4.000000,4.000000,4.000000,4.000000,4.000000,4.000000,4.000000,4.000000,4.000000,4.000000,4.000000,4.000000,4.000000,4.000000,100.000000,,,,,,,,,,,,,,,,
1644854812.456614,190.000000,0.000000,4233.974121,4184.743652,4231.282227,4225.000000,4231.794922,4220.256348,4225.384766,4230.641113,4225.641113,4223.333496,4196.025879,4201.025879,4260.897461,4232.307617,3532.000000,4.000000,82.000000,,,,0.000000,4.000000,4.000000,4.000000,4.000000,4.000000,4.000000,4.000000,4.000000,4.000000,4.000000,4.000000,4.000000,4.000000,4.000000,100.000000,,,,,,,,,,,,,,,,
1644854812.460554,191.000000,0.000000,4237.051270,4189.871582,4231.153809,4226.794922,4227.179688,4217.820313,4223.205078,4227.692383,4223.717773,4219.743652,4214.102539,4201.025879,4266.025879,4237.307617,2380.000000,4.000000,82.000000,,,,0.000000,4.000000,4.000000,4.000000,4.000000,4.000000,4.000000,4.000000,4.000000,4.000000,4.000000,4.000000,4.000000,4.000000,4.000000,100.000000,,,,,,,,,,,,,,,,
1644854812.464594,192.000000,0.000000,4237.051270,4195.641113,4232.820313,4226.538574,4222.179688,4217.307617,4222.563965,4226.410156,4222.051270,4218.205078,4238.589844,4202.051270,4273.333496,4239.743652,3312.000000,4.000000,82.000000,,,,0.000000,4.000000,4.000000,4.000000,4.000000,4.000000,4.000000,4.000000,4.000000,4.000000,4.000000,4.000000,4.000000,4.000000,4.000000,100.000000,,,,,,,,,,,,,,,,
1644854812.468534,193.000000,0.000000,4231.794922,4198.333496,4235.641113,4222.692383,4220.384766,4220.128418,4224.358887,4227.307617,4221.282227,4219.358887,4256.025879,4203.205078,4275.000000,4236.282227,3483.000000,4.000000,82.000000,,,,0.000000,4.000000,4.000000,4.000000,4.000000,4.000000,4.000000,4.000000,4.000000,4.000000,4.000000,4.000000,4.000000,4.000000,4.000000,100.000000,,,,,,,,,,,,,,,,
1644854812.472474,194.000000,0.000000,4222.179688,4195.897461,4238.333496,4217.692383,4224.102539,4225.512695,4227.051270,4229.487305,4222.179688,4222.051270,4256.538574,4204.487305,4268.333496,4227.051270,3532.000000,4.000000,82.000000,,,,0.000000,4.000000,4.000000,4.000000,4.000000,4.000000,4.000000,4.000000,4.000000,4.000000,4.000000,4.000000,4.000000,4.000000,4.000000,100.000000,,,,,,,,,,,,,,,,
1644854812.476414,195.000000,0.000000,4211.410156,4189.487305,4238.717773,4215.512695,4231.538574,4231.025879,4228.717773,4231.025879,4223.717773,4223.846191,4239.615234,4205.128418,4257.307617,4216.025879,2380.000000,4.000000,82.000000,,,,0.000000,4.000000,4.000000,4.000000,4.000000,4.000000,4.000000,4.000000,4.000000,4.000000,4.000000,4.000000,4.000000,4.000000,4.000000,100.000000,,,,,,,,,,,,,,,,
1644854812.480354,196.000000,0.000000,4203.974121,4182.563965,4236.153809,4217.051270,4236.922852,4233.717773,4229.230957,4230.769043,4223.846191,4222.563965,4215.128418,4204.871582,4249.615234,4209.615234,3312.000000,4.000000,82.000000,,,,0.000000,4.000000,4.000000,4.000000,4.000000,4.000000,4.000000,4.000000,4.000000,4.000000,4.000000,4.000000,4.000000,4.000000,4.000000,100.000000,,,,,,,,,,,,,,,,
1644854812.484294,197.000000,0.000000,4204.102539,4179.615234,4231.410156,4220.000000,4235.512695,4231.922852,4228.974121,4227.948730,4221.025879,4218.333496,4196.410156,4203.589844,4249.743652,4210.769043,3483.000000,4.000000,82.000000,,,,0.000000,4.000000,4.000000,4.000000,4.000000,4.000000,4.000000,4.000000,4.000000,4.000000,4.000000,4.000000,4.000000,4.000000,4.000000,100.000000,,,,,,,,,,,,,,,,
1644854812.488235,198.000000,0.000000,4212.563965,4182.948730,4226.153809,4221.153809,4228.333496,4226.538574,4227.179688,4224.102539,4216.538574,4213.205078,4191.922852,4201.794922,4256.794922,4216.538574,3532.000000,4.000000,82.000000,,,,0.000000,4.000000,4.000000,4.000000,4.000000,4.000000,4.000000,4.000000,4.000000,4.000000,4.000000,4.000000,4.000000,4.000000,4.000000,100.000000,,,,,,,,,,,,,,,,
1644854812.492175,199.000000,0.000000,4225.384766,4191.153809,4222.051270,4219.358887,4221.538574,4220.384766,4223.205078,4221.666504,4213.589844,4210.769043,4199.871582,4199.743652,4265.897461,4221.538574,2380.000000,4.000000,82.000000,,,,0.000000,4.000000,4.000000,4.000000,4.000000,4.000000,4.000000,4.000000,4.000000,4.000000,4.000000,4.000000,4.000000,4.000000,4.000000,100.000000,,,,,,,,,,,,,,,,
1644854812.496115,200.000000,0.000000,4235.769043,4200.769043,4219.743652,4216.282227,4220.384766,4216.794922,4218.205078,4222.436035,4214.743652,4213.717773,4212.051270,4197.307617,4272.563965,4222.692383,3312.000000,4.000000,82.000000,,,,0.000000,4.000000,4.000000,4.000000,4.000000,4.000000,4.000000,4.000000,4.000000,4.000000,4.000000,4.000000,4.000000,4.000000,4.000000,100.000000,,,,,,,,,,,,,,,,
1644854812.500055,201.000000,0.000000,4238.333496,4207.307617,4218.974121,4214.871582,4225.512695,4216.922852,4215.384766,4226.410156,4220.000000,4220.897461,4221.025879,4195.384766,4274.871582,4221.410156,3483.000000,4.000000,82.000000,,,,0.000000,4.000000,4.000000,4.000000,4.000000,4.000000,4.000000,4.000000,4.000000,4.000000,4.000000,4.000000,4.000000,4.000000,4.000000,100.000000,,,,,,,,,,,,,,,,
1644854812.503995,202.000000,0.000000,4232.051270,4209.102539,4219.743652,4217.051270,4232.692383,4219.743652,4217.563965,4231.153809,4226.282227,4228.205078,4224.871582,4195.256348,4274.743652,4220.384766,3532.000000,4.000000,82.000000,,,,0.000000,4.000000,4.000000,4.000000,4.000000,4.000000,4.000000,4.000000,4.000000,4.000000,4.000000,4.000000,4.000000,4.000000,4.000000,100.000000,,,,,,,,,,,,,,,,
1644854812.507935,203.000000,0.000000,4221.153809,4207.307617,4222.179688,4222.307617,4237.179688,4222.179688,4222.692383,4234.743652,4230.641113,4231.153809,4226.282227,4198.846191,4274.230957,4220.384766,2380.000000,4.000000,82.000000,,,,0.000000,4.000000,4.000000,4.000000,4.000000,4.000000,4.000000,4.000000,4.000000,4.000000,4.000000,4.000000,4.000000,4.000000,4.000000,100.000000,,,,,,,,,,,,,,,,
1644854812.511875,204.000000,0.000000,4212.307617,4204.230957,4225.512695,4227.179688,4237.051270,4222.307617,4226.153809,4235.897461,4231.794922,4229.487305,4229.102539,4205.512695,4273.461426,4220.384766,3312.000000,4.000000,82.000000,,,,0.000000,4.000000,4.000000,4.000000,4.000000,4.000000,4.000000,4.000000,4.000000,4.000000,4.000000,4.000000,4.000000,4.000000,4.000000,100.000000,,,,,,,,,,,,,,,,
1644854812.515815,205.000000,0.000000,4209.743652,4201.025879,4227.948730,4228.333496,4234.102539,4220.769043,4225.128418,4234.871582,4230.769043,4226.282227,4234.358887,4211.922852,4271.666504,4220.641113,3483.000000,4.000000,82.000000,,,,0.000000,4.000000,4.000000,4.000000,4.000000,4.000000,4.000000,4.000000,4.000000,4.000000,4.000000,4.000000,4.000000,4.000000,4.000000,100.000000,,,,,,,,,,,,,,,,
1644854812.519755,206.000000,0.000000,4213.205078,4197.436035,4227.820313,4225.128418,4231.153809,4219.871582,4221.666504,4232.436035,4228.846191,4225.256348,4239.358887,4213.461426,4269.358887,4223.333496,3532.000000,4.000000,82.000000,,,,0.000000,4.000000,4.000000,4.000000,4.000000,4.000000,4.000000,4.000000,4.000000,4.000000,4.000000,4.000000,4.000000,4.000000,4.000000,100.000000,,,,,,,,,,,,,,,,
1644854812.523696,207.000000,0.000000,4219.102539,4193.974121,4225.512695,4220.128418,4230.384766,4221.282227,4220.000000,4229.615234,4226.922852,4227.307617,4240.641113,4208.205078,4268.717773,4229.358887,2380.000000,4.000000,82.000000,,,,0.000000,4.000000,4.000000,4.000000,4.000000,4.000000,4.000000,4.000000,4.000000,4.000000,4.000000,4.000000,4.000000,4.000000,4.000000,100.000000,,,,,,,,,,,,,,,,
1644854812.527536,208.000000,0.000000,4223.846191,4192.692383,4222.820313,4217.051270,4231.538574,4224.615234,4222.051270,4227.179688,4225.512695,4231.153809,4236.666504,4199.102539,4271.538574,4235.769043,3312.000000,4.000000,82.000000,,,,0.000000,4.000000,4.000000,4.000000,4.000000,4.000000,4.000000,4.000000,4.000000,4.000000,4.000000,4.000000,4.000000,4.000000,4.000000,100.000000,,,,,,,,,,,,,,,,
1644854812.531476,209.000000,0.000000,4226.922852,4195.384766,4221.282227,4217.948730,4232.820313,4227.436035,4225.128418,4226.153809,4225.384766,4234.358887,4230.000000,4192.436035,4276.410156,4237.307617,3483.000000,4.000000,82.000000,,,,0.000000,4.000000,4.000000,4.000000,4.000000,4.000000,4.000000,4.000000,4.000000,4.000000,4.000000,4.000000,4.000000,4.000000,4.000000,100.000000,,,,,,,,,,,,,,,,
1644854812.535416,210.000000,0.000000,4229.743652,4201.153809,4220.897461,4222.307617,4232.692383,4227.436035,4225.641113,4226.538574,4226.410156,4235.384766,4225.641113,4192.436035,4279.871582,4232.179688,3532.000000,4.000000,82.000000,,,,0.000000,4.000000,4.000000,4.000000,4.000000,4.000000,4.000000,4.000000,4.000000,4.000000,4.000000,4.000000,4.000000,4.000000,4.000000,100.000000,,,,,,,,,,,,,,,,
1644854812.539356,211.000000,0.000000,4233.077148,4206.025879,4221.282227,4227.563965,4230.769043,4224.230957,4223.974121,4228.205078,4227.436035,4233.717773,4226.666504,4198.205078,4278.589844,4224.358887,2380.000000,4.000000,82.000000,,,,0.000000,4.000000,4.000000,4.000000,4.000000,4.000000,4.000000,4.000000,4.000000,4.000000,4.000000,4.000000,4.000000,4.000000,4.000000,100.000000,,,,,,,,,,,,,,,,
1644854812.543296,212.000000,0.000000,4235.256348,4205.641113,4222.307617,4230.641113,4228.589844,4220.384766,4222.948730,4230.256348,4227.563965,4230.256348,4231.153809,4204.230957,4271.922852,4220.641113,3312.000000,4.000000,82.000000,,,,0.000000,4.000000,4.000000,4.000000,4.000000,4.000000,4.000000,4.000000,4.000000,4.000000,4.000000,4.000000,4.000000,4.000000,4.000000,100.000000,,,,,,,,,,,,,,,,
1644854812.547236,213.000000,0.000000,4233.589844,4198.846191,4223.589844,4228.589844,4227.692383,4219.615234,4224.230957,4231.538574,4226.666504,4226.794922,4232.948730,4205.128418,4262.307617,4223.846191,3483.000000,4.000000,82.000000,,,,0.000000,4.000000,4.000000,4.000000,4.000000,4.000000,4.000000,4.000000,4.000000,4.000000,4.000000,4.000000,4.000000,4.000000,4.000000,100.000000,,,,,,,,,,,,,,,,
1644854812.551176,214.000000,0.000000,4226.666504,4189.487305,4223.717773,4219.743652,4228.717773,4223.589844,4226.538574,4230.769043,4225.384766,4225.256348,4228.333496,4200.769043,4253.589844,4229.487305,3532.000000,4.000000,82.000000,,,,0.000000,4.000000,4.000000,4.000000,4.000000,4.000000,4.000000,4.000000,4.000000,4.000000,4.000000,4.000000,4.000000,4.000000,4.000000,100.000000,,,,,,,,,,,,,,,,
1644854812.555116,215.000000,0.000000,4215.897461,4183.077148,4222.051270,4206.282227,4230.641113,4230.256348,4227.307617,4227.820313,4224.487305,4225.769043,4218.589844,4196.282227,4247.436035,4231.153809,2380.000000,4.000000,82.000000,,,,0.000000,4.000000,4.000000,4.000000,4.000000,4.000000,4.000000,4.000000,4.000000,4.000000,4.000000,4.000000,4.000000,4.000000,4.000000,100.000000,,,,,,,,,,,,,,,,
1644854812.559057,216.000000,0.000000,4204.615234,4182.820313,4219.871582,4193.974121,4232.179688,4235.512695,4226.794922,4224.358887,4223.974121,4226.282227,4208.589844,4197.051270,4242.820313,4226.025879,3312.000000,4.000000,82.000000,,,,0.000000,4.000000,4.000000,4.000000,4.000000,4.000000,4.000000,4.000000,4.000000,4.000000,4.000000,4.000000,4.000000,4.000000,4.000000,100.000000,,,,,,,,,,,,,,,,
1644854812.562997,217.000000,0.000000,4196.794922,4187.307617,4219.487305,4190.384766,4232.051270,4235.512695,4226.538574,4221.794922,4223.077148,4223.205078,4202.563965,4203.974121,4238.077148,4218.077148,3483.000000,4.000000,82.000000,,,,0.000000,4.000000,4.000000,4.000000,4.000000,4.000000,4.000000,4.000000,4.000000,4.000000,4.000000,4.000000,4.000000,4.000000,4.000000,100.000000,,,,,,,,,,,,,,,,
1644854812.566937,218.000000,0.000000,4195.769043,4192.307617,4222.051270,4197.820313,4230.000000,4230.000000,4227.051270,4220.769043,4220.897461,4215.897461,4201.666504,4212.179688,4234.230957,4213.589844,3532.000000,4.000000,82.000000,,,,0.000000,4.000000,4.000000,4.000000,4.000000,4.000000,4.000000,4.000000,4.000000,4.000000,4.000000,4.000000,4.000000,4.000000,4.000000,100.000000,,,,,,,,,,,,,,,,
1644854812.570777,219.000000,0.000000,4202.820313,4194.743652,4226.538574,4212.051270,4226.538574,4221.922852,4226.922852,4220.769043,4218.205078,4208.333496,4205.512695,4215.769043,4235.897461,4216.025879,2380.000000,4.000000,82.000000,,,,0.000000,4.000000,4.000000,4.000000,4.000000,4.000000,4.000000,4.000000,4.000000,4.000000,4.000000,4.000000,4.000000,4.000000,4.000000,100.000000,,,,,,,,,,,,,,,,
1644854812.574717,220.000000,0.000000,4216.025879,4195.000000,4231.153809,4226.025879,4223.077148,4215.897461,4224.615234,4220.897461,4216.922852,4205.512695,4212.948730,4212.948730,4245.641113,4223.333496,3312.000000,4.000000,82.000000,,,,0.000000,4.000000,4.000000,4.000000,4.000000,4.000000,4.000000,4.000000,4.000000,4.000000,4.000000,4.000000,4.000000,4.000000,4.000000,100.000000,,,,,,,,,,,,,,,,
1644854812.578657,221.000000,0.000000,4230.641113,4194.743652,4234.615234,4235.256348,4221.794922,4214.487305,4221.794922,4221.025879,4218.077148,4209.102539,4222.051270,4207.820313,4259.871582,4229.487305,3483.000000,4.000000,82.000000,,,,0.000000,4.000000,4.000000,4.000000,4.000000,4.000000,4.000000,4.000000,4.000000,4.000000,4.000000,4.000000,4.000000,4.000000,4.000000,100.000000,,,,,,,,,,,,,,,,
1644854812.582597,222.000000,0.000000,4241.410156,4195.000000,4236.538574,4239.615234,4223.333496,4217.563965,4221.153809,4222.563965,4221.153809,4216.025879,4229.871582,4206.025879,4269.743652,4229.871582,3532.000000,4.000000,82.000000,,,,0.000000,4.000000,4.000000,4.000000,4.000000,4.000000,4.000000,4.000000,4.000000,4.000000,4.000000,4.000000,4.000000,4.000000,4.000000,100.000000,,,,,,,,,,,,,,,,
1644854812.586537,223.000000,0.000000,4245.000000,4196.025879,4236.666504,4240.384766,4226.282227,4222.436035,4223.461426,4226.025879,4224.230957,4222.179688,4234.358887,4209.358887,4267.948730,4223.974121,2380.000000,4.000000,82.000000,,,,0.000000,4.000000,4.000000,4.000000,4.000000,4.000000,4.000000,4.000000,4.000000,4.000000,4.000000,4.000000,4.000000,4.000000,4.000000,100.000000,,,,,,,,,,,,,,,,
1644854812.590478,224.000000,0.000000,4241.410156,4198.077148,4234.871582,4237.820313,4228.846191,4226.666504,4226.410156,4230.256348,4225.897461,4226.282227,4235.256348,4214.487305,4255.641113,4215.897461,3312.000000,4.000000,82.000000,,,,0.000000,4.000000,4.000000,4.000000,4.000000,4.000000,4.000000,4.000000,4.000000,4.000000,4.000000,4.000000,4.000000,4.000000,4.000000,100.000000,,,,,,,,,,,,,,,,
1644854812.594418,225.000000,0.000000,4233.974121,4201.025879,4232.436035,4231.666504,4230.512695,4228.846191,4227.051270,4232.692383,4226.922852,4229.743652,4234.615234,4216.538574,4241.666504,4212.179688,3483.000000,4.000000,82.000000,,,,0.000000,4.000000,4.000000,4.000000,4.000000,4.000000,4.000000,4.000000,4.000000,4.000000,4.000000,4.000000,4.000000,4.000000,4.000000,100.000000,,,,,,,,,,,,,,,,
1644854812.598358,226.000000,0.000000,4227.436035,4205.384766,4231.153809,4223.205078,4231.538574,4229.358887,4225.256348,4232.436035,4227.948730,4233.974121,4234.615234,4213.461426,4235.384766,4216.794922,3532.000000,4.000000,82.000000,,,,0.000000,4.000000,4.000000,4.000000,4.000000,4.000000,4.000000,4.000000,4.000000,4.000000,4.000000,4.000000,4.000000,4.000000,4.000000,100.000000,,,,,,,,,,,,,,,,
1644854812.602298,227.000000,0.000000,4225.897461,4210.256348,4232.051270,4216.282227,4233.205078,4229.230957,4223.846191,4230.641113,4229.487305,4238.077148,4235.897461,4207.563965,4240.512695,4228.589844,2380.000000,4.000000,82.000000,,,,0.000000,4.000000,4.000000,4.000000,4.000000,4.000000,4.000000,4.000000,4.000000,4.000000,4.000000,4.000000,4.000000,4.000000,4.000000,100.000000,,,,,,,,,,,,,,,,
1644854812.606238,228.000000,0.000000,4229.615234,4214.230957,4233.333496,4214.743652,4235.641113,4229.487305,4224.358887,4229.230957,4230.256348,4238.846191,4237.436035,4202.948730,4253.717773,4240.512695,3312.000000,4.000000,82.000000,,,,0.000000,4.000000,4.000000,4.000000,4.000000,4.000000,4.000000,4.000000,4.000000,4.000000,4.000000,4.000000,4.000000,4.000000,4.000000,100.000000,,,,,,,,,,,,,,,,
1644854812.610178,229.000000,0.000000,4235.769043,4215.512695,4232.307617,4219.230957,4237.820313,4229.743652,4225.512695,4228.333496,4229.102539,4234.615234,4237.692383,4201.282227,4268.461426,4245.256348,3483.000000,4.000000,82.000000,,,,0.000000,4.000000,4.000000,4.000000,4.000000,4.000000,4.000000,4.000000,4.000000,4.000000,4.000000,4.000000,4.000000,4.000000,4.000000,100.000000,,,,,,,,,,,,,,,,
1644854812.614118,230.000000,0.000000,4239.487305,4213.333496,4227.820313,4225.256348,4238.461426,4229.615234,4225.000000,4226.922852,4226.025879,4226.794922,4235.256348,4201.025879,4278.974121,4241.153809,3532.000000,4.000000,82.000000,,,,0.000000,4.000000,4.000000,4.000000,4.000000,4.000000,4.000000,4.000000,4.000000,4.000000,4.000000,4.000000,4.000000,4.000000,4.000000,100.000000,,,,,,,,,,,,,,,,
1644854812.618058,231.000000,0.000000,4237.436035,4208.205078,4221.922852,4226.282227,4236.922852,4228.717773,4223.717773,4224.230957,4222.563965,4220.384766,4230.128418,4199.230957,4282.179688,4232.948730,2380.000000,4.000000,82.000000,,,,0.000000,4.000000,4.000000,4.000000,4.000000,4.000000,4.000000,4.000000,4.000000,4.000000,4.000000,4.000000,4.000000,4.000000,4.000000,100.000000,,,,,,,,,,,,,,,,
1644854812.621998,232.000000,0.000000,4229.358887,4201.666504,4217.692383,4219.358887,4233.717773,4227.692383,4224.230957,4221.794922,4220.769043,4219.871582,4223.333496,4195.256348,4276.666504,4227.563965,3312.000000,4.000000,82.000000,,,,0.000000,4.000000,4.000000,4.000000,4.000000,4.000000,4.000000,4.000000,4.000000,4.000000,4.000000,4.000000,4.000000,4.000000,4.000000,100.000000,,,,,,,,,,,,,,,,
1644854812.625938,233.000000,0.000000,4218.589844,4195.769043,4216.282227,4206.922852,4230.000000,4227.436035,4227.563965,4221.410156,4221.794922,4225.897461,4217.563965,4191.666504,4264.102539,4226.282227,3483.000000,4.000000,82.000000,,,,0.000000,4.000000,4.000000,4.000000,4.000000,4.000000,4.000000,4.000000,4.000000,4.000000,4.000000,4.000000,4.000000,4.000000,4.000000,100.000000,,,,,,,,,,,,,,,,
1644854812.629978,234.000000,0.000000,4210.384766,4192.051270,4216.410156,4196.282227,4227.436035,4228.205078,4231.025879,4223.589844,4225.128418,4235.384766,4215.128418,4191.538574,4249.102539,4224.743652,3532.000000,4.000000,82.000000,,,,0.000000,4.000000,4.000000,4.000000,4.000000,4.000000,4.000000,4.000000,4.000000,4.000000,4.000000,4.000000,4.000000,4.000000,4.000000,100.000000,,,,,,,,,,,,,,,,
1644854812.633919,235.000000,0.000000,4208.077148,4190.897461,4216.153809,4193.717773,4227.948730,4229.487305,4231.410156,4226.410156,4228.717773,4242.563965,4216.922852,4195.897461,4238.333496,4218.846191,2380.000000,4.000000,82.000000,,,,0.000000,4.000000,4.000000,4.000000,4.000000,4.000000,4.000000,4.000000,4.000000,4.000000,4.000000,4.000000,4.000000,4.000000,4.000000,100.000000,,,,,,,,,,,,,,,,
1644854812.637859,236.000000,0.000000,4211.922852,4192.051270,4215.256348,4200.769043,4231.922852,4231.153809,4228.205078,4227.436035,4230.384766,4243.717773,4221.153809,4201.666504,4236.153809,4211.410156,3312.000000,4.000000,82.000000,,,,0.000000,4.000000,4.000000,4.000000,4.000000,4.000000,4.000000,4.000000,4.000000,4.000000,4.000000,4.000000,4.000000,4.000000,4.000000,100.000000,,,,,,,,,,,,,,,,
1644854812.641799,237.000000,0.000000,4218.717773,4195.000000,4214.743652,4212.948730,4237.307617,4232.051270,4224.487305,4225.769043,4229.102539,4238.461426,4224.743652,4204.615234,4242.692383,4210.512695,3483.000000,4.000000,82.000000,,,,0.000000,4.000000,4.000000,4.000000,4.000000,4.000000,4.000000,4.000000,4.000000,4.000000,4.000000,4.000000,4.000000,4.000000,4.000000,100.000000,,,,,,,,,,,,,,,,
1644854812.645739,238.000000,0.000000,4224.871582,4199.358887,4216.282227,4222.948730,4240.641113,4231.153809,4223.077148,4222.692383,4225.769043,4230.384766,4226.282227,4203.077148,4254.230957,4220.128418,3532.000000,4.000000,82.000000,,,,0.000000,4.000000,4.000000,4.000000,4.000000,4.000000,4.000000,4.000000,4.000000,4.000000,4.000000,4.000000,4.000000,4.000000,4.000000,100.000000,,,,,,,,,,,,,,,,
1644854812.649679,239.000000,0.000000,4227.948730,4203.846191,4220.000000,4226.025879,4239.230957,4228.077148,4223.717773,4220.128418,4222.563965,4224.230957,4225.897461,4198.846191,4265.000000,4234.487305,2380.000000,4.000000,82.000000,,,,0.000000,4.000000,4.000000,4.000000,4.000000,4.000000,4.000000,4.000000,4.000000,4.000000,4.000000,4.000000,4.000000,4.000000,4.000000,100.000000,,,,,,,,,,,,,,,,
1644854812.653619,240.000000,0.000000,4227.436035,4206.410156,4223.974121,4222.179688,4232.692383,4223.974121,4224.487305,4219.871582,4221.153809,4221.922852,4224.487305,4195.384766,4270.256348,4242.307617,3312.000000,4.000000,82.000000,,,,0.000000,4.000000,4.000000,4.000000,4.000000,4.000000,4.000000,4.000000,4.000000,4.000000,4.000000,4.000000,4.000000,4.000000,4.000000,100.000000,,,,,,,,,,,,,,,,
1644854812.657459,241.000000,0.000000,4224.102539,4205.256348,4225.897461,4215.128418,4223.974121,4220.897461,4224.230957,4221.922852,4221.410156,4222.179688,4222.307617,4195.512695,4266.794922,4236.922852,3483.000000,4.000000,82.000000,,,,0.000000,4.000000,4.000000,4.000000,4.000000,4.000000,4.000000,4.000000,4.000000,4.000000,4.000000,4.000000,4.000000,4.000000,4.000000,100.000000,,,,,,,,,,,,,,,,
1644854812.661399,242.000000,0.000000,4219.615234,4200.512695,4224.871582,4208.205078,4217.563965,4220.512695,4224.487305,4224.871582,4222.051270,4221.666504,4220.256348,4198.333496,4256.410156,4222.051270,3532.000000,4.000000,82.000000,,,,0.000000,4.000000,4.000000,4.000000,4.000000,4.000000,4.000000,4.000000,4.000000,4.000000,4.000000,4.000000,4.000000,4.000000,4.000000,100.000000,,,,,,,,,,,,,,,,
1644854812.665340,243.000000,0.000000,4215.384766,4194.615234,4222.563965,4203.846191,4217.820313,4222.948730,4226.282227,4226.794922,4222.820313,4219.487305,4220.384766,4201.282227,4244.615234,4208.717773,2380.000000,4.000000,82.000000,,,,0.000000,4.000000,4.000000,4.000000,4.000000,4.000000,4.000000,4.000000,4.000000,4.000000,4.000000,4.000000,4.000000,4.000000,4.000000,100.000000,,,,,,,,,,,,,,,,
1644854812.669280,244.000000,0.000000,4212.948730,4191.538574,4221.025879,4203.461426,4224.743652,4227.179688,4228.333496,4226.922852,4224.230957,4218.717773,4224.230957,4202.436035,4239.102539,4205.256348,3312.000000,4.000000,82.000000,,,,0.000000,4.000000,4.000000,4.000000,4.000000,4.000000,4.000000,4.000000,4.000000,4.000000,4.000000,4.000000,4.000000,4.000000,4.000000,100.000000,,,,,,,,,,,,,,,,
1644854812.673220,245.000000,0.000000,4213.717773,4194.358887,4221.666504,4208.077148,4234.358887,4231.410156,4228.589844,4226.666504,4227.563965,4223.589844,4230.897461,4201.922852,4243.333496,4212.820313,3483.000000,4.000000,82.000000,,,,0.000000,4.000000,4.000000,4.000000,4.000000,4.000000,4.000000,4.000000,4.000000,4.000000,4.000000,4.000000,4.000000,4.000000,4.000000,100.000000,,,,,,,,,,,,,,,,
1644854812.677160,246.000000,0.000000,4217.563965,4202.179688,4224.230957,4217.307617,4240.384766,4233.717773,4226.666504,4228.077148,4232.820313,4235.384766,4236.282227,4201.410156,4254.230957,4226.666504,3532.000000,4.000000,82.000000,,,,0.000000,4.000000,4.000000,4.000000,4.000000,4.000000,4.000000,4.000000,4.000000,4.000000,4.000000,4.000000,4.000000,4.000000,4.000000,100.000000,,,,,,,,,,,,,,,,
1644854812.681100,247.000000,0.000000,4222.563965,4210.256348,4227.051270,4228.461426,4239.743652,4233.461426,4225.384766,4231.794922,4238.333496,4249.230957,4236.922852,4201.794922,4264.615234,4239.487305,2380.000000,4.000000,82.000000,,,,0.000000,4.000000,4.000000,4.000000,4.000000,4.000000,4.000000,4.000000,4.000000,4.000000,4.000000,4.000000,4.000000,4.000000,4.000000,100.000000,,,,,,,,,,,,,,,,
1644854812.685040,248.000000,0.000000,4225.128418,4212.948730,4227.948730,4236.666504,4234.358887,4231.666504,4226.153809,4236.025879,4241.666504,4257.307617,4233.077148,4202.436035,4268.333496,4245.000000,3312.000000,4.000000,82.000000,,,,0.000000,4.000000,4.000000,4.000000,4.000000,4.000000,4.000000,4.000000,4.000000,4.000000,4.000000,4.000000,4.000000,4.000000,4.000000,100.000000,,,,,,,,,,,,,,,,
1644854812.688880,249.000000,0.000000,4223.717773,4207.948730,4225.769043,4236.666504,4229.487305,4229.615234,4227.692383,4237.692383,4241.410156,4254.102539,4227.692383,4202.563965,4262.692383,4240.384766,3483.000000,4.000000,82.000000,,,,0.000000,4.000000,4.000000,4.000000,4.000000,4.000000,4.000000,4.000000,4.000000,4.000000,4.000000,4.000000,4.000000,4.000000,4.000000,100.000000,,,,,,,,,,,,,,,,
1644854812.692820,250.000000,0.000000,4220.256348,4198.205078,4221.538574,4226.538574,4229.358887,4228.077148,4227.051270,4235.384766,4237.948730,4241.538574,4223.717773,4202.051270,4250.512695,4228.974121,3532.000000,4.000000,82.000000,,,,0.000000,4.000000,4.000000,4.000000,4.000000,4.000000,4.000000,4.000000,4.000000,4.000000,4.000000,4.000000,4.000000,4.000000,4.000000,100.000000,,,,,,,,,,,,,,,,
1644854812.696760,251.000000,0.000000,4217.692383,4189.743652,4217.692383,4210.769043,4233.077148,4226.282227,4223.846191,4231.025879,4233.205078,4226.538574,4221.282227,4201.282227,4237.692383,4218.077148,2380.000000,4.000000,82.000000,,,,0.000000,4.000000,4.000000,4.000000,4.000000,4.000000,4.000000,4.000000,4.000000,4.000000,4.000000,4.000000,4.000000,4.000000,4.000000,100.000000,,,,,,,,,,,,,,,,
1644854812.700701,252.000000,0.000000,4216.538574,4187.307617,4215.897461,4197.692383,4235.256348,4223.205078,4221.153809,4228.205078,4229.102539,4216.922852,4218.846191,4200.512695,4230.384766,4214.358887,3312.000000,4.000000,82.000000,,,,0.000000,4.000000,4.000000,4.000000,4.000000,4.000000,4.000000,4.000000,4.000000,4.000000,4.000000,4.000000,4.000000,4.000000,4.000000,100.000000,,,,,,,,,,,,,,,,
1644854812.704641,253.000000,0.000000,4214.487305,4191.282227,4216.410156,4194.358887,4231.153809,4219.102539,4221.538574,4228.461426,4227.051270,4216.410156,4214.487305,4199.358887,4231.922852,4216.794922,3483.000000,4.000000,82.000000,,,,0.000000,4.000000,4.000000,4.000000,4.000000,4.000000,4.000000,4.000000,4.000000,4.000000,4.000000,4.000000,4.000000,4.000000,4.000000,100.000000,,,,,,,,,,,,,,,,
1644854812.708581,254.000000,0.000000,4208.846191,4197.820313,4217.948730,4200.641113,4221.410156,4215.769043,4224.487305,4230.512695,4226.922852,4222.820313,4207.820313,4197.563965,4239.615234,4219.102539,3532.000000,4.000000,82.000000,,,,0.000000,4.000000,4.000000,4.000000,4.000000,4.000000,4.000000,4.000000,4.000000,4.000000,4.000000,4.000000,4.000000,4.000000,4.000000,100.000000,,,,,,,,,,,,,,,,
1644854812.712521,255.000000,0.000000,4199.615234,4202.179688,4218.589844,4210.256348,4212.563965,4215.384766,4227.307617,4231.025879,4227.051270,4230.256348,4200.256348,4196.282227,4246.282227,4215.897461,112.000000,4.000000,82.000000,,,,0.000000,4.000000,4.000000,4.000000,4.000000,4.000000,4.000000,4.000000,4.000000,4.000000,4.000000,4.000000,4.000000,4.000000,4.000000,100.000000,,,,,,,,,,,,,,,,
1644854812.716461,0.000000,0.000000,4190.897461,4201.666504,4217.948730,4216.538574,4211.282227,4218.717773,4228.589844,4228.846191,4225.641113,4232.820313,4195.000000,4196.153809,4245.000000,4208.589844,3423.000000,4.000000,82.000000,,,,0.000000,4.000000,4.000000,4.000000,4.000000,4.000000,4.000000,4.000000,4.000000,4.000000,4.000000,4.000000,4.000000,4.000000,4.000000,100.000000,,,,,,,,,,,,,,,,
1644854812.720401,1.000000,0.000000,4187.563965,4197.692383,4216.922852,4217.307617,4219.102539,4224.102539,4228.974121,4224.871582,4222.051270,4227.692383,4195.000000,4196.922852,4235.384766,4203.589844,3319.000000,4.000000,82.000000,,,,0.000000,4.000000,4.000000,4.000000,4.000000,4.000000,4.000000,4.000000,4.000000,4.000000,4.000000,4.000000,4.000000,4.000000,4.000000,100.000000,,,,,,,,,,,,,,,,
1644854812.724341,2.000000,0.000000,4192.436035,4193.846191,4216.538574,4215.128418,4231.666504,4228.846191,4229.743652,4220.897461,4217.692383,4217.563965,4201.025879,4196.666504,4224.230957,4205.384766,3515.000000,4.000000,82.000000,,,,0.000000,4.000000,4.000000,4.000000,4.000000,4.000000,4.000000,4.000000,4.000000,4.000000,4.000000,4.000000,4.000000,4.000000,4.000000,100.000000,,,,,,,,,,,,,,,,
1644854812.728281,3.000000,0.000000,4203.717773,4193.974121,4217.179688,4213.717773,4242.307617,4231.153809,4230.000000,4217.948730,4214.615234,4207.820313,4210.000000,4193.974121,4219.743652,4212.436035,3531.000000,4.000000,82.000000,,,,0.000000,4.000000,4.000000,4.000000,4.000000,4.000000,4.000000,4.000000,4.000000,4.000000,4.000000,4.000000,4.000000,4.000000,4.000000,100.000000,,,,,,,,,,,,,,,,
1644854812.732221,4.000000,0.000000,4215.512695,4198.974121,4218.461426,4215.769043,4245.512695,4231.410156,4228.077148,4216.282227,4214.230957,4202.820313,4217.051270,4189.871582,4224.230957,4218.974121,3668.000000,4.000000,82.000000,,,,0.000000,4.000000,4.000000,4.000000,4.000000,4.000000,4.000000,4.000000,4.000000,4.000000,4.000000,4.000000,4.000000,4.000000,4.000000,100.000000,,,,,,,,,,,,,,,,
1644854812.736162,5.000000,0.000000,4221.538574,4205.769043,4219.743652,4220.256348,4240.769043,4230.641113,4224.615234,4215.769043,4215.512695,4202.948730,4218.846191,4186.922852,4232.436035,4221.282227,3373.000000,4.000000,82.000000,,,,0.000000,4.000000,4.000000,4.000000,4.000000,4.000000,4.000000,4.000000,4.000000,4.000000,4.000000,4.000000,4.000000,4.000000,4.000000,100.000000,,,,,,,,,,,,,,,,
1644854812.740102,6.000000,0.000000,4219.871582,4210.128418,4220.256348,4224.743652,4232.563965,4230.000000,4222.051270,4216.153809,4216.666504,4205.897461,4216.153809,4187.307617,4236.410156,4219.871582,2789.000000,4.000000,82.000000,,,,0.000000,4.000000,4.000000,4.000000,4.000000,4.000000,4.000000,4.000000,4.000000,4.000000,4.000000,4.000000,4.000000,4.000000,4.000000,100.000000,,,,,,,,,,,,,,,,
1644854812.744042,7.000000,0.000000,4214.487305,4210.000000,4220.128418,4226.025879,4227.307617,4229.487305,4222.692383,4216.922852,4216.282227,4209.615234,4212.948730,4190.641113,4233.333496,4217.563965,3035.000000,4.000000,82.000000,,,,0.000000,4.000000,4.000000,4.000000,4.000000,4.000000,4.000000,4.000000,4.000000,4.000000,4.000000,4.000000,4.000000,4.000000,4.000000,100.000000,,,,,,,,,,,,,,,,
1644854812.747982,8.000000,0.000000,4211.025879,4206.922852,4218.974121,4222.820313,4229.230957,4228.333496,4224.358887,4217.692383,4214.487305,4213.333496,4212.179688,4194.358887,4227.307617,4215.769043,3420.000000,4.000000,82.000000,,,,0.000000,4.000000,4.000000,4.000000,4.000000,4.000000,4.000000,4.000000,4.000000,4.000000,4.000000,4.000000,4.000000,4.000000,4.000000,100.000000,,,,,,,,,,,,,,,,
1644854812.752022,9.000000,0.000000,4211.410156,4204.487305,4217.563965,4216.025879,4235.897461,4225.769043,4222.948730,4217.436035,4212.436035,4217.051270,4212.436035,4196.410156,4224.743652,4214.102539,3519.000000,4.000000,82.000000,,,,0.000000,4.000000,4.000000,4.000000,4.000000,4.000000,4.000000,4.000000,4.000000,4.000000,4.000000,4.000000,4.000000,4.000000,4.000000,100.000000,,,,,,,,,,,,,,,,
1644854812.755962,10.000000,0.000000,4212.948730,4204.743652,4217.051270,4208.333496,4240.128418,4222.051270,4217.307617,4216.025879,4211.282227,4219.743652,4211.025879,4197.051270,4228.077148,4212.948730,3664.000000,4.000000,82.000000,,,,0.000000,4.000000,4.000000,4.000000,4.000000,4.000000,4.000000,4.000000,4.000000,4.000000,4.000000,4.000000,4.000000,4.000000,4.000000,100.000000,,,,,,,,,,,,,,,,
1644854812.759902,11.000000,0.000000,4212.179688,4207.307617,4219.102539,4203.333496,4236.538574,4218.717773,4211.153809,4214.102539,4211.666504,4220.384766,4207.563965,4197.820313,4234.230957,4213.974121,2372.000000,4.000000,82.000000,,,,0.000000,4.000000,4.000000,4.000000,4.000000,4.000000,4.000000,4.000000,4.000000,4.000000,4.000000,4.000000,4.000000,4.000000,4.000000,100.000000,,,,,,,,,,,,,,,,
1644854812.763842,12.000000,0.000000,4209.743652,4210.641113,4224.358887,4204.230957,4227.563965,4218.077148,4209.615234,4214.102539,4213.974121,4219.743652,4204.358887,4199.743652,4238.461426,4218.333496,3441.000000,4.000000,82.000000,,,,0.000000,4.000000,4.000000,4.000000,4.000000,4.000000,4.000000,4.000000,4.000000,4.000000,4.000000,4.000000,4.000000,4.000000,4.000000,100.000000,,,,,,,,,,,,,,,,
1644854812.767782,13.000000,0.000000,4210.256348,4214.102539,4231.666504,4212.051270,4221.410156,4221.153809,4213.589844,4217.307617,4218.461426,4221.153809,4205.000000,4202.563965,4238.589844,4224.230957,3486.000000,4.000000,82.000000,,,,0.000000,4.000000,4.000000,4.000000,4.000000,4.000000,4.000000,4.000000,4.000000,4.000000,4.000000,4.000000,4.000000,4.000000,4.000000,100.000000,,,,,,,,,,,,,,,,
1644854812.771622,14.000000,0.000000,4217.307617,4217.563965,4238.846191,4224.487305,4225.000000,4226.666504,4219.487305,4222.948730,4225.256348,4227.051270,4210.641113,4205.256348,4238.333496,4229.230957,3664.000000,4.000000,82.000000,,,,0.000000,4.000000,4.000000,4.000000,4.000000,4.000000,4.000000,4.000000,4.000000,4.000000,4.000000,4.000000,4.000000,4.000000,4.000000,100.000000,,,,,,,,,,,,,,,,
1644854812.775563,15.000000,0.000000,4228.589844,4221.282227,4243.589844,4235.897461,4237.436035,4232.051270,4223.461426,4228.717773,4233.077148,4235.897461,4220.512695,4206.922852,4242.307617,4233.205078,2372.000000,4.000000,82.000000,,,,0.000000,4.000000,4.000000,4.000000,4.000000,4.000000,4.000000,4.000000,4.000000,4.000000,4.000000,4.000000,4.000000,4.000000,4.000000,100.000000,,,,,,,,,,,,,,,,
1644854812.779503,16.000000,0.000000,4237.436035,4224.102539,4244.743652,4240.897461,4250.256348,4234.615234,4225.256348,4233.205078,4239.487305,4242.948730,4231.282227,4207.563965,4251.538574,4238.077148,3441.000000,4.000000,82.000000,,,,0.000000,4.000000,4.000000,4.000000,4.000000,4.000000,4.000000,4.000000,4.000000,4.000000,4.000000,4.000000,4.000000,4.000000,4.000000,100.000000,,,,,,,,,,,,,,,,
1644854812.783443,17.000000,0.000000,4238.205078,4224.230957,4242.820313,4236.922852,4254.102539,4233.717773,4226.666504,4236.153809,4242.051270,4244.358887,4239.230957,4208.205078,4261.666504,4243.717773,3486.000000,4.000000,82.000000,,,,0.000000,4.000000,4.000000,4.000000,4.000000,4.000000,4.000000,4.000000,4.000000,4.000000,4.000000,4.000000,4.000000,4.000000,4.000000,100.000000,,,,,,,,,,,,,,,,
1644854812.787383,18.000000,0.000000,4231.153809,4220.512695,4239.230957,4226.282227,4246.666504,4230.384766,4228.461426,4238.205078,4241.025879,4240.512695,4241.794922,4210.000000,4266.282227,4246.153809,3664.000000,4.000000,82.000000,,,,0.000000,4.000000,4.000000,4.000000,4.000000,4.000000,4.000000,4.000000,4.000000,4.000000,4.000000,4.000000,4.000000,4.000000,4.000000,100.000000,,,,,,,,,,,,,,,,
1644854812.791323,19.000000,0.000000,4221.282227,4214.230957,4235.000000,4214.102539,4234.358887,4227.436035,4229.615234,4240.384766,4238.846191,4236.282227,4239.487305,4212.563965,4262.179688,4240.769043,2372.000000,4.000000,82.000000,,,,0.000000,4.000000,4.000000,4.000000,4.000000,4.000000,4.000000,4.000000,4.000000,4.000000,4.000000,4.000000,4.000000,4.000000,4.000000,100.000000,,,,,,,,,,,,,,,,
1644854812.795263,20.000000,0.000000,4214.358887,4208.077148,4231.025879,4207.051270,4226.410156,4227.179688,4229.358887,4242.307617,4237.948730,4235.769043,4235.256348,4214.615234,4251.922852,4227.820313,3441.000000,4.000000,82.000000,,,,0.000000,4.000000,4.000000,4.000000,4.000000,4.000000,4.000000,4.000000,4.000000,4.000000,4.000000,4.000000,4.000000,4.000000,4.000000,100.000000,,,,,,,,,,,,,,,,
1644854812.799203,21.000000,0.000000,4212.563965,4204.871582,4227.948730,4208.717773,4227.436035,4229.358887,4228.717773,4242.820313,4238.333496,4239.743652,4231.538574,4214.358887,4241.538574,4213.974121,3486.000000,4.000000,82.000000,,,,0.000000,4.000000,4.000000,4.000000,4.000000,4.000000,4.000000,4.000000,4.000000,4.000000,4.000000,4.000000,4.000000,4.000000,4.000000,100.000000,,,,,,,,,,,,,,,,
1644854812.803043,22.000000,0.000000,4214.358887,4204.615234,4226.538574,4216.794922,4234.230957,4231.794922,4229.230957,4241.410156,4237.820313,4244.871582,4229.743652,4212.436035,4236.410156,4207.436035,3664.000000,4.000000,82.000000,,,,0.000000,4.000000,4.000000,4.000000,4.000000,4.000000,4.000000,4.000000,4.000000,4.000000,4.000000,4.000000,4.000000,4.000000,4.000000,100.000000,,,,,,,,,,,,,,,,
1644854812.806984,23.000000,0.000000,4215.128418,4206.282227,4226.538574,4224.102539,4240.384766,4232.051270,4230.384766,4238.333496,4234.743652,4247.051270,4229.615234,4210.769043,4237.948730,4210.128418,2372.000000,4.000000,82.000000,,,,0.000000,4.000000,4.000000,4.000000,4.000000,4.000000,4.000000,4.000000,4.000000,4.000000,4.000000,4.000000,4.000000,4.000000,4.000000,100.000000,,,,,,,,,,,,,,,,
1644854812.810924,24.000000,0.000000,4211.922852,4207.692383,4227.307617,4223.589844,4241.538574,4229.230957,4229.871582,4234.487305,4230.128418,4244.743652,4231.282227,4211.922852,4243.717773,4217.948730,3441.000000,4.000000,82.000000,,,,0.000000,4.000000,4.000000,4.000000,4.000000,4.000000,4.000000,4.000000,4.000000,4.000000,4.000000,4.000000,4.000000,4.000000,4.000000,100.000000,,,,,,,,,,,,,,,,
1644854812.814864,25.000000,0.000000,4205.384766,4207.948730,4227.948730,4214.230957,4239.102539,4224.615234,4226.410156,4230.897461,4226.538574,4240.128418,4234.102539,4216.025879,4249.487305,4224.871582,3486.000000,4.000000,82.000000,,,,0.000000,4.000000,4.000000,4.000000,4.000000,4.000000,4.000000,4.000000,4.000000,4.000000,4.000000,4.000000,4.000000,4.000000,4.000000,100.000000,,,,,,,,,,,,,,,,
1644854812.818804,26.000000,0.000000,4200.128418,4207.307617,4228.589844,4201.922852,4236.025879,4220.384766,4221.922852,4227.948730,4225.128418,4236.025879,4237.436035,4220.641113,4252.692383,4228.717773,3664.000000,4.000000,82.000000,,,,0.000000,4.000000,4.000000,4.000000,4.000000,4.000000,4.000000,4.000000,4.000000,4.000000,4.000000,4.000000,4.000000,4.000000,4.000000,100.000000,,,,,,,,,,,,,,,,
1644854812.822744,27.000000,0.000000,4200.641113,4207.307617,4229.871582,4195.897461,4234.102539,4217.948730,4220.000000,4225.769043,4225.256348,4233.717773,4238.717773,4221.794922,4252.436035,4230.000000,2372.000000,4.000000,82.000000,,,,0.000000,4.000000,4.000000,4.000000,4.000000,4.000000,4.000000,4.000000,4.000000,4.000000,4.000000,4.000000,4.000000,4.000000,4.000000,100.000000,,,,,,,,,,,,,,,,
1644854812.826684,28.000000,0.000000,4207.051270,4208.333496,4231.666504,4202.307617,4231.794922,4217.179688,4221.153809,4224.102539,4224.743652,4232.051270,4235.769043,4217.948730,4250.000000,4229.230957,3441.000000,4.000000,82.000000,,,,0.000000,4.000000,4.000000,4.000000,4.000000,4.000000,4.000000,4.000000,4.000000,4.000000,4.000000,4.000000,4.000000,4.000000,4.000000,100.000000,,,,,,,,,,,,,,,,
1644854812.830624,29.000000,0.000000,4215.128418,4210.000000,4232.436035,4218.589844,4227.692383,4217.179688,4223.077148,4221.794922,4222.436035,4229.871582,4229.487305,4211.282227,4247.436035,4226.282227,3486.000000,4.000000,82.000000,,,,0.000000,4.000000,4.000000,4.000000,4.000000,4.000000,4.000000,4.000000,4.000000,4.000000,4.000000,4.000000,4.000000,4.000000,4.000000,100.000000,,,,,,,,,,,,,,,,
1644854812.834564,30.000000,0.000000,4220.000000,4210.769043,4230.256348,4235.000000,4222.948730,4217.820313,4223.205078,4218.717773,4219.358887,4227.820313,4225.384766,4205.897461,4246.666504,4222.820313,3664.000000,4.000000,82.000000,,,,0.000000,4.000000,4.000000,4.000000,4.000000,4.000000,4.000000,4.000000,4.000000,4.000000,4.000000,4.000000,4.000000,4.000000,4.000000,100.000000,,,,,,,,,,,,,,,,
1644854812.838504,31.000000,0.000000,4220.512695,4210.769043,4225.384766,4240.256348,4221.282227,4219.358887,4222.563965,4216.282227,4217.563965,4228.077148,4228.589844,4203.846191,4248.077148,4221.922852,2372.000000,4.000000,82.000000,,,,0.000000,4.000000,4.000000,4.000000,4.000000,4.000000,4.000000,4.000000,4.000000,4.000000,4.000000,4.000000,4.000000,4.000000,4.000000,100.000000,,,,,,,,,,,,,,,,
1644854812.842444,32.000000,0.000000,4218.589844,4210.769043,4220.641113,4230.128418,4224.871582,4222.436035,4223.333496,4216.410156,4218.461426,4231.922852,4237.948730,4203.974121,4251.025879,4225.000000,0.000000,4.000000,82.000000,,,,0.000000,4.000000,4.000000,4.000000,4.000000,4.000000,4.000000,4.000000,4.000000,4.000000,4.000000,4.000000,4.000000,4.000000,4.000000,100.000000,,,,,,,,,,,,,,,,
1644854812.846385,33.000000,0.000000,4216.025879,4211.922852,4218.461426,4211.538574,4231.153809,4226.153809,4226.282227,4220.000000,4222.051270,4238.333496,4244.871582,4205.000000,4254.102539,4229.102539,0.000000,4.000000,82.000000,,,,0.000000,4.000000,4.000000,4.000000,4.000000,4.000000,4.000000,4.000000,4.000000,4.000000,4.000000,4.000000,4.000000,4.000000,4.000000,100.000000,,,,,,,,,,,,,,,,
1644854812.850325,34.000000,0.000000,4213.846191,4214.871582,4219.743652,4197.563965,4236.153809,4229.487305,4228.846191,4225.641113,4227.563965,4244.230957,4241.410156,4206.025879,4256.666504,4228.333496,0.000000,4.000000,82.000000,,,,0.000000,4.000000,4.000000,4.000000,4.000000,4.000000,4.000000,4.000000,4.000000,4.000000,4.000000,4.000000,4.000000,4.000000,4.000000,100.000000,1.000000,83.333336,4.000000,4.000000,4.000000,4.000000,4.000000,4.000000,4.000000,4.000000,4.000000,4.000000,3.000000,4.000000,3.000000,4.000000
1644854812.854265,35.000000,0.000000,4211.538574,4218.333496,4222.948730,4197.692383,4237.820313,4231.410156,4228.589844,4230.641113,4232.692383,4246.025879,4227.051270,4207.179688,4258.205078,4220.384766,0.000000,4.000000,82.000000,,,,0.000000,4.000000,4.000000,4.000000,4.000000,4.000000,4.000000,4.000000,4.000000,4.000000,4.000000,4.000000,4.000000,4.000000,4.000000,100.000000,,,,,,,,,,,,,,,,
