title:Alex--29tgWp2yMVB7T6s7XDTXg, start timestamp:1644853088.590070, stop timestamp:1644853115.334663, headset type:EPOCPLUS, headset serial:3B9AEBFF, headset firmware:626, channels:55, sampling rate:eeg_256, samples:6788      , version:2.1, 
Timestamp,EEG.Counter,EEG.Interpolated,EEG.AF3,EEG.F7,EEG.F3,EEG.FC5,EEG.T7,EEG.P7,EEG.O1,EEG.O2,EEG.P8,EEG.T8,EEG.FC6,EEG.F4,EEG.F8,EEG.AF4,EEG.RawCq,EEG.Battery,EEG.BatteryPercent,MarkerIndex,MarkerType,MarkerValueInt,EEG.MarkerHardware,CQ.AF3,CQ.F7,CQ.F3,CQ.FC5,CQ.T7,CQ.P7,CQ.O1,CQ.O2,CQ.P8,CQ.T8,CQ.FC6,CQ.F4,CQ.F8,CQ.AF4,CQ.Overall,EQ.SampleRateQuality,EQ.OVERALL,EQ.AF3,EQ.F7,EQ.F3,EQ.FC5,EQ.T7,EQ.P7,EQ.O1,EQ.O2,EQ.P8,EQ.T8,EQ.FC6,EQ.F4,EQ.F8,EQ.AF4
1644853088.590070,168.000000,0.000000,4257.692383,4232.307617,4232.563965,4247.307617,4233.846191,4230.512695,4227.436035,4231.538574,4228.589844,4231.538574,4232.179688,4213.717773,4217.051270,4202.563965,3362.000000,4.000000,91.000000,,,,0.000000,4.000000,4.000000,4.000000,4.000000,4.000000,4.000000,4.000000,4.000000,4.000000,4.000000,4.000000,4.000000,4.000000,4.000000,100.000000,,,,,,,,,,,,,,,,
1644853088.594110,169.000000,0.000000,4257.563965,4229.615234,4232.051270,4245.256348,4232.948730,4229.615234,4229.230957,4234.487305,4228.333496,4227.051270,4230.641113,4212.563965,4220.256348,4202.692383,3499.000000,4.000000,91.000000,,,,0.000000,4.000000,4.000000,4.000000,4.000000,4.000000,4.000000,4.000000,4.000000,4.000000,4.000000,4.000000,4.000000,4.000000,4.000000,100.000000,,,,,,,,,,,,,,,,
1644853088.598050,170.000000,0.000000,4256.153809,4231.282227,4232.563965,4242.563965,4232.307617,4226.153809,4230.512695,4237.692383,4228.589844,4224.358887,4226.794922,4212.948730,4223.461426,4201.538574,3527.000000,4.000000,91.000000,,,,0.000000,4.000000,4.000000,4.000000,4.000000,4.000000,4.000000,4.000000,4.000000,4.000000,4.000000,4.000000,4.000000,4.000000,4.000000,100.000000,,,,,,,,,,,,,,,,
1644853088.601991,171.000000,0.000000,4253.333496,4234.743652,4232.563965,4239.230957,4233.077148,4222.307617,4228.717773,4238.461426,4228.589844,4225.769043,4223.333496,4213.717773,4224.743652,4199.487305,3598.000000,4.000000,91.000000,,,,0.000000,4.000000,4.000000,4.000000,4.000000,4.000000,4.000000,4.000000,4.000000,4.000000,4.000000,4.000000,4.000000,4.000000,4.000000,100.000000,,,,,,,,,,,,,,,,
1644853088.605931,172.000000,0.000000,4249.358887,4236.025879,4230.897461,4236.666504,4234.871582,4220.641113,4225.384766,4235.641113,4227.051270,4229.102539,4222.948730,4213.589844,4222.563965,4198.077148,3362.000000,4.000000,91.000000,,,,0.000000,4.000000,4.000000,4.000000,4.000000,4.000000,4.000000,4.000000,4.000000,4.000000,4.000000,4.000000,4.000000,4.000000,4.000000,100.000000,,,,,,,,,,,,,,,,
1644853088.609871,173.000000,0.000000,4245.897461,4233.974121,4227.948730,4238.077148,4235.769043,4222.563965,4223.974121,4231.153809,4223.717773,4230.128418,4225.000000,4212.307617,4217.563965,4197.307617,3499.000000,4.000000,91.000000,,,,0.000000,4.000000,4.000000,4.000000,4.000000,4.000000,4.000000,4.000000,4.000000,4.000000,4.000000,4.000000,4.000000,4.000000,4.000000,100.000000,,,,,,,,,,,,,,,,
1644853088.613811,174.000000,0.000000,4244.871582,4230.769043,4225.897461,4244.230957,4233.846191,4226.282227,4225.512695,4227.820313,4220.384766,4226.410156,4226.538574,4210.769043,4211.794922,4196.025879,3527.000000,4.000000,91.000000,,,,0.000000,4.000000,4.000000,4.000000,4.000000,4.000000,4.000000,4.000000,4.000000,4.000000,4.000000,4.000000,4.000000,4.000000,4.000000,100.000000,,,,,,,,,,,,,,,,
1644853088.617751,175.000000,0.000000,4246.282227,4229.615234,4225.897461,4251.410156,4229.230957,4228.974121,4227.692383,4227.051270,4218.589844,4220.128418,4224.871582,4210.256348,4207.692383,4193.333496,3598.000000,4.000000,91.000000,,,,0.000000,4.000000,4.000000,4.000000,4.000000,4.000000,4.000000,4.000000,4.000000,4.000000,4.000000,4.000000,4.000000,4.000000,4.000000,100.000000,,,,,,,,,,,,,,,,
1644853088.621591,176.000000,0.000000,4248.077148,4230.128418,4227.563965,4253.846191,4224.358887,4227.948730,4227.948730,4227.436035,4218.205078,4214.487305,4221.282227,4210.897461,4205.897461,4189.487305,3362.000000,4.000000,91.000000,,,,0.000000,4.000000,4.000000,4.000000,4.000000,4.000000,4.000000,4.000000,4.000000,4.000000,4.000000,4.000000,4.000000,4.000000,4.000000,100.000000,,,,,,,,,,,,,,,,
1644853088.625531,177.000000,0.000000,4247.948730,4228.974121,4229.102539,4247.820313,4222.051270,4223.333496,4226.153809,4226.794922,4218.205078,4211.922852,4219.871582,4211.666504,4205.769043,4186.538574,3499.000000,4.000000,91.000000,,,,0.000000,4.000000,4.000000,4.000000,4.000000,4.000000,4.000000,4.000000,4.000000,4.000000,4.000000,4.000000,4.000000,4.000000,4.000000,100.000000,,,,,,,,,,,,,,,,
1644853088.629471,178.000000,0.000000,4244.871582,4223.077148,4228.461426,4235.769043,4222.692383,4218.205078,4224.615234,4224.102539,4217.179688,4211.025879,4223.077148,4211.282227,4207.179688,4186.153809,3527.000000,4.000000,91.000000,,,,0.000000,4.000000,4.000000,4.000000,4.000000,4.000000,4.000000,4.000000,4.000000,4.000000,4.000000,4.000000,4.000000,4.000000,4.000000,100.000000,,,,,,,,,,,,,,,,
1644853088.633411,179.000000,0.000000,4240.000000,4213.974121,4224.871582,4223.846191,4223.461426,4216.153809,4224.358887,4220.256348,4215.000000,4209.615234,4228.077148,4208.974121,4209.615234,4188.205078,3598.000000,4.000000,91.000000,,,,0.000000,4.000000,4.000000,4.000000,4.000000,4.000000,4.000000,4.000000,4.000000,4.000000,4.000000,4.000000,4.000000,4.000000,4.000000,100.000000,,,,,,,,,,,,,,,,
1644853088.637252,180.000000,0.000000,4235.641113,4207.307617,4219.358887,4217.563965,4221.282227,4217.820313,4224.230957,4217.563965,4212.692383,4206.794922,4227.692383,4205.897461,4211.153809,4190.256348,3362.000000,4.000000,91.000000,,,,0.000000,4.000000,4.000000,4.000000,4.000000,4.000000,4.000000,4.000000,4.000000,4.000000,4.000000,4.000000,4.000000,4.000000,4.000000,100.000000,,,,,,,,,,,,,,,,
1644853088.641192,181.000000,0.000000,4232.820313,4207.563965,4214.230957,4217.436035,4216.025879,4220.769043,4222.692383,4217.948730,4212.436035,4203.974121,4218.461426,4204.871582,4208.205078,4189.487305,3499.000000,4.000000,91.000000,,,,0.000000,4.000000,4.000000,4.000000,4.000000,4.000000,4.000000,4.000000,4.000000,4.000000,4.000000,4.000000,4.000000,4.000000,4.000000,100.000000,,,,,,,,,,,,,,,,
1644853088.645132,182.000000,0.000000,4229.871582,4213.333496,4211.922852,4220.128418,4210.256348,4221.538574,4220.769043,4221.410156,4215.512695,4203.589844,4204.871582,4208.461426,4197.820313,4185.128418,3527.000000,4.000000,91.000000,,,,0.000000,4.000000,4.000000,4.000000,4.000000,4.000000,4.000000,4.000000,4.000000,4.000000,4.000000,4.000000,4.000000,4.000000,4.000000,100.000000,,,,,,,,,,,,,,,,
1644853088.649072,183.000000,0.000000,4225.897461,4219.102539,4213.333496,4221.666504,4207.179688,4219.358887,4220.769043,4226.025879,4220.641113,4207.436035,4197.948730,4215.897461,4182.436035,4180.256348,3598.000000,4.000000,91.000000,,,,0.000000,4.000000,4.000000,4.000000,4.000000,4.000000,4.000000,4.000000,4.000000,4.000000,4.000000,4.000000,4.000000,4.000000,4.000000,100.000000,,,,,,,,,,,,,,,,
1644853088.652912,184.000000,0.000000,4222.948730,4220.000000,4217.051270,4220.769043,4208.461426,4216.410156,4223.333496,4229.358887,4225.384766,4215.000000,4205.897461,4223.461426,4171.153809,4180.256348,3362.000000,4.000000,91.000000,,,,0.000000,4.000000,4.000000,4.000000,4.000000,4.000000,4.000000,4.000000,4.000000,4.000000,4.000000,4.000000,4.000000,4.000000,4.000000,100.000000,,,,,,,,,,,,,,,,
1644853088.656852,185.000000,0.000000,4224.102539,4216.282227,4220.256348,4218.717773,4213.846191,4215.769043,4226.282227,4230.769043,4227.436035,4222.563965,4224.743652,4226.153809,4173.077148,4187.948730,3499.000000,4.000000,91.000000,,,,0.000000,4.000000,4.000000,4.000000,4.000000,4.000000,4.000000,4.000000,4.000000,4.000000,4.000000,4.000000,4.000000,4.000000,4.000000,100.000000,,,,,,,,,,,,,,,,
1644853088.660792,186.000000,0.000000,4230.128418,4211.794922,4221.025879,4216.666504,4221.922852,4217.820313,4226.922852,4230.897461,4226.410156,4225.128418,4240.384766,4222.436035,4189.487305,4199.871582,3527.000000,4.000000,91.000000,,,,0.000000,4.000000,4.000000,4.000000,4.000000,4.000000,4.000000,4.000000,4.000000,4.000000,4.000000,4.000000,4.000000,4.000000,4.000000,100.000000,,,,,,,,,,,,,,,,
1644853088.664733,187.000000,0.000000,4236.538574,4210.128418,4219.487305,4215.512695,4229.102539,4220.128418,4225.384766,4231.153809,4224.102539,4220.384766,4238.846191,4215.384766,4210.769043,4207.948730,3598.000000,4.000000,91.000000,,,,0.000000,4.000000,4.000000,4.000000,4.000000,4.000000,4.000000,4.000000,4.000000,4.000000,4.000000,4.000000,4.000000,4.000000,4.000000,100.000000,,,,,,,,,,,,,,,,
1644853088.668673,188.000000,0.000000,4236.538574,4211.538574,4217.179688,4216.025879,4231.025879,4220.512695,4223.589844,4232.692383,4222.692383,4212.051270,4219.487305,4210.384766,4223.589844,4206.794922,3362.000000,4.000000,91.000000,,,,0.000000,4.000000,4.000000,4.000000,4.000000,4.000000,4.000000,4.000000,4.000000,4.000000,4.000000,4.000000,4.000000,4.000000,4.000000,100.000000,,,,,,,,,,,,,,,,
1644853088.672513,189.000000,0.000000,4227.692383,4212.948730,4215.769043,4218.205078,4225.512695,4218.717773,4223.205078,4235.000000,4223.205078,4207.820313,4196.666504,4210.128418,4221.153809,4197.436035,3499.000000,4.000000,91.000000,,,,0.000000,4.000000,4.000000,4.000000,4.000000,4.000000,4.000000,4.000000,4.000000,4.000000,4.000000,4.000000,4.000000,4.000000,4.000000,100.000000,,,,,,,,,,,,,,,,
1644853088.676453,190.000000,0.000000,4215.128418,4211.538574,4215.384766,4221.153809,4215.256348,4216.538574,4222.820313,4235.897461,4225.000000,4212.307617,4188.589844,4213.077148,4209.487305,4187.692383,3527.000000,4.000000,91.000000,,,,0.000000,4.000000,4.000000,4.000000,4.000000,4.000000,4.000000,4.000000,4.000000,4.000000,4.000000,4.000000,4.000000,4.000000,4.000000,100.000000,,,,,,,,,,,,,,,,
1644853088.680393,191.000000,0.000000,4209.230957,4207.948730,4215.641113,4223.461426,4206.538574,4215.128418,4220.769043,4233.461426,4226.410156,4222.436035,4202.307617,4214.487305,4201.025879,4186.922852,3598.000000,4.000000,91.000000,,,,0.000000,4.000000,4.000000,4.000000,4.000000,4.000000,4.000000,4.000000,4.000000,4.000000,4.000000,4.000000,4.000000,4.000000,4.000000,100.000000,,,,,,,,,,,,,,,,
1644853088.684333,192.000000,0.000000,4217.051270,4205.897461,4216.025879,4225.128418,4204.230957,4214.615234,4217.820313,4228.589844,4226.666504,4229.230957,4228.205078,4211.666504,4204.102539,4198.974121,3362.000000,4.000000,91.000000,,,,0.000000,4.000000,4.000000,4.000000,4.000000,4.000000,4.000000,4.000000,4.000000,4.000000,4.000000,4.000000,4.000000,4.000000,4.000000,100.000000,,,,,,,,,,,,,,,,
1644853088.688273,193.000000,0.000000,4236.282227,4208.717773,4216.538574,4227.051270,4207.820313,4214.615234,4216.025879,4224.487305,4226.025879,4226.666504,4248.205078,4205.384766,4215.897461,4218.717773,3499.000000,4.000000,91.000000,,,,0.000000,4.000000,4.000000,4.000000,4.000000,4.000000,4.000000,4.000000,4.000000,4.000000,4.000000,4.000000,4.000000,4.000000,4.000000,100.000000,,,,,,,,,,,,,,,,
1644853088.692213,194.000000,0.000000,4254.871582,4216.410156,4217.179688,4229.615234,4212.051270,4215.000000,4216.410156,4223.461426,4224.487305,4216.666504,4250.384766,4200.769043,4226.410156,4233.589844,3527.000000,4.000000,91.000000,,,,0.000000,4.000000,4.000000,4.000000,4.000000,4.000000,4.000000,4.000000,4.000000,4.000000,4.000000,4.000000,4.000000,4.000000,4.000000,100.000000,,,,,,,,,,,,,,,,
1644853088.696153,195.000000,0.000000,4260.384766,4225.512695,4217.436035,4232.179688,4212.820313,4216.153809,4217.436035,4225.256348,4222.307617,4207.948730,4237.436035,4202.307617,4227.948730,4233.205078,3598.000000,4.000000,91.000000,,,,0.000000,4.000000,4.000000,4.000000,4.000000,4.000000,4.000000,4.000000,4.000000,4.000000,4.000000,4.000000,4.000000,4.000000,4.000000,100.000000,,,,,,,,,,,,,,,,
1644853088.700094,196.000000,0.000000,4249.615234,4230.897461,4217.948730,4233.205078,4210.769043,4218.205078,4217.307617,4227.051270,4220.128418,4207.563965,4221.922852,4210.769043,4221.282227,4216.922852,3362.000000,4.000000,91.000000,,,,0.000000,4.000000,4.000000,4.000000,4.000000,4.000000,4.000000,4.000000,4.000000,4.000000,4.000000,4.000000,4.000000,4.000000,4.000000,100.000000,,,,,,,,,,,,,,,,
1644853088.704034,197.000000,0.000000,4230.769043,4230.384766,4220.128418,4231.282227,4209.743652,4220.897461,4216.538574,4226.922852,4219.102539,4215.128418,4214.487305,4221.282227,4213.205078,4194.615234,3499.000000,4.000000,91.000000,,,,0.000000,4.000000,4.000000,4.000000,4.000000,4.000000,4.000000,4.000000,4.000000,4.000000,4.000000,4.000000,4.000000,4.000000,4.000000,100.000000,,,,,,,,,,,,,,,,
1644853088.707974,198.000000,0.000000,4217.179688,4225.000000,4224.615234,4225.641113,4212.948730,4222.436035,4217.051270,4225.256348,4219.358887,4223.589844,4215.384766,4226.794922,4208.846191,4179.358887,3527.000000,4.000000,91.000000,,,,0.000000,4.000000,4.000000,4.000000,4.000000,4.000000,4.000000,4.000000,4.000000,4.000000,4.000000,4.000000,4.000000,4.000000,4.000000,100.000000,,,,,,,,,,,,,,,,
1644853088.711914,199.000000,0.000000,4217.307617,4217.948730,4229.743652,4218.846191,4219.102539,4221.538574,4219.102539,4223.974121,4220.641113,4225.512695,4217.307617,4222.436035,4208.205078,4178.589844,3598.000000,4.000000,91.000000,,,,0.000000,4.000000,4.000000,4.000000,4.000000,4.000000,4.000000,4.000000,4.000000,4.000000,4.000000,4.000000,4.000000,4.000000,4.000000,100.000000,,,,,,,,,,,,,,,,
1644853088.715854,200.000000,0.000000,4229.358887,4213.077148,4232.436035,4214.358887,4224.230957,4218.589844,4220.769043,4224.743652,4223.205078,4219.615234,4215.256348,4210.897461,4208.077148,4190.384766,3362.000000,4.000000,91.000000,,,,0.000000,4.000000,4.000000,4.000000,4.000000,4.000000,4.000000,4.000000,4.000000,4.000000,4.000000,4.000000,4.000000,4.000000,4.000000,100.000000,,,,,,,,,,,,,,,,
1644853088.719794,201.000000,0.000000,4244.615234,4213.846191,4230.769043,4214.871582,4225.256348,4216.025879,4220.384766,4227.179688,4227.051270,4211.410156,4211.153809,4199.871582,4207.948730,4207.563965,3499.000000,4.000000,91.000000,,,,0.000000,4.000000,4.000000,4.000000,4.000000,4.000000,4.000000,4.000000,4.000000,4.000000,4.000000,4.000000,4.000000,4.000000,4.000000,100.000000,,,,,,,,,,,,,,,,
1644853088.723734,202.000000,0.000000,4254.615234,4221.025879,4226.025879,4218.974121,4221.794922,4216.666504,4218.846191,4229.615234,4230.641113,4207.820313,4211.794922,4195.769043,4210.512695,4221.794922,3527.000000,4.000000,91.000000,,,,0.000000,4.000000,4.000000,4.000000,4.000000,4.000000,4.000000,4.000000,4.000000,4.000000,4.000000,4.000000,4.000000,4.000000,4.000000,100.000000,,,,,,,,,,,,,,,,
1644853088.727674,203.000000,0.000000,4256.282227,4232.179688,4220.897461,4222.948730,4216.410156,4221.025879,4219.743652,4230.384766,4231.666504,4210.384766,4219.871582,4198.589844,4217.179688,4228.205078,3598.000000,4.000000,91.000000,,,,0.000000,4.000000,4.000000,4.000000,4.000000,4.000000,4.000000,4.000000,4.000000,4.000000,4.000000,4.000000,4.000000,4.000000,4.000000,100.000000,,,,,,,,,,,,,,,,
1644853088.731614,204.000000,0.000000,4252.051270,4241.410156,4217.692383,4223.589844,4213.333496,4226.538574,4223.846191,4228.846191,4228.717773,4214.743652,4230.512695,4203.333496,4224.743652,4225.384766,3362.000000,4.000000,91.000000,,,,0.000000,4.000000,4.000000,4.000000,4.000000,4.000000,4.000000,4.000000,4.000000,4.000000,4.000000,4.000000,4.000000,4.000000,4.000000,100.000000,,,,,,,,,,,,,,,,
1644853088.735555,205.000000,0.000000,4246.153809,4243.205078,4216.794922,4221.153809,4215.769043,4230.256348,4228.589844,4225.897461,4223.846191,4216.538574,4235.769043,4205.384766,4227.179688,4215.641113,3499.000000,4.000000,91.000000,,,,0.000000,4.000000,4.000000,4.000000,4.000000,4.000000,4.000000,4.000000,4.000000,4.000000,4.000000,4.000000,4.000000,4.000000,4.000000,100.000000,,,,,,,,,,,,,,,,
1644853088.739495,206.000000,0.000000,4240.256348,4236.282227,4216.922852,4219.102539,4222.692383,4230.384766,4229.743652,4222.948730,4219.871582,4215.384766,4232.307617,4204.358887,4221.794922,4204.230957,3527.000000,4.000000,91.000000,,,,0.000000,4.000000,4.000000,4.000000,4.000000,4.000000,4.000000,4.000000,4.000000,4.000000,4.000000,4.000000,4.000000,4.000000,4.000000,100.000000,,,,,,,,,,,,,,,,
1644853088.743535,207.000000,0.000000,4235.512695,4225.769043,4217.051270,4220.512695,4229.102539,4227.820313,4226.666504,4221.410156,4218.461426,4215.000000,4223.717773,4202.948730,4213.077148,4197.563965,3598.000000,4.000000,91.000000,,,,0.000000,4.000000,4.000000,4.000000,4.000000,4.000000,4.000000,4.000000,4.000000,4.000000,4.000000,4.000000,4.000000,4.000000,4.000000,100.000000,,,,,,,,,,,,,,,,
1644853088.747475,208.000000,0.000000,4233.205078,4219.102539,4217.563965,4225.769043,4229.871582,4225.769043,4222.692383,4221.922852,4219.358887,4218.077148,4217.051270,4203.461426,4209.871582,4198.717773,3362.000000,4.000000,91.000000,,,,0.000000,4.000000,4.000000,4.000000,4.000000,4.000000,4.000000,4.000000,4.000000,4.000000,4.000000,4.000000,4.000000,4.000000,4.000000,100.000000,,,,,,,,,,,,,,,,
1644853088.751415,209.000000,0.000000,4235.000000,4220.256348,4218.974121,4231.922852,4224.871582,4226.410156,4221.282227,4224.743652,4221.410156,4223.205078,4216.666504,4206.538574,4218.205078,4205.256348,3499.000000,4.000000,91.000000,,,,0.000000,4.000000,4.000000,4.000000,4.000000,4.000000,4.000000,4.000000,4.000000,4.000000,4.000000,4.000000,4.000000,4.000000,4.000000,100.000000,,,,,,,,,,,,,,,,
1644853088.755355,210.000000,0.000000,4240.641113,4227.051270,4221.794922,4235.512695,4219.102539,4230.128418,4222.948730,4228.589844,4224.358887,4226.794922,4222.563965,4210.897461,4236.025879,4212.436035,3527.000000,4.000000,91.000000,,,,0.000000,4.000000,4.000000,4.000000,4.000000,4.000000,4.000000,4.000000,4.000000,4.000000,4.000000,4.000000,4.000000,4.000000,4.000000,100.000000,,,,,,,,,,,,,,,,
1644853088.759295,211.000000,0.000000,4247.563965,4233.846191,4225.384766,4234.743652,4218.205078,4234.102539,4225.384766,4232.436035,4228.333496,4227.692383,4231.538574,4215.128418,4254.230957,4217.179688,3598.000000,4.000000,91.000000,,,,0.000000,4.000000,4.000000,4.000000,4.000000,4.000000,4.000000,4.000000,4.000000,4.000000,4.000000,4.000000,4.000000,4.000000,4.000000,100.000000,,,,,,,,,,,,,,,,
1644853088.763235,212.000000,0.000000,4253.077148,4235.769043,4228.333496,4231.666504,4222.948730,4236.282227,4227.179688,4236.282227,4233.461426,4228.717773,4238.974121,4218.077148,4263.717773,4218.461426,3362.000000,4.000000,91.000000,,,,0.000000,4.000000,4.000000,4.000000,4.000000,4.000000,4.000000,4.000000,4.000000,4.000000,4.000000,4.000000,4.000000,4.000000,4.000000,100.000000,,,,,,,,,,,,,,,,
1644853088.767175,213.000000,0.000000,4255.769043,4232.820313,4230.128418,4229.871582,4230.512695,4235.897461,4229.102539,4240.769043,4238.974121,4233.717773,4242.563965,4219.102539,4261.794922,4215.384766,3499.000000,4.000000,91.000000,,,,0.000000,4.000000,4.000000,4.000000,4.000000,4.000000,4.000000,4.000000,4.000000,4.000000,4.000000,4.000000,4.000000,4.000000,4.000000,100.000000,,,,,,,,,,,,,,,,
1644853088.771115,214.000000,0.000000,4254.743652,4228.205078,4230.641113,4231.794922,4236.666504,4234.615234,4231.410156,4245.256348,4243.461426,4242.436035,4242.820313,4218.589844,4253.333496,4207.179688,3527.000000,4.000000,91.000000,,,,0.000000,4.000000,4.000000,4.000000,4.000000,4.000000,4.000000,4.000000,4.000000,4.000000,4.000000,4.000000,4.000000,4.000000,4.000000,100.000000,,,,,,,,,,,,,,,,
1644853088.775055,215.000000,0.000000,4249.230957,4225.256348,4230.641113,4236.153809,4238.717773,4233.717773,4232.563965,4247.563965,4245.384766,4249.743652,4241.922852,4217.820313,4244.230957,4194.871582,3598.000000,4.000000,91.000000,,,,0.000000,4.000000,4.000000,4.000000,4.000000,4.000000,4.000000,4.000000,4.000000,4.000000,4.000000,4.000000,4.000000,4.000000,4.000000,100.000000,,,,,,,,,,,,,,,,
1644853088.778996,216.000000,0.000000,4238.846191,4224.743652,4230.512695,4237.948730,4236.666504,4233.461426,4230.384766,4245.641113,4244.358887,4249.871582,4240.641113,4217.563965,4237.307617,4182.051270,3362.000000,4.000000,91.000000,,,,0.000000,4.000000,4.000000,4.000000,4.000000,4.000000,4.000000,4.000000,4.000000,4.000000,4.000000,4.000000,4.000000,4.000000,4.000000,100.000000,,,,,,,,,,,,,,,,
1644853088.782936,217.000000,0.000000,4224.871582,4224.871582,4230.128418,4233.461426,4232.179688,4232.948730,4225.256348,4240.000000,4240.512695,4241.922852,4238.589844,4217.051270,4231.410156,4172.948730,3499.000000,4.000000,91.000000,,,,0.000000,4.000000,4.000000,4.000000,4.000000,4.000000,4.000000,4.000000,4.000000,4.000000,4.000000,4.000000,4.000000,4.000000,4.000000,100.000000,,,,,,,,,,,,,,,,
1644853088.786876,218.000000,0.000000,4210.769043,4223.205078,4230.000000,4223.717773,4228.846191,4231.282227,4221.025879,4233.974121,4235.384766,4230.512695,4235.512695,4215.769043,4225.769043,4171.538574,3527.000000,4.000000,91.000000,,,,0.000000,4.000000,4.000000,4.000000,4.000000,4.000000,4.000000,4.000000,4.000000,4.000000,4.000000,4.000000,4.000000,4.000000,4.000000,100.000000,,,,,,,,,,,,,,,,
1644853088.790816,219.000000,0.000000,4201.922852,4220.000000,4231.153809,4215.128418,4229.487305,4229.615234,4220.897461,4231.282227,4231.794922,4222.692383,4232.948730,4213.589844,4223.077148,4178.974121,3598.000000,4.000000,91.000000,,,,0.000000,4.000000,4.000000,4.000000,4.000000,4.000000,4.000000,4.000000,4.000000,4.000000,4.000000,4.000000,4.000000,4.000000,4.000000,100.000000,,,,,,,,,,,,,,,,
1644853088.794756,220.000000,0.000000,4202.948730,4218.589844,4233.717773,4213.077148,4233.589844,4229.615234,4224.487305,4233.333496,4232.179688,4223.333496,4232.179688,4212.307617,4227.563965,4192.692383,3362.000000,4.000000,91.000000,,,,0.000000,4.000000,4.000000,4.000000,4.000000,4.000000,4.000000,4.000000,4.000000,4.000000,4.000000,4.000000,4.000000,4.000000,4.000000,100.000000,,,,,,,,,,,,,,,,
1644853088.798696,221.000000,0.000000,4213.589844,4221.666504,4235.769043,4217.820313,4237.436035,4232.179688,4228.077148,4238.205078,4236.153809,4232.051270,4232.948730,4212.820313,4238.846191,4206.538574,3499.000000,4.000000,91.000000,,,,0.000000,4.000000,4.000000,4.000000,4.000000,4.000000,4.000000,4.000000,4.000000,4.000000,4.000000,4.000000,4.000000,4.000000,4.000000,100.000000,,,,,,,,,,,,,,,,
1644853088.802636,222.000000,0.000000,4227.051270,4227.563965,4234.871582,4225.256348,4236.282227,4235.641113,4228.589844,4242.820313,4240.384766,4242.948730,4232.948730,4213.846191,4250.000000,4213.333496,3527.000000,4.000000,91.000000,,,,0.000000,4.000000,4.000000,4.000000,4.000000,4.000000,4.000000,4.000000,4.000000,4.000000,4.000000,4.000000,4.000000,4.000000,4.000000,100.000000,,,,,,,,,,,,,,,,
1644853088.806576,223.000000,0.000000,4234.871582,4230.000000,4230.000000,4230.256348,4228.974121,4237.692383,4227.436035,4244.487305,4241.025879,4249.487305,4231.282227,4212.948730,4251.794922,4209.358887,3598.000000,4.000000,91.000000,,,,0.000000,4.000000,4.000000,4.000000,4.000000,4.000000,4.000000,4.000000,4.000000,4.000000,4.000000,4.000000,4.000000,4.000000,4.000000,100.000000,,,,,,,,,,,,,,,,
1644853088.810516,224.000000,0.000000,4232.948730,4223.461426,4223.846191,4229.487305,4219.615234,4237.051270,4227.051270,4242.563965,4237.179688,4248.846191,4229.102539,4208.461426,4240.769043,4197.563965,3362.000000,4.000000,91.000000,,,,0.000000,4.000000,4.000000,4.000000,4.000000,4.000000,4.000000,4.000000,4.000000,4.000000,4.000000,4.000000,4.000000,4.000000,4.000000,100.000000,,,,,,,,,,,,,,,,
1644853088.814556,225.000000,0.000000,4225.256348,4209.615234,4220.512695,4223.846191,4215.128418,4234.230957,4227.692383,4237.820313,4231.410156,4242.051270,4228.589844,4201.666504,4223.461426,4184.871582,3499.000000,4.000000,91.000000,,,,0.000000,4.000000,4.000000,4.000000,4.000000,4.000000,4.000000,4.000000,4.000000,4.000000,4.000000,4.000000,4.000000,4.000000,4.000000,100.000000,,,,,,,,,,,,,,,,
1644853088.818497,226.000000,0.000000,4219.871582,4197.307617,4221.666504,4216.282227,4219.230957,4231.666504,4227.563965,4232.307617,4228.077148,4232.563965,4230.897461,4195.384766,4212.051270,4177.692383,3527.000000,4.000000,91.000000,,,,0.000000,4.000000,4.000000,4.000000,4.000000,4.000000,4.000000,4.000000,4.000000,4.000000,4.000000,4.000000,4.000000,4.000000,4.000000,100.000000,,,,,,,,,,,,,,,,
1644853088.822437,227.000000,0.000000,4222.051270,4195.897461,4225.000000,4210.512695,4228.717773,4231.025879,4225.897461,4229.102539,4229.230957,4223.205078,4235.384766,4192.436035,4214.615234,4176.922852,3598.000000,4.000000,91.000000,,,,0.000000,4.000000,4.000000,4.000000,4.000000,4.000000,4.000000,4.000000,4.000000,4.000000,4.000000,4.000000,4.000000,4.000000,4.000000,100.000000,,,,,,,,,,,,,,,,
1644853088.826377,228.000000,0.000000,4230.512695,4207.948730,4227.051270,4209.102539,4236.410156,4231.922852,4224.102539,4230.000000,4233.717773,4216.153809,4239.358887,4194.743652,4228.077148,4178.974121,3362.000000,4.000000,91.000000,,,,0.000000,4.000000,4.000000,4.000000,4.000000,4.000000,4.000000,4.000000,4.000000,4.000000,4.000000,4.000000,4.000000,4.000000,4.000000,100.000000,,,,,,,,,,,,,,,,
1644853088.830317,229.000000,0.000000,4238.461426,4226.282227,4226.025879,4212.436035,4237.179688,4232.948730,4224.487305,4233.974121,4238.077148,4213.205078,4239.358887,4202.179688,4240.641113,4179.358887,3499.000000,4.000000,91.000000,,,,0.000000,4.000000,4.000000,4.000000,4.000000,4.000000,4.000000,4.000000,4.000000,4.000000,4.000000,4.000000,4.000000,4.000000,4.000000,100.000000,,,,,,,,,,,,,,,,
1644853088.834257,230.000000,0.000000,4239.743652,4240.000000,4223.333496,4219.102539,4230.897461,4232.563965,4225.769043,4236.922852,4238.846191,4215.256348,4234.102539,4211.410156,4241.410156,4176.025879,3527.000000,4.000000,91.000000,1,1,1,0.000000,4.000000,4.000000,4.000000,4.000000,4.000000,4.000000,4.000000,4.000000,4.000000,4.000000,4.000000,4.000000,4.000000,4.000000,100.000000,,,,,,,,,,,,,,,,
1644853088.838197,231.000000,0.000000,4233.974121,4241.538574,4221.153809,4226.282227,4222.563965,4230.641113,4225.512695,4235.897461,4235.641113,4220.897461,4224.743652,4217.692383,4228.461426,4170.641113,3598.000000,4.000000,91.000000,,,,0.000000,4.000000,4.000000,4.000000,4.000000,4.000000,4.000000,4.000000,4.000000,4.000000,4.000000,4.000000,4.000000,4.000000,4.000000,100.000000,,,,,,,,,,,,,,,,
1644853088.842137,232.000000,0.000000,4225.769043,4231.922852,4221.153809,4231.410156,4218.717773,4228.205078,4222.820313,4231.410156,4230.128418,4228.077148,4216.282227,4217.563965,4210.512695,4165.769043,3362.000000,4.000000,91.000000,,,,0.000000,4.000000,4.000000,4.000000,4.000000,4.000000,4.000000,4.000000,4.000000,4.000000,4.000000,4.000000,4.000000,4.000000,4.000000,100.000000,1.000000,41.666668,4.000000,4.000000,4.000000,4.000000,4.000000,4.000000,1.000000,4.000000,4.000000,4.000000,3.000000,4.000000,3.000000,1.000000
1644853088.846077,233.000000,0.000000,4219.743652,4219.102539,4222.820313,4232.820313,4221.538574,4226.153809,4220.128418,4226.922852,4225.512695,4234.230957,4214.230957,4211.794922,4198.846191,4163.717773,3499.000000,4.000000,91.000000,,,,0.000000,4.000000,4.000000,4.000000,4.000000,4.000000,4.000000,4.000000,4.000000,4.000000,4.000000,4.000000,4.000000,4.000000,4.000000,100.000000,,,,,,,,,,,,,,,,
1644853088.850017,234.000000,0.000000,4216.922852,4211.666504,4224.358887,4229.743652,4227.692383,4225.512695,4220.384766,4225.641113,4223.717773,4237.563965,4220.641113,4204.358887,4199.615234,4165.897461,3527.000000,4.000000,91.000000,,,,0.000000,4.000000,4.000000,4.000000,4.000000,4.000000,4.000000,4.000000,4.000000,4.000000,4.000000,4.000000,4.000000,4.000000,4.000000,100.000000,,,,,,,,,,,,,,,,
1644853088.853957,235.000000,0.000000,4216.153809,4213.333496,4224.102539,4222.820313,4231.410156,4226.282227,4223.461426,4227.820313,4224.871582,4237.051270,4230.512695,4199.615234,4210.128418,4171.922852,3598.000000,4.000000,91.000000,,,,0.000000,4.000000,4.000000,4.000000,4.000000,4.000000,4.000000,4.000000,4.000000,4.000000,4.000000,4.000000,4.000000,4.000000,4.000000,100.000000,,,,,,,,,,,,,,,,
1644853088.857898,236.000000,0.000000,4216.794922,4220.512695,4221.922852,4214.743652,4229.743652,4228.205078,4225.897461,4230.641113,4228.205078,4232.179688,4235.128418,4199.743652,4222.436035,4180.128418,3362.000000,4.000000,91.000000,,,,0.000000,4.000000,4.000000,4.000000,4.000000,4.000000,4.000000,4.000000,4.000000,4.000000,4.000000,4.000000,4.000000,4.000000,4.000000,100.000000,,,,,,,,,,,,,,,,
1644853088.861838,237.000000,0.000000,4219.358887,4226.666504,4218.846191,4209.615234,4224.871582,4230.128418,4225.384766,4231.666504,4231.922852,4223.717773,4229.871582,4203.846191,4229.743652,4187.563965,3499.000000,4.000000,91.000000,,,,0.000000,4.000000,4.000000,4.000000,4.000000,4.000000,4.000000,4.000000,4.000000,4.000000,4.000000,4.000000,4.000000,4.000000,4.000000,100.000000,,,,,,,,,,,,,,,,
1644853088.865778,238.000000,0.000000,4221.666504,4226.410156,4216.538574,4210.512695,4220.384766,4230.384766,4223.077148,4230.641113,4234.743652,4214.871582,4218.589844,4207.820313,4229.615234,4192.051270,3527.000000,4.000000,91.000000,,,,0.000000,4.000000,4.000000,4.000000,4.000000,4.000000,4.000000,4.000000,4.000000,4.000000,4.000000,4.000000,4.000000,4.000000,4.000000,100.000000,,,,,,,,,,,,,,,,
1644853088.869718,239.000000,0.000000,4220.384766,4220.256348,4215.512695,4216.666504,4217.563965,4228.077148,4221.794922,4230.256348,4236.025879,4210.897461,4211.153809,4207.948730,4224.102539,4192.179688,3598.000000,4.000000,91.000000,,,,0.000000,4.000000,4.000000,4.000000,4.000000,4.000000,4.000000,4.000000,4.000000,4.000000,4.000000,4.000000,4.000000,4.000000,4.000000,100.000000,,,,,,,,,,,,,,,,
1644853088.873658,240.000000,0.000000,4214.358887,4212.563965,4215.384766,4224.102539,4216.025879,4223.846191,4223.077148,4232.436035,4236.282227,4215.000000,4214.487305,4202.820313,4217.179688,4188.717773,3362.000000,4.000000,91.000000,,,,0.000000,4.000000,4.000000,4.000000,4.000000,4.000000,4.000000,4.000000,4.000000,4.000000,4.000000,4.000000,4.000000,4.000000,4.000000,100.000000,,,,,,,,,,,,,,,,
1644853088.877598,241.000000,0.000000,4207.436035,4208.974121,4215.000000,4229.102539,4216.282227,4220.512695,4225.384766,4236.666504,4236.538574,4225.256348,4227.820313,4195.512695,4212.948730,4183.717773,3499.000000,4.000000,91.000000,,,,0.000000,4.000000,4.000000,4.000000,4.000000,4.000000,4.000000,4.000000,4.000000,4.000000,4.000000,4.000000,4.000000,4.000000,4.000000,100.000000,,,,,,,,,,,,,,,,
1644853088.881538,242.000000,0.000000,4205.512695,4211.153809,4215.512695,4230.769043,4218.846191,4220.384766,4226.794922,4240.256348,4238.333496,4235.641113,4243.589844,4191.538574,4213.717773,4180.384766,3527.000000,4.000000,91.000000,,,,0.000000,4.000000,4.000000,4.000000,4.000000,4.000000,4.000000,4.000000,4.000000,4.000000,4.000000,4.000000,4.000000,4.000000,4.000000,100.000000,,,,,,,,,,,,,,,,
1644853088.885478,243.000000,0.000000,4210.128418,4216.025879,4218.589844,4230.000000,4222.307617,4223.333496,4227.436035,4240.897461,4241.410156,4240.384766,4252.692383,4194.615234,4218.846191,4180.641113,3598.000000,4.000000,91.000000,,,,0.000000,4.000000,4.000000,4.000000,4.000000,4.000000,4.000000,4.000000,4.000000,4.000000,4.000000,4.000000,4.000000,4.000000,4.000000,100.000000,,,,,,,,,,,,,,,,
1644853088.889319,244.000000,0.000000,4217.307617,4219.743652,4224.743652,4228.461426,4223.974121,4227.179688,4228.077148,4238.717773,4244.358887,4238.461426,4250.128418,4203.974121,4226.153809,4184.615234,3362.000000,4.000000,91.000000,,,,0.000000,4.000000,4.000000,4.000000,4.000000,4.000000,4.000000,4.000000,4.000000,4.000000,4.000000,4.000000,4.000000,4.000000,4.000000,100.000000,,,,,,,,,,,,,,,,
1644853088.893259,245.000000,0.000000,4221.666504,4221.153809,4231.794922,4228.077148,4222.820313,4229.743652,4228.589844,4236.410156,4245.512695,4234.358887,4238.205078,4214.487305,4232.948730,4191.025879,3499.000000,4.000000,91.000000,,,,0.000000,4.000000,4.000000,4.000000,4.000000,4.000000,4.000000,4.000000,4.000000,4.000000,4.000000,4.000000,4.000000,4.000000,4.000000,100.000000,,,,,,,,,,,,,,,,
1644853088.897199,246.000000,0.000000,4221.794922,4222.051270,4236.538574,4230.000000,4221.538574,4230.384766,4227.692383,4236.025879,4244.743652,4233.461426,4225.769043,4220.128418,4237.563965,4198.717773,3527.000000,4.000000,91.000000,,,,0.000000,4.000000,4.000000,4.000000,4.000000,4.000000,4.000000,4.000000,4.000000,4.000000,4.000000,4.000000,4.000000,4.000000,4.000000,100.000000,,,,,,,,,,,,,,,,
1644853088.901139,247.000000,0.000000,4220.512695,4223.846191,4236.410156,4233.333496,4223.461426,4229.358887,4225.256348,4237.563965,4243.077148,4238.205078,4221.153809,4218.205078,4238.974121,4205.641113,3598.000000,4.000000,91.000000,,,,0.000000,4.000000,4.000000,4.000000,4.000000,4.000000,4.000000,4.000000,4.000000,4.000000,4.000000,4.000000,4.000000,4.000000,4.000000,100.000000,,,,,,,,,,,,,,,,
1644853088.905079,248.000000,0.000000,4222.051270,4225.384766,4232.307617,4235.128418,4228.333496,4227.179688,4223.205078,4238.846191,4241.153809,4245.641113,4225.000000,4211.538574,4236.153809,4208.461426,3362.000000,4.000000,91.000000,,,,0.000000,4.000000,4.000000,4.000000,4.000000,4.000000,4.000000,4.000000,4.000000,4.000000,4.000000,4.000000,4.000000,4.000000,4.000000,100.000000,,,,,,,,,,,,,,,,
1644853088.909019,249.000000,0.000000,4228.333496,4223.974121,4228.205078,4233.205078,4231.922852,4224.871582,4223.717773,4238.205078,4239.102539,4249.358887,4230.641113,4205.512695,4229.871582,4203.846191,3499.000000,4.000000,91.000000,,,,0.000000,4.000000,4.000000,4.000000,4.000000,4.000000,4.000000,4.000000,4.000000,4.000000,4.000000,4.000000,4.000000,4.000000,4.000000,100.000000,,,,,,,,,,,,,,,,
1644853088.912959,250.000000,0.000000,4237.051270,4220.000000,4228.205078,4228.333496,4230.769043,4222.948730,4226.538574,4236.153809,4237.307617,4246.538574,4232.307617,4204.871582,4223.717773,4191.922852,3527.000000,4.000000,91.000000,,,,0.000000,4.000000,4.000000,4.000000,4.000000,4.000000,4.000000,4.000000,4.000000,4.000000,4.000000,4.000000,4.000000,4.000000,4.000000,100.000000,,,,,,,,,,,,,,,,
1644853088.916899,251.000000,0.000000,4244.230957,4216.794922,4233.846191,4224.102539,4225.256348,4221.538574,4228.589844,4234.358887,4236.922852,4239.743652,4230.641113,4210.128418,4221.025879,4178.333496,3598.000000,4.000000,91.000000,,,,0.000000,4.000000,4.000000,4.000000,4.000000,4.000000,4.000000,4.000000,4.000000,4.000000,4.000000,4.000000,4.000000,4.000000,4.000000,100.000000,,,,,,,,,,,,,,,,
1644853088.920839,252.000000,0.000000,4245.897461,4218.333496,4242.179688,4223.589844,4219.358887,4220.641113,4227.436035,4234.230957,4238.717773,4235.128418,4231.153809,4218.461426,4222.692383,4171.025879,3362.000000,4.000000,91.000000,,,,0.000000,4.000000,4.000000,4.000000,4.000000,4.000000,4.000000,4.000000,4.000000,4.000000,4.000000,4.000000,4.000000,4.000000,4.000000,100.000000,,,,,,,,,,,,,,,,
1644853088.924779,253.000000,0.000000,4242.436035,4224.743652,4248.077148,4227.051270,4216.794922,4219.871582,4223.974121,4235.128418,4242.051270,4235.384766,4237.436035,4224.743652,4225.384766,4175.384766,3499.000000,4.000000,91.000000,,,,0.000000,4.000000,4.000000,4.000000,4.000000,4.000000,4.000000,4.000000,4.000000,4.000000,4.000000,4.000000,4.000000,4.000000,4.000000,100.000000,,,,,,,,,,,,,,,,
1644853088.928720,254.000000,0.000000,4238.589844,4232.948730,4248.077148,4231.666504,4217.948730,4218.589844,4221.410156,4235.897461,4245.128418,4238.205078,4246.538574,4225.128418,4225.769043,4190.384766,3527.000000,4.000000,91.000000,,,,0.000000,4.000000,4.000000,4.000000,4.000000,4.000000,4.000000,4.000000,4.000000,4.000000,4.000000,4.000000,4.000000,4.000000,4.000000,100.000000,,,,,,,,,,,,,,,,
1644853088.932660,255.000000,0.000000,4240.000000,4238.846191,4242.948730,4234.743652,4221.153809,4217.179688,4221.666504,4236.282227,4246.282227,4239.615234,4252.563965,4219.487305,4224.230957,4208.717773,114.000000,4.000000,91.000000,,,,0.000000,4.000000,4.000000,4.000000,4.000000,4.000000,4.000000,4.000000,4.000000,4.000000,4.000000,4.000000,4.000000,4.000000,4.000000,100.000000,,,,,,,,,,,,,,,,
1644853088.936600,0.000000,0.000000,4247.436035,4240.128418,4236.922852,4235.641113,4223.974121,4216.025879,4223.717773,4236.922852,4245.512695,4239.230957,4251.794922,4211.794922,4224.615234,4221.538574,3415.000000,4.000000,91.000000,,,,0.000000,4.000000,4.000000,4.000000,4.000000,4.000000,4.000000,4.000000,4.000000,4.000000,4.000000,4.000000,4.000000,4.000000,4.000000,100.000000,,,,,,,,,,,,,,,,
1644853088.940540,1.000000,0.000000,4255.256348,4236.922852,4234.230957,4235.897461,4224.615234,4216.410156,4224.615234,4238.974121,4243.333496,4238.077148,4245.897461,4206.922852,4229.358887,4223.974121,3330.000000,4.000000,91.000000,,,,0.000000,4.000000,4.000000,4.000000,4.000000,4.000000,4.000000,4.000000,4.000000,4.000000,4.000000,4.000000,4.000000,4.000000,4.000000,100.000000,,,,,,,,,,,,,,,,
1644853088.944480,2.000000,0.000000,4254.487305,4231.153809,4236.410156,4235.769043,4223.077148,4219.102539,4223.589844,4242.307617,4240.128418,4236.538574,4239.358887,4207.307617,4236.153809,4217.820313,3544.000000,4.000000,91.000000,,,,0.000000,4.000000,4.000000,4.000000,4.000000,4.000000,4.000000,4.000000,4.000000,4.000000,4.000000,4.000000,4.000000,4.000000,4.000000,100.000000,,,,,,,,,,,,,,,,
1644853088.948420,3.000000,0.000000,4242.307617,4225.128418,4240.641113,4233.974121,4221.282227,4223.461426,4222.820313,4245.000000,4236.282227,4233.461426,4234.487305,4210.769043,4239.358887,4208.333496,3355.000000,4.000000,91.000000,,,,0.000000,4.000000,4.000000,4.000000,4.000000,4.000000,4.000000,4.000000,4.000000,4.000000,4.000000,4.000000,4.000000,4.000000,4.000000,100.000000,,,,,,,,,,,,,,,,
1644853088.952360,4.000000,0.000000,4224.871582,4221.025879,4242.436035,4228.974121,4221.153809,4226.538574,4223.205078,4244.487305,4232.563965,4228.205078,4230.128418,4213.589844,4235.256348,4200.256348,3503.000000,4.000000,91.000000,,,,0.000000,4.000000,4.000000,4.000000,4.000000,4.000000,4.000000,4.000000,4.000000,4.000000,4.000000,4.000000,4.000000,4.000000,4.000000,100.000000,,,,,,,,,,,,,,,,
1644853088.956300,5.000000,0.000000,4212.436035,4219.743652,4239.102539,4221.153809,4222.948730,4226.153809,4223.846191,4239.487305,4229.743652,4222.436035,4224.358887,4212.948730,4225.000000,4195.384766,3375.000000,4.000000,91.000000,,,,0.000000,4.000000,4.000000,4.000000,4.000000,4.000000,4.000000,4.000000,4.000000,4.000000,4.000000,4.000000,4.000000,4.000000,4.000000,100.000000,,,,,,,,,,,,,,,,
1644853088.960240,6.000000,0.000000,4211.025879,4220.641113,4231.922852,4213.589844,4223.974121,4222.179688,4222.820313,4232.179688,4228.461426,4220.128418,4216.666504,4208.461426,4214.743652,4192.563965,2596.000000,4.000000,91.000000,,,,0.000000,4.000000,4.000000,4.000000,4.000000,4.000000,4.000000,4.000000,4.000000,4.000000,4.000000,4.000000,4.000000,4.000000,4.000000,100.000000,,,,,,,,,,,,,,,,
1644853088.964081,7.000000,0.000000,4217.436035,4221.666504,4224.743652,4210.128418,4221.794922,4217.820313,4220.512695,4226.538574,4228.589844,4223.205078,4209.358887,4202.051270,4209.102539,4189.743652,2739.000000,4.000000,91.000000,,,,0.000000,4.000000,4.000000,4.000000,4.000000,4.000000,4.000000,4.000000,4.000000,4.000000,4.000000,4.000000,4.000000,4.000000,4.000000,100.000000,,,,,,,,,,,,,,,,
1644853088.968021,8.000000,0.000000,4224.230957,4220.769043,4221.410156,4212.436035,4216.410156,4217.051270,4219.743652,4225.769043,4229.230957,4228.974121,4205.512695,4196.410156,4208.974121,4186.282227,3265.000000,4.000000,91.000000,,,,0.000000,4.000000,4.000000,4.000000,4.000000,4.000000,4.000000,4.000000,4.000000,4.000000,4.000000,4.000000,4.000000,4.000000,4.000000,100.000000,,,,,,,,,,,,,,,,
1644853088.971961,9.000000,0.000000,4227.436035,4217.692383,4222.948730,4218.974121,4211.153809,4220.641113,4221.538574,4229.358887,4229.743652,4231.922852,4206.794922,4193.717773,4211.794922,4183.717773,3529.000000,4.000000,91.000000,,,,0.000000,4.000000,4.000000,4.000000,4.000000,4.000000,4.000000,4.000000,4.000000,4.000000,4.000000,4.000000,4.000000,4.000000,4.000000,100.000000,,,,,,,,,,,,,,,,
1644853088.975901,10.000000,0.000000,4226.922852,4214.102539,4227.179688,4225.128418,4209.743652,4226.153809,4224.358887,4233.846191,4229.615234,4228.589844,4212.051270,4195.256348,4214.487305,4184.102539,3532.000000,4.000000,91.000000,,,,0.000000,4.000000,4.000000,4.000000,4.000000,4.000000,4.000000,4.000000,4.000000,4.000000,4.000000,4.000000,4.000000,4.000000,4.000000,100.000000,,,,,,,,,,,,,,,,
1644853088.979741,11.000000,0.000000,4222.692383,4211.922852,4230.641113,4225.769043,4213.589844,4229.358887,4225.128418,4235.256348,4228.974121,4219.871582,4217.436035,4200.384766,4215.512695,4187.179688,3446.000000,4.000000,91.000000,,,,0.000000,4.000000,4.000000,4.000000,4.000000,4.000000,4.000000,4.000000,4.000000,4.000000,4.000000,4.000000,4.000000,4.000000,4.000000,100.000000,,,,,,,,,,,,,,,,
1644853088.983681,12.000000,0.000000,4214.487305,4211.794922,4231.410156,4219.871582,4219.743652,4228.077148,4223.333496,4232.820313,4227.563965,4210.897461,4218.974121,4206.922852,4214.871582,4190.000000,3225.000000,4.000000,91.000000,2,1,1,0.000000,4.000000,4.000000,4.000000,4.000000,4.000000,4.000000,4.000000,4.000000,4.000000,4.000000,4.000000,4.000000,4.000000,4.000000,100.000000,,,,,,,,,,,,,,,,
1644853088.987621,13.000000,0.000000,4203.333496,4212.563965,4230.384766,4211.794922,4223.846191,4223.333496,4221.410156,4229.102539,4226.282227,4206.794922,4216.410156,4211.794922,4214.102539,4190.256348,3500.000000,4.000000,91.000000,,,,0.000000,4.000000,4.000000,4.000000,4.000000,4.000000,4.000000,4.000000,4.000000,4.000000,4.000000,4.000000,4.000000,4.000000,4.000000,100.000000,,,,,,,,,,,,,,,,
1644853088.991561,14.000000,0.000000,4193.974121,4212.692383,4228.846191,4208.077148,4223.974121,4217.692383,4221.922852,4227.692383,4225.897461,4209.871582,4213.717773,4212.179688,4215.641113,4188.974121,3532.000000,4.000000,91.000000,,,,0.000000,4.000000,4.000000,4.000000,4.000000,4.000000,4.000000,4.000000,4.000000,4.000000,4.000000,4.000000,4.000000,4.000000,4.000000,100.000000,,,,,,,,,,,,,,,,
1644853088.995502,15.000000,0.000000,4192.179688,4211.922852,4226.922852,4212.179688,4222.179688,4213.846191,4224.230957,4229.615234,4227.692383,4218.974121,4216.410156,4208.205078,4220.769043,4190.000000,3446.000000,4.000000,91.000000,,,,0.000000,4.000000,4.000000,4.000000,4.000000,4.000000,4.000000,4.000000,4.000000,4.000000,4.000000,4.000000,4.000000,4.000000,4.000000,100.000000,,,,,,,,,,,,,,,,
1644853088.999442,16.000000,0.000000,4200.256348,4211.282227,4223.846191,4221.410156,4221.282227,4213.589844,4226.282227,4233.589844,4231.282227,4230.000000,4225.384766,4201.794922,4227.436035,4195.641113,3225.000000,4.000000,91.000000,,,,0.000000,4.000000,4.000000,4.000000,4.000000,4.000000,4.000000,4.000000,4.000000,4.000000,4.000000,4.000000,4.000000,4.000000,4.000000,100.000000,,,,,,,,,,,,,,,,
1644853089.003382,17.000000,0.000000,4215.128418,4212.179688,4220.641113,4230.000000,4221.922852,4217.307617,4227.051270,4237.179688,4235.641113,4238.589844,4236.282227,4196.666504,4231.025879,4203.333496,3500.000000,4.000000,91.000000,,,,0.000000,4.000000,4.000000,4.000000,4.000000,4.000000,4.000000,4.000000,4.000000,4.000000,4.000000,4.000000,4.000000,4.000000,4.000000,100.000000,,,,,,,,,,,,,,,,
1644853089.007322,18.000000,0.000000,4230.256348,4216.025879,4219.230957,4232.948730,4222.307617,4223.077148,4227.948730,4239.102539,4239.487305,4242.179688,4241.538574,4195.384766,4227.563965,4207.307617,3532.000000,4.000000,91.000000,,,,0.000000,4.000000,4.000000,4.000000,4.000000,4.000000,4.000000,4.000000,4.000000,4.000000,4.000000,4.000000,4.000000,4.000000,4.000000,100.000000,,,,,,,,,,,,,,,,
1644853089.011262,19.000000,0.000000,4238.974121,4222.179688,4221.282227,4229.230957,4221.282227,4228.077148,4229.615234,4239.615234,4241.410156,4240.897461,4237.692383,4198.974121,4218.077148,4203.589844,3446.000000,4.000000,91.000000,,,,0.000000,4.000000,4.000000,4.000000,4.000000,4.000000,4.000000,4.000000,4.000000,4.000000,4.000000,4.000000,4.000000,4.000000,4.000000,100.000000,,,,,,,,,,,,,,,,
1644853089.015202,20.000000,0.000000,4238.333496,4227.692383,4225.641113,4221.538574,4219.615234,4230.128418,4230.384766,4238.846191,4241.410156,4236.666504,4227.179688,4206.153809,4208.205078,4194.102539,3225.000000,4.000000,91.000000,,,,0.000000,4.000000,4.000000,4.000000,4.000000,4.000000,4.000000,4.000000,4.000000,4.000000,4.000000,4.000000,4.000000,4.000000,4.000000,100.000000,,,,,,,,,,,,,,,,
1644853089.019142,21.000000,0.000000,4230.128418,4229.743652,4229.615234,4213.461426,4219.102539,4229.358887,4228.589844,4236.922852,4240.256348,4231.922852,4215.897461,4213.077148,4204.102539,4185.641113,3500.000000,4.000000,91.000000,,,,0.000000,4.000000,4.000000,4.000000,4.000000,4.000000,4.000000,4.000000,4.000000,4.000000,4.000000,4.000000,4.000000,4.000000,4.000000,100.000000,,,,,,,,,,,,,,,,
1644853089.023082,22.000000,0.000000,4219.230957,4227.179688,4231.153809,4208.333496,4220.512695,4227.436035,4224.871582,4233.846191,4238.717773,4228.077148,4209.743652,4216.282227,4208.461426,4184.743652,3532.000000,4.000000,91.000000,,,,0.000000,4.000000,4.000000,4.000000,4.000000,4.000000,4.000000,4.000000,4.000000,4.000000,4.000000,4.000000,4.000000,4.000000,4.000000,100.000000,,,,,,,,,,,,,,,,
1644853089.027022,23.000000,0.000000,4211.153809,4221.666504,4230.384766,4207.820313,4222.820313,4226.025879,4222.436035,4230.769043,4237.179688,4226.025879,4210.512695,4214.615234,4218.717773,4192.948730,3446.000000,4.000000,91.000000,,,,0.000000,4.000000,4.000000,4.000000,4.000000,4.000000,4.000000,4.000000,4.000000,4.000000,4.000000,4.000000,4.000000,4.000000,4.000000,100.000000,,,,,,,,,,,,,,,,
1644853089.030963,24.000000,0.000000,4209.102539,4216.282227,4229.743652,4210.897461,4225.128418,4225.769043,4223.333496,4229.487305,4236.025879,4225.128418,4217.179688,4210.512695,4230.384766,4205.769043,3225.000000,4.000000,91.000000,,,,0.000000,4.000000,4.000000,4.000000,4.000000,4.000000,4.000000,4.000000,4.000000,4.000000,4.000000,4.000000,4.000000,4.000000,4.000000,100.000000,,,,,,,,,,,,,,,,
1644853089.034903,25.000000,0.000000,4213.589844,4213.846191,4231.410156,4216.282227,4227.051270,4226.538574,4226.025879,4230.769043,4235.000000,4225.000000,4226.922852,4208.717773,4240.384766,4215.897461,3500.000000,4.000000,91.000000,,,,0.000000,4.000000,4.000000,4.000000,4.000000,4.000000,4.000000,4.000000,4.000000,4.000000,4.000000,4.000000,4.000000,4.000000,4.000000,100.000000,,,,,,,,,,,,,,,,
1644853089.038843,26.000000,0.000000,4222.436035,4215.384766,4235.512695,4223.846191,4228.461426,4227.436035,4226.922852,4233.461426,4235.128418,4226.410156,4236.538574,4212.307617,4247.948730,4218.205078,3532.000000,4.000000,91.000000,,,,0.000000,4.000000,4.000000,4.000000,4.000000,4.000000,4.000000,4.000000,4.000000,4.000000,4.000000,4.000000,4.000000,4.000000,4.000000,100.000000,,,,,,,,,,,,,,,,
1644853089.042783,27.000000,0.000000,4232.563965,4220.128418,4240.512695,4234.102539,4229.358887,4227.307617,4224.871582,4236.282227,4237.179688,4230.769043,4242.948730,4220.384766,4252.948730,4212.948730,3446.000000,4.000000,91.000000,,,,0.000000,4.000000,4.000000,4.000000,4.000000,4.000000,4.000000,4.000000,4.000000,4.000000,4.000000,4.000000,4.000000,4.000000,4.000000,100.000000,,,,,,,,,,,,,,,,
1644853089.046723,28.000000,0.000000,4240.384766,4226.025879,4243.717773,4246.282227,4230.128418,4225.000000,4222.051270,4238.589844,4240.641113,4237.820313,4242.563965,4228.717773,4253.333496,4205.256348,3225.000000,4.000000,91.000000,,,,0.000000,4.000000,4.000000,4.000000,4.000000,4.000000,4.000000,4.000000,4.000000,4.000000,4.000000,4.000000,4.000000,4.000000,4.000000,100.000000,,,,,,,,,,,,,,,,
1644853089.050663,29.000000,0.000000,4244.102539,4231.922852,4243.974121,4256.025879,4231.282227,4221.153809,4221.153809,4240.000000,4243.974121,4244.871582,4233.205078,4233.077148,4246.538574,4200.128418,3500.000000,4.000000,91.000000,,,,0.000000,4.000000,4.000000,4.000000,4.000000,4.000000,4.000000,4.000000,4.000000,4.000000,4.000000,4.000000,4.000000,4.000000,4.000000,100.000000,,,,,,,,,,,,,,,,
1644853089.054603,30.000000,0.000000,4243.589844,4237.692383,4241.410156,4257.563965,4232.179688,4218.461426,4222.179688,4240.384766,4245.641113,4248.333496,4218.461426,4231.922852,4231.794922,4199.358887,3532.000000,4.000000,91.000000,,,,0.000000,4.000000,4.000000,4.000000,4.000000,4.000000,4.000000,4.000000,4.000000,4.000000,4.000000,4.000000,4.000000,4.000000,4.000000,100.000000,,,,,,,,,,,,,,,,
1644853089.058543,31.000000,0.000000,4240.128418,4242.051270,4236.922852,4248.846191,4230.769043,4218.974121,4222.179688,4239.615234,4245.641113,4247.179688,4206.410156,4226.538574,4213.717773,4201.282227,3446.000000,4.000000,91.000000,,,,0.000000,4.000000,4.000000,4.000000,4.000000,4.000000,4.000000,4.000000,4.000000,4.000000,4.000000,4.000000,4.000000,4.000000,4.000000,100.000000,,,,,,,,,,,,,,,,
1644853089.062483,32.000000,0.000000,4235.641113,4242.307617,4231.538574,4235.128418,4225.897461,4222.307617,4219.743652,4237.948730,4244.230957,4243.205078,4205.384766,4219.743652,4200.897461,4203.717773,0.000000,4.000000,91.000000,,,,0.000000,4.000000,4.000000,4.000000,4.000000,4.000000,4.000000,4.000000,4.000000,4.000000,4.000000,4.000000,4.000000,4.000000,4.000000,100.000000,,,,,,,,,,,,,,,,
1644853089.066423,33.000000,0.000000,4231.794922,4236.025879,4226.410156,4226.025879,4219.230957,4225.769043,4216.410156,4236.282227,4241.410156,4238.461426,4215.769043,4213.333496,4200.384766,4206.153809,0.000000,4.000000,91.000000,,,,0.000000,4.000000,4.000000,4.000000,4.000000,4.000000,4.000000,4.000000,4.000000,4.000000,4.000000,4.000000,4.000000,4.000000,4.000000,100.000000,,,,,,,,,,,,,,,,
1644853089.070364,34.000000,0.000000,4229.102539,4223.846191,4223.333496,4228.333496,4214.743652,4226.666504,4215.512695,4234.743652,4236.922852,4233.589844,4228.846191,4207.307617,4212.051270,4208.589844,0.000000,4.000000,91.000000,,,,0.000000,4.000000,4.000000,4.000000,4.000000,4.000000,4.000000,4.000000,4.000000,4.000000,4.000000,4.000000,4.000000,4.000000,4.000000,100.000000,,,,,,,,,,,,,,,,
1644853089.074304,35.000000,0.000000,4226.666504,4210.128418,4222.692383,4239.358887,4214.102539,4224.358887,4217.307617,4233.333496,4232.179688,4227.436035,4233.974121,4201.922852,4227.948730,4209.487305,0.000000,4.000000,91.000000,,,,0.000000,4.000000,4.000000,4.000000,4.000000,4.000000,4.000000,4.000000,4.000000,4.000000,4.000000,4.000000,4.000000,4.000000,4.000000,100.000000,,,,,,,,,,,,,,,,
1644853089.078244,36.000000,0.000000,4223.846191,4200.384766,4223.717773,4248.974121,4215.384766,4220.384766,4219.102539,4231.666504,4230.000000,4218.974121,4226.922852,4197.948730,4237.692383,4205.897461,0.000000,4.000000,91.000000,,,,0.000000,4.000000,4.000000,4.000000,4.000000,4.000000,4.000000,4.000000,4.000000,4.000000,4.000000,4.000000,4.000000,4.000000,4.000000,100.000000,,,,,,,,,,,,,,,,
1644853089.082184,37.000000,0.000000,4221.153809,4198.333496,4225.256348,4248.077148,4214.743652,4217.563965,4219.102539,4230.512695,4231.794922,4209.230957,4212.692383,4197.179688,4235.897461,4196.922852,0.000000,4.000000,91.000000,,,,0.000000,4.000000,4.000000,4.000000,4.000000,4.000000,4.000000,4.000000,4.000000,4.000000,4.000000,4.000000,4.000000,4.000000,4.000000,100.000000,,,,,,,,,,,,,,,,
1644853089.086124,38.000000,0.000000,4220.897461,4203.205078,4226.666504,4236.153809,4211.666504,4217.179688,4218.333496,4230.641113,4235.897461,4201.410156,4201.153809,4200.128418,4226.025879,4186.025879,0.000000,4.000000,91.000000,,,,0.000000,4.000000,4.000000,4.000000,4.000000,4.000000,4.000000,4.000000,4.000000,4.000000,4.000000,4.000000,4.000000,4.000000,4.000000,100.000000,,,,,,,,,,,,,,,,
1644853089.090064,39.000000,0.000000,4225.000000,4212.692383,4227.563965,4221.153809,4209.358887,4218.717773,4218.974121,4232.436035,4238.717773,4200.128418,4200.384766,4205.384766,4217.436035,4180.128418,0.000000,4.000000,91.000000,,,,0.000000,4.000000,4.000000,4.000000,4.000000,4.000000,4.000000,4.000000,4.000000,4.000000,4.000000,4.000000,4.000000,4.000000,4.000000,100.000000,,,,,,,,,,,,,,,,
1644853089.094004,40.000000,0.000000,4231.538574,4223.205078,4228.077148,4212.307617,4211.538574,4220.512695,4220.641113,4234.871582,4237.948730,4207.820313,4209.743652,4210.256348,4217.307617,4183.717773,0.000000,4.000000,91.000000,,,,0.000000,4.000000,4.000000,4.000000,4.000000,4.000000,4.000000,4.000000,4.000000,4.000000,4.000000,4.000000,4.000000,4.000000,4.000000,100.000000,,,,,,,,,,,,,,,,
1644853089.097944,41.000000,0.000000,4236.282227,4232.436035,4227.948730,4212.820313,4218.333496,4221.025879,4220.512695,4235.512695,4234.102539,4222.307617,4221.025879,4213.205078,4225.000000,4195.384766,0.000000,4.000000,91.000000,,,,0.000000,4.000000,4.000000,4.000000,4.000000,4.000000,4.000000,4.000000,4.000000,4.000000,4.000000,4.000000,4.000000,4.000000,4.000000,100.000000,,,,,,,,,,,,,,,,
1644853089.101884,42.000000,0.000000,4235.256348,4238.077148,4227.436035,4218.717773,4226.025879,4219.102539,4217.051270,4232.563965,4229.615234,4237.051270,4225.128418,4214.487305,4233.205078,4207.692383,0.000000,4.000000,91.000000,,,,0.000000,4.000000,4.000000,4.000000,4.000000,4.000000,4.000000,4.000000,4.000000,4.000000,4.000000,4.000000,4.000000,4.000000,4.000000,100.000000,,,,,,,,,,,,,,,,
1644853089.105825,43.000000,0.000000,4227.820313,4237.948730,4227.179688,4223.461426,4229.615234,4215.384766,4212.948730,4227.051270,4226.282227,4244.487305,4220.256348,4214.743652,4234.230957,4212.820313,0.000000,4.000000,91.000000,,,,0.000000,4.000000,4.000000,4.000000,4.000000,4.000000,4.000000,4.000000,4.000000,4.000000,4.000000,4.000000,4.000000,4.000000,4.000000,100.000000,,,,,,,,,,,,,,,,
1644853089.109765,44.000000,0.000000,4216.922852,4232.051270,4227.820313,4224.358887,4226.922852,4212.179688,4211.922852,4221.922852,4224.358887,4240.769043,4212.051270,4214.487305,4226.025879,4207.563965,0.000000,4.000000,91.000000,,,,0.000000,4.000000,4.000000,4.000000,4.000000,4.000000,4.000000,4.000000,4.000000,4.000000,4.000000,4.000000,4.000000,4.000000,4.000000,100.000000,,,,,,,,,,,,,,,,
1644853089.113605,45.000000,0.000000,4207.307617,4222.820313,4229.230957,4224.871582,4220.128418,4211.794922,4214.871582,4219.871582,4223.461426,4228.717773,4208.461426,4212.948730,4213.846191,4196.282227,0.000000,4.000000,91.000000,,,,0.000000,4.000000,4.000000,4.000000,4.000000,4.000000,4.000000,4.000000,4.000000,4.000000,4.000000,4.000000,4.000000,4.000000,4.000000,100.000000,,,,,,,,,,,,,,,,
1644853089.117545,46.000000,0.000000,4203.974121,4215.384766,4230.384766,4230.384766,4215.000000,4214.871582,4218.846191,4221.025879,4223.077148,4216.922852,4211.538574,4210.000000,4205.512695,4187.307617,0.000000,4.000000,91.000000,,,,0.000000,4.000000,4.000000,4.000000,4.000000,4.000000,4.000000,4.000000,4.000000,4.000000,4.000000,4.000000,4.000000,4.000000,4.000000,100.000000,,,,,,,,,,,,,,,,
1644853089.121485,47.000000,0.000000,4209.487305,4214.102539,4230.769043,4242.051270,4216.025879,4219.487305,4220.384766,4223.461426,4223.461426,4213.333496,4217.051270,4207.051270,4206.153809,4187.436035,0.000000,4.000000,91.000000,3,1,1,0.000000,4.000000,4.000000,4.000000,4.000000,4.000000,4.000000,4.000000,4.000000,4.000000,4.000000,4.000000,4.000000,4.000000,4.000000,100.000000,,,,,,,,,,,,,,,,
1644853089.125425,48.000000,0.000000,4222.692383,4220.128418,4230.641113,4254.102539,4222.692383,4223.333496,4219.871582,4225.384766,4224.743652,4218.589844,4219.615234,4206.153809,4214.743652,4196.922852,0.000000,4.000000,91.000000,,,,0.000000,4.000000,4.000000,4.000000,4.000000,4.000000,4.000000,4.000000,4.000000,4.000000,4.000000,4.000000,4.000000,4.000000,4.000000,100.000000,,,,,,,,,,,,,,,,
1644853089.129365,49.000000,0.000000,4237.948730,4230.384766,4230.769043,4257.307617,4228.974121,4225.384766,4219.615234,4226.153809,4226.666504,4226.282227,4218.589844,4208.205078,4225.897461,4210.000000,0.000000,4.000000,91.000000,,,,0.000000,4.000000,4.000000,4.000000,4.000000,4.000000,4.000000,4.000000,4.000000,4.000000,4.000000,4.000000,4.000000,4.000000,4.000000,100.000000,,,,,,,,,,,,,,,,
1644853089.133305,50.000000,0.000000,4247.051270,4239.102539,4231.153809,4246.410156,4228.461426,4226.922852,4220.769043,4226.666504,4228.974121,4228.589844,4217.307617,4211.025879,4233.077148,4218.333496,0.000000,4.000000,91.000000,,,,0.000000,4.000000,4.000000,4.000000,4.000000,4.000000,4.000000,4.000000,4.000000,4.000000,4.000000,4.000000,4.000000,4.000000,4.000000,100.000000,,,,,,,,,,,,,,,,
1644853089.137245,51.000000,0.000000,4244.230957,4240.769043,4230.897461,4225.384766,4219.743652,4228.717773,4221.538574,4227.436035,4230.384766,4223.333496,4218.333496,4210.897461,4232.307617,4217.179688,0.000000,4.000000,91.000000,,,,0.000000,4.000000,4.000000,4.000000,4.000000,4.000000,4.000000,4.000000,4.000000,4.000000,4.000000,4.000000,4.000000,4.000000,4.000000,100.000000,,,,,,,,,,,,,,,,
1644853089.141186,52.000000,0.000000,4230.000000,4233.717773,4228.846191,4205.256348,4208.717773,4230.641113,4220.384766,4228.077148,4230.128418,4215.128418,4220.000000,4206.025879,4223.205078,4206.153809,0.000000,4.000000,91.000000,,,,0.000000,4.000000,4.000000,4.000000,4.000000,4.000000,4.000000,4.000000,4.000000,4.000000,4.000000,4.000000,4.000000,4.000000,4.000000,100.000000,,,,,,,,,,,,,,,,
1644853089.145126,53.000000,0.000000,4211.666504,4220.897461,4225.000000,4196.794922,4203.589844,4231.410156,4217.820313,4227.436035,4228.333496,4210.128418,4217.948730,4197.948730,4208.589844,4190.256348,0.000000,4.000000,91.000000,,,,0.000000,4.000000,4.000000,4.000000,4.000000,4.000000,4.000000,4.000000,4.000000,4.000000,4.000000,4.000000,4.000000,4.000000,4.000000,100.000000,,,,,,,,,,,,,,,,
1644853089.149066,54.000000,0.000000,4198.589844,4209.358887,4220.256348,4202.820313,4208.846191,4230.256348,4216.538574,4225.641113,4226.410156,4211.153809,4210.384766,4190.897461,4194.230957,4177.563965,0.000000,4.000000,91.000000,,,,0.000000,4.000000,4.000000,4.000000,4.000000,4.000000,4.000000,4.000000,4.000000,4.000000,4.000000,4.000000,4.000000,4.000000,4.000000,100.000000,,,,,,,,,,,,,,,,
1644853089.153006,55.000000,0.000000,4197.051270,4205.000000,4216.282227,4217.820313,4221.153809,4228.077148,4217.820313,4224.102539,4226.282227,4216.025879,4200.512695,4189.102539,4187.051270,4175.000000,0.000000,4.000000,91.000000,,,,0.000000,4.000000,4.000000,4.000000,4.000000,4.000000,4.000000,4.000000,4.000000,4.000000,4.000000,4.000000,4.000000,4.000000,4.000000,100.000000,,,,,,,,,,,,,,,,
1644853089.156946,56.000000,0.000000,4205.641113,4209.487305,4214.230957,4231.794922,4232.948730,4226.025879,4220.128418,4224.230957,4228.461426,4219.615234,4194.230957,4193.205078,4190.769043,4183.461426,0.000000,4.000000,91.000000,,,,0.000000,4.000000,4.000000,4.000000,4.000000,4.000000,4.000000,4.000000,4.000000,4.000000,4.000000,4.000000,4.000000,4.000000,4.000000,100.000000,,,,,,,,,,,,,,,,
1644853089.160886,57.000000,0.000000,4217.436035,4218.077148,4213.846191,4236.922852,4237.820313,4225.000000,4221.282227,4225.769043,4230.769043,4218.205078,4194.871582,4198.846191,4202.179688,4195.641113,0.000000,4.000000,91.000000,,,,0.000000,4.000000,4.000000,4.000000,4.000000,4.000000,4.000000,4.000000,4.000000,4.000000,4.000000,4.000000,4.000000,4.000000,4.000000,100.000000,,,,,,,,,,,,,,,,
1644853089.164826,58.000000,0.000000,4224.102539,4222.948730,4213.974121,4232.307617,4233.077148,4224.230957,4221.025879,4227.307617,4229.615234,4211.025879,4199.615234,4200.641113,4213.077148,4200.897461,0.000000,4.000000,91.000000,,,,0.000000,4.000000,4.000000,4.000000,4.000000,4.000000,4.000000,4.000000,4.000000,4.000000,4.000000,4.000000,4.000000,4.000000,4.000000,100.000000,,,,,,,,,,,,,,,,
1644853089.168766,59.000000,0.000000,4221.922852,4219.487305,4213.333496,4222.436035,4221.538574,4222.820313,4220.641113,4227.563965,4223.846191,4201.282227,4202.563965,4196.153809,4215.897461,4193.717773,0.000000,4.000000,91.000000,,,,0.000000,4.000000,4.000000,4.000000,4.000000,4.000000,4.000000,4.000000,4.000000,4.000000,4.000000,4.000000,4.000000,4.000000,4.000000,100.000000,,,,,,,,,,,,,,,,
1644853089.172706,60.000000,0.000000,4213.333496,4209.615234,4211.794922,4213.589844,4209.871582,4220.256348,4220.641113,4225.897461,4215.897461,4194.358887,4200.256348,4187.948730,4209.487305,4179.615234,0.000000,4.000000,91.000000,,,,0.000000,4.000000,4.000000,4.000000,4.000000,4.000000,4.000000,4.000000,4.000000,4.000000,4.000000,4.000000,4.000000,4.000000,4.000000,100.000000,,,,,,,,,,,,,,,,
1644853089.176647,61.000000,0.000000,4205.000000,4200.000000,4210.128418,4209.358887,4205.128418,4217.948730,4220.512695,4223.205078,4210.641113,4194.615234,4194.487305,4181.794922,4200.384766,4170.128418,0.000000,4.000000,91.000000,,,,0.000000,4.000000,4.000000,4.000000,4.000000,4.000000,4.000000,4.000000,4.000000,4.000000,4.000000,4.000000,4.000000,4.000000,4.000000,100.000000,,,,,,,,,,,,,,,,
1644853089.180587,62.000000,0.000000,4202.436035,4196.666504,4210.512695,4209.871582,4209.743652,4217.820313,4220.128418,4221.922852,4212.051270,4201.282227,4190.384766,4181.922852,4196.666504,4173.846191,0.000000,4.000000,91.000000,,,,0.000000,4.000000,4.000000,4.000000,4.000000,4.000000,4.000000,4.000000,4.000000,4.000000,4.000000,4.000000,4.000000,4.000000,4.000000,100.000000,,,,,,,,,,,,,,,,
1644853089.184627,63.000000,0.000000,4206.410156,4201.922852,4214.743652,4213.461426,4219.358887,4221.153809,4221.025879,4224.230957,4220.000000,4210.000000,4192.179688,4188.589844,4201.538574,4189.358887,0.000000,4.000000,91.000000,,,,0.000000,4.000000,4.000000,4.000000,4.000000,4.000000,4.000000,4.000000,4.000000,4.000000,4.000000,4.000000,4.000000,4.000000,4.000000,100.000000,,,,,,,,,,,,,,,,
1644853089.188567,64.000000,0.000000,4213.717773,4212.820313,4222.692383,4217.692383,4226.922852,4227.179688,4224.358887,4229.871582,4230.641113,4216.153809,4199.487305,4198.974121,4211.282227,4207.307617,0.000000,4.000000,91.000000,,,,0.000000,4.000000,4.000000,4.000000,4.000000,4.000000,4.000000,4.000000,4.000000,4.000000,4.000000,4.000000,4.000000,4.000000,4.000000,100.000000,,,,,,,,,,,,,,,,
1644853089.192507,65.000000,0.000000,4220.512695,4224.487305,4231.922852,4220.769043,4228.974121,4233.205078,4228.205078,4236.025879,4238.974121,4218.974121,4207.948730,4209.615234,4219.230957,4217.948730,0.000000,4.000000,91.000000,,,,0.000000,4.000000,4.000000,4.000000,4.000000,4.000000,4.000000,4.000000,4.000000,4.000000,4.000000,4.000000,4.000000,4.000000,4.000000,100.000000,,,,,,,,,,,,,,,,
1644853089.196447,66.000000,0.000000,4226.410156,4233.461426,4238.974121,4221.794922,4227.179688,4235.897461,4228.846191,4238.846191,4241.922852,4221.153809,4213.589844,4217.820313,4221.666504,4218.461426,0.000000,4.000000,91.000000,,,,0.000000,4.000000,4.000000,4.000000,4.000000,4.000000,4.000000,4.000000,4.000000,4.000000,4.000000,4.000000,4.000000,4.000000,4.000000,100.000000,,,,,,,,,,,,,,,,
1644853089.200387,67.000000,0.000000,4232.563965,4238.333496,4241.538574,4221.410156,4225.128418,4233.077148,4224.230957,4236.410156,4239.487305,4225.512695,4216.794922,4221.922852,4220.384766,4213.717773,0.000000,4.000000,91.000000,,,,0.000000,4.000000,4.000000,4.000000,4.000000,4.000000,4.000000,4.000000,4.000000,4.000000,4.000000,4.000000,4.000000,4.000000,4.000000,100.000000,,,,,,,,,,,,,,,,
1644853089.204327,68.000000,0.000000,4239.102539,4239.358887,4240.384766,4220.512695,4225.256348,4225.769043,4217.179688,4230.384766,4234.102539,4230.384766,4221.025879,4222.179688,4219.487305,4210.897461,0.000000,4.000000,91.000000,,,,0.000000,4.000000,4.000000,4.000000,4.000000,4.000000,4.000000,4.000000,4.000000,4.000000,4.000000,4.000000,4.000000,4.000000,4.000000,100.000000,,,,,,,,,,,,,,,,
1644853089.208267,69.000000,0.000000,4243.589844,4237.179688,4238.077148,4220.256348,4226.922852,4217.948730,4212.820313,4224.615234,4228.461426,4232.692383,4227.436035,4220.256348,4221.153809,4213.205078,0.000000,4.000000,91.000000,,,,0.000000,4.000000,4.000000,4.000000,4.000000,4.000000,4.000000,4.000000,4.000000,4.000000,4.000000,4.000000,4.000000,4.000000,4.000000,100.000000,,,,,,,,,,,,,,,,
1644853089.212107,70.000000,0.000000,4243.077148,4233.205078,4236.794922,4221.538574,4229.102539,4214.358887,4214.230957,4222.051270,4225.128418,4231.282227,4232.179688,4218.205078,4224.487305,4218.717773,0.000000,4.000000,91.000000,,,,0.000000,4.000000,4.000000,4.000000,4.000000,4.000000,4.000000,4.000000,4.000000,4.000000,4.000000,4.000000,4.000000,4.000000,4.000000,100.000000,,,,,,,,,,,,,,,,
1644853089.216048,71.000000,0.000000,4237.563965,4229.102539,4237.563965,4224.871582,4230.897461,4217.692383,4219.230957,4222.820313,4225.897461,4229.358887,4230.897461,4217.563965,4227.820313,4223.846191,0.000000,4.000000,91.000000,,,,0.000000,4.000000,4.000000,4.000000,4.000000,4.000000,4.000000,4.000000,4.000000,4.000000,4.000000,4.000000,4.000000,4.000000,4.000000,100.000000,,,,,,,,,,,,,,,,
1644853089.219988,72.000000,0.000000,4230.128418,4226.025879,4239.358887,4230.897461,4233.205078,4226.282227,4223.461426,4225.128418,4230.256348,4230.000000,4222.820313,4217.948730,4229.871582,4225.897461,0.000000,4.000000,91.000000,,,,0.000000,4.000000,4.000000,4.000000,4.000000,4.000000,4.000000,4.000000,4.000000,4.000000,4.000000,4.000000,4.000000,4.000000,4.000000,100.000000,,,,,,,,,,,,,,,,
1644853089.223928,73.000000,0.000000,4223.717773,4224.102539,4240.769043,4238.974121,4236.538574,4234.487305,4224.871582,4227.051270,4235.000000,4231.538574,4212.179688,4217.692383,4230.000000,4224.102539,0.000000,4.000000,91.000000,,,,0.000000,4.000000,4.000000,4.000000,4.000000,4.000000,4.000000,4.000000,4.000000,4.000000,4.000000,4.000000,4.000000,4.000000,4.000000,100.000000,,,,,,,,,,,,,,,,
1644853089.227868,74.000000,0.000000,4218.846191,4222.820313,4240.897461,4245.769043,4239.487305,4236.794922,4224.487305,4228.205078,4236.282227,4229.102539,4203.333496,4215.000000,4226.922852,4218.846191,0.000000,4.000000,91.000000,,,,0.000000,4.000000,4.000000,4.000000,4.000000,4.000000,4.000000,4.000000,4.000000,4.000000,4.000000,4.000000,4.000000,4.000000,4.000000,100.000000,,,,,,,,,,,,,,,,
1644853089.231808,75.000000,0.000000,4213.589844,4221.410156,4238.717773,4246.282227,4238.974121,4231.922852,4224.102539,4228.717773,4232.179688,4219.230957,4199.487305,4210.641113,4220.128418,4210.128418,0.000000,4.000000,91.000000,,,,0.000000,4.000000,4.000000,4.000000,4.000000,4.000000,4.000000,4.000000,4.000000,4.000000,4.000000,4.000000,4.000000,4.000000,4.000000,100.000000,,,,,,,,,,,,,,,,
1644853089.235748,76.000000,0.000000,4207.179688,4219.487305,4234.102539,4237.179688,4232.051270,4223.205078,4223.461426,4228.717773,4225.384766,4205.897461,4201.025879,4206.282227,4211.410156,4199.102539,0.000000,4.000000,91.000000,,,,0.000000,4.000000,4.000000,4.000000,4.000000,4.000000,4.000000,4.000000,4.000000,4.000000,4.000000,4.000000,4.000000,4.000000,4.000000,100.000000,,,,,,,,,,,,,,,,
1644853089.239788,77.000000,0.000000,4201.410156,4217.051270,4227.436035,4219.230957,4220.256348,4216.025879,4221.794922,4227.692383,4220.000000,4197.307617,4206.922852,4203.589844,4205.512695,4189.230957,0.000000,4.000000,91.000000,,,,0.000000,4.000000,4.000000,4.000000,4.000000,4.000000,4.000000,4.000000,4.000000,4.000000,4.000000,4.000000,4.000000,4.000000,4.000000,100.000000,,,,,,,,,,,,,,,,
1644853089.243728,78.000000,0.000000,4200.897461,4215.512695,4220.769043,4200.128418,4208.846191,4214.230957,4220.256348,4226.025879,4218.717773,4199.743652,4214.102539,4202.563965,4206.666504,4185.256348,0.000000,4.000000,91.000000,,,,0.000000,4.000000,4.000000,4.000000,4.000000,4.000000,4.000000,4.000000,4.000000,4.000000,4.000000,4.000000,4.000000,4.000000,4.000000,100.000000,,,,,,,,,,,,,,,,
1644853089.247668,79.000000,0.000000,4208.205078,4215.641113,4216.538574,4190.769043,4203.589844,4217.307617,4221.025879,4224.743652,4221.153809,4211.410156,4218.846191,4201.794922,4214.358887,4189.358887,0.000000,4.000000,91.000000,,,,0.000000,4.000000,4.000000,4.000000,4.000000,4.000000,4.000000,4.000000,4.000000,4.000000,4.000000,4.000000,4.000000,4.000000,4.000000,100.000000,,,,,,,,,,,,,,,,
1644853089.251608,80.000000,0.000000,4220.000000,4217.307617,4216.025879,4197.820313,4207.051270,4222.051270,4223.974121,4225.256348,4224.615234,4223.589844,4218.333496,4200.384766,4222.692383,4197.820313,0.000000,4.000000,91.000000,,,,0.000000,4.000000,4.000000,4.000000,4.000000,4.000000,4.000000,4.000000,4.000000,4.000000,4.000000,4.000000,4.000000,4.000000,4.000000,100.000000,,,,,,,,,,,,,,,,
1644853089.255648,81.000000,0.000000,4229.487305,4218.589844,4217.692383,4217.307617,4216.410156,4224.487305,4226.282227,4227.179688,4226.922852,4227.179688,4212.563965,4198.589844,4224.871582,4203.461426,0.000000,4.000000,91.000000,,,,0.000000,4.000000,4.000000,4.000000,4.000000,4.000000,4.000000,4.000000,4.000000,4.000000,4.000000,4.000000,4.000000,4.000000,4.000000,100.000000,,,,,,,,,,,,,,,,
1644853089.259589,82.000000,0.000000,4232.179688,4218.077148,4218.974121,4236.282227,4225.641113,4223.205078,4225.000000,4229.102539,4227.692383,4220.000000,4205.000000,4198.205078,4219.230957,4202.692383,0.000000,4.000000,91.000000,,,,0.000000,4.000000,4.000000,4.000000,4.000000,4.000000,4.000000,4.000000,4.000000,4.000000,4.000000,4.000000,4.000000,4.000000,4.000000,100.000000,,,,,,,,,,,,,,,,
1644853089.263529,83.000000,0.000000,4228.846191,4215.512695,4218.589844,4241.666504,4228.846191,4219.487305,4220.897461,4229.102539,4228.205078,4208.717773,4200.512695,4199.871582,4211.153809,4199.102539,0.000000,4.000000,91.000000,,,,0.000000,4.000000,4.000000,4.000000,4.000000,4.000000,4.000000,4.000000,4.000000,4.000000,4.000000,4.000000,4.000000,4.000000,4.000000,100.000000,,,,,,,,,,,,,,,,
1644853089.267469,84.000000,0.000000,4223.846191,4212.948730,4217.307617,4230.512695,4224.871582,4215.641113,4217.820313,4227.051270,4229.230957,4203.846191,4202.307617,4202.179688,4208.205078,4200.256348,0.000000,4.000000,91.000000,,,,0.000000,4.000000,4.000000,4.000000,4.000000,4.000000,4.000000,4.000000,4.000000,4.000000,4.000000,4.000000,4.000000,4.000000,4.000000,100.000000,,,,,,,,,,,,,,,,
1644853089.271409,85.000000,0.000000,4221.410156,4212.436035,4217.436035,4211.666504,4218.077148,4213.974121,4217.820313,4224.743652,4230.128418,4210.897461,4209.487305,4202.051270,4213.589844,4209.358887,0.000000,4.000000,91.000000,,,,0.000000,4.000000,4.000000,4.000000,4.000000,4.000000,4.000000,4.000000,4.000000,4.000000,4.000000,4.000000,4.000000,4.000000,4.000000,100.000000,,,,,,,,,,,,,,,,
1644853089.275349,86.000000,0.000000,4222.179688,4214.743652,4219.743652,4198.205078,4214.743652,4215.128418,4219.871582,4223.589844,4229.615234,4225.384766,4217.307617,4198.205078,4223.717773,4220.769043,0.000000,4.000000,91.000000,,,,0.000000,4.000000,4.000000,4.000000,4.000000,4.000000,4.000000,4.000000,4.000000,4.000000,4.000000,4.000000,4.000000,4.000000,4.000000,100.000000,,,,,,,,,,,,,,,,
1644853089.279289,87.000000,0.000000,4224.358887,4218.333496,4223.589844,4197.436035,4217.948730,4218.333496,4220.512695,4223.461426,4227.563965,4236.794922,4220.256348,4192.179688,4230.641113,4225.128418,0.000000,4.000000,91.000000,,,,0.000000,4.000000,4.000000,4.000000,4.000000,4.000000,4.000000,4.000000,4.000000,4.000000,4.000000,4.000000,4.000000,4.000000,4.000000,100.000000,,,,,,,,,,,,,,,,
1644853089.283229,88.000000,0.000000,4225.641113,4221.410156,4226.538574,4206.282227,4225.384766,4221.025879,4218.846191,4223.846191,4224.615234,4237.051270,4215.641113,4187.692383,4228.846191,4217.179688,0.000000,4.000000,91.000000,,,,0.000000,4.000000,4.000000,4.000000,4.000000,4.000000,4.000000,4.000000,4.000000,4.000000,4.000000,4.000000,4.000000,4.000000,4.000000,100.000000,,,,,,,,,,,,,,,,
1644853089.287169,89.000000,0.000000,4224.615234,4222.436035,4226.538574,4215.384766,4231.794922,4221.153809,4216.282227,4224.102539,4222.051270,4226.794922,4206.410156,4186.922852,4219.615234,4201.794922,0.000000,4.000000,91.000000,,,,0.000000,4.000000,4.000000,4.000000,4.000000,4.000000,4.000000,4.000000,4.000000,4.000000,4.000000,4.000000,4.000000,4.000000,4.000000,100.000000,,,,,,,,,,,,,,,,
1644853089.291109,90.000000,0.000000,4220.384766,4222.051270,4223.589844,4216.922852,4232.179688,4218.717773,4215.128418,4223.846191,4221.410156,4213.717773,4198.846191,4189.230957,4210.000000,4189.871582,0.000000,4.000000,91.000000,,,,0.000000,4.000000,4.000000,4.000000,4.000000,4.000000,4.000000,4.000000,4.000000,4.000000,4.000000,4.000000,4.000000,4.000000,4.000000,100.000000,,,,,,,,,,,,,,,,
1644853089.295049,91.000000,0.000000,4213.077148,4221.153809,4219.743652,4210.641113,4225.769043,4215.384766,4215.256348,4222.820313,4222.948730,4205.897461,4198.589844,4191.666504,4206.666504,4188.974121,0.000000,4.000000,91.000000,,,,0.000000,4.000000,4.000000,4.000000,4.000000,4.000000,4.000000,4.000000,4.000000,4.000000,4.000000,4.000000,4.000000,4.000000,4.000000,100.000000,,,,,,,,,,,,,,,,
1644853089.298990,92.000000,0.000000,4204.615234,4220.384766,4217.179688,4202.179688,4216.538574,4213.589844,4215.641113,4221.410156,4225.641113,4206.153809,4205.641113,4191.922852,4210.000000,4196.410156,0.000000,4.000000,91.000000,,,,0.000000,4.000000,4.000000,4.000000,4.000000,4.000000,4.000000,4.000000,4.000000,4.000000,4.000000,4.000000,4.000000,4.000000,4.000000,100.000000,,,,,,,,,,,,,,,,
1644853089.302930,93.000000,0.000000,4198.589844,4219.743652,4216.410156,4197.179688,4211.025879,4214.615234,4215.897461,4220.384766,4227.307617,4212.307617,4214.871582,4189.871582,4214.487305,4202.563965,0.000000,4.000000,91.000000,,,,0.000000,4.000000,4.000000,4.000000,4.000000,4.000000,4.000000,4.000000,4.000000,4.000000,4.000000,4.000000,4.000000,4.000000,4.000000,100.000000,,,,,,,,,,,,,,,,
1644853089.306870,94.000000,0.000000,4197.692383,4218.974121,4216.153809,4197.436035,4213.333496,4218.077148,4217.179688,4220.641113,4226.538574,4219.615234,4219.230957,4187.179688,4214.487305,4200.128418,0.000000,4.000000,91.000000,,,,0.000000,4.000000,4.000000,4.000000,4.000000,4.000000,4.000000,4.000000,4.000000,4.000000,4.000000,4.000000,4.000000,4.000000,4.000000,100.000000,,,,,,,,,,,,,,,,
1644853089.310810,95.000000,0.000000,4202.051270,4217.563965,4214.615234,4201.538574,4222.179688,4222.179688,4219.871582,4221.410156,4223.461426,4223.846191,4215.000000,4185.512695,4208.974121,4190.641113,0.000000,4.000000,91.000000,,,,0.000000,4.000000,4.000000,4.000000,4.000000,4.000000,4.000000,4.000000,4.000000,4.000000,4.000000,4.000000,4.000000,4.000000,4.000000,100.000000,,,,,,,,,,,,,,,,
1644853089.314650,96.000000,0.000000,4209.230957,4215.256348,4211.410156,4207.820313,4231.922852,4224.358887,4222.051270,4221.282227,4220.128418,4222.692383,4203.717773,4185.128418,4201.410156,4182.436035,0.000000,4.000000,91.000000,,,,0.000000,4.000000,4.000000,4.000000,4.000000,4.000000,4.000000,4.000000,4.000000,4.000000,4.000000,4.000000,4.000000,4.000000,4.000000,100.000000,,,,,,,,,,,,,,,,
1644853089.318590,97.000000,0.000000,4214.871582,4212.692383,4207.436035,4215.641113,4236.025879,4222.692383,4220.897461,4219.230957,4217.948730,4216.282227,4191.153809,4185.384766,4196.025879,4182.563965,0.000000,4.000000,91.000000,,,,0.000000,4.000000,4.000000,4.000000,4.000000,4.000000,4.000000,4.000000,4.000000,4.000000,4.000000,4.000000,4.000000,4.000000,4.000000,100.000000,,,,,,,,,,,,,,,,
1644853089.322530,98.000000,0.000000,4215.897461,4211.025879,4203.974121,4223.974121,4231.025879,4217.948730,4216.410156,4215.897461,4217.436035,4206.922852,4183.589844,4185.384766,4195.000000,4191.025879,0.000000,4.000000,91.000000,,,,0.000000,4.000000,4.000000,4.000000,4.000000,4.000000,4.000000,4.000000,4.000000,4.000000,4.000000,4.000000,4.000000,4.000000,4.000000,100.000000,,,,,,,,,,,,,,,,
1644853089.326470,99.000000,0.000000,4211.794922,4211.282227,4202.436035,4229.230957,4219.102539,4212.820313,4212.307617,4213.077148,4217.307617,4198.205078,4183.461426,4185.512695,4197.051270,4201.153809,0.000000,4.000000,91.000000,,,,0.000000,4.000000,4.000000,4.000000,4.000000,4.000000,4.000000,4.000000,4.000000,4.000000,4.000000,4.000000,4.000000,4.000000,4.000000,100.000000,,,,,,,,,,,,,,,,
1644853089.330411,100.000000,0.000000,4206.153809,4212.692383,4203.333496,4228.205078,4206.794922,4210.769043,4212.051270,4212.179688,4215.897461,4193.717773,4189.358887,4186.153809,4200.512695,4206.282227,0.000000,4.000000,91.000000,,,,0.000000,4.000000,4.000000,4.000000,4.000000,4.000000,4.000000,4.000000,4.000000,4.000000,4.000000,4.000000,4.000000,4.000000,4.000000,100.000000,,,,,,,,,,,,,,,,
1644853089.334351,101.000000,0.000000,4203.717773,4213.974121,4206.025879,4221.025879,4201.922852,4212.307617,4215.512695,4212.563965,4212.820313,4194.358887,4197.436035,4186.922852,4204.230957,4204.871582,0.000000,4.000000,91.000000,,,,0.000000,4.000000,4.000000,4.000000,4.000000,4.000000,4.000000,4.000000,4.000000,4.000000,4.000000,4.000000,4.000000,4.000000,4.000000,100.000000,,,,,,,,,,,,,,,,
1644853089.338291,102.000000,0.000000,4205.769043,4213.589844,4208.846191,4213.205078,4207.051270,4215.384766,4218.974121,4212.948730,4209.102539,4198.974121,4204.358887,4187.436035,4207.436035,4200.641113,0.000000,4.000000,91.000000,,,,0.000000,4.000000,4.000000,4.000000,4.000000,4.000000,4.000000,4.000000,4.000000,4.000000,4.000000,4.000000,4.000000,4.000000,4.000000,100.000000,,,,,,,,,,,,,,,,
1644853089.342231,103.000000,0.000000,4208.333496,4211.410156,4210.512695,4211.410156,4217.692383,4217.307617,4218.974121,4212.307617,4206.538574,4204.743652,4208.974121,4187.179688,4209.871582,4197.436035,0.000000,4.000000,91.000000,,,,0.000000,4.000000,4.000000,4.000000,4.000000,4.000000,4.000000,4.000000,4.000000,4.000000,4.000000,4.000000,4.000000,4.000000,4.000000,100.000000,,,,,,,,,,,,,,,,
1644853089.346171,104.000000,0.000000,4206.153809,4207.692383,4210.641113,4216.794922,4225.000000,4216.794922,4216.282227,4211.410156,4206.025879,4208.974121,4210.769043,4186.410156,4211.025879,4196.410156,0.000000,4.000000,91.000000,,,,0.000000,4.000000,4.000000,4.000000,4.000000,4.000000,4.000000,4.000000,4.000000,4.000000,4.000000,4.000000,4.000000,4.000000,4.000000,100.000000,1.000000,41.666668,4.000000,4.000000,4.000000,4.000000,4.000000,4.000000,1.000000,4.000000,4.000000,4.000000,3.000000,4.000000,3.000000,1.000000
1644853089.350111,105.000000,0.000000,4199.358887,4203.333496,4210.000000,4222.563965,4223.205078,4215.128418,4213.717773,4210.512695,4207.179688,4210.384766,4208.974121,4185.384766,4211.666504,4195.897461,0.000000,4.000000,91.000000,,,,0.000000,4.000000,4.000000,4.000000,4.000000,4.000000,4.000000,4.000000,4.000000,4.000000,4.000000,4.000000,4.000000,4.000000,4.000000,100.000000,,,,,,,,,,,,,,,,
1644853089.354051,106.000000,0.000000,4193.974121,4199.487305,4209.487305,4220.897461,4214.230957,4214.358887,4213.077148,4210.256348,4208.974121,4209.358887,4203.717773,4184.871582,4212.179688,4194.743652,0.000000,4.000000,91.000000,,,,0.000000,4.000000,4.000000,4.000000,4.000000,4.000000,4.000000,4.000000,4.000000,4.000000,4.000000,4.000000,4.000000,4.000000,4.000000,100.000000,,,,,,,,,,,,,,,,
1644853089.357991,107.000000,0.000000,4195.769043,4198.333496,4209.102539,4210.384766,4205.512695,4215.384766,4213.205078,4210.384766,4211.282227,4207.563965,4197.563965,4185.512695,4212.820313,4193.974121,0.000000,4.000000,91.000000,,,,0.000000,4.000000,4.000000,4.000000,4.000000,4.000000,4.000000,4.000000,4.000000,4.000000,4.000000,4.000000,4.000000,4.000000,4.000000,100.000000,,,,,,,,,,,,,,,,
1644853089.361931,108.000000,0.000000,4204.230957,4201.025879,4209.102539,4198.077148,4203.717773,4217.051270,4212.563965,4211.025879,4214.102539,4206.666504,4195.256348,4187.307617,4212.051270,4195.256348,0.000000,4.000000,91.000000,,,,0.000000,4.000000,4.000000,4.000000,4.000000,4.000000,4.000000,4.000000,4.000000,4.000000,4.000000,4.000000,4.000000,4.000000,4.000000,100.000000,,,,,,,,,,,,,,,,
1644853089.365871,109.000000,0.000000,4213.077148,4207.436035,4209.230957,4192.948730,4209.102539,4217.307617,4211.794922,4212.436035,4216.666504,4206.410156,4199.230957,4189.615234,4209.230957,4198.974121,0.000000,4.000000,91.000000,,,,0.000000,4.000000,4.000000,4.000000,4.000000,4.000000,4.000000,4.000000,4.000000,4.000000,4.000000,4.000000,4.000000,4.000000,4.000000,100.000000,,,,,,,,,,,,,,,,
1644853089.369812,110.000000,0.000000,4216.794922,4215.641113,4210.128418,4198.461426,4216.153809,4215.512695,4212.563965,4214.743652,4218.461426,4205.897461,4207.820313,4191.153809,4205.641113,4202.436035,0.000000,4.000000,91.000000,,,,0.000000,4.000000,4.000000,4.000000,4.000000,4.000000,4.000000,4.000000,4.000000,4.000000,4.000000,4.000000,4.000000,4.000000,4.000000,100.000000,,,,,,,,,,,,,,,,
1644853089.373752,111.000000,0.000000,4216.025879,4223.333496,4211.282227,4210.128418,4219.487305,4213.205078,4215.128418,4218.077148,4220.000000,4206.282227,4216.025879,4191.666504,4204.487305,4203.077148,0.000000,4.000000,91.000000,,,,0.000000,4.000000,4.000000,4.000000,4.000000,4.000000,4.000000,4.000000,4.000000,4.000000,4.000000,4.000000,4.000000,4.000000,4.000000,100.000000,,,,,,,,,,,,,,,,
1644853089.377692,112.000000,0.000000,4215.512695,4227.948730,4211.410156,4220.769043,4218.461426,4212.179688,4216.922852,4221.922852,4222.436035,4210.128418,4219.615234,4191.410156,4208.205078,4200.256348,0.000000,4.000000,91.000000,,,,0.000000,4.000000,4.000000,4.000000,4.000000,4.000000,4.000000,4.000000,4.000000,4.000000,4.000000,4.000000,4.000000,4.000000,4.000000,100.000000,,,,,,,,,,,,,,,,
1644853089.381632,113.000000,0.000000,4218.077148,4227.948730,4209.871582,4225.897461,4216.794922,4213.461426,4216.025879,4224.871582,4225.512695,4218.846191,4217.692383,4191.666504,4215.897461,4197.051270,0.000000,4.000000,91.000000,,,,0.000000,4.000000,4.000000,4.000000,4.000000,4.000000,4.000000,4.000000,4.000000,4.000000,4.000000,4.000000,4.000000,4.000000,4.000000,100.000000,,,,,,,,,,,,,,,,
1644853089.385672,114.000000,0.000000,4220.897461,4222.692383,4207.820313,4226.025879,4217.563965,4216.410156,4213.846191,4225.897461,4228.589844,4229.102539,4212.307617,4192.692383,4222.948730,4196.153809,0.000000,4.000000,91.000000,,,,0.000000,4.000000,4.000000,4.000000,4.000000,4.000000,4.000000,4.000000,4.000000,4.000000,4.000000,4.000000,4.000000,4.000000,4.000000,100.000000,,,,,,,,,,,,,,,,
1644853089.389612,115.000000,0.000000,4218.589844,4214.487305,4206.538574,4223.333496,4219.743652,4218.974121,4213.333496,4225.512695,4230.384766,4234.230957,4207.820313,4194.102539,4225.641113,4197.307617,0.000000,4.000000,91.000000,,,,0.000000,4.000000,4.000000,4.000000,4.000000,4.000000,4.000000,4.000000,4.000000,4.000000,4.000000,4.000000,4.000000,4.000000,4.000000,100.000000,,,,,,,,,,,,,,,,
1644853089.393552,116.000000,0.000000,4210.769043,4207.948730,4206.922852,4220.128418,4220.897461,4219.615234,4216.025879,4224.871582,4230.384766,4230.769043,4208.461426,4194.871582,4223.333496,4198.333496,0.000000,4.000000,91.000000,,,,0.000000,4.000000,4.000000,4.000000,4.000000,4.000000,4.000000,4.000000,4.000000,4.000000,4.000000,4.000000,4.000000,4.000000,4.000000,100.000000,,,,,,,,,,,,,,,,
1644853089.397492,117.000000,0.000000,4202.436035,4207.563965,4208.333496,4216.153809,4219.615234,4218.717773,4220.000000,4225.256348,4229.487305,4221.922852,4215.512695,4194.743652,4219.615234,4197.948730,0.000000,4.000000,91.000000,,,,0.000000,4.000000,4.000000,4.000000,4.000000,4.000000,4.000000,4.000000,4.000000,4.000000,4.000000,4.000000,4.000000,4.000000,4.000000,100.000000,,,,,,,,,,,,,,,,
1644853089.401432,118.000000,0.000000,4199.871582,4214.487305,4209.230957,4210.641113,4217.436035,4218.205078,4222.436035,4226.410156,4228.717773,4214.871582,4225.384766,4193.846191,4218.461426,4197.307617,0.000000,4.000000,91.000000,,,,0.000000,4.000000,4.000000,4.000000,4.000000,4.000000,4.000000,4.000000,4.000000,4.000000,4.000000,4.000000,4.000000,4.000000,4.000000,100.000000,,,,,,,,,,,,,,,,
1644853089.405372,119.000000,0.000000,4205.256348,4223.974121,4209.102539,4204.230957,4216.794922,4218.717773,4222.948730,4227.436035,4228.333496,4214.230957,4230.384766,4191.922852,4220.384766,4198.333496,0.000000,4.000000,91.000000,,,,0.000000,4.000000,4.000000,4.000000,4.000000,4.000000,4.000000,4.000000,4.000000,4.000000,4.000000,4.000000,4.000000,4.000000,4.000000,100.000000,,,,,,,,,,,,,,,,
1644853089.409313,120.000000,0.000000,4215.256348,4230.000000,4208.589844,4200.641113,4219.358887,4220.000000,4222.948730,4227.692383,4228.077148,4218.461426,4226.025879,4189.230957,4223.333496,4201.410156,0.000000,4.000000,91.000000,,,,0.000000,4.000000,4.000000,4.000000,4.000000,4.000000,4.000000,4.000000,4.000000,4.000000,4.000000,4.000000,4.000000,4.000000,4.000000,100.000000,,,,,,,,,,,,,,,,
1644853089.413253,121.000000,0.000000,4223.461426,4230.384766,4207.948730,4203.846191,4223.717773,4221.025879,4223.589844,4227.563965,4228.205078,4223.077148,4215.384766,4187.179688,4225.000000,4203.846191,0.000000,4.000000,91.000000,,,,0.000000,4.000000,4.000000,4.000000,4.000000,4.000000,4.000000,4.000000,4.000000,4.000000,4.000000,4.000000,4.000000,4.000000,4.000000,100.000000,,,,,,,,,,,,,,,,
1644853089.417193,122.000000,0.000000,4224.102539,4227.051270,4207.436035,4213.077148,4226.666504,4221.794922,4224.102539,4227.692383,4228.974121,4224.358887,4206.282227,4187.563965,4224.871582,4201.666504,0.000000,4.000000,91.000000,,,,0.000000,4.000000,4.000000,4.000000,4.000000,4.000000,4.000000,4.000000,4.000000,4.000000,4.000000,4.000000,4.000000,4.000000,4.000000,100.000000,,,,,,,,,,,,,,,,
1644853089.421133,123.000000,0.000000,4216.538574,4223.205078,4207.436035,4222.692383,4225.128418,4223.077148,4223.333496,4228.589844,4230.000000,4222.820313,4204.102539,4190.897461,4224.102539,4193.717773,0.000000,4.000000,91.000000,,,,0.000000,4.000000,4.000000,4.000000,4.000000,4.000000,4.000000,4.000000,4.000000,4.000000,4.000000,4.000000,4.000000,4.000000,4.000000,100.000000,,,,,,,,,,,,,,,,
1644853089.425073,124.000000,0.000000,4205.128418,4219.615234,4208.589844,4226.025879,4219.615234,4224.743652,4221.922852,4229.102539,4229.871582,4221.666504,4207.307617,4195.769043,4223.846191,4184.743652,0.000000,4.000000,91.000000,,,,0.000000,4.000000,4.000000,4.000000,4.000000,4.000000,4.000000,4.000000,4.000000,4.000000,4.000000,4.000000,4.000000,4.000000,4.000000,100.000000,,,,,,,,,,,,,,,,
1644853089.429013,125.000000,0.000000,4195.769043,4215.384766,4210.512695,4220.256348,4214.615234,4225.512695,4221.922852,4228.461426,4227.179688,4223.717773,4210.769043,4199.615234,4223.461426,4181.538574,0.000000,4.000000,91.000000,,,,0.000000,4.000000,4.000000,4.000000,4.000000,4.000000,4.000000,4.000000,4.000000,4.000000,4.000000,4.000000,4.000000,4.000000,4.000000,100.000000,,,,,,,,,,,,,,,,
1644853089.432953,126.000000,0.000000,4192.051270,4210.256348,4212.179688,4206.794922,4213.974121,4224.230957,4223.333496,4226.282227,4222.307617,4227.179688,4211.410156,4200.897461,4220.769043,4186.410156,0.000000,4.000000,91.000000,,,,0.000000,4.000000,4.000000,4.000000,4.000000,4.000000,4.000000,4.000000,4.000000,4.000000,4.000000,4.000000,4.000000,4.000000,4.000000,100.000000,,,,,,,,,,,,,,,,
1644853089.436893,127.000000,0.000000,4193.461426,4205.641113,4212.179688,4189.871582,4216.794922,4221.282227,4224.230957,4222.948730,4217.692383,4227.051270,4210.000000,4200.641113,4214.230957,4193.461426,0.000000,4.000000,91.000000,,,,0.000000,4.000000,4.000000,4.000000,4.000000,4.000000,4.000000,4.000000,4.000000,4.000000,4.000000,4.000000,4.000000,4.000000,4.000000,100.000000,,,,,,,,,,,,,,,,
1644853089.440833,128.000000,0.000000,4198.333496,4203.974121,4211.410156,4175.256348,4218.974121,4218.333496,4222.179688,4219.102539,4215.256348,4219.102539,4209.487305,4200.384766,4205.000000,4194.102539,3567.000000,4.000000,91.000000,,,,0.000000,4.000000,4.000000,4.000000,4.000000,4.000000,4.000000,4.000000,4.000000,4.000000,4.000000,4.000000,4.000000,4.000000,4.000000,100.000000,,,,,,,,,,,,,,,,
1644853089.444773,129.000000,0.000000,4204.615234,4206.153809,4212.179688,4169.871582,4217.436035,4217.307617,4218.461426,4216.282227,4215.512695,4204.358887,4211.153809,4200.897461,4196.410156,4185.512695,3326.000000,4.000000,91.000000,,,,0.000000,4.000000,4.000000,4.000000,4.000000,4.000000,4.000000,4.000000,4.000000,4.000000,4.000000,4.000000,4.000000,4.000000,4.000000,100.000000,,,,,,,,,,,,,,,,
1644853089.448714,130.000000,0.000000,4210.256348,4211.153809,4215.384766,4178.077148,4213.846191,4218.333496,4216.153809,4216.153809,4217.051270,4191.153809,4214.230957,4201.666504,4191.922852,4174.102539,3553.000000,4.000000,91.000000,,,,0.000000,4.000000,4.000000,4.000000,4.000000,4.000000,4.000000,4.000000,4.000000,4.000000,4.000000,4.000000,4.000000,4.000000,4.000000,100.000000,,,,,,,,,,,,,,,,
1644853089.452654,131.000000,0.000000,4213.717773,4216.538574,4219.487305,4197.692383,4213.333496,4219.871582,4216.538574,4218.589844,4218.589844,4189.230957,4216.410156,4202.307617,4193.333496,4170.641113,3499.000000,4.000000,91.000000,,,,0.000000,4.000000,4.000000,4.000000,4.000000,4.000000,4.000000,4.000000,4.000000,4.000000,4.000000,4.000000,4.000000,4.000000,4.000000,100.000000,,,,,,,,,,,,,,,,
1644853089.456494,132.000000,0.000000,4214.230957,4220.128418,4221.922852,4218.974121,4218.589844,4220.128418,4217.692383,4221.282227,4219.871582,4202.307617,4216.538574,4203.077148,4200.128418,4180.512695,3498.000000,4.000000,91.000000,,,,0.000000,4.000000,4.000000,4.000000,4.000000,4.000000,4.000000,4.000000,4.000000,4.000000,4.000000,4.000000,4.000000,4.000000,4.000000,100.000000,,,,,,,,,,,,,,,,
1644853089.460434,133.000000,0.000000,4213.461426,4220.641113,4221.153809,4230.641113,4227.307617,4219.102539,4217.307617,4221.922852,4221.025879,4223.717773,4215.128418,4203.461426,4208.974121,4199.358887,3491.000000,4.000000,91.000000,,,,0.000000,4.000000,4.000000,4.000000,4.000000,4.000000,4.000000,4.000000,4.000000,4.000000,4.000000,4.000000,4.000000,4.000000,4.000000,100.000000,,,,,,,,,,,,,,,,
1644853089.464374,134.000000,0.000000,4215.000000,4218.333496,4217.436035,4227.948730,4233.974121,4217.948730,4216.025879,4220.897461,4222.948730,4241.153809,4214.487305,4202.820313,4216.922852,4216.922852,2721.000000,4.000000,91.000000,,,,0.000000,4.000000,4.000000,4.000000,4.000000,4.000000,4.000000,4.000000,4.000000,4.000000,4.000000,4.000000,4.000000,4.000000,4.000000,100.000000,,,,,,,,,,,,,,,,
1644853089.468314,135.000000,0.000000,4220.897461,4214.743652,4213.717773,4217.436035,4234.487305,4218.333496,4216.538574,4220.512695,4225.512695,4245.769043,4217.563965,4200.897461,4223.205078,4225.128418,3111.000000,4.000000,91.000000,,,,0.000000,4.000000,4.000000,4.000000,4.000000,4.000000,4.000000,4.000000,4.000000,4.000000,4.000000,4.000000,4.000000,4.000000,4.000000,100.000000,,,,,,,,,,,,,,,,
1644853089.472254,136.000000,0.000000,4229.102539,4213.077148,4212.948730,4211.025879,4230.128418,4221.282227,4219.871582,4222.563965,4227.948730,4238.333496,4225.256348,4198.589844,4229.487305,4223.205078,3450.000000,4.000000,91.000000,,,,0.000000,4.000000,4.000000,4.000000,4.000000,4.000000,4.000000,4.000000,4.000000,4.000000,4.000000,4.000000,4.000000,4.000000,4.000000,100.000000,,,,,,,,,,,,,,,,
1644853089.476194,137.000000,0.000000,4234.743652,4215.384766,4216.153809,4216.282227,4225.512695,4226.282227,4223.461426,4225.897461,4229.615234,4227.436035,4235.000000,4197.692383,4237.179688,4217.179688,3547.000000,4.000000,91.000000,,,,0.000000,4.000000,4.000000,4.000000,4.000000,4.000000,4.000000,4.000000,4.000000,4.000000,4.000000,4.000000,4.000000,4.000000,4.000000,100.000000,,,,,,,,,,,,,,,,
1644853089.480135,138.000000,0.000000,4233.846191,4221.538574,4221.410156,4230.512695,4225.384766,4231.538574,4224.230957,4228.205078,4229.871582,4221.538574,4242.307617,4199.487305,4243.846191,4213.333496,3521.000000,4.000000,91.000000,,,,0.000000,4.000000,4.000000,4.000000,4.000000,4.000000,4.000000,4.000000,4.000000,4.000000,4.000000,4.000000,4.000000,4.000000,4.000000,100.000000,,,,,,,,,,,,,,,,
1644853089.484075,139.000000,0.000000,4227.692383,4228.333496,4224.743652,4241.794922,4230.897461,4234.230957,4222.179688,4228.333496,4229.230957,4222.948730,4243.461426,4203.461426,4244.230957,4212.820313,3433.000000,4.000000,91.000000,,,,0.000000,4.000000,4.000000,4.000000,4.000000,4.000000,4.000000,4.000000,4.000000,4.000000,4.000000,4.000000,4.000000,4.000000,4.000000,100.000000,,,,,,,,,,,,,,,,
1644853089.488015,140.000000,0.000000,4221.794922,4232.307617,4223.461426,4239.487305,4238.846191,4232.692383,4220.769043,4227.179688,4228.717773,4226.794922,4237.436035,4207.436035,4234.871582,4211.922852,3423.000000,4.000000,91.000000,,,,0.000000,4.000000,4.000000,4.000000,4.000000,4.000000,4.000000,4.000000,4.000000,4.000000,4.000000,4.000000,4.000000,4.000000,4.000000,100.000000,,,,,,,,,,,,,,,,
1644853089.491955,141.000000,0.000000,4220.000000,4232.051270,4218.717773,4221.922852,4242.436035,4227.820313,4221.666504,4226.153809,4228.846191,4226.538574,4227.692383,4208.717773,4218.333496,4207.307617,3500.000000,4.000000,91.000000,,,,0.000000,4.000000,4.000000,4.000000,4.000000,4.000000,4.000000,4.000000,4.000000,4.000000,4.000000,4.000000,4.000000,4.000000,4.000000,100.000000,,,,,,,,,,,,,,,,
1644853089.495895,142.000000,0.000000,4221.025879,4228.589844,4213.846191,4199.743652,4236.153809,4222.307617,4223.717773,4225.897461,4229.743652,4221.153809,4219.871582,4205.641113,4203.205078,4200.000000,3521.000000,4.000000,91.000000,,,,0.000000,4.000000,4.000000,4.000000,4.000000,4.000000,4.000000,4.000000,4.000000,4.000000,4.000000,4.000000,4.000000,4.000000,4.000000,100.000000,,,,,,,,,,,,,,,,
1644853089.499835,143.000000,0.000000,4220.128418,4223.717773,4212.179688,4187.051270,4220.641113,4219.487305,4223.974121,4225.256348,4230.256348,4216.922852,4217.563965,4199.487305,4198.589844,4195.000000,3433.000000,4.000000,91.000000,,,,0.000000,4.000000,4.000000,4.000000,4.000000,4.000000,4.000000,4.000000,4.000000,4.000000,4.000000,4.000000,4.000000,4.000000,4.000000,100.000000,,,,,,,,,,,,,,,,
1644853089.503775,144.000000,0.000000,4215.384766,4219.358887,4213.461426,4191.025879,4204.102539,4220.641113,4222.563965,4223.846191,4229.871582,4220.769043,4219.230957,4194.358887,4207.948730,4196.794922,3423.000000,4.000000,91.000000,,,,0.000000,4.000000,4.000000,4.000000,4.000000,4.000000,4.000000,4.000000,4.000000,4.000000,4.000000,4.000000,4.000000,4.000000,4.000000,100.000000,,,,,,,,,,,,,,,,
1644853089.507715,145.000000,0.000000,4209.871582,4217.051270,4214.230957,4204.615234,4196.666504,4224.358887,4222.179688,4222.692383,4229.102539,4232.307617,4217.820313,4193.461426,4225.897461,4202.307617,3500.000000,4.000000,91.000000,,,,0.000000,4.000000,4.000000,4.000000,4.000000,4.000000,4.000000,4.000000,4.000000,4.000000,4.000000,4.000000,4.000000,4.000000,4.000000,100.000000,,,,,,,,,,,,,,,,
1644853089.511655,146.000000,0.000000,4206.153809,4214.615234,4211.153809,4212.179688,4201.922852,4227.436035,4224.358887,4223.077148,4228.205078,4241.410156,4207.179688,4196.666504,4239.487305,4202.563965,3521.000000,4.000000,91.000000,,,,0.000000,4.000000,4.000000,4.000000,4.000000,4.000000,4.000000,4.000000,4.000000,4.000000,4.000000,4.000000,4.000000,4.000000,4.000000,100.000000,,,,,,,,,,,,,,,,
1644853089.515595,147.000000,0.000000,4200.512695,4207.692383,4205.256348,4204.743652,4214.743652,4227.179688,4227.179688,4224.102539,4227.179688,4237.820313,4188.205078,4201.153809,4237.051270,4191.025879,3433.000000,4.000000,91.000000,,,,0.000000,4.000000,4.000000,4.000000,4.000000,4.000000,4.000000,4.000000,4.000000,4.000000,4.000000,4.000000,4.000000,4.000000,4.000000,100.000000,,,,,,,,,,,,,,,,
1644853089.519536,148.000000,0.000000,4186.025879,4194.358887,4201.666504,4188.333496,4226.153809,4223.589844,4227.436035,4224.230957,4226.025879,4220.897461,4171.282227,4204.230957,4216.794922,4172.436035,3423.000000,4.000000,91.000000,,,,0.000000,4.000000,4.000000,4.000000,4.000000,4.000000,4.000000,4.000000,4.000000,4.000000,4.000000,4.000000,4.000000,4.000000,4.000000,100.000000,,,,,,,,,,,,,,,,
1644853089.523576,149.000000,0.000000,4163.077148,4179.615234,4205.769043,4179.102539,4230.000000,4218.974121,4225.256348,4222.820313,4224.871582,4200.897461,4168.717773,4205.641113,4188.333496,4158.333496,3500.000000,4.000000,91.000000,,,,0.000000,4.000000,4.000000,4.000000,4.000000,4.000000,4.000000,4.000000,4.000000,4.000000,4.000000,4.000000,4.000000,4.000000,4.000000,100.000000,,,,,,,,,,,,,,,,
1644853089.527516,150.000000,0.000000,4143.589844,4172.563965,4217.948730,4187.307617,4225.512695,4216.922852,4223.589844,4221.666504,4224.358887,4190.769043,4183.333496,4208.461426,4164.871582,4155.512695,3521.000000,4.000000,91.000000,,,,0.000000,4.000000,4.000000,4.000000,4.000000,4.000000,4.000000,4.000000,4.000000,4.000000,4.000000,4.000000,4.000000,4.000000,4.000000,100.000000,,,,,,,,,,,,,,,,
1644853089.531456,151.000000,0.000000,4141.025879,4178.974121,4232.948730,4207.307617,4217.436035,4218.974121,4224.743652,4222.436035,4224.871582,4196.410156,4204.102539,4214.871582,4154.615234,4158.846191,3433.000000,4.000000,91.000000,,,,0.000000,4.000000,4.000000,4.000000,4.000000,4.000000,4.000000,4.000000,4.000000,4.000000,4.000000,4.000000,4.000000,4.000000,4.000000,100.000000,,,,,,,,,,,,,,,,
1644853089.535396,152.000000,0.000000,4157.051270,4195.769043,4242.563965,4221.922852,4211.794922,4223.589844,4226.922852,4225.641113,4226.666504,4212.436035,4214.358887,4224.487305,4155.897461,4157.563965,3423.000000,4.000000,91.000000,,,,0.000000,4.000000,4.000000,4.000000,4.000000,4.000000,4.000000,4.000000,4.000000,4.000000,4.000000,4.000000,4.000000,4.000000,4.000000,100.000000,,,,,,,,,,,,,,,,
1644853089.539336,153.000000,0.000000,4178.205078,4211.794922,4241.794922,4217.436035,4212.307617,4227.051270,4226.410156,4229.230957,4229.230957,4227.563965,4206.282227,4233.333496,4162.179688,4148.077148,3500.000000,4.000000,91.000000,,,,0.000000,4.000000,4.000000,4.000000,4.000000,4.000000,4.000000,4.000000,4.000000,4.000000,4.000000,4.000000,4.000000,4.000000,4.000000,100.000000,,,,,,,,,,,,,,,,
1644853089.543276,154.000000,0.000000,4188.589844,4217.563965,4232.563965,4195.769043,4218.333496,4226.153809,4222.563965,4230.512695,4231.025879,4232.436035,4187.307617,4235.769043,4168.333496,4138.461426,3521.000000,4.000000,91.000000,,,,0.000000,4.000000,4.000000,4.000000,4.000000,4.000000,4.000000,4.000000,4.000000,4.000000,4.000000,4.000000,4.000000,4.000000,4.000000,100.000000,,,,,,,,,,,,,,,,
1644853089.547216,155.000000,0.000000,4185.000000,4212.436035,4222.563965,4173.589844,4225.384766,4221.282227,4217.692383,4228.205078,4230.512695,4226.538574,4175.128418,4228.205078,4175.512695,4142.563965,3433.000000,4.000000,91.000000,,,,0.000000,4.000000,4.000000,4.000000,4.000000,4.000000,4.000000,4.000000,4.000000,4.000000,4.000000,4.000000,4.000000,4.000000,4.000000,100.000000,,,,,,,,,,,,,,,,
1644853089.551156,156.000000,0.000000,4180.897461,4206.153809,4218.461426,4169.871582,4228.077148,4215.512695,4215.128418,4223.846191,4227.563965,4217.948730,4183.974121,4212.051270,4188.589844,4167.179688,3423.000000,4.000000,91.000000,,,,0.000000,4.000000,4.000000,4.000000,4.000000,4.000000,4.000000,4.000000,4.000000,4.000000,4.000000,4.000000,4.000000,4.000000,4.000000,100.000000,,,,,,,,,,,,,,,,
1644853089.555096,157.000000,0.000000,4194.871582,4210.000000,4221.025879,4191.025879,4225.512695,4212.436035,4214.871582,4220.128418,4223.589844,4216.410156,4213.333496,4193.461426,4211.282227,4206.538574,3500.000000,4.000000,91.000000,,,,0.000000,4.000000,4.000000,4.000000,4.000000,4.000000,4.000000,4.000000,4.000000,4.000000,4.000000,4.000000,4.000000,4.000000,4.000000,100.000000,,,,,,,,,,,,,,,,
1644853089.559037,158.000000,0.000000,4232.563965,4227.307617,4224.615234,4226.410156,4220.897461,4213.846191,4215.512695,4219.358887,4221.666504,4224.615234,4247.820313,4178.717773,4240.641113,4245.641113,3521.000000,4.000000,91.000000,,,,0.000000,4.000000,4.000000,4.000000,4.000000,4.000000,4.000000,4.000000,4.000000,4.000000,4.000000,4.000000,4.000000,4.000000,4.000000,100.000000,,,,,,,,,,,,,,,,
1644853089.562877,159.000000,0.000000,4279.743652,4250.641113,4223.205078,4256.410156,4218.846191,4218.077148,4216.153809,4221.538574,4223.333496,4236.025879,4268.077148,4170.641113,4267.692383,4269.743652,3433.000000,4.000000,91.000000,,,,0.000000,4.000000,4.000000,4.000000,4.000000,4.000000,4.000000,4.000000,4.000000,4.000000,4.000000,4.000000,4.000000,4.000000,4.000000,100.000000,,,,,,,,,,,,,,,,
1644853089.566817,160.000000,0.000000,4310.384766,4267.563965,4216.538574,4265.769043,4220.000000,4221.794922,4217.307617,4224.871582,4226.922852,4241.410156,4264.615234,4168.717773,4282.179688,4272.051270,3423.000000,4.000000,91.000000,,,,0.000000,4.000000,4.000000,4.000000,4.000000,4.000000,4.000000,4.000000,4.000000,4.000000,4.000000,4.000000,4.000000,4.000000,4.000000,100.000000,,,,,,,,,,,,,,,,
1644853089.570757,161.000000,0.000000,4306.666504,4269.102539,4209.615234,4253.333496,4220.897461,4222.051270,4219.102539,4226.538574,4229.358887,4237.563965,4242.436035,4171.282227,4278.717773,4257.179688,3500.000000,4.000000,91.000000,,,,0.000000,4.000000,4.000000,4.000000,4.000000,4.000000,4.000000,4.000000,4.000000,4.000000,4.000000,4.000000,4.000000,4.000000,4.000000,100.000000,,,,,,,,,,,,,,,,
1644853089.574697,162.000000,0.000000,4273.077148,4256.153809,4207.948730,4230.769043,4218.974121,4219.358887,4220.256348,4225.128418,4228.461426,4230.256348,4216.666504,4176.922852,4260.641113,4236.922852,3521.000000,4.000000,91.000000,,,,0.000000,4.000000,4.000000,4.000000,4.000000,4.000000,4.000000,4.000000,4.000000,4.000000,4.000000,4.000000,4.000000,4.000000,4.000000,100.000000,,,,,,,,,,,,,,,,
1644853089.578637,163.000000,0.000000,4233.974121,4238.205078,4212.179688,4213.077148,4216.666504,4216.025879,4219.230957,4221.666504,4225.897461,4226.666504,4200.256348,4184.102539,4238.205078,4223.077148,3433.000000,4.000000,91.000000,,,,0.000000,4.000000,4.000000,4.000000,4.000000,4.000000,4.000000,4.000000,4.000000,4.000000,4.000000,4.000000,4.000000,4.000000,4.000000,100.000000,,,,,,,,,,,,,,,,
1644853089.582577,164.000000,0.000000,4215.000000,4226.153809,4218.333496,4208.589844,4218.077148,4215.256348,4217.436035,4219.102539,4224.230957,4228.461426,4196.794922,4190.384766,4222.051270,4221.282227,3423.000000,4.000000,91.000000,,,,0.000000,4.000000,4.000000,4.000000,4.000000,4.000000,4.000000,4.000000,4.000000,4.000000,4.000000,4.000000,4.000000,4.000000,4.000000,100.000000,,,,,,,,,,,,,,,,
1644853089.586517,165.000000,0.000000,4225.000000,4225.128418,4221.794922,4215.128418,4224.230957,4217.820313,4217.563965,4220.256348,4225.641113,4229.487305,4201.666504,4192.692383,4215.512695,4229.230957,3500.000000,4.000000,91.000000,,,,0.000000,4.000000,4.000000,4.000000,4.000000,4.000000,4.000000,4.000000,4.000000,4.000000,4.000000,4.000000,4.000000,4.000000,4.000000,100.000000,,,,,,,,,,,,,,,,
1644853089.590457,166.000000,0.000000,4251.282227,4231.922852,4220.769043,4223.589844,4230.897461,4222.948730,4221.410156,4225.128418,4229.615234,4224.358887,4208.077148,4190.512695,4213.461426,4242.436035,3521.000000,4.000000,91.000000,,,,0.000000,4.000000,4.000000,4.000000,4.000000,4.000000,4.000000,4.000000,4.000000,4.000000,4.000000,4.000000,4.000000,4.000000,4.000000,100.000000,,,,,,,,,,,,,,,,
1644853089.594398,167.000000,0.000000,4273.077148,4238.974121,4216.666504,4226.025879,4233.717773,4228.333496,4226.410156,4230.384766,4234.358887,4215.256348,4211.794922,4185.769043,4208.846191,4258.974121,3433.000000,4.000000,91.000000,,,,0.000000,4.000000,4.000000,4.000000,4.000000,4.000000,4.000000,4.000000,4.000000,4.000000,4.000000,4.000000,4.000000,4.000000,4.000000,100.000000,,,,,,,,,,,,,,,,
1644853089.598338,168.000000,0.000000,4279.615234,4241.794922,4212.307617,4220.897461,4232.436035,4231.922852,4228.717773,4232.307617,4238.333496,4210.512695,4211.794922,4181.794922,4200.512695,4280.769043,3423.000000,4.000000,91.000000,,,,0.000000,4.000000,4.000000,4.000000,4.000000,4.000000,4.000000,4.000000,4.000000,4.000000,4.000000,4.000000,4.000000,4.000000,4.000000,100.000000,,,,,,,,,,,,,,,,
1644853089.602278,169.000000,0.000000,4276.410156,4240.512695,4210.128418,4213.077148,4230.897461,4232.563965,4227.051270,4229.871582,4240.000000,4215.384766,4208.077148,4180.641113,4194.487305,4310.128418,3500.000000,4.000000,91.000000,,,,0.000000,4.000000,4.000000,4.000000,4.000000,4.000000,4.000000,4.000000,4.000000,4.000000,4.000000,4.000000,4.000000,4.000000,4.000000,100.000000,,,,,,,,,,,,,,,,
1644853089.606218,170.000000,0.000000,4275.000000,4237.051270,4210.769043,4208.717773,4231.282227,4231.153809,4224.487305,4225.641113,4238.846191,4227.051270,4201.794922,4181.922852,4197.179688,4344.487305,3521.000000,4.000000,91.000000,,,,0.000000,4.000000,4.000000,4.000000,4.000000,4.000000,4.000000,4.000000,4.000000,4.000000,4.000000,4.000000,4.000000,4.000000,4.000000,100.000000,,,,,,,,,,,,,,,,
1644853089.610158,171.000000,0.000000,4281.410156,4232.820313,4214.487305,4209.871582,4232.820313,4230.000000,4224.743652,4222.563965,4236.282227,4237.692383,4195.384766,4183.974121,4208.589844,4376.794922,3433.000000,4.000000,91.000000,,,,0.000000,4.000000,4.000000,4.000000,4.000000,4.000000,4.000000,4.000000,4.000000,4.000000,4.000000,4.000000,4.000000,4.000000,4.000000,100.000000,,,,,,,,,,,,,,,,
1644853089.614098,172.000000,0.000000,4293.333496,4228.974121,4219.615234,4213.461426,4233.461426,4230.897461,4228.333496,4222.179688,4234.358887,4242.179688,4193.077148,4186.153809,4222.563965,4399.487305,3423.000000,4.000000,91.000000,,,,0.000000,4.000000,4.000000,4.000000,4.000000,4.000000,4.000000,4.000000,4.000000,4.000000,4.000000,4.000000,4.000000,4.000000,4.000000,100.000000,,,,,,,,,,,,,,,,
1644853089.618038,173.000000,0.000000,4306.794922,4227.820313,4223.846191,4214.615234,4233.461426,4233.974121,4231.538574,4223.717773,4234.358887,4240.384766,4198.717773,4187.948730,4231.538574,4408.717773,3500.000000,4.000000,91.000000,,,,0.000000,4.000000,4.000000,4.000000,4.000000,4.000000,4.000000,4.000000,4.000000,4.000000,4.000000,4.000000,4.000000,4.000000,4.000000,100.000000,,,,,,,,,,,,,,,,
1644853089.621978,174.000000,0.000000,4318.974121,4231.025879,4225.769043,4211.282227,4234.615234,4237.179688,4231.666504,4225.769043,4235.128418,4236.025879,4211.025879,4188.974121,4232.051270,4406.922852,3521.000000,4.000000,91.000000,,,,0.000000,4.000000,4.000000,4.000000,4.000000,4.000000,4.000000,4.000000,4.000000,4.000000,4.000000,4.000000,4.000000,4.000000,4.000000,100.000000,,,,,,,,,,,,,,,,
1644853089.625918,175.000000,0.000000,4327.436035,4238.333496,4225.897461,4205.512695,4237.820313,4238.589844,4229.358887,4227.692383,4234.615234,4232.051270,4222.948730,4188.333496,4225.512695,4399.743652,3433.000000,4.000000,91.000000,,,,0.000000,4.000000,4.000000,4.000000,4.000000,4.000000,4.000000,4.000000,4.000000,4.000000,4.000000,4.000000,4.000000,4.000000,4.000000,100.000000,,,,,,,,,,,,,,,,
1644853089.629759,176.000000,0.000000,4328.846191,4245.897461,4225.897461,4201.794922,4241.666504,4237.179688,4227.563965,4229.358887,4232.563965,4229.358887,4226.666504,4186.666504,4215.769043,4390.641113,3423.000000,4.000000,91.000000,,,,0.000000,4.000000,4.000000,4.000000,4.000000,4.000000,4.000000,4.000000,4.000000,4.000000,4.000000,4.000000,4.000000,4.000000,4.000000,100.000000,,,,,,,,,,,,,,,,
1644853089.633699,177.000000,0.000000,4322.179688,4249.743652,4226.282227,4203.333496,4243.589844,4234.615234,4227.692383,4231.025879,4230.769043,4227.051270,4220.128418,4186.025879,4206.025879,4378.717773,3500.000000,4.000000,91.000000,,,,0.000000,4.000000,4.000000,4.000000,4.000000,4.000000,4.000000,4.000000,4.000000,4.000000,4.000000,4.000000,4.000000,4.000000,4.000000,100.000000,,,,,,,,,,,,,,,,
1644853089.637639,178.000000,0.000000,4312.436035,4248.589844,4225.769043,4208.846191,4241.922852,4232.563965,4228.461426,4231.794922,4231.538574,4224.358887,4210.128418,4187.563965,4199.615234,4362.948730,3521.000000,4.000000,91.000000,,,,0.000000,4.000000,4.000000,4.000000,4.000000,4.000000,4.000000,4.000000,4.000000,4.000000,4.000000,4.000000,4.000000,4.000000,4.000000,100.000000,,,,,,,,,,,,,,,,
1644853089.641579,179.000000,0.000000,4308.077148,4245.769043,4223.589844,4213.717773,4237.563965,4232.051270,4228.461426,4231.538574,4234.743652,4221.153809,4205.256348,4189.230957,4200.128418,4348.333496,3433.000000,4.000000,91.000000,,,,0.000000,4.000000,4.000000,4.000000,4.000000,4.000000,4.000000,4.000000,4.000000,4.000000,4.000000,4.000000,4.000000,4.000000,4.000000,100.000000,,,,,,,,,,,,,,,,
1644853089.645519,180.000000,0.000000,4314.358887,4245.128418,4220.769043,4213.589844,4232.692383,4232.051270,4227.563965,4230.512695,4237.820313,4217.692383,4208.589844,4188.205078,4208.974121,4344.743652,3423.000000,4.000000,91.000000,,,,0.000000,4.000000,4.000000,4.000000,4.000000,4.000000,4.000000,4.000000,4.000000,4.000000,4.000000,4.000000,4.000000,4.000000,4.000000,100.000000,,,,,,,,,,,,,,,,
1644853089.649459,181.000000,0.000000,4326.666504,4245.641113,4219.102539,4207.307617,4229.230957,4231.025879,4226.922852,4229.487305,4237.307617,4214.743652,4213.461426,4184.102539,4221.666504,4354.230957,3500.000000,4.000000,91.000000,,,,0.000000,4.000000,4.000000,4.000000,4.000000,4.000000,4.000000,4.000000,4.000000,4.000000,4.000000,4.000000,4.000000,4.000000,4.000000,100.000000,,,,,,,,,,,,,,,,
1644853089.653399,182.000000,0.000000,4330.384766,4241.666504,4219.102539,4196.410156,4227.307617,4228.077148,4226.282227,4228.077148,4232.436035,4212.820313,4209.230957,4180.897461,4227.307617,4364.358887,3521.000000,4.000000,91.000000,,,,0.000000,4.000000,4.000000,4.000000,4.000000,4.000000,4.000000,4.000000,4.000000,4.000000,4.000000,4.000000,4.000000,4.000000,4.000000,100.000000,,,,,,,,,,,,,,,,
1644853089.657339,183.000000,0.000000,4309.871582,4226.922852,4219.743652,4182.307617,4225.128418,4223.717773,4224.487305,4225.897461,4225.128418,4210.512695,4190.000000,4183.077148,4214.615234,4352.692383,3433.000000,4.000000,91.000000,,,,0.000000,4.000000,4.000000,4.000000,4.000000,4.000000,4.000000,4.000000,4.000000,4.000000,4.000000,4.000000,4.000000,4.000000,4.000000,100.000000,,,,,,,,,,,,,,,,
1644853089.661279,184.000000,0.000000,4259.615234,4201.794922,4220.897461,4166.025879,4221.153809,4219.358887,4221.282227,4222.948730,4219.230957,4205.128418,4157.948730,4193.205078,4180.897461,4304.487305,3423.000000,4.000000,91.000000,,,,0.000000,4.000000,4.000000,4.000000,4.000000,4.000000,4.000000,4.000000,4.000000,4.000000,4.000000,4.000000,4.000000,4.000000,4.000000,100.000000,,,,,,,,,,,,,,,,
1644853089.665220,185.000000,0.000000,4192.692383,4174.615234,4223.205078,4149.487305,4215.769043,4216.538574,4218.717773,4220.384766,4216.922852,4195.897461,4124.358887,4208.717773,4134.743652,4228.461426,3500.000000,4.000000,91.000000,,,,0.000000,4.000000,4.000000,4.000000,4.000000,4.000000,4.000000,4.000000,4.000000,4.000000,4.000000,4.000000,4.000000,4.000000,4.000000,100.000000,,,,,,,,,,,,,,,,
1644853089.669160,186.000000,0.000000,4138.461426,4157.563965,4226.282227,4139.102539,4211.794922,4215.256348,4218.974121,4219.230957,4217.948730,4187.436035,4106.538574,4222.179688,4094.615479,4159.230957,3521.000000,4.000000,91.000000,,,,0.000000,4.000000,4.000000,4.000000,4.000000,4.000000,4.000000,4.000000,4.000000,4.000000,4.000000,4.000000,4.000000,4.000000,4.000000,100.000000,,,,,,,,,,,,,,,,
1644853089.673200,187.000000,0.000000,4129.230957,4160.384766,4227.820313,4143.589844,4211.922852,4214.487305,4221.666504,4219.358887,4220.128418,4188.461426,4120.769043,4224.358887,4081.538574,4139.102539,3433.000000,4.000000,91.000000,,,,0.000000,4.000000,4.000000,4.000000,4.000000,4.000000,4.000000,4.000000,4.000000,4.000000,4.000000,4.000000,4.000000,4.000000,4.000000,100.000000,,,,,,,,,,,,,,,,
1644853089.677140,188.000000,0.000000,4177.692383,4184.230957,4224.230957,4165.897461,4214.871582,4213.205078,4223.205078,4219.487305,4221.025879,4203.333496,4168.077148,4212.051270,4107.692383,4186.282227,3423.000000,4.000000,91.000000,,,,0.000000,4.000000,4.000000,4.000000,4.000000,4.000000,4.000000,4.000000,4.000000,4.000000,4.000000,4.000000,4.000000,4.000000,4.000000,100.000000,,,,,,,,,,,,,,,,
1644853089.681080,189.000000,0.000000,4259.615234,4218.461426,4214.871582,4195.128418,4215.897461,4211.538574,4221.410156,4219.230957,4219.743652,4225.384766,4225.000000,4192.563965,4164.230957,4269.743652,3500.000000,4.000000,91.000000,,,,0.000000,4.000000,4.000000,4.000000,4.000000,4.000000,4.000000,4.000000,4.000000,4.000000,4.000000,4.000000,4.000000,4.000000,4.000000,100.000000,,,,,,,,,,,,,,,,
1644853089.685020,190.000000,0.000000,4323.077148,4244.743652,4205.384766,4211.538574,4212.051270,4210.641113,4218.077148,4218.589844,4217.307617,4239.615234,4254.358887,4181.153809,4219.743652,4324.102539,3521.000000,4.000000,91.000000,,,,0.000000,4.000000,4.000000,4.000000,4.000000,4.000000,4.000000,4.000000,4.000000,4.000000,4.000000,4.000000,4.000000,4.000000,4.000000,100.000000,,,,,,,,,,,,,,,,
1644853089.688960,191.000000,0.000000,4325.769043,4248.461426,4204.743652,4203.333496,4205.256348,4211.666504,4216.922852,4218.333496,4216.153809,4236.538574,4236.025879,4190.128418,4240.384766,4299.102539,3433.000000,4.000000,91.000000,,,,0.000000,4.000000,4.000000,4.000000,4.000000,4.000000,4.000000,4.000000,4.000000,4.000000,4.000000,4.000000,4.000000,4.000000,4.000000,100.000000,,,,,,,,,,,,,,,,
1644853089.692900,192.000000,0.000000,4270.897461,4230.000000,4216.538574,4178.077148,4201.153809,4213.717773,4218.846191,4218.333496,4217.820313,4220.128418,4187.563965,4217.179688,4216.153809,4205.256348,3423.000000,4.000000,91.000000,,,,0.000000,4.000000,4.000000,4.000000,4.000000,4.000000,4.000000,4.000000,4.000000,4.000000,4.000000,4.000000,4.000000,4.000000,4.000000,100.000000,,,,,,,,,,,,,,,,
1644853089.696840,193.000000,0.000000,4203.205078,4202.948730,4235.000000,4157.051270,4202.820313,4215.000000,4221.025879,4218.205078,4221.666504,4204.487305,4149.743652,4245.128418,4168.717773,4111.282227,3500.000000,4.000000,91.000000,,,,0.000000,4.000000,4.000000,4.000000,4.000000,4.000000,4.000000,4.000000,4.000000,4.000000,4.000000,4.000000,4.000000,4.000000,4.000000,100.000000,,,,,,,,,,,,,,,,
1644853089.700780,194.000000,0.000000,4168.205078,4183.205078,4250.000000,4156.538574,4206.922852,4214.102539,4220.256348,4217.179688,4224.615234,4200.641113,4150.897461,4255.897461,4133.205078,4093.333252,3521.000000,4.000000,91.000000,,,,0.000000,4.000000,4.000000,4.000000,4.000000,4.000000,4.000000,4.000000,4.000000,4.000000,4.000000,4.000000,4.000000,4.000000,4.000000,100.000000,,,,,,,,,,,,,,,,
1644853089.704721,195.000000,0.000000,4175.769043,4176.666504,4255.512695,4174.487305,4207.436035,4211.666504,4217.563965,4214.615234,4222.820313,4208.333496,4181.153809,4247.307617,4129.487305,4177.051270,3433.000000,4.000000,91.000000,,,,0.000000,4.000000,4.000000,4.000000,4.000000,4.000000,4.000000,4.000000,4.000000,4.000000,4.000000,4.000000,4.000000,4.000000,4.000000,100.000000,,,,,,,,,,,,,,,,
1644853089.708661,196.000000,0.000000,4200.256348,4177.051270,4256.153809,4194.358887,4201.410156,4209.487305,4216.410156,4211.794922,4215.512695,4216.153809,4202.948730,4236.025879,4145.897461,4322.051270,3423.000000,4.000000,91.000000,,,,0.000000,4.000000,4.000000,4.000000,4.000000,4.000000,4.000000,4.000000,4.000000,4.000000,4.000000,4.000000,4.000000,4.000000,4.000000,100.000000,,,,,,,,,,,,,,,,
1644853089.712501,197.000000,0.000000,4213.589844,4173.589844,4263.077148,4198.974121,4191.922852,4209.102539,4218.461426,4211.153809,4206.922852,4212.692383,4185.384766,4243.717773,4145.641113,4462.179688,3500.000000,4.000000,91.000000,,,,0.000000,4.000000,4.000000,4.000000,4.000000,4.000000,4.000000,4.000000,4.000000,4.000000,4.000000,4.000000,4.000000,4.000000,4.000000,100.000000,,,,,,,,,,,,,,,,
1644853089.716441,198.000000,0.000000,4220.128418,4161.922852,4283.974121,4183.846191,4185.256348,4210.641113,4222.179688,4213.846191,4203.717773,4197.179688,4134.615234,4276.666504,4095.769287,4576.922852,3521.000000,4.000000,91.000000,,,,0.000000,4.000000,4.000000,4.000000,4.000000,4.000000,4.000000,4.000000,4.000000,4.000000,4.000000,4.000000,4.000000,4.000000,4.000000,100.000000,,,,,,,,,,,,,,,,
1644853089.720381,199.000000,0.000000,4265.512695,4148.717773,4314.487305,4160.897461,4185.897461,4212.948730,4223.846191,4219.487305,4210.128418,4181.538574,4091.025635,4317.307617,4002.435791,4728.461426,3433.000000,4.000000,91.000000,,,,0.000000,4.000000,4.000000,4.000000,4.000000,4.000000,4.000000,4.000000,4.000000,4.000000,4.000000,4.000000,4.000000,4.000000,4.000000,100.000000,,,,,,,,,,,,,,,,
1644853089.724321,200.000000,0.000000,4410.256348,4150.000000,4337.948730,4147.563965,4193.589844,4215.512695,4222.692383,4225.512695,4223.717773,4180.769043,4098.333496,4335.256348,3919.871826,5027.820313,3423.000000,4.000000,91.000000,,,,0.000000,4.000000,4.000000,4.000000,4.000000,4.000000,4.000000,4.000000,4.000000,4.000000,4.000000,4.000000,4.000000,4.000000,4.000000,100.000000,,,,,,,,,,,,,,,,
1644853089.728261,201.000000,0.000000,4693.205078,4180.512695,4336.410156,4153.846191,4205.128418,4218.846191,4220.769043,4229.230957,4237.051270,4198.974121,4165.512695,4309.743652,3919.487061,5545.256348,3500.000000,4.000000,91.000000,,,,0.000000,4.000000,4.000000,4.000000,4.000000,4.000000,4.000000,4.000000,4.000000,4.000000,4.000000,4.000000,4.000000,4.000000,4.000000,100.000000,,,,,,,,,,,,,,,,
1644853089.732201,202.000000,0.000000,5107.436035,4244.102539,4304.358887,4174.230957,4218.974121,4223.717773,4221.025879,4230.512695,4243.333496,4223.333496,4256.794922,4247.307617,4037.820557,6237.948730,3521.000000,4.000000,91.000000,,,,0.000000,4.000000,4.000000,4.000000,4.000000,4.000000,4.000000,4.000000,4.000000,4.000000,4.000000,4.000000,4.000000,4.000000,4.000000,100.000000,,,,,,,,,,,,,,,,
1644853089.736141,203.000000,0.000000,5606.922852,4331.153809,4255.384766,4194.358887,4236.025879,4231.794922,4223.717773,4232.051270,4242.692383,4234.358887,4317.948730,4180.641113,4244.487305,6951.794922,3433.000000,4.000000,91.000000,,,,0.000000,4.000000,4.000000,4.000000,4.000000,4.000000,4.000000,4.000000,4.000000,4.000000,4.000000,4.000000,4.000000,4.000000,4.000000,100.000000,,,,,,,,,,,,,,,,
1644853089.740082,204.000000,0.000000,6130.641113,4424.871582,4215.128418,4202.051270,4256.538574,4243.461426,4227.563965,4237.820313,4241.410156,4224.230957,4322.179688,4148.717773,4460.769043,7502.948730,3423.000000,4.000000,91.000000,,,,0.000000,4.000000,4.000000,4.000000,4.000000,4.000000,4.000000,4.000000,4.000000,4.000000,4.000000,4.000000,4.000000,4.000000,4.000000,100.000000,,,,,,,,,,,,,,,,
1644853089.744022,205.000000,0.000000,6625.512695,4513.333496,4204.871582,4194.743652,4277.563965,4258.077148,4232.179688,4250.897461,4247.820313,4204.871582,4297.820313,4171.666504,4615.897461,7783.205078,3500.000000,4.000000,91.000000,,,,0.000000,4.000000,4.000000,4.000000,4.000000,4.000000,4.000000,4.000000,4.000000,4.000000,4.000000,4.000000,4.000000,4.000000,4.000000,100.000000,,,,,,,,,,,,,,,,
1644853089.747962,206.000000,0.000000,7053.461426,4595.000000,4228.589844,4176.794922,4293.717773,4273.333496,4238.333496,4270.769043,4265.128418,4197.307617,4315.128418,4239.358887,4697.051270,7815.128418,3521.000000,4.000000,91.000000,,,,0.000000,4.000000,4.000000,4.000000,4.000000,4.000000,4.000000,4.000000,4.000000,4.000000,4.000000,4.000000,4.000000,4.000000,4.000000,100.000000,,,,,,,,,,,,,,,,
1644853089.751902,207.000000,0.000000,7388.077148,4676.666504,4271.538574,4154.102539,4302.948730,4286.153809,4245.641113,4292.820313,4289.102539,4214.487305,4440.384766,4320.641113,4752.948730,7722.051270,3433.000000,4.000000,91.000000,,,,0.000000,4.000000,4.000000,4.000000,4.000000,4.000000,4.000000,4.000000,4.000000,4.000000,4.000000,4.000000,4.000000,4.000000,4.000000,100.000000,,,,,,,,,,,,,,,,
1644853089.755842,208.000000,0.000000,7611.666504,4766.153809,4311.282227,4131.282227,4308.589844,4294.743652,4251.410156,4311.538574,4310.641113,4250.769043,4688.717773,4386.153809,4848.717773,7637.436035,3423.000000,4.000000,91.000000,,,,0.000000,4.000000,4.000000,4.000000,4.000000,4.000000,4.000000,4.000000,4.000000,4.000000,4.000000,4.000000,4.000000,4.000000,4.000000,100.000000,,,,,,,,,,,,,,,,
