title:Alex-ToV2o6PzIzZ8So8ek9OaJQ, start timestamp:1644854767.000717, stop timestamp:1644854794.131795, headset type:EPOCPLUS, headset serial:3B9AEBFF, headset firmware:626, channels:55, sampling rate:eeg_256, samples:6885      , version:2.1, 
Timestamp,EEG.Counter,EEG.Interpolated,EEG.AF3,EEG.F7,EEG.F3,EEG.FC5,EEG.T7,EEG.P7,EEG.O1,EEG.O2,EEG.P8,EEG.T8,EEG.FC6,EEG.F4,EEG.F8,EEG.AF4,EEG.RawCq,EEG.Battery,EEG.BatteryPercent,MarkerIndex,MarkerType,MarkerValueInt,EEG.MarkerHardware,CQ.AF3,CQ.F7,CQ.F3,CQ.FC5,CQ.T7,CQ.P7,CQ.O1,CQ.O2,CQ.P8,CQ.T8,CQ.FC6,CQ.F4,CQ.F8,CQ.AF4,CQ.Overall,EQ.SampleRateQuality,EQ.OVERALL,EQ.AF3,EQ.F7,EQ.F3,EQ.FC5,EQ.T7,EQ.P7,EQ.O1,EQ.O2,EQ.P8,EQ.T8,EQ.FC6,EQ.F4,EQ.F8,EQ.AF4
1644854767.000717,165.000000,0.000000,4231.410156,4227.948730,4217.820313,4200.000000,4205.256348,4222.436035,4212.948730,4205.000000,4208.717773,4213.846191,4190.384766,4195.256348,4188.974121,4185.512695,3504.000000,4.000000,82.000000,,,,0.000000,4.000000,4.000000,4.000000,4.000000,4.000000,4.000000,4.000000,4.000000,4.000000,4.000000,4.000000,4.000000,4.000000,4.000000,100.000000,,,,,,,,,,,,,,,,
1644854767.004757,166.000000,0.000000,4231.666504,4225.256348,4216.410156,4205.512695,4205.256348,4221.922852,4209.358887,4204.743652,4208.333496,4222.436035,4204.743652,4192.051270,4187.692383,4179.871582,3532.000000,4.000000,82.000000,,,,0.000000,4.000000,4.000000,4.000000,4.000000,4.000000,4.000000,4.000000,4.000000,4.000000,4.000000,4.000000,4.000000,4.000000,4.000000,100.000000,,,,,,,,,,,,,,,,
1644854767.008697,167.000000,0.000000,4230.000000,4225.128418,4214.230957,4212.436035,4214.487305,4219.871582,4207.051270,4204.487305,4206.666504,4226.666504,4224.358887,4185.512695,4193.846191,4182.563965,2373.000000,4.000000,82.000000,,,,0.000000,4.000000,4.000000,4.000000,4.000000,4.000000,4.000000,4.000000,4.000000,4.000000,4.000000,4.000000,4.000000,4.000000,4.000000,100.000000,,,,,,,,,,,,,,,,
1644854767.012637,168.000000,0.000000,4226.922852,4226.666504,4211.025879,4217.179688,4228.589844,4217.563965,4208.846191,4204.871582,4205.512695,4223.846191,4235.256348,4179.487305,4201.410156,4189.743652,3603.000000,4.000000,82.000000,,,,0.000000,4.000000,4.000000,4.000000,4.000000,4.000000,4.000000,4.000000,4.000000,4.000000,4.000000,4.000000,4.000000,4.000000,4.000000,100.000000,,,,,,,,,,,,,,,,
1644854767.016578,169.000000,0.000000,4225.000000,4228.589844,4207.307617,4217.436035,4240.384766,4216.153809,4212.692383,4206.538574,4207.051270,4218.461426,4231.538574,4176.538574,4205.000000,4195.384766,3504.000000,4.000000,82.000000,,,,0.000000,4.000000,4.000000,4.000000,4.000000,4.000000,4.000000,4.000000,4.000000,4.000000,4.000000,4.000000,4.000000,4.000000,4.000000,100.000000,,,,,,,,,,,,,,,,
1644854767.020518,170.000000,0.000000,4225.000000,4229.358887,4203.333496,4214.487305,4243.333496,4216.538574,4214.487305,4209.743652,4211.025879,4217.179688,4219.230957,4176.282227,4202.051270,4195.384766,3532.000000,4.000000,82.000000,,,,0.000000,4.000000,4.000000,4.000000,4.000000,4.000000,4.000000,4.000000,4.000000,4.000000,4.000000,4.000000,4.000000,4.000000,4.000000,100.000000,,,,,,,,,,,,,,,,
1644854767.024458,171.000000,0.000000,4224.871582,4227.307617,4199.230957,4210.897461,4235.897461,4218.846191,4213.333496,4213.205078,4215.128418,4221.922852,4209.102539,4176.282227,4194.615234,4190.128418,2373.000000,4.000000,82.000000,,,,0.000000,4.000000,4.000000,4.000000,4.000000,4.000000,4.000000,4.000000,4.000000,4.000000,4.000000,4.000000,4.000000,4.000000,4.000000,100.000000,,,,,,,,,,,,,,,,
1644854767.028398,172.000000,0.000000,4220.256348,4221.282227,4196.794922,4207.307617,4223.333496,4222.436035,4212.051270,4215.641113,4216.410156,4227.692383,4207.692383,4175.384766,4187.179688,4182.563965,3603.000000,4.000000,82.000000,,,,0.000000,4.000000,4.000000,4.000000,4.000000,4.000000,4.000000,4.000000,4.000000,4.000000,4.000000,4.000000,4.000000,4.000000,4.000000,100.000000,,,,,,,,,,,,,,,,
1644854767.032338,173.000000,0.000000,4209.615234,4212.563965,4196.666504,4201.794922,4214.615234,4226.025879,4213.461426,4216.410156,4214.230957,4228.717773,4211.282227,4173.461426,4184.358887,4175.897461,3504.000000,4.000000,82.000000,,,,0.000000,4.000000,4.000000,4.000000,4.000000,4.000000,4.000000,4.000000,4.000000,4.000000,4.000000,4.000000,4.000000,4.000000,4.000000,100.000000,,,,,,,,,,,,,,,,
1644854767.036278,174.000000,0.000000,4198.077148,4204.743652,4197.820313,4193.205078,4215.128418,4227.820313,4216.922852,4215.384766,4211.282227,4224.358887,4211.666504,4171.153809,4186.794922,4171.794922,3532.000000,4.000000,82.000000,,,,0.000000,4.000000,4.000000,4.000000,4.000000,4.000000,4.000000,4.000000,4.000000,4.000000,4.000000,4.000000,4.000000,4.000000,4.000000,100.000000,,,,,,,,,,,,,,,,
1644854767.040218,175.000000,0.000000,4192.692383,4201.410156,4197.436035,4183.589844,4222.051270,4226.153809,4219.743652,4213.589844,4211.153809,4218.974121,4205.128418,4169.230957,4190.641113,4171.153809,2373.000000,4.000000,82.000000,,,,0.000000,4.000000,4.000000,4.000000,4.000000,4.000000,4.000000,4.000000,4.000000,4.000000,4.000000,4.000000,4.000000,4.000000,4.000000,100.000000,,,,,,,,,,,,,,,,
1644854767.044158,176.000000,0.000000,4197.051270,4203.077148,4194.743652,4178.205078,4226.666504,4221.153809,4220.769043,4212.692383,4215.000000,4216.794922,4195.897461,4168.333496,4191.282227,4173.846191,3603.000000,4.000000,82.000000,,,,0.000000,4.000000,4.000000,4.000000,4.000000,4.000000,4.000000,4.000000,4.000000,4.000000,4.000000,4.000000,4.000000,4.000000,4.000000,100.000000,,,,,,,,,,,,,,,,
1644854767.048098,177.000000,0.000000,4208.077148,4207.179688,4191.025879,4180.897461,4223.589844,4215.897461,4221.153809,4213.846191,4220.897461,4218.461426,4191.538574,4169.230957,4187.563965,4178.461426,3504.000000,4.000000,82.000000,,,,0.000000,4.000000,4.000000,4.000000,4.000000,4.000000,4.000000,4.000000,4.000000,4.000000,4.000000,4.000000,4.000000,4.000000,4.000000,100.000000,,,,,,,,,,,,,,,,
1644854767.052038,178.000000,0.000000,4219.358887,4210.256348,4188.846191,4190.256348,4214.871582,4213.717773,4222.563965,4217.051270,4225.769043,4221.666504,4196.025879,4172.179688,4183.205078,4182.692383,3532.000000,4.000000,82.000000,,,,0.000000,4.000000,4.000000,4.000000,4.000000,4.000000,4.000000,4.000000,4.000000,4.000000,4.000000,4.000000,4.000000,4.000000,4.000000,100.000000,,,,,,,,,,,,,,,,
1644854767.055979,179.000000,0.000000,4226.025879,4211.794922,4189.230957,4200.128418,4207.948730,4215.897461,4224.102539,4221.153809,4227.948730,4224.743652,4206.538574,4176.410156,4183.717773,4184.358887,2373.000000,4.000000,82.000000,,,,0.000000,4.000000,4.000000,4.000000,4.000000,4.000000,4.000000,4.000000,4.000000,4.000000,4.000000,4.000000,4.000000,4.000000,4.000000,100.000000,,,,,,,,,,,,,,,,
1644854767.059919,180.000000,0.000000,4226.666504,4214.358887,4192.307617,4205.256348,4209.230957,4220.384766,4223.974121,4224.743652,4227.948730,4227.948730,4216.666504,4180.512695,4191.538574,4184.102539,3603.000000,4.000000,82.000000,,,,0.000000,4.000000,4.000000,4.000000,4.000000,4.000000,4.000000,4.000000,4.000000,4.000000,4.000000,4.000000,4.000000,4.000000,4.000000,100.000000,,,,,,,,,,,,,,,,
1644854767.063859,181.000000,0.000000,4223.205078,4219.743652,4197.051270,4205.000000,4218.717773,4223.846191,4222.436035,4227.436035,4226.410156,4231.666504,4222.436035,4183.717773,4203.461426,4184.487305,3504.000000,4.000000,82.000000,,,,0.000000,4.000000,4.000000,4.000000,4.000000,4.000000,4.000000,4.000000,4.000000,4.000000,4.000000,4.000000,4.000000,4.000000,4.000000,100.000000,,,,,,,,,,,,,,,,
1644854767.067799,182.000000,0.000000,4218.205078,4226.410156,4202.307617,4202.436035,4230.000000,4223.589844,4221.538574,4228.589844,4224.230957,4234.358887,4223.846191,4186.153809,4211.922852,4187.307617,3532.000000,4.000000,82.000000,,,,0.000000,4.000000,4.000000,4.000000,4.000000,4.000000,4.000000,4.000000,4.000000,4.000000,4.000000,4.000000,4.000000,4.000000,4.000000,100.000000,,,,,,,,,,,,,,,,
1644854767.071739,183.000000,0.000000,4213.461426,4230.128418,4206.025879,4201.282227,4236.282227,4220.128418,4222.436035,4227.563965,4222.051270,4233.589844,4222.307617,4187.692383,4210.256348,4190.512695,2373.000000,4.000000,82.000000,,,,0.000000,4.000000,4.000000,4.000000,4.000000,4.000000,4.000000,4.000000,4.000000,4.000000,4.000000,4.000000,4.000000,4.000000,4.000000,100.000000,,,,,,,,,,,,,,,,
1644854767.075679,184.000000,0.000000,4209.487305,4227.051270,4206.282227,4202.563965,4234.743652,4215.769043,4223.205078,4223.974121,4220.512695,4229.102539,4218.333496,4188.205078,4197.179688,4189.743652,3603.000000,4.000000,82.000000,,,,0.000000,4.000000,4.000000,4.000000,4.000000,4.000000,4.000000,4.000000,4.000000,4.000000,4.000000,4.000000,4.000000,4.000000,4.000000,100.000000,,,,,,,,,,,,,,,,
1644854767.079519,185.000000,0.000000,4205.897461,4218.205078,4202.948730,4203.461426,4227.051270,4213.077148,4220.897461,4219.102539,4219.487305,4223.589844,4211.794922,4186.666504,4179.615234,4182.948730,3504.000000,4.000000,82.000000,,,,0.000000,4.000000,4.000000,4.000000,4.000000,4.000000,4.000000,4.000000,4.000000,4.000000,4.000000,4.000000,4.000000,4.000000,4.000000,100.000000,,,,,,,,,,,,,,,,
1644854767.083459,186.000000,0.000000,4204.615234,4209.230957,4198.461426,4199.743652,4216.794922,4212.563965,4215.641113,4215.000000,4217.692383,4220.641113,4204.102539,4182.563965,4168.205078,4174.230957,3532.000000,4.000000,82.000000,,,,0.000000,4.000000,4.000000,4.000000,4.000000,4.000000,4.000000,4.000000,4.000000,4.000000,4.000000,4.000000,4.000000,4.000000,4.000000,100.000000,,,,,,,,,,,,,,,,
1644854767.087400,187.000000,0.000000,4208.077148,4206.666504,4195.641113,4190.128418,4207.820313,4213.077148,4211.410156,4213.333496,4215.128418,4221.666504,4198.205078,4176.538574,4169.358887,4170.512695,2373.000000,4.000000,82.000000,,,,0.000000,4.000000,4.000000,4.000000,4.000000,4.000000,4.000000,4.000000,4.000000,4.000000,4.000000,4.000000,4.000000,4.000000,4.000000,100.000000,,,,,,,,,,,,,,,,
1644854767.091340,188.000000,0.000000,4217.307617,4212.563965,4196.666504,4179.358887,4203.717773,4214.102539,4212.179688,4214.743652,4212.692383,4224.487305,4197.179688,4171.282227,4180.512695,4174.615234,3603.000000,4.000000,82.000000,,,,0.000000,4.000000,4.000000,4.000000,4.000000,4.000000,4.000000,4.000000,4.000000,4.000000,4.000000,4.000000,4.000000,4.000000,4.000000,100.000000,,,,,,,,,,,,,,,,
1644854767.095280,189.000000,0.000000,4228.077148,4223.205078,4200.384766,4175.000000,4205.384766,4215.128418,4217.179688,4217.948730,4212.307617,4225.256348,4200.897461,4169.230957,4192.436035,4181.794922,3504.000000,4.000000,82.000000,,,,0.000000,4.000000,4.000000,4.000000,4.000000,4.000000,4.000000,4.000000,4.000000,4.000000,4.000000,4.000000,4.000000,4.000000,4.000000,100.000000,,,,,,,,,,,,,,,,
1644854767.099220,190.000000,0.000000,4233.461426,4230.641113,4203.974121,4180.641113,4210.128418,4216.282227,4221.153809,4220.769043,4214.487305,4221.410156,4205.897461,4171.410156,4197.179688,4184.743652,3532.000000,4.000000,82.000000,,,,0.000000,4.000000,4.000000,4.000000,4.000000,4.000000,4.000000,4.000000,4.000000,4.000000,4.000000,4.000000,4.000000,4.000000,4.000000,100.000000,,,,,,,,,,,,,,,,
1644854767.103160,191.000000,0.000000,4229.487305,4229.871582,4205.128418,4191.794922,4213.589844,4217.051270,4220.512695,4221.282227,4217.948730,4213.974121,4207.820313,4176.153809,4193.846191,4180.769043,2373.000000,4.000000,82.000000,,,,0.000000,4.000000,4.000000,4.000000,4.000000,4.000000,4.000000,4.000000,4.000000,4.000000,4.000000,4.000000,4.000000,4.000000,4.000000,100.000000,,,,,,,,,,,,,,,,
1644854767.107100,192.000000,0.000000,4218.461426,4221.922852,4203.205078,4201.153809,4214.615234,4217.692383,4215.897461,4219.615234,4219.487305,4207.179688,4205.641113,4180.000000,4187.692383,4174.871582,3603.000000,4.000000,82.000000,,,,0.000000,4.000000,4.000000,4.000000,4.000000,4.000000,4.000000,4.000000,4.000000,4.000000,4.000000,4.000000,4.000000,4.000000,4.000000,100.000000,,,,,,,,,,,,,,,,
1644854767.111040,193.000000,0.000000,4207.820313,4213.077148,4200.384766,4205.256348,4215.256348,4218.205078,4211.410156,4216.794922,4216.922852,4204.743652,4202.563965,4180.641113,4184.743652,4173.077148,3504.000000,4.000000,82.000000,,,,0.000000,4.000000,4.000000,4.000000,4.000000,4.000000,4.000000,4.000000,4.000000,4.000000,4.000000,4.000000,4.000000,4.000000,4.000000,100.000000,,,,,,,,,,,,,,,,
1644854767.114980,194.000000,0.000000,4204.358887,4208.717773,4198.974121,4205.641113,4218.205078,4218.589844,4209.487305,4213.846191,4210.384766,4207.179688,4203.461426,4177.692383,4187.307617,4176.538574,3532.000000,4.000000,82.000000,,,,0.000000,4.000000,4.000000,4.000000,4.000000,4.000000,4.000000,4.000000,4.000000,4.000000,4.000000,4.000000,4.000000,4.000000,4.000000,100.000000,,,,,,,,,,,,,,,,
1644854767.118920,195.000000,0.000000,4209.230957,4210.256348,4200.128418,4205.128418,4223.846191,4218.461426,4209.487305,4211.153809,4203.205078,4211.410156,4208.589844,4173.974121,4192.563965,4181.282227,2373.000000,4.000000,82.000000,,,,0.000000,4.000000,4.000000,4.000000,4.000000,4.000000,4.000000,4.000000,4.000000,4.000000,4.000000,4.000000,4.000000,4.000000,4.000000,100.000000,,,,,,,,,,,,,,,,
1644854767.122860,196.000000,0.000000,4218.461426,4215.000000,4203.077148,4203.589844,4229.230957,4217.692383,4209.615234,4209.230957,4199.102539,4213.846191,4212.051270,4172.692383,4195.769043,4182.948730,3603.000000,4.000000,82.000000,,,,0.000000,4.000000,4.000000,4.000000,4.000000,4.000000,4.000000,4.000000,4.000000,4.000000,4.000000,4.000000,4.000000,4.000000,4.000000,100.000000,,,,,,,,,,,,,,,,
1644854767.126801,197.000000,0.000000,4227.051270,4220.000000,4205.897461,4199.230957,4232.051270,4216.794922,4209.743652,4209.230957,4200.769043,4214.615234,4207.820313,4175.769043,4194.230957,4181.025879,3504.000000,4.000000,82.000000,,,,0.000000,4.000000,4.000000,4.000000,4.000000,4.000000,4.000000,4.000000,4.000000,4.000000,4.000000,4.000000,4.000000,4.000000,4.000000,100.000000,,,,,,,,,,,,,,,,
1644854767.130741,198.000000,0.000000,4232.820313,4224.487305,4207.436035,4192.436035,4231.666504,4216.410156,4211.025879,4211.666504,4207.436035,4217.692383,4198.205078,4181.922852,4190.512695,4178.717773,3532.000000,4.000000,82.000000,,,,0.000000,4.000000,4.000000,4.000000,4.000000,4.000000,4.000000,4.000000,4.000000,4.000000,4.000000,4.000000,4.000000,4.000000,4.000000,100.000000,,,,,,,,,,,,,,,,
1644854767.134681,199.000000,0.000000,4236.410156,4229.102539,4207.307617,4186.282227,4229.615234,4216.922852,4213.205078,4216.282227,4216.538574,4226.794922,4194.102539,4188.205078,4190.128418,4178.589844,2373.000000,4.000000,82.000000,,,,0.000000,4.000000,4.000000,4.000000,4.000000,4.000000,4.000000,4.000000,4.000000,4.000000,4.000000,4.000000,4.000000,4.000000,4.000000,100.000000,,,,,,,,,,,,,,,,
1644854767.138621,200.000000,0.000000,4238.205078,4233.589844,4206.153809,4185.256348,4226.282227,4218.205078,4214.871582,4221.025879,4223.846191,4240.000000,4204.102539,4190.512695,4196.410156,4180.256348,3603.000000,4.000000,82.000000,,,,0.000000,4.000000,4.000000,4.000000,4.000000,4.000000,4.000000,4.000000,4.000000,4.000000,4.000000,4.000000,4.000000,4.000000,4.000000,100.000000,,,,,,,,,,,,,,,,
1644854767.142561,201.000000,0.000000,4236.153809,4234.743652,4203.589844,4190.128418,4221.025879,4219.358887,4215.128418,4222.948730,4226.025879,4249.358887,4224.487305,4186.666504,4206.153809,4182.051270,3504.000000,4.000000,82.000000,,,,0.000000,4.000000,4.000000,4.000000,4.000000,4.000000,4.000000,4.000000,4.000000,4.000000,4.000000,4.000000,4.000000,4.000000,4.000000,100.000000,,,,,,,,,,,,,,,,
1644854767.146401,202.000000,0.000000,4226.922852,4229.615234,4199.358887,4197.692383,4212.948730,4219.102539,4214.358887,4220.897461,4222.948730,4247.179688,4240.256348,4178.333496,4212.563965,4182.820313,3532.000000,4.000000,82.000000,,,,0.000000,4.000000,4.000000,4.000000,4.000000,4.000000,4.000000,4.000000,4.000000,4.000000,4.000000,4.000000,4.000000,4.000000,4.000000,100.000000,,,,,,,,,,,,,,,,
1644854767.150341,203.000000,0.000000,4211.282227,4218.974121,4194.102539,4203.974121,4203.846191,4217.563965,4214.487305,4216.666504,4217.436035,4233.974121,4239.358887,4170.256348,4211.410156,4183.333496,2373.000000,4.000000,82.000000,,,,0.000000,4.000000,4.000000,4.000000,4.000000,4.000000,4.000000,4.000000,4.000000,4.000000,4.000000,4.000000,4.000000,4.000000,4.000000,100.000000,,,,,,,,,,,,,,,,
1644854767.154281,204.000000,0.000000,4195.512695,4208.846191,4190.256348,4206.922852,4198.589844,4216.025879,4215.384766,4213.846191,4213.333496,4219.487305,4224.102539,4166.794922,4205.384766,4184.358887,3603.000000,4.000000,82.000000,,,,0.000000,4.000000,4.000000,4.000000,4.000000,4.000000,4.000000,4.000000,4.000000,4.000000,4.000000,4.000000,4.000000,4.000000,4.000000,100.000000,,,,,,,,,,,,,,,,
1644854767.158222,205.000000,0.000000,4187.820313,4206.153809,4190.384766,4205.512695,4201.538574,4215.641113,4216.025879,4214.871582,4213.077148,4214.615234,4208.974121,4169.230957,4201.538574,4186.153809,3504.000000,4.000000,82.000000,,,,0.000000,4.000000,4.000000,4.000000,4.000000,4.000000,4.000000,4.000000,4.000000,4.000000,4.000000,4.000000,4.000000,4.000000,4.000000,100.000000,,,,,,,,,,,,,,,,
1644854767.162162,206.000000,0.000000,4192.692383,4212.436035,4195.000000,4198.846191,4212.563965,4216.666504,4215.769043,4218.974121,4216.282227,4222.051270,4206.025879,4175.000000,4204.615234,4187.307617,3532.000000,4.000000,82.000000,,,,0.000000,4.000000,4.000000,4.000000,4.000000,4.000000,4.000000,4.000000,4.000000,4.000000,4.000000,4.000000,4.000000,4.000000,4.000000,100.000000,,,,,,,,,,,,,,,,
1644854767.166102,207.000000,0.000000,4207.179688,4222.692383,4201.794922,4188.333496,4226.153809,4217.692383,4216.025879,4223.333496,4220.512695,4233.974121,4214.358887,4181.282227,4212.179688,4186.025879,2373.000000,4.000000,82.000000,,,,0.000000,4.000000,4.000000,4.000000,4.000000,4.000000,4.000000,4.000000,4.000000,4.000000,4.000000,4.000000,4.000000,4.000000,4.000000,100.000000,,,,,,,,,,,,,,,,
1644854767.170042,208.000000,0.000000,4222.820313,4229.743652,4207.179688,4178.205078,4235.256348,4217.051270,4218.077148,4226.153809,4223.974121,4240.128418,4223.461426,4187.051270,4217.563965,4181.538574,3603.000000,4.000000,82.000000,,,,0.000000,4.000000,4.000000,4.000000,4.000000,4.000000,4.000000,4.000000,4.000000,4.000000,4.000000,4.000000,4.000000,4.000000,4.000000,100.000000,,,,,,,,,,,,,,,,
1644854767.173982,209.000000,0.000000,4231.922852,4229.615234,4208.461426,4173.461426,4236.410156,4215.256348,4221.153809,4227.436035,4226.282227,4237.820313,4224.230957,4192.436035,4216.538574,4175.769043,3504.000000,4.000000,82.000000,,,,0.000000,4.000000,4.000000,4.000000,4.000000,4.000000,4.000000,4.000000,4.000000,4.000000,4.000000,4.000000,4.000000,4.000000,4.000000,100.000000,,,,,,,,,,,,,,,,
1644854767.177922,210.000000,0.000000,4231.666504,4224.487305,4205.769043,4176.025879,4231.794922,4214.487305,4222.692383,4227.948730,4228.717773,4233.461426,4217.051270,4196.666504,4212.179688,4173.077148,3532.000000,4.000000,82.000000,,,,0.000000,4.000000,4.000000,4.000000,4.000000,4.000000,4.000000,4.000000,4.000000,4.000000,4.000000,4.000000,4.000000,4.000000,4.000000,100.000000,,,,,,,,,,,,,,,,
1644854767.181862,211.000000,0.000000,4224.487305,4219.487305,4201.153809,4184.102539,4226.794922,4216.025879,4220.897461,4228.589844,4232.307617,4236.153809,4210.897461,4197.820313,4210.897461,4177.948730,2373.000000,4.000000,82.000000,,,,0.000000,4.000000,4.000000,4.000000,4.000000,4.000000,4.000000,4.000000,4.000000,4.000000,4.000000,4.000000,4.000000,4.000000,4.000000,100.000000,,,,,,,,,,,,,,,,
1644854767.185802,212.000000,0.000000,4215.897461,4217.563965,4197.948730,4193.333496,4224.615234,4218.589844,4217.436035,4228.974121,4235.897461,4247.307617,4215.384766,4195.641113,4216.153809,4190.512695,3603.000000,4.000000,82.000000,,,,0.000000,4.000000,4.000000,4.000000,4.000000,4.000000,4.000000,4.000000,4.000000,4.000000,4.000000,4.000000,4.000000,4.000000,4.000000,100.000000,,,,,,,,,,,,,,,,
1644854767.189742,213.000000,0.000000,4210.641113,4217.820313,4197.820313,4200.641113,4222.820313,4219.230957,4215.256348,4228.205078,4236.794922,4259.615234,4231.794922,4191.282227,4224.358887,4204.230957,3504.000000,4.000000,82.000000,,,,0.000000,4.000000,4.000000,4.000000,4.000000,4.000000,4.000000,4.000000,4.000000,4.000000,4.000000,4.000000,4.000000,4.000000,4.000000,100.000000,,,,,,,,,,,,,,,,
1644854767.193682,214.000000,0.000000,4211.025879,4217.179688,4199.487305,4203.717773,4217.563965,4215.769043,4214.743652,4226.025879,4233.461426,4263.205078,4251.025879,4187.563965,4228.461426,4210.512695,3532.000000,4.000000,82.000000,,,,0.000000,4.000000,4.000000,4.000000,4.000000,4.000000,4.000000,4.000000,4.000000,4.000000,4.000000,4.000000,4.000000,4.000000,4.000000,100.000000,,,,,,,,,,,,,,,,
1644854767.197623,215.000000,0.000000,4215.641113,4213.589844,4200.000000,4202.307617,4208.205078,4209.102539,4214.487305,4223.205078,4227.692383,4254.358887,4259.358887,4186.922852,4225.000000,4205.128418,2373.000000,4.000000,82.000000,,,,0.000000,4.000000,4.000000,4.000000,4.000000,4.000000,4.000000,4.000000,4.000000,4.000000,4.000000,4.000000,4.000000,4.000000,4.000000,100.000000,,,,,,,,,,,,,,,,
1644854767.201563,216.000000,0.000000,4220.769043,4208.717773,4198.205078,4196.153809,4199.743652,4202.820313,4213.333496,4221.538574,4222.820313,4238.974121,4249.487305,4189.615234,4216.538574,4193.205078,3603.000000,4.000000,82.000000,,,,0.000000,4.000000,4.000000,4.000000,4.000000,4.000000,4.000000,4.000000,4.000000,4.000000,4.000000,4.000000,4.000000,4.000000,4.000000,100.000000,,,,,,,,,,,,,,,,
1644854767.205503,217.000000,0.000000,4223.077148,4205.897461,4195.769043,4186.410156,4197.820313,4200.000000,4212.436035,4222.307617,4221.666504,4227.820313,4226.922852,4193.205078,4209.871582,4185.512695,3504.000000,4.000000,82.000000,,,,0.000000,4.000000,4.000000,4.000000,4.000000,4.000000,4.000000,4.000000,4.000000,4.000000,4.000000,4.000000,4.000000,4.000000,4.000000,100.000000,,,,,,,,,,,,,,,,
1644854767.209443,218.000000,0.000000,4221.538574,4207.051270,4195.641113,4175.000000,4203.333496,4201.153809,4212.948730,4224.615234,4223.205078,4227.948730,4206.794922,4194.487305,4210.512695,4188.717773,3532.000000,4.000000,82.000000,,,,0.000000,4.000000,4.000000,4.000000,4.000000,4.000000,4.000000,4.000000,4.000000,4.000000,4.000000,4.000000,4.000000,4.000000,4.000000,100.000000,,,,,,,,,,,,,,,,
1644854767.213383,219.000000,0.000000,4218.077148,4211.282227,4197.820313,4165.256348,4211.153809,4203.333496,4213.846191,4225.641113,4223.846191,4236.794922,4203.077148,4191.922852,4218.333496,4198.589844,2373.000000,4.000000,82.000000,,,,0.000000,4.000000,4.000000,4.000000,4.000000,4.000000,4.000000,4.000000,4.000000,4.000000,4.000000,4.000000,4.000000,4.000000,4.000000,100.000000,,,,,,,,,,,,,,,,
1644854767.217223,220.000000,0.000000,4215.512695,4215.384766,4200.384766,4161.538574,4215.512695,4202.948730,4212.820313,4223.077148,4221.025879,4245.128418,4218.205078,4187.307617,4227.051270,4204.230957,3603.000000,4.000000,82.000000,,,,0.000000,4.000000,4.000000,4.000000,4.000000,4.000000,4.000000,4.000000,4.000000,4.000000,4.000000,4.000000,4.000000,4.000000,4.000000,100.000000,,,,,,,,,,,,,,,,
1644854767.221163,221.000000,0.000000,4215.128418,4216.410156,4201.025879,4166.025879,4214.230957,4199.871582,4209.230957,4217.051270,4215.769043,4245.000000,4240.641113,4184.487305,4229.615234,4199.487305,3504.000000,4.000000,82.000000,,,,0.000000,4.000000,4.000000,4.000000,4.000000,4.000000,4.000000,4.000000,4.000000,4.000000,4.000000,4.000000,4.000000,4.000000,4.000000,100.000000,,,,,,,,,,,,,,,,
1644854767.225103,222.000000,0.000000,4215.384766,4214.102539,4200.000000,4176.794922,4209.743652,4197.051270,4205.897461,4211.153809,4211.153809,4236.153809,4252.563965,4186.282227,4224.102539,4188.589844,3532.000000,4.000000,82.000000,,,,0.000000,4.000000,4.000000,4.000000,4.000000,4.000000,4.000000,4.000000,4.000000,4.000000,4.000000,4.000000,4.000000,4.000000,4.000000,100.000000,,,,,,,,,,,,,,,,
1644854767.229044,223.000000,0.000000,4214.615234,4211.153809,4199.487305,4188.589844,4206.538574,4197.563965,4206.666504,4209.230957,4209.487305,4225.512695,4243.974121,4191.282227,4215.256348,4182.051270,2373.000000,4.000000,82.000000,,,,0.000000,4.000000,4.000000,4.000000,4.000000,4.000000,4.000000,4.000000,4.000000,4.000000,4.000000,4.000000,4.000000,4.000000,4.000000,100.000000,,,,,,,,,,,,,,,,
1644854767.232984,224.000000,0.000000,4213.077148,4210.000000,4200.641113,4195.897461,4206.922852,4202.051270,4211.410156,4212.051270,4210.512695,4220.384766,4219.615234,4195.512695,4210.384766,4185.641113,3603.000000,4.000000,82.000000,,,,0.000000,4.000000,4.000000,4.000000,4.000000,4.000000,4.000000,4.000000,4.000000,4.000000,4.000000,4.000000,4.000000,4.000000,4.000000,100.000000,,,,,,,,,,,,,,,,
1644854767.236924,225.000000,0.000000,4211.538574,4210.769043,4202.436035,4195.641113,4210.769043,4207.692383,4216.025879,4216.410156,4212.051270,4222.436035,4195.769043,4195.128418,4212.436035,4195.256348,3504.000000,4.000000,82.000000,,,,0.000000,4.000000,4.000000,4.000000,4.000000,4.000000,4.000000,4.000000,4.000000,4.000000,4.000000,4.000000,4.000000,4.000000,4.000000,100.000000,,,,,,,,,,,,,,,,
1644854767.240864,226.000000,0.000000,4209.743652,4210.000000,4202.436035,4189.358887,4214.615234,4210.641113,4216.922852,4217.820313,4212.436035,4227.692383,4186.410156,4190.000000,4216.794922,4200.256348,3532.000000,4.000000,82.000000,,,,0.000000,4.000000,4.000000,4.000000,4.000000,4.000000,4.000000,4.000000,4.000000,4.000000,4.000000,4.000000,4.000000,4.000000,4.000000,100.000000,,,,,,,,,,,,,,,,
1644854767.244804,227.000000,0.000000,4205.641113,4205.256348,4200.256348,4181.922852,4214.358887,4208.846191,4214.487305,4214.615234,4210.897461,4230.256348,4194.487305,4183.461426,4215.641113,4194.230957,2373.000000,4.000000,82.000000,,,,0.000000,4.000000,4.000000,4.000000,4.000000,4.000000,4.000000,4.000000,4.000000,4.000000,4.000000,4.000000,4.000000,4.000000,4.000000,100.000000,,,,,,,,,,,,,,,,
1644854767.248744,228.000000,0.000000,4199.358887,4198.333496,4197.820313,4178.333496,4208.205078,4204.487305,4212.179688,4209.102539,4207.692383,4227.051270,4211.538574,4179.230957,4205.641113,4179.358887,3603.000000,4.000000,82.000000,,,,0.000000,4.000000,4.000000,4.000000,4.000000,4.000000,4.000000,4.000000,4.000000,4.000000,4.000000,4.000000,4.000000,4.000000,4.000000,100.000000,,,,,,,,,,,,,,,,
1644854767.252684,229.000000,0.000000,4193.846191,4194.615234,4197.820313,4179.615234,4200.256348,4201.922852,4212.692383,4204.871582,4204.230957,4220.769043,4225.641113,4179.102539,4192.436035,4164.743652,3504.000000,4.000000,82.000000,,,,0.000000,4.000000,4.000000,4.000000,4.000000,4.000000,4.000000,4.000000,4.000000,4.000000,4.000000,4.000000,4.000000,4.000000,4.000000,100.000000,,,,,,,,,,,,,,,,
1644854767.256624,230.000000,0.000000,4193.974121,4198.717773,4200.641113,4182.307617,4197.307617,4204.487305,4214.358887,4204.230957,4202.436035,4217.051270,4230.769043,4182.563965,4186.922852,4159.230957,3532.000000,4.000000,82.000000,,,,0.000000,4.000000,4.000000,4.000000,4.000000,4.000000,4.000000,4.000000,4.000000,4.000000,4.000000,4.000000,4.000000,4.000000,4.000000,100.000000,,,,,,,,,,,,,,,,
1644854767.260564,231.000000,0.000000,4201.794922,4209.615234,4202.948730,4182.179688,4203.461426,4211.153809,4214.743652,4206.538574,4203.205078,4219.230957,4228.077148,4186.794922,4195.641113,4167.051270,2373.000000,4.000000,82.000000,,,,0.000000,4.000000,4.000000,4.000000,4.000000,4.000000,4.000000,4.000000,4.000000,4.000000,4.000000,4.000000,4.000000,4.000000,4.000000,100.000000,,,,,,,,,,,,,,,,
1644854767.264504,232.000000,0.000000,4214.230957,4220.897461,4202.051270,4177.692383,4215.128418,4217.051270,4213.846191,4209.743652,4205.512695,4225.641113,4223.717773,4189.230957,4214.102539,4185.128418,3603.000000,4.000000,82.000000,,,,0.000000,4.000000,4.000000,4.000000,4.000000,4.000000,4.000000,4.000000,4.000000,4.000000,4.000000,4.000000,4.000000,4.000000,4.000000,100.000000,,,,,,,,,,,,,,,,
1644854767.268445,233.000000,0.000000,4223.974121,4226.153809,4198.461426,4170.641113,4223.717773,4217.051270,4213.717773,4211.794922,4207.692383,4230.384766,4221.794922,4187.563965,4230.512695,4205.256348,3504.000000,4.000000,82.000000,,,,0.000000,4.000000,4.000000,4.000000,4.000000,4.000000,4.000000,4.000000,4.000000,4.000000,4.000000,4.000000,4.000000,4.000000,4.000000,100.000000,,,,,,,,,,,,,,,,
1644854767.272385,234.000000,0.000000,4225.000000,4224.102539,4195.512695,4164.743652,4222.563965,4210.512695,4214.871582,4211.922852,4209.230957,4229.102539,4222.307617,4182.563965,4235.512695,4218.077148,3532.000000,4.000000,82.000000,,,,0.000000,4.000000,4.000000,4.000000,4.000000,4.000000,4.000000,4.000000,4.000000,4.000000,4.000000,4.000000,4.000000,4.000000,4.000000,100.000000,,,,,,,,,,,,,,,,
1644854767.276325,235.000000,0.000000,4218.333496,4218.589844,4196.666504,4163.717773,4213.333496,4201.794922,4215.769043,4210.641113,4210.769043,4222.692383,4222.051270,4177.692383,4228.461426,4218.077148,2373.000000,4.000000,82.000000,1,1,1,0.000000,4.000000,4.000000,4.000000,4.000000,4.000000,4.000000,4.000000,4.000000,4.000000,4.000000,4.000000,4.000000,4.000000,4.000000,100.000000,,,,,,,,,,,,,,,,
1644854767.280265,236.000000,0.000000,4211.410156,4214.871582,4201.922852,4169.871582,4204.358887,4197.436035,4214.615234,4209.743652,4212.307617,4216.922852,4219.102539,4177.179688,4215.769043,4207.692383,3603.000000,4.000000,82.000000,,,,0.000000,4.000000,4.000000,4.000000,4.000000,4.000000,4.000000,4.000000,4.000000,4.000000,4.000000,4.000000,4.000000,4.000000,4.000000,100.000000,,,,,,,,,,,,,,,,
1644854767.284205,237.000000,0.000000,4212.051270,4215.256348,4208.077148,4184.358887,4202.307617,4200.000000,4212.179688,4210.641113,4212.948730,4216.666504,4214.358887,4182.436035,4205.384766,4196.025879,3504.000000,4.000000,82.000000,,,,0.000000,4.000000,4.000000,4.000000,4.000000,4.000000,4.000000,4.000000,4.000000,4.000000,4.000000,4.000000,4.000000,4.000000,4.000000,100.000000,,,,,,,,,,,,,,,,
1644854767.288145,238.000000,0.000000,4220.769043,4217.563965,4212.051270,4204.358887,4208.333496,4206.794922,4211.410156,4212.948730,4211.922852,4221.922852,4210.769043,4190.897461,4200.769043,4191.794922,3532.000000,4.000000,82.000000,,,,0.000000,4.000000,4.000000,4.000000,4.000000,4.000000,4.000000,4.000000,4.000000,4.000000,4.000000,4.000000,4.000000,4.000000,4.000000,100.000000,,,,,,,,,,,,,,,,
1644854767.291985,239.000000,0.000000,4229.743652,4218.333496,4212.948730,4222.820313,4217.307617,4212.179688,4213.077148,4214.871582,4210.897461,4228.717773,4210.384766,4198.077148,4200.000000,4195.641113,2373.000000,4.000000,82.000000,,,,0.000000,4.000000,4.000000,4.000000,4.000000,4.000000,4.000000,4.000000,4.000000,4.000000,4.000000,4.000000,4.000000,4.000000,4.000000,100.000000,,,,,,,,,,,,,,,,
1644854767.295925,240.000000,0.000000,4229.743652,4215.641113,4211.666504,4230.512695,4224.102539,4212.436035,4214.615234,4215.000000,4211.666504,4232.563965,4212.948730,4201.025879,4199.487305,4200.641113,3603.000000,4.000000,82.000000,,,,0.000000,4.000000,4.000000,4.000000,4.000000,4.000000,4.000000,4.000000,4.000000,4.000000,4.000000,4.000000,4.000000,4.000000,4.000000,100.000000,,,,,,,,,,,,,,,,
1644854767.299866,241.000000,0.000000,4219.358887,4211.794922,4209.871582,4223.333496,4225.897461,4208.717773,4213.461426,4213.461426,4214.358887,4232.692383,4217.307617,4198.974121,4198.717773,4199.615234,3504.000000,4.000000,82.000000,,,,0.000000,4.000000,4.000000,4.000000,4.000000,4.000000,4.000000,4.000000,4.000000,4.000000,4.000000,4.000000,4.000000,4.000000,4.000000,100.000000,,,,,,,,,,,,,,,,
1644854767.303806,242.000000,0.000000,4207.307617,4210.641113,4208.461426,4206.410156,4223.846191,4205.256348,4210.000000,4211.922852,4217.307617,4230.641113,4222.692383,4193.846191,4201.153809,4192.179688,3532.000000,4.000000,82.000000,,,,0.000000,4.000000,4.000000,4.000000,4.000000,4.000000,4.000000,4.000000,4.000000,4.000000,4.000000,4.000000,4.000000,4.000000,4.000000,100.000000,,,,,,,,,,,,,,,,
1644854767.307746,243.000000,0.000000,4205.256348,4215.000000,4207.948730,4191.153809,4220.897461,4205.384766,4208.589844,4212.179688,4218.077148,4227.948730,4228.205078,4188.077148,4209.871582,4184.615234,2373.000000,4.000000,82.000000,,,,0.000000,4.000000,4.000000,4.000000,4.000000,4.000000,4.000000,4.000000,4.000000,4.000000,4.000000,4.000000,4.000000,4.000000,4.000000,100.000000,,,,,,,,,,,,,,,,
1644854767.311786,244.000000,0.000000,4217.820313,4223.846191,4207.948730,4186.282227,4220.128418,4210.128418,4211.410156,4214.102539,4216.922852,4225.641113,4231.922852,4184.358887,4222.948730,4182.436035,3603.000000,4.000000,82.000000,,,,0.000000,4.000000,4.000000,4.000000,4.000000,4.000000,4.000000,4.000000,4.000000,4.000000,4.000000,4.000000,4.000000,4.000000,4.000000,100.000000,,,,,,,,,,,,,,,,
1644854767.315726,245.000000,0.000000,4237.307617,4233.333496,4208.205078,4191.794922,4222.563965,4217.179688,4216.282227,4216.282227,4216.282227,4224.358887,4231.410156,4183.589844,4233.461426,4186.410156,3504.000000,4.000000,82.000000,,,,0.000000,4.000000,4.000000,4.000000,4.000000,4.000000,4.000000,4.000000,4.000000,4.000000,4.000000,4.000000,4.000000,4.000000,4.000000,100.000000,,,,,,,,,,,,,,,,
1644854767.319666,246.000000,0.000000,4251.025879,4239.487305,4207.948730,4200.256348,4226.538574,4222.307617,4218.846191,4217.307617,4217.948730,4225.128418,4226.153809,4185.769043,4234.487305,4192.948730,3532.000000,4.000000,82.000000,,,,0.000000,4.000000,4.000000,4.000000,4.000000,4.000000,4.000000,4.000000,4.000000,4.000000,4.000000,4.000000,4.000000,4.000000,4.000000,100.000000,,,,,,,,,,,,,,,,
1644854767.323606,247.000000,0.000000,4251.025879,4240.769043,4206.666504,4203.974121,4228.717773,4222.051270,4217.436035,4216.666504,4220.641113,4227.948730,4219.615234,4188.589844,4226.025879,4199.743652,2373.000000,4.000000,82.000000,,,,0.000000,4.000000,4.000000,4.000000,4.000000,4.000000,4.000000,4.000000,4.000000,4.000000,4.000000,4.000000,4.000000,4.000000,4.000000,100.000000,,,,,,,,,,,,,,,,
1644854767.327546,248.000000,0.000000,4240.384766,4237.820313,4205.128418,4201.410156,4226.794922,4215.769043,4214.358887,4214.871582,4221.282227,4232.051270,4217.436035,4189.487305,4215.512695,4206.282227,3603.000000,4.000000,82.000000,,,,0.000000,4.000000,4.000000,4.000000,4.000000,4.000000,4.000000,4.000000,4.000000,4.000000,4.000000,4.000000,4.000000,4.000000,4.000000,100.000000,,,,,,,,,,,,,,,,
1644854767.331486,249.000000,0.000000,4228.846191,4232.563965,4203.846191,4195.769043,4221.922852,4206.922852,4212.692383,4213.333496,4218.589844,4236.025879,4222.948730,4187.179688,4212.692383,4212.820313,3504.000000,4.000000,82.000000,,,,0.000000,4.000000,4.000000,4.000000,4.000000,4.000000,4.000000,4.000000,4.000000,4.000000,4.000000,4.000000,4.000000,4.000000,4.000000,100.000000,,,,,,,,,,,,,,,,
1644854767.335326,250.000000,0.000000,4224.102539,4227.051270,4203.333496,4192.051270,4218.333496,4200.769043,4213.333496,4212.563965,4214.743652,4238.333496,4233.205078,4183.846191,4221.025879,4217.820313,3532.000000,4.000000,82.000000,,,,0.000000,4.000000,4.000000,4.000000,4.000000,4.000000,4.000000,4.000000,4.000000,4.000000,4.000000,4.000000,4.000000,4.000000,4.000000,100.000000,,,,,,,,,,,,,,,,
1644854767.339267,251.000000,0.000000,4225.641113,4222.692383,4204.230957,4193.333496,4218.974121,4200.769043,4214.615234,4213.333496,4213.846191,4238.846191,4241.153809,4183.846191,4234.615234,4219.615234,2373.000000,4.000000,82.000000,,,,0.000000,4.000000,4.000000,4.000000,4.000000,4.000000,4.000000,4.000000,4.000000,4.000000,4.000000,4.000000,4.000000,4.000000,4.000000,100.000000,,,,,,,,,,,,,,,,
1644854767.343207,252.000000,0.000000,4227.179688,4220.128418,4206.410156,4199.743652,4222.436035,4206.153809,4214.871582,4215.384766,4217.563965,4238.589844,4242.820313,4188.974121,4243.974121,4218.077148,3603.000000,4.000000,82.000000,,,,0.000000,4.000000,4.000000,4.000000,4.000000,4.000000,4.000000,4.000000,4.000000,4.000000,4.000000,4.000000,4.000000,4.000000,4.000000,100.000000,,,,,,,,,,,,,,,,
1644854767.347047,253.000000,0.000000,4223.461426,4218.717773,4209.102539,4207.436035,4223.461426,4212.436035,4214.487305,4217.820313,4223.333496,4239.487305,4241.153809,4196.794922,4242.948730,4215.000000,3504.000000,4.000000,82.000000,,,,0.000000,4.000000,4.000000,4.000000,4.000000,4.000000,4.000000,4.000000,4.000000,4.000000,4.000000,4.000000,4.000000,4.000000,4.000000,100.000000,,,,,,,,,,,,,,,,
1644854767.351087,254.000000,0.000000,4214.871582,4217.179688,4210.128418,4211.153809,4217.948730,4215.256348,4213.974121,4219.102539,4227.307617,4242.051270,4240.769043,4201.282227,4233.589844,4211.538574,3532.000000,4.000000,82.000000,,,,0.000000,4.000000,4.000000,4.000000,4.000000,4.000000,4.000000,4.000000,4.000000,4.000000,4.000000,4.000000,4.000000,4.000000,4.000000,100.000000,,,,,,,,,,,,,,,,
1644854767.355027,255.000000,0.000000,4207.563965,4214.871582,4207.563965,4207.436035,4206.666504,4213.205078,4213.461426,4218.461426,4227.051270,4243.846191,4241.794922,4198.974121,4223.846191,4206.538574,112.000000,4.000000,82.000000,,,,0.000000,4.000000,4.000000,4.000000,4.000000,4.000000,4.000000,4.000000,4.000000,4.000000,4.000000,4.000000,4.000000,4.000000,4.000000,100.000000,,,,,,,,,,,,,,,,
1644854767.358967,0.000000,0.000000,4208.461426,4212.307617,4202.692383,4198.077148,4196.025879,4208.717773,4212.563965,4216.410156,4223.589844,4241.922852,4239.102539,4191.666504,4221.282227,4200.384766,3419.000000,4.000000,82.000000,,,,0.000000,4.000000,4.000000,4.000000,4.000000,4.000000,4.000000,4.000000,4.000000,4.000000,4.000000,4.000000,4.000000,4.000000,4.000000,100.000000,1.000000,75.000000,4.000000,4.000000,4.000000,4.000000,4.000000,4.000000,3.000000,4.000000,4.000000,4.000000,3.000000,4.000000,3.000000,4.000000
1644854767.362907,1.000000,0.000000,4218.205078,4209.743652,4198.589844,4188.717773,4193.333496,4205.512695,4211.922852,4214.487305,4220.256348,4235.769043,4228.846191,4184.615234,4227.692383,4196.410156,3319.000000,4.000000,82.000000,,,,0.000000,4.000000,4.000000,4.000000,4.000000,4.000000,4.000000,4.000000,4.000000,4.000000,4.000000,4.000000,4.000000,4.000000,4.000000,100.000000,,,,,,,,,,,,,,,,
1644854767.366847,2.000000,0.000000,4230.128418,4206.538574,4198.077148,4184.230957,4202.179688,4205.512695,4212.436035,4214.230957,4218.974121,4227.563965,4214.230957,4182.179688,4238.333496,4198.846191,3566.000000,4.000000,82.000000,,,,0.000000,4.000000,4.000000,4.000000,4.000000,4.000000,4.000000,4.000000,4.000000,4.000000,4.000000,4.000000,4.000000,4.000000,4.000000,100.000000,,,,,,,,,,,,,,,,
1644854767.370787,3.000000,0.000000,4235.897461,4202.051270,4200.769043,4186.666504,4218.974121,4208.077148,4214.358887,4216.025879,4219.358887,4221.666504,4205.512695,4184.487305,4246.025879,4207.307617,3243.000000,4.000000,82.000000,,,,0.000000,4.000000,4.000000,4.000000,4.000000,4.000000,4.000000,4.000000,4.000000,4.000000,4.000000,4.000000,4.000000,4.000000,4.000000,100.000000,,,,,,,,,,,,,,,,
1644854767.374728,4.000000,0.000000,4232.179688,4197.051270,4203.846191,4194.743652,4234.615234,4210.256348,4215.512695,4218.205078,4219.230957,4220.897461,4212.179688,4188.333496,4246.153809,4215.384766,3492.000000,4.000000,82.000000,,,,0.000000,4.000000,4.000000,4.000000,4.000000,4.000000,4.000000,4.000000,4.000000,4.000000,4.000000,4.000000,4.000000,4.000000,4.000000,100.000000,,,,,,,,,,,,,,,,
1644854767.378668,5.000000,0.000000,4222.307617,4195.128418,4204.487305,4204.102539,4240.512695,4210.128418,4213.974121,4218.846191,4218.205078,4224.743652,4233.205078,4190.256348,4238.717773,4215.897461,3376.000000,4.000000,82.000000,,,,0.000000,4.000000,4.000000,4.000000,4.000000,4.000000,4.000000,4.000000,4.000000,4.000000,4.000000,4.000000,4.000000,4.000000,4.000000,100.000000,,,,,,,,,,,,,,,,
1644854767.382608,6.000000,0.000000,4212.436035,4198.717773,4202.307617,4210.128418,4234.102539,4207.948730,4210.256348,4217.307617,4218.333496,4230.256348,4255.512695,4189.615234,4227.948730,4208.077148,2325.000000,4.000000,82.000000,,,,0.000000,4.000000,4.000000,4.000000,4.000000,4.000000,4.000000,4.000000,4.000000,4.000000,4.000000,4.000000,4.000000,4.000000,4.000000,100.000000,,,,,,,,,,,,,,,,
1644854767.386548,7.000000,0.000000,4206.922852,4207.307617,4199.358887,4210.000000,4221.410156,4206.282227,4208.333496,4215.256348,4220.897461,4235.000000,4263.974121,4188.974121,4218.461426,4197.820313,3138.000000,4.000000,82.000000,,,,0.000000,4.000000,4.000000,4.000000,4.000000,4.000000,4.000000,4.000000,4.000000,4.000000,4.000000,4.000000,4.000000,4.000000,4.000000,100.000000,,,,,,,,,,,,,,,,
1644854767.390488,8.000000,0.000000,4207.307617,4217.820313,4198.205078,4204.743652,4211.922852,4208.077148,4210.641113,4214.743652,4225.128418,4239.102539,4254.358887,4191.153809,4214.102539,4192.692383,3093.000000,4.000000,82.000000,,,,0.000000,4.000000,4.000000,4.000000,4.000000,4.000000,4.000000,4.000000,4.000000,4.000000,4.000000,4.000000,4.000000,4.000000,4.000000,100.000000,,,,,,,,,,,,,,,,
1644854767.394428,9.000000,0.000000,4212.692383,4226.922852,4200.384766,4198.333496,4211.410156,4213.333496,4215.897461,4216.666504,4228.205078,4243.974121,4237.307617,4196.282227,4216.794922,4196.025879,3511.000000,4.000000,82.000000,2,1,1,0.000000,4.000000,4.000000,4.000000,4.000000,4.000000,4.000000,4.000000,4.000000,4.000000,4.000000,4.000000,4.000000,4.000000,4.000000,100.000000,,,,,,,,,,,,,,,,
1644854767.398368,10.000000,0.000000,4221.025879,4232.948730,4205.512695,4194.871582,4217.307617,4219.102539,4219.871582,4219.487305,4228.077148,4250.384766,4229.230957,4201.410156,4225.512695,4205.512695,3260.000000,4.000000,82.000000,,,,0.000000,4.000000,4.000000,4.000000,4.000000,4.000000,4.000000,4.000000,4.000000,4.000000,4.000000,4.000000,4.000000,4.000000,4.000000,100.000000,,,,,,,,,,,,,,,,
1644854767.402308,11.000000,0.000000,4228.461426,4235.256348,4212.307617,4195.128418,4222.820313,4222.051270,4220.256348,4221.153809,4225.000000,4256.153809,4236.666504,4203.461426,4235.384766,4216.153809,2367.000000,4.000000,82.000000,,,,0.000000,4.000000,4.000000,4.000000,4.000000,4.000000,4.000000,4.000000,4.000000,4.000000,4.000000,4.000000,4.000000,4.000000,4.000000,100.000000,,,,,,,,,,,,,,,,
1644854767.406248,12.000000,0.000000,4232.051270,4233.846191,4218.077148,4196.410156,4223.077148,4221.410156,4218.717773,4220.769043,4220.897461,4258.717773,4251.410156,4201.282227,4239.615234,4223.461426,3491.000000,4.000000,82.000000,,,,0.000000,4.000000,4.000000,4.000000,4.000000,4.000000,4.000000,4.000000,4.000000,4.000000,4.000000,4.000000,4.000000,4.000000,4.000000,100.000000,,,,,,,,,,,,,,,,
1644854767.410188,13.000000,0.000000,4231.666504,4229.102539,4220.128418,4196.025879,4218.205078,4219.102539,4218.461426,4219.487305,4219.102539,4255.897461,4257.692383,4197.307617,4235.641113,4225.128418,3472.000000,4.000000,82.000000,,,,0.000000,4.000000,4.000000,4.000000,4.000000,4.000000,4.000000,4.000000,4.000000,4.000000,4.000000,4.000000,4.000000,4.000000,4.000000,100.000000,,,,,,,,,,,,,,,,
1644854767.414228,14.000000,0.000000,4229.230957,4222.820313,4217.179688,4193.974121,4212.948730,4218.077148,4220.000000,4218.333496,4220.384766,4247.948730,4246.410156,4194.743652,4227.179688,4220.769043,3260.000000,4.000000,82.000000,,,,0.000000,4.000000,4.000000,4.000000,4.000000,4.000000,4.000000,4.000000,4.000000,4.000000,4.000000,4.000000,4.000000,4.000000,4.000000,100.000000,,,,,,,,,,,,,,,,
1644854767.418169,15.000000,0.000000,4226.025879,4217.179688,4210.256348,4193.846191,4211.538574,4218.974121,4220.769043,4217.436035,4222.820313,4236.025879,4221.410156,4194.615234,4221.282227,4211.666504,2367.000000,4.000000,82.000000,,,,0.000000,4.000000,4.000000,4.000000,4.000000,4.000000,4.000000,4.000000,4.000000,4.000000,4.000000,4.000000,4.000000,4.000000,4.000000,100.000000,,,,,,,,,,,,,,,,
1644854767.422109,16.000000,0.000000,4221.410156,4213.461426,4202.436035,4197.692383,4214.102539,4220.128418,4218.846191,4216.282227,4223.461426,4222.179688,4197.051270,4194.487305,4220.769043,4202.051270,3491.000000,4.000000,82.000000,,,,0.000000,4.000000,4.000000,4.000000,4.000000,4.000000,4.000000,4.000000,4.000000,4.000000,4.000000,4.000000,4.000000,4.000000,4.000000,100.000000,,,,,,,,,,,,,,,,
1644854767.426049,17.000000,0.000000,4213.974121,4211.666504,4196.922852,4202.948730,4218.205078,4219.487305,4215.000000,4214.743652,4220.641113,4209.102539,4186.922852,4191.666504,4221.153809,4196.282227,3472.000000,4.000000,82.000000,,,,0.000000,4.000000,4.000000,4.000000,4.000000,4.000000,4.000000,4.000000,4.000000,4.000000,4.000000,4.000000,4.000000,4.000000,4.000000,100.000000,,,,,,,,,,,,,,,,
1644854767.429989,18.000000,0.000000,4205.128418,4211.538574,4195.512695,4204.230957,4221.410156,4216.410156,4212.563965,4213.077148,4216.153809,4200.512695,4194.358887,4186.666504,4215.897461,4195.384766,3260.000000,4.000000,82.000000,,,,0.000000,4.000000,4.000000,4.000000,4.000000,4.000000,4.000000,4.000000,4.000000,4.000000,4.000000,4.000000,4.000000,4.000000,4.000000,100.000000,,,,,,,,,,,,,,,,
1644854767.433929,19.000000,0.000000,4198.846191,4213.333496,4198.589844,4198.717773,4222.820313,4212.563965,4212.436035,4212.051270,4213.077148,4201.153809,4212.436035,4183.717773,4205.000000,4196.794922,2367.000000,4.000000,82.000000,,,,0.000000,4.000000,4.000000,4.000000,4.000000,4.000000,4.000000,4.000000,4.000000,4.000000,4.000000,4.000000,4.000000,4.000000,4.000000,100.000000,,,,,,,,,,,,,,,,
1644854767.437869,20.000000,0.000000,4198.461426,4216.666504,4204.358887,4189.358887,4223.077148,4210.256348,4213.077148,4212.563965,4213.589844,4212.820313,4230.641113,4185.769043,4196.666504,4197.179688,3491.000000,4.000000,82.000000,,,,0.000000,4.000000,4.000000,4.000000,4.000000,4.000000,4.000000,4.000000,4.000000,4.000000,4.000000,4.000000,4.000000,4.000000,4.000000,100.000000,,,,,,,,,,,,,,,,
1644854767.441809,21.000000,0.000000,4204.743652,4220.256348,4210.256348,4182.179688,4222.820313,4210.769043,4212.948730,4214.358887,4217.051270,4230.769043,4241.794922,4192.179688,4200.769043,4196.794922,3472.000000,4.000000,82.000000,,,,0.000000,4.000000,4.000000,4.000000,4.000000,4.000000,4.000000,4.000000,4.000000,4.000000,4.000000,4.000000,4.000000,4.000000,4.000000,100.000000,,,,,,,,,,,,,,,,
1644854767.445749,22.000000,0.000000,4215.128418,4222.820313,4214.871582,4182.307617,4222.179688,4213.205078,4212.948730,4216.922852,4221.282227,4245.512695,4244.743652,4198.974121,4218.846191,4198.589844,3260.000000,4.000000,82.000000,,,,0.000000,4.000000,4.000000,4.000000,4.000000,4.000000,4.000000,4.000000,4.000000,4.000000,4.000000,4.000000,4.000000,4.000000,4.000000,100.000000,,,,,,,,,,,,,,,,
1644854767.449689,23.000000,0.000000,4225.384766,4224.230957,4217.948730,4190.384766,4220.769043,4216.025879,4214.487305,4219.358887,4223.461426,4248.461426,4241.410156,4202.436035,4241.282227,4203.589844,2367.000000,4.000000,82.000000,,,,0.000000,4.000000,4.000000,4.000000,4.000000,4.000000,4.000000,4.000000,4.000000,4.000000,4.000000,4.000000,4.000000,4.000000,4.000000,100.000000,,,,,,,,,,,,,,,,
1644854767.453630,24.000000,0.000000,4232.563965,4225.512695,4220.256348,4200.512695,4217.436035,4217.051270,4216.794922,4220.641113,4222.692383,4239.102539,4233.461426,4201.794922,4254.871582,4209.230957,3491.000000,4.000000,82.000000,,,,0.000000,4.000000,4.000000,4.000000,4.000000,4.000000,4.000000,4.000000,4.000000,4.000000,4.000000,4.000000,4.000000,4.000000,4.000000,100.000000,,,,,,,,,,,,,,,,
1644854767.457570,25.000000,0.000000,4235.512695,4227.692383,4221.153809,4205.256348,4211.922852,4215.512695,4216.410156,4219.615234,4220.128418,4225.128418,4222.436035,4198.846191,4251.794922,4211.282227,3472.000000,4.000000,82.000000,,,,0.000000,4.000000,4.000000,4.000000,4.000000,4.000000,4.000000,4.000000,4.000000,4.000000,4.000000,4.000000,4.000000,4.000000,4.000000,100.000000,,,,,,,,,,,,,,,,
1644854767.461510,26.000000,0.000000,4235.641113,4229.743652,4220.256348,4201.410156,4206.025879,4212.051270,4212.307617,4216.153809,4217.820313,4216.922852,4211.666504,4196.153809,4235.769043,4209.102539,3260.000000,4.000000,82.000000,,,,0.000000,4.000000,4.000000,4.000000,4.000000,4.000000,4.000000,4.000000,4.000000,4.000000,4.000000,4.000000,4.000000,4.000000,4.000000,100.000000,,,,,,,,,,,,,,,,
1644854767.465450,27.000000,0.000000,4235.256348,4230.384766,4218.333496,4194.871582,4203.333496,4208.589844,4207.948730,4212.563965,4217.051270,4218.974121,4206.922852,4195.641113,4218.461426,4206.410156,2367.000000,4.000000,82.000000,,,,0.000000,4.000000,4.000000,4.000000,4.000000,4.000000,4.000000,4.000000,4.000000,4.000000,4.000000,4.000000,4.000000,4.000000,4.000000,100.000000,,,,,,,,,,,,,,,,
1644854767.469390,28.000000,0.000000,4236.538574,4229.487305,4217.820313,4194.743652,4207.051270,4207.436035,4207.563965,4211.922852,4218.077148,4228.077148,4212.820313,4197.692383,4210.512695,4208.589844,3491.000000,4.000000,82.000000,,,,0.000000,4.000000,4.000000,4.000000,4.000000,4.000000,4.000000,4.000000,4.000000,4.000000,4.000000,4.000000,4.000000,4.000000,4.000000,100.000000,,,,,,,,,,,,,,,,
1644854767.473330,29.000000,0.000000,4238.974121,4228.974121,4220.769043,4204.615234,4217.436035,4209.487305,4212.179688,4215.512695,4220.769043,4236.282227,4228.461426,4201.282227,4215.384766,4216.794922,3472.000000,4.000000,82.000000,,,,0.000000,4.000000,4.000000,4.000000,4.000000,4.000000,4.000000,4.000000,4.000000,4.000000,4.000000,4.000000,4.000000,4.000000,4.000000,100.000000,,,,,,,,,,,,,,,,
1644854767.477270,30.000000,0.000000,4241.025879,4230.128418,4226.538574,4217.563965,4230.384766,4213.717773,4217.820313,4221.538574,4224.230957,4238.077148,4246.025879,4204.871582,4228.333496,4226.666504,3260.000000,4.000000,82.000000,,,,0.000000,4.000000,4.000000,4.000000,4.000000,4.000000,4.000000,4.000000,4.000000,4.000000,4.000000,4.000000,4.000000,4.000000,4.000000,100.000000,,,,,,,,,,,,,,,,
1644854767.481210,31.000000,0.000000,4241.025879,4232.820313,4232.179688,4221.794922,4239.102539,4217.820313,4220.897461,4226.282227,4226.666504,4233.589844,4256.153809,4207.179688,4240.384766,4231.153809,2367.000000,4.000000,82.000000,,,,0.000000,4.000000,4.000000,4.000000,4.000000,4.000000,4.000000,4.000000,4.000000,4.000000,4.000000,4.000000,4.000000,4.000000,4.000000,100.000000,,,,,,,,,,,,,,,,
1644854767.485150,32.000000,0.000000,4239.487305,4235.128418,4233.974121,4212.179688,4237.436035,4220.000000,4221.025879,4227.051270,4226.153809,4227.179688,4253.205078,4207.436035,4244.871582,4227.179688,0.000000,4.000000,82.000000,,,,0.000000,4.000000,4.000000,4.000000,4.000000,4.000000,4.000000,4.000000,4.000000,4.000000,4.000000,4.000000,4.000000,4.000000,4.000000,100.000000,,,,,,,,,,,,,,,,
1644854767.489190,33.000000,0.000000,4237.692383,4234.743652,4230.769043,4194.743652,4225.128418,4219.230957,4220.256348,4223.846191,4222.436035,4223.589844,4240.128418,4205.897461,4240.256348,4216.794922,0.000000,4.000000,82.000000,,,,0.000000,4.000000,4.000000,4.000000,4.000000,4.000000,4.000000,4.000000,4.000000,4.000000,4.000000,4.000000,4.000000,4.000000,4.000000,100.000000,,,,,,,,,,,,,,,,
1644854767.493130,34.000000,0.000000,4235.897461,4230.512695,4224.102539,4182.563965,4210.000000,4216.538574,4219.743652,4219.358887,4217.692383,4225.256348,4225.769043,4203.717773,4230.128418,4205.897461,0.000000,4.000000,82.000000,,,,0.000000,4.000000,4.000000,4.000000,4.000000,4.000000,4.000000,4.000000,4.000000,4.000000,4.000000,4.000000,4.000000,4.000000,4.000000,100.000000,,,,,,,,,,,,,,,,
1644854767.497071,35.000000,0.000000,4234.102539,4223.461426,4217.820313,4184.615234,4202.179688,4213.461426,4218.846191,4217.307617,4215.384766,4230.641113,4218.333496,4201.922852,4220.384766,4199.615234,0.000000,4.000000,82.000000,,,,0.000000,4.000000,4.000000,4.000000,4.000000,4.000000,4.000000,4.000000,4.000000,4.000000,4.000000,4.000000,4.000000,4.000000,4.000000,100.000000,,,,,,,,,,,,,,,,
1644854767.501011,36.000000,0.000000,4231.922852,4217.051270,4215.641113,4197.563965,4205.256348,4211.666504,4216.794922,4219.358887,4217.820313,4235.641113,4220.384766,4200.897461,4216.282227,4201.025879,0.000000,4.000000,82.000000,3,1,1,0.000000,4.000000,4.000000,4.000000,4.000000,4.000000,4.000000,4.000000,4.000000,4.000000,4.000000,4.000000,4.000000,4.000000,4.000000,100.000000,,,,,,,,,,,,,,,,
1644854767.504951,37.000000,0.000000,4229.230957,4214.487305,4219.230957,4208.974121,4213.205078,4212.051270,4215.512695,4225.000000,4223.717773,4236.153809,4227.436035,4200.128418,4218.974121,4209.615234,0.000000,4.000000,82.000000,,,,0.000000,4.000000,4.000000,4.000000,4.000000,4.000000,4.000000,4.000000,4.000000,4.000000,4.000000,4.000000,4.000000,4.000000,4.000000,100.000000,,,,,,,,,,,,,,,,
1644854767.508891,38.000000,0.000000,4225.769043,4216.666504,4226.538574,4208.205078,4216.794922,4213.846191,4217.307617,4231.410156,4229.358887,4232.307617,4232.307617,4199.358887,4226.025879,4220.769043,0.000000,4.000000,82.000000,,,,0.000000,4.000000,4.000000,4.000000,4.000000,4.000000,4.000000,4.000000,4.000000,4.000000,4.000000,4.000000,4.000000,4.000000,4.000000,100.000000,,,,,,,,,,,,,,,,
1644854767.512831,39.000000,0.000000,4222.179688,4221.153809,4233.589844,4195.897461,4212.820313,4215.641113,4221.794922,4235.512695,4231.153809,4227.692383,4231.794922,4199.102539,4232.051270,4227.948730,0.000000,4.000000,82.000000,,,,0.000000,4.000000,4.000000,4.000000,4.000000,4.000000,4.000000,4.000000,4.000000,4.000000,4.000000,4.000000,4.000000,4.000000,4.000000,100.000000,,,,,,,,,,,,,,,,
1644854767.516771,40.000000,0.000000,4220.769043,4223.717773,4236.666504,4182.820313,4206.794922,4216.538574,4225.384766,4236.153809,4228.974121,4227.307617,4229.358887,4200.512695,4233.589844,4226.922852,0.000000,4.000000,82.000000,,,,0.000000,4.000000,4.000000,4.000000,4.000000,4.000000,4.000000,4.000000,4.000000,4.000000,4.000000,4.000000,4.000000,4.000000,4.000000,100.000000,,,,,,,,,,,,,,,,
1644854767.520711,41.000000,0.000000,4224.358887,4222.307617,4234.871582,4179.743652,4207.051270,4216.410156,4225.384766,4233.589844,4225.512695,4232.820313,4231.282227,4203.205078,4231.153809,4219.487305,0.000000,4.000000,82.000000,,,,0.000000,4.000000,4.000000,4.000000,4.000000,4.000000,4.000000,4.000000,4.000000,4.000000,4.000000,4.000000,4.000000,4.000000,4.000000,100.000000,,,,,,,,,,,,,,,,
1644854767.524651,42.000000,0.000000,4233.333496,4218.589844,4230.384766,4188.589844,4215.128418,4215.897461,4222.436035,4229.358887,4222.692383,4240.128418,4239.487305,4205.769043,4227.820313,4211.794922,0.000000,4.000000,82.000000,,,,0.000000,4.000000,4.000000,4.000000,4.000000,4.000000,4.000000,4.000000,4.000000,4.000000,4.000000,4.000000,4.000000,4.000000,4.000000,100.000000,,,,,,,,,,,,,,,,
1644854767.528591,43.000000,0.000000,4243.589844,4216.410156,4226.410156,4202.179688,4224.230957,4215.128418,4219.102539,4225.256348,4220.384766,4243.077148,4248.974121,4206.410156,4225.769043,4209.102539,0.000000,4.000000,82.000000,,,,0.000000,4.000000,4.000000,4.000000,4.000000,4.000000,4.000000,4.000000,4.000000,4.000000,4.000000,4.000000,4.000000,4.000000,4.000000,100.000000,,,,,,,,,,,,,,,,
1644854767.532532,44.000000,0.000000,4249.102539,4216.794922,4224.102539,4210.384766,4225.769043,4213.974121,4217.307617,4222.307617,4217.307617,4237.820313,4252.179688,4203.974121,4224.743652,4210.897461,0.000000,4.000000,82.000000,4,1,1,0.000000,4.000000,4.000000,4.000000,4.000000,4.000000,4.000000,4.000000,4.000000,4.000000,4.000000,4.000000,4.000000,4.000000,4.000000,100.000000,,,,,,,,,,,,,,,,
1644854767.536472,45.000000,0.000000,4246.794922,4217.436035,4222.051270,4208.589844,4218.205078,4212.436035,4216.153809,4219.743652,4213.333496,4226.153809,4246.410156,4199.487305,4222.436035,4212.307617,0.000000,4.000000,82.000000,,,,0.000000,4.000000,4.000000,4.000000,4.000000,4.000000,4.000000,4.000000,4.000000,4.000000,4.000000,4.000000,4.000000,4.000000,4.000000,100.000000,,,,,,,,,,,,,,,,
1644854767.540412,46.000000,0.000000,4239.102539,4214.743652,4218.974121,4200.256348,4208.717773,4211.282227,4214.743652,4216.794922,4209.487305,4214.358887,4235.128418,4194.871582,4218.077148,4209.358887,0.000000,4.000000,82.000000,,,,0.000000,4.000000,4.000000,4.000000,4.000000,4.000000,4.000000,4.000000,4.000000,4.000000,4.000000,4.000000,4.000000,4.000000,4.000000,100.000000,,,,,,,,,,,,,,,,
1644854767.544352,47.000000,0.000000,4231.410156,4208.974121,4215.256348,4192.051270,4205.769043,4211.410156,4214.230957,4215.000000,4207.179688,4208.974121,4225.000000,4192.692383,4213.333496,4203.461426,0.000000,4.000000,82.000000,,,,0.000000,4.000000,4.000000,4.000000,4.000000,4.000000,4.000000,4.000000,4.000000,4.000000,4.000000,4.000000,4.000000,4.000000,4.000000,100.000000,,,,,,,,,,,,,,,,
1644854767.548292,48.000000,0.000000,4228.077148,4203.974121,4213.205078,4188.205078,4211.538574,4212.820313,4215.769043,4215.769043,4208.077148,4212.179688,4219.871582,4193.717773,4212.179688,4200.641113,0.000000,4.000000,82.000000,,,,0.000000,4.000000,4.000000,4.000000,4.000000,4.000000,4.000000,4.000000,4.000000,4.000000,4.000000,4.000000,4.000000,4.000000,4.000000,100.000000,,,,,,,,,,,,,,,,
1644854767.552232,49.000000,0.000000,4228.205078,4203.717773,4214.102539,4187.820313,4220.384766,4214.230957,4218.974121,4219.230957,4212.563965,4221.153809,4218.846191,4196.666504,4217.051270,4203.461426,0.000000,4.000000,82.000000,,,,0.000000,4.000000,4.000000,4.000000,4.000000,4.000000,4.000000,4.000000,4.000000,4.000000,4.000000,4.000000,4.000000,4.000000,4.000000,100.000000,,,,,,,,,,,,,,,,
1644854767.556172,50.000000,0.000000,4227.436035,4208.461426,4217.436035,4187.692383,4223.333496,4214.487305,4221.025879,4223.461426,4218.461426,4229.615234,4217.948730,4199.358887,4225.384766,4208.205078,0.000000,4.000000,82.000000,,,,0.000000,4.000000,4.000000,4.000000,4.000000,4.000000,4.000000,4.000000,4.000000,4.000000,4.000000,4.000000,4.000000,4.000000,4.000000,100.000000,,,,,,,,,,,,,,,,
1644854767.560012,51.000000,0.000000,4221.538574,4214.358887,4220.897461,4185.769043,4216.282227,4212.948730,4219.487305,4225.641113,4222.307617,4232.563965,4214.743652,4199.871582,4230.000000,4208.974121,0.000000,4.000000,82.000000,,,,0.000000,4.000000,4.000000,4.000000,4.000000,4.000000,4.000000,4.000000,4.000000,4.000000,4.000000,4.000000,4.000000,4.000000,4.000000,100.000000,,,,,,,,,,,,,,,,
1644854767.563952,52.000000,0.000000,4211.282227,4216.282227,4222.563965,4182.307617,4202.820313,4209.871582,4215.128418,4224.871582,4221.538574,4228.846191,4209.743652,4197.820313,4224.358887,4204.102539,0.000000,4.000000,82.000000,,,,0.000000,4.000000,4.000000,4.000000,4.000000,4.000000,4.000000,4.000000,4.000000,4.000000,4.000000,4.000000,4.000000,4.000000,4.000000,100.000000,,,,,,,,,,,,,,,,
1644854767.567893,53.000000,0.000000,4201.666504,4210.897461,4221.794922,4179.871582,4192.820313,4206.794922,4211.538574,4221.922852,4217.179688,4221.794922,4206.282227,4193.846191,4207.820313,4197.436035,0.000000,4.000000,82.000000,,,,0.000000,4.000000,4.000000,4.000000,4.000000,4.000000,4.000000,4.000000,4.000000,4.000000,4.000000,4.000000,4.000000,4.000000,4.000000,100.000000,,,,,,,,,,,,,,,,
1644854767.571833,54.000000,0.000000,4199.487305,4200.128418,4219.743652,4180.512695,4194.743652,4205.641113,4211.282227,4218.846191,4212.563965,4216.538574,4207.563965,4189.487305,4189.230957,4194.102539,0.000000,4.000000,82.000000,,,,0.000000,4.000000,4.000000,4.000000,4.000000,4.000000,4.000000,4.000000,4.000000,4.000000,4.000000,4.000000,4.000000,4.000000,4.000000,100.000000,,,,,,,,,,,,,,,,
1644854767.575773,55.000000,0.000000,4207.948730,4190.256348,4217.436035,4184.358887,4209.358887,4207.948730,4213.846191,4217.436035,4211.410156,4216.282227,4214.487305,4186.025879,4180.512695,4196.153809,0.000000,4.000000,82.000000,,,,0.000000,4.000000,4.000000,4.000000,4.000000,4.000000,4.000000,4.000000,4.000000,4.000000,4.000000,4.000000,4.000000,4.000000,4.000000,100.000000,,,,,,,,,,,,,,,,
1644854767.579713,56.000000,0.000000,4224.358887,4187.948730,4215.641113,4189.230957,4227.948730,4213.461426,4216.794922,4218.205078,4214.102539,4219.615234,4224.487305,4184.358887,4188.205078,4202.436035,0.000000,4.000000,82.000000,,,,0.000000,4.000000,4.000000,4.000000,4.000000,4.000000,4.000000,4.000000,4.000000,4.000000,4.000000,4.000000,4.000000,4.000000,4.000000,100.000000,,,,,,,,,,,,,,,,
1644854767.583653,57.000000,0.000000,4240.384766,4195.769043,4214.615234,4191.410156,4239.102539,4219.487305,4218.974121,4219.871582,4218.077148,4222.436035,4232.436035,4184.743652,4207.307617,4210.000000,0.000000,4.000000,82.000000,,,,0.000000,4.000000,4.000000,4.000000,4.000000,4.000000,4.000000,4.000000,4.000000,4.000000,4.000000,4.000000,4.000000,4.000000,4.000000,100.000000,,,,,,,,,,,,,,,,
1644854767.587593,58.000000,0.000000,4247.307617,4209.102539,4214.102539,4189.615234,4237.307617,4222.179688,4220.384766,4220.641113,4219.871582,4220.384766,4234.230957,4185.897461,4226.153809,4215.512695,0.000000,4.000000,82.000000,,,,0.000000,4.000000,4.000000,4.000000,4.000000,4.000000,4.000000,4.000000,4.000000,4.000000,4.000000,4.000000,4.000000,4.000000,4.000000,100.000000,,,,,,,,,,,,,,,,
1644854767.591533,59.000000,0.000000,4242.051270,4219.102539,4213.974121,4185.769043,4226.538574,4220.769043,4220.897461,4219.230957,4217.820313,4212.820313,4229.615234,4186.410156,4234.615234,4215.769043,0.000000,4.000000,82.000000,,,,0.000000,4.000000,4.000000,4.000000,4.000000,4.000000,4.000000,4.000000,4.000000,4.000000,4.000000,4.000000,4.000000,4.000000,4.000000,100.000000,,,,,,,,,,,,,,,,
1644854767.595473,60.000000,0.000000,4228.461426,4219.358887,4213.846191,4183.846191,4216.538574,4217.179688,4219.743652,4216.153809,4213.461426,4203.846191,4222.948730,4185.512695,4230.769043,4210.641113,0.000000,4.000000,82.000000,,,,0.000000,4.000000,4.000000,4.000000,4.000000,4.000000,4.000000,4.000000,4.000000,4.000000,4.000000,4.000000,4.000000,4.000000,4.000000,100.000000,,,,,,,,,,,,,,,,
1644854767.599413,61.000000,0.000000,4213.846191,4210.128418,4213.461426,4186.153809,4213.974121,4215.256348,4217.307617,4212.820313,4209.743652,4199.230957,4218.589844,4183.461426,4219.615234,4204.358887,0.000000,4.000000,82.000000,,,,0.000000,4.000000,4.000000,4.000000,4.000000,4.000000,4.000000,4.000000,4.000000,4.000000,4.000000,4.000000,4.000000,4.000000,4.000000,100.000000,,,,,,,,,,,,,,,,
1644854767.603354,62.000000,0.000000,4204.102539,4197.820313,4212.820313,4191.538574,4218.333496,4216.794922,4215.512695,4211.282227,4208.717773,4202.179688,4216.666504,4182.563965,4207.179688,4202.820313,0.000000,4.000000,82.000000,,,,0.000000,4.000000,4.000000,4.000000,4.000000,4.000000,4.000000,4.000000,4.000000,4.000000,4.000000,4.000000,4.000000,4.000000,4.000000,100.000000,,,,,,,,,,,,,,,,
1644854767.607294,63.000000,0.000000,4201.666504,4189.230957,4212.948730,4196.282227,4223.205078,4220.769043,4216.538574,4212.436035,4210.256348,4210.641113,4213.717773,4185.641113,4197.307617,4207.820313,0.000000,4.000000,82.000000,,,,0.000000,4.000000,4.000000,4.000000,4.000000,4.000000,4.000000,4.000000,4.000000,4.000000,4.000000,4.000000,4.000000,4.000000,4.000000,100.000000,,,,,,,,,,,,,,,,
1644854767.611234,64.000000,0.000000,4205.641113,4187.692383,4214.615234,4196.282227,4223.077148,4224.487305,4220.256348,4216.153809,4213.333496,4219.871582,4207.179688,4192.436035,4192.051270,4215.384766,0.000000,4.000000,82.000000,,,,0.000000,4.000000,4.000000,4.000000,4.000000,4.000000,4.000000,4.000000,4.000000,4.000000,4.000000,4.000000,4.000000,4.000000,4.000000,100.000000,,,,,,,,,,,,,,,,
1644854767.615174,65.000000,0.000000,4212.820313,4192.307617,4217.307617,4190.512695,4217.307617,4225.256348,4223.077148,4220.512695,4216.410156,4225.384766,4200.128418,4199.615234,4192.563965,4218.717773,0.000000,4.000000,82.000000,,,,0.000000,4.000000,4.000000,4.000000,4.000000,4.000000,4.000000,4.000000,4.000000,4.000000,4.000000,4.000000,4.000000,4.000000,4.000000,100.000000,,,,,,,,,,,,,,,,
1644854767.619114,66.000000,0.000000,4219.487305,4198.717773,4219.615234,4182.563965,4210.641113,4222.436035,4221.410156,4223.461426,4218.461426,4226.025879,4198.077148,4202.820313,4199.358887,4214.871582,0.000000,4.000000,82.000000,,,,0.000000,4.000000,4.000000,4.000000,4.000000,4.000000,4.000000,4.000000,4.000000,4.000000,4.000000,4.000000,4.000000,4.000000,4.000000,100.000000,,,,,,,,,,,,,,,,
1644854767.623054,67.000000,0.000000,4224.102539,4202.820313,4220.256348,4178.205078,4208.974121,4217.563965,4216.153809,4223.846191,4219.230957,4223.589844,4204.743652,4200.641113,4211.282227,4208.461426,0.000000,4.000000,82.000000,,,,0.000000,4.000000,4.000000,4.000000,4.000000,4.000000,4.000000,4.000000,4.000000,4.000000,4.000000,4.000000,4.000000,4.000000,4.000000,100.000000,,,,,,,,,,,,,,,,
1644854767.626994,68.000000,0.000000,4227.307617,4203.205078,4220.000000,4181.410156,4214.230957,4213.461426,4211.922852,4222.948730,4220.000000,4221.922852,4217.948730,4195.512695,4224.358887,4207.436035,0.000000,4.000000,82.000000,5,1,1,0.000000,4.000000,4.000000,4.000000,4.000000,4.000000,4.000000,4.000000,4.000000,4.000000,4.000000,4.000000,4.000000,4.000000,4.000000,100.000000,,,,,,,,,,,,,,,,
1644854767.631034,69.000000,0.000000,4231.282227,4202.179688,4220.000000,4191.282227,4223.333496,4212.051270,4212.563965,4222.692383,4221.538574,4224.102539,4232.051270,4191.666504,4233.461426,4214.871582,0.000000,4.000000,82.000000,,,,0.000000,4.000000,4.000000,4.000000,4.000000,4.000000,4.000000,4.000000,4.000000,4.000000,4.000000,4.000000,4.000000,4.000000,4.000000,100.000000,,,,,,,,,,,,,,,,
1644854767.634974,70.000000,0.000000,4235.641113,4202.563965,4220.769043,4202.436035,4230.769043,4213.846191,4217.179688,4224.230957,4223.717773,4230.128418,4242.179688,4192.179688,4235.128418,4225.641113,0.000000,4.000000,82.000000,,,,0.000000,4.000000,4.000000,4.000000,4.000000,4.000000,4.000000,4.000000,4.000000,4.000000,4.000000,4.000000,4.000000,4.000000,4.000000,100.000000,,,,,,,,,,,,,,,,
1644854767.638914,71.000000,0.000000,4237.820313,4205.256348,4221.794922,4208.717773,4232.307617,4217.051270,4221.410156,4226.538574,4225.256348,4235.769043,4246.666504,4196.282227,4229.615234,4231.538574,0.000000,4.000000,82.000000,,,,0.000000,4.000000,4.000000,4.000000,4.000000,4.000000,4.000000,4.000000,4.000000,4.000000,4.000000,4.000000,4.000000,4.000000,4.000000,100.000000,,,,,,,,,,,,,,,,
1644854767.642855,72.000000,0.000000,4235.000000,4207.820313,4222.436035,4207.179688,4228.461426,4219.230957,4222.307617,4227.563965,4225.128418,4235.384766,4246.538574,4201.538574,4220.769043,4228.205078,0.000000,4.000000,82.000000,,,,0.000000,4.000000,4.000000,4.000000,4.000000,4.000000,4.000000,4.000000,4.000000,4.000000,4.000000,4.000000,4.000000,4.000000,4.000000,100.000000,,,,,,,,,,,,,,,,
1644854767.646695,73.000000,0.000000,4227.563965,4206.538574,4222.179688,4200.000000,4222.563965,4219.102539,4221.153809,4226.025879,4222.820313,4226.410156,4242.692383,4204.871582,4212.692383,4219.615234,0.000000,4.000000,82.000000,,,,0.000000,4.000000,4.000000,4.000000,4.000000,4.000000,4.000000,4.000000,4.000000,4.000000,4.000000,4.000000,4.000000,4.000000,4.000000,100.000000,,,,,,,,,,,,,,,,
1644854767.650635,74.000000,0.000000,4220.384766,4201.666504,4221.153809,4192.051270,4217.307617,4217.436035,4220.384766,4222.436035,4218.717773,4213.205078,4234.615234,4205.641113,4207.820313,4212.563965,0.000000,4.000000,82.000000,,,,0.000000,4.000000,4.000000,4.000000,4.000000,4.000000,4.000000,4.000000,4.000000,4.000000,4.000000,4.000000,4.000000,4.000000,4.000000,100.000000,,,,,,,,,,,,,,,,
1644854767.654575,75.000000,0.000000,4218.846191,4196.538574,4220.256348,4187.563965,4212.692383,4216.025879,4221.153809,4219.230957,4214.871582,4204.358887,4222.307617,4204.230957,4207.307617,4210.897461,0.000000,4.000000,82.000000,,,,0.000000,4.000000,4.000000,4.000000,4.000000,4.000000,4.000000,4.000000,4.000000,4.000000,4.000000,4.000000,4.000000,4.000000,4.000000,100.000000,,,,,,,,,,,,,,,,
1644854767.658415,76.000000,0.000000,4223.974121,4195.256348,4219.487305,4187.692383,4207.692383,4215.769043,4221.538574,4218.205078,4213.589844,4206.666504,4208.846191,4202.436035,4211.282227,4213.717773,0.000000,4.000000,82.000000,,,,0.000000,4.000000,4.000000,4.000000,4.000000,4.000000,4.000000,4.000000,4.000000,4.000000,4.000000,4.000000,4.000000,4.000000,4.000000,100.000000,,,,,,,,,,,,,,,,
1644854767.662355,77.000000,0.000000,4231.666504,4197.948730,4218.717773,4189.487305,4203.974121,4216.410156,4220.512695,4219.743652,4216.025879,4219.487305,4200.128418,4201.666504,4219.102539,4218.077148,0.000000,4.000000,82.000000,,,,0.000000,4.000000,4.000000,4.000000,4.000000,4.000000,4.000000,4.000000,4.000000,4.000000,4.000000,4.000000,4.000000,4.000000,4.000000,100.000000,,,,,,,,,,,,,,,,
1644854767.666295,78.000000,0.000000,4235.384766,4201.410156,4217.436035,4189.743652,4204.615234,4217.307617,4219.102539,4222.436035,4220.384766,4234.871582,4202.307617,4201.538574,4228.461426,4221.025879,0.000000,4.000000,82.000000,,,,0.000000,4.000000,4.000000,4.000000,4.000000,4.000000,4.000000,4.000000,4.000000,4.000000,4.000000,4.000000,4.000000,4.000000,4.000000,100.000000,,,,,,,,,,,,,,,,
1644854767.670235,79.000000,0.000000,4231.666504,4201.922852,4216.538574,4187.563965,4211.794922,4217.820313,4219.102539,4224.487305,4223.717773,4244.358887,4216.794922,4201.025879,4235.256348,4221.410156,0.000000,4.000000,82.000000,,,,0.000000,4.000000,4.000000,4.000000,4.000000,4.000000,4.000000,4.000000,4.000000,4.000000,4.000000,4.000000,4.000000,4.000000,4.000000,100.000000,,,,,,,,,,,,,,,,
1644854767.674176,80.000000,0.000000,4222.307617,4198.846191,4216.410156,4184.487305,4222.820313,4217.307617,4220.512695,4224.230957,4223.589844,4243.974121,4237.307617,4199.615234,4234.871582,4218.205078,0.000000,4.000000,82.000000,,,,0.000000,4.000000,4.000000,4.000000,4.000000,4.000000,4.000000,4.000000,4.000000,4.000000,4.000000,4.000000,4.000000,4.000000,4.000000,100.000000,,,,,,,,,,,,,,,,
1644854767.678116,81.000000,0.000000,4212.692383,4195.000000,4217.179688,4182.692383,4231.025879,4215.897461,4220.512695,4221.153809,4220.641113,4235.641113,4251.410156,4197.051270,4225.897461,4212.307617,0.000000,4.000000,82.000000,,,,0.000000,4.000000,4.000000,4.000000,4.000000,4.000000,4.000000,4.000000,4.000000,4.000000,4.000000,4.000000,4.000000,4.000000,4.000000,100.000000,,,,,,,,,,,,,,,,
1644854767.682056,82.000000,0.000000,4209.102539,4194.230957,4218.205078,4184.102539,4230.897461,4213.846191,4217.563965,4216.538574,4217.820313,4224.102539,4250.641113,4194.230957,4212.563965,4206.922852,0.000000,4.000000,82.000000,,,,0.000000,4.000000,4.000000,4.000000,4.000000,4.000000,4.000000,4.000000,4.000000,4.000000,4.000000,4.000000,4.000000,4.000000,4.000000,100.000000,,,,,,,,,,,,,,,,
1644854767.685996,83.000000,0.000000,4215.384766,4198.589844,4219.871582,4188.846191,4222.692383,4212.179688,4213.461426,4213.717773,4217.307617,4214.358887,4236.794922,4191.794922,4203.589844,4206.794922,0.000000,4.000000,82.000000,,,,0.000000,4.000000,4.000000,4.000000,4.000000,4.000000,4.000000,4.000000,4.000000,4.000000,4.000000,4.000000,4.000000,4.000000,4.000000,100.000000,,,,,,,,,,,,,,,,
1644854767.689936,84.000000,0.000000,4229.615234,4206.538574,4222.051270,4195.897461,4213.333496,4211.538574,4212.051270,4215.384766,4218.974121,4210.384766,4222.436035,4190.000000,4206.666504,4214.487305,0.000000,4.000000,82.000000,,,,0.000000,4.000000,4.000000,4.000000,4.000000,4.000000,4.000000,4.000000,4.000000,4.000000,4.000000,4.000000,4.000000,4.000000,4.000000,100.000000,,,,,,,,,,,,,,,,
1644854767.693876,85.000000,0.000000,4244.743652,4214.230957,4224.230957,4204.102539,4209.487305,4212.179688,4214.358887,4220.769043,4220.897461,4213.717773,4218.589844,4190.384766,4221.794922,4226.025879,0.000000,4.000000,82.000000,,,,0.000000,4.000000,4.000000,4.000000,4.000000,4.000000,4.000000,4.000000,4.000000,4.000000,4.000000,4.000000,4.000000,4.000000,4.000000,100.000000,,,,,,,,,,,,,,,,
1644854767.697916,86.000000,0.000000,4253.077148,4218.205078,4225.128418,4211.410156,4211.794922,4213.461426,4217.436035,4225.897461,4221.666504,4222.051270,4225.641113,4193.974121,4240.641113,4233.846191,0.000000,4.000000,82.000000,,,,0.000000,4.000000,4.000000,4.000000,4.000000,4.000000,4.000000,4.000000,4.000000,4.000000,4.000000,4.000000,4.000000,4.000000,4.000000,100.000000,,,,,,,,,,,,,,,,
1644854767.701856,87.000000,0.000000,4251.410156,4216.922852,4224.487305,4214.358887,4214.102539,4214.102539,4218.077148,4227.307617,4221.538574,4230.512695,4233.333496,4200.512695,4252.051270,4232.436035,0.000000,4.000000,82.000000,,,,0.000000,4.000000,4.000000,4.000000,4.000000,4.000000,4.000000,4.000000,4.000000,4.000000,4.000000,4.000000,4.000000,4.000000,4.000000,100.000000,,,,,,,,,,,,,,,,
1644854767.705796,88.000000,0.000000,4242.436035,4212.051270,4222.563965,4210.000000,4210.128418,4213.589844,4216.025879,4225.000000,4221.410156,4234.871582,4231.794922,4206.922852,4249.615234,4223.077148,0.000000,4.000000,82.000000,,,,0.000000,4.000000,4.000000,4.000000,4.000000,4.000000,4.000000,4.000000,4.000000,4.000000,4.000000,4.000000,4.000000,4.000000,4.000000,100.000000,,,,,,,,,,,,,,,,
1644854767.709736,89.000000,0.000000,4231.538574,4207.307617,4221.025879,4199.102539,4200.256348,4212.307617,4213.717773,4221.922852,4222.179688,4234.102539,4221.410156,4209.358887,4237.051270,4212.179688,0.000000,4.000000,82.000000,,,,0.000000,4.000000,4.000000,4.000000,4.000000,4.000000,4.000000,4.000000,4.000000,4.000000,4.000000,4.000000,4.000000,4.000000,4.000000,100.000000,,,,,,,,,,,,,,,,
1644854767.713677,90.000000,0.000000,4224.102539,4205.769043,4220.897461,4186.922852,4192.692383,4211.666504,4213.077148,4220.641113,4223.589844,4230.769043,4212.692383,4206.794922,4223.717773,4206.153809,0.000000,4.000000,82.000000,,,,0.000000,4.000000,4.000000,4.000000,4.000000,4.000000,4.000000,4.000000,4.000000,4.000000,4.000000,4.000000,4.000000,4.000000,4.000000,100.000000,,,,,,,,,,,,,,,,
1644854767.717617,91.000000,0.000000,4223.077148,4209.615234,4223.205078,4180.897461,4196.666504,4212.820313,4213.846191,4221.922852,4225.384766,4228.717773,4215.512695,4201.922852,4218.205078,4207.436035,0.000000,4.000000,82.000000,,,,0.000000,4.000000,4.000000,4.000000,4.000000,4.000000,4.000000,4.000000,4.000000,4.000000,4.000000,4.000000,4.000000,4.000000,4.000000,100.000000,,,,,,,,,,,,,,,,
1644854767.721557,92.000000,0.000000,4228.589844,4218.205078,4227.563965,4185.641113,4213.846191,4215.512695,4215.256348,4224.487305,4226.794922,4229.743652,4230.384766,4199.871582,4221.666504,4215.000000,0.000000,4.000000,82.000000,,,,0.000000,4.000000,4.000000,4.000000,4.000000,4.000000,4.000000,4.000000,4.000000,4.000000,4.000000,4.000000,4.000000,4.000000,4.000000,100.000000,,,,,,,,,,,,,,,,
1644854767.725497,93.000000,0.000000,4237.307617,4228.333496,4232.307617,4198.717773,4235.128418,4218.461426,4217.051270,4226.794922,4226.922852,4233.077148,4248.077148,4203.461426,4227.948730,4224.871582,0.000000,4.000000,82.000000,,,,0.000000,4.000000,4.000000,4.000000,4.000000,4.000000,4.000000,4.000000,4.000000,4.000000,4.000000,4.000000,4.000000,4.000000,4.000000,100.000000,,,,,,,,,,,,,,,,
1644854767.729437,94.000000,0.000000,4243.974121,4235.256348,4235.512695,4211.666504,4247.820313,4220.128418,4219.615234,4228.205078,4225.128418,4235.897461,4257.948730,4211.025879,4230.769043,4232.563965,0.000000,4.000000,82.000000,,,,0.000000,4.000000,4.000000,4.000000,4.000000,4.000000,4.000000,4.000000,4.000000,4.000000,4.000000,4.000000,4.000000,4.000000,4.000000,100.000000,,,,,,,,,,,,,,,,
1644854767.733377,95.000000,0.000000,4246.025879,4235.897461,4235.512695,4216.153809,4245.897461,4219.871582,4221.666504,4228.974121,4222.820313,4236.153809,4256.282227,4217.692383,4229.871582,4234.102539,0.000000,4.000000,82.000000,,,,0.000000,4.000000,4.000000,4.000000,4.000000,4.000000,4.000000,4.000000,4.000000,4.000000,4.000000,4.000000,4.000000,4.000000,4.000000,100.000000,,,,,,,,,,,,,,,,
1644854767.737317,96.000000,0.000000,4244.743652,4231.282227,4232.948730,4210.641113,4233.589844,4218.589844,4221.922852,4229.615234,4222.563965,4234.615234,4246.794922,4219.615234,4229.871582,4229.615234,0.000000,4.000000,82.000000,,,,0.000000,4.000000,4.000000,4.000000,4.000000,4.000000,4.000000,4.000000,4.000000,4.000000,4.000000,4.000000,4.000000,4.000000,4.000000,100.000000,,,,,,,,,,,,,,,,
1644854767.741257,97.000000,0.000000,4243.846191,4225.384766,4230.128418,4201.282227,4221.666504,4217.436035,4220.641113,4230.641113,4225.256348,4233.589844,4236.282227,4216.410156,4233.717773,4223.717773,0.000000,4.000000,82.000000,,,,0.000000,4.000000,4.000000,4.000000,4.000000,4.000000,4.000000,4.000000,4.000000,4.000000,4.000000,4.000000,4.000000,4.000000,4.000000,100.000000,,,,,,,,,,,,,,,,
1644854767.745197,98.000000,0.000000,4245.384766,4221.794922,4229.615234,4197.563965,4217.179688,4216.922852,4219.615234,4231.538574,4228.974121,4233.846191,4229.102539,4210.384766,4239.230957,4221.410156,0.000000,4.000000,82.000000,,,,0.000000,4.000000,4.000000,4.000000,4.000000,4.000000,4.000000,4.000000,4.000000,4.000000,4.000000,4.000000,4.000000,4.000000,4.000000,100.000000,,,,,,,,,,,,,,,,
1644854767.749137,99.000000,0.000000,4247.820313,4220.769043,4231.922852,4203.974121,4219.487305,4216.922852,4220.769043,4231.922852,4230.641113,4233.461426,4224.871582,4204.743652,4241.282227,4223.589844,0.000000,4.000000,82.000000,,,,0.000000,4.000000,4.000000,4.000000,4.000000,4.000000,4.000000,4.000000,4.000000,4.000000,4.000000,4.000000,4.000000,4.000000,4.000000,100.000000,,,,,,,,,,,,,,,,
1644854767.753078,100.000000,0.000000,4247.948730,4221.282227,4234.615234,4215.128418,4222.563965,4217.179688,4222.820313,4231.282227,4228.717773,4230.641113,4221.282227,4202.051270,4237.563965,4226.538574,0.000000,4.000000,82.000000,,,,0.000000,4.000000,4.000000,4.000000,4.000000,4.000000,4.000000,4.000000,4.000000,4.000000,4.000000,4.000000,4.000000,4.000000,4.000000,100.000000,,,,,,,,,,,,,,,,
1644854767.757018,101.000000,0.000000,4244.871582,4222.179688,4233.846191,4220.512695,4222.307617,4217.307617,4222.948730,4229.230957,4224.615234,4226.282227,4217.307617,4202.179688,4230.512695,4226.410156,0.000000,4.000000,82.000000,,,,0.000000,4.000000,4.000000,4.000000,4.000000,4.000000,4.000000,4.000000,4.000000,4.000000,4.000000,4.000000,4.000000,4.000000,4.000000,100.000000,,,,,,,,,,,,,,,,
1644854767.760958,102.000000,0.000000,4240.256348,4223.333496,4228.333496,4213.461426,4219.230957,4217.692383,4220.128418,4225.897461,4220.769043,4223.589844,4214.615234,4203.333496,4224.615234,4223.461426,0.000000,4.000000,82.000000,,,,0.000000,4.000000,4.000000,4.000000,4.000000,4.000000,4.000000,4.000000,4.000000,4.000000,4.000000,4.000000,4.000000,4.000000,4.000000,100.000000,,,,,,,,,,,,,,,,
1644854767.764898,103.000000,0.000000,4235.384766,4224.230957,4220.512695,4197.820313,4218.077148,4218.077148,4217.051270,4222.436035,4218.461426,4225.000000,4214.743652,4202.563965,4223.205078,4220.897461,0.000000,4.000000,82.000000,,,,0.000000,4.000000,4.000000,4.000000,4.000000,4.000000,4.000000,4.000000,4.000000,4.000000,4.000000,4.000000,4.000000,4.000000,4.000000,100.000000,,,,,,,,,,,,,,,,
1644854767.768938,104.000000,0.000000,4230.384766,4223.846191,4215.256348,4185.000000,4221.666504,4217.820313,4216.922852,4220.256348,4217.179688,4229.487305,4217.948730,4199.102539,4225.256348,4221.025879,0.000000,4.000000,82.000000,,,,0.000000,4.000000,4.000000,4.000000,4.000000,4.000000,4.000000,4.000000,4.000000,4.000000,4.000000,4.000000,4.000000,4.000000,4.000000,100.000000,,,,,,,,,,,,,,,,
1644854767.772878,105.000000,0.000000,4225.512695,4221.794922,4215.256348,4184.871582,4228.077148,4216.666504,4220.128418,4220.000000,4216.794922,4232.948730,4222.692383,4195.000000,4227.436035,4221.794922,0.000000,4.000000,82.000000,,,,0.000000,4.000000,4.000000,4.000000,4.000000,4.000000,4.000000,4.000000,4.000000,4.000000,4.000000,4.000000,4.000000,4.000000,4.000000,100.000000,,,,,,,,,,,,,,,,
1644854767.776818,106.000000,0.000000,4222.948730,4219.743652,4219.358887,4196.538574,4232.179688,4215.641113,4222.948730,4221.153809,4217.692383,4231.410156,4227.820313,4193.974121,4227.051270,4219.871582,0.000000,4.000000,82.000000,,,,0.000000,4.000000,4.000000,4.000000,4.000000,4.000000,4.000000,4.000000,4.000000,4.000000,4.000000,4.000000,4.000000,4.000000,4.000000,100.000000,,,,,,,,,,,,,,,,
1644854767.780758,107.000000,0.000000,4224.487305,4218.974121,4224.230957,4209.230957,4230.000000,4216.153809,4222.820313,4223.333496,4219.743652,4224.871582,4232.948730,4197.436035,4223.846191,4213.974121,0.000000,4.000000,82.000000,,,,0.000000,4.000000,4.000000,4.000000,4.000000,4.000000,4.000000,4.000000,4.000000,4.000000,4.000000,4.000000,4.000000,4.000000,4.000000,100.000000,,,,,,,,,,,,,,,,
1644854767.784698,108.000000,0.000000,4228.205078,4219.102539,4226.794922,4211.025879,4222.692383,4217.436035,4220.128418,4225.897461,4220.897461,4216.794922,4237.307617,4202.948730,4219.358887,4206.794922,0.000000,4.000000,82.000000,,,,0.000000,4.000000,4.000000,4.000000,4.000000,4.000000,4.000000,4.000000,4.000000,4.000000,4.000000,4.000000,4.000000,4.000000,4.000000,100.000000,,,,,,,,,,,,,,,,
1644854767.788638,109.000000,0.000000,4228.205078,4218.333496,4225.641113,4199.358887,4215.641113,4217.692383,4217.820313,4227.179688,4219.230957,4210.769043,4237.179688,4205.769043,4215.128418,4201.538574,0.000000,4.000000,82.000000,,,,0.000000,4.000000,4.000000,4.000000,4.000000,4.000000,4.000000,4.000000,4.000000,4.000000,4.000000,4.000000,4.000000,4.000000,4.000000,100.000000,,,,,,,,,,,,,,,,
1644854767.792579,110.000000,0.000000,4220.897461,4215.641113,4221.922852,4181.922852,4212.948730,4215.641113,4216.794922,4225.641113,4214.743652,4208.846191,4228.461426,4203.205078,4211.410156,4199.230957,0.000000,4.000000,82.000000,,,,0.000000,4.000000,4.000000,4.000000,4.000000,4.000000,4.000000,4.000000,4.000000,4.000000,4.000000,4.000000,4.000000,4.000000,4.000000,100.000000,,,,,,,,,,,,,,,,
1644854767.796519,111.000000,0.000000,4209.615234,4211.794922,4217.948730,4170.384766,4213.717773,4211.922852,4215.897461,4221.538574,4210.384766,4210.769043,4213.205078,4196.922852,4208.461426,4198.974121,0.000000,4.000000,82.000000,,,,0.000000,4.000000,4.000000,4.000000,4.000000,4.000000,4.000000,4.000000,4.000000,4.000000,4.000000,4.000000,4.000000,4.000000,4.000000,100.000000,,,,,,,,,,,,,,,,
1644854767.800459,112.000000,0.000000,4202.436035,4209.487305,4215.000000,4171.282227,4213.589844,4208.974121,4213.846191,4217.436035,4209.487305,4215.256348,4200.000000,4190.256348,4207.051270,4200.512695,0.000000,4.000000,82.000000,,,,0.000000,4.000000,4.000000,4.000000,4.000000,4.000000,4.000000,4.000000,4.000000,4.000000,4.000000,4.000000,4.000000,4.000000,4.000000,100.000000,,,,,,,,,,,,,,,,
1644854767.804399,113.000000,0.000000,4205.256348,4210.128418,4213.205078,4182.307617,4208.846191,4208.589844,4211.666504,4215.256348,4211.922852,4220.384766,4197.692383,4185.512695,4208.717773,4204.743652,0.000000,4.000000,82.000000,,,,0.000000,4.000000,4.000000,4.000000,4.000000,4.000000,4.000000,4.000000,4.000000,4.000000,4.000000,4.000000,4.000000,4.000000,4.000000,100.000000,,,,,,,,,,,,,,,,
1644854767.808339,114.000000,0.000000,4217.051270,4213.077148,4211.410156,4195.000000,4200.512695,4210.000000,4211.794922,4215.384766,4215.000000,4223.974121,4205.512695,4182.307617,4212.692383,4211.410156,0.000000,4.000000,82.000000,,,,0.000000,4.000000,4.000000,4.000000,4.000000,4.000000,4.000000,4.000000,4.000000,4.000000,4.000000,4.000000,4.000000,4.000000,4.000000,100.000000,,,,,,,,,,,,,,,,
1644854767.812279,115.000000,0.000000,4229.743652,4215.641113,4208.717773,4200.897461,4193.846191,4210.897461,4214.358887,4216.282227,4215.512695,4224.358887,4213.333496,4178.846191,4216.025879,4216.153809,0.000000,4.000000,82.000000,,,,0.000000,4.000000,4.000000,4.000000,4.000000,4.000000,4.000000,4.000000,4.000000,4.000000,4.000000,4.000000,4.000000,4.000000,4.000000,100.000000,,,,,,,,,,,,,,,,
1644854767.816219,116.000000,0.000000,4234.743652,4214.487305,4205.000000,4196.794922,4193.974121,4209.230957,4216.025879,4216.282227,4212.820313,4222.307617,4210.897461,4174.487305,4214.487305,4213.461426,0.000000,4.000000,82.000000,,,,0.000000,4.000000,4.000000,4.000000,4.000000,4.000000,4.000000,4.000000,4.000000,4.000000,4.000000,4.000000,4.000000,4.000000,4.000000,100.000000,,,,,,,,,,,,,,,,
1644854767.820159,117.000000,0.000000,4228.333496,4209.358887,4201.153809,4186.794922,4202.051270,4205.512695,4214.487305,4214.871582,4208.846191,4219.102539,4197.820313,4170.641113,4207.179688,4202.820313,0.000000,4.000000,82.000000,,,,0.000000,4.000000,4.000000,4.000000,4.000000,4.000000,4.000000,4.000000,4.000000,4.000000,4.000000,4.000000,4.000000,4.000000,4.000000,100.000000,,,,,,,,,,,,,,,,
1644854767.824099,118.000000,0.000000,4214.871582,4202.563965,4198.333496,4179.230957,4213.589844,4202.051270,4211.025879,4213.205078,4206.538574,4215.769043,4185.000000,4169.230957,4197.820313,4190.256348,0.000000,4.000000,82.000000,,,,0.000000,4.000000,4.000000,4.000000,4.000000,4.000000,4.000000,4.000000,4.000000,4.000000,4.000000,4.000000,4.000000,4.000000,4.000000,100.000000,,,,,,,,,,,,,,,,
1644854767.828039,119.000000,0.000000,4202.948730,4197.948730,4197.179688,4179.487305,4221.922852,4201.410156,4209.358887,4212.179688,4207.307617,4212.436035,4184.358887,4171.538574,4192.436035,4184.230957,0.000000,4.000000,82.000000,,,,0.000000,4.000000,4.000000,4.000000,4.000000,4.000000,4.000000,4.000000,4.000000,4.000000,4.000000,4.000000,4.000000,4.000000,4.000000,100.000000,,,,,,,,,,,,,,,,
1644854767.831980,120.000000,0.000000,4198.333496,4198.846191,4197.436035,4185.897461,4222.820313,4203.717773,4211.282227,4211.025879,4209.871582,4209.487305,4198.333496,4176.666504,4194.743652,4188.205078,0.000000,4.000000,82.000000,,,,0.000000,4.000000,4.000000,4.000000,4.000000,4.000000,4.000000,4.000000,4.000000,4.000000,4.000000,4.000000,4.000000,4.000000,4.000000,100.000000,,,,,,,,,,,,,,,,
1644854767.835920,121.000000,0.000000,4200.000000,4204.871582,4198.333496,4192.051270,4216.922852,4206.794922,4213.589844,4208.461426,4211.282227,4207.179688,4217.307617,4182.179688,4202.692383,4198.077148,0.000000,4.000000,82.000000,,,,0.000000,4.000000,4.000000,4.000000,4.000000,4.000000,4.000000,4.000000,4.000000,4.000000,4.000000,4.000000,4.000000,4.000000,4.000000,100.000000,,,,,,,,,,,,,,,,
1644854767.839860,122.000000,0.000000,4202.692383,4211.410156,4199.487305,4191.922852,4208.077148,4208.077148,4212.820313,4204.487305,4209.743652,4205.769043,4226.922852,4185.769043,4210.512695,4205.897461,0.000000,4.000000,82.000000,,,,0.000000,4.000000,4.000000,4.000000,4.000000,4.000000,4.000000,4.000000,4.000000,4.000000,4.000000,4.000000,4.000000,4.000000,4.000000,100.000000,,,,,,,,,,,,,,,,
1644854767.843900,123.000000,0.000000,4202.051270,4213.717773,4201.282227,4185.000000,4199.871582,4206.410156,4209.615234,4200.769043,4205.256348,4204.358887,4219.871582,4186.538574,4212.820313,4206.282227,0.000000,4.000000,82.000000,,,,0.000000,4.000000,4.000000,4.000000,4.000000,4.000000,4.000000,4.000000,4.000000,4.000000,4.000000,4.000000,4.000000,4.000000,4.000000,100.000000,,,,,,,,,,,,,,,,
1644854767.847840,124.000000,0.000000,4199.487305,4210.384766,4204.358887,4176.666504,4194.230957,4203.333496,4207.563965,4199.358887,4200.000000,4202.307617,4201.025879,4185.128418,4207.948730,4199.487305,0.000000,4.000000,82.000000,,,,0.000000,4.000000,4.000000,4.000000,4.000000,4.000000,4.000000,4.000000,4.000000,4.000000,4.000000,4.000000,4.000000,4.000000,4.000000,100.000000,,,,,,,,,,,,,,,,
1644854767.851780,125.000000,0.000000,4200.000000,4205.256348,4207.820313,4172.948730,4192.307617,4201.666504,4209.358887,4200.256348,4196.538574,4200.384766,4183.461426,4183.846191,4198.205078,4188.974121,0.000000,4.000000,82.000000,,,,0.000000,4.000000,4.000000,4.000000,4.000000,4.000000,4.000000,4.000000,4.000000,4.000000,4.000000,4.000000,4.000000,4.000000,4.000000,100.000000,,,,,,,,,,,,,,,,
1644854767.855720,126.000000,0.000000,4206.025879,4203.333496,4210.256348,4175.897461,4194.615234,4202.692383,4212.692383,4202.179688,4196.410156,4199.871582,4178.589844,4184.358887,4188.974121,4179.615234,0.000000,4.000000,82.000000,,,,0.000000,4.000000,4.000000,4.000000,4.000000,4.000000,4.000000,4.000000,4.000000,4.000000,4.000000,4.000000,4.000000,4.000000,4.000000,100.000000,,,,,,,,,,,,,,,,
1644854767.859660,127.000000,0.000000,4214.102539,4205.769043,4210.256348,4181.922852,4200.512695,4205.128418,4212.948730,4203.461426,4198.717773,4201.794922,4187.307617,4186.410156,4185.256348,4175.769043,0.000000,4.000000,82.000000,,,,0.000000,4.000000,4.000000,4.000000,4.000000,4.000000,4.000000,4.000000,4.000000,4.000000,4.000000,4.000000,4.000000,4.000000,4.000000,100.000000,,,,,,,,,,,,,,,,
1644854767.863600,128.000000,0.000000,4217.307617,4208.846191,4208.077148,4185.384766,4207.179688,4205.897461,4208.846191,4203.205078,4200.512695,4204.358887,4200.384766,4187.820313,4188.205078,4179.743652,3422.000000,4.000000,82.000000,,,,0.000000,4.000000,4.000000,4.000000,4.000000,4.000000,4.000000,4.000000,4.000000,4.000000,4.000000,4.000000,4.000000,4.000000,4.000000,100.000000,1.000000,75.000000,4.000000,4.000000,4.000000,4.000000,4.000000,4.000000,3.000000,4.000000,4.000000,4.000000,3.000000,4.000000,3.000000,3.000000
1644854767.867540,129.000000,0.000000,4212.051270,4207.948730,4205.384766,4184.230957,4211.282227,4203.461426,4204.102539,4201.538574,4198.846191,4205.384766,4206.538574,4187.307617,4195.256348,4190.897461,3329.000000,4.000000,82.000000,,,,0.000000,4.000000,4.000000,4.000000,4.000000,4.000000,4.000000,4.000000,4.000000,4.000000,4.000000,4.000000,4.000000,4.000000,4.000000,100.000000,,,,,,,,,,,,,,,,
1644854767.871481,130.000000,0.000000,4201.410156,4202.563965,4203.717773,4181.666504,4211.538574,4199.615234,4202.436035,4199.487305,4193.333496,4204.871582,4201.666504,4184.871582,4203.333496,4204.102539,3540.000000,4.000000,82.000000,,,,0.000000,4.000000,4.000000,4.000000,4.000000,4.000000,4.000000,4.000000,4.000000,4.000000,4.000000,4.000000,4.000000,4.000000,4.000000,100.000000,,,,,,,,,,,,,,,,
1644854767.875421,131.000000,0.000000,4192.563965,4196.922852,4203.205078,4182.692383,4208.461426,4197.563965,4204.230957,4198.077148,4186.922852,4205.000000,4192.179688,4180.897461,4210.769043,4212.692383,3474.000000,4.000000,82.000000,,,,0.000000,4.000000,4.000000,4.000000,4.000000,4.000000,4.000000,4.000000,4.000000,4.000000,4.000000,4.000000,4.000000,4.000000,4.000000,100.000000,,,,,,,,,,,,,,,,
1644854767.879361,132.000000,0.000000,4191.282227,4196.153809,4202.948730,4188.077148,4204.487305,4199.230957,4206.666504,4197.179688,4183.846191,4206.922852,4189.230957,4176.666504,4217.051270,4212.692383,3720.000000,4.000000,82.000000,,,,0.000000,4.000000,4.000000,4.000000,4.000000,4.000000,4.000000,4.000000,4.000000,4.000000,4.000000,4.000000,4.000000,4.000000,4.000000,100.000000,,,,,,,,,,,,,,,,
1644854767.883301,133.000000,0.000000,4198.077148,4202.051270,4202.820313,4191.922852,4201.794922,4203.205078,4207.436035,4197.307617,4186.153809,4208.205078,4197.436035,4173.717773,4221.025879,4205.384766,3384.000000,4.000000,82.000000,,,,0.000000,4.000000,4.000000,4.000000,4.000000,4.000000,4.000000,4.000000,4.000000,4.000000,4.000000,4.000000,4.000000,4.000000,4.000000,100.000000,,,,,,,,,,,,,,,,
1644854767.887241,134.000000,0.000000,4208.589844,4211.538574,4203.846191,4186.922852,4201.282227,4206.153809,4207.179688,4198.974121,4192.563965,4205.384766,4211.794922,4174.615234,4220.384766,4196.666504,2548.000000,4.000000,82.000000,,,,0.000000,4.000000,4.000000,4.000000,4.000000,4.000000,4.000000,4.000000,4.000000,4.000000,4.000000,4.000000,4.000000,4.000000,4.000000,100.000000,,,,,,,,,,,,,,,,
1644854767.891181,135.000000,0.000000,4216.025879,4219.230957,4206.282227,4172.179688,4202.692383,4205.512695,4207.436035,4202.820313,4200.128418,4197.692383,4222.051270,4180.128418,4214.102539,4191.538574,3292.000000,4.000000,82.000000,,,,0.000000,4.000000,4.000000,4.000000,4.000000,4.000000,4.000000,4.000000,4.000000,4.000000,4.000000,4.000000,4.000000,4.000000,4.000000,100.000000,,,,,,,,,,,,,,,,
1644854767.895121,136.000000,0.000000,4215.000000,4220.512695,4208.846191,4156.666504,4204.743652,4202.051270,4208.461426,4207.948730,4206.025879,4190.512695,4221.666504,4188.589844,4205.256348,4190.641113,3251.000000,4.000000,82.000000,,,,0.000000,4.000000,4.000000,4.000000,4.000000,4.000000,4.000000,4.000000,4.000000,4.000000,4.000000,4.000000,4.000000,4.000000,4.000000,100.000000,,,,,,,,,,,,,,,,
1644854767.899061,137.000000,0.000000,4204.871582,4215.256348,4209.487305,4152.692383,4206.025879,4199.871582,4209.358887,4212.436035,4208.974121,4191.153809,4212.820313,4195.897461,4198.333496,4191.410156,3521.000000,4.000000,82.000000,,,,0.000000,4.000000,4.000000,4.000000,4.000000,4.000000,4.000000,4.000000,4.000000,4.000000,4.000000,4.000000,4.000000,4.000000,4.000000,100.000000,,,,,,,,,,,,,,,,
1644854767.903001,138.000000,0.000000,4190.897461,4206.282227,4207.692383,4165.641113,4206.025879,4202.179688,4210.769043,4215.128418,4209.487305,4203.461426,4203.333496,4198.205078,4196.666504,4191.922852,3695.000000,4.000000,82.000000,,,,0.000000,4.000000,4.000000,4.000000,4.000000,4.000000,4.000000,4.000000,4.000000,4.000000,4.000000,4.000000,4.000000,4.000000,4.000000,100.000000,,,,,,,,,,,,,,,,
1644854767.906941,139.000000,0.000000,4181.410156,4198.077148,4205.256348,4188.205078,4204.743652,4208.205078,4213.461426,4216.282227,4209.615234,4222.820313,4200.000000,4195.128418,4200.000000,4192.436035,2376.000000,4.000000,82.000000,,,,0.000000,4.000000,4.000000,4.000000,4.000000,4.000000,4.000000,4.000000,4.000000,4.000000,4.000000,4.000000,4.000000,4.000000,4.000000,100.000000,,,,,,,,,,,,,,,,
1644854767.910882,140.000000,0.000000,4183.589844,4194.871582,4204.615234,4205.769043,4204.230957,4213.717773,4217.436035,4216.922852,4211.282227,4239.102539,4203.461426,4189.487305,4206.025879,4194.487305,3697.000000,4.000000,82.000000,,,,0.000000,4.000000,4.000000,4.000000,4.000000,4.000000,4.000000,4.000000,4.000000,4.000000,4.000000,4.000000,4.000000,4.000000,4.000000,100.000000,,,,,,,,,,,,,,,,
1644854767.914922,141.000000,0.000000,4197.948730,4198.974121,4206.410156,4207.307617,4206.922852,4214.743652,4219.871582,4217.820313,4214.615234,4243.333496,4208.974121,4185.384766,4212.307617,4198.333496,3484.000000,4.000000,82.000000,,,,0.000000,4.000000,4.000000,4.000000,4.000000,4.000000,4.000000,4.000000,4.000000,4.000000,4.000000,4.000000,4.000000,4.000000,4.000000,100.000000,,,,,,,,,,,,,,,,
1644854767.918862,142.000000,0.000000,4218.717773,4209.358887,4209.230957,4194.102539,4213.077148,4211.025879,4218.846191,4219.102539,4218.077148,4235.128418,4210.897461,4184.743652,4217.179688,4203.077148,3695.000000,4.000000,82.000000,,,,0.000000,4.000000,4.000000,4.000000,4.000000,4.000000,4.000000,4.000000,4.000000,4.000000,4.000000,4.000000,4.000000,4.000000,4.000000,100.000000,,,,,,,,,,,,,,,,
1644854767.922802,143.000000,0.000000,4235.641113,4221.922852,4211.410156,4178.205078,4218.974121,4206.538574,4215.512695,4220.128418,4219.871582,4221.794922,4207.563965,4186.410156,4218.974121,4207.307617,2376.000000,4.000000,82.000000,,,,0.000000,4.000000,4.000000,4.000000,4.000000,4.000000,4.000000,4.000000,4.000000,4.000000,4.000000,4.000000,4.000000,4.000000,4.000000,100.000000,,,,,,,,,,,,,,,,
1644854767.926742,144.000000,0.000000,4239.487305,4230.769043,4211.922852,4172.820313,4220.000000,4205.128418,4213.589844,4220.512695,4218.846191,4212.179688,4201.410156,4187.307617,4217.307617,4210.000000,3697.000000,4.000000,82.000000,,,,0.000000,4.000000,4.000000,4.000000,4.000000,4.000000,4.000000,4.000000,4.000000,4.000000,4.000000,4.000000,4.000000,4.000000,4.000000,100.000000,,,,,,,,,,,,,,,,
1644854767.930682,145.000000,0.000000,4228.974121,4231.922852,4210.769043,4182.436035,4215.256348,4207.051270,4215.256348,4220.128418,4216.025879,4210.256348,4196.794922,4185.641113,4213.461426,4209.743652,3484.000000,4.000000,82.000000,,,,0.000000,4.000000,4.000000,4.000000,4.000000,4.000000,4.000000,4.000000,4.000000,4.000000,4.000000,4.000000,4.000000,4.000000,4.000000,100.000000,,,,,,,,,,,,,,,,
1644854767.934622,146.000000,0.000000,4211.153809,4225.128418,4208.974121,4198.974121,4207.820313,4208.974121,4218.205078,4219.102539,4213.717773,4214.487305,4197.436035,4182.692383,4210.384766,4206.025879,3695.000000,4.000000,82.000000,,,,0.000000,4.000000,4.000000,4.000000,4.000000,4.000000,4.000000,4.000000,4.000000,4.000000,4.000000,4.000000,4.000000,4.000000,4.000000,100.000000,,,,,,,,,,,,,,,,
1644854767.938562,147.000000,0.000000,4197.692383,4215.000000,4206.666504,4208.589844,4202.436035,4208.589844,4218.717773,4217.563965,4213.333496,4220.256348,4203.205078,4181.025879,4210.384766,4199.871582,2376.000000,4.000000,82.000000,,,,0.000000,4.000000,4.000000,4.000000,4.000000,4.000000,4.000000,4.000000,4.000000,4.000000,4.000000,4.000000,4.000000,4.000000,4.000000,100.000000,,,,,,,,,,,,,,,,
1644854767.942502,148.000000,0.000000,4195.897461,4208.077148,4204.871582,4203.333496,4202.563965,4206.025879,4215.641113,4216.410156,4214.487305,4223.846191,4210.128418,4182.179688,4212.820313,4194.615234,3697.000000,4.000000,82.000000,,,,0.000000,4.000000,4.000000,4.000000,4.000000,4.000000,4.000000,4.000000,4.000000,4.000000,4.000000,4.000000,4.000000,4.000000,4.000000,100.000000,,,,,,,,,,,,,,,,
1644854767.946442,149.000000,0.000000,4203.974121,4208.461426,4204.102539,4187.948730,4207.436035,4204.102539,4212.051270,4216.538574,4216.538574,4223.846191,4213.461426,4185.256348,4214.743652,4194.102539,3484.000000,4.000000,82.000000,,,,0.000000,4.000000,4.000000,4.000000,4.000000,4.000000,4.000000,4.000000,4.000000,4.000000,4.000000,4.000000,4.000000,4.000000,4.000000,100.000000,,,,,,,,,,,,,,,,
1644854767.950383,150.000000,0.000000,4213.333496,4214.230957,4204.615234,4175.000000,4213.205078,4205.128418,4211.153809,4218.077148,4218.333496,4221.153809,4210.641113,4187.563965,4213.461426,4198.717773,3695.000000,4.000000,82.000000,,,,0.000000,4.000000,4.000000,4.000000,4.000000,4.000000,4.000000,4.000000,4.000000,4.000000,4.000000,4.000000,4.000000,4.000000,4.000000,100.000000,,,,,,,,,,,,,,,,
1644854767.954323,151.000000,0.000000,4216.666504,4219.230957,4204.871582,4173.461426,4215.897461,4208.974121,4213.077148,4219.487305,4219.615234,4217.179688,4204.487305,4185.512695,4209.102539,4204.871582,2376.000000,4.000000,82.000000,,,,0.000000,4.000000,4.000000,4.000000,4.000000,4.000000,4.000000,4.000000,4.000000,4.000000,4.000000,4.000000,4.000000,4.000000,4.000000,100.000000,,,,,,,,,,,,,,,,
1644854767.958263,152.000000,0.000000,4213.333496,4218.589844,4203.077148,4182.179688,4214.871582,4212.948730,4214.487305,4219.230957,4219.743652,4214.102539,4199.871582,4178.974121,4203.974121,4207.563965,3697.000000,4.000000,82.000000,,,,0.000000,4.000000,4.000000,4.000000,4.000000,4.000000,4.000000,4.000000,4.000000,4.000000,4.000000,4.000000,4.000000,4.000000,4.000000,100.000000,,,,,,,,,,,,,,,,
1644854767.962203,153.000000,0.000000,4207.948730,4212.820313,4198.846191,4193.077148,4213.717773,4213.846191,4213.205078,4217.307617,4219.102539,4214.487305,4200.256348,4170.769043,4201.666504,4206.153809,3484.000000,4.000000,82.000000,,,,0.000000,4.000000,4.000000,4.000000,4.000000,4.000000,4.000000,4.000000,4.000000,4.000000,4.000000,4.000000,4.000000,4.000000,4.000000,100.000000,,,,,,,,,,,,,,,,
1644854767.966143,154.000000,0.000000,4204.871582,4207.436035,4193.717773,4198.846191,4215.384766,4210.641113,4210.512695,4215.641113,4218.077148,4219.230957,4204.358887,4165.256348,4203.846191,4204.358887,3695.000000,4.000000,82.000000,,,,0.000000,4.000000,4.000000,4.000000,4.000000,4.000000,4.000000,4.000000,4.000000,4.000000,4.000000,4.000000,4.000000,4.000000,4.000000,100.000000,,,,,,,,,,,,,,,,
1644854767.970083,155.000000,0.000000,4204.871582,4207.307617,4190.000000,4196.922852,4218.589844,4205.641113,4209.102539,4215.897461,4217.307617,4225.769043,4208.846191,4164.230957,4209.358887,4205.256348,2376.000000,4.000000,82.000000,,,,0.000000,4.000000,4.000000,4.000000,4.000000,4.000000,4.000000,4.000000,4.000000,4.000000,4.000000,4.000000,4.000000,4.000000,4.000000,100.000000,,,,,,,,,,,,,,,,
1644854767.974023,156.000000,0.000000,4205.000000,4212.692383,4189.743652,4190.384766,4218.717773,4202.436035,4209.615234,4217.948730,4216.410156,4229.871582,4211.922852,4166.538574,4215.256348,4206.666504,3697.000000,4.000000,82.000000,,,,0.000000,4.000000,4.000000,4.000000,4.000000,4.000000,4.000000,4.000000,4.000000,4.000000,4.000000,4.000000,4.000000,4.000000,4.000000,100.000000,,,,,,,,,,,,,,,,
1644854767.977963,157.000000,0.000000,4203.077148,4218.846191,4193.077148,4183.974121,4213.333496,4202.436035,4210.256348,4219.102539,4214.615234,4227.948730,4213.589844,4169.743652,4218.077148,4203.846191,3484.000000,4.000000,82.000000,,,,0.000000,4.000000,4.000000,4.000000,4.000000,4.000000,4.000000,4.000000,4.000000,4.000000,4.000000,4.000000,4.000000,4.000000,4.000000,100.000000,,,,,,,,,,,,,,,,
1644854767.982003,158.000000,0.000000,4199.230957,4220.000000,4197.436035,4181.922852,4204.102539,4203.589844,4208.974121,4216.794922,4211.025879,4219.358887,4213.717773,4171.410156,4215.897461,4196.025879,3695.000000,4.000000,82.000000,,,,0.000000,4.000000,4.000000,4.000000,4.000000,4.000000,4.000000,4.000000,4.000000,4.000000,4.000000,4.000000,4.000000,4.000000,4.000000,100.000000,,,,,,,,,,,,,,,,
1644854767.985943,159.000000,0.000000,4195.897461,4214.230957,4200.256348,4185.000000,4196.025879,4203.333496,4206.794922,4210.897461,4205.769043,4207.692383,4210.512695,4171.153809,4209.230957,4188.461426,2376.000000,4.000000,82.000000,,,,0.000000,4.000000,4.000000,4.000000,4.000000,4.000000,4.000000,4.000000,4.000000,4.000000,4.000000,4.000000,4.000000,4.000000,4.000000,100.000000,,,,,,,,,,,,,,,,
1644854767.989883,160.000000,0.000000,4195.256348,4204.615234,4200.512695,4190.000000,4193.205078,4201.025879,4205.512695,4203.974121,4200.128418,4197.692383,4202.820313,4170.000000,4200.256348,4187.563965,3697.000000,4.000000,82.000000,,,,0.000000,4.000000,4.000000,4.000000,4.000000,4.000000,4.000000,4.000000,4.000000,4.000000,4.000000,4.000000,4.000000,4.000000,4.000000,100.000000,,,,,,,,,,,,,,,,
1644854767.993824,161.000000,0.000000,4196.282227,4197.051270,4199.743652,4192.436035,4195.641113,4198.846191,4206.410156,4200.256348,4196.410156,4193.974121,4192.051270,4170.769043,4192.307617,4193.077148,3484.000000,4.000000,82.000000,,,,0.000000,4.000000,4.000000,4.000000,4.000000,4.000000,4.000000,4.000000,4.000000,4.000000,4.000000,4.000000,4.000000,4.000000,4.000000,100.000000,,,,,,,,,,,,,,,,
1644854767.997764,162.000000,0.000000,4195.641113,4195.128418,4200.512695,4189.743652,4200.256348,4198.589844,4208.077148,4201.922852,4196.282227,4197.179688,4182.563965,4176.282227,4187.692383,4197.563965,3695.000000,4.000000,82.000000,,,,0.000000,4.000000,4.000000,4.000000,4.000000,4.000000,4.000000,4.000000,4.000000,4.000000,4.000000,4.000000,4.000000,4.000000,4.000000,100.000000,,,,,,,,,,,,,,,,
1644854768.001704,163.000000,0.000000,4191.153809,4197.436035,4204.102539,4183.333496,4203.846191,4200.512695,4209.358887,4207.563965,4200.128418,4203.333496,4179.743652,4186.538574,4186.922852,4194.487305,2376.000000,4.000000,82.000000,,,,0.000000,4.000000,4.000000,4.000000,4.000000,4.000000,4.000000,4.000000,4.000000,4.000000,4.000000,4.000000,4.000000,4.000000,4.000000,100.000000,,,,,,,,,,,,,,,,
1644854768.005644,164.000000,0.000000,4183.461426,4199.615234,4208.717773,4178.077148,4205.897461,4202.948730,4210.384766,4213.333496,4205.512695,4207.307617,4186.666504,4197.307617,4189.358887,4185.641113,3697.000000,4.000000,82.000000,,,,0.000000,4.000000,4.000000,4.000000,4.000000,4.000000,4.000000,4.000000,4.000000,4.000000,4.000000,4.000000,4.000000,4.000000,4.000000,100.000000,,,,,,,,,,,,,,,,
1644854768.009584,165.000000,0.000000,4176.794922,4198.717773,4211.794922,4178.717773,4207.820313,4204.358887,4211.922852,4216.025879,4208.846191,4206.025879,4201.025879,4202.948730,4194.102539,4179.743652,3484.000000,4.000000,82.000000,,,,0.000000,4.000000,4.000000,4.000000,4.000000,4.000000,4.000000,4.000000,4.000000,4.000000,4.000000,4.000000,4.000000,4.000000,4.000000,100.000000,,,,,,,,,,,,,,,,
1644854768.013524,166.000000,0.000000,4174.102539,4195.769043,4212.307617,4185.641113,4210.000000,4204.871582,4213.717773,4215.000000,4208.846191,4201.410156,4214.358887,4202.948730,4198.077148,4182.307617,3695.000000,4.000000,82.000000,,,,0.000000,4.000000,4.000000,4.000000,4.000000,4.000000,4.000000,4.000000,4.000000,4.000000,4.000000,4.000000,4.000000,4.000000,4.000000,100.000000,,,,,,,,,,,,,,,,
1644854768.017464,167.000000,0.000000,4174.615234,4193.846191,4212.948730,4192.436035,4211.153809,4205.769043,4214.615234,4212.820313,4206.794922,4197.179688,4217.051270,4201.794922,4197.051270,4188.205078,2376.000000,4.000000,82.000000,,,,0.000000,4.000000,4.000000,4.000000,4.000000,4.000000,4.000000,4.000000,4.000000,4.000000,4.000000,4.000000,4.000000,4.000000,4.000000,100.000000,,,,,,,,,,,,,,,,
1644854768.021404,168.000000,0.000000,4172.307617,4192.948730,4216.538574,4190.128418,4208.717773,4207.436035,4214.102539,4212.307617,4204.871582,4195.512695,4205.769043,4206.153809,4187.692383,4187.692383,3697.000000,4.000000,82.000000,,,,0.000000,4.000000,4.000000,4.000000,4.000000,4.000000,4.000000,4.000000,4.000000,4.000000,4.000000,4.000000,4.000000,4.000000,4.000000,100.000000,,,,,,,,,,,,,,,,
1644854768.025344,169.000000,0.000000,4159.102539,4188.974121,4223.589844,4174.358887,4202.179688,4208.333496,4213.846191,4214.358887,4204.230957,4195.384766,4185.384766,4217.436035,4171.153809,4176.666504,3484.000000,4.000000,82.000000,,,,0.000000,4.000000,4.000000,4.000000,4.000000,4.000000,4.000000,4.000000,4.000000,4.000000,4.000000,4.000000,4.000000,4.000000,4.000000,100.000000,,,,,,,,,,,,,,,,
1644854768.029285,170.000000,0.000000,4132.692383,4177.436035,4232.692383,4150.256348,4194.358887,4207.307617,4215.128418,4217.436035,4203.974121,4194.230957,4165.000000,4232.051270,4152.179688,4160.000000,3695.000000,4.000000,82.000000,,,,0.000000,4.000000,4.000000,4.000000,4.000000,4.000000,4.000000,4.000000,4.000000,4.000000,4.000000,4.000000,4.000000,4.000000,4.000000,100.000000,,,,,,,,,,,,,,,,
1644854768.033225,171.000000,0.000000,4101.666504,4161.666504,4240.641113,4131.282227,4189.871582,4205.641113,4217.692383,4219.230957,4203.333496,4192.436035,4152.820313,4243.077148,4136.538574,4146.282227,2376.000000,4.000000,82.000000,,,,0.000000,4.000000,4.000000,4.000000,4.000000,4.000000,4.000000,4.000000,4.000000,4.000000,4.000000,4.000000,4.000000,4.000000,4.000000,100.000000,,,,,,,,,,,,,,,,
1644854768.037165,172.000000,0.000000,4084.230713,4152.820313,4244.230957,4130.384766,4192.436035,4205.641113,4219.102539,4218.846191,4202.948730,4193.461426,4153.077148,4245.256348,4128.846191,4142.436035,3697.000000,4.000000,82.000000,,,,0.000000,4.000000,4.000000,4.000000,4.000000,4.000000,4.000000,4.000000,4.000000,4.000000,4.000000,4.000000,4.000000,4.000000,4.000000,100.000000,,,,,,,,,,,,,,,,
1644854768.041105,173.000000,0.000000,4097.179688,4162.436035,4241.922852,4151.538574,4201.410156,4208.589844,4218.333496,4217.051270,4204.487305,4200.384766,4165.512695,4237.051270,4132.820313,4151.666504,3484.000000,4.000000,82.000000,,,,0.000000,4.000000,4.000000,4.000000,4.000000,4.000000,4.000000,4.000000,4.000000,4.000000,4.000000,4.000000,4.000000,4.000000,4.000000,100.000000,,,,,,,,,,,,,,,,
1644854768.044945,174.000000,0.000000,4143.974121,4192.307617,4233.717773,4185.769043,4211.153809,4213.077148,4217.436035,4215.769043,4207.948730,4212.563965,4187.307617,4220.512695,4151.025879,4172.563965,3695.000000,4.000000,82.000000,,,,0.000000,4.000000,4.000000,4.000000,4.000000,4.000000,4.000000,4.000000,4.000000,4.000000,4.000000,4.000000,4.000000,4.000000,4.000000,100.000000,,,,,,,,,,,,,,,,
1644854768.048885,175.000000,0.000000,4210.256348,4232.051270,4222.179688,4217.820313,4215.769043,4216.666504,4218.589844,4216.794922,4211.794922,4225.769043,4214.230957,4200.769043,4183.846191,4200.128418,2376.000000,4.000000,82.000000,,,,0.000000,4.000000,4.000000,4.000000,4.000000,4.000000,4.000000,4.000000,4.000000,4.000000,4.000000,4.000000,4.000000,4.000000,4.000000,100.000000,,,,,,,,,,,,,,,,
1644854768.052825,176.000000,0.000000,4271.282227,4265.769043,4211.922852,4234.743652,4215.128418,4218.077148,4221.538574,4220.897461,4214.615234,4235.128418,4240.897461,4183.333496,4226.922852,4226.282227,3697.000000,4.000000,82.000000,,,,0.000000,4.000000,4.000000,4.000000,4.000000,4.000000,4.000000,4.000000,4.000000,4.000000,4.000000,4.000000,4.000000,4.000000,4.000000,100.000000,,,,,,,,,,,,,,,,
1644854768.056765,177.000000,0.000000,4306.025879,4282.051270,4205.897461,4233.333496,4213.717773,4217.307617,4223.461426,4226.025879,4216.794922,4238.846191,4260.641113,4172.820313,4270.769043,4244.487305,3484.000000,4.000000,82.000000,,,,0.000000,4.000000,4.000000,4.000000,4.000000,4.000000,4.000000,4.000000,4.000000,4.000000,4.000000,4.000000,4.000000,4.000000,4.000000,100.000000,,,,,,,,,,,,,,,,
1644854768.060705,178.000000,0.000000,4307.436035,4279.487305,4204.871582,4220.769043,4215.641113,4215.641113,4222.563965,4229.487305,4219.230957,4237.563965,4267.307617,4170.256348,4302.692383,4254.102539,3695.000000,4.000000,82.000000,,,,0.000000,4.000000,4.000000,4.000000,4.000000,4.000000,4.000000,4.000000,4.000000,4.000000,4.000000,4.000000,4.000000,4.000000,4.000000,100.000000,,,,,,,,,,,,,,,,
1644854768.064646,179.000000,0.000000,4284.871582,4265.256348,4207.563965,4209.230957,4220.256348,4214.743652,4220.512695,4230.128418,4221.794922,4233.589844,4259.102539,4174.102539,4313.077148,4261.153809,2376.000000,4.000000,82.000000,,,,0.000000,4.000000,4.000000,4.000000,4.000000,4.000000,4.000000,4.000000,4.000000,4.000000,4.000000,4.000000,4.000000,4.000000,4.000000,100.000000,,,,,,,,,,,,,,,,
1644854768.068586,180.000000,0.000000,4256.666504,4249.871582,4211.666504,4207.820313,4223.846191,4215.256348,4220.641113,4228.717773,4223.717773,4230.000000,4241.410156,4180.641113,4301.153809,4275.256348,3697.000000,4.000000,82.000000,,,,0.000000,4.000000,4.000000,4.000000,4.000000,4.000000,4.000000,4.000000,4.000000,4.000000,4.000000,4.000000,4.000000,4.000000,4.000000,100.000000,,,,,,,,,,,,,,,,
1644854768.072526,181.000000,0.000000,4240.384766,4240.384766,4214.871582,4216.666504,4224.743652,4216.666504,4223.717773,4226.922852,4224.487305,4228.333496,4225.641113,4186.410156,4275.769043,4305.384766,3484.000000,4.000000,82.000000,,,,0.000000,4.000000,4.000000,4.000000,4.000000,4.000000,4.000000,4.000000,4.000000,4.000000,4.000000,4.000000,4.000000,4.000000,4.000000,100.000000,,,,,,,,,,,,,,,,
1644854768.076366,182.000000,0.000000,4244.230957,4238.717773,4215.384766,4228.077148,4223.974121,4217.820313,4226.922852,4225.512695,4224.615234,4228.717773,4221.282227,4189.871582,4250.897461,4358.333496,3695.000000,4.000000,82.000000,,,,0.000000,4.000000,4.000000,4.000000,4.000000,4.000000,4.000000,4.000000,4.000000,4.000000,4.000000,4.000000,4.000000,4.000000,4.000000,100.000000,,,,,,,,,,,,,,,,
1644854768.080306,183.000000,0.000000,4265.256348,4241.410156,4212.948730,4232.820313,4223.077148,4218.461426,4227.563965,4224.230957,4224.230957,4228.846191,4229.102539,4190.769043,4237.051270,4437.436035,2376.000000,4.000000,82.000000,,,,0.000000,4.000000,4.000000,4.000000,4.000000,4.000000,4.000000,4.000000,4.000000,4.000000,4.000000,4.000000,4.000000,4.000000,4.000000,100.000000,,,,,,,,,,,,,,,,
1644854768.084246,184.000000,0.000000,4292.948730,4243.077148,4208.846191,4228.333496,4221.410156,4218.717773,4225.769043,4222.948730,4222.948730,4227.051270,4239.615234,4189.871582,4235.769043,4539.871582,3697.000000,4.000000,82.000000,,,,0.000000,4.000000,4.000000,4.000000,4.000000,4.000000,4.000000,4.000000,4.000000,4.000000,4.000000,4.000000,4.000000,4.000000,4.000000,100.000000,,,,,,,,,,,,,,,,
1644854768.088186,185.000000,0.000000,4315.512695,4240.256348,4205.897461,4218.974121,4217.051270,4218.333496,4224.358887,4222.307617,4220.512695,4222.692383,4240.769043,4189.487305,4239.102539,4651.922852,3484.000000,4.000000,82.000000,,,,0.000000,4.000000,4.000000,4.000000,4.000000,4.000000,4.000000,4.000000,4.000000,4.000000,4.000000,4.000000,4.000000,4.000000,4.000000,100.000000,,,,,,,,,,,,,,,,
1644854768.092126,186.000000,0.000000,4327.051270,4233.333496,4205.641113,4210.641113,4209.358887,4217.307617,4224.615234,4222.820313,4217.820313,4217.436035,4228.589844,4192.307617,4237.051270,4752.179688,3695.000000,4.000000,82.000000,,,,0.000000,4.000000,4.000000,4.000000,4.000000,4.000000,4.000000,4.000000,4.000000,4.000000,4.000000,4.000000,4.000000,4.000000,4.000000,100.000000,,,,,,,,,,,,,,,,
1644854768.096067,187.000000,0.000000,4330.641113,4225.769043,4208.205078,4206.025879,4201.538574,4216.025879,4225.128418,4224.358887,4216.153809,4213.461426,4211.666504,4198.589844,4226.153809,4824.871582,2376.000000,4.000000,82.000000,,,,0.000000,4.000000,4.000000,4.000000,4.000000,4.000000,4.000000,4.000000,4.000000,4.000000,4.000000,4.000000,4.000000,4.000000,4.000000,100.000000,,,,,,,,,,,,,,,,
1644854768.100007,188.000000,0.000000,4334.230957,4221.922852,4211.922852,4203.333496,4199.487305,4216.025879,4224.358887,4225.512695,4216.410156,4211.410156,4203.589844,4205.512695,4212.051270,4871.410156,3697.000000,4.000000,82.000000,,,,0.000000,4.000000,4.000000,4.000000,4.000000,4.000000,4.000000,4.000000,4.000000,4.000000,4.000000,4.000000,4.000000,4.000000,4.000000,100.000000,,,,,,,,,,,,,,,,
1644854768.103947,189.000000,0.000000,4343.717773,4223.589844,4214.871582,4200.512695,4206.153809,4217.820313,4222.948730,4225.256348,4217.436035,4210.256348,4210.256348,4209.230957,4203.974121,4906.666504,3484.000000,4.000000,82.000000,,,,0.000000,4.000000,4.000000,4.000000,4.000000,4.000000,4.000000,4.000000,4.000000,4.000000,4.000000,4.000000,4.000000,4.000000,4.000000,100.000000,,,,,,,,,,,,,,,,
1644854768.107887,190.000000,0.000000,4360.256348,4230.512695,4215.512695,4197.563965,4218.717773,4220.769043,4223.461426,4223.333496,4217.692383,4207.820313,4225.256348,4207.692383,4205.897461,4944.102539,3695.000000,4.000000,82.000000,,,,0.000000,4.000000,4.000000,4.000000,4.000000,4.000000,4.000000,4.000000,4.000000,4.000000,4.000000,4.000000,4.000000,4.000000,4.000000,100.000000,,,,,,,,,,,,,,,,
1644854768.111827,191.000000,0.000000,4381.538574,4239.743652,4212.948730,4195.641113,4230.384766,4223.717773,4226.794922,4220.128418,4216.153809,4204.230957,4237.820313,4201.282227,4215.512695,4984.487305,2376.000000,4.000000,82.000000,,,,0.000000,4.000000,4.000000,4.000000,4.000000,4.000000,4.000000,4.000000,4.000000,4.000000,4.000000,4.000000,4.000000,4.000000,4.000000,100.000000,,,,,,,,,,,,,,,,
1644854768.115767,192.000000,0.000000,4404.743652,4247.820313,4207.436035,4195.769043,4235.897461,4225.641113,4229.615234,4216.538574,4213.205078,4201.282227,4242.307617,4191.922852,4228.077148,5019.230957,3697.000000,4.000000,82.000000,,,,0.000000,4.000000,4.000000,4.000000,4.000000,4.000000,4.000000,4.000000,4.000000,4.000000,4.000000,4.000000,4.000000,4.000000,4.000000,100.000000,,,,,,,,,,,,,,,,
1644854768.119807,193.000000,0.000000,4426.922852,4252.179688,4201.025879,4197.820313,4234.102539,4226.666504,4228.846191,4213.461426,4209.743652,4201.153809,4240.128418,4182.179688,4241.794922,5040.769043,3484.000000,4.000000,82.000000,,,,0.000000,4.000000,4.000000,4.000000,4.000000,4.000000,4.000000,4.000000,4.000000,4.000000,4.000000,4.000000,4.000000,4.000000,4.000000,100.000000,,,,,,,,,,,,,,,,
1644854768.123747,194.000000,0.000000,4443.846191,4252.820313,4197.307617,4200.256348,4227.436035,4226.922852,4225.000000,4211.538574,4207.307617,4203.589844,4235.641113,4175.769043,4255.641113,5048.846191,3695.000000,4.000000,82.000000,,,,0.000000,4.000000,4.000000,4.000000,4.000000,4.000000,4.000000,4.000000,4.000000,4.000000,4.000000,4.000000,4.000000,4.000000,4.000000,100.000000,,,,,,,,,,,,,,,,
1644854768.127687,195.000000,0.000000,4452.179688,4252.307617,4198.205078,4201.538574,4220.128418,4227.307617,4222.307617,4212.307617,4206.794922,4206.666504,4232.051270,4175.769043,4266.153809,5049.358887,2376.000000,4.000000,82.000000,,,,0.000000,4.000000,4.000000,4.000000,4.000000,4.000000,4.000000,4.000000,4.000000,4.000000,4.000000,4.000000,4.000000,4.000000,4.000000,100.000000,,,,,,,,,,,,,,,,
1644854768.131627,196.000000,0.000000,4451.025879,4252.436035,4201.410156,4200.384766,4216.153809,4227.692383,4223.589844,4215.897461,4208.589844,4207.307617,4230.641113,4180.641113,4267.563965,5048.077148,3697.000000,4.000000,82.000000,,,,0.000000,4.000000,4.000000,4.000000,4.000000,4.000000,4.000000,4.000000,4.000000,4.000000,4.000000,4.000000,4.000000,4.000000,4.000000,100.000000,,,,,,,,,,,,,,,,
1644854768.135567,197.000000,0.000000,4439.487305,4251.282227,4203.333496,4196.666504,4216.410156,4227.436035,4227.563965,4220.512695,4212.307617,4204.102539,4230.384766,4186.666504,4256.538574,5046.282227,3484.000000,4.000000,82.000000,,,,0.000000,4.000000,4.000000,4.000000,4.000000,4.000000,4.000000,4.000000,4.000000,4.000000,4.000000,4.000000,4.000000,4.000000,4.000000,100.000000,,,,,,,,,,,,,,,,
1644854768.139508,198.000000,0.000000,4416.410156,4243.333496,4203.205078,4191.025879,4218.461426,4225.897461,4230.384766,4223.974121,4216.666504,4197.692383,4228.333496,4192.948730,4235.256348,5039.358887,3695.000000,4.000000,82.000000,,,,0.000000,4.000000,4.000000,4.000000,4.000000,4.000000,4.000000,4.000000,4.000000,4.000000,4.000000,4.000000,4.000000,4.000000,4.000000,100.000000,,,,,,,,,,,,,,,,
1644854768.143448,199.000000,0.000000,4383.333496,4226.666504,4204.358887,4184.358887,4218.717773,4223.333496,4230.128418,4225.000000,4220.512695,4191.153809,4222.436035,4202.307617,4210.256348,5020.769043,2376.000000,4.000000,82.000000,,,,0.000000,4.000000,4.000000,4.000000,4.000000,4.000000,4.000000,4.000000,4.000000,4.000000,4.000000,4.000000,4.000000,4.000000,4.000000,100.000000,,,,,,,,,,,,,,,,
1644854768.147388,200.000000,0.000000,4349.230957,4206.282227,4209.230957,4177.692383,4216.410156,4220.897461,4228.461426,4223.461426,4222.563965,4187.948730,4215.128418,4215.641113,4189.743652,4987.692383,3697.000000,4.000000,82.000000,,,,0.000000,4.000000,4.000000,4.000000,4.000000,4.000000,4.000000,4.000000,4.000000,4.000000,4.000000,4.000000,4.000000,4.000000,4.000000,100.000000,,,,,,,,,,,,,,,,
1644854768.151328,201.000000,0.000000,4326.922852,4191.794922,4215.384766,4171.666504,4213.077148,4218.974121,4227.051270,4219.615234,4221.282227,4188.205078,4211.025879,4227.436035,4179.615234,4946.153809,3484.000000,4.000000,82.000000,,,,0.000000,4.000000,4.000000,4.000000,4.000000,4.000000,4.000000,4.000000,4.000000,4.000000,4.000000,4.000000,4.000000,4.000000,4.000000,100.000000,,,,,,,,,,,,,,,,
1644854768.155268,202.000000,0.000000,4322.692383,4189.358887,4218.077148,4166.922852,4209.871582,4216.794922,4225.897461,4214.487305,4216.794922,4189.871582,4211.666504,4229.743652,4179.487305,4909.615234,3695.000000,4.000000,82.000000,,,,0.000000,4.000000,4.000000,4.000000,4.000000,4.000000,4.000000,4.000000,4.000000,4.000000,4.000000,4.000000,4.000000,4.000000,4.000000,100.000000,,,,,,,,,,,,,,,,
1644854768.159208,203.000000,0.000000,4330.897461,4197.436035,4216.410156,4164.230957,4207.179688,4214.358887,4224.615234,4210.384766,4211.153809,4191.153809,4213.461426,4221.025879,4182.563965,4891.153809,2376.000000,4.000000,82.000000,,,,0.000000,4.000000,4.000000,4.000000,4.000000,4.000000,4.000000,4.000000,4.000000,4.000000,4.000000,4.000000,4.000000,4.000000,4.000000,100.000000,,,,,,,,,,,,,,,,
1644854768.163148,204.000000,0.000000,4340.897461,4208.589844,4214.102539,4163.589844,4206.410156,4212.820313,4224.358887,4209.871582,4208.333496,4193.333496,4213.846191,4207.692383,4182.436035,4894.487305,3697.000000,4.000000,82.000000,,,,0.000000,4.000000,4.000000,4.000000,4.000000,4.000000,4.000000,4.000000,4.000000,4.000000,4.000000,4.000000,4.000000,4.000000,4.000000,100.000000,,,,,,,,,,,,,,,,
1644854768.167088,205.000000,0.000000,4347.307617,4217.051270,4215.128418,4162.948730,4210.256348,4214.230957,4227.436035,4213.461426,4210.641113,4198.974121,4216.538574,4199.230957,4181.153809,4908.205078,3484.000000,4.000000,82.000000,,,,0.000000,4.000000,4.000000,4.000000,4.000000,4.000000,4.000000,4.000000,4.000000,4.000000,4.000000,4.000000,4.000000,4.000000,4.000000,100.000000,,,,,,,,,,,,,,,,
