title:Alex-R9clIkddpYm25X4ai8WBYQ, start timestamp:1644854311.292523, stop timestamp:1644854337.288349, headset type:EPOCPLUS, headset serial:3B9AEBFF, headset firmware:626, channels:55, sampling rate:eeg_256, samples:6606      , version:2.1, 
Timestamp,EEG.Counter,EEG.Interpolated,EEG.AF3,EEG.F7,EEG.F3,EEG.FC5,EEG.T7,EEG.P7,EEG.O1,EEG.O2,EEG.P8,EEG.T8,EEG.FC6,EEG.F4,EEG.F8,EEG.AF4,EEG.RawCq,EEG.Battery,EEG.BatteryPercent,MarkerIndex,MarkerType,MarkerValueInt,EEG.MarkerHardware,CQ.AF3,CQ.F7,CQ.F3,CQ.FC5,CQ.T7,CQ.P7,CQ.O1,CQ.O2,CQ.P8,CQ.T8,CQ.FC6,CQ.F4,CQ.F8,CQ.AF4,CQ.Overall,EQ.SampleRateQuality,EQ.OVERALL,EQ.AF3,EQ.F7,EQ.F3,EQ.FC5,EQ.T7,EQ.P7,EQ.O1,EQ.O2,EQ.P8,EQ.T8,EQ.FC6,EQ.F4,EQ.F8,EQ.AF4
1644854311.292523,213.000000,0.000000,4105.384766,4237.948730,4223.205078,4208.974121,4243.461426,4230.384766,4225.512695,4217.436035,4212.948730,4216.922852,4201.282227,4194.487305,4210.256348,4222.948730,3491.000000,4.000000,86.000000,,,,0.000000,4.000000,4.000000,4.000000,4.000000,4.000000,4.000000,4.000000,4.000000,4.000000,4.000000,4.000000,4.000000,4.000000,4.000000,100.000000,,,,,,,,,,,,,,,,
1644854311.296563,214.000000,0.000000,4115.128418,4233.974121,4231.282227,4218.205078,4241.666504,4230.641113,4227.179688,4219.358887,4216.922852,4222.692383,4214.871582,4196.922852,4212.436035,4230.384766,3676.000000,4.000000,86.000000,,,,0.000000,4.000000,4.000000,4.000000,4.000000,4.000000,4.000000,4.000000,4.000000,4.000000,4.000000,4.000000,4.000000,4.000000,4.000000,100.000000,,,,,,,,,,,,,,,,
1644854311.300503,215.000000,0.000000,4121.410156,4226.025879,4236.282227,4225.897461,4240.256348,4231.538574,4229.102539,4219.743652,4219.743652,4224.358887,4226.025879,4199.487305,4212.436035,4239.615234,2433.000000,4.000000,86.000000,,,,0.000000,4.000000,4.000000,4.000000,4.000000,4.000000,4.000000,4.000000,4.000000,4.000000,4.000000,4.000000,4.000000,4.000000,4.000000,100.000000,,,,,,,,,,,,,,,,
1644854311.304443,216.000000,0.000000,4118.333496,4218.717773,4235.000000,4230.128418,4238.461426,4233.333496,4229.358887,4218.077148,4221.025879,4222.051270,4228.333496,4202.051270,4211.282227,4242.948730,3486.000000,4.000000,86.000000,,,,0.000000,4.000000,4.000000,4.000000,4.000000,4.000000,4.000000,4.000000,4.000000,4.000000,4.000000,4.000000,4.000000,4.000000,4.000000,100.000000,,,,,,,,,,,,,,,,
1644854311.308384,217.000000,0.000000,4105.384766,4216.025879,4228.589844,4229.743652,4236.282227,4234.743652,4227.692383,4215.512695,4221.410156,4217.948730,4220.256348,4203.717773,4210.256348,4237.820313,3491.000000,4.000000,86.000000,,,,0.000000,4.000000,4.000000,4.000000,4.000000,4.000000,4.000000,4.000000,4.000000,4.000000,4.000000,4.000000,4.000000,4.000000,4.000000,100.000000,,,,,,,,,,,,,,,,
1644854311.312324,218.000000,0.000000,4089.230713,4219.487305,4222.051270,4224.487305,4234.615234,4234.871582,4226.794922,4214.615234,4222.051270,4215.128418,4205.256348,4203.589844,4209.487305,4229.102539,3676.000000,4.000000,86.000000,,,,0.000000,4.000000,4.000000,4.000000,4.000000,4.000000,4.000000,4.000000,4.000000,4.000000,4.000000,4.000000,4.000000,4.000000,4.000000,100.000000,,,,,,,,,,,,,,,,
1644854311.316264,219.000000,0.000000,4078.846191,4226.410156,4219.487305,4215.769043,4236.153809,4234.358887,4228.333496,4217.051270,4223.974121,4215.512695,4191.410156,4201.922852,4208.333496,4223.461426,2433.000000,4.000000,86.000000,,,,0.000000,4.000000,4.000000,4.000000,4.000000,4.000000,4.000000,4.000000,4.000000,4.000000,4.000000,4.000000,4.000000,4.000000,4.000000,100.000000,,,,,,,,,,,,,,,,
1644854311.320104,220.000000,0.000000,4078.846191,4232.051270,4220.641113,4207.307617,4242.563965,4234.615234,4231.025879,4221.410156,4226.922852,4218.717773,4186.025879,4200.000000,4205.641113,4222.692383,3486.000000,4.000000,86.000000,,,,0.000000,4.000000,4.000000,4.000000,4.000000,4.000000,4.000000,4.000000,4.000000,4.000000,4.000000,4.000000,4.000000,4.000000,4.000000,100.000000,,,,,,,,,,,,,,,,
1644854311.324044,221.000000,0.000000,4086.538574,4232.179688,4221.922852,4202.436035,4251.922852,4235.512695,4231.153809,4224.102539,4228.974121,4221.922852,4191.282227,4199.615234,4201.025879,4223.717773,3491.000000,4.000000,86.000000,,,,0.000000,4.000000,4.000000,4.000000,4.000000,4.000000,4.000000,4.000000,4.000000,4.000000,4.000000,4.000000,4.000000,4.000000,4.000000,100.000000,,,,,,,,,,,,,,,,
1644854311.327984,222.000000,0.000000,4095.256348,4226.282227,4220.128418,4203.461426,4258.589844,4236.025879,4227.051270,4222.563965,4228.205078,4222.051270,4203.205078,4201.410156,4196.025879,4223.205078,3676.000000,4.000000,86.000000,,,,0.000000,4.000000,4.000000,4.000000,4.000000,4.000000,4.000000,4.000000,4.000000,4.000000,4.000000,4.000000,4.000000,4.000000,4.000000,100.000000,,,,,,,,,,,,,,,,
1644854311.331924,223.000000,0.000000,4099.871582,4218.205078,4215.897461,4208.974121,4257.179688,4234.743652,4221.666504,4217.692383,4224.358887,4218.333496,4214.743652,4203.077148,4193.589844,4221.666504,2433.000000,4.000000,86.000000,,,,0.000000,4.000000,4.000000,4.000000,4.000000,4.000000,4.000000,4.000000,4.000000,4.000000,4.000000,4.000000,4.000000,4.000000,4.000000,100.000000,,,,,,,,,,,,,,,,
1644854311.335864,224.000000,0.000000,4100.769043,4213.589844,4212.179688,4214.615234,4247.563965,4232.436035,4219.230957,4212.820313,4218.974121,4212.307617,4220.384766,4202.051270,4196.025879,4222.307617,3486.000000,4.000000,86.000000,,,,0.000000,4.000000,4.000000,4.000000,4.000000,4.000000,4.000000,4.000000,4.000000,4.000000,4.000000,4.000000,4.000000,4.000000,4.000000,100.000000,,,,,,,,,,,,,,,,
1644854311.339804,225.000000,0.000000,4102.179688,4216.025879,4211.410156,4216.025879,4235.384766,4230.769043,4221.153809,4211.025879,4214.358887,4207.179688,4218.717773,4196.922852,4202.820313,4226.025879,3491.000000,4.000000,86.000000,,,,0.000000,4.000000,4.000000,4.000000,4.000000,4.000000,4.000000,4.000000,4.000000,4.000000,4.000000,4.000000,4.000000,4.000000,4.000000,100.000000,,,,,,,,,,,,,,,,
1644854311.343745,226.000000,0.000000,4107.820313,4224.615234,4213.333496,4211.282227,4228.333496,4230.512695,4223.846191,4212.307617,4212.179688,4205.384766,4211.025879,4190.128418,4211.538574,4230.897461,3676.000000,4.000000,86.000000,,,,0.000000,4.000000,4.000000,4.000000,4.000000,4.000000,4.000000,4.000000,4.000000,4.000000,4.000000,4.000000,4.000000,4.000000,4.000000,100.000000,,,,,,,,,,,,,,,,
1644854311.347685,227.000000,0.000000,4116.922852,4234.358887,4215.512695,4202.948730,4229.871582,4230.256348,4224.102539,4214.358887,4212.948730,4207.051270,4201.282227,4185.897461,4218.333496,4233.974121,2433.000000,4.000000,86.000000,,,,0.000000,4.000000,4.000000,4.000000,4.000000,4.000000,4.000000,4.000000,4.000000,4.000000,4.000000,4.000000,4.000000,4.000000,4.000000,100.000000,,,,,,,,,,,,,,,,
1644854311.351625,228.000000,0.000000,4124.487305,4239.230957,4216.282227,4197.051270,4236.153809,4228.077148,4221.666504,4215.128418,4214.871582,4210.256348,4194.743652,4186.410156,4220.000000,4233.589844,3486.000000,4.000000,86.000000,,,,0.000000,4.000000,4.000000,4.000000,4.000000,4.000000,4.000000,4.000000,4.000000,4.000000,4.000000,4.000000,4.000000,4.000000,4.000000,100.000000,,,,,,,,,,,,,,,,
1644854311.355565,229.000000,0.000000,4124.230957,4236.410156,4215.256348,4198.846191,4239.615234,4223.589844,4219.102539,4213.589844,4215.641113,4212.179688,4194.743652,4190.769043,4216.282227,4229.230957,3491.000000,4.000000,86.000000,,,,0.000000,4.000000,4.000000,4.000000,4.000000,4.000000,4.000000,4.000000,4.000000,4.000000,4.000000,4.000000,4.000000,4.000000,4.000000,100.000000,,,,,,,,,,,,,,,,
1644854311.359505,230.000000,0.000000,4114.102539,4226.538574,4213.333496,4208.333496,4234.871582,4217.948730,4217.436035,4210.384766,4213.974121,4211.922852,4199.230957,4195.256348,4209.358887,4221.666504,3676.000000,4.000000,86.000000,,,,0.000000,4.000000,4.000000,4.000000,4.000000,4.000000,4.000000,4.000000,4.000000,4.000000,4.000000,4.000000,4.000000,4.000000,4.000000,100.000000,,,,,,,,,,,,,,,,
1644854311.363345,231.000000,0.000000,4097.692383,4214.230957,4211.794922,4218.717773,4223.717773,4214.102539,4215.512695,4207.051270,4210.641113,4210.384766,4203.205078,4195.769043,4202.307617,4213.077148,2433.000000,4.000000,86.000000,,,,0.000000,4.000000,4.000000,4.000000,4.000000,4.000000,4.000000,4.000000,4.000000,4.000000,4.000000,4.000000,4.000000,4.000000,4.000000,100.000000,,,,,,,,,,,,,,,,
1644854311.367285,232.000000,0.000000,4082.948730,4204.487305,4211.282227,4220.897461,4213.846191,4213.589844,4212.948730,4204.871582,4207.692383,4208.974121,4203.077148,4191.794922,4197.563965,4207.436035,3486.000000,4.000000,86.000000,,,,0.000000,4.000000,4.000000,4.000000,4.000000,4.000000,4.000000,4.000000,4.000000,4.000000,4.000000,4.000000,4.000000,4.000000,4.000000,100.000000,,,,,,,,,,,,,,,,
1644854311.371225,233.000000,0.000000,4077.564209,4201.025879,4211.538574,4211.153809,4212.051270,4215.897461,4211.282227,4204.487305,4207.179688,4207.820313,4200.769043,4186.282227,4195.641113,4209.102539,3491.000000,4.000000,86.000000,,,,0.000000,4.000000,4.000000,4.000000,4.000000,4.000000,4.000000,4.000000,4.000000,4.000000,4.000000,4.000000,4.000000,4.000000,4.000000,100.000000,,,,,,,,,,,,,,,,
1644854311.375166,234.000000,0.000000,4085.769287,4205.256348,4212.179688,4195.897461,4220.384766,4219.487305,4213.205078,4206.666504,4209.871582,4207.051270,4202.820313,4184.615234,4196.922852,4218.846191,3676.000000,4.000000,86.000000,,,,0.000000,4.000000,4.000000,4.000000,4.000000,4.000000,4.000000,4.000000,4.000000,4.000000,4.000000,4.000000,4.000000,4.000000,4.000000,100.000000,,,,,,,,,,,,,,,,
1644854311.379106,235.000000,0.000000,4105.128418,4215.641113,4212.948730,4186.282227,4234.615234,4223.461426,4218.461426,4211.282227,4215.384766,4207.820313,4213.077148,4189.487305,4202.436035,4231.922852,2433.000000,4.000000,86.000000,,,,0.000000,4.000000,4.000000,4.000000,4.000000,4.000000,4.000000,4.000000,4.000000,4.000000,4.000000,4.000000,4.000000,4.000000,4.000000,100.000000,,,,,,,,,,,,,,,,
1644854311.383046,236.000000,0.000000,4127.820313,4227.820313,4213.717773,4190.256348,4247.051270,4227.948730,4223.974121,4216.794922,4222.179688,4211.666504,4227.820313,4198.846191,4212.307617,4240.769043,3486.000000,4.000000,86.000000,,,,0.000000,4.000000,4.000000,4.000000,4.000000,4.000000,4.000000,4.000000,4.000000,4.000000,4.000000,4.000000,4.000000,4.000000,4.000000,100.000000,,,,,,,,,,,,,,,,
1644854311.386986,237.000000,0.000000,4144.358887,4236.025879,4215.000000,4205.000000,4251.153809,4232.692383,4226.282227,4220.256348,4227.051270,4217.179688,4236.282227,4207.820313,4223.461426,4240.384766,3491.000000,4.000000,86.000000,,,,0.000000,4.000000,4.000000,4.000000,4.000000,4.000000,4.000000,4.000000,4.000000,4.000000,4.000000,4.000000,4.000000,4.000000,4.000000,100.000000,,,,,,,,,,,,,,,,
1644854311.390926,238.000000,0.000000,4149.102539,4236.538574,4216.794922,4219.102539,4244.871582,4235.512695,4225.128418,4219.230957,4227.436035,4219.871582,4230.384766,4211.538574,4229.743652,4232.563965,3676.000000,4.000000,86.000000,,,,0.000000,4.000000,4.000000,4.000000,4.000000,4.000000,4.000000,4.000000,4.000000,4.000000,4.000000,4.000000,4.000000,4.000000,4.000000,100.000000,,,,,,,,,,,,,,,,
1644854311.394866,239.000000,0.000000,4142.563965,4229.358887,4218.974121,4222.307617,4232.563965,4233.461426,4221.794922,4213.846191,4222.692383,4215.641113,4212.692383,4208.205078,4226.282227,4223.077148,2433.000000,4.000000,86.000000,,,,0.000000,4.000000,4.000000,4.000000,4.000000,4.000000,4.000000,4.000000,4.000000,4.000000,4.000000,4.000000,4.000000,4.000000,4.000000,100.000000,,,,,,,,,,,,,,,,
1644854311.398806,240.000000,0.000000,4130.000000,4217.692383,4220.512695,4214.230957,4221.666504,4225.641113,4217.948730,4206.666504,4214.871582,4205.897461,4194.615234,4200.384766,4213.846191,4217.563965,3486.000000,4.000000,86.000000,,,,0.000000,4.000000,4.000000,4.000000,4.000000,4.000000,4.000000,4.000000,4.000000,4.000000,4.000000,4.000000,4.000000,4.000000,4.000000,100.000000,,,,,,,,,,,,,,,,
1644854311.402746,241.000000,0.000000,4118.333496,4206.794922,4220.512695,4203.974121,4217.563965,4215.000000,4213.846191,4200.897461,4207.692383,4197.051270,4187.820313,4193.205078,4198.717773,4217.820313,3491.000000,4.000000,86.000000,,,,0.000000,4.000000,4.000000,4.000000,4.000000,4.000000,4.000000,4.000000,4.000000,4.000000,4.000000,4.000000,4.000000,4.000000,4.000000,100.000000,,,,,,,,,,,,,,,,
1644854311.406686,242.000000,0.000000,4111.794922,4200.512695,4219.487305,4200.641113,4219.102539,4206.922852,4210.128418,4199.230957,4204.487305,4194.871582,4195.128418,4190.128418,4188.717773,4221.922852,3676.000000,4.000000,86.000000,,,,0.000000,4.000000,4.000000,4.000000,4.000000,4.000000,4.000000,4.000000,4.000000,4.000000,4.000000,4.000000,4.000000,4.000000,4.000000,100.000000,,,,,,,,,,,,,,,,
1644854311.410626,243.000000,0.000000,4111.666504,4200.641113,4217.948730,4203.974121,4220.384766,4205.128418,4208.846191,4201.794922,4205.256348,4199.743652,4208.846191,4190.641113,4187.692383,4226.922852,2433.000000,4.000000,86.000000,,,,0.000000,4.000000,4.000000,4.000000,4.000000,4.000000,4.000000,4.000000,4.000000,4.000000,4.000000,4.000000,4.000000,4.000000,4.000000,100.000000,,,,,,,,,,,,,,,,
1644854311.414567,244.000000,0.000000,4117.051270,4206.153809,4216.794922,4205.512695,4217.051270,4208.461426,4211.410156,4206.794922,4207.692383,4206.282227,4218.461426,4191.538574,4194.358887,4230.897461,3486.000000,4.000000,86.000000,,,,0.000000,4.000000,4.000000,4.000000,4.000000,4.000000,4.000000,4.000000,4.000000,4.000000,4.000000,4.000000,4.000000,4.000000,4.000000,100.000000,,,,,,,,,,,,,,,,
1644854311.418507,245.000000,0.000000,4127.820313,4214.871582,4216.410156,4198.333496,4210.512695,4212.820313,4216.538574,4211.410156,4209.615234,4208.461426,4219.743652,4190.384766,4204.615234,4232.692383,3491.000000,4.000000,86.000000,,,,0.000000,4.000000,4.000000,4.000000,4.000000,4.000000,4.000000,4.000000,4.000000,4.000000,4.000000,4.000000,4.000000,4.000000,4.000000,100.000000,,,,,,,,,,,,,,,,
1644854311.422447,246.000000,0.000000,4142.563965,4223.974121,4216.538574,4187.179688,4207.179688,4215.000000,4220.769043,4213.974121,4211.025879,4205.000000,4216.922852,4188.205078,4214.358887,4232.307617,3676.000000,4.000000,86.000000,,,,0.000000,4.000000,4.000000,4.000000,4.000000,4.000000,4.000000,4.000000,4.000000,4.000000,4.000000,4.000000,4.000000,4.000000,4.000000,100.000000,,,,,,,,,,,,,,,,
1644854311.426387,247.000000,0.000000,4157.307617,4230.256348,4216.666504,4184.230957,4212.948730,4215.641113,4221.666504,4214.615234,4212.948730,4199.743652,4216.794922,4188.077148,4220.384766,4230.512695,2433.000000,4.000000,86.000000,,,,0.000000,4.000000,4.000000,4.000000,4.000000,4.000000,4.000000,4.000000,4.000000,4.000000,4.000000,4.000000,4.000000,4.000000,4.000000,100.000000,,,,,,,,,,,,,,,,
1644854311.430327,248.000000,0.000000,4165.769043,4230.897461,4217.179688,4197.179688,4225.641113,4217.051270,4220.256348,4214.487305,4214.871582,4198.077148,4220.128418,4191.025879,4220.000000,4228.077148,3486.000000,4.000000,86.000000,,,,0.000000,4.000000,4.000000,4.000000,4.000000,4.000000,4.000000,4.000000,4.000000,4.000000,4.000000,4.000000,4.000000,4.000000,4.000000,100.000000,,,,,,,,,,,,,,,,
1644854311.434267,249.000000,0.000000,4163.846191,4225.897461,4218.589844,4219.743652,4236.538574,4220.641113,4219.487305,4214.487305,4215.000000,4201.794922,4221.410156,4195.384766,4213.333496,4226.153809,3491.000000,4.000000,86.000000,,,,0.000000,4.000000,4.000000,4.000000,4.000000,4.000000,4.000000,4.000000,4.000000,4.000000,4.000000,4.000000,4.000000,4.000000,4.000000,100.000000,,,,,,,,,,,,,,,,
1644854311.438107,250.000000,0.000000,4154.615234,4218.205078,4221.153809,4235.128418,4237.692383,4224.615234,4220.641113,4214.615234,4212.820313,4207.563965,4215.512695,4198.205078,4203.846191,4226.153809,3676.000000,4.000000,86.000000,,,,0.000000,4.000000,4.000000,4.000000,4.000000,4.000000,4.000000,4.000000,4.000000,4.000000,4.000000,4.000000,4.000000,4.000000,4.000000,100.000000,,,,,,,,,,,,,,,,
1644854311.442047,251.000000,0.000000,4147.820313,4212.692383,4223.974121,4231.153809,4228.589844,4226.410156,4222.051270,4214.487305,4210.128418,4210.897461,4204.871582,4197.820313,4197.179688,4228.205078,2433.000000,4.000000,86.000000,,,,0.000000,4.000000,4.000000,4.000000,4.000000,4.000000,4.000000,4.000000,4.000000,4.000000,4.000000,4.000000,4.000000,4.000000,4.000000,100.000000,,,,,,,,,,,,,,,,
1644854311.445988,252.000000,0.000000,4151.153809,4213.205078,4225.769043,4211.410156,4217.563965,4224.487305,4221.410156,4214.102539,4209.487305,4210.128418,4198.077148,4195.256348,4196.922852,4231.922852,3486.000000,4.000000,86.000000,,,,0.000000,4.000000,4.000000,4.000000,4.000000,4.000000,4.000000,4.000000,4.000000,4.000000,4.000000,4.000000,4.000000,4.000000,4.000000,100.000000,,,,,,,,,,,,,,,,
1644854311.449928,253.000000,0.000000,4163.974121,4220.512695,4225.641113,4193.461426,4214.743652,4220.128418,4218.717773,4213.974121,4211.666504,4206.538574,4201.538574,4192.436035,4203.077148,4236.282227,3491.000000,4.000000,86.000000,,,,0.000000,4.000000,4.000000,4.000000,4.000000,4.000000,4.000000,4.000000,4.000000,4.000000,4.000000,4.000000,4.000000,4.000000,4.000000,100.000000,,,,,,,,,,,,,,,,
1644854311.453868,254.000000,0.000000,4177.179688,4231.025879,4224.230957,4193.461426,4223.717773,4216.922852,4217.179688,4214.615234,4215.000000,4203.461426,4211.794922,4191.153809,4212.436035,4239.358887,3676.000000,4.000000,86.000000,,,,0.000000,4.000000,4.000000,4.000000,4.000000,4.000000,4.000000,4.000000,4.000000,4.000000,4.000000,4.000000,4.000000,4.000000,4.000000,100.000000,,,,,,,,,,,,,,,,
1644854311.457808,255.000000,0.000000,4181.025879,4238.974121,4223.333496,4211.538574,4237.436035,4216.538574,4218.333496,4215.512695,4217.179688,4202.563965,4218.974121,4191.922852,4220.641113,4238.846191,113.000000,4.000000,86.000000,,,,0.000000,4.000000,4.000000,4.000000,4.000000,4.000000,4.000000,4.000000,4.000000,4.000000,4.000000,4.000000,4.000000,4.000000,4.000000,100.000000,,,,,,,,,,,,,,,,
1644854311.461748,0.000000,0.000000,4173.461426,4240.000000,4224.102539,4232.051270,4245.128418,4218.077148,4220.512695,4215.512695,4216.922852,4203.846191,4215.512695,4194.230957,4224.102539,4233.589844,3406.000000,4.000000,86.000000,,,,0.000000,4.000000,4.000000,4.000000,4.000000,4.000000,4.000000,4.000000,4.000000,4.000000,4.000000,4.000000,4.000000,4.000000,4.000000,100.000000,,,,,,,,,,,,,,,,
1644854311.465688,1.000000,0.000000,4162.051270,4233.461426,4225.256348,4237.563965,4240.128418,4218.589844,4220.384766,4213.589844,4214.743652,4205.641113,4203.974121,4196.922852,4220.769043,4226.025879,3149.000000,4.000000,86.000000,,,,0.000000,4.000000,4.000000,4.000000,4.000000,4.000000,4.000000,4.000000,4.000000,4.000000,4.000000,4.000000,4.000000,4.000000,4.000000,100.000000,,,,,,,,,,,,,,,,
1644854311.469628,2.000000,0.000000,4157.436035,4223.333496,4224.871582,4223.974121,4225.384766,4216.794922,4217.436035,4210.384766,4211.794922,4207.436035,4194.743652,4198.717773,4211.410156,4220.256348,3542.000000,4.000000,86.000000,,,,0.000000,4.000000,4.000000,4.000000,4.000000,4.000000,4.000000,4.000000,4.000000,4.000000,4.000000,4.000000,4.000000,4.000000,4.000000,100.000000,,,,,,,,,,,,,,,,
1644854311.473568,3.000000,0.000000,4164.230957,4214.743652,4222.307617,4202.179688,4210.897461,4214.615234,4214.871582,4208.205078,4209.615234,4209.230957,4196.794922,4199.102539,4200.769043,4219.230957,3515.000000,4.000000,86.000000,,,,0.000000,4.000000,4.000000,4.000000,4.000000,4.000000,4.000000,4.000000,4.000000,4.000000,4.000000,4.000000,4.000000,4.000000,4.000000,100.000000,,,,,,,,,,,,,,,,
1644854311.477508,4.000000,0.000000,4177.307617,4212.179688,4219.358887,4189.487305,4205.769043,4215.512695,4215.641113,4209.230957,4209.487305,4211.282227,4209.615234,4198.461426,4194.358887,4221.153809,3505.000000,4.000000,86.000000,,,,0.000000,4.000000,4.000000,4.000000,4.000000,4.000000,4.000000,4.000000,4.000000,4.000000,4.000000,4.000000,4.000000,4.000000,4.000000,100.000000,,,,,,,,,,,,,,,,
1644854311.481448,5.000000,0.000000,4187.179688,4217.307617,4218.333496,4194.743652,4212.179688,4220.256348,4219.230957,4212.948730,4212.692383,4213.589844,4224.230957,4197.563965,4194.871582,4221.794922,3353.000000,4.000000,86.000000,,,,0.000000,4.000000,4.000000,4.000000,4.000000,4.000000,4.000000,4.000000,4.000000,4.000000,4.000000,4.000000,4.000000,4.000000,4.000000,100.000000,,,,,,,,,,,,,,,,
1644854311.485389,6.000000,0.000000,4187.179688,4227.179688,4218.974121,4211.666504,4224.615234,4225.769043,4222.051270,4216.666504,4217.948730,4215.512695,4230.897461,4195.897461,4200.128418,4219.230957,2617.000000,4.000000,86.000000,,,,0.000000,4.000000,4.000000,4.000000,4.000000,4.000000,4.000000,4.000000,4.000000,4.000000,4.000000,4.000000,4.000000,4.000000,4.000000,100.000000,,,,,,,,,,,,,,,,
1644854311.489329,7.000000,0.000000,4178.589844,4235.384766,4218.589844,4225.384766,4233.717773,4227.307617,4221.666504,4217.307617,4222.051270,4215.256348,4226.410156,4192.692383,4204.615234,4215.769043,2881.000000,4.000000,86.000000,,,,0.000000,4.000000,4.000000,4.000000,4.000000,4.000000,4.000000,4.000000,4.000000,4.000000,4.000000,4.000000,4.000000,4.000000,4.000000,100.000000,,,,,,,,,,,,,,,,
1644854311.493269,8.000000,0.000000,4167.692383,4235.128418,4215.000000,4224.743652,4232.820313,4223.077148,4218.846191,4213.589844,4221.282227,4210.641113,4215.512695,4187.436035,4204.102539,4214.871582,3284.000000,4.000000,86.000000,,,,0.000000,4.000000,4.000000,4.000000,4.000000,4.000000,4.000000,4.000000,4.000000,4.000000,4.000000,4.000000,4.000000,4.000000,4.000000,100.000000,,,,,,,,,,,,,,,,
1644854311.497209,9.000000,0.000000,4160.897461,4224.743652,4209.102539,4211.153809,4223.461426,4215.384766,4216.153809,4207.820313,4214.871582,4201.922852,4205.256348,4181.666504,4199.487305,4217.436035,3351.000000,4.000000,86.000000,,,,0.000000,4.000000,4.000000,4.000000,4.000000,4.000000,4.000000,4.000000,4.000000,4.000000,4.000000,4.000000,4.000000,4.000000,4.000000,100.000000,,,,,,,,,,,,,,,,
1644854311.501049,10.000000,0.000000,4160.128418,4209.615234,4204.487305,4195.769043,4214.615234,4209.871582,4215.384766,4203.974121,4206.666504,4193.077148,4200.128418,4178.077148,4195.256348,4220.769043,3544.000000,4.000000,86.000000,,,,0.000000,4.000000,4.000000,4.000000,4.000000,4.000000,4.000000,4.000000,4.000000,4.000000,4.000000,4.000000,4.000000,4.000000,4.000000,100.000000,,,,,,,,,,,,,,,,
1644854311.504989,11.000000,0.000000,4164.102539,4198.077148,4204.743652,4190.000000,4214.358887,4209.743652,4216.153809,4204.487305,4202.051270,4189.871582,4199.743652,4178.077148,4195.641113,4222.563965,2423.000000,4.000000,86.000000,,,,0.000000,4.000000,4.000000,4.000000,4.000000,4.000000,4.000000,4.000000,4.000000,4.000000,4.000000,4.000000,4.000000,4.000000,4.000000,100.000000,,,,,,,,,,,,,,,,
1644854311.508929,12.000000,0.000000,4169.487305,4196.025879,4210.897461,4197.051270,4222.820313,4214.102539,4218.205078,4208.461426,4203.846191,4194.358887,4201.794922,4181.153809,4201.025879,4223.461426,3468.000000,4.000000,86.000000,,,,0.000000,4.000000,4.000000,4.000000,4.000000,4.000000,4.000000,4.000000,4.000000,4.000000,4.000000,4.000000,4.000000,4.000000,4.000000,100.000000,,,,,,,,,,,,,,,,
1644854311.512869,13.000000,0.000000,4173.717773,4203.333496,4219.743652,4210.897461,4231.666504,4218.846191,4220.769043,4212.948730,4209.743652,4202.948730,4205.769043,4185.000000,4207.436035,4226.153809,3307.000000,4.000000,86.000000,,,,0.000000,4.000000,4.000000,4.000000,4.000000,4.000000,4.000000,4.000000,4.000000,4.000000,4.000000,4.000000,4.000000,4.000000,4.000000,100.000000,,,,,,,,,,,,,,,,
1644854311.516810,14.000000,0.000000,4176.410156,4214.615234,4225.769043,4222.051270,4231.666504,4221.282227,4222.820313,4214.743652,4215.000000,4208.974121,4212.436035,4187.051270,4210.512695,4231.282227,3544.000000,4.000000,86.000000,,,,0.000000,4.000000,4.000000,4.000000,4.000000,4.000000,4.000000,4.000000,4.000000,4.000000,4.000000,4.000000,4.000000,4.000000,4.000000,100.000000,,,,,,,,,,,,,,,,
1644854311.520750,15.000000,0.000000,4179.102539,4224.102539,4224.871582,4223.717773,4222.563965,4221.025879,4222.179688,4212.692383,4215.384766,4209.743652,4220.512695,4186.153809,4208.974121,4235.128418,2423.000000,4.000000,86.000000,,,,0.000000,4.000000,4.000000,4.000000,4.000000,4.000000,4.000000,4.000000,4.000000,4.000000,4.000000,4.000000,4.000000,4.000000,4.000000,100.000000,,,,,,,,,,,,,,,,
1644854311.524690,16.000000,0.000000,4182.563965,4229.358887,4217.692383,4215.512695,4212.563965,4219.615234,4217.820313,4208.077148,4211.153809,4207.307617,4225.641113,4182.307617,4205.000000,4234.102539,3468.000000,4.000000,86.000000,,,,0.000000,4.000000,4.000000,4.000000,4.000000,4.000000,4.000000,4.000000,4.000000,4.000000,4.000000,4.000000,4.000000,4.000000,4.000000,100.000000,,,,,,,,,,,,,,,,
1644854311.528630,17.000000,0.000000,4184.871582,4230.641113,4209.871582,4202.692383,4210.897461,4218.846191,4212.436035,4203.717773,4205.641113,4205.769043,4222.948730,4177.948730,4202.051270,4228.461426,3307.000000,4.000000,86.000000,,,,0.000000,4.000000,4.000000,4.000000,4.000000,4.000000,4.000000,4.000000,4.000000,4.000000,4.000000,4.000000,4.000000,4.000000,4.000000,100.000000,,,,,,,,,,,,,,,,
1644854311.532570,18.000000,0.000000,4183.974121,4229.615234,4207.563965,4192.563965,4220.384766,4218.717773,4210.384766,4202.051270,4202.436035,4205.512695,4212.948730,4176.282227,4201.666504,4223.589844,3544.000000,4.000000,86.000000,,,,0.000000,4.000000,4.000000,4.000000,4.000000,4.000000,4.000000,4.000000,4.000000,4.000000,4.000000,4.000000,4.000000,4.000000,4.000000,100.000000,,,,,,,,,,,,,,,,
1644854311.536510,19.000000,0.000000,4180.128418,4227.179688,4212.820313,4191.922852,4235.128418,4218.333496,4213.589844,4203.205078,4202.948730,4204.615234,4201.794922,4179.102539,4202.948730,4224.358887,2423.000000,4.000000,86.000000,,,,0.000000,4.000000,4.000000,4.000000,4.000000,4.000000,4.000000,4.000000,4.000000,4.000000,4.000000,4.000000,4.000000,4.000000,4.000000,100.000000,,,,,,,,,,,,,,,,
1644854311.540450,20.000000,0.000000,4176.538574,4224.358887,4221.666504,4202.179688,4245.512695,4216.794922,4219.230957,4205.769043,4205.641113,4201.410156,4197.179688,4185.769043,4204.230957,4230.128418,3468.000000,4.000000,86.000000,,,,0.000000,4.000000,4.000000,4.000000,4.000000,4.000000,4.000000,4.000000,4.000000,4.000000,4.000000,4.000000,4.000000,4.000000,4.000000,100.000000,,,,,,,,,,,,,,,,
1644854311.544390,21.000000,0.000000,4176.025879,4222.307617,4227.820313,4217.820313,4244.743652,4215.641113,4222.692383,4208.589844,4208.846191,4196.794922,4201.794922,4193.333496,4205.000000,4235.641113,3307.000000,4.000000,86.000000,,,,0.000000,4.000000,4.000000,4.000000,4.000000,4.000000,4.000000,4.000000,4.000000,4.000000,4.000000,4.000000,4.000000,4.000000,4.000000,100.000000,,,,,,,,,,,,,,,,
1644854311.548330,22.000000,0.000000,4178.846191,4221.538574,4227.820313,4228.589844,4234.102539,4216.666504,4222.563965,4211.538574,4211.282227,4193.717773,4211.538574,4197.948730,4205.384766,4236.410156,3544.000000,4.000000,86.000000,1,1,2,0.000000,4.000000,4.000000,4.000000,4.000000,4.000000,4.000000,4.000000,4.000000,4.000000,4.000000,4.000000,4.000000,4.000000,4.000000,100.000000,,,,,,,,,,,,,,,,
1644854311.552270,23.000000,0.000000,4183.077148,4221.410156,4223.461426,4226.410156,4221.282227,4219.871582,4221.153809,4214.487305,4212.692383,4194.871582,4217.692383,4197.563965,4204.743652,4233.717773,2423.000000,4.000000,86.000000,,,,0.000000,4.000000,4.000000,4.000000,4.000000,4.000000,4.000000,4.000000,4.000000,4.000000,4.000000,4.000000,4.000000,4.000000,4.000000,100.000000,,,,,,,,,,,,,,,,
1644854311.556211,24.000000,0.000000,4185.897461,4220.769043,4219.230957,4212.307617,4215.512695,4223.461426,4221.410156,4216.794922,4213.974121,4200.897461,4215.384766,4192.563965,4202.307617,4232.179688,3468.000000,4.000000,86.000000,,,,0.000000,4.000000,4.000000,4.000000,4.000000,4.000000,4.000000,4.000000,4.000000,4.000000,4.000000,4.000000,4.000000,4.000000,4.000000,100.000000,,,,,,,,,,,,,,,,
1644854311.560151,25.000000,0.000000,4186.153809,4220.000000,4218.077148,4194.615234,4220.512695,4225.384766,4223.717773,4217.820313,4215.384766,4209.487305,4207.307617,4185.512695,4198.333496,4234.871582,3307.000000,4.000000,86.000000,,,,0.000000,4.000000,4.000000,4.000000,4.000000,4.000000,4.000000,4.000000,4.000000,4.000000,4.000000,4.000000,4.000000,4.000000,4.000000,100.000000,,,,,,,,,,,,,,,,
1644854311.564191,26.000000,0.000000,4185.256348,4221.025879,4219.743652,4183.333496,4231.153809,4225.256348,4225.512695,4217.051270,4216.410156,4216.538574,4201.794922,4180.641113,4196.153809,4240.384766,3544.000000,4.000000,86.000000,,,,0.000000,4.000000,4.000000,4.000000,4.000000,4.000000,4.000000,4.000000,4.000000,4.000000,4.000000,4.000000,4.000000,4.000000,4.000000,100.000000,,,,,,,,,,,,,,,,
1644854311.568131,27.000000,0.000000,4184.743652,4224.871582,4222.051270,4183.846191,4238.205078,4223.974121,4225.256348,4215.256348,4216.153809,4217.051270,4205.000000,4179.871582,4198.717773,4245.000000,2423.000000,4.000000,86.000000,,,,0.000000,4.000000,4.000000,4.000000,4.000000,4.000000,4.000000,4.000000,4.000000,4.000000,4.000000,4.000000,4.000000,4.000000,4.000000,100.000000,,,,,,,,,,,,,,,,
1644854311.572071,28.000000,0.000000,4185.256348,4229.871582,4223.077148,4195.512695,4235.897461,4222.692383,4223.333496,4213.589844,4214.230957,4209.230957,4215.256348,4182.563965,4206.410156,4246.025879,3468.000000,4.000000,86.000000,,,,0.000000,4.000000,4.000000,4.000000,4.000000,4.000000,4.000000,4.000000,4.000000,4.000000,4.000000,4.000000,4.000000,4.000000,4.000000,100.000000,,,,,,,,,,,,,,,,
1644854311.576011,29.000000,0.000000,4186.666504,4232.820313,4222.307617,4213.077148,4226.794922,4221.282227,4221.666504,4213.974121,4211.282227,4196.794922,4225.128418,4186.666504,4215.769043,4243.846191,3307.000000,4.000000,86.000000,,,,0.000000,4.000000,4.000000,4.000000,4.000000,4.000000,4.000000,4.000000,4.000000,4.000000,4.000000,4.000000,4.000000,4.000000,4.000000,100.000000,,,,,,,,,,,,,,,,
1644854311.579951,30.000000,0.000000,4189.358887,4231.922852,4220.512695,4228.717773,4219.358887,4219.743652,4220.384766,4216.666504,4209.615234,4187.820313,4228.974121,4190.384766,4222.307617,4241.153809,3544.000000,4.000000,86.000000,,,,0.000000,4.000000,4.000000,4.000000,4.000000,4.000000,4.000000,4.000000,4.000000,4.000000,4.000000,4.000000,4.000000,4.000000,4.000000,100.000000,,,,,,,,,,,,,,,,
1644854311.583891,31.000000,0.000000,4192.948730,4227.692383,4220.000000,4235.897461,4220.256348,4217.820313,4218.717773,4220.384766,4211.410156,4189.102539,4226.922852,4194.230957,4223.846191,4240.512695,2423.000000,4.000000,86.000000,,,,0.000000,4.000000,4.000000,4.000000,4.000000,4.000000,4.000000,4.000000,4.000000,4.000000,4.000000,4.000000,4.000000,4.000000,4.000000,100.000000,,,,,,,,,,,,,,,,
1644854311.587831,32.000000,0.000000,4196.153809,4222.948730,4222.179688,4232.563965,4228.461426,4216.282227,4216.538574,4223.461426,4216.538574,4200.897461,4223.205078,4198.846191,4221.025879,4243.461426,0.000000,4.000000,86.000000,,,,0.000000,4.000000,4.000000,4.000000,4.000000,4.000000,4.000000,4.000000,4.000000,4.000000,4.000000,4.000000,4.000000,4.000000,4.000000,100.000000,,,,,,,,,,,,,,,,
1644854311.591771,33.000000,0.000000,4196.666504,4219.871582,4226.025879,4221.282227,4237.436035,4215.512695,4215.641113,4224.615234,4222.820313,4216.410156,4221.794922,4202.563965,4216.666504,4248.974121,0.000000,4.000000,86.000000,,,,0.000000,4.000000,4.000000,4.000000,4.000000,4.000000,4.000000,4.000000,4.000000,4.000000,4.000000,4.000000,4.000000,4.000000,4.000000,100.000000,,,,,,,,,,,,,,,,
1644854311.595712,34.000000,0.000000,4194.230957,4220.512695,4229.102539,4207.948730,4241.538574,4216.538574,4217.307617,4224.102539,4227.051270,4227.563965,4224.102539,4202.948730,4213.589844,4253.846191,0.000000,4.000000,86.000000,,,,0.000000,4.000000,4.000000,4.000000,4.000000,4.000000,4.000000,4.000000,4.000000,4.000000,4.000000,4.000000,4.000000,4.000000,4.000000,100.000000,,,,,,,,,,,,,,,,
1644854311.599652,35.000000,0.000000,4190.641113,4224.615234,4228.461426,4199.102539,4240.384766,4219.487305,4220.641113,4222.948730,4228.077148,4230.256348,4228.077148,4199.102539,4212.948730,4254.230957,0.000000,4.000000,86.000000,,,,0.000000,4.000000,4.000000,4.000000,4.000000,4.000000,4.000000,4.000000,4.000000,4.000000,4.000000,4.000000,4.000000,4.000000,4.000000,100.000000,,,,,,,,,,,,,,,,
1644854311.603592,36.000000,0.000000,4187.820313,4230.512695,4224.102539,4197.307617,4237.563965,4224.358887,4222.692383,4222.436035,4226.794922,4226.153809,4230.384766,4192.948730,4214.487305,4248.461426,0.000000,4.000000,86.000000,,,,0.000000,4.000000,4.000000,4.000000,4.000000,4.000000,4.000000,4.000000,4.000000,4.000000,4.000000,4.000000,4.000000,4.000000,4.000000,100.000000,,,,,,,,,,,,,,,,
1644854311.607532,37.000000,0.000000,4186.538574,4236.153809,4218.846191,4200.512695,4237.436035,4229.615234,4222.179688,4223.333496,4225.384766,4220.128418,4227.820313,4187.563965,4217.051270,4239.743652,0.000000,4.000000,86.000000,,,,0.000000,4.000000,4.000000,4.000000,4.000000,4.000000,4.000000,4.000000,4.000000,4.000000,4.000000,4.000000,4.000000,4.000000,4.000000,100.000000,,,,,,,,,,,,,,,,
1644854311.611472,38.000000,0.000000,4186.153809,4241.538574,4215.897461,4205.384766,4241.538574,4233.205078,4220.641113,4225.000000,4225.641113,4216.794922,4220.384766,4185.641113,4220.000000,4234.358887,0.000000,4.000000,86.000000,,,,0.000000,4.000000,4.000000,4.000000,4.000000,4.000000,4.000000,4.000000,4.000000,4.000000,4.000000,4.000000,4.000000,4.000000,4.000000,100.000000,,,,,,,,,,,,,,,,
1644854311.615412,39.000000,0.000000,4186.538574,4246.410156,4216.282227,4210.000000,4248.205078,4233.846191,4220.897461,4226.153809,4227.820313,4218.717773,4211.922852,4186.666504,4223.589844,4235.512695,0.000000,4.000000,86.000000,,,,0.000000,4.000000,4.000000,4.000000,4.000000,4.000000,4.000000,4.000000,4.000000,4.000000,4.000000,4.000000,4.000000,4.000000,4.000000,100.000000,,,,,,,,,,,,,,,,
1644854311.619352,40.000000,0.000000,4186.794922,4250.000000,4218.974121,4214.743652,4252.051270,4232.051270,4223.333496,4225.512695,4230.000000,4224.358887,4207.692383,4188.589844,4227.563965,4240.769043,0.000000,4.000000,86.000000,,,,0.000000,4.000000,4.000000,4.000000,4.000000,4.000000,4.000000,4.000000,4.000000,4.000000,4.000000,4.000000,4.000000,4.000000,4.000000,100.000000,,,,,,,,,,,,,,,,
1644854311.623292,41.000000,0.000000,4186.538574,4250.384766,4221.153809,4219.358887,4248.717773,4230.128418,4225.769043,4223.333496,4230.256348,4229.358887,4210.897461,4188.974121,4231.282227,4244.615234,0.000000,4.000000,86.000000,,,,0.000000,4.000000,4.000000,4.000000,4.000000,4.000000,4.000000,4.000000,4.000000,4.000000,4.000000,4.000000,4.000000,4.000000,4.000000,100.000000,,,,,,,,,,,,,,,,
1644854311.627232,42.000000,0.000000,4186.282227,4246.153809,4221.538574,4222.563965,4239.358887,4230.384766,4226.538574,4220.512695,4228.205078,4229.743652,4220.000000,4186.922852,4233.077148,4245.000000,0.000000,4.000000,86.000000,,,,0.000000,4.000000,4.000000,4.000000,4.000000,4.000000,4.000000,4.000000,4.000000,4.000000,4.000000,4.000000,4.000000,4.000000,4.000000,100.000000,,,,,,,,,,,,,,,,
1644854311.631172,43.000000,0.000000,4186.410156,4238.077148,4220.384766,4222.820313,4230.000000,4232.179688,4226.025879,4218.846191,4224.743652,4224.871582,4228.974121,4183.717773,4231.666504,4244.358887,0.000000,4.000000,86.000000,,,,0.000000,4.000000,4.000000,4.000000,4.000000,4.000000,4.000000,4.000000,4.000000,4.000000,4.000000,4.000000,4.000000,4.000000,4.000000,100.000000,,,,,,,,,,,,,,,,
1644854311.635113,44.000000,0.000000,4186.538574,4230.128418,4218.974121,4220.769043,4226.538574,4233.846191,4226.282227,4219.487305,4221.666504,4217.692383,4231.538574,4182.179688,4227.436035,4245.384766,0.000000,4.000000,86.000000,,,,0.000000,4.000000,4.000000,4.000000,4.000000,4.000000,4.000000,4.000000,4.000000,4.000000,4.000000,4.000000,4.000000,4.000000,4.000000,100.000000,,,,,,,,,,,,,,,,
1644854311.638953,45.000000,0.000000,4185.384766,4226.282227,4218.077148,4218.077148,4229.487305,4233.077148,4226.794922,4221.538574,4220.384766,4211.794922,4225.897461,4183.589844,4220.769043,4246.538574,0.000000,4.000000,86.000000,,,,0.000000,4.000000,4.000000,4.000000,4.000000,4.000000,4.000000,4.000000,4.000000,4.000000,4.000000,4.000000,4.000000,4.000000,4.000000,100.000000,,,,,,,,,,,,,,,,
1644854311.642893,46.000000,0.000000,4182.307617,4228.333496,4217.436035,4216.410156,4234.102539,4230.000000,4225.512695,4222.307617,4220.641113,4209.102539,4215.256348,4186.666504,4211.922852,4244.230957,0.000000,4.000000,86.000000,,,,0.000000,4.000000,4.000000,4.000000,4.000000,4.000000,4.000000,4.000000,4.000000,4.000000,4.000000,4.000000,4.000000,4.000000,4.000000,100.000000,,,,,,,,,,,,,,,,
1644854311.646833,47.000000,0.000000,4177.051270,4233.205078,4215.897461,4216.282227,4234.743652,4225.769043,4221.153809,4219.615234,4220.641113,4209.102539,4205.897461,4188.333496,4201.282227,4236.410156,0.000000,4.000000,86.000000,2,1,2,0.000000,4.000000,4.000000,4.000000,4.000000,4.000000,4.000000,4.000000,4.000000,4.000000,4.000000,4.000000,4.000000,4.000000,4.000000,100.000000,,,,,,,,,,,,,,,,
1644854311.650773,48.000000,0.000000,4169.230957,4235.384766,4212.948730,4215.897461,4229.871582,4222.436035,4216.282227,4214.743652,4218.205078,4208.846191,4200.769043,4186.794922,4189.743652,4225.897461,0.000000,4.000000,86.000000,,,,0.000000,4.000000,4.000000,4.000000,4.000000,4.000000,4.000000,4.000000,4.000000,4.000000,4.000000,4.000000,4.000000,4.000000,4.000000,100.000000,,,,,,,,,,,,,,,,
1644854311.654713,49.000000,0.000000,4159.102539,4231.153809,4209.871582,4212.051270,4223.589844,4221.538574,4214.615234,4210.512695,4213.077148,4205.769043,4199.102539,4182.820313,4180.384766,4217.563965,0.000000,4.000000,86.000000,,,,0.000000,4.000000,4.000000,4.000000,4.000000,4.000000,4.000000,4.000000,4.000000,4.000000,4.000000,4.000000,4.000000,4.000000,4.000000,100.000000,,,,,,,,,,,,,,,,
1644854311.658653,50.000000,0.000000,4149.230957,4221.922852,4209.230957,4205.128418,4222.563965,4223.589844,4217.307617,4209.102539,4207.692383,4199.358887,4197.820313,4179.615234,4176.666504,4214.871582,0.000000,4.000000,86.000000,,,,0.000000,4.000000,4.000000,4.000000,4.000000,4.000000,4.000000,4.000000,4.000000,4.000000,4.000000,4.000000,4.000000,4.000000,4.000000,100.000000,,,,,,,,,,,,,,,,
1644854311.662593,51.000000,0.000000,4142.820313,4214.102539,4212.563965,4199.487305,4229.871582,4228.717773,4221.025879,4210.384766,4205.641113,4192.307617,4195.512695,4179.358887,4180.512695,4218.589844,0.000000,4.000000,86.000000,,,,0.000000,4.000000,4.000000,4.000000,4.000000,4.000000,4.000000,4.000000,4.000000,4.000000,4.000000,4.000000,4.000000,4.000000,4.000000,100.000000,,,,,,,,,,,,,,,,
1644854311.666534,52.000000,0.000000,4141.922852,4212.948730,4218.077148,4200.384766,4241.666504,4234.743652,4222.307617,4212.563965,4208.333496,4188.846191,4192.948730,4182.179688,4189.743652,4227.436035,0.000000,4.000000,86.000000,,,,0.000000,4.000000,4.000000,4.000000,4.000000,4.000000,4.000000,4.000000,4.000000,4.000000,4.000000,4.000000,4.000000,4.000000,4.000000,100.000000,,,,,,,,,,,,,,,,
1644854311.670474,53.000000,0.000000,4146.153809,4218.717773,4222.179688,4208.974121,4249.102539,4238.333496,4221.025879,4214.487305,4213.846191,4191.153809,4192.820313,4186.282227,4199.743652,4238.589844,0.000000,4.000000,86.000000,,,,0.000000,4.000000,4.000000,4.000000,4.000000,4.000000,4.000000,4.000000,4.000000,4.000000,4.000000,4.000000,4.000000,4.000000,4.000000,100.000000,,,,,,,,,,,,,,,,
1644854311.674414,54.000000,0.000000,4154.102539,4226.410156,4222.307617,4221.282227,4246.538574,4236.794922,4219.871582,4215.769043,4218.717773,4198.077148,4196.794922,4189.743652,4206.153809,4248.717773,0.000000,4.000000,86.000000,,,,0.000000,4.000000,4.000000,4.000000,4.000000,4.000000,4.000000,4.000000,4.000000,4.000000,4.000000,4.000000,4.000000,4.000000,4.000000,100.000000,,,,,,,,,,,,,,,,
1644854311.678354,55.000000,0.000000,4163.846191,4230.769043,4219.743652,4231.922852,4236.922852,4231.282227,4220.769043,4216.538574,4220.897461,4206.025879,4204.230957,4191.666504,4207.436035,4254.615234,0.000000,4.000000,86.000000,,,,0.000000,4.000000,4.000000,4.000000,4.000000,4.000000,4.000000,4.000000,4.000000,4.000000,4.000000,4.000000,4.000000,4.000000,4.000000,100.000000,,,,,,,,,,,,,,,,
1644854311.682294,56.000000,0.000000,4172.948730,4230.128418,4217.948730,4236.538574,4228.461426,4225.128418,4222.307617,4216.410156,4220.384766,4211.153809,4212.820313,4191.410156,4205.641113,4254.743652,0.000000,4.000000,86.000000,,,,0.000000,4.000000,4.000000,4.000000,4.000000,4.000000,4.000000,4.000000,4.000000,4.000000,4.000000,4.000000,4.000000,4.000000,4.000000,100.000000,,,,,,,,,,,,,,,,
1644854311.686234,57.000000,0.000000,4178.846191,4226.538574,4218.974121,4233.205078,4226.025879,4221.666504,4222.307617,4215.000000,4218.333496,4211.794922,4219.871582,4188.974121,4203.717773,4251.282227,0.000000,4.000000,86.000000,,,,0.000000,4.000000,4.000000,4.000000,4.000000,4.000000,4.000000,4.000000,4.000000,4.000000,4.000000,4.000000,4.000000,4.000000,4.000000,100.000000,,,,,,,,,,,,,,,,
1644854311.690174,58.000000,0.000000,4179.102539,4223.974121,4222.179688,4222.436035,4228.589844,4221.410156,4220.641113,4213.333496,4216.282227,4208.461426,4223.077148,4185.512695,4203.333496,4249.102539,0.000000,4.000000,86.000000,,,,0.000000,4.000000,4.000000,4.000000,4.000000,4.000000,4.000000,4.000000,4.000000,4.000000,4.000000,4.000000,4.000000,4.000000,4.000000,100.000000,,,,,,,,,,,,,,,,
1644854311.694114,59.000000,0.000000,4173.205078,4224.230957,4225.512695,4207.820313,4230.897461,4222.307617,4219.743652,4212.820313,4214.615234,4203.589844,4220.897461,4183.589844,4203.077148,4250.897461,0.000000,4.000000,86.000000,,,,0.000000,4.000000,4.000000,4.000000,4.000000,4.000000,4.000000,4.000000,4.000000,4.000000,4.000000,4.000000,4.000000,4.000000,4.000000,100.000000,,,,,,,,,,,,,,,,
1644854311.698054,60.000000,0.000000,4163.461426,4226.538574,4226.666504,4194.102539,4230.000000,4222.051270,4221.410156,4214.871582,4213.589844,4200.769043,4213.333496,4185.512695,4201.025879,4255.128418,0.000000,4.000000,86.000000,,,,0.000000,4.000000,4.000000,4.000000,4.000000,4.000000,4.000000,4.000000,4.000000,4.000000,4.000000,4.000000,4.000000,4.000000,4.000000,100.000000,,,,,,,,,,,,,,,,
1644854311.702094,61.000000,0.000000,4154.230957,4229.230957,4224.743652,4185.128418,4226.794922,4221.153809,4224.358887,4218.333496,4213.974121,4203.077148,4203.717773,4191.410156,4197.307617,4258.333496,0.000000,4.000000,86.000000,,,,0.000000,4.000000,4.000000,4.000000,4.000000,4.000000,4.000000,4.000000,4.000000,4.000000,4.000000,4.000000,4.000000,4.000000,4.000000,100.000000,,,,,,,,,,,,,,,,
1644854311.706034,62.000000,0.000000,4149.615234,4231.153809,4220.641113,4183.589844,4224.487305,4221.666504,4226.410156,4220.769043,4216.153809,4210.512695,4197.692383,4199.102539,4194.487305,4260.000000,0.000000,4.000000,86.000000,,,,0.000000,4.000000,4.000000,4.000000,4.000000,4.000000,4.000000,4.000000,4.000000,4.000000,4.000000,4.000000,4.000000,4.000000,4.000000,100.000000,,,,,,,,,,,,,,,,
1644854311.709975,63.000000,0.000000,4150.769043,4231.666504,4217.307617,4190.256348,4225.256348,4224.743652,4227.179688,4221.153809,4219.230957,4218.974121,4199.487305,4205.384766,4195.769043,4262.948730,0.000000,4.000000,86.000000,,,,0.000000,4.000000,4.000000,4.000000,4.000000,4.000000,4.000000,4.000000,4.000000,4.000000,4.000000,4.000000,4.000000,4.000000,4.000000,100.000000,,,,,,,,,,,,,,,,
1644854311.713915,64.000000,0.000000,4155.128418,4230.384766,4217.051270,4202.820313,4228.589844,4228.846191,4227.692383,4220.512695,4221.538574,4222.051270,4207.820313,4207.436035,4201.282227,4269.102539,0.000000,4.000000,86.000000,,,,0.000000,4.000000,4.000000,4.000000,4.000000,4.000000,4.000000,4.000000,4.000000,4.000000,4.000000,4.000000,4.000000,4.000000,4.000000,100.000000,,,,,,,,,,,,,,,,
1644854311.717855,65.000000,0.000000,4157.948730,4226.922852,4220.128418,4215.384766,4232.436035,4231.282227,4228.461426,4221.153809,4221.538574,4216.538574,4216.282227,4204.615234,4208.205078,4274.871582,0.000000,4.000000,86.000000,,,,0.000000,4.000000,4.000000,4.000000,4.000000,4.000000,4.000000,4.000000,4.000000,4.000000,4.000000,4.000000,4.000000,4.000000,4.000000,100.000000,,,,,,,,,,,,,,,,
1644854311.721795,66.000000,0.000000,4156.410156,4221.922852,4223.846191,4221.282227,4235.256348,4230.256348,4228.205078,4223.717773,4220.000000,4206.666504,4219.487305,4199.487305,4212.692383,4273.846191,0.000000,4.000000,86.000000,,,,0.000000,4.000000,4.000000,4.000000,4.000000,4.000000,4.000000,4.000000,4.000000,4.000000,4.000000,4.000000,4.000000,4.000000,4.000000,100.000000,,,,,,,,,,,,,,,,
1644854311.725735,67.000000,0.000000,4150.769043,4216.538574,4224.743652,4218.333496,4235.512695,4226.666504,4226.153809,4226.922852,4218.974121,4200.000000,4216.794922,4196.282227,4212.820313,4264.102539,0.000000,4.000000,86.000000,,,,0.000000,4.000000,4.000000,4.000000,4.000000,4.000000,4.000000,4.000000,4.000000,4.000000,4.000000,4.000000,4.000000,4.000000,4.000000,100.000000,,,,,,,,,,,,,,,,
1644854311.729675,68.000000,0.000000,4144.743652,4212.307617,4222.179688,4211.153809,4232.948730,4222.692383,4223.717773,4229.358887,4219.871582,4201.282227,4212.307617,4197.179688,4208.846191,4251.666504,0.000000,4.000000,86.000000,,,,0.000000,4.000000,4.000000,4.000000,4.000000,4.000000,4.000000,4.000000,4.000000,4.000000,4.000000,4.000000,4.000000,4.000000,4.000000,100.000000,,,,,,,,,,,,,,,,
1644854311.733615,69.000000,0.000000,4141.794922,4210.256348,4218.974121,4207.051270,4228.717773,4220.641113,4223.589844,4230.512695,4222.563965,4208.589844,4211.410156,4200.769043,4202.820313,4246.025879,0.000000,4.000000,86.000000,,,,0.000000,4.000000,4.000000,4.000000,4.000000,4.000000,4.000000,4.000000,4.000000,4.000000,4.000000,4.000000,4.000000,4.000000,4.000000,100.000000,,,,,,,,,,,,,,,,
1644854311.737555,70.000000,0.000000,4143.589844,4211.410156,4218.205078,4209.743652,4226.025879,4220.897461,4226.025879,4231.025879,4225.256348,4216.153809,4216.282227,4203.205078,4198.333496,4251.922852,0.000000,4.000000,86.000000,,,,0.000000,4.000000,4.000000,4.000000,4.000000,4.000000,4.000000,4.000000,4.000000,4.000000,4.000000,4.000000,4.000000,4.000000,4.000000,100.000000,,,,,,,,,,,,,,,,
1644854311.741495,71.000000,0.000000,4147.051270,4215.641113,4219.871582,4215.769043,4227.307617,4222.051270,4227.948730,4230.897461,4225.897461,4219.102539,4225.384766,4201.794922,4198.461426,4264.358887,0.000000,4.000000,86.000000,,,,0.000000,4.000000,4.000000,4.000000,4.000000,4.000000,4.000000,4.000000,4.000000,4.000000,4.000000,4.000000,4.000000,4.000000,4.000000,100.000000,,,,,,,,,,,,,,,,
1644854311.745436,72.000000,0.000000,4147.820313,4221.153809,4220.897461,4218.974121,4231.794922,4222.307617,4226.025879,4230.000000,4224.358887,4216.538574,4233.717773,4196.922852,4203.589844,4273.333496,0.000000,4.000000,86.000000,,,,0.000000,4.000000,4.000000,4.000000,4.000000,4.000000,4.000000,4.000000,4.000000,4.000000,4.000000,4.000000,4.000000,4.000000,4.000000,100.000000,,,,,,,,,,,,,,,,
1644854311.749376,73.000000,0.000000,4142.820313,4224.871582,4218.461426,4216.794922,4235.128418,4220.897461,4221.282227,4227.563965,4221.666504,4210.897461,4235.769043,4190.897461,4210.128418,4272.179688,0.000000,4.000000,86.000000,,,,0.000000,4.000000,4.000000,4.000000,4.000000,4.000000,4.000000,4.000000,4.000000,4.000000,4.000000,4.000000,4.000000,4.000000,4.000000,100.000000,,,,,,,,,,,,,,,,
1644854311.753316,74.000000,0.000000,4133.205078,4225.128418,4213.461426,4212.179688,4233.461426,4219.102539,4217.692383,4224.615234,4219.871582,4206.153809,4228.846191,4185.641113,4213.717773,4262.948730,0.000000,4.000000,86.000000,,,,0.000000,4.000000,4.000000,4.000000,4.000000,4.000000,4.000000,4.000000,4.000000,4.000000,4.000000,4.000000,4.000000,4.000000,4.000000,100.000000,,,,,,,,,,,,,,,,
1644854311.757256,75.000000,0.000000,4122.436035,4222.948730,4209.102539,4208.461426,4227.692383,4219.102539,4218.205078,4222.563965,4220.512695,4205.384766,4215.384766,4182.051270,4212.307617,4253.205078,0.000000,4.000000,86.000000,,,,0.000000,4.000000,4.000000,4.000000,4.000000,4.000000,4.000000,4.000000,4.000000,4.000000,4.000000,4.000000,4.000000,4.000000,4.000000,100.000000,,,,,,,,,,,,,,,,
1644854311.761196,76.000000,0.000000,4114.743652,4221.153809,4208.077148,4204.871582,4223.333496,4221.025879,4221.410156,4222.820313,4223.333496,4208.846191,4202.563965,4180.000000,4208.205078,4250.000000,0.000000,4.000000,86.000000,,,,0.000000,4.000000,4.000000,4.000000,4.000000,4.000000,4.000000,4.000000,4.000000,4.000000,4.000000,4.000000,4.000000,4.000000,4.000000,100.000000,,,,,,,,,,,,,,,,
1644854311.765136,77.000000,0.000000,4113.077148,4221.666504,4210.128418,4198.589844,4224.615234,4222.692383,4223.461426,4224.871582,4226.922852,4214.487305,4197.051270,4180.512695,4205.512695,4254.358887,0.000000,4.000000,86.000000,,,,0.000000,4.000000,4.000000,4.000000,4.000000,4.000000,4.000000,4.000000,4.000000,4.000000,4.000000,4.000000,4.000000,4.000000,4.000000,100.000000,,,,,,,,,,,,,,,,
1644854311.769076,78.000000,0.000000,4117.948730,4224.487305,4213.461426,4190.769043,4231.666504,4221.922852,4222.820313,4227.563965,4228.974121,4218.333496,4200.897461,4183.717773,4205.641113,4262.692383,0.000000,4.000000,86.000000,,,,0.000000,4.000000,4.000000,4.000000,4.000000,4.000000,4.000000,4.000000,4.000000,4.000000,4.000000,4.000000,4.000000,4.000000,4.000000,100.000000,,,,,,,,,,,,,,,,
1644854311.773016,79.000000,0.000000,4127.436035,4228.077148,4216.794922,4187.948730,4239.487305,4218.717773,4221.538574,4229.358887,4228.846191,4218.461426,4210.897461,4188.589844,4207.179688,4270.000000,0.000000,4.000000,86.000000,,,,0.000000,4.000000,4.000000,4.000000,4.000000,4.000000,4.000000,4.000000,4.000000,4.000000,4.000000,4.000000,4.000000,4.000000,4.000000,100.000000,,,,,,,,,,,,,,,,
1644854311.776856,80.000000,0.000000,4137.692383,4231.153809,4219.615234,4195.897461,4242.307617,4215.512695,4222.179688,4230.128418,4227.820313,4215.769043,4221.666504,4193.205078,4208.205078,4273.077148,0.000000,4.000000,86.000000,,,,0.000000,4.000000,4.000000,4.000000,4.000000,4.000000,4.000000,4.000000,4.000000,4.000000,4.000000,4.000000,4.000000,4.000000,4.000000,100.000000,,,,,,,,,,,,,,,,
1644854311.780797,81.000000,0.000000,4145.128418,4232.948730,4221.666504,4212.563965,4237.307617,4214.615234,4224.487305,4230.000000,4228.205078,4212.563965,4228.589844,4196.794922,4208.333496,4271.794922,0.000000,4.000000,86.000000,,,,0.000000,4.000000,4.000000,4.000000,4.000000,4.000000,4.000000,4.000000,4.000000,4.000000,4.000000,4.000000,4.000000,4.000000,4.000000,100.000000,,,,,,,,,,,,,,,,
1644854311.784737,82.000000,0.000000,4148.077148,4231.922852,4222.307617,4228.589844,4228.077148,4216.282227,4225.897461,4229.743652,4230.641113,4210.000000,4230.000000,4199.230957,4208.461426,4268.461426,0.000000,4.000000,86.000000,,,,0.000000,4.000000,4.000000,4.000000,4.000000,4.000000,4.000000,4.000000,4.000000,4.000000,4.000000,4.000000,4.000000,4.000000,4.000000,100.000000,,,,,,,,,,,,,,,,
1644854311.788677,83.000000,0.000000,4146.794922,4227.179688,4221.794922,4234.358887,4221.538574,4218.461426,4225.256348,4229.743652,4233.205078,4207.820313,4226.025879,4201.282227,4209.743652,4265.512695,0.000000,4.000000,86.000000,,,,0.000000,4.000000,4.000000,4.000000,4.000000,4.000000,4.000000,4.000000,4.000000,4.000000,4.000000,4.000000,4.000000,4.000000,4.000000,100.000000,,,,,,,,,,,,,,,,
1644854311.792617,84.000000,0.000000,4142.563965,4220.000000,4221.153809,4227.051270,4222.436035,4220.128418,4224.615234,4230.256348,4233.589844,4205.512695,4218.333496,4203.333496,4212.179688,4263.333496,0.000000,4.000000,86.000000,,,,0.000000,4.000000,4.000000,4.000000,4.000000,4.000000,4.000000,4.000000,4.000000,4.000000,4.000000,4.000000,4.000000,4.000000,4.000000,100.000000,1.000000,91.666664,4.000000,4.000000,4.000000,4.000000,3.000000,4.000000,4.000000,4.000000,4.000000,4.000000,4.000000,4.000000,4.000000,4.000000
1644854311.796557,85.000000,0.000000,4137.563965,4213.205078,4221.666504,4213.333496,4228.846191,4221.538574,4225.897461,4231.025879,4231.025879,4204.743652,4211.025879,4205.128418,4214.487305,4260.897461,0.000000,4.000000,86.000000,,,,0.000000,4.000000,4.000000,4.000000,4.000000,4.000000,4.000000,4.000000,4.000000,4.000000,4.000000,4.000000,4.000000,4.000000,4.000000,100.000000,,,,,,,,,,,,,,,,
1644854311.800497,86.000000,0.000000,4133.846191,4210.641113,4223.846191,4204.102539,4234.487305,4223.974121,4228.974121,4232.051270,4228.589844,4208.589844,4208.717773,4206.282227,4215.897461,4257.692383,0.000000,4.000000,86.000000,,,,0.000000,4.000000,4.000000,4.000000,4.000000,4.000000,4.000000,4.000000,4.000000,4.000000,4.000000,4.000000,4.000000,4.000000,4.000000,100.000000,,,,,,,,,,,,,,,,
1644854311.804437,87.000000,0.000000,4133.461426,4213.974121,4226.922852,4205.128418,4235.512695,4227.436035,4231.410156,4233.589844,4229.358887,4217.307617,4214.358887,4206.282227,4216.922852,4256.538574,0.000000,4.000000,86.000000,,,,0.000000,4.000000,4.000000,4.000000,4.000000,4.000000,4.000000,4.000000,4.000000,4.000000,4.000000,4.000000,4.000000,4.000000,4.000000,100.000000,,,,,,,,,,,,,,,,
1644854311.808377,88.000000,0.000000,4136.922852,4222.307617,4229.615234,4213.077148,4233.717773,4230.641113,4231.410156,4235.769043,4233.717773,4227.820313,4225.512695,4204.358887,4218.461426,4261.794922,0.000000,4.000000,86.000000,,,,0.000000,4.000000,4.000000,4.000000,4.000000,4.000000,4.000000,4.000000,4.000000,4.000000,4.000000,4.000000,4.000000,4.000000,4.000000,100.000000,,,,,,,,,,,,,,,,
1644854311.812317,89.000000,0.000000,4142.436035,4232.179688,4230.641113,4219.358887,4233.717773,4232.051270,4230.256348,4237.948730,4239.102539,4234.743652,4236.153809,4201.282227,4221.153809,4274.230957,0.000000,4.000000,86.000000,,,,0.000000,4.000000,4.000000,4.000000,4.000000,4.000000,4.000000,4.000000,4.000000,4.000000,4.000000,4.000000,4.000000,4.000000,4.000000,100.000000,,,,,,,,,,,,,,,,
1644854311.816258,90.000000,0.000000,4147.948730,4238.974121,4230.128418,4218.717773,4238.205078,4231.666504,4229.871582,4239.743652,4242.563965,4234.358887,4240.000000,4198.717773,4224.102539,4288.589844,0.000000,4.000000,86.000000,,,,0.000000,4.000000,4.000000,4.000000,4.000000,4.000000,4.000000,4.000000,4.000000,4.000000,4.000000,4.000000,4.000000,4.000000,4.000000,100.000000,,,,,,,,,,,,,,,,
1644854311.820198,91.000000,0.000000,4151.922852,4240.128418,4228.589844,4214.871582,4245.384766,4230.641113,4230.897461,4240.512695,4243.589844,4228.461426,4235.769043,4198.974121,4226.153809,4297.051270,0.000000,4.000000,86.000000,,,,0.000000,4.000000,4.000000,4.000000,4.000000,4.000000,4.000000,4.000000,4.000000,4.000000,4.000000,4.000000,4.000000,4.000000,4.000000,100.000000,,,,,,,,,,,,,,,,
1644854311.824138,92.000000,0.000000,4154.871582,4236.153809,4226.922852,4215.384766,4251.666504,4230.641113,4232.436035,4240.897461,4244.487305,4222.692383,4227.563965,4201.794922,4226.538574,4295.641113,0.000000,4.000000,86.000000,,,,0.000000,4.000000,4.000000,4.000000,4.000000,4.000000,4.000000,4.000000,4.000000,4.000000,4.000000,4.000000,4.000000,4.000000,4.000000,100.000000,,,,,,,,,,,,,,,,
1644854311.828078,93.000000,0.000000,4156.922852,4230.641113,4226.538574,4222.820313,4253.717773,4231.794922,4233.974121,4242.051270,4247.051270,4222.436035,4222.820313,4204.615234,4226.410156,4287.563965,0.000000,4.000000,86.000000,,,,0.000000,4.000000,4.000000,4.000000,4.000000,4.000000,4.000000,4.000000,4.000000,4.000000,4.000000,4.000000,4.000000,4.000000,4.000000,100.000000,,,,,,,,,,,,,,,,
1644854311.832018,94.000000,0.000000,4157.051270,4227.692383,4228.333496,4231.282227,4250.641113,4233.461426,4235.641113,4243.846191,4250.256348,4228.461426,4225.641113,4204.871582,4226.922852,4280.000000,0.000000,4.000000,86.000000,,,,0.000000,4.000000,4.000000,4.000000,4.000000,4.000000,4.000000,4.000000,4.000000,4.000000,4.000000,4.000000,4.000000,4.000000,4.000000,100.000000,,,,,,,,,,,,,,,,
1644854311.835958,95.000000,0.000000,4153.461426,4228.205078,4231.410156,4232.307617,4243.205078,4234.358887,4237.948730,4244.615234,4251.153809,4235.000000,4233.846191,4202.179688,4227.948730,4277.692383,0.000000,4.000000,86.000000,,,,0.000000,4.000000,4.000000,4.000000,4.000000,4.000000,4.000000,4.000000,4.000000,4.000000,4.000000,4.000000,4.000000,4.000000,4.000000,100.000000,,,,,,,,,,,,,,,,
1644854311.839898,96.000000,0.000000,4145.769043,4228.589844,4233.077148,4223.589844,4234.102539,4234.487305,4238.974121,4242.436035,4247.563965,4235.128418,4240.000000,4199.487305,4227.179688,4279.102539,0.000000,4.000000,86.000000,,,,0.000000,4.000000,4.000000,4.000000,4.000000,4.000000,4.000000,4.000000,4.000000,4.000000,4.000000,4.000000,4.000000,4.000000,4.000000,100.000000,,,,,,,,,,,,,,,,
1644854311.843838,97.000000,0.000000,4136.025879,4223.974121,4230.512695,4209.743652,4226.153809,4233.974121,4236.922852,4237.179688,4239.871582,4226.410156,4237.179688,4199.487305,4221.794922,4277.692383,0.000000,4.000000,86.000000,,,,0.000000,4.000000,4.000000,4.000000,4.000000,4.000000,4.000000,4.000000,4.000000,4.000000,4.000000,4.000000,4.000000,4.000000,4.000000,100.000000,,,,,,,,,,,,,,,,
1644854311.847778,98.000000,0.000000,4128.461426,4213.333496,4223.717773,4199.230957,4223.205078,4233.333496,4232.051270,4231.282227,4230.897461,4213.077148,4225.384766,4201.666504,4212.307617,4269.102539,0.000000,4.000000,86.000000,,,,0.000000,4.000000,4.000000,4.000000,4.000000,4.000000,4.000000,4.000000,4.000000,4.000000,4.000000,4.000000,4.000000,4.000000,4.000000,100.000000,,,,,,,,,,,,,,,,
1644854311.851619,99.000000,0.000000,4127.436035,4201.922852,4216.282227,4197.948730,4227.948730,4232.820313,4227.692383,4227.051270,4224.615234,4203.717773,4211.794922,4203.077148,4203.077148,4256.538574,0.000000,4.000000,86.000000,,,,0.000000,4.000000,4.000000,4.000000,4.000000,4.000000,4.000000,4.000000,4.000000,4.000000,4.000000,4.000000,4.000000,4.000000,4.000000,100.000000,,,,,,,,,,,,,,,,
1644854311.855559,100.000000,0.000000,4134.358887,4197.692383,4211.922852,4206.666504,4239.615234,4232.692383,4227.051270,4226.153809,4223.205078,4203.974121,4205.641113,4201.538574,4198.974121,4247.436035,0.000000,4.000000,86.000000,,,,0.000000,4.000000,4.000000,4.000000,4.000000,4.000000,4.000000,4.000000,4.000000,4.000000,4.000000,4.000000,4.000000,4.000000,4.000000,100.000000,,,,,,,,,,,,,,,,
1644854311.859499,101.000000,0.000000,4145.897461,4204.102539,4212.307617,4220.256348,4252.307617,4232.948730,4229.358887,4227.948730,4226.794922,4212.436035,4210.128418,4197.436035,4201.538574,4247.563965,0.000000,4.000000,86.000000,,,,0.000000,4.000000,4.000000,4.000000,4.000000,4.000000,4.000000,4.000000,4.000000,4.000000,4.000000,4.000000,4.000000,4.000000,4.000000,100.000000,,,,,,,,,,,,,,,,
1644854311.863439,102.000000,0.000000,4156.025879,4217.563965,4215.641113,4230.897461,4258.333496,4233.205078,4231.153809,4230.000000,4232.179688,4221.666504,4219.743652,4193.461426,4208.461426,4256.025879,0.000000,4.000000,86.000000,,,,0.000000,4.000000,4.000000,4.000000,4.000000,4.000000,4.000000,4.000000,4.000000,4.000000,4.000000,4.000000,4.000000,4.000000,4.000000,100.000000,,,,,,,,,,,,,,,,
1644854311.867379,103.000000,0.000000,4159.871582,4230.256348,4219.358887,4232.948730,4254.102539,4232.948730,4230.384766,4230.897461,4236.025879,4225.384766,4226.153809,4192.051270,4215.512695,4268.333496,0.000000,4.000000,86.000000,,,,0.000000,4.000000,4.000000,4.000000,4.000000,4.000000,4.000000,4.000000,4.000000,4.000000,4.000000,4.000000,4.000000,4.000000,4.000000,100.000000,,,,,,,,,,,,,,,,
1644854311.871319,104.000000,0.000000,4157.820313,4236.538574,4221.538574,4226.282227,4243.077148,4232.436035,4228.333496,4231.025879,4236.538574,4222.436035,4225.128418,4194.230957,4219.871582,4279.230957,0.000000,4.000000,86.000000,,,,0.000000,4.000000,4.000000,4.000000,4.000000,4.000000,4.000000,4.000000,4.000000,4.000000,4.000000,4.000000,4.000000,4.000000,4.000000,100.000000,,,,,,,,,,,,,,,,
1644854311.875259,105.000000,0.000000,4153.717773,4235.128418,4221.666504,4216.282227,4232.820313,4231.666504,4227.436035,4232.179688,4235.000000,4217.563965,4220.897461,4198.333496,4221.282227,4284.743652,0.000000,4.000000,86.000000,,,,0.000000,4.000000,4.000000,4.000000,4.000000,4.000000,4.000000,4.000000,4.000000,4.000000,4.000000,4.000000,4.000000,4.000000,4.000000,100.000000,,,,,,,,,,,,,,,,
1644854311.879199,106.000000,0.000000,4151.153809,4229.230957,4219.871582,4208.717773,4229.230957,4230.897461,4227.820313,4234.487305,4233.717773,4216.538574,4220.512695,4200.769043,4221.794922,4282.436035,0.000000,4.000000,86.000000,,,,0.000000,4.000000,4.000000,4.000000,4.000000,4.000000,4.000000,4.000000,4.000000,4.000000,4.000000,4.000000,4.000000,4.000000,4.000000,100.000000,,,,,,,,,,,,,,,,
1644854311.883139,107.000000,0.000000,4150.000000,4223.077148,4217.051270,4206.410156,4232.948730,4230.000000,4227.948730,4236.410156,4233.846191,4221.282227,4226.153809,4199.230957,4223.589844,4272.820313,0.000000,4.000000,86.000000,,,,0.000000,4.000000,4.000000,4.000000,4.000000,4.000000,4.000000,4.000000,4.000000,4.000000,4.000000,4.000000,4.000000,4.000000,4.000000,100.000000,,,,,,,,,,,,,,,,
1644854311.887080,108.000000,0.000000,4148.077148,4219.358887,4215.384766,4207.948730,4238.974121,4229.743652,4227.563965,4236.538574,4234.487305,4228.461426,4233.205078,4195.000000,4226.922852,4260.769043,0.000000,4.000000,86.000000,,,,0.000000,4.000000,4.000000,4.000000,4.000000,4.000000,4.000000,4.000000,4.000000,4.000000,4.000000,4.000000,4.000000,4.000000,4.000000,100.000000,,,,,,,,,,,,,,,,
1644854311.891020,109.000000,0.000000,4144.102539,4218.333496,4217.051270,4212.051270,4241.153809,4231.025879,4228.846191,4235.512695,4234.487305,4232.948730,4235.384766,4193.077148,4230.000000,4253.461426,0.000000,4.000000,86.000000,,,,0.000000,4.000000,4.000000,4.000000,4.000000,4.000000,4.000000,4.000000,4.000000,4.000000,4.000000,4.000000,4.000000,4.000000,4.000000,100.000000,,,,,,,,,,,,,,,,
1644854311.894960,110.000000,0.000000,4140.256348,4219.230957,4221.666504,4217.820313,4237.820313,4233.333496,4232.820313,4235.128418,4233.205078,4232.179688,4231.922852,4196.153809,4230.897461,4254.871582,0.000000,4.000000,86.000000,,,,0.000000,4.000000,4.000000,4.000000,4.000000,4.000000,4.000000,4.000000,4.000000,4.000000,4.000000,4.000000,4.000000,4.000000,4.000000,100.000000,,,,,,,,,,,,,,,,
1644854311.898900,111.000000,0.000000,4140.128418,4221.794922,4226.410156,4225.128418,4233.461426,4235.641113,4237.692383,4236.410156,4231.666504,4227.820313,4226.794922,4201.922852,4229.743652,4262.436035,0.000000,4.000000,86.000000,,,,0.000000,4.000000,4.000000,4.000000,4.000000,4.000000,4.000000,4.000000,4.000000,4.000000,4.000000,4.000000,4.000000,4.000000,4.000000,100.000000,,,,,,,,,,,,,,,,
1644854311.902840,112.000000,0.000000,4145.128418,4226.538574,4227.563965,4231.282227,4234.102539,4236.025879,4238.846191,4238.077148,4230.512695,4222.948730,4224.102539,4204.487305,4227.820313,4269.102539,0.000000,4.000000,86.000000,,,,0.000000,4.000000,4.000000,4.000000,4.000000,4.000000,4.000000,4.000000,4.000000,4.000000,4.000000,4.000000,4.000000,4.000000,4.000000,100.000000,,,,,,,,,,,,,,,,
1644854311.906780,113.000000,0.000000,4153.333496,4232.563965,4224.487305,4232.563965,4241.794922,4233.974121,4235.000000,4238.461426,4229.871582,4219.871582,4223.461426,4200.897461,4225.769043,4269.230957,0.000000,4.000000,86.000000,,,,0.000000,4.000000,4.000000,4.000000,4.000000,4.000000,4.000000,4.000000,4.000000,4.000000,4.000000,4.000000,4.000000,4.000000,4.000000,100.000000,,,,,,,,,,,,,,,,
1644854311.910720,114.000000,0.000000,4160.897461,4236.922852,4219.743652,4228.205078,4251.666504,4230.769043,4229.615234,4237.051270,4229.487305,4218.717773,4222.051270,4193.974121,4222.820313,4263.077148,0.000000,4.000000,86.000000,,,,0.000000,4.000000,4.000000,4.000000,4.000000,4.000000,4.000000,4.000000,4.000000,4.000000,4.000000,4.000000,4.000000,4.000000,4.000000,100.000000,,,,,,,,,,,,,,,,
1644854311.914660,115.000000,0.000000,4163.974121,4236.410156,4216.922852,4220.897461,4256.666504,4228.846191,4227.692383,4235.000000,4228.846191,4218.717773,4218.077148,4190.512695,4218.205078,4254.487305,0.000000,4.000000,86.000000,,,,0.000000,4.000000,4.000000,4.000000,4.000000,4.000000,4.000000,4.000000,4.000000,4.000000,4.000000,4.000000,4.000000,4.000000,4.000000,100.000000,,,,,,,,,,,,,,,,
1644854311.918600,116.000000,0.000000,4161.666504,4230.897461,4216.794922,4215.256348,4254.102539,4229.358887,4230.512695,4234.102539,4228.717773,4220.384766,4214.358887,4194.615234,4213.077148,4246.282227,0.000000,4.000000,86.000000,,,,0.000000,4.000000,4.000000,4.000000,4.000000,4.000000,4.000000,4.000000,4.000000,4.000000,4.000000,4.000000,4.000000,4.000000,4.000000,100.000000,,,,,,,,,,,,,,,,
1644854311.922640,117.000000,0.000000,4155.384766,4224.871582,4217.692383,4213.333496,4247.820313,4231.922852,4234.743652,4234.871582,4229.743652,4225.000000,4215.384766,4204.358887,4210.512695,4239.230957,0.000000,4.000000,86.000000,,,,0.000000,4.000000,4.000000,4.000000,4.000000,4.000000,4.000000,4.000000,4.000000,4.000000,4.000000,4.000000,4.000000,4.000000,4.000000,100.000000,,,,,,,,,,,,,,,,
1644854311.926580,118.000000,0.000000,4148.205078,4223.846191,4218.077148,4214.230957,4244.871582,4234.871582,4236.922852,4236.666504,4232.179688,4232.563965,4223.461426,4212.436035,4212.820313,4234.487305,0.000000,4.000000,86.000000,,,,0.000000,4.000000,4.000000,4.000000,4.000000,4.000000,4.000000,4.000000,4.000000,4.000000,4.000000,4.000000,4.000000,4.000000,4.000000,100.000000,,,,,,,,,,,,,,,,
1644854311.930521,119.000000,0.000000,4142.563965,4228.846191,4216.922852,4215.128418,4247.820313,4236.282227,4236.410156,4237.948730,4235.128418,4239.358887,4234.487305,4212.307617,4218.846191,4235.641113,0.000000,4.000000,86.000000,,,,0.000000,4.000000,4.000000,4.000000,4.000000,4.000000,4.000000,4.000000,4.000000,4.000000,4.000000,4.000000,4.000000,4.000000,4.000000,100.000000,,,,,,,,,,,,,,,,
1644854311.934461,120.000000,0.000000,4139.615234,4235.128418,4214.615234,4214.230957,4250.641113,4235.512695,4235.256348,4238.333496,4236.282227,4240.384766,4240.384766,4202.307617,4224.871582,4243.974121,0.000000,4.000000,86.000000,,,,0.000000,4.000000,4.000000,4.000000,4.000000,4.000000,4.000000,4.000000,4.000000,4.000000,4.000000,4.000000,4.000000,4.000000,4.000000,100.000000,,,,,,,,,,,,,,,,
1644854311.938401,121.000000,0.000000,4140.384766,4236.282227,4211.538574,4210.769043,4244.358887,4233.333496,4234.487305,4237.820313,4234.358887,4233.846191,4236.282227,4186.922852,4228.717773,4255.384766,0.000000,4.000000,86.000000,,,,0.000000,4.000000,4.000000,4.000000,4.000000,4.000000,4.000000,4.000000,4.000000,4.000000,4.000000,4.000000,4.000000,4.000000,4.000000,100.000000,,,,,,,,,,,,,,,,
1644854311.942341,122.000000,0.000000,4145.897461,4231.025879,4209.102539,4207.179688,4227.179688,4231.025879,4233.077148,4236.922852,4230.384766,4223.461426,4224.743652,4174.358887,4230.897461,4262.436035,0.000000,4.000000,86.000000,,,,0.000000,4.000000,4.000000,4.000000,4.000000,4.000000,4.000000,4.000000,4.000000,4.000000,4.000000,4.000000,4.000000,4.000000,4.000000,100.000000,,,,,,,,,,,,,,,,
1644854311.946281,123.000000,0.000000,4155.256348,4222.948730,4209.230957,4207.692383,4207.820313,4229.230957,4230.641113,4236.282227,4227.692383,4216.666504,4214.358887,4171.538574,4233.077148,4261.025879,0.000000,4.000000,86.000000,,,,0.000000,4.000000,4.000000,4.000000,4.000000,4.000000,4.000000,4.000000,4.000000,4.000000,4.000000,4.000000,4.000000,4.000000,4.000000,100.000000,,,,,,,,,,,,,,,,
1644854311.950221,124.000000,0.000000,4163.846191,4216.666504,4212.692383,4214.487305,4199.487305,4227.948730,4228.589844,4237.436035,4229.358887,4218.461426,4212.307617,4180.000000,4233.974121,4254.487305,0.000000,4.000000,86.000000,,,,0.000000,4.000000,4.000000,4.000000,4.000000,4.000000,4.000000,4.000000,4.000000,4.000000,4.000000,4.000000,4.000000,4.000000,4.000000,100.000000,,,,,,,,,,,,,,,,
1644854311.954161,125.000000,0.000000,4166.794922,4214.230957,4218.205078,4224.230957,4208.589844,4227.307617,4229.871582,4241.666504,4235.641113,4227.820313,4219.230957,4194.487305,4231.153809,4250.128418,0.000000,4.000000,86.000000,,,,0.000000,4.000000,4.000000,4.000000,4.000000,4.000000,4.000000,4.000000,4.000000,4.000000,4.000000,4.000000,4.000000,4.000000,4.000000,100.000000,,,,,,,,,,,,,,,,
1644854311.958101,126.000000,0.000000,4164.230957,4215.512695,4223.077148,4230.256348,4230.384766,4228.205078,4235.256348,4248.333496,4244.230957,4239.743652,4230.256348,4207.563965,4225.256348,4252.307617,0.000000,4.000000,86.000000,,,,0.000000,4.000000,4.000000,4.000000,4.000000,4.000000,4.000000,4.000000,4.000000,4.000000,4.000000,4.000000,4.000000,4.000000,4.000000,100.000000,,,,,,,,,,,,,,,,
1644854311.962041,127.000000,0.000000,4162.179688,4221.153809,4225.897461,4229.615234,4253.461426,4232.051270,4241.922852,4255.256348,4253.077148,4249.615234,4240.512695,4214.871582,4222.051270,4259.487305,0.000000,4.000000,86.000000,,,,0.000000,4.000000,4.000000,4.000000,4.000000,4.000000,4.000000,4.000000,4.000000,4.000000,4.000000,4.000000,4.000000,4.000000,4.000000,100.000000,,,,,,,,,,,,,,,,
1644854311.965982,128.000000,0.000000,4167.948730,4231.538574,4227.436035,4227.051270,4267.820313,4238.333496,4246.410156,4260.512695,4261.153809,4256.153809,4247.563965,4217.307617,4227.948730,4266.153809,3421.000000,4.000000,86.000000,,,,0.000000,4.000000,4.000000,4.000000,4.000000,4.000000,4.000000,4.000000,4.000000,4.000000,4.000000,4.000000,4.000000,4.000000,4.000000,100.000000,,,,,,,,,,,,,,,,
1644854311.969922,129.000000,0.000000,4182.436035,4244.871582,4228.846191,4228.846191,4270.128418,4244.102539,4246.538574,4262.820313,4267.179688,4258.974121,4251.922852,4217.692383,4243.717773,4268.205078,3299.000000,4.000000,86.000000,,,,0.000000,4.000000,4.000000,4.000000,4.000000,4.000000,4.000000,4.000000,4.000000,4.000000,4.000000,4.000000,4.000000,4.000000,4.000000,100.000000,,,,,,,,,,,,,,,,
1644854311.973862,130.000000,0.000000,4199.230957,4256.025879,4230.769043,4235.641113,4262.948730,4245.384766,4243.333496,4261.794922,4268.846191,4258.461426,4253.974121,4217.179688,4262.692383,4265.512695,3695.000000,4.000000,86.000000,,,,0.000000,4.000000,4.000000,4.000000,4.000000,4.000000,4.000000,4.000000,4.000000,4.000000,4.000000,4.000000,4.000000,4.000000,4.000000,100.000000,,,,,,,,,,,,,,,,
1644854311.977802,131.000000,0.000000,4209.615234,4260.256348,4232.307617,4240.000000,4250.897461,4240.641113,4238.717773,4257.948730,4264.102539,4254.871582,4253.333496,4215.641113,4275.256348,4262.051270,3530.000000,4.000000,86.000000,,,,0.000000,4.000000,4.000000,4.000000,4.000000,4.000000,4.000000,4.000000,4.000000,4.000000,4.000000,4.000000,4.000000,4.000000,4.000000,100.000000,,,,,,,,,,,,,,,,
1644854311.981742,132.000000,0.000000,4210.512695,4255.256348,4232.948730,4234.230957,4237.179688,4232.820313,4234.230957,4251.922852,4254.102539,4249.743652,4249.615234,4213.974121,4276.410156,4262.051270,3624.000000,4.000000,86.000000,,,,0.000000,4.000000,4.000000,4.000000,4.000000,4.000000,4.000000,4.000000,4.000000,4.000000,4.000000,4.000000,4.000000,4.000000,4.000000,100.000000,,,,,,,,,,,,,,,,
1644854311.985682,133.000000,0.000000,4205.384766,4242.820313,4232.436035,4218.461426,4223.461426,4227.179688,4230.769043,4245.641113,4243.589844,4245.128418,4243.461426,4214.358887,4268.333496,4267.436035,3363.000000,4.000000,86.000000,,,,0.000000,4.000000,4.000000,4.000000,4.000000,4.000000,4.000000,4.000000,4.000000,4.000000,4.000000,4.000000,4.000000,4.000000,4.000000,100.000000,,,,,,,,,,,,,,,,
1644854311.989622,134.000000,0.000000,4200.128418,4228.077148,4231.538574,4203.205078,4212.948730,4227.179688,4230.000000,4241.153809,4237.563965,4242.436035,4237.051270,4217.436035,4257.436035,4275.512695,2777.000000,4.000000,86.000000,,,,0.000000,4.000000,4.000000,4.000000,4.000000,4.000000,4.000000,4.000000,4.000000,4.000000,4.000000,4.000000,4.000000,4.000000,4.000000,100.000000,,,,,,,,,,,,,,,,
1644854311.993562,135.000000,0.000000,4198.077148,4217.563965,4231.538574,4200.256348,4208.846191,4231.922852,4232.692383,4240.384766,4237.820313,4241.794922,4232.051270,4221.666504,4250.000000,4280.512695,3030.000000,4.000000,86.000000,,,,0.000000,4.000000,4.000000,4.000000,4.000000,4.000000,4.000000,4.000000,4.000000,4.000000,4.000000,4.000000,4.000000,4.000000,4.000000,100.000000,,,,,,,,,,,,,,,,
1644854311.997402,136.000000,0.000000,4198.974121,4215.897461,4233.589844,4211.666504,4212.563965,4236.025879,4237.051270,4242.948730,4241.922852,4242.179688,4230.512695,4224.615234,4247.563965,4278.333496,3312.000000,4.000000,86.000000,,,,0.000000,4.000000,4.000000,4.000000,4.000000,4.000000,4.000000,4.000000,4.000000,4.000000,4.000000,4.000000,4.000000,4.000000,4.000000,100.000000,,,,,,,,,,,,,,,,
1644854312.001343,137.000000,0.000000,4199.743652,4221.922852,4237.051270,4226.666504,4220.128418,4234.487305,4239.102539,4245.256348,4244.487305,4240.897461,4233.205078,4225.128418,4247.051270,4270.128418,3516.000000,4.000000,86.000000,,,,0.000000,4.000000,4.000000,4.000000,4.000000,4.000000,4.000000,4.000000,4.000000,4.000000,4.000000,4.000000,4.000000,4.000000,4.000000,100.000000,,,,,,,,,,,,,,,,
1644854312.005283,138.000000,0.000000,4197.820313,4228.589844,4240.128418,4230.128418,4225.512695,4227.307617,4236.538574,4244.230957,4242.563965,4235.641113,4239.102539,4224.230957,4244.743652,4261.666504,3535.000000,4.000000,86.000000,,,,0.000000,4.000000,4.000000,4.000000,4.000000,4.000000,4.000000,4.000000,4.000000,4.000000,4.000000,4.000000,4.000000,4.000000,4.000000,100.000000,,,,,,,,,,,,,,,,
1644854312.009223,139.000000,0.000000,4193.589844,4227.820313,4241.282227,4216.153809,4225.512695,4219.230957,4231.922852,4240.000000,4236.794922,4225.897461,4244.743652,4223.461426,4239.487305,4258.717773,2432.000000,4.000000,86.000000,,,,0.000000,4.000000,4.000000,4.000000,4.000000,4.000000,4.000000,4.000000,4.000000,4.000000,4.000000,4.000000,4.000000,4.000000,4.000000,100.000000,,,,,,,,,,,,,,,,
1644854312.013163,140.000000,0.000000,4190.897461,4217.436035,4241.282227,4193.974121,4222.820313,4215.897461,4230.256348,4236.153809,4231.282227,4215.384766,4246.410156,4224.615234,4232.948730,4261.922852,3579.000000,4.000000,86.000000,,,,0.000000,4.000000,4.000000,4.000000,4.000000,4.000000,4.000000,4.000000,4.000000,4.000000,4.000000,4.000000,4.000000,4.000000,4.000000,100.000000,,,,,,,,,,,,,,,,
1644854312.017103,141.000000,0.000000,4193.589844,4203.205078,4241.922852,4180.769043,4223.333496,4220.256348,4233.846191,4236.153809,4230.256348,4210.256348,4243.717773,4228.589844,4227.948730,4265.897461,3463.000000,4.000000,86.000000,,,,0.000000,4.000000,4.000000,4.000000,4.000000,4.000000,4.000000,4.000000,4.000000,4.000000,4.000000,4.000000,4.000000,4.000000,4.000000,100.000000,,,,,,,,,,,,,,,,
1644854312.021043,142.000000,0.000000,4202.563965,4195.128418,4244.358887,4186.666504,4230.769043,4229.743652,4239.743652,4240.000000,4234.487305,4215.128418,4239.615234,4234.358887,4225.512695,4265.256348,3535.000000,4.000000,86.000000,,,,0.000000,4.000000,4.000000,4.000000,4.000000,4.000000,4.000000,4.000000,4.000000,4.000000,4.000000,4.000000,4.000000,4.000000,4.000000,100.000000,,,,,,,,,,,,,,,,
1644854312.024983,143.000000,0.000000,4213.589844,4199.102539,4246.922852,4207.307617,4241.922852,4238.589844,4242.563965,4244.487305,4240.641113,4228.205078,4236.794922,4238.205078,4225.641113,4259.358887,2432.000000,4.000000,86.000000,,,,0.000000,4.000000,4.000000,4.000000,4.000000,4.000000,4.000000,4.000000,4.000000,4.000000,4.000000,4.000000,4.000000,4.000000,4.000000,100.000000,,,,,,,,,,,,,,,,
1644854312.028923,144.000000,0.000000,4221.025879,4212.820313,4246.794922,4227.307617,4248.333496,4241.538574,4240.512695,4245.897461,4242.948730,4241.282227,4235.769043,4235.641113,4227.051270,4253.717773,3579.000000,4.000000,86.000000,,,,0.000000,4.000000,4.000000,4.000000,4.000000,4.000000,4.000000,4.000000,4.000000,4.000000,4.000000,4.000000,4.000000,4.000000,4.000000,100.000000,,,,,,,,,,,,,,,,
1644854312.032863,145.000000,0.000000,4221.410156,4227.948730,4242.820313,4232.692383,4242.820313,4237.692383,4236.025879,4242.436035,4239.230957,4245.769043,4233.846191,4225.512695,4229.358887,4254.487305,3463.000000,4.000000,86.000000,,,,0.000000,4.000000,4.000000,4.000000,4.000000,4.000000,4.000000,4.000000,4.000000,4.000000,4.000000,4.000000,4.000000,4.000000,4.000000,100.000000,,,,,,,,,,,,,,,,
1644854312.036804,146.000000,0.000000,4216.282227,4236.025879,4237.563965,4221.538574,4227.051270,4230.128418,4232.436035,4236.153809,4232.179688,4239.102539,4229.102539,4211.794922,4232.307617,4261.922852,3535.000000,4.000000,86.000000,,,,0.000000,4.000000,4.000000,4.000000,4.000000,4.000000,4.000000,4.000000,4.000000,4.000000,4.000000,4.000000,4.000000,4.000000,4.000000,100.000000,,,,,,,,,,,,,,,,
1644854312.040744,147.000000,0.000000,4210.128418,4234.230957,4234.871582,4204.487305,4210.641113,4223.589844,4230.897461,4230.512695,4227.051270,4226.538574,4221.922852,4201.153809,4235.256348,4270.512695,2432.000000,4.000000,86.000000,,,,0.000000,4.000000,4.000000,4.000000,4.000000,4.000000,4.000000,4.000000,4.000000,4.000000,4.000000,4.000000,4.000000,4.000000,4.000000,100.000000,,,,,,,,,,,,,,,,
1644854312.044684,148.000000,0.000000,4207.436035,4225.384766,4235.769043,4195.128418,4204.487305,4221.538574,4230.128418,4228.205078,4226.794922,4216.666504,4215.000000,4198.205078,4236.794922,4273.589844,3579.000000,4.000000,86.000000,,,,0.000000,4.000000,4.000000,4.000000,4.000000,4.000000,4.000000,4.000000,4.000000,4.000000,4.000000,4.000000,4.000000,4.000000,4.000000,100.000000,,,,,,,,,,,,,,,,
1644854312.048624,149.000000,0.000000,4210.128418,4216.282227,4238.077148,4198.077148,4211.922852,4223.974121,4229.230957,4229.102539,4230.128418,4215.000000,4211.922852,4202.436035,4235.512695,4269.615234,3463.000000,4.000000,86.000000,,,,0.000000,4.000000,4.000000,4.000000,4.000000,4.000000,4.000000,4.000000,4.000000,4.000000,4.000000,4.000000,4.000000,4.000000,4.000000,100.000000,,,,,,,,,,,,,,,,
1644854312.052564,150.000000,0.000000,4217.436035,4212.692383,4239.230957,4206.410156,4226.666504,4228.589844,4229.743652,4230.641113,4232.948730,4220.384766,4214.743652,4209.871582,4231.666504,4262.307617,3535.000000,4.000000,86.000000,,,,0.000000,4.000000,4.000000,4.000000,4.000000,4.000000,4.000000,4.000000,4.000000,4.000000,4.000000,4.000000,4.000000,4.000000,4.000000,100.000000,,,,,,,,,,,,,,,,
1644854312.056504,151.000000,0.000000,4226.025879,4216.794922,4238.589844,4210.128418,4240.000000,4232.692383,4232.051270,4230.769043,4233.077148,4227.307617,4222.563965,4215.897461,4226.666504,4255.897461,2432.000000,4.000000,86.000000,,,,0.000000,4.000000,4.000000,4.000000,4.000000,4.000000,4.000000,4.000000,4.000000,4.000000,4.000000,4.000000,4.000000,4.000000,4.000000,100.000000,,,,,,,,,,,,,,,,
1644854312.060444,152.000000,0.000000,4232.692383,4226.666504,4237.563965,4206.025879,4247.051270,4234.871582,4234.615234,4229.230957,4231.538574,4231.153809,4231.282227,4218.717773,4222.820313,4252.051270,3579.000000,4.000000,86.000000,,,,0.000000,4.000000,4.000000,4.000000,4.000000,4.000000,4.000000,4.000000,4.000000,4.000000,4.000000,4.000000,4.000000,4.000000,4.000000,100.000000,,,,,,,,,,,,,,,,
1644854312.064384,153.000000,0.000000,4235.512695,4236.794922,4237.692383,4199.743652,4248.077148,4235.000000,4234.871582,4227.692383,4230.897461,4230.769043,4236.794922,4218.205078,4221.282227,4250.641113,3463.000000,4.000000,86.000000,,,,0.000000,4.000000,4.000000,4.000000,4.000000,4.000000,4.000000,4.000000,4.000000,4.000000,4.000000,4.000000,4.000000,4.000000,4.000000,100.000000,,,,,,,,,,,,,,,,
1644854312.068324,154.000000,0.000000,4235.384766,4242.179688,4239.487305,4199.871582,4245.128418,4233.846191,4233.205078,4228.077148,4232.436035,4228.717773,4237.948730,4215.512695,4222.692383,4251.666504,3535.000000,4.000000,86.000000,,,,0.000000,4.000000,4.000000,4.000000,4.000000,4.000000,4.000000,4.000000,4.000000,4.000000,4.000000,4.000000,4.000000,4.000000,4.000000,100.000000,,,,,,,,,,,,,,,,
1644854312.072165,155.000000,0.000000,4234.102539,4241.666504,4241.666504,4207.692383,4239.615234,4231.922852,4232.307617,4230.769043,4235.384766,4228.333496,4236.666504,4212.307617,4226.666504,4255.384766,2432.000000,4.000000,86.000000,,,,0.000000,4.000000,4.000000,4.000000,4.000000,4.000000,4.000000,4.000000,4.000000,4.000000,4.000000,4.000000,4.000000,4.000000,4.000000,100.000000,,,,,,,,,,,,,,,,
1644854312.076105,156.000000,0.000000,4233.205078,4237.179688,4241.922852,4215.384766,4232.948730,4230.512695,4234.102539,4233.589844,4237.307617,4230.128418,4235.641113,4210.256348,4232.563965,4261.025879,3579.000000,4.000000,86.000000,,,,0.000000,4.000000,4.000000,4.000000,4.000000,4.000000,4.000000,4.000000,4.000000,4.000000,4.000000,4.000000,4.000000,4.000000,4.000000,100.000000,,,,,,,,,,,,,,,,
1644854312.080045,157.000000,0.000000,4231.794922,4231.025879,4238.333496,4213.974121,4227.820313,4230.256348,4236.794922,4234.102539,4237.051270,4231.282227,4234.230957,4209.743652,4238.461426,4266.153809,3463.000000,4.000000,86.000000,,,,0.000000,4.000000,4.000000,4.000000,4.000000,4.000000,4.000000,4.000000,4.000000,4.000000,4.000000,4.000000,4.000000,4.000000,4.000000,100.000000,,,,,,,,,,,,,,,,
1644854312.083985,158.000000,0.000000,4228.589844,4225.128418,4231.410156,4203.461426,4226.666504,4231.153809,4237.307617,4231.794922,4234.871582,4229.230957,4230.897461,4208.846191,4241.794922,4268.077148,3535.000000,4.000000,86.000000,,,,0.000000,4.000000,4.000000,4.000000,4.000000,4.000000,4.000000,4.000000,4.000000,4.000000,4.000000,4.000000,4.000000,4.000000,4.000000,100.000000,,,,,,,,,,,,,,,,
1644854312.087925,159.000000,0.000000,4224.615234,4220.128418,4225.256348,4194.615234,4229.487305,4232.179688,4234.615234,4229.102539,4232.436035,4224.615234,4225.512695,4206.153809,4240.256348,4267.051270,2432.000000,4.000000,86.000000,,,,0.000000,4.000000,4.000000,4.000000,4.000000,4.000000,4.000000,4.000000,4.000000,4.000000,4.000000,4.000000,4.000000,4.000000,4.000000,100.000000,,,,,,,,,,,,,,,,
1644854312.091865,160.000000,0.000000,4222.563965,4217.307617,4224.102539,4199.230957,4233.717773,4232.563965,4231.922852,4228.333496,4231.025879,4221.410156,4220.769043,4201.666504,4233.333496,4265.256348,3579.000000,4.000000,86.000000,,,,0.000000,4.000000,4.000000,4.000000,4.000000,4.000000,4.000000,4.000000,4.000000,4.000000,4.000000,4.000000,4.000000,4.000000,4.000000,100.000000,,,,,,,,,,,,,,,,
1644854312.095805,161.000000,0.000000,4223.717773,4217.179688,4228.717773,4217.563965,4235.897461,4232.692383,4232.436035,4230.000000,4231.538574,4222.436035,4219.487305,4198.333496,4223.205078,4264.358887,3463.000000,4.000000,86.000000,,,,0.000000,4.000000,4.000000,4.000000,4.000000,4.000000,4.000000,4.000000,4.000000,4.000000,4.000000,4.000000,4.000000,4.000000,4.000000,100.000000,,,,,,,,,,,,,,,,
1644854312.099745,162.000000,0.000000,4226.538574,4219.871582,4235.769043,4237.179688,4235.000000,4233.077148,4236.410156,4232.820313,4233.846191,4227.436035,4221.922852,4198.974121,4214.358887,4262.563965,3535.000000,4.000000,86.000000,,,,0.000000,4.000000,4.000000,4.000000,4.000000,4.000000,4.000000,4.000000,4.000000,4.000000,4.000000,4.000000,4.000000,4.000000,4.000000,100.000000,,,,,,,,,,,,,,,,
1644854312.103685,163.000000,0.000000,4228.333496,4224.487305,4240.128418,4242.563965,4233.717773,4234.230957,4240.384766,4235.384766,4237.179688,4232.820313,4225.128418,4204.358887,4209.871582,4257.563965,2432.000000,4.000000,86.000000,,,,0.000000,4.000000,4.000000,4.000000,4.000000,4.000000,4.000000,4.000000,4.000000,4.000000,4.000000,4.000000,4.000000,4.000000,4.000000,100.000000,,,,,,,,,,,,,,,,
1644854312.107626,164.000000,0.000000,4228.205078,4229.487305,4239.358887,4228.974121,4234.230957,4235.128418,4241.282227,4236.282227,4239.743652,4234.358887,4225.512695,4211.410156,4209.871582,4251.282227,3579.000000,4.000000,86.000000,,,,0.000000,4.000000,4.000000,4.000000,4.000000,4.000000,4.000000,4.000000,4.000000,4.000000,4.000000,4.000000,4.000000,4.000000,4.000000,100.000000,,,,,,,,,,,,,,,,
1644854312.111566,165.000000,0.000000,4227.948730,4232.820313,4235.512695,4204.871582,4236.410156,4235.000000,4239.487305,4235.641113,4240.000000,4230.769043,4222.948730,4216.538574,4212.179688,4249.230957,3463.000000,4.000000,86.000000,,,,0.000000,4.000000,4.000000,4.000000,4.000000,4.000000,4.000000,4.000000,4.000000,4.000000,4.000000,4.000000,4.000000,4.000000,4.000000,100.000000,,,,,,,,,,,,,,,,
1644854312.115506,166.000000,0.000000,4231.153809,4233.846191,4232.563965,4185.256348,4238.333496,4233.974121,4237.948730,4234.487305,4237.307617,4225.256348,4220.256348,4217.436035,4216.025879,4255.256348,3535.000000,4.000000,86.000000,,,,0.000000,4.000000,4.000000,4.000000,4.000000,4.000000,4.000000,4.000000,4.000000,4.000000,4.000000,4.000000,4.000000,4.000000,4.000000,100.000000,,,,,,,,,,,,,,,,
1644854312.119446,167.000000,0.000000,4239.102539,4232.692383,4233.077148,4180.512695,4238.846191,4233.333496,4238.205078,4233.846191,4232.948730,4223.333496,4221.153809,4215.000000,4222.563965,4266.922852,2432.000000,4.000000,86.000000,,,,0.000000,4.000000,4.000000,4.000000,4.000000,4.000000,4.000000,4.000000,4.000000,4.000000,4.000000,4.000000,4.000000,4.000000,4.000000,100.000000,,,,,,,,,,,,,,,,
1644854312.123386,168.000000,0.000000,4247.820313,4230.256348,4236.025879,4190.384766,4238.974121,4233.717773,4239.358887,4234.487305,4229.487305,4227.563965,4225.897461,4211.794922,4232.948730,4277.563965,3579.000000,4.000000,86.000000,,,,0.000000,4.000000,4.000000,4.000000,4.000000,4.000000,4.000000,4.000000,4.000000,4.000000,4.000000,4.000000,4.000000,4.000000,4.000000,100.000000,,,,,,,,,,,,,,,,
1644854312.127326,169.000000,0.000000,4250.641113,4227.436035,4238.846191,4206.538574,4239.358887,4234.743652,4239.871582,4236.666504,4229.871582,4235.384766,4231.410156,4210.256348,4245.512695,4282.179688,3463.000000,4.000000,86.000000,,,,0.000000,4.000000,4.000000,4.000000,4.000000,4.000000,4.000000,4.000000,4.000000,4.000000,4.000000,4.000000,4.000000,4.000000,4.000000,100.000000,,,,,,,,,,,,,,,,
1644854312.131266,170.000000,0.000000,4243.589844,4224.615234,4239.871582,4219.615234,4240.512695,4235.384766,4240.000000,4240.128418,4234.615234,4241.153809,4233.974121,4211.282227,4256.282227,4282.051270,3535.000000,4.000000,86.000000,,,,0.000000,4.000000,4.000000,4.000000,4.000000,4.000000,4.000000,4.000000,4.000000,4.000000,4.000000,4.000000,4.000000,4.000000,4.000000,100.000000,,,,,,,,,,,,,,,,
1644854312.135206,171.000000,0.000000,4230.000000,4223.077148,4239.871582,4225.641113,4241.922852,4235.256348,4240.897461,4245.000000,4241.538574,4242.051270,4233.077148,4214.358887,4262.051270,4281.538574,2432.000000,4.000000,86.000000,,,,0.000000,4.000000,4.000000,4.000000,4.000000,4.000000,4.000000,4.000000,4.000000,4.000000,4.000000,4.000000,4.000000,4.000000,4.000000,100.000000,,,,,,,,,,,,,,,,
1644854312.139146,172.000000,0.000000,4219.102539,4224.102539,4241.153809,4227.436035,4243.589844,4234.230957,4242.307617,4249.871582,4247.563965,4241.153809,4231.922852,4218.205078,4263.077148,4282.820313,3579.000000,4.000000,86.000000,,,,0.000000,4.000000,4.000000,4.000000,4.000000,4.000000,4.000000,4.000000,4.000000,4.000000,4.000000,4.000000,4.000000,4.000000,4.000000,100.000000,,,,,,,,,,,,,,,,
1644854312.143186,173.000000,0.000000,4219.487305,4228.589844,4244.615234,4229.487305,4245.641113,4233.077148,4242.948730,4252.563965,4250.512695,4243.077148,4235.000000,4222.051270,4261.922852,4284.102539,3463.000000,4.000000,86.000000,,,,0.000000,4.000000,4.000000,4.000000,4.000000,4.000000,4.000000,4.000000,4.000000,4.000000,4.000000,4.000000,4.000000,4.000000,4.000000,100.000000,,,,,,,,,,,,,,,,
1644854312.147126,174.000000,0.000000,4232.563965,4236.410156,4249.358887,4234.102539,4247.436035,4232.563965,4241.410156,4251.282227,4249.615234,4248.717773,4242.692383,4225.769043,4260.897461,4282.820313,3535.000000,4.000000,86.000000,,,,0.000000,4.000000,4.000000,4.000000,4.000000,4.000000,4.000000,4.000000,4.000000,4.000000,4.000000,4.000000,4.000000,4.000000,4.000000,100.000000,,,,,,,,,,,,,,,,
1644854312.151067,175.000000,0.000000,4252.179688,4246.153809,4253.205078,4240.256348,4248.461426,4232.692383,4238.205078,4246.025879,4245.384766,4253.333496,4250.512695,4229.743652,4260.769043,4280.128418,2432.000000,4.000000,86.000000,,,,0.000000,4.000000,4.000000,4.000000,4.000000,4.000000,4.000000,4.000000,4.000000,4.000000,4.000000,4.000000,4.000000,4.000000,4.000000,100.000000,,,,,,,,,,,,,,,,
1644854312.155007,176.000000,0.000000,4269.487305,4255.641113,4254.358887,4245.512695,4247.820313,4232.563965,4234.743652,4239.230957,4238.717773,4251.282227,4252.436035,4232.563965,4261.410156,4280.000000,3579.000000,4.000000,86.000000,,,,0.000000,4.000000,4.000000,4.000000,4.000000,4.000000,4.000000,4.000000,4.000000,4.000000,4.000000,4.000000,4.000000,4.000000,4.000000,100.000000,,,,,,,,,,,,,,,,
1644854312.158947,177.000000,0.000000,4279.487305,4262.179688,4253.077148,4248.717773,4243.974121,4231.666504,4231.922852,4234.102539,4232.820313,4242.948730,4247.820313,4232.307617,4263.205078,4286.153809,3463.000000,4.000000,86.000000,,,,0.000000,4.000000,4.000000,4.000000,4.000000,4.000000,4.000000,4.000000,4.000000,4.000000,4.000000,4.000000,4.000000,4.000000,4.000000,100.000000,,,,,,,,,,,,,,,,
1644854312.162887,178.000000,0.000000,4284.487305,4265.000000,4251.538574,4249.615234,4237.051270,4230.128418,4230.128418,4233.205078,4231.922852,4234.871582,4242.563965,4229.358887,4267.436035,4297.051270,3535.000000,4.000000,86.000000,,,,0.000000,4.000000,4.000000,4.000000,4.000000,4.000000,4.000000,4.000000,4.000000,4.000000,4.000000,4.000000,4.000000,4.000000,4.000000,100.000000,,,,,,,,,,,,,,,,
1644854312.166827,179.000000,0.000000,4290.769043,4266.282227,4252.307617,4249.102539,4230.000000,4229.615234,4230.384766,4237.179688,4238.461426,4235.384766,4243.205078,4226.794922,4274.102539,4307.820313,2432.000000,4.000000,86.000000,,,,0.000000,4.000000,4.000000,4.000000,4.000000,4.000000,4.000000,4.000000,4.000000,4.000000,4.000000,4.000000,4.000000,4.000000,4.000000,100.000000,,,,,,,,,,,,,,,,
1644854312.170767,180.000000,0.000000,4303.333496,4270.000000,4256.153809,4247.948730,4227.179688,4230.897461,4233.461426,4244.743652,4249.743652,4246.153809,4250.256348,4228.589844,4281.025879,4312.692383,3579.000000,4.000000,86.000000,,,,0.000000,4.000000,4.000000,4.000000,4.000000,4.000000,4.000000,4.000000,4.000000,4.000000,4.000000,4.000000,4.000000,4.000000,4.000000,100.000000,,,,,,,,,,,,,,,,
1644854312.174707,181.000000,0.000000,4322.820313,4280.000000,4261.153809,4247.307617,4231.410156,4233.717773,4238.461426,4252.179688,4259.615234,4260.256348,4257.307617,4235.128418,4285.512695,4310.000000,3463.000000,4.000000,86.000000,,,,0.000000,4.000000,4.000000,4.000000,4.000000,4.000000,4.000000,4.000000,4.000000,4.000000,4.000000,4.000000,4.000000,4.000000,4.000000,100.000000,,,,,,,,,,,,,,,,
1644854312.178647,182.000000,0.000000,4349.230957,4298.589844,4264.487305,4248.974121,4241.666504,4236.025879,4241.666504,4255.641113,4262.307617,4267.948730,4258.077148,4242.692383,4286.794922,4303.333496,3535.000000,4.000000,86.000000,,,,0.000000,4.000000,4.000000,4.000000,4.000000,4.000000,4.000000,4.000000,4.000000,4.000000,4.000000,4.000000,4.000000,4.000000,4.000000,100.000000,,,,,,,,,,,,,,,,
1644854312.182587,183.000000,0.000000,4385.256348,4326.666504,4265.384766,4254.871582,4253.974121,4236.153809,4239.871582,4253.461426,4257.179688,4263.461426,4253.717773,4246.538574,4287.307617,4300.256348,2432.000000,4.000000,86.000000,,,,0.000000,4.000000,4.000000,4.000000,4.000000,4.000000,4.000000,4.000000,4.000000,4.000000,4.000000,4.000000,4.000000,4.000000,4.000000,100.000000,,,,,,,,,,,,,,,,
1644854312.186528,184.000000,0.000000,4433.077148,4363.846191,4266.025879,4265.384766,4263.077148,4233.974121,4233.846191,4246.922852,4248.589844,4250.256348,4250.512695,4245.384766,4290.384766,4306.922852,3579.000000,4.000000,86.000000,,,,0.000000,4.000000,4.000000,4.000000,4.000000,4.000000,4.000000,4.000000,4.000000,4.000000,4.000000,4.000000,4.000000,4.000000,4.000000,100.000000,,,,,,,,,,,,,,,,
1644854312.190468,185.000000,0.000000,4487.692383,4407.692383,4269.358887,4277.179688,4265.384766,4231.282227,4228.974121,4239.487305,4242.307617,4236.666504,4253.461426,4242.436035,4297.436035,4323.205078,3463.000000,4.000000,86.000000,,,,0.000000,4.000000,4.000000,4.000000,4.000000,4.000000,4.000000,4.000000,4.000000,4.000000,4.000000,4.000000,4.000000,4.000000,4.000000,100.000000,,,,,,,,,,,,,,,,
1644854312.194408,186.000000,0.000000,4537.820313,4454.743652,4276.794922,4286.538574,4262.179688,4230.128418,4230.000000,4234.743652,4240.641113,4230.897461,4261.538574,4242.436035,4307.436035,4342.820313,3535.000000,4.000000,86.000000,,,,0.000000,4.000000,4.000000,4.000000,4.000000,4.000000,4.000000,4.000000,4.000000,4.000000,4.000000,4.000000,4.000000,4.000000,4.000000,100.000000,,,,,,,,,,,,,,,,
1644854312.198348,187.000000,0.000000,4572.692383,4502.179688,4286.282227,4292.563965,4259.487305,4231.282227,4236.282227,4234.102539,4242.563965,4234.743652,4268.717773,4247.820313,4318.589844,4357.307617,2432.000000,4.000000,86.000000,,,,0.000000,4.000000,4.000000,4.000000,4.000000,4.000000,4.000000,4.000000,4.000000,4.000000,4.000000,4.000000,4.000000,4.000000,4.000000,100.000000,,,,,,,,,,,,,,,,
1644854312.202288,188.000000,0.000000,4589.230957,4547.563965,4293.974121,4298.717773,4261.666504,4234.102539,4242.307617,4235.897461,4245.384766,4244.615234,4271.794922,4257.051270,4329.487305,4362.948730,3579.000000,4.000000,86.000000,,,,0.000000,4.000000,4.000000,4.000000,4.000000,4.000000,4.000000,4.000000,4.000000,4.000000,4.000000,4.000000,4.000000,4.000000,4.000000,100.000000,,,,,,,,,,,,,,,,
1644854312.206228,189.000000,0.000000,4593.333496,4588.461426,4297.820313,4308.846191,4266.153809,4236.153809,4243.205078,4237.051270,4246.666504,4253.846191,4272.179688,4266.153809,4339.743652,4363.333496,3463.000000,4.000000,86.000000,,,,0.000000,4.000000,4.000000,4.000000,4.000000,4.000000,4.000000,4.000000,4.000000,4.000000,4.000000,4.000000,4.000000,4.000000,4.000000,100.000000,,,,,,,,,,,,,,,,
1644854312.210168,190.000000,0.000000,4596.153809,4622.948730,4298.974121,4323.974121,4264.871582,4236.282227,4239.615234,4235.641113,4245.256348,4258.077148,4273.717773,4271.922852,4348.333496,4365.000000,3535.000000,4.000000,86.000000,,,,0.000000,4.000000,4.000000,4.000000,4.000000,4.000000,4.000000,4.000000,4.000000,4.000000,4.000000,4.000000,4.000000,4.000000,4.000000,100.000000,,,,,,,,,,,,,,,,
1644854312.214108,191.000000,0.000000,4607.436035,4652.820313,4299.615234,4340.128418,4253.461426,4234.487305,4235.897461,4232.563965,4241.922852,4257.436035,4277.307617,4273.461426,4353.333496,4371.666504,2432.000000,4.000000,86.000000,,,,0.000000,4.000000,4.000000,4.000000,4.000000,4.000000,4.000000,4.000000,4.000000,4.000000,4.000000,4.000000,4.000000,4.000000,4.000000,100.000000,,,,,,,,,,,,,,,,
1644854312.217948,192.000000,0.000000,4630.769043,4685.128418,4300.897461,4353.333496,4237.948730,4232.307617,4235.512695,4230.256348,4239.102539,4255.897461,4280.769043,4272.436035,4354.230957,4381.025879,3579.000000,4.000000,86.000000,,,,0.000000,4.000000,4.000000,4.000000,4.000000,4.000000,4.000000,4.000000,4.000000,4.000000,4.000000,4.000000,4.000000,4.000000,4.000000,100.000000,,,,,,,,,,,,,,,,
1644854312.221889,193.000000,0.000000,4662.051270,4729.102539,4301.794922,4363.846191,4231.153809,4231.153809,4237.179688,4230.384766,4239.230957,4257.051270,4282.307617,4272.692383,4352.179688,4388.461426,3463.000000,4.000000,86.000000,,,,0.000000,4.000000,4.000000,4.000000,4.000000,4.000000,4.000000,4.000000,4.000000,4.000000,4.000000,4.000000,4.000000,4.000000,4.000000,100.000000,,,,,,,,,,,,,,,,
1644854312.225829,194.000000,0.000000,4692.820313,4790.897461,4301.282227,4375.384766,4240.641113,4231.025879,4237.948730,4232.948730,4242.436035,4260.897461,4283.717773,4277.307617,4350.000000,4391.410156,3535.000000,4.000000,86.000000,,,,0.000000,4.000000,4.000000,4.000000,4.000000,4.000000,4.000000,4.000000,4.000000,4.000000,4.000000,4.000000,4.000000,4.000000,4.000000,100.000000,,,,,,,,,,,,,,,,
1644854312.229769,195.000000,0.000000,4715.769043,4869.487305,4299.230957,4389.743652,4260.641113,4230.769043,4237.307617,4236.025879,4245.897461,4262.692383,4288.333496,4285.000000,4350.128418,4391.666504,2432.000000,4.000000,86.000000,,,,0.000000,4.000000,4.000000,4.000000,4.000000,4.000000,4.000000,4.000000,4.000000,4.000000,4.000000,4.000000,4.000000,4.000000,4.000000,100.000000,,,,,,,,,,,,,,,,
1644854312.233709,196.000000,0.000000,4729.615234,4957.820313,4296.922852,4402.820313,4276.538574,4229.615234,4237.179688,4238.077148,4246.410156,4256.922852,4295.897461,4290.769043,4352.692383,4391.025879,3579.000000,4.000000,86.000000,,,,0.000000,4.000000,4.000000,4.000000,4.000000,4.000000,4.000000,4.000000,4.000000,4.000000,4.000000,4.000000,4.000000,4.000000,4.000000,100.000000,,,,,,,,,,,,,,,,
1644854312.237649,197.000000,0.000000,4739.743652,5046.025879,4295.256348,4409.230957,4277.820313,4228.846191,4238.974121,4237.948730,4243.461426,4243.333496,4300.897461,4289.102539,4355.769043,4388.974121,3463.000000,4.000000,86.000000,,,,0.000000,4.000000,4.000000,4.000000,4.000000,4.000000,4.000000,4.000000,4.000000,4.000000,4.000000,4.000000,4.000000,4.000000,4.000000,100.000000,,,,,,,,,,,,,,,,
1644854312.241589,198.000000,0.000000,4753.205078,5127.307617,4294.358887,4408.974121,4266.922852,4229.871582,4241.025879,4236.153809,4239.743652,4228.461426,4296.410156,4279.358887,4355.384766,4383.333496,3535.000000,4.000000,86.000000,,,,0.000000,4.000000,4.000000,4.000000,4.000000,4.000000,4.000000,4.000000,4.000000,4.000000,4.000000,4.000000,4.000000,4.000000,4.000000,100.000000,,,,,,,,,,,,,,,,
1644854312.245529,199.000000,0.000000,4772.179688,5198.974121,4293.717773,4408.205078,4255.000000,4232.692383,4240.384766,4233.717773,4237.307617,4221.282227,4279.615234,4265.641113,4347.948730,4374.230957,2432.000000,4.000000,86.000000,,,,0.000000,4.000000,4.000000,4.000000,4.000000,4.000000,4.000000,4.000000,4.000000,4.000000,4.000000,4.000000,4.000000,4.000000,4.000000,100.000000,,,,,,,,,,,,,,,,
1644854312.249469,200.000000,0.000000,4791.025879,5261.794922,4291.410156,4413.846191,4250.641113,4234.487305,4236.410156,4231.282227,4236.153809,4225.000000,4255.384766,4253.461426,4332.179688,4366.025879,3579.000000,4.000000,86.000000,,,,0.000000,4.000000,4.000000,4.000000,4.000000,4.000000,4.000000,4.000000,4.000000,4.000000,4.000000,4.000000,4.000000,4.000000,4.000000,100.000000,,,,,,,,,,,,,,,,
1644854312.253409,201.000000,0.000000,4803.461426,5316.666504,4285.512695,4426.410156,4252.563965,4232.436035,4231.922852,4228.846191,4233.846191,4233.846191,4234.743652,4246.922852,4311.153809,4363.846191,3463.000000,4.000000,86.000000,,,,0.000000,4.000000,4.000000,4.000000,4.000000,4.000000,4.000000,4.000000,4.000000,4.000000,4.000000,4.000000,4.000000,4.000000,4.000000,100.000000,,,,,,,,,,,,,,,,
1644854312.257350,202.000000,0.000000,4809.358887,5364.615234,4275.641113,4438.333496,4253.461426,4226.282227,4229.615234,4226.025879,4229.358887,4238.333496,4227.563965,4245.769043,4291.666504,4368.077148,3535.000000,4.000000,86.000000,,,,0.000000,4.000000,4.000000,4.000000,4.000000,4.000000,4.000000,4.000000,4.000000,4.000000,4.000000,4.000000,4.000000,4.000000,4.000000,100.000000,,,,,,,,,,,,,,,,
1644854312.261290,203.000000,0.000000,4815.641113,5407.051270,4263.974121,4441.025879,4248.077148,4219.102539,4229.871582,4223.333496,4223.846191,4234.487305,4236.410156,4247.051270,4281.538574,4375.000000,2432.000000,4.000000,86.000000,,,,0.000000,4.000000,4.000000,4.000000,4.000000,4.000000,4.000000,4.000000,4.000000,4.000000,4.000000,4.000000,4.000000,4.000000,4.000000,100.000000,,,,,,,,,,,,,,,,
1644854312.265230,204.000000,0.000000,4828.846191,5446.794922,4255.000000,4431.794922,4239.487305,4216.025879,4231.666504,4222.563965,4221.410156,4227.436035,4253.717773,4247.563965,4284.871582,4379.487305,3579.000000,4.000000,86.000000,,,,0.000000,4.000000,4.000000,4.000000,4.000000,4.000000,4.000000,4.000000,4.000000,4.000000,4.000000,4.000000,4.000000,4.000000,4.000000,100.000000,,,,,,,,,,,,,,,,
1644854312.269170,205.000000,0.000000,4848.717773,5485.256348,4252.307617,4418.461426,4236.153809,4219.615234,4234.102539,4226.410156,4224.871582,4225.384766,4267.307617,4246.153809,4298.717773,4379.871582,3463.000000,4.000000,86.000000,,,,0.000000,4.000000,4.000000,4.000000,4.000000,4.000000,4.000000,4.000000,4.000000,4.000000,4.000000,4.000000,4.000000,4.000000,4.000000,100.000000,,,,,,,,,,,,,,,,
1644854312.273110,206.000000,0.000000,4867.820313,5521.794922,4256.666504,4415.384766,4245.128418,4227.820313,4237.436035,4234.743652,4233.589844,4232.179688,4268.461426,4243.846191,4314.487305,4377.948730,3535.000000,4.000000,86.000000,,,,0.000000,4.000000,4.000000,4.000000,4.000000,4.000000,4.000000,4.000000,4.000000,4.000000,4.000000,4.000000,4.000000,4.000000,4.000000,100.000000,,,,,,,,,,,,,,,,
1644854312.277050,207.000000,0.000000,4878.205078,5555.512695,4264.743652,4432.307617,4265.512695,4235.128418,4241.025879,4244.743652,4242.948730,4243.589844,4258.974121,4243.333496,4322.051270,4375.128418,2432.000000,4.000000,86.000000,,,,0.000000,4.000000,4.000000,4.000000,4.000000,4.000000,4.000000,4.000000,4.000000,4.000000,4.000000,4.000000,4.000000,4.000000,4.000000,100.000000,,,,,,,,,,,,,,,,
1644854312.280990,208.000000,0.000000,4877.820313,5586.666504,4270.384766,4465.128418,4287.436035,4237.051270,4242.563965,4250.769043,4247.948730,4251.794922,4248.589844,4245.000000,4316.538574,4371.025879,3579.000000,4.000000,86.000000,,,,0.000000,4.000000,4.000000,4.000000,4.000000,4.000000,4.000000,4.000000,4.000000,4.000000,4.000000,4.000000,4.000000,4.000000,4.000000,100.000000,,,,,,,,,,,,,,,,
1644854312.284930,209.000000,0.000000,4873.333496,5616.538574,4269.871582,4498.974121,4299.230957,4233.077148,4240.641113,4249.358887,4246.153809,4251.794922,4245.641113,4246.538574,4300.641113,4365.256348,3463.000000,4.000000,86.000000,,,,0.000000,4.000000,4.000000,4.000000,4.000000,4.000000,4.000000,4.000000,4.000000,4.000000,4.000000,4.000000,4.000000,4.000000,4.000000,100.000000,,,,,,,,,,,,,,,,
1644854312.288770,210.000000,0.000000,4875.769043,5644.743652,4264.358887,4520.256348,4297.179688,4226.666504,4236.922852,4242.179688,4239.743652,4244.615234,4251.282227,4244.615234,4283.717773,4359.615234,3535.000000,4.000000,86.000000,,,,0.000000,4.000000,4.000000,4.000000,4.000000,4.000000,4.000000,4.000000,4.000000,4.000000,4.000000,4.000000,4.000000,4.000000,4.000000,100.000000,,,,,,,,,,,,,,,,
1644854312.292711,211.000000,0.000000,4892.563965,5666.666504,4258.846191,4525.769043,4286.666504,4222.692383,4235.256348,4235.000000,4234.358887,4236.538574,4259.743652,4238.077148,4274.487305,4357.051270,2432.000000,4.000000,86.000000,,,,0.000000,4.000000,4.000000,4.000000,4.000000,4.000000,4.000000,4.000000,4.000000,4.000000,4.000000,4.000000,4.000000,4.000000,4.000000,100.000000,,,,,,,,,,,,,,,,
1644854312.296651,212.000000,0.000000,4919.743652,5675.256348,4257.563965,4522.563965,4275.384766,4223.461426,4236.794922,4232.692383,4234.230957,4232.948730,4263.846191,4230.641113,4274.871582,4356.410156,3579.000000,4.000000,86.000000,,,,0.000000,4.000000,4.000000,4.000000,4.000000,4.000000,4.000000,4.000000,4.000000,4.000000,4.000000,4.000000,4.000000,4.000000,4.000000,100.000000,1.000000,16.666666,1.000000,0.000000,4.000000,1.000000,3.000000,4.000000,4.000000,4.000000,4.000000,4.000000,4.000000,4.000000,4.000000,4.000000
1644854312.300591,213.000000,0.000000,4945.128418,5667.820313,4259.871582,4517.436035,4266.153809,4227.563965,4239.230957,4235.384766,4238.461426,4234.487305,4260.384766,4227.563965,4278.717773,4353.205078,3463.000000,4.000000,86.000000,,,,0.000000,4.000000,4.000000,4.000000,4.000000,4.000000,4.000000,4.000000,4.000000,4.000000,4.000000,4.000000,4.000000,4.000000,4.000000,100.000000,,,,,,,,,,,,,,,,
1644854312.304531,214.000000,0.000000,4957.820313,5648.974121,4261.410156,4510.256348,4257.051270,4232.307617,4238.846191,4239.358887,4242.692383,4237.563965,4250.512695,4231.794922,4277.820313,4343.717773,3535.000000,4.000000,86.000000,,,,0.000000,4.000000,4.000000,4.000000,4.000000,4.000000,4.000000,4.000000,4.000000,4.000000,4.000000,4.000000,4.000000,4.000000,4.000000,100.000000,,,,,,,,,,,,,,,,
1644854312.308471,215.000000,0.000000,4956.666504,5629.358887,4259.230957,4496.538574,4248.205078,4235.641113,4235.897461,4240.512695,4242.692383,4238.846191,4238.846191,4241.282227,4269.358887,4330.769043,2432.000000,4.000000,86.000000,,,,0.000000,4.000000,4.000000,4.000000,4.000000,4.000000,4.000000,4.000000,4.000000,4.000000,4.000000,4.000000,4.000000,4.000000,4.000000,100.000000,,,,,,,,,,,,,,,,
1644854312.312411,216.000000,0.000000,4948.846191,5616.538574,4254.743652,4476.282227,4244.358887,4236.794922,4233.717773,4238.077148,4238.461426,4238.205078,4230.384766,4250.128418,4258.717773,4322.307617,3579.000000,4.000000,86.000000,,,,0.000000,4.000000,4.000000,4.000000,4.000000,4.000000,4.000000,4.000000,4.000000,4.000000,4.000000,4.000000,4.000000,4.000000,4.000000,100.000000,,,,,,,,,,,,,,,,
1644854312.316351,217.000000,0.000000,4942.307617,5610.384766,4251.922852,4458.717773,4251.025879,4235.641113,4234.743652,4234.358887,4233.461426,4238.077148,4228.589844,4253.205078,4253.717773,4323.846191,3463.000000,4.000000,86.000000,,,,0.000000,4.000000,4.000000,4.000000,4.000000,4.000000,4.000000,4.000000,4.000000,4.000000,4.000000,4.000000,4.000000,4.000000,4.000000,100.000000,,,,,,,,,,,,,,,,
1644854312.320291,218.000000,0.000000,4940.512695,5605.128418,4254.230957,4456.538574,4267.179688,4232.820313,4237.692383,4232.307617,4231.282227,4240.000000,4234.230957,4249.487305,4259.102539,4333.589844,3535.000000,4.000000,86.000000,,,,0.000000,4.000000,4.000000,4.000000,4.000000,4.000000,4.000000,4.000000,4.000000,4.000000,4.000000,4.000000,4.000000,4.000000,4.000000,100.000000,,,,,,,,,,,,,,,,
1644854312.324231,219.000000,0.000000,4942.820313,5596.153809,4260.512695,4473.589844,4283.974121,4228.717773,4239.102539,4232.692383,4232.563965,4241.666504,4245.769043,4242.307617,4271.282227,4344.358887,2432.000000,4.000000,86.000000,,,,0.000000,4.000000,4.000000,4.000000,4.000000,4.000000,4.000000,4.000000,4.000000,4.000000,4.000000,4.000000,4.000000,4.000000,4.000000,100.000000,,,,,,,,,,,,,,,,
1644854312.328172,220.000000,0.000000,4946.922852,5582.179688,4265.384766,4499.358887,4290.128418,4225.000000,4237.563965,4234.230957,4234.102539,4238.717773,4257.692383,4235.769043,4281.025879,4349.871582,3579.000000,4.000000,86.000000,,,,0.000000,4.000000,4.000000,4.000000,4.000000,4.000000,4.000000,4.000000,4.000000,4.000000,4.000000,4.000000,4.000000,4.000000,4.000000,100.000000,,,,,,,,,,,,,,,,
1644854312.332112,221.000000,0.000000,4950.512695,5563.589844,4263.461426,4516.282227,4281.538574,4222.051270,4234.230957,4234.102539,4232.051270,4228.717773,4263.205078,4230.897461,4278.846191,4348.205078,3463.000000,4.000000,86.000000,,,,0.000000,4.000000,4.000000,4.000000,4.000000,4.000000,4.000000,4.000000,4.000000,4.000000,4.000000,4.000000,4.000000,4.000000,4.000000,100.000000,,,,,,,,,,,,,,,,
1644854312.336052,222.000000,0.000000,4950.769043,5540.897461,4253.461426,4514.358887,4264.487305,4218.974121,4230.897461,4230.512695,4225.256348,4215.256348,4256.794922,4225.256348,4262.307617,4341.282227,3535.000000,4.000000,86.000000,,,,0.000000,4.000000,4.000000,4.000000,4.000000,4.000000,4.000000,4.000000,4.000000,4.000000,4.000000,4.000000,4.000000,4.000000,4.000000,100.000000,,,,,,,,,,,,,,,,
1644854312.339992,223.000000,0.000000,4944.743652,5516.025879,4239.743652,4497.692383,4250.897461,4214.102539,4227.051270,4224.615234,4216.538574,4205.512695,4238.974121,4216.538574,4238.461426,4331.025879,2432.000000,4.000000,86.000000,,,,0.000000,4.000000,4.000000,4.000000,4.000000,4.000000,4.000000,4.000000,4.000000,4.000000,4.000000,4.000000,4.000000,4.000000,4.000000,100.000000,,,,,,,,,,,,,,,,
1644854312.343932,224.000000,0.000000,4929.871582,5493.205078,4229.102539,4479.230957,4248.974121,4207.820313,4221.922852,4218.974121,4210.128418,4204.487305,4216.794922,4206.666504,4217.948730,4318.461426,3579.000000,4.000000,86.000000,,,,0.000000,4.000000,4.000000,4.000000,4.000000,4.000000,4.000000,4.000000,4.000000,4.000000,4.000000,4.000000,4.000000,4.000000,4.000000,100.000000,,,,,,,,,,,,,,,,
1644854312.347872,225.000000,0.000000,4907.563965,5477.307617,4225.769043,4467.820313,4257.436035,4202.563965,4216.538574,4215.256348,4207.692383,4210.512695,4199.871582,4200.256348,4207.563965,4305.512695,3463.000000,4.000000,86.000000,,,,0.000000,4.000000,4.000000,4.000000,4.000000,4.000000,4.000000,4.000000,4.000000,4.000000,4.000000,4.000000,4.000000,4.000000,4.000000,100.000000,,,,,,,,,,,,,,,,
1644854312.351812,226.000000,0.000000,4883.974121,5470.512695,4228.461426,4462.436035,4267.436035,4201.153809,4213.589844,4213.205078,4207.436035,4217.051270,4194.230957,4199.871582,4206.025879,4296.410156,3535.000000,4.000000,86.000000,,,,0.000000,4.000000,4.000000,4.000000,4.000000,4.000000,4.000000,4.000000,4.000000,4.000000,4.000000,4.000000,4.000000,4.000000,4.000000,100.000000,,,,,,,,,,,,,,,,
1644854312.355752,227.000000,0.000000,4867.307617,5470.641113,4231.922852,4456.666504,4270.000000,4203.333496,4214.230957,4211.153809,4205.641113,4218.333496,4198.846191,4203.974121,4207.436035,4294.615234,2432.000000,4.000000,86.000000,,,,0.000000,4.000000,4.000000,4.000000,4.000000,4.000000,4.000000,4.000000,4.000000,4.000000,4.000000,4.000000,4.000000,4.000000,4.000000,100.000000,,,,,,,,,,,,,,,,
1644854312.359692,228.000000,0.000000,4862.179688,5472.948730,4230.384766,4446.666504,4263.205078,4204.871582,4216.153809,4207.692383,4201.282227,4213.333496,4206.794922,4207.436035,4207.307617,4299.615234,3579.000000,4.000000,86.000000,,,,0.000000,4.000000,4.000000,4.000000,4.000000,4.000000,4.000000,4.000000,4.000000,4.000000,4.000000,4.000000,4.000000,4.000000,4.000000,100.000000,,,,,,,,,,,,,,,,
1644854312.363533,229.000000,0.000000,4865.641113,5473.589844,4222.692383,4436.282227,4252.563965,4201.922852,4215.000000,4202.692383,4196.025879,4203.974121,4211.538574,4205.384766,4205.897461,4306.666504,3463.000000,4.000000,86.000000,,,,0.000000,4.000000,4.000000,4.000000,4.000000,4.000000,4.000000,4.000000,4.000000,4.000000,4.000000,4.000000,4.000000,4.000000,4.000000,100.000000,,,,,,,,,,,,,,,,
1644854312.367473,230.000000,0.000000,4869.487305,5471.538574,4213.589844,4432.436035,4246.153809,4194.230957,4210.128418,4197.563965,4193.077148,4193.589844,4211.538574,4197.051270,4206.666504,4311.538574,3535.000000,4.000000,86.000000,,,,0.000000,4.000000,4.000000,4.000000,4.000000,4.000000,4.000000,4.000000,4.000000,4.000000,4.000000,4.000000,4.000000,4.000000,4.000000,100.000000,,,,,,,,,,,,,,,,
1644854312.371413,231.000000,0.000000,4865.897461,5468.974121,4209.230957,4437.820313,4246.410156,4186.153809,4204.871582,4195.384766,4194.230957,4185.512695,4209.871582,4186.538574,4210.641113,4312.563965,2432.000000,4.000000,86.000000,,,,0.000000,4.000000,4.000000,4.000000,4.000000,4.000000,4.000000,4.000000,4.000000,4.000000,4.000000,4.000000,4.000000,4.000000,4.000000,100.000000,,,,,,,,,,,,,,,,
1644854312.375353,232.000000,0.000000,4852.051270,5468.077148,4211.410156,4447.307617,4248.846191,4183.333496,4203.461426,4197.436035,4198.461426,4183.077148,4208.717773,4179.358887,4214.871582,4309.871582,3579.000000,4.000000,86.000000,,,,0.000000,4.000000,4.000000,4.000000,4.000000,4.000000,4.000000,4.000000,4.000000,4.000000,4.000000,4.000000,4.000000,4.000000,4.000000,100.000000,,,,,,,,,,,,,,,,
1644854312.379293,233.000000,0.000000,4830.769043,5468.461426,4216.410156,4452.179688,4247.436035,4187.563965,4205.769043,4202.563965,4203.717773,4187.692383,4207.563965,4178.846191,4215.000000,4303.846191,3463.000000,4.000000,86.000000,,,,0.000000,4.000000,4.000000,4.000000,4.000000,4.000000,4.000000,4.000000,4.000000,4.000000,4.000000,4.000000,4.000000,4.000000,4.000000,100.000000,,,,,,,,,,,,,,,,
1644854312.383233,234.000000,0.000000,4808.717773,5466.282227,4218.717773,4447.948730,4242.563965,4195.512695,4208.717773,4207.820313,4207.692383,4197.948730,4204.743652,4183.717773,4209.871582,4295.897461,3535.000000,4.000000,86.000000,,,,0.000000,4.000000,4.000000,4.000000,4.000000,4.000000,4.000000,4.000000,4.000000,4.000000,4.000000,4.000000,4.000000,4.000000,4.000000,100.000000,,,,,,,,,,,,,,,,
1644854312.387173,235.000000,0.000000,4792.948730,5458.717773,4215.128418,4439.358887,4241.794922,4201.025879,4209.358887,4210.769043,4209.487305,4209.487305,4200.384766,4189.615234,4203.974121,4289.230957,2432.000000,4.000000,86.000000,,,,0.000000,4.000000,4.000000,4.000000,4.000000,4.000000,4.000000,4.000000,4.000000,4.000000,4.000000,4.000000,4.000000,4.000000,4.000000,100.000000,,,,,,,,,,,,,,,,
1644854312.391113,236.000000,0.000000,4787.307617,5446.794922,4207.179688,4435.512695,4251.410156,4200.384766,4207.948730,4211.153809,4209.615234,4218.077148,4197.307617,4191.922852,4203.077148,4288.333496,3579.000000,4.000000,86.000000,,,,0.000000,4.000000,4.000000,4.000000,4.000000,4.000000,4.000000,4.000000,4.000000,4.000000,4.000000,4.000000,4.000000,4.000000,4.000000,100.000000,,,,,,,,,,,,,,,,
1644854312.395053,237.000000,0.000000,4790.769043,5436.922852,4198.846191,4439.487305,4268.077148,4194.102539,4206.538574,4210.128418,4208.974121,4221.666504,4198.077148,4187.948730,4210.000000,4294.615234,3463.000000,4.000000,86.000000,,,,0.000000,4.000000,4.000000,4.000000,4.000000,4.000000,4.000000,4.000000,4.000000,4.000000,4.000000,4.000000,4.000000,4.000000,4.000000,100.000000,,,,,,,,,,,,,,,,
1644854312.398994,238.000000,0.000000,4798.461426,5434.487305,4193.333496,4444.358887,4281.025879,4187.051270,4205.384766,4208.461426,4208.461426,4220.512695,4203.077148,4178.717773,4221.794922,4304.230957,3535.000000,4.000000,86.000000,,,,0.000000,4.000000,4.000000,4.000000,4.000000,4.000000,4.000000,4.000000,4.000000,4.000000,4.000000,4.000000,4.000000,4.000000,4.000000,100.000000,,,,,,,,,,,,,,,,
1644854312.402934,239.000000,0.000000,4804.871582,5438.846191,4191.410156,4439.358887,4280.256348,4184.102539,4203.333496,4206.282227,4207.436035,4216.538574,4209.487305,4168.461426,4230.128418,4310.256348,2432.000000,4.000000,86.000000,,,,0.000000,4.000000,4.000000,4.000000,4.000000,4.000000,4.000000,4.000000,4.000000,4.000000,4.000000,4.000000,4.000000,4.000000,4.000000,100.000000,,,,,,,,,,,,,,,,
1644854312.406874,240.000000,0.000000,4807.436035,5442.436035,4191.282227,4421.922852,4265.384766,4186.282227,4199.871582,4203.717773,4205.128418,4211.410156,4212.692383,4162.307617,4227.051270,4307.436035,3579.000000,4.000000,86.000000,,,,0.000000,4.000000,4.000000,4.000000,4.000000,4.000000,4.000000,4.000000,4.000000,4.000000,4.000000,4.000000,4.000000,4.000000,4.000000,100.000000,,,,,,,,,,,,,,,,
1644854312.410814,241.000000,0.000000,4807.436035,5437.563965,4190.641113,4402.051270,4245.769043,4190.384766,4197.563965,4202.051270,4202.051270,4206.282227,4210.000000,4163.461426,4210.769043,4295.769043,3463.000000,4.000000,86.000000,,,,0.000000,4.000000,4.000000,4.000000,4.000000,4.000000,4.000000,4.000000,4.000000,4.000000,4.000000,4.000000,4.000000,4.000000,4.000000,100.000000,,,,,,,,,,,,,,,,
1644854312.414754,242.000000,0.000000,4807.307617,5422.948730,4188.846191,4393.333496,4233.589844,4192.179688,4198.333496,4202.692383,4200.000000,4202.436035,4202.948730,4171.025879,4189.615234,4280.641113,3535.000000,4.000000,86.000000,,,,0.000000,4.000000,4.000000,4.000000,4.000000,4.000000,4.000000,4.000000,4.000000,4.000000,4.000000,4.000000,4.000000,4.000000,4.000000,100.000000,,,,,,,,,,,,,,,,
1644854312.418694,243.000000,0.000000,4807.051270,5403.717773,4185.128418,4399.871582,4233.974121,4189.358887,4201.153809,4205.000000,4200.641113,4200.897461,4196.922852,4180.128418,4176.025879,4268.974121,2432.000000,4.000000,86.000000,,,,0.000000,4.000000,4.000000,4.000000,4.000000,4.000000,4.000000,4.000000,4.000000,4.000000,4.000000,4.000000,4.000000,4.000000,4.000000,100.000000,,,,,,,,,,,,,,,,
1644854312.422634,244.000000,0.000000,4801.794922,5385.512695,4179.102539,4411.794922,4241.922852,4183.333496,4202.051270,4206.282227,4202.948730,4201.025879,4194.230957,4182.948730,4176.666504,4265.000000,3579.000000,4.000000,86.000000,,,,0.000000,4.000000,4.000000,4.000000,4.000000,4.000000,4.000000,4.000000,4.000000,4.000000,4.000000,4.000000,4.000000,4.000000,4.000000,100.000000,,,,,,,,,,,,,,,,
1644854312.426574,245.000000,0.000000,4785.128418,5369.230957,4170.256348,4413.717773,4247.436035,4176.794922,4197.948730,4203.205078,4202.820313,4200.897461,4191.153809,4173.589844,4187.051270,4268.717773,3463.000000,4.000000,86.000000,,,,0.000000,4.000000,4.000000,4.000000,4.000000,4.000000,4.000000,4.000000,4.000000,4.000000,4.000000,4.000000,4.000000,4.000000,4.000000,100.000000,,,,,,,,,,,,,,,,
1644854312.430514,246.000000,0.000000,4755.769043,5351.410156,4160.641113,4400.000000,4244.358887,4171.025879,4190.128418,4195.000000,4197.051270,4197.179688,4181.666504,4153.205078,4194.615234,4275.641113,3535.000000,4.000000,86.000000,,,,0.000000,4.000000,4.000000,4.000000,4.000000,4.000000,4.000000,4.000000,4.000000,4.000000,4.000000,4.000000,4.000000,4.000000,4.000000,100.000000,,,,,,,,,,,,,,,,
1644854312.434454,247.000000,0.000000,4720.641113,5330.256348,4153.333496,4379.358887,4235.000000,4166.153809,4183.077148,4185.897461,4186.666504,4188.974121,4165.641113,4131.282227,4189.743652,4279.615234,2432.000000,4.000000,86.000000,,,,0.000000,4.000000,4.000000,4.000000,4.000000,4.000000,4.000000,4.000000,4.000000,4.000000,4.000000,4.000000,4.000000,4.000000,4.000000,100.000000,,,,,,,,,,,,,,,,
1644854312.438295,248.000000,0.000000,4690.897461,5308.717773,4151.794922,4365.641113,4226.153809,4162.436035,4180.897461,4181.410156,4177.436035,4178.717773,4151.282227,4120.128418,4173.974121,4276.025879,3579.000000,4.000000,86.000000,,,,0.000000,4.000000,4.000000,4.000000,4.000000,4.000000,4.000000,4.000000,4.000000,4.000000,4.000000,4.000000,4.000000,4.000000,4.000000,100.000000,,,,,,,,,,,,,,,,
1644854312.442235,249.000000,0.000000,4675.000000,5292.179688,4156.025879,4364.615234,4222.563965,4161.794922,4183.846191,4184.487305,4175.384766,4170.769043,4148.333496,4125.512695,4158.205078,4265.769043,3463.000000,4.000000,86.000000,,,,0.000000,4.000000,4.000000,4.000000,4.000000,4.000000,4.000000,4.000000,4.000000,4.000000,4.000000,4.000000,4.000000,4.000000,4.000000,100.000000,,,,,,,,,,,,,,,,
1644854312.446175,250.000000,0.000000,4673.205078,5283.846191,4162.563965,4370.128418,4222.820313,4165.641113,4189.615234,4193.077148,4181.794922,4168.974121,4158.333496,4142.692383,4152.692383,4254.871582,3535.000000,4.000000,86.000000,,,,0.000000,4.000000,4.000000,4.000000,4.000000,4.000000,4.000000,4.000000,4.000000,4.000000,4.000000,4.000000,4.000000,4.000000,4.000000,100.000000,,,,,,,,,,,,,,,,
1644854312.450115,251.000000,0.000000,4677.307617,5281.666504,4167.563965,4371.025879,4222.051270,4172.307617,4195.256348,4201.282227,4191.025879,4173.717773,4173.205078,4159.871582,4158.974121,4250.000000,2432.000000,4.000000,86.000000,,,,0.000000,4.000000,4.000000,4.000000,4.000000,4.000000,4.000000,4.000000,4.000000,4.000000,4.000000,4.000000,4.000000,4.000000,4.000000,100.000000,,,,,,,,,,,,,,,,
1644854312.454055,252.000000,0.000000,4676.282227,5281.025879,4168.846191,4361.538574,4217.307617,4176.922852,4198.333496,4203.589844,4195.000000,4181.282227,4182.563965,4166.666504,4168.846191,4252.948730,3579.000000,4.000000,86.000000,,,,0.000000,4.000000,4.000000,4.000000,4.000000,4.000000,4.000000,4.000000,4.000000,4.000000,4.000000,4.000000,4.000000,4.000000,4.000000,100.000000,,,,,,,,,,,,,,,,
1644854312.457995,253.000000,0.000000,4663.333496,5276.538574,4167.692383,4346.282227,4212.436035,4175.897461,4197.692383,4198.589844,4190.256348,4187.051270,4184.487305,4160.384766,4174.230957,4260.641113,3463.000000,4.000000,86.000000,,,,0.000000,4.000000,4.000000,4.000000,4.000000,4.000000,4.000000,4.000000,4.000000,4.000000,4.000000,4.000000,4.000000,4.000000,4.000000,100.000000,,,,,,,,,,,,,,,,
