title:Alex--li4Z2xVhmKKhKRi1LrTvg, start timestamp:1644853851.834756, stop timestamp:1644853877.508024, headset type:EPOCPLUS, headset serial:3B9AEBFF, headset firmware:626, channels:55, sampling rate:eeg_256, samples:6517      , version:2.1, 
Timestamp,OriginalTimestamp,EEG.Counter,EEG.Interpolated,EEG.AF3,EEG.F7,EEG.F3,EEG.FC5,EEG.T7,EEG.P7,EEG.O1,EEG.O2,EEG.P8,EEG.T8,EEG.FC6,EEG.F4,EEG.F8,EEG.AF4,EEG.RawCq,EEG.Battery,EEG.BatteryPercent,MarkerIndex,MarkerType,MarkerValueInt,EEG.MarkerHardware,CQ.AF3,CQ.F7,CQ.F3,CQ.FC5,CQ.T7,CQ.P7,CQ.O1,CQ.O2,CQ.P8,CQ.T8,CQ.FC6,CQ.F4,CQ.F8,CQ.AF4,CQ.Overall,EQ.SampleRateQuality,EQ.OVERALL,EQ.AF3,EQ.F7,EQ.F3,EQ.FC5,EQ.T7,EQ.P7,EQ.O1,EQ.O2,EQ.P8,EQ.T8,EQ.FC6,EQ.F4,EQ.F8,EQ.AF4
1644853851.834756,1644853851.847144,93.000000,0.000000,4196.282227,4216.153809,4206.538574,4229.871582,4233.846191,4257.820313,4217.563965,4220.769043,4224.487305,4224.743652,4220.512695,4197.563965,4213.717773,4211.153809,0.000000,4.000000,86.000000,,,,0.000000,4.000000,4.000000,4.000000,4.000000,4.000000,4.000000,4.000000,4.000000,4.000000,4.000000,4.000000,4.000000,4.000000,4.000000,100.000000,,,,,,,,,,,,,,,,
1644853851.838696,1644853851.851184,94.000000,0.000000,4202.692383,4216.153809,4209.615234,4234.743652,4225.769043,4256.153809,4218.205078,4220.000000,4224.230957,4220.769043,4213.717773,4197.692383,4219.230957,4211.153809,0.000000,4.000000,86.000000,,,,0.000000,4.000000,4.000000,4.000000,4.000000,4.000000,4.000000,4.000000,4.000000,4.000000,4.000000,4.000000,4.000000,4.000000,4.000000,100.000000,,,,,,,,,,,,,,,,
1644853851.842636,1644853851.855124,95.000000,0.000000,4203.077148,4211.153809,4211.410156,4229.230957,4218.846191,4256.282227,4217.948730,4216.666504,4220.384766,4213.077148,4201.025879,4195.897461,4217.179688,4205.384766,0.000000,4.000000,86.000000,,,,0.000000,4.000000,4.000000,4.000000,4.000000,4.000000,4.000000,4.000000,4.000000,4.000000,4.000000,4.000000,4.000000,4.000000,4.000000,100.000000,,,,,,,,,,,,,,,,
1644853851.846576,1644853851.859064,96.000000,0.000000,4195.384766,4202.948730,4209.615234,4215.256348,4217.948730,4255.641113,4217.307617,4212.307617,4213.333496,4203.333496,4188.846191,4191.538574,4207.436035,4197.563965,0.000000,4.000000,86.000000,,,,0.000000,4.000000,4.000000,4.000000,4.000000,4.000000,4.000000,4.000000,4.000000,4.000000,4.000000,4.000000,4.000000,4.000000,4.000000,100.000000,,,,,,,,,,,,,,,,
1644853851.850516,1644853851.863004,97.000000,0.000000,4185.128418,4196.922852,4204.871582,4199.615234,4221.666504,4254.102539,4217.820313,4209.358887,4206.794922,4195.897461,4183.589844,4185.769043,4195.128418,4192.307617,0.000000,4.000000,86.000000,,,,0.000000,4.000000,4.000000,4.000000,4.000000,4.000000,4.000000,4.000000,4.000000,4.000000,4.000000,4.000000,4.000000,4.000000,4.000000,100.000000,,,,,,,,,,,,,,,,
1644853851.854456,1644853851.866945,98.000000,0.000000,4180.897461,4196.794922,4200.000000,4189.615234,4224.871582,4252.820313,4219.743652,4208.846191,4204.743652,4194.487305,4188.077148,4180.897461,4186.282227,4192.179688,0.000000,4.000000,86.000000,,,,0.000000,4.000000,4.000000,4.000000,4.000000,4.000000,4.000000,4.000000,4.000000,4.000000,4.000000,4.000000,4.000000,4.000000,4.000000,100.000000,,,,,,,,,,,,,,,,
1644853851.858396,1644853851.870985,99.000000,0.000000,4185.128418,4201.282227,4197.692383,4188.333496,4222.948730,4253.077148,4221.538574,4210.512695,4208.205078,4199.102539,4198.205078,4179.102539,4183.717773,4195.512695,0.000000,4.000000,86.000000,,,,0.000000,4.000000,4.000000,4.000000,4.000000,4.000000,4.000000,4.000000,4.000000,4.000000,4.000000,4.000000,4.000000,4.000000,4.000000,100.000000,,,,,,,,,,,,,,,,
1644853851.862336,1644853851.874925,100.000000,0.000000,4192.436035,4204.871582,4198.589844,4195.000000,4216.410156,4253.974121,4222.179688,4213.205078,4214.358887,4205.769043,4206.538574,4180.641113,4185.769043,4198.333496,0.000000,4.000000,86.000000,,,,0.000000,4.000000,4.000000,4.000000,4.000000,4.000000,4.000000,4.000000,4.000000,4.000000,4.000000,4.000000,4.000000,4.000000,4.000000,100.000000,,,,,,,,,,,,,,,,
1644853851.866276,1644853851.878865,101.000000,0.000000,4194.743652,4203.846191,4200.769043,4205.512695,4210.128418,4254.358887,4222.692383,4215.641113,4218.974121,4210.897461,4207.563965,4183.717773,4188.461426,4196.922852,0.000000,4.000000,86.000000,,,,0.000000,4.000000,4.000000,4.000000,4.000000,4.000000,4.000000,4.000000,4.000000,4.000000,4.000000,4.000000,4.000000,4.000000,4.000000,100.000000,,,,,,,,,,,,,,,,
1644853851.870216,1644853851.882805,102.000000,0.000000,4189.102539,4199.743652,4202.179688,4214.487305,4209.358887,4253.333496,4223.974121,4216.794922,4220.000000,4214.358887,4201.666504,4185.256348,4190.384766,4190.128418,0.000000,4.000000,86.000000,,,,0.000000,4.000000,4.000000,4.000000,4.000000,4.000000,4.000000,4.000000,4.000000,4.000000,4.000000,4.000000,4.000000,4.000000,4.000000,100.000000,,,,,,,,,,,,,,,,
1644853851.874156,1644853851.886745,103.000000,0.000000,4179.615234,4196.794922,4201.666504,4218.461426,4214.871582,4252.179688,4225.256348,4216.153809,4218.846191,4217.051270,4193.717773,4183.589844,4192.563965,4180.897461,0.000000,4.000000,86.000000,,,,0.000000,4.000000,4.000000,4.000000,4.000000,4.000000,4.000000,4.000000,4.000000,4.000000,4.000000,4.000000,4.000000,4.000000,4.000000,100.000000,,,,,,,,,,,,,,,,
1644853851.878096,1644853851.890685,104.000000,0.000000,4172.820313,4197.948730,4199.358887,4216.922852,4223.589844,4252.436035,4225.256348,4214.871582,4218.333496,4219.102539,4188.717773,4179.358887,4196.282227,4173.974121,0.000000,4.000000,86.000000,,,,0.000000,4.000000,4.000000,4.000000,4.000000,4.000000,4.000000,4.000000,4.000000,4.000000,4.000000,4.000000,4.000000,4.000000,4.000000,100.000000,,,,,,,,,,,,,,,,
1644853851.882036,1644853851.894625,105.000000,0.000000,4171.666504,4201.794922,4196.410156,4212.820313,4230.128418,4254.743652,4223.846191,4215.128418,4219.743652,4219.102539,4188.461426,4175.384766,4199.230957,4173.846191,0.000000,4.000000,86.000000,,,,0.000000,4.000000,4.000000,4.000000,4.000000,4.000000,4.000000,4.000000,4.000000,4.000000,4.000000,4.000000,4.000000,4.000000,4.000000,100.000000,,,,,,,,,,,,,,,,
1644853851.885976,1644853851.898565,106.000000,0.000000,4175.256348,4204.615234,4194.487305,4209.487305,4231.025879,4258.205078,4222.820313,4217.436035,4221.794922,4216.538574,4191.666504,4173.974121,4197.692383,4181.025879,0.000000,4.000000,86.000000,,,,0.000000,4.000000,4.000000,4.000000,4.000000,4.000000,4.000000,4.000000,4.000000,4.000000,4.000000,4.000000,4.000000,4.000000,4.000000,100.000000,,,,,,,,,,,,,,,,
1644853851.889916,1644853851.902505,107.000000,0.000000,4180.641113,4203.717773,4194.102539,4207.563965,4225.512695,4260.641113,4223.461426,4220.128418,4222.692383,4212.820313,4195.897461,4176.282227,4190.897461,4191.025879,0.000000,4.000000,86.000000,,,,0.000000,4.000000,4.000000,4.000000,4.000000,4.000000,4.000000,4.000000,4.000000,4.000000,4.000000,4.000000,4.000000,4.000000,4.000000,100.000000,,,,,,,,,,,,,,,,
1644853851.893856,1644853851.906446,108.000000,0.000000,4185.512695,4199.358887,4194.487305,4205.000000,4216.153809,4261.410156,4224.487305,4221.282227,4221.794922,4210.641113,4199.487305,4181.153809,4183.717773,4198.717773,0.000000,4.000000,86.000000,,,,0.000000,4.000000,4.000000,4.000000,4.000000,4.000000,4.000000,4.000000,4.000000,4.000000,4.000000,4.000000,4.000000,4.000000,4.000000,100.000000,,,,,,,,,,,,,,,,
1644853851.897797,1644853851.910386,109.000000,0.000000,4188.461426,4194.743652,4194.871582,4199.871582,4207.563965,4260.897461,4223.974121,4219.871582,4220.512695,4210.897461,4202.307617,4185.384766,4182.563965,4201.153809,0.000000,4.000000,86.000000,,,,0.000000,4.000000,4.000000,4.000000,4.000000,4.000000,4.000000,4.000000,4.000000,4.000000,4.000000,4.000000,4.000000,4.000000,4.000000,100.000000,,,,,,,,,,,,,,,,
1644853851.901736,1644853851.914326,110.000000,0.000000,4188.846191,4193.205078,4195.512695,4193.077148,4204.487305,4260.256348,4221.666504,4217.436035,4220.384766,4213.333496,4203.974121,4186.666504,4189.871582,4199.871582,0.000000,4.000000,86.000000,,,,0.000000,4.000000,4.000000,4.000000,4.000000,4.000000,4.000000,4.000000,4.000000,4.000000,4.000000,4.000000,4.000000,4.000000,4.000000,100.000000,,,,,,,,,,,,,,,,
1644853851.905676,1644853851.918266,111.000000,0.000000,4187.307617,4195.769043,4196.922852,4190.128418,4208.974121,4260.769043,4220.128418,4215.897461,4222.051270,4217.436035,4203.846191,4184.743652,4201.666504,4197.436035,0.000000,4.000000,86.000000,,,,0.000000,4.000000,4.000000,4.000000,4.000000,4.000000,4.000000,4.000000,4.000000,4.000000,4.000000,4.000000,4.000000,4.000000,4.000000,100.000000,,,,,,,,,,,,,,,,
1644853851.909617,1644853851.922206,112.000000,0.000000,4185.000000,4200.512695,4198.589844,4196.282227,4219.358887,4262.436035,4220.897461,4217.051270,4224.871582,4222.948730,4201.410156,4182.307617,4210.512695,4194.871582,0.000000,4.000000,86.000000,,,,0.000000,4.000000,4.000000,4.000000,4.000000,4.000000,4.000000,4.000000,4.000000,4.000000,4.000000,4.000000,4.000000,4.000000,4.000000,100.000000,,,,,,,,,,,,,,,,
1644853851.913557,1644853851.926146,113.000000,0.000000,4182.820313,4204.102539,4199.615234,4211.666504,4231.666504,4263.589844,4222.436035,4220.000000,4227.948730,4228.333496,4199.102539,4181.538574,4212.179688,4191.666504,0.000000,4.000000,86.000000,,,,0.000000,4.000000,4.000000,4.000000,4.000000,4.000000,4.000000,4.000000,4.000000,4.000000,4.000000,4.000000,4.000000,4.000000,4.000000,100.000000,,,,,,,,,,,,,,,,
1644853851.917497,1644853851.929986,114.000000,0.000000,4181.410156,4205.256348,4198.717773,4228.461426,4240.512695,4262.948730,4221.794922,4222.051270,4230.384766,4231.025879,4199.487305,4182.948730,4208.461426,4188.077148,0.000000,4.000000,86.000000,,,,0.000000,4.000000,4.000000,4.000000,4.000000,4.000000,4.000000,4.000000,4.000000,4.000000,4.000000,4.000000,4.000000,4.000000,4.000000,100.000000,,,,,,,,,,,,,,,,
1644853851.921437,1644853851.933926,115.000000,0.000000,4181.538574,4205.256348,4196.666504,4234.487305,4241.666504,4260.769043,4219.230957,4221.410156,4231.025879,4229.358887,4203.205078,4185.384766,4204.871582,4186.922852,0.000000,4.000000,86.000000,,,,0.000000,4.000000,4.000000,4.000000,4.000000,4.000000,4.000000,4.000000,4.000000,4.000000,4.000000,4.000000,4.000000,4.000000,4.000000,100.000000,,,,,,,,,,,,,,,,
1644853851.925377,1644853851.937866,116.000000,0.000000,4183.717773,4206.410156,4195.512695,4223.333496,4233.974121,4258.974121,4217.563965,4217.820313,4229.358887,4224.358887,4207.436035,4186.922852,4205.384766,4190.641113,0.000000,4.000000,86.000000,,,,0.000000,4.000000,4.000000,4.000000,4.000000,4.000000,4.000000,4.000000,4.000000,4.000000,4.000000,4.000000,4.000000,4.000000,4.000000,100.000000,,,,,,,,,,,,,,,,
1644853851.929317,1644853851.941807,117.000000,0.000000,4187.692383,4208.333496,4197.563965,4200.769043,4222.179688,4258.846191,4219.230957,4213.205078,4225.641113,4219.102539,4209.102539,4186.666504,4209.487305,4198.205078,0.000000,4.000000,86.000000,,,,0.000000,4.000000,4.000000,4.000000,4.000000,4.000000,4.000000,4.000000,4.000000,4.000000,4.000000,4.000000,4.000000,4.000000,4.000000,100.000000,,,,,,,,,,,,,,,,
1644853851.933257,1644853851.945747,118.000000,0.000000,4191.794922,4208.846191,4202.563965,4182.692383,4213.589844,4259.102539,4222.179688,4210.000000,4221.153809,4216.410156,4207.820313,4185.000000,4213.589844,4204.487305,0.000000,4.000000,86.000000,,,,0.000000,4.000000,4.000000,4.000000,4.000000,4.000000,4.000000,4.000000,4.000000,4.000000,4.000000,4.000000,4.000000,4.000000,4.000000,100.000000,,,,,,,,,,,,,,,,
1644853851.937197,1644853851.949687,119.000000,0.000000,4193.846191,4206.794922,4208.077148,4182.820313,4213.589844,4258.461426,4222.948730,4209.358887,4218.333496,4216.794922,4205.769043,4183.461426,4215.384766,4204.358887,0.000000,4.000000,86.000000,,,,0.000000,4.000000,4.000000,4.000000,4.000000,4.000000,4.000000,4.000000,4.000000,4.000000,4.000000,4.000000,4.000000,4.000000,4.000000,100.000000,,,,,,,,,,,,,,,,
1644853851.941137,1644853851.953627,120.000000,0.000000,4193.461426,4204.358887,4211.025879,4201.538574,4220.512695,4256.922852,4220.384766,4210.641113,4218.077148,4218.717773,4205.769043,4183.461426,4216.282227,4197.820313,0.000000,4.000000,86.000000,,,,0.000000,4.000000,4.000000,4.000000,4.000000,4.000000,4.000000,4.000000,4.000000,4.000000,4.000000,4.000000,4.000000,4.000000,4.000000,100.000000,,,,,,,,,,,,,,,,
1644853851.945077,1644853851.957567,121.000000,0.000000,4191.794922,4204.230957,4210.641113,4225.384766,4227.563965,4255.641113,4217.179688,4212.051270,4219.102539,4219.615234,4208.461426,4184.743652,4218.461426,4189.871582,0.000000,4.000000,86.000000,,,,0.000000,4.000000,4.000000,4.000000,4.000000,4.000000,4.000000,4.000000,4.000000,4.000000,4.000000,4.000000,4.000000,4.000000,4.000000,100.000000,,,,,,,,,,,,,,,,
1644853851.949017,1644853851.961507,122.000000,0.000000,4190.641113,4207.051270,4208.846191,4237.436035,4228.974121,4254.743652,4216.410156,4211.794922,4218.717773,4217.563965,4212.692383,4186.538574,4221.794922,4186.410156,0.000000,4.000000,86.000000,,,,0.000000,4.000000,4.000000,4.000000,4.000000,4.000000,4.000000,4.000000,4.000000,4.000000,4.000000,4.000000,4.000000,4.000000,4.000000,100.000000,,,,,,,,,,,,,,,,
1644853851.952957,1644853851.965447,123.000000,0.000000,4190.128418,4210.000000,4207.692383,4230.641113,4224.230957,4253.717773,4218.205078,4209.487305,4216.153809,4212.820313,4215.641113,4188.589844,4223.333496,4189.102539,0.000000,4.000000,86.000000,,,,0.000000,4.000000,4.000000,4.000000,4.000000,4.000000,4.000000,4.000000,4.000000,4.000000,4.000000,4.000000,4.000000,4.000000,4.000000,100.000000,,,,,,,,,,,,,,,,
1644853851.956897,1644853851.969387,124.000000,0.000000,4189.743652,4210.641113,4207.948730,4212.179688,4218.333496,4252.436035,4220.256348,4206.922852,4213.205078,4208.589844,4214.871582,4191.025879,4219.743652,4194.871582,0.000000,4.000000,86.000000,,,,0.000000,4.000000,4.000000,4.000000,4.000000,4.000000,4.000000,4.000000,4.000000,4.000000,4.000000,4.000000,4.000000,4.000000,4.000000,100.000000,,,,,,,,,,,,,,,,
1644853851.960837,1644853851.973327,125.000000,0.000000,4189.102539,4208.589844,4209.358887,4195.769043,4215.769043,4251.025879,4220.384766,4206.666504,4212.692383,4208.589844,4209.230957,4194.230957,4210.128418,4199.743652,0.000000,4.000000,86.000000,,,,0.000000,4.000000,4.000000,4.000000,4.000000,4.000000,4.000000,4.000000,4.000000,4.000000,4.000000,4.000000,4.000000,4.000000,4.000000,100.000000,,,,,,,,,,,,,,,,
1644853851.964777,1644853851.977268,126.000000,0.000000,4189.102539,4206.153809,4211.153809,4191.666504,4217.051270,4250.512695,4219.615234,4209.743652,4215.769043,4213.846191,4200.897461,4197.563965,4199.102539,4202.436035,0.000000,4.000000,86.000000,,,,0.000000,4.000000,4.000000,4.000000,4.000000,4.000000,4.000000,4.000000,4.000000,4.000000,4.000000,4.000000,4.000000,4.000000,4.000000,100.000000,,,,,,,,,,,,,,,,
1644853851.968717,1644853851.981208,127.000000,0.000000,4190.769043,4205.384766,4213.717773,4200.512695,4218.205078,4251.153809,4220.512695,4215.128418,4221.025879,4220.641113,4194.615234,4200.256348,4194.102539,4204.230957,0.000000,4.000000,86.000000,,,,0.000000,4.000000,4.000000,4.000000,4.000000,4.000000,4.000000,4.000000,4.000000,4.000000,4.000000,4.000000,4.000000,4.000000,4.000000,100.000000,,,,,,,,,,,,,,,,
1644853851.972657,1644853851.985148,128.000000,0.000000,4194.102539,4206.282227,4217.563965,4215.512695,4216.282227,4252.692383,4223.077148,4220.256348,4226.025879,4223.589844,4195.512695,4202.692383,4200.512695,4205.641113,3354.000000,4.000000,86.000000,,,,0.000000,4.000000,4.000000,4.000000,4.000000,4.000000,4.000000,4.000000,4.000000,4.000000,4.000000,4.000000,4.000000,4.000000,4.000000,100.000000,,,,,,,,,,,,,,,,
1644853851.976597,1644853851.989088,129.000000,0.000000,4197.820313,4207.179688,4222.051270,4228.846191,4211.922852,4254.358887,4225.256348,4221.794922,4228.077148,4221.538574,4204.871582,4205.384766,4216.922852,4206.666504,3528.000000,4.000000,86.000000,,,,0.000000,4.000000,4.000000,4.000000,4.000000,4.000000,4.000000,4.000000,4.000000,4.000000,4.000000,4.000000,4.000000,4.000000,4.000000,100.000000,,,,,,,,,,,,,,,,
1644853851.980537,1644853851.993028,130.000000,0.000000,4200.769043,4206.794922,4226.025879,4236.282227,4209.615234,4256.153809,4225.384766,4218.589844,4226.666504,4218.333496,4218.717773,4208.589844,4235.128418,4207.563965,3549.000000,4.000000,86.000000,,,,0.000000,4.000000,4.000000,4.000000,4.000000,4.000000,4.000000,4.000000,4.000000,4.000000,4.000000,4.000000,4.000000,4.000000,4.000000,100.000000,,,,,,,,,,,,,,,,
1644853851.984477,1644853851.996968,131.000000,0.000000,4202.948730,4206.025879,4227.692383,4237.820313,4212.820313,4258.333496,4224.358887,4213.846191,4223.461426,4218.205078,4230.000000,4211.282227,4245.256348,4209.743652,3457.000000,4.000000,86.000000,,,,0.000000,4.000000,4.000000,4.000000,4.000000,4.000000,4.000000,4.000000,4.000000,4.000000,4.000000,4.000000,4.000000,4.000000,4.000000,100.000000,,,,,,,,,,,,,,,,
1644853851.988417,1644853852.001008,132.000000,0.000000,4204.743652,4206.410156,4226.282227,4235.000000,4221.794922,4261.410156,4225.000000,4212.820313,4222.051270,4223.077148,4233.846191,4212.307617,4242.051270,4213.333496,3545.000000,4.000000,86.000000,,,,0.000000,4.000000,4.000000,4.000000,4.000000,4.000000,4.000000,4.000000,4.000000,4.000000,4.000000,4.000000,4.000000,4.000000,4.000000,100.000000,,,,,,,,,,,,,,,,
1644853851.992357,1644853852.004948,133.000000,0.000000,4207.307617,4209.230957,4222.820313,4229.358887,4232.692383,4264.871582,4227.563965,4218.077148,4225.128418,4230.384766,4231.153809,4211.282227,4229.487305,4215.641113,3290.000000,4.000000,86.000000,,,,0.000000,4.000000,4.000000,4.000000,4.000000,4.000000,4.000000,4.000000,4.000000,4.000000,4.000000,4.000000,4.000000,4.000000,4.000000,100.000000,,,,,,,,,,,,,,,,
1644853851.996297,1644853852.008888,134.000000,0.000000,4211.153809,4213.589844,4219.358887,4222.051270,4240.384766,4266.922852,4229.487305,4226.922852,4231.922852,4237.179688,4226.922852,4208.974121,4217.051270,4213.077148,2624.000000,4.000000,86.000000,1,1,0,0.000000,4.000000,4.000000,4.000000,4.000000,4.000000,4.000000,4.000000,4.000000,4.000000,4.000000,4.000000,4.000000,4.000000,4.000000,100.000000,,,,,,,,,,,,,,,,
1644853852.000237,1644853852.012828,135.000000,0.000000,4214.487305,4216.538574,4217.051270,4216.282227,4241.025879,4265.512695,4228.205078,4233.333496,4238.461426,4241.282227,4224.871582,4206.153809,4212.948730,4206.538574,3252.000000,4.000000,86.000000,,,,0.000000,4.000000,4.000000,4.000000,4.000000,4.000000,4.000000,4.000000,4.000000,4.000000,4.000000,4.000000,4.000000,4.000000,4.000000,100.000000,,,,,,,,,,,,,,,,
1644853852.004177,1644853852.016769,136.000000,0.000000,4214.358887,4214.871582,4215.384766,4215.000000,4234.487305,4260.128418,4223.846191,4232.436035,4239.743652,4241.922852,4223.846191,4203.077148,4217.820313,4200.641113,3309.000000,4.000000,86.000000,,,,0.000000,4.000000,4.000000,4.000000,4.000000,4.000000,4.000000,4.000000,4.000000,4.000000,4.000000,4.000000,4.000000,4.000000,4.000000,100.000000,,,,,,,,,,,,,,,,
1644853852.008117,1644853852.020709,137.000000,0.000000,4208.974121,4208.333496,4213.461426,4217.948730,4224.358887,4252.692383,4219.358887,4225.000000,4234.102539,4239.102539,4219.230957,4199.615234,4225.897461,4199.871582,3709.000000,4.000000,86.000000,,,,0.000000,4.000000,4.000000,4.000000,4.000000,4.000000,4.000000,4.000000,4.000000,4.000000,4.000000,4.000000,4.000000,4.000000,4.000000,100.000000,,,,,,,,,,,,,,,,
1644853852.012057,1644853852.024649,138.000000,0.000000,4200.384766,4199.871582,4210.128418,4220.897461,4215.897461,4246.794922,4217.307617,4215.641113,4223.974121,4232.563965,4208.717773,4196.538574,4230.512695,4202.436035,3549.000000,4.000000,86.000000,,,,0.000000,4.000000,4.000000,4.000000,4.000000,4.000000,4.000000,4.000000,4.000000,4.000000,4.000000,4.000000,4.000000,4.000000,4.000000,100.000000,,,,,,,,,,,,,,,,
1644853852.015998,1644853852.028589,139.000000,0.000000,4192.948730,4193.846191,4205.769043,4218.717773,4213.461426,4245.256348,4217.179688,4209.358887,4215.000000,4224.230957,4196.025879,4195.128418,4228.589844,4202.307617,2484.000000,4.000000,86.000000,,,,0.000000,4.000000,4.000000,4.000000,4.000000,4.000000,4.000000,4.000000,4.000000,4.000000,4.000000,4.000000,4.000000,4.000000,4.000000,100.000000,,,,,,,,,,,,,,,,
1644853852.019938,1644853852.032529,140.000000,0.000000,4190.000000,4191.666504,4201.794922,4210.897461,4216.666504,4247.051270,4217.179688,4208.333496,4212.179688,4216.410156,4189.358887,4196.025879,4222.179688,4195.128418,3478.000000,4.000000,86.000000,,,,0.000000,4.000000,4.000000,4.000000,4.000000,4.000000,4.000000,4.000000,4.000000,4.000000,4.000000,4.000000,4.000000,4.000000,4.000000,100.000000,,,,,,,,,,,,,,,,
1644853852.023878,1644853852.036469,141.000000,0.000000,4191.410156,4192.051270,4200.256348,4202.563965,4220.769043,4249.230957,4216.794922,4211.794922,4215.897461,4211.666504,4195.384766,4199.102539,4215.128418,4184.358887,3633.000000,4.000000,86.000000,,,,0.000000,4.000000,4.000000,4.000000,4.000000,4.000000,4.000000,4.000000,4.000000,4.000000,4.000000,4.000000,4.000000,4.000000,4.000000,100.000000,,,,,,,,,,,,,,,,
1644853852.027818,1644853852.040409,142.000000,0.000000,4194.871582,4193.846191,4201.922852,4200.641113,4219.743652,4249.487305,4217.436035,4217.179688,4222.179688,4210.897461,4211.794922,4202.692383,4210.641113,4177.948730,3549.000000,4.000000,86.000000,,,,0.000000,4.000000,4.000000,4.000000,4.000000,4.000000,4.000000,4.000000,4.000000,4.000000,4.000000,4.000000,4.000000,4.000000,4.000000,100.000000,,,,,,,,,,,,,,,,
1644853852.031758,1644853852.044349,143.000000,0.000000,4199.102539,4197.436035,4206.025879,4206.538574,4211.666504,4248.717773,4219.743652,4221.410156,4226.025879,4213.974121,4228.333496,4205.128418,4209.102539,4181.666504,2484.000000,4.000000,86.000000,,,,0.000000,4.000000,4.000000,4.000000,4.000000,4.000000,4.000000,4.000000,4.000000,4.000000,4.000000,4.000000,4.000000,4.000000,4.000000,100.000000,,,,,,,,,,,,,,,,
1644853852.035698,1644853852.048289,144.000000,0.000000,4203.846191,4203.846191,4210.000000,4215.128418,4201.282227,4248.717773,4222.820313,4223.589844,4226.025879,4219.871582,4233.717773,4204.743652,4209.102539,4193.205078,3478.000000,4.000000,86.000000,,,,0.000000,4.000000,4.000000,4.000000,4.000000,4.000000,4.000000,4.000000,4.000000,4.000000,4.000000,4.000000,4.000000,4.000000,4.000000,100.000000,,,,,,,,,,,,,,,,
1644853852.039638,1644853852.052229,145.000000,0.000000,4208.461426,4212.307617,4211.025879,4219.487305,4196.410156,4250.128418,4224.743652,4223.589844,4224.230957,4226.282227,4225.128418,4201.153809,4208.846191,4205.000000,3633.000000,4.000000,86.000000,,,,0.000000,4.000000,4.000000,4.000000,4.000000,4.000000,4.000000,4.000000,4.000000,4.000000,4.000000,4.000000,4.000000,4.000000,4.000000,100.000000,,,,,,,,,,,,,,,,
1644853852.043578,1644853852.056170,146.000000,0.000000,4210.897461,4218.717773,4209.358887,4217.948730,4201.538574,4251.538574,4225.769043,4223.077148,4223.589844,4230.512695,4210.512695,4195.384766,4207.820313,4211.025879,3549.000000,4.000000,86.000000,,,,0.000000,4.000000,4.000000,4.000000,4.000000,4.000000,4.000000,4.000000,4.000000,4.000000,4.000000,4.000000,4.000000,4.000000,4.000000,100.000000,,,,,,,,,,,,,,,,
1644853852.047518,1644853852.060110,147.000000,0.000000,4209.358887,4218.974121,4206.794922,4215.000000,4213.717773,4251.666504,4226.922852,4222.820313,4224.743652,4230.256348,4201.410156,4189.743652,4207.179688,4210.384766,2484.000000,4.000000,86.000000,,,,0.000000,4.000000,4.000000,4.000000,4.000000,4.000000,4.000000,4.000000,4.000000,4.000000,4.000000,4.000000,4.000000,4.000000,4.000000,100.000000,,,,,,,,,,,,,,,,
1644853852.051458,1644853852.064050,148.000000,0.000000,4204.358887,4212.692383,4205.512695,4216.794922,4225.384766,4250.512695,4228.589844,4222.307617,4226.410156,4225.769043,4202.948730,4186.666504,4208.974121,4205.769043,3478.000000,4.000000,86.000000,,,,0.000000,4.000000,4.000000,4.000000,4.000000,4.000000,4.000000,4.000000,4.000000,4.000000,4.000000,4.000000,4.000000,4.000000,4.000000,100.000000,,,,,,,,,,,,,,,,
1644853852.055398,1644853852.067990,149.000000,0.000000,4198.846191,4203.717773,4206.282227,4224.230957,4230.769043,4249.230957,4228.717773,4220.256348,4225.897461,4219.743652,4210.512695,4187.051270,4213.333496,4200.641113,3633.000000,4.000000,86.000000,,,,0.000000,4.000000,4.000000,4.000000,4.000000,4.000000,4.000000,4.000000,4.000000,4.000000,4.000000,4.000000,4.000000,4.000000,4.000000,100.000000,,,,,,,,,,,,,,,,
1644853852.059338,1644853852.072030,150.000000,0.000000,4195.897461,4197.436035,4207.692383,4232.051270,4229.615234,4248.589844,4225.512695,4216.794922,4222.436035,4215.769043,4214.487305,4189.358887,4217.820313,4197.692383,3549.000000,4.000000,86.000000,,,,0.000000,4.000000,4.000000,4.000000,4.000000,4.000000,4.000000,4.000000,4.000000,4.000000,4.000000,4.000000,4.000000,4.000000,4.000000,100.000000,1.000000,91.666664,4.000000,4.000000,4.000000,4.000000,4.000000,4.000000,4.000000,4.000000,4.000000,4.000000,3.000000,4.000000,4.000000,4.000000
1644853852.063278,1644853852.075970,151.000000,0.000000,4196.538574,4197.307617,4208.205078,4234.615234,4225.897461,4248.333496,4220.256348,4213.077148,4217.692383,4214.615234,4210.256348,4192.051270,4218.846191,4198.333496,2484.000000,4.000000,86.000000,,,,0.000000,4.000000,4.000000,4.000000,4.000000,4.000000,4.000000,4.000000,4.000000,4.000000,4.000000,4.000000,4.000000,4.000000,4.000000,100.000000,,,,,,,,,,,,,,,,
1644853852.067218,1644853852.079910,152.000000,0.000000,4199.743652,4202.436035,4207.820313,4231.025879,4223.205078,4247.563965,4216.666504,4211.153809,4214.743652,4215.256348,4202.179688,4194.871582,4216.025879,4201.794922,3478.000000,4.000000,86.000000,,,,0.000000,4.000000,4.000000,4.000000,4.000000,4.000000,4.000000,4.000000,4.000000,4.000000,4.000000,4.000000,4.000000,4.000000,4.000000,100.000000,,,,,,,,,,,,,,,,
1644853852.071158,1644853852.083850,153.000000,0.000000,4204.615234,4209.358887,4207.820313,4225.128418,4221.922852,4245.897461,4216.794922,4211.666504,4215.512695,4216.153809,4199.102539,4198.333496,4211.794922,4205.128418,3633.000000,4.000000,86.000000,,,,0.000000,4.000000,4.000000,4.000000,4.000000,4.000000,4.000000,4.000000,4.000000,4.000000,4.000000,4.000000,4.000000,4.000000,4.000000,100.000000,,,,,,,,,,,,,,,,
1644853852.075098,1644853852.087790,154.000000,0.000000,4210.128418,4214.358887,4209.102539,4220.512695,4219.615234,4244.358887,4219.358887,4213.846191,4219.615234,4216.666504,4205.769043,4201.538574,4209.358887,4204.358887,3549.000000,4.000000,86.000000,,,,0.000000,4.000000,4.000000,4.000000,4.000000,4.000000,4.000000,4.000000,4.000000,4.000000,4.000000,4.000000,4.000000,4.000000,4.000000,100.000000,,,,,,,,,,,,,,,,
1644853852.079038,1644853852.091730,155.000000,0.000000,4215.128418,4215.384766,4211.282227,4217.820313,4214.871582,4244.743652,4221.025879,4216.025879,4224.358887,4217.307617,4217.563965,4202.820313,4208.846191,4198.846191,2484.000000,4.000000,86.000000,,,,0.000000,4.000000,4.000000,4.000000,4.000000,4.000000,4.000000,4.000000,4.000000,4.000000,4.000000,4.000000,4.000000,4.000000,4.000000,100.000000,,,,,,,,,,,,,,,,
1644853852.082978,1644853852.095571,156.000000,0.000000,4217.692383,4212.436035,4213.077148,4215.512695,4208.846191,4247.692383,4220.769043,4217.179688,4226.666504,4217.307617,4224.487305,4201.538574,4207.436035,4191.410156,3478.000000,4.000000,86.000000,,,,0.000000,4.000000,4.000000,4.000000,4.000000,4.000000,4.000000,4.000000,4.000000,4.000000,4.000000,4.000000,4.000000,4.000000,4.000000,100.000000,,,,,,,,,,,,,,,,
1644853852.086918,1644853852.099511,157.000000,0.000000,4216.282227,4206.666504,4212.820313,4212.820313,4205.000000,4250.769043,4219.230957,4217.051270,4224.871582,4215.512695,4219.615234,4197.948730,4202.948730,4186.538574,3633.000000,4.000000,86.000000,,,,0.000000,4.000000,4.000000,4.000000,4.000000,4.000000,4.000000,4.000000,4.000000,4.000000,4.000000,4.000000,4.000000,4.000000,4.000000,100.000000,,,,,,,,,,,,,,,,
1644853852.090858,1644853852.103451,158.000000,0.000000,4211.025879,4199.487305,4210.256348,4211.410156,4206.153809,4250.641113,4217.563965,4215.897461,4219.743652,4211.410156,4205.512695,4192.948730,4196.666504,4186.922852,3549.000000,4.000000,86.000000,,,,0.000000,4.000000,4.000000,4.000000,4.000000,4.000000,4.000000,4.000000,4.000000,4.000000,4.000000,4.000000,4.000000,4.000000,4.000000,100.000000,,,,,,,,,,,,,,,,
1644853852.094798,1644853852.107391,159.000000,0.000000,4204.230957,4193.461426,4206.153809,4213.717773,4212.051270,4245.769043,4215.384766,4214.487305,4214.615234,4206.410156,4191.794922,4187.563965,4192.948730,4191.282227,2484.000000,4.000000,86.000000,,,,0.000000,4.000000,4.000000,4.000000,4.000000,4.000000,4.000000,4.000000,4.000000,4.000000,4.000000,4.000000,4.000000,4.000000,4.000000,100.000000,,,,,,,,,,,,,,,,
1644853852.098738,1644853852.111331,160.000000,0.000000,4200.384766,4191.410156,4203.077148,4220.128418,4219.102539,4238.461426,4212.436035,4213.205078,4212.692383,4203.846191,4187.692383,4183.077148,4195.256348,4197.179688,3478.000000,4.000000,86.000000,,,,0.000000,4.000000,4.000000,4.000000,4.000000,4.000000,4.000000,4.000000,4.000000,4.000000,4.000000,4.000000,4.000000,4.000000,4.000000,100.000000,,,,,,,,,,,,,,,,
1644853852.102678,1644853852.115371,161.000000,0.000000,4203.077148,4195.512695,4203.461426,4227.051270,4223.205078,4233.205078,4210.897461,4212.948730,4215.128418,4206.282227,4194.871582,4181.282227,4203.461426,4204.102539,3633.000000,4.000000,86.000000,,,,0.000000,4.000000,4.000000,4.000000,4.000000,4.000000,4.000000,4.000000,4.000000,4.000000,4.000000,4.000000,4.000000,4.000000,4.000000,100.000000,,,,,,,,,,,,,,,,
1644853852.106618,1644853852.119311,162.000000,0.000000,4211.922852,4205.641113,4207.563965,4229.487305,4222.948730,4233.846191,4213.077148,4214.230957,4220.256348,4214.102539,4207.563965,4183.205078,4213.717773,4212.051270,3549.000000,4.000000,86.000000,,,,0.000000,4.000000,4.000000,4.000000,4.000000,4.000000,4.000000,4.000000,4.000000,4.000000,4.000000,4.000000,4.000000,4.000000,4.000000,100.000000,,,,,,,,,,,,,,,,
1644853852.110558,1644853852.123151,163.000000,0.000000,4222.051270,4218.461426,4213.205078,4225.384766,4219.743652,4240.128418,4218.846191,4217.692383,4225.384766,4224.358887,4217.307617,4187.948730,4221.410156,4219.102539,2484.000000,4.000000,86.000000,,,,0.000000,4.000000,4.000000,4.000000,4.000000,4.000000,4.000000,4.000000,4.000000,4.000000,4.000000,4.000000,4.000000,4.000000,4.000000,100.000000,,,,,,,,,,,,,,,,
1644853852.114498,1644853852.127091,164.000000,0.000000,4228.077148,4228.974121,4217.051270,4217.307617,4216.410156,4247.948730,4224.615234,4222.436035,4228.589844,4232.051270,4219.743652,4193.589844,4223.846191,4221.666504,3478.000000,4.000000,86.000000,,,,0.000000,4.000000,4.000000,4.000000,4.000000,4.000000,4.000000,4.000000,4.000000,4.000000,4.000000,4.000000,4.000000,4.000000,4.000000,100.000000,,,,,,,,,,,,,,,,
1644853852.118438,1644853852.131032,165.000000,0.000000,4227.051270,4232.692383,4217.948730,4211.282227,4213.846191,4252.820313,4226.538574,4226.410156,4229.615234,4233.205078,4216.538574,4197.692383,4220.512695,4217.051270,3633.000000,4.000000,86.000000,,,,0.000000,4.000000,4.000000,4.000000,4.000000,4.000000,4.000000,4.000000,4.000000,4.000000,4.000000,4.000000,4.000000,4.000000,4.000000,100.000000,,,,,,,,,,,,,,,,
1644853852.122378,1644853852.135072,166.000000,0.000000,4220.384766,4228.589844,4217.179688,4212.307617,4212.307617,4252.563965,4224.230957,4227.692383,4228.717773,4228.077148,4211.922852,4199.230957,4212.307617,4207.563965,3549.000000,4.000000,86.000000,,,,0.000000,4.000000,4.000000,4.000000,4.000000,4.000000,4.000000,4.000000,4.000000,4.000000,4.000000,4.000000,4.000000,4.000000,4.000000,100.000000,,,,,,,,,,,,,,,,
1644853852.126319,1644853852.139012,167.000000,0.000000,4211.666504,4219.615234,4216.538574,4220.897461,4212.179688,4248.846191,4221.025879,4225.512695,4226.922852,4220.256348,4207.692383,4198.717773,4201.025879,4198.846191,2484.000000,4.000000,86.000000,,,,0.000000,4.000000,4.000000,4.000000,4.000000,4.000000,4.000000,4.000000,4.000000,4.000000,4.000000,4.000000,4.000000,4.000000,4.000000,100.000000,,,,,,,,,,,,,,,,
1644853852.130258,1644853852.142952,168.000000,0.000000,4205.256348,4210.384766,4216.538574,4232.692383,4214.871582,4245.128418,4219.743652,4222.051270,4225.000000,4214.743652,4203.461426,4197.436035,4190.897461,4196.153809,3478.000000,4.000000,86.000000,,,,0.000000,4.000000,4.000000,4.000000,4.000000,4.000000,4.000000,4.000000,4.000000,4.000000,4.000000,4.000000,4.000000,4.000000,4.000000,100.000000,,,,,,,,,,,,,,,,
1644853852.134199,1644853852.146892,169.000000,0.000000,4205.256348,4205.512695,4216.538574,4242.179688,4221.538574,4244.615234,4220.641113,4219.871582,4223.717773,4214.230957,4199.230957,4196.922852,4187.948730,4200.256348,3633.000000,4.000000,86.000000,,,,0.000000,4.000000,4.000000,4.000000,4.000000,4.000000,4.000000,4.000000,4.000000,4.000000,4.000000,4.000000,4.000000,4.000000,4.000000,100.000000,,,,,,,,,,,,,,,,
1644853852.138139,1644853852.150832,170.000000,0.000000,4212.820313,4207.436035,4216.153809,4245.769043,4230.769043,4247.307617,4221.794922,4220.512695,4223.846191,4217.820313,4197.051270,4197.820313,4196.410156,4207.948730,3549.000000,4.000000,86.000000,,,,0.000000,4.000000,4.000000,4.000000,4.000000,4.000000,4.000000,4.000000,4.000000,4.000000,4.000000,4.000000,4.000000,4.000000,4.000000,100.000000,,,,,,,,,,,,,,,,
1644853852.142079,1644853852.154772,171.000000,0.000000,4225.384766,4215.256348,4215.769043,4242.563965,4238.333496,4250.769043,4222.051270,4222.436035,4224.743652,4222.179688,4199.743652,4199.487305,4213.717773,4214.230957,2484.000000,4.000000,86.000000,,,,0.000000,4.000000,4.000000,4.000000,4.000000,4.000000,4.000000,4.000000,4.000000,4.000000,4.000000,4.000000,4.000000,4.000000,4.000000,100.000000,,,,,,,,,,,,,,,,
1644853852.146019,1644853852.158712,172.000000,0.000000,4236.153809,4224.743652,4215.897461,4233.589844,4240.000000,4252.307617,4221.794922,4223.333496,4225.769043,4224.743652,4207.692383,4201.153809,4230.000000,4215.128418,3478.000000,4.000000,86.000000,,,,0.000000,4.000000,4.000000,4.000000,4.000000,4.000000,4.000000,4.000000,4.000000,4.000000,4.000000,4.000000,4.000000,4.000000,4.000000,100.000000,,,,,,,,,,,,,,,,
1644853852.149959,1644853852.162652,173.000000,0.000000,4239.230957,4230.897461,4216.922852,4221.538574,4234.743652,4251.025879,4221.922852,4222.436035,4226.538574,4225.000000,4218.461426,4202.051270,4234.487305,4210.256348,3633.000000,4.000000,86.000000,,,,0.000000,4.000000,4.000000,4.000000,4.000000,4.000000,4.000000,4.000000,4.000000,4.000000,4.000000,4.000000,4.000000,4.000000,4.000000,100.000000,,,,,,,,,,,,,,,,
1644853852.153899,1644853852.166592,174.000000,0.000000,4233.333496,4231.282227,4218.333496,4210.641113,4226.025879,4248.589844,4221.666504,4220.897461,4227.307617,4225.769043,4228.717773,4201.666504,4225.256348,4202.436035,3549.000000,4.000000,86.000000,,,,0.000000,4.000000,4.000000,4.000000,4.000000,4.000000,4.000000,4.000000,4.000000,4.000000,4.000000,4.000000,4.000000,4.000000,4.000000,100.000000,,,,,,,,,,,,,,,,
1644853852.157839,1644853852.170533,175.000000,0.000000,4223.717773,4227.051270,4219.871582,4206.410156,4219.358887,4247.563965,4220.000000,4220.384766,4228.461426,4229.743652,4235.897461,4200.897461,4211.282227,4197.051270,2484.000000,4.000000,86.000000,,,,0.000000,4.000000,4.000000,4.000000,4.000000,4.000000,4.000000,4.000000,4.000000,4.000000,4.000000,4.000000,4.000000,4.000000,4.000000,100.000000,,,,,,,,,,,,,,,,
1644853852.161779,1644853852.174473,176.000000,0.000000,4217.820313,4221.282227,4221.282227,4211.922852,4218.333496,4248.589844,4217.692383,4221.410156,4230.128418,4236.153809,4238.717773,4200.641113,4204.615234,4198.974121,3478.000000,4.000000,86.000000,,,,0.000000,4.000000,4.000000,4.000000,4.000000,4.000000,4.000000,4.000000,4.000000,4.000000,4.000000,4.000000,4.000000,4.000000,4.000000,100.000000,,,,,,,,,,,,,,,,
1644853852.165719,1644853852.178313,177.000000,0.000000,4218.333496,4216.666504,4222.436035,4224.358887,4222.179688,4250.256348,4217.307617,4223.589844,4231.538574,4241.025879,4236.410156,4200.897461,4210.641113,4208.974121,3633.000000,4.000000,86.000000,,,,0.000000,4.000000,4.000000,4.000000,4.000000,4.000000,4.000000,4.000000,4.000000,4.000000,4.000000,4.000000,4.000000,4.000000,4.000000,100.000000,,,,,,,,,,,,,,,,
1644853852.169659,1644853852.182253,178.000000,0.000000,4222.436035,4215.000000,4222.563965,4235.769043,4227.051270,4250.641113,4220.384766,4225.897461,4231.410156,4240.000000,4229.487305,4200.897461,4222.692383,4221.025879,3549.000000,4.000000,86.000000,,,,0.000000,4.000000,4.000000,4.000000,4.000000,4.000000,4.000000,4.000000,4.000000,4.000000,4.000000,4.000000,4.000000,4.000000,4.000000,100.000000,,,,,,,,,,,,,,,,
1644853852.173599,1644853852.186193,179.000000,0.000000,4224.871582,4217.051270,4221.666504,4240.384766,4229.871582,4249.358887,4225.256348,4227.179688,4230.128418,4233.077148,4220.128418,4200.512695,4229.358887,4227.051270,2484.000000,4.000000,86.000000,,,,0.000000,4.000000,4.000000,4.000000,4.000000,4.000000,4.000000,4.000000,4.000000,4.000000,4.000000,4.000000,4.000000,4.000000,4.000000,100.000000,,,,,,,,,,,,,,,,
1644853852.177539,1644853852.190133,180.000000,0.000000,4224.230957,4221.922852,4219.487305,4238.205078,4230.000000,4247.436035,4227.948730,4226.153809,4228.846191,4225.000000,4210.641113,4200.128418,4224.743652,4222.563965,3478.000000,4.000000,86.000000,,,,0.000000,4.000000,4.000000,4.000000,4.000000,4.000000,4.000000,4.000000,4.000000,4.000000,4.000000,4.000000,4.000000,4.000000,4.000000,100.000000,,,,,,,,,,,,,,,,
1644853852.181479,1644853852.194073,181.000000,0.000000,4222.692383,4226.410156,4216.666504,4234.102539,4228.461426,4246.025879,4227.051270,4223.205078,4228.589844,4221.153809,4202.436035,4199.871582,4213.333496,4210.897461,3633.000000,4.000000,86.000000,,,,0.000000,4.000000,4.000000,4.000000,4.000000,4.000000,4.000000,4.000000,4.000000,4.000000,4.000000,4.000000,4.000000,4.000000,4.000000,100.000000,,,,,,,,,,,,,,,,
1644853852.185419,1644853852.198013,182.000000,0.000000,4222.820313,4227.436035,4214.358887,4231.794922,4226.538574,4245.769043,4224.487305,4220.000000,4228.717773,4222.692383,4196.153809,4199.230957,4204.871582,4200.641113,3549.000000,4.000000,86.000000,,,,0.000000,4.000000,4.000000,4.000000,4.000000,4.000000,4.000000,4.000000,4.000000,4.000000,4.000000,4.000000,4.000000,4.000000,4.000000,100.000000,,,,,,,,,,,,,,,,
1644853852.189359,1644853852.201953,183.000000,0.000000,4224.487305,4224.230957,4213.717773,4231.794922,4225.000000,4246.025879,4223.717773,4218.589844,4228.077148,4226.282227,4193.589844,4197.563965,4205.512695,4198.333496,2484.000000,4.000000,86.000000,,,,0.000000,4.000000,4.000000,4.000000,4.000000,4.000000,4.000000,4.000000,4.000000,4.000000,4.000000,4.000000,4.000000,4.000000,4.000000,100.000000,,,,,,,,,,,,,,,,
1644853852.193299,1644853852.205894,184.000000,0.000000,4224.358887,4219.871582,4215.384766,4233.077148,4224.743652,4246.282227,4225.256348,4219.487305,4227.051270,4227.820313,4197.692383,4195.769043,4212.563965,4203.846191,3478.000000,4.000000,86.000000,,,,0.000000,4.000000,4.000000,4.000000,4.000000,4.000000,4.000000,4.000000,4.000000,4.000000,4.000000,4.000000,4.000000,4.000000,4.000000,100.000000,,,,,,,,,,,,,,,,
1644853852.197239,1644853852.209834,185.000000,0.000000,4219.871582,4217.436035,4218.717773,4235.128418,4226.153809,4247.307617,4227.179688,4221.410156,4226.922852,4225.769043,4208.974121,4195.769043,4217.307617,4210.897461,3633.000000,4.000000,86.000000,,,,0.000000,4.000000,4.000000,4.000000,4.000000,4.000000,4.000000,4.000000,4.000000,4.000000,4.000000,4.000000,4.000000,4.000000,4.000000,100.000000,,,,,,,,,,,,,,,,
1644853852.201179,1644853852.213774,186.000000,0.000000,4211.282227,4217.436035,4221.538574,4237.051270,4228.333496,4250.256348,4227.563965,4222.948730,4227.948730,4221.153809,4223.461426,4198.333496,4212.563965,4212.563965,3549.000000,4.000000,86.000000,,,,0.000000,4.000000,4.000000,4.000000,4.000000,4.000000,4.000000,4.000000,4.000000,4.000000,4.000000,4.000000,4.000000,4.000000,4.000000,100.000000,,,,,,,,,,,,,,,,
1644853852.205119,1644853852.217714,187.000000,0.000000,4202.692383,4218.077148,4222.436035,4237.179688,4230.000000,4255.000000,4227.179688,4223.717773,4229.230957,4215.769043,4233.717773,4201.922852,4198.205078,4206.410156,2484.000000,4.000000,86.000000,,,,0.000000,4.000000,4.000000,4.000000,4.000000,4.000000,4.000000,4.000000,4.000000,4.000000,4.000000,4.000000,4.000000,4.000000,4.000000,100.000000,,,,,,,,,,,,,,,,
1644853852.209059,1644853852.221654,188.000000,0.000000,4199.615234,4217.307617,4221.282227,4233.589844,4229.871582,4260.000000,4228.077148,4224.487305,4229.102539,4211.282227,4233.461426,4203.846191,4181.410156,4195.256348,3478.000000,4.000000,86.000000,,,,0.000000,4.000000,4.000000,4.000000,4.000000,4.000000,4.000000,4.000000,4.000000,4.000000,4.000000,4.000000,4.000000,4.000000,4.000000,100.000000,,,,,,,,,,,,,,,,
1644853852.212999,1644853852.225594,189.000000,0.000000,4205.128418,4214.871582,4219.230957,4226.538574,4228.461426,4262.179688,4230.128418,4225.256348,4227.307617,4208.717773,4221.282227,4202.436035,4171.153809,4184.871582,3633.000000,4.000000,86.000000,,,,0.000000,4.000000,4.000000,4.000000,4.000000,4.000000,4.000000,4.000000,4.000000,4.000000,4.000000,4.000000,4.000000,4.000000,4.000000,100.000000,,,,,,,,,,,,,,,,
1644853852.216939,1644853852.229534,190.000000,0.000000,4216.410156,4212.692383,4216.666504,4219.487305,4227.307617,4260.128418,4230.897461,4225.641113,4225.000000,4208.461426,4202.307617,4197.948730,4172.307617,4181.282227,3549.000000,4.000000,86.000000,,,,0.000000,4.000000,4.000000,4.000000,4.000000,4.000000,4.000000,4.000000,4.000000,4.000000,4.000000,4.000000,4.000000,4.000000,4.000000,100.000000,,,,,,,,,,,,,,,,
1644853852.220879,1644853852.233474,191.000000,0.000000,4226.282227,4212.436035,4213.846191,4218.077148,4226.794922,4254.743652,4228.589844,4224.615234,4223.461426,4210.769043,4184.871582,4192.563965,4182.820313,4187.051270,2484.000000,4.000000,86.000000,,,,0.000000,4.000000,4.000000,4.000000,4.000000,4.000000,4.000000,4.000000,4.000000,4.000000,4.000000,4.000000,4.000000,4.000000,4.000000,100.000000,,,,,,,,,,,,,,,,
1644853852.224819,1644853852.237414,192.000000,0.000000,4228.333496,4214.358887,4212.179688,4225.128418,4225.897461,4248.333496,4225.128418,4222.692383,4222.563965,4215.000000,4176.922852,4188.974121,4196.794922,4200.641113,3478.000000,4.000000,86.000000,,,,0.000000,4.000000,4.000000,4.000000,4.000000,4.000000,4.000000,4.000000,4.000000,4.000000,4.000000,4.000000,4.000000,4.000000,4.000000,100.000000,,,,,,,,,,,,,,,,
1644853852.228759,1644853852.241355,193.000000,0.000000,4223.077148,4216.666504,4213.461426,4237.307617,4222.948730,4244.102539,4223.461426,4221.153809,4221.794922,4219.487305,4182.051270,4189.102539,4209.102539,4216.153809,3633.000000,4.000000,86.000000,,,,0.000000,4.000000,4.000000,4.000000,4.000000,4.000000,4.000000,4.000000,4.000000,4.000000,4.000000,4.000000,4.000000,4.000000,4.000000,100.000000,,,,,,,,,,,,,,,,
1644853852.232700,1644853852.245295,194.000000,0.000000,4216.794922,4217.307617,4218.077148,4246.410156,4218.333496,4243.077148,4224.487305,4220.512695,4220.641113,4222.563965,4197.307617,4192.563965,4216.666504,4225.769043,3549.000000,4.000000,86.000000,,,,0.000000,4.000000,4.000000,4.000000,4.000000,4.000000,4.000000,4.000000,4.000000,4.000000,4.000000,4.000000,4.000000,4.000000,4.000000,100.000000,,,,,,,,,,,,,,,,
1644853852.236639,1644853852.249135,195.000000,0.000000,4215.769043,4216.153809,4223.589844,4245.512695,4214.743652,4244.487305,4225.769043,4220.000000,4220.000000,4223.333496,4215.256348,4197.307617,4218.461426,4225.256348,2484.000000,4.000000,86.000000,,,,0.000000,4.000000,4.000000,4.000000,4.000000,4.000000,4.000000,4.000000,4.000000,4.000000,4.000000,4.000000,4.000000,4.000000,4.000000,100.000000,,,,,,,,,,,,,,,,
1644853852.240579,1644853852.253075,196.000000,0.000000,4220.000000,4214.743652,4226.666504,4234.615234,4214.743652,4246.025879,4225.641113,4219.615234,4220.000000,4222.307617,4228.205078,4200.641113,4214.615234,4217.307617,3478.000000,4.000000,86.000000,,,,0.000000,4.000000,4.000000,4.000000,4.000000,4.000000,4.000000,4.000000,4.000000,4.000000,4.000000,4.000000,4.000000,4.000000,4.000000,100.000000,,,,,,,,,,,,,,,,
1644853852.244520,1644853852.257015,197.000000,0.000000,4224.230957,4215.256348,4225.641113,4221.282227,4218.461426,4246.666504,4224.743652,4219.743652,4220.769043,4220.641113,4232.179688,4201.153809,4206.538574,4209.230957,3633.000000,4.000000,86.000000,,,,0.000000,4.000000,4.000000,4.000000,4.000000,4.000000,4.000000,4.000000,4.000000,4.000000,4.000000,4.000000,4.000000,4.000000,4.000000,100.000000,,,,,,,,,,,,,,,,
1644853852.248459,1644853852.260955,198.000000,0.000000,4223.974121,4218.589844,4222.563965,4214.615234,4222.820313,4246.666504,4225.256348,4220.769043,4221.282227,4219.230957,4227.948730,4200.128418,4197.820313,4206.538574,3549.000000,4.000000,86.000000,,,,0.000000,4.000000,4.000000,4.000000,4.000000,4.000000,4.000000,4.000000,4.000000,4.000000,4.000000,4.000000,4.000000,4.000000,4.000000,100.000000,,,,,,,,,,,,,,,,
1644853852.252400,1644853852.264895,199.000000,0.000000,4219.615234,4223.333496,4221.025879,4217.563965,4224.871582,4246.666504,4226.794922,4221.666504,4220.769043,4219.102539,4219.743652,4199.743652,4193.077148,4208.846191,2484.000000,4.000000,86.000000,,,,0.000000,4.000000,4.000000,4.000000,4.000000,4.000000,4.000000,4.000000,4.000000,4.000000,4.000000,4.000000,4.000000,4.000000,4.000000,100.000000,,,,,,,,,,,,,,,,
1644853852.256340,1644853852.268835,200.000000,0.000000,4216.282227,4227.051270,4222.307617,4225.000000,4224.871582,4247.179688,4226.794922,4220.512695,4219.871582,4219.743652,4212.692383,4201.794922,4194.743652,4211.666504,3478.000000,4.000000,86.000000,,,,0.000000,4.000000,4.000000,4.000000,4.000000,4.000000,4.000000,4.000000,4.000000,4.000000,4.000000,4.000000,4.000000,4.000000,4.000000,100.000000,,,,,,,,,,,,,,,,
1644853852.260280,1644853852.272775,201.000000,0.000000,4218.974121,4227.307617,4225.000000,4228.077148,4225.641113,4247.692383,4223.589844,4217.692383,4219.230957,4220.000000,4210.000000,4205.512695,4201.410156,4212.436035,3633.000000,4.000000,86.000000,,,,0.000000,4.000000,4.000000,4.000000,4.000000,4.000000,4.000000,4.000000,4.000000,4.000000,4.000000,4.000000,4.000000,4.000000,4.000000,100.000000,,,,,,,,,,,,,,,,
1644853852.264220,1644853852.276716,202.000000,0.000000,4227.948730,4224.230957,4226.794922,4223.333496,4229.102539,4247.563965,4219.615234,4215.128418,4219.615234,4219.871582,4212.051270,4208.974121,4209.615234,4212.563965,3549.000000,4.000000,86.000000,,,,0.000000,4.000000,4.000000,4.000000,4.000000,4.000000,4.000000,4.000000,4.000000,4.000000,4.000000,4.000000,4.000000,4.000000,4.000000,100.000000,,,,,,,,,,,,,,,,
1644853852.268160,1644853852.280656,203.000000,0.000000,4238.717773,4220.641113,4227.179688,4216.153809,4233.077148,4246.794922,4218.846191,4215.641113,4221.922852,4221.025879,4216.025879,4210.384766,4216.538574,4214.487305,2484.000000,4.000000,86.000000,,,,0.000000,4.000000,4.000000,4.000000,4.000000,4.000000,4.000000,4.000000,4.000000,4.000000,4.000000,4.000000,4.000000,4.000000,4.000000,100.000000,,,,,,,,,,,,,,,,
1644853852.272100,1644853852.284596,204.000000,0.000000,4244.615234,4219.743652,4227.051270,4216.538574,4232.948730,4246.282227,4222.307617,4219.615234,4225.897461,4225.256348,4218.333496,4208.846191,4221.794922,4218.077148,3478.000000,4.000000,86.000000,,,,0.000000,4.000000,4.000000,4.000000,4.000000,4.000000,4.000000,4.000000,4.000000,4.000000,4.000000,4.000000,4.000000,4.000000,4.000000,100.000000,,,,,,,,,,,,,,,,
1644853852.276040,1644853852.288536,205.000000,0.000000,4242.436035,4222.692383,4227.179688,4228.205078,4226.282227,4245.897461,4226.282227,4225.128418,4230.512695,4232.051270,4217.051270,4205.384766,4224.871582,4220.897461,3633.000000,4.000000,86.000000,,,,0.000000,4.000000,4.000000,4.000000,4.000000,4.000000,4.000000,4.000000,4.000000,4.000000,4.000000,4.000000,4.000000,4.000000,4.000000,100.000000,,,,,,,,,,,,,,,,
1644853852.279980,1644853852.292476,206.000000,0.000000,4233.717773,4227.692383,4228.077148,4244.743652,4215.769043,4245.384766,4226.922852,4228.846191,4233.974121,4238.461426,4212.948730,4202.051270,4224.102539,4221.025879,3549.000000,4.000000,86.000000,,,,0.000000,4.000000,4.000000,4.000000,4.000000,4.000000,4.000000,4.000000,4.000000,4.000000,4.000000,4.000000,4.000000,4.000000,4.000000,100.000000,,,,,,,,,,,,,,,,
1644853852.283920,1644853852.296416,207.000000,0.000000,4224.487305,4231.538574,4229.102539,4255.000000,4207.820313,4244.487305,4224.358887,4229.358887,4234.743652,4241.025879,4208.974121,4200.000000,4218.077148,4220.000000,2484.000000,4.000000,86.000000,,,,0.000000,4.000000,4.000000,4.000000,4.000000,4.000000,4.000000,4.000000,4.000000,4.000000,4.000000,4.000000,4.000000,4.000000,4.000000,100.000000,,,,,,,,,,,,,,,,
1644853852.287860,1644853852.300356,208.000000,0.000000,4220.000000,4232.051270,4228.846191,4252.179688,4207.307617,4243.974121,4222.051270,4226.922852,4232.820313,4238.333496,4207.948730,4199.230957,4208.077148,4220.256348,3478.000000,4.000000,86.000000,,,,0.000000,4.000000,4.000000,4.000000,4.000000,4.000000,4.000000,4.000000,4.000000,4.000000,4.000000,4.000000,4.000000,4.000000,4.000000,100.000000,,,,,,,,,,,,,,,,
1644853852.291800,1644853852.304296,209.000000,0.000000,4220.769043,4228.974121,4225.641113,4238.717773,4214.358887,4244.615234,4221.922852,4222.948730,4229.102539,4231.282227,4210.256348,4198.974121,4198.846191,4221.538574,3633.000000,4.000000,86.000000,,,,0.000000,4.000000,4.000000,4.000000,4.000000,4.000000,4.000000,4.000000,4.000000,4.000000,4.000000,4.000000,4.000000,4.000000,4.000000,100.000000,,,,,,,,,,,,,,,,
1644853852.295740,1644853852.308236,210.000000,0.000000,4222.307617,4224.102539,4219.358887,4222.179688,4223.974121,4246.410156,4222.692383,4218.589844,4225.128418,4222.948730,4214.487305,4197.692383,4194.871582,4220.769043,3549.000000,4.000000,86.000000,,,,0.000000,4.000000,4.000000,4.000000,4.000000,4.000000,4.000000,4.000000,4.000000,4.000000,4.000000,4.000000,4.000000,4.000000,4.000000,100.000000,,,,,,,,,,,,,,,,
1644853852.299680,1644853852.312177,211.000000,0.000000,4220.000000,4219.871582,4212.563965,4210.384766,4230.384766,4247.948730,4222.051270,4215.000000,4222.179688,4216.794922,4218.846191,4194.615234,4196.538574,4215.256348,2484.000000,4.000000,86.000000,,,,0.000000,4.000000,4.000000,4.000000,4.000000,4.000000,4.000000,4.000000,4.000000,4.000000,4.000000,4.000000,4.000000,4.000000,4.000000,100.000000,,,,,,,,,,,,,,,,
1644853852.303620,1644853852.316217,212.000000,0.000000,4214.102539,4216.922852,4209.358887,4206.666504,4230.769043,4248.077148,4220.256348,4213.717773,4221.794922,4215.128418,4221.794922,4191.282227,4201.025879,4206.794922,3478.000000,4.000000,86.000000,,,,0.000000,4.000000,4.000000,4.000000,4.000000,4.000000,4.000000,4.000000,4.000000,4.000000,4.000000,4.000000,4.000000,4.000000,4.000000,100.000000,,,,,,,,,,,,,,,,
1644853852.307560,1644853852.320157,213.000000,0.000000,4209.615234,4214.487305,4211.538574,4210.384766,4228.077148,4247.051270,4220.000000,4215.897461,4223.846191,4217.820313,4222.051270,4190.256348,4203.974121,4200.512695,3633.000000,4.000000,86.000000,,,,0.000000,4.000000,4.000000,4.000000,4.000000,4.000000,4.000000,4.000000,4.000000,4.000000,4.000000,4.000000,4.000000,4.000000,4.000000,100.000000,,,,,,,,,,,,,,,,
1644853852.311500,1644853852.324097,214.000000,0.000000,4211.538574,4211.922852,4216.666504,4218.974121,4227.179688,4246.282227,4222.692383,4220.128418,4227.436035,4223.461426,4218.717773,4192.563965,4203.717773,4200.512695,3549.000000,4.000000,86.000000,,,,0.000000,4.000000,4.000000,4.000000,4.000000,4.000000,4.000000,4.000000,4.000000,4.000000,4.000000,4.000000,4.000000,4.000000,4.000000,100.000000,,,,,,,,,,,,,,,,
1644853852.315440,1644853852.328037,215.000000,0.000000,4219.230957,4210.897461,4220.000000,4228.846191,4230.256348,4246.538574,4226.410156,4224.230957,4230.641113,4229.358887,4212.563965,4196.666504,4201.666504,4206.794922,2484.000000,4.000000,86.000000,,,,0.000000,4.000000,4.000000,4.000000,4.000000,4.000000,4.000000,4.000000,4.000000,4.000000,4.000000,4.000000,4.000000,4.000000,4.000000,100.000000,,,,,,,,,,,,,,,,
1644853852.319380,1644853852.331977,216.000000,0.000000,4227.436035,4213.077148,4219.102539,4235.256348,4233.333496,4247.563965,4228.077148,4225.769043,4231.282227,4232.307617,4206.794922,4200.256348,4200.897461,4215.512695,3478.000000,4.000000,86.000000,,,,0.000000,4.000000,4.000000,4.000000,4.000000,4.000000,4.000000,4.000000,4.000000,4.000000,4.000000,4.000000,4.000000,4.000000,4.000000,100.000000,,,,,,,,,,,,,,,,
1644853852.323320,1644853852.335917,217.000000,0.000000,4230.128418,4218.333496,4215.384766,4234.230957,4229.743652,4248.077148,4226.538574,4224.102539,4228.461426,4230.384766,4204.615234,4201.538574,4203.205078,4221.794922,3633.000000,4.000000,86.000000,,,,0.000000,4.000000,4.000000,4.000000,4.000000,4.000000,4.000000,4.000000,4.000000,4.000000,4.000000,4.000000,4.000000,4.000000,4.000000,100.000000,,,,,,,,,,,,,,,,
1644853852.327260,1644853852.339857,218.000000,0.000000,4226.153809,4223.589844,4212.820313,4225.897461,4217.692383,4247.692383,4223.846191,4220.512695,4223.974121,4223.333496,4206.666504,4201.153809,4207.307617,4221.538574,3549.000000,4.000000,86.000000,,,,0.000000,4.000000,4.000000,4.000000,4.000000,4.000000,4.000000,4.000000,4.000000,4.000000,4.000000,4.000000,4.000000,4.000000,4.000000,100.000000,,,,,,,,,,,,,,,,
1644853852.331200,1644853852.343797,219.000000,0.000000,4218.589844,4225.769043,4213.717773,4216.666504,4204.102539,4246.538574,4222.179688,4217.436035,4220.512695,4214.743652,4210.384766,4199.871582,4210.256348,4214.102539,2484.000000,4.000000,86.000000,,,,0.000000,4.000000,4.000000,4.000000,4.000000,4.000000,4.000000,4.000000,4.000000,4.000000,4.000000,4.000000,4.000000,4.000000,4.000000,100.000000,,,,,,,,,,,,,,,,
1644853852.335140,1644853852.347737,220.000000,0.000000,4212.179688,4223.846191,4216.282227,4214.871582,4199.102539,4246.025879,4221.282227,4216.025879,4220.256348,4209.102539,4211.922852,4198.077148,4210.128418,4203.461426,3478.000000,4.000000,86.000000,,,,0.000000,4.000000,4.000000,4.000000,4.000000,4.000000,4.000000,4.000000,4.000000,4.000000,4.000000,4.000000,4.000000,4.000000,4.000000,100.000000,,,,,,,,,,,,,,,,
1644853852.339080,1644853852.351677,221.000000,0.000000,4210.256348,4220.000000,4217.051270,4223.205078,4207.179688,4246.666504,4220.000000,4215.641113,4222.692383,4210.512695,4210.769043,4196.025879,4207.436035,4195.641113,3633.000000,4.000000,86.000000,,,,0.000000,4.000000,4.000000,4.000000,4.000000,4.000000,4.000000,4.000000,4.000000,4.000000,4.000000,4.000000,4.000000,4.000000,4.000000,100.000000,,,,,,,,,,,,,,,,
1644853852.343020,1644853852.355618,222.000000,0.000000,4212.563965,4217.051270,4213.974121,4234.743652,4223.077148,4247.820313,4218.077148,4214.743652,4224.743652,4218.205078,4209.102539,4193.717773,4205.128418,4195.769043,3549.000000,4.000000,86.000000,,,,0.000000,4.000000,4.000000,4.000000,4.000000,4.000000,4.000000,4.000000,4.000000,4.000000,4.000000,4.000000,4.000000,4.000000,4.000000,100.000000,,,,,,,,,,,,,,,,
1644853852.346960,1644853852.359558,223.000000,0.000000,4216.282227,4216.794922,4209.358887,4238.846191,4235.769043,4248.077148,4216.666504,4212.307617,4223.589844,4227.436035,4209.615234,4190.897461,4205.256348,4204.102539,2484.000000,4.000000,86.000000,,,,0.000000,4.000000,4.000000,4.000000,4.000000,4.000000,4.000000,4.000000,4.000000,4.000000,4.000000,4.000000,4.000000,4.000000,4.000000,100.000000,,,,,,,,,,,,,,,,
1644853852.350901,1644853852.363498,224.000000,0.000000,4217.948730,4218.205078,4206.666504,4230.128418,4237.948730,4246.538574,4216.538574,4209.358887,4218.974121,4231.282227,4212.051270,4187.563965,4208.333496,4215.512695,3478.000000,4.000000,86.000000,,,,0.000000,4.000000,4.000000,4.000000,4.000000,4.000000,4.000000,4.000000,4.000000,4.000000,4.000000,4.000000,4.000000,4.000000,4.000000,100.000000,,,,,,,,,,,,,,,,
1644853852.354840,1644853852.367438,225.000000,0.000000,4216.666504,4219.102539,4208.205078,4213.461426,4230.897461,4243.846191,4216.794922,4208.205078,4213.974121,4227.563965,4213.333496,4185.128418,4211.666504,4222.692383,3633.000000,4.000000,86.000000,,,,0.000000,4.000000,4.000000,4.000000,4.000000,4.000000,4.000000,4.000000,4.000000,4.000000,4.000000,4.000000,4.000000,4.000000,4.000000,100.000000,,,,,,,,,,,,,,,,
1644853852.358781,1644853852.371378,226.000000,0.000000,4214.487305,4218.717773,4213.077148,4200.897461,4221.794922,4242.051270,4216.922852,4210.128418,4212.692383,4219.871582,4211.410156,4186.025879,4211.922852,4221.794922,3549.000000,4.000000,86.000000,,,,0.000000,4.000000,4.000000,4.000000,4.000000,4.000000,4.000000,4.000000,4.000000,4.000000,4.000000,4.000000,4.000000,4.000000,4.000000,100.000000,,,,,,,,,,,,,,,,
1644853852.362721,1644853852.375318,227.000000,0.000000,4214.615234,4218.589844,4218.333496,4202.436035,4216.794922,4242.436035,4217.563965,4215.000000,4217.179688,4214.871582,4208.333496,4191.538574,4208.461426,4215.512695,2484.000000,4.000000,86.000000,,,,0.000000,4.000000,4.000000,4.000000,4.000000,4.000000,4.000000,4.000000,4.000000,4.000000,4.000000,4.000000,4.000000,4.000000,4.000000,100.000000,,,,,,,,,,,,,,,,
1644853852.366661,1644853852.379258,228.000000,0.000000,4218.589844,4220.256348,4222.051270,4219.102539,4216.538574,4244.487305,4219.615234,4221.025879,4224.871582,4215.512695,4208.205078,4200.384766,4203.846191,4210.384766,3478.000000,4.000000,86.000000,,,,0.000000,4.000000,4.000000,4.000000,4.000000,4.000000,4.000000,4.000000,4.000000,4.000000,4.000000,4.000000,4.000000,4.000000,4.000000,100.000000,,,,,,,,,,,,,,,,
1644853852.370601,1644853852.383198,229.000000,0.000000,4224.743652,4222.820313,4223.461426,4241.410156,4217.692383,4246.666504,4223.205078,4225.897461,4231.282227,4219.487305,4212.563965,4208.077148,4201.538574,4210.256348,3633.000000,4.000000,86.000000,,,,0.000000,4.000000,4.000000,4.000000,4.000000,4.000000,4.000000,4.000000,4.000000,4.000000,4.000000,4.000000,4.000000,4.000000,4.000000,100.000000,,,,,,,,,,,,,,,,
1644853852.374541,1644853852.387138,230.000000,0.000000,4229.230957,4223.589844,4223.846191,4255.128418,4217.051270,4247.563965,4226.153809,4227.692383,4233.589844,4222.436035,4217.563965,4210.512695,4202.051270,4212.692383,3549.000000,4.000000,86.000000,,,,0.000000,4.000000,4.000000,4.000000,4.000000,4.000000,4.000000,4.000000,4.000000,4.000000,4.000000,4.000000,4.000000,4.000000,4.000000,100.000000,,,,,,,,,,,,,,,,
1644853852.378481,1644853852.390979,231.000000,0.000000,4229.102539,4220.000000,4224.102539,4252.051270,4213.974121,4247.179688,4226.666504,4226.666504,4232.820313,4222.820313,4218.333496,4207.051270,4202.692383,4212.948730,2484.000000,4.000000,86.000000,,,,0.000000,4.000000,4.000000,4.000000,4.000000,4.000000,4.000000,4.000000,4.000000,4.000000,4.000000,4.000000,4.000000,4.000000,4.000000,100.000000,,,,,,,,,,,,,,,,
1644853852.382421,1644853852.394919,232.000000,0.000000,4224.230957,4213.077148,4224.615234,4235.384766,4211.666504,4246.410156,4225.256348,4225.000000,4232.307617,4222.436035,4213.205078,4201.025879,4200.897461,4210.128418,3478.000000,4.000000,86.000000,,,,0.000000,4.000000,4.000000,4.000000,4.000000,4.000000,4.000000,4.000000,4.000000,4.000000,4.000000,4.000000,4.000000,4.000000,4.000000,100.000000,,,,,,,,,,,,,,,,
1644853852.386361,1644853852.398859,233.000000,0.000000,4218.205078,4208.077148,4225.256348,4216.922852,4213.589844,4246.538574,4224.871582,4224.871582,4233.846191,4224.358887,4206.666504,4197.563965,4197.436035,4208.461426,3633.000000,4.000000,86.000000,,,,0.000000,4.000000,4.000000,4.000000,4.000000,4.000000,4.000000,4.000000,4.000000,4.000000,4.000000,4.000000,4.000000,4.000000,4.000000,100.000000,,,,,,,,,,,,,,,,
1644853852.390301,1644853852.402799,234.000000,0.000000,4215.512695,4210.000000,4226.153809,4207.820313,4220.512695,4247.563965,4226.538574,4226.794922,4235.641113,4229.487305,4204.615234,4199.615234,4197.179688,4211.666504,3549.000000,4.000000,86.000000,,,,0.000000,4.000000,4.000000,4.000000,4.000000,4.000000,4.000000,4.000000,4.000000,4.000000,4.000000,4.000000,4.000000,4.000000,4.000000,100.000000,,,,,,,,,,,,,,,,
1644853852.394241,1644853852.406739,235.000000,0.000000,4218.717773,4220.000000,4227.820313,4211.153809,4229.358887,4248.846191,4228.589844,4228.589844,4235.128418,4236.025879,4210.641113,4206.025879,4203.974121,4218.461426,2484.000000,4.000000,86.000000,,,,0.000000,4.000000,4.000000,4.000000,4.000000,4.000000,4.000000,4.000000,4.000000,4.000000,4.000000,4.000000,4.000000,4.000000,4.000000,100.000000,,,,,,,,,,,,,,,,
1644853852.398181,1644853852.410679,236.000000,0.000000,4226.410156,4232.563965,4229.871582,4221.025879,4234.871582,4249.358887,4228.333496,4228.589844,4231.410156,4241.153809,4222.307617,4213.717773,4217.051270,4222.820313,3478.000000,4.000000,86.000000,,,,0.000000,4.000000,4.000000,4.000000,4.000000,4.000000,4.000000,4.000000,4.000000,4.000000,4.000000,4.000000,4.000000,4.000000,4.000000,100.000000,,,,,,,,,,,,,,,,
1644853852.402121,1644853852.414619,237.000000,0.000000,4234.615234,4240.769043,4231.666504,4229.743652,4233.974121,4248.974121,4225.897461,4226.538574,4226.794922,4243.077148,4232.692383,4218.974121,4230.897461,4221.025879,3633.000000,4.000000,86.000000,,,,0.000000,4.000000,4.000000,4.000000,4.000000,4.000000,4.000000,4.000000,4.000000,4.000000,4.000000,4.000000,4.000000,4.000000,4.000000,100.000000,,,,,,,,,,,,,,,,
1644853852.406061,1644853852.418559,238.000000,0.000000,4238.974121,4240.512695,4232.307617,4232.179688,4226.922852,4248.846191,4224.615234,4224.487305,4224.743652,4241.666504,4235.256348,4220.641113,4239.358887,4215.256348,3549.000000,4.000000,86.000000,,,,0.000000,4.000000,4.000000,4.000000,4.000000,4.000000,4.000000,4.000000,4.000000,4.000000,4.000000,4.000000,4.000000,4.000000,4.000000,100.000000,,,,,,,,,,,,,,,,
1644853852.410001,1644853852.422499,239.000000,0.000000,4237.179688,4232.051270,4231.282227,4228.205078,4217.179688,4249.487305,4226.282227,4223.974121,4226.282227,4238.589844,4229.102539,4219.358887,4239.871582,4211.666504,2484.000000,4.000000,86.000000,,,,0.000000,4.000000,4.000000,4.000000,4.000000,4.000000,4.000000,4.000000,4.000000,4.000000,4.000000,4.000000,4.000000,4.000000,4.000000,100.000000,,,,,,,,,,,,,,,,
1644853852.413941,1644853852.426440,240.000000,0.000000,4230.256348,4220.000000,4228.589844,4220.897461,4209.487305,4250.641113,4229.615234,4224.102539,4228.846191,4235.897461,4219.615234,4217.436035,4235.256348,4214.358887,3478.000000,4.000000,86.000000,,,,0.000000,4.000000,4.000000,4.000000,4.000000,4.000000,4.000000,4.000000,4.000000,4.000000,4.000000,4.000000,4.000000,4.000000,4.000000,100.000000,,,,,,,,,,,,,,,,
1644853852.417881,1644853852.430380,241.000000,0.000000,4222.307617,4209.615234,4225.000000,4214.358887,4207.179688,4251.410156,4231.410156,4223.205078,4229.743652,4233.717773,4214.358887,4216.666504,4231.025879,4221.666504,3633.000000,4.000000,86.000000,,,,0.000000,4.000000,4.000000,4.000000,4.000000,4.000000,4.000000,4.000000,4.000000,4.000000,4.000000,4.000000,4.000000,4.000000,4.000000,100.000000,,,,,,,,,,,,,,,,
1644853852.421821,1644853852.434320,242.000000,0.000000,4217.436035,4204.358887,4222.563965,4211.538574,4211.410156,4251.025879,4230.512695,4220.128418,4227.436035,4230.512695,4217.179688,4217.436035,4231.794922,4228.846191,3549.000000,4.000000,86.000000,,,,0.000000,4.000000,4.000000,4.000000,4.000000,4.000000,4.000000,4.000000,4.000000,4.000000,4.000000,4.000000,4.000000,4.000000,4.000000,100.000000,,,,,,,,,,,,,,,,
1644853852.425761,1644853852.438260,243.000000,0.000000,4217.436035,4204.358887,4222.563965,4212.820313,4220.000000,4249.487305,4228.461426,4216.153809,4222.948730,4223.333496,4226.025879,4218.974121,4236.666504,4231.794922,2484.000000,4.000000,86.000000,,,,0.000000,4.000000,4.000000,4.000000,4.000000,4.000000,4.000000,4.000000,4.000000,4.000000,4.000000,4.000000,4.000000,4.000000,4.000000,100.000000,,,,,,,,,,,,,,,,
1644853852.429701,1644853852.442200,244.000000,0.000000,4220.897461,4206.922852,4223.846191,4216.538574,4227.563965,4247.563965,4227.307617,4213.589844,4218.589844,4213.077148,4235.128418,4220.000000,4240.641113,4230.000000,3478.000000,4.000000,86.000000,,,,0.000000,4.000000,4.000000,4.000000,4.000000,4.000000,4.000000,4.000000,4.000000,4.000000,4.000000,4.000000,4.000000,4.000000,4.000000,100.000000,,,,,,,,,,,,,,,,
1644853852.433641,1644853852.446140,245.000000,0.000000,4225.256348,4208.589844,4223.461426,4220.000000,4230.128418,4246.282227,4227.307617,4213.717773,4216.538574,4204.871582,4239.615234,4220.000000,4238.333496,4225.256348,3633.000000,4.000000,86.000000,,,,0.000000,4.000000,4.000000,4.000000,4.000000,4.000000,4.000000,4.000000,4.000000,4.000000,4.000000,4.000000,4.000000,4.000000,4.000000,100.000000,,,,,,,,,,,,,,,,
1644853852.437581,1644853852.450080,246.000000,0.000000,4228.717773,4208.205078,4219.871582,4221.282227,4227.436035,4246.153809,4226.794922,4216.666504,4217.307617,4205.384766,4238.205078,4218.589844,4228.461426,4220.512695,3549.000000,4.000000,86.000000,,,,0.000000,4.000000,4.000000,4.000000,4.000000,4.000000,4.000000,4.000000,4.000000,4.000000,4.000000,4.000000,4.000000,4.000000,4.000000,100.000000,,,,,,,,,,,,,,,,
1644853852.441521,1644853852.454020,247.000000,0.000000,4231.153809,4206.538574,4214.487305,4220.512695,4222.692383,4247.179688,4226.025879,4221.282227,4219.615234,4216.666504,4232.692383,4216.538574,4215.641113,4218.589844,2484.000000,4.000000,86.000000,,,,0.000000,4.000000,4.000000,4.000000,4.000000,4.000000,4.000000,4.000000,4.000000,4.000000,4.000000,4.000000,4.000000,4.000000,4.000000,100.000000,,,,,,,,,,,,,,,,
1644853852.445461,1644853852.457960,248.000000,0.000000,4232.692383,4206.153809,4211.410156,4218.846191,4218.974121,4248.333496,4227.179688,4226.282227,4222.307617,4233.461426,4225.641113,4214.615234,4207.179688,4220.512695,3478.000000,4.000000,86.000000,,,,0.000000,4.000000,4.000000,4.000000,4.000000,4.000000,4.000000,4.000000,4.000000,4.000000,4.000000,4.000000,4.000000,4.000000,4.000000,100.000000,,,,,,,,,,,,,,,,
1644853852.449401,1644853852.461901,249.000000,0.000000,4233.205078,4209.102539,4213.717773,4216.794922,4217.179688,4248.717773,4231.410156,4230.384766,4224.743652,4247.051270,4220.769043,4213.974121,4207.948730,4225.000000,3633.000000,4.000000,86.000000,,,,0.000000,4.000000,4.000000,4.000000,4.000000,4.000000,4.000000,4.000000,4.000000,4.000000,4.000000,4.000000,4.000000,4.000000,4.000000,100.000000,,,,,,,,,,,,,,,,
1644853852.453341,1644853852.465741,250.000000,0.000000,4231.794922,4215.769043,4220.641113,4214.743652,4216.922852,4249.358887,4236.666504,4232.820313,4227.820313,4251.666504,4221.282227,4214.743652,4217.307617,4227.692383,3549.000000,4.000000,86.000000,,,,0.000000,4.000000,4.000000,4.000000,4.000000,4.000000,4.000000,4.000000,4.000000,4.000000,4.000000,4.000000,4.000000,4.000000,4.000000,100.000000,,,,,,,,,,,,,,,,
1644853852.457281,1644853852.469681,251.000000,0.000000,4227.436035,4223.077148,4227.563965,4214.615234,4217.179688,4251.153809,4238.461426,4233.717773,4231.922852,4247.436035,4226.410156,4216.025879,4230.128418,4225.897461,2484.000000,4.000000,86.000000,,,,0.000000,4.000000,4.000000,4.000000,4.000000,4.000000,4.000000,4.000000,4.000000,4.000000,4.000000,4.000000,4.000000,4.000000,4.000000,100.000000,,,,,,,,,,,,,,,,
1644853852.461221,1644853852.473621,252.000000,0.000000,4220.000000,4226.538574,4228.846191,4218.846191,4216.538574,4253.333496,4235.256348,4233.589844,4235.641113,4238.846191,4231.282227,4216.282227,4239.743652,4220.769043,3478.000000,4.000000,86.000000,,,,0.000000,4.000000,4.000000,4.000000,4.000000,4.000000,4.000000,4.000000,4.000000,4.000000,4.000000,4.000000,4.000000,4.000000,4.000000,100.000000,,,,,,,,,,,,,,,,
1644853852.465161,1644853852.477561,253.000000,0.000000,4211.153809,4222.692383,4222.179688,4227.563965,4214.871582,4253.589844,4229.871582,4233.589844,4237.179688,4231.153809,4229.487305,4214.615234,4241.410156,4216.410156,3633.000000,4.000000,86.000000,,,,0.000000,4.000000,4.000000,4.000000,4.000000,4.000000,4.000000,4.000000,4.000000,4.000000,4.000000,4.000000,4.000000,4.000000,4.000000,100.000000,,,,,,,,,,,,,,,,
1644853852.469102,1644853852.481501,254.000000,0.000000,4203.974121,4212.948730,4211.025879,4236.153809,4212.948730,4250.128418,4226.794922,4234.230957,4236.153809,4228.589844,4219.615234,4211.538574,4235.641113,4215.000000,3549.000000,4.000000,86.000000,,,,0.000000,4.000000,4.000000,4.000000,4.000000,4.000000,4.000000,4.000000,4.000000,4.000000,4.000000,4.000000,4.000000,4.000000,4.000000,100.000000,,,,,,,,,,,,,,,,
1644853852.473042,1644853852.485441,255.000000,0.000000,4202.051270,4203.205078,4202.563965,4239.102539,4212.307617,4244.230957,4227.436035,4235.769043,4234.743652,4232.051270,4208.846191,4208.974121,4228.205078,4215.128418,113.000000,4.000000,86.000000,,,,0.000000,4.000000,4.000000,4.000000,4.000000,4.000000,4.000000,4.000000,4.000000,4.000000,4.000000,4.000000,4.000000,4.000000,4.000000,100.000000,,,,,,,,,,,,,,,,
1644853852.476982,1644853852.489381,0.000000,0.000000,4206.538574,4199.743652,4201.538574,4234.230957,4213.846191,4240.256348,4229.230957,4237.436035,4235.000000,4238.589844,4206.538574,4208.205078,4225.384766,4213.846191,3409.000000,4.000000,86.000000,,,,0.000000,4.000000,4.000000,4.000000,4.000000,4.000000,4.000000,4.000000,4.000000,4.000000,4.000000,4.000000,4.000000,4.000000,4.000000,100.000000,,,,,,,,,,,,,,,,
1644853852.480922,1644853852.493321,1.000000,0.000000,4215.128418,4203.205078,4206.666504,4224.871582,4216.538574,4240.897461,4229.615234,4237.948730,4236.794922,4242.692383,4215.769043,4208.077148,4228.589844,4210.641113,3373.000000,4.000000,86.000000,,,,0.000000,4.000000,4.000000,4.000000,4.000000,4.000000,4.000000,4.000000,4.000000,4.000000,4.000000,4.000000,4.000000,4.000000,4.000000,100.000000,,,,,,,,,,,,,,,,
1644853852.484862,1644853852.497262,2.000000,0.000000,4222.179688,4207.948730,4211.922852,4216.666504,4218.717773,4245.128418,4228.461426,4235.769043,4237.307617,4240.641113,4229.871582,4206.794922,4231.410156,4207.692383,3295.000000,4.000000,86.000000,,,,0.000000,4.000000,4.000000,4.000000,4.000000,4.000000,4.000000,4.000000,4.000000,4.000000,4.000000,4.000000,4.000000,4.000000,4.000000,100.000000,,,,,,,,,,,,,,,,
1644853852.488802,1644853852.501202,3.000000,0.000000,4223.205078,4207.563965,4211.538574,4213.077148,4219.358887,4248.333496,4227.692383,4231.153809,4234.487305,4233.461426,4238.589844,4203.333496,4225.641113,4207.436035,3523.000000,4.000000,86.000000,,,,0.000000,4.000000,4.000000,4.000000,4.000000,4.000000,4.000000,4.000000,4.000000,4.000000,4.000000,4.000000,4.000000,4.000000,4.000000,100.000000,,,,,,,,,,,,,,,,
1644853852.492742,1644853852.505142,4.000000,0.000000,4217.948730,4201.025879,4205.512695,4213.589844,4219.102539,4247.436035,4228.077148,4226.282227,4229.487305,4226.922852,4235.641113,4199.358887,4210.897461,4209.358887,3282.000000,4.000000,86.000000,,,,0.000000,4.000000,4.000000,4.000000,4.000000,4.000000,4.000000,4.000000,4.000000,4.000000,4.000000,4.000000,4.000000,4.000000,4.000000,100.000000,,,,,,,,,,,,,,,,
1644853852.496682,1644853852.509082,5.000000,0.000000,4209.871582,4194.102539,4198.717773,4215.769043,4218.846191,4243.717773,4228.846191,4224.230957,4226.153809,4226.410156,4223.846191,4197.563965,4197.051270,4210.897461,3340.000000,4.000000,86.000000,,,,0.000000,4.000000,4.000000,4.000000,4.000000,4.000000,4.000000,4.000000,4.000000,4.000000,4.000000,4.000000,4.000000,4.000000,4.000000,100.000000,,,,,,,,,,,,,,,,
1644853852.500622,1644853852.512922,6.000000,0.000000,4203.461426,4193.974121,4196.666504,4217.179688,4218.974121,4240.897461,4228.974121,4225.769043,4227.307617,4233.333496,4210.897461,4198.974121,4196.538574,4209.615234,2375.000000,4.000000,86.000000,,,,0.000000,4.000000,4.000000,4.000000,4.000000,4.000000,4.000000,4.000000,4.000000,4.000000,4.000000,4.000000,4.000000,4.000000,4.000000,100.000000,,,,,,,,,,,,,,,,
1644853852.504562,1644853852.516862,7.000000,0.000000,4200.897461,4202.563965,4200.769043,4217.179688,4218.717773,4241.282227,4228.974121,4228.974121,4231.282227,4242.692383,4203.717773,4202.051270,4212.820313,4206.282227,3079.000000,4.000000,86.000000,,,,0.000000,4.000000,4.000000,4.000000,4.000000,4.000000,4.000000,4.000000,4.000000,4.000000,4.000000,4.000000,4.000000,4.000000,4.000000,100.000000,,,,,,,,,,,,,,,,
1644853852.508502,1644853852.520802,8.000000,0.000000,4202.179688,4214.743652,4206.922852,4216.025879,4217.948730,4243.461426,4229.230957,4230.641113,4234.102539,4248.333496,4203.846191,4204.102539,4236.794922,4204.230957,3300.000000,4.000000,86.000000,,,,0.000000,4.000000,4.000000,4.000000,4.000000,4.000000,4.000000,4.000000,4.000000,4.000000,4.000000,4.000000,4.000000,4.000000,4.000000,100.000000,,,,,,,,,,,,,,,,
1644853852.512442,1644853852.524742,9.000000,0.000000,4205.897461,4222.820313,4210.512695,4215.128418,4217.436035,4244.230957,4229.615234,4229.102539,4232.820313,4246.794922,4209.487305,4203.974121,4254.871582,4206.282227,3559.000000,4.000000,86.000000,,,,0.000000,4.000000,4.000000,4.000000,4.000000,4.000000,4.000000,4.000000,4.000000,4.000000,4.000000,4.000000,4.000000,4.000000,4.000000,100.000000,,,,,,,,,,,,,,,,
1644853852.516382,1644853852.528683,10.000000,0.000000,4210.641113,4222.307617,4209.743652,4215.256348,4218.205078,4242.051270,4229.102539,4225.769043,4228.461426,4241.282227,4218.846191,4203.333496,4259.102539,4212.948730,3537.000000,4.000000,86.000000,,,,0.000000,4.000000,4.000000,4.000000,4.000000,4.000000,4.000000,4.000000,4.000000,4.000000,4.000000,4.000000,4.000000,4.000000,4.000000,100.000000,,,,,,,,,,,,,,,,
1644853852.520322,1644853852.532623,11.000000,0.000000,4215.128418,4214.358887,4206.282227,4217.051270,4220.128418,4237.948730,4227.563965,4223.589844,4225.128418,4237.820313,4231.025879,4204.871582,4251.410156,4222.307617,2496.000000,4.000000,86.000000,,,,0.000000,4.000000,4.000000,4.000000,4.000000,4.000000,4.000000,4.000000,4.000000,4.000000,4.000000,4.000000,4.000000,4.000000,4.000000,100.000000,,,,,,,,,,,,,,,,
1644853852.524262,1644853852.536563,12.000000,0.000000,4217.948730,4203.974121,4203.717773,4220.000000,4220.769043,4234.615234,4226.538574,4224.615234,4225.384766,4240.128418,4243.846191,4209.487305,4239.230957,4231.538574,3259.000000,4.000000,86.000000,,,,0.000000,4.000000,4.000000,4.000000,4.000000,4.000000,4.000000,4.000000,4.000000,4.000000,4.000000,4.000000,4.000000,4.000000,4.000000,100.000000,,,,,,,,,,,,,,,,
1644853852.528202,1644853852.540403,13.000000,0.000000,4218.717773,4196.538574,4203.846191,4222.692383,4217.051270,4234.230957,4227.820313,4229.102539,4228.589844,4245.897461,4252.692383,4215.000000,4229.871582,4237.307617,3523.000000,4.000000,86.000000,,,,0.000000,4.000000,4.000000,4.000000,4.000000,4.000000,4.000000,4.000000,4.000000,4.000000,4.000000,4.000000,4.000000,4.000000,4.000000,100.000000,,,,,,,,,,,,,,,,
1644853852.532142,1644853852.544343,14.000000,0.000000,4218.589844,4195.128418,4206.025879,4222.051270,4208.077148,4236.794922,4230.641113,4234.358887,4231.410156,4249.487305,4253.077148,4218.205078,4225.897461,4237.051270,3537.000000,4.000000,86.000000,,,,0.000000,4.000000,4.000000,4.000000,4.000000,4.000000,4.000000,4.000000,4.000000,4.000000,4.000000,4.000000,4.000000,4.000000,4.000000,100.000000,,,,,,,,,,,,,,,,
1644853852.536082,1644853852.548383,15.000000,0.000000,4218.846191,4199.358887,4207.820313,4216.153809,4197.051270,4239.871582,4232.051270,4236.282227,4231.538574,4246.538574,4243.974121,4218.461426,4225.128418,4230.641113,2496.000000,4.000000,86.000000,,,,0.000000,4.000000,4.000000,4.000000,4.000000,4.000000,4.000000,4.000000,4.000000,4.000000,4.000000,4.000000,4.000000,4.000000,4.000000,100.000000,,,,,,,,,,,,,,,,
1644853852.540022,1644853852.552323,16.000000,0.000000,4218.974121,4205.128418,4207.307617,4206.153809,4189.358887,4240.512695,4229.871582,4232.692383,4228.717773,4237.179688,4230.000000,4217.179688,4224.615234,4222.051270,3259.000000,4.000000,86.000000,,,,0.000000,4.000000,4.000000,4.000000,4.000000,4.000000,4.000000,4.000000,4.000000,4.000000,4.000000,4.000000,4.000000,4.000000,4.000000,100.000000,,,,,,,,,,,,,,,,
1644853852.543962,1644853852.556263,17.000000,0.000000,4217.692383,4208.077148,4205.641113,4197.307617,4190.128418,4238.077148,4225.897461,4225.384766,4224.615234,4226.794922,4218.205078,4216.153809,4223.077148,4217.563965,3523.000000,4.000000,86.000000,,,,0.000000,4.000000,4.000000,4.000000,4.000000,4.000000,4.000000,4.000000,4.000000,4.000000,4.000000,4.000000,4.000000,4.000000,4.000000,100.000000,,,,,,,,,,,,,,,,
1644853852.547902,1644853852.560203,18.000000,0.000000,4214.230957,4206.410156,4205.256348,4196.153809,4199.743652,4234.615234,4223.846191,4218.974121,4221.794922,4221.794922,4212.563965,4215.384766,4222.051270,4220.000000,3537.000000,4.000000,86.000000,,,,0.000000,4.000000,4.000000,4.000000,4.000000,4.000000,4.000000,4.000000,4.000000,4.000000,4.000000,4.000000,4.000000,4.000000,4.000000,100.000000,,,,,,,,,,,,,,,,
1644853852.551842,1644853852.564243,19.000000,0.000000,4210.128418,4202.692383,4207.307617,4204.871582,4212.948730,4232.563965,4225.000000,4217.051270,4221.025879,4224.743652,4211.410156,4213.846191,4223.846191,4225.512695,2496.000000,4.000000,86.000000,,,,0.000000,4.000000,4.000000,4.000000,4.000000,4.000000,4.000000,4.000000,4.000000,4.000000,4.000000,4.000000,4.000000,4.000000,4.000000,100.000000,,,,,,,,,,,,,,,,
1644853852.555782,1644853852.568183,20.000000,0.000000,4208.333496,4200.897461,4210.000000,4219.358887,4222.436035,4232.436035,4227.051270,4219.487305,4221.922852,4232.563965,4210.641113,4210.769043,4228.589844,4227.051270,3259.000000,4.000000,86.000000,,,,0.000000,4.000000,4.000000,4.000000,4.000000,4.000000,4.000000,4.000000,4.000000,4.000000,4.000000,4.000000,4.000000,4.000000,4.000000,100.000000,,,,,,,,,,,,,,,,
1644853852.559722,1644853852.572124,21.000000,0.000000,4209.615234,4202.436035,4210.641113,4231.410156,4223.846191,4233.461426,4227.051270,4222.948730,4222.948730,4238.974121,4208.205078,4206.922852,4233.846191,4221.666504,3523.000000,4.000000,86.000000,,,,0.000000,4.000000,4.000000,4.000000,4.000000,4.000000,4.000000,4.000000,4.000000,4.000000,4.000000,4.000000,4.000000,4.000000,4.000000,100.000000,,,,,,,,,,,,,,,,
1644853852.563662,1644853852.576064,22.000000,0.000000,4212.692383,4205.641113,4208.846191,4234.615234,4218.461426,4234.230957,4224.487305,4224.487305,4223.205078,4240.000000,4206.410156,4204.102539,4236.666504,4213.846191,3537.000000,4.000000,86.000000,,,,0.000000,4.000000,4.000000,4.000000,4.000000,4.000000,4.000000,4.000000,4.000000,4.000000,4.000000,4.000000,4.000000,4.000000,4.000000,100.000000,1.000000,100.000000,4.000000,4.000000,4.000000,4.000000,4.000000,4.000000,4.000000,4.000000,4.000000,4.000000,4.000000,4.000000,4.000000,4.000000
1644853852.567602,1644853852.580004,23.000000,0.000000,4215.512695,4207.948730,4207.692383,4229.358887,4210.897461,4233.974121,4221.922852,4224.230957,4223.333496,4236.282227,4210.000000,4205.128418,4235.641113,4211.282227,2496.000000,4.000000,86.000000,,,,0.000000,4.000000,4.000000,4.000000,4.000000,4.000000,4.000000,4.000000,4.000000,4.000000,4.000000,4.000000,4.000000,4.000000,4.000000,100.000000,,,,,,,,,,,,,,,,
1644853852.571542,1644853852.584044,24.000000,0.000000,4217.563965,4209.230957,4209.743652,4220.769043,4206.025879,4233.205078,4220.769043,4223.974121,4224.871582,4231.282227,4220.256348,4211.282227,4231.922852,4216.922852,3259.000000,4.000000,86.000000,,,,0.000000,4.000000,4.000000,4.000000,4.000000,4.000000,4.000000,4.000000,4.000000,4.000000,4.000000,4.000000,4.000000,4.000000,4.000000,100.000000,,,,,,,,,,,,,,,,
1644853852.575482,1644853852.587984,25.000000,0.000000,4221.282227,4211.410156,4214.871582,4214.358887,4205.897461,4232.436035,4220.897461,4225.000000,4228.461426,4228.333496,4233.846191,4221.410156,4228.077148,4226.794922,3523.000000,4.000000,86.000000,,,,0.000000,4.000000,4.000000,4.000000,4.000000,4.000000,4.000000,4.000000,4.000000,4.000000,4.000000,4.000000,4.000000,4.000000,4.000000,100.000000,,,,,,,,,,,,,,,,
1644853852.579423,1644853852.591924,26.000000,0.000000,4228.205078,4216.922852,4220.128418,4212.179688,4208.846191,4232.692383,4220.897461,4226.794922,4232.948730,4229.102539,4243.717773,4232.051270,4226.410156,4233.717773,3537.000000,4.000000,86.000000,,,,0.000000,4.000000,4.000000,4.000000,4.000000,4.000000,4.000000,4.000000,4.000000,4.000000,4.000000,4.000000,4.000000,4.000000,4.000000,100.000000,,,,,,,,,,,,,,,,
1644853852.583362,1644853852.595764,27.000000,0.000000,4236.922852,4224.487305,4222.692383,4213.589844,4211.538574,4234.487305,4221.153809,4228.077148,4236.025879,4232.948730,4245.128418,4238.974121,4228.461426,4233.974121,2496.000000,4.000000,86.000000,,,,0.000000,4.000000,4.000000,4.000000,4.000000,4.000000,4.000000,4.000000,4.000000,4.000000,4.000000,4.000000,4.000000,4.000000,4.000000,100.000000,,,,,,,,,,,,,,,,
1644853852.587303,1644853852.599704,28.000000,0.000000,4242.051270,4229.743652,4222.179688,4217.307617,4211.410156,4237.436035,4222.948730,4228.333496,4235.897461,4237.948730,4238.846191,4238.974121,4233.846191,4229.230957,3259.000000,4.000000,86.000000,,,,0.000000,4.000000,4.000000,4.000000,4.000000,4.000000,4.000000,4.000000,4.000000,4.000000,4.000000,4.000000,4.000000,4.000000,4.000000,100.000000,,,,,,,,,,,,,,,,
1644853852.591243,1644853852.603644,29.000000,0.000000,4239.358887,4228.846191,4219.487305,4222.820313,4209.487305,4240.000000,4226.025879,4227.820313,4232.820313,4242.436035,4230.256348,4232.820313,4241.025879,4224.102539,3523.000000,4.000000,86.000000,,,,0.000000,4.000000,4.000000,4.000000,4.000000,4.000000,4.000000,4.000000,4.000000,4.000000,4.000000,4.000000,4.000000,4.000000,4.000000,100.000000,,,,,,,,,,,,,,,,
1644853852.595183,1644853852.607585,30.000000,0.000000,4229.871582,4221.922852,4215.897461,4229.487305,4208.846191,4240.256348,4228.077148,4226.794922,4228.974121,4246.410156,4225.000000,4223.717773,4247.179688,4222.179688,3537.000000,4.000000,86.000000,,,,0.000000,4.000000,4.000000,4.000000,4.000000,4.000000,4.000000,4.000000,4.000000,4.000000,4.000000,4.000000,4.000000,4.000000,4.000000,100.000000,,,,,,,,,,,,,,,,
1644853852.599123,1644853852.611525,31.000000,0.000000,4218.846191,4213.205078,4211.922852,4234.358887,4211.410156,4237.820313,4226.922852,4224.743652,4226.410156,4249.615234,4225.000000,4215.000000,4249.871582,4224.615234,2496.000000,4.000000,86.000000,,,,0.000000,4.000000,4.000000,4.000000,4.000000,4.000000,4.000000,4.000000,4.000000,4.000000,4.000000,4.000000,4.000000,4.000000,4.000000,100.000000,,,,,,,,,,,,,,,,
1644853852.603063,1644853852.615465,32.000000,0.000000,4211.922852,4207.563965,4207.948730,4233.974121,4215.512695,4234.615234,4223.589844,4221.922852,4225.000000,4251.153809,4227.820313,4208.205078,4247.307617,4229.487305,0.000000,4.000000,86.000000,,,,0.000000,4.000000,4.000000,4.000000,4.000000,4.000000,4.000000,4.000000,4.000000,4.000000,4.000000,4.000000,4.000000,4.000000,4.000000,100.000000,,,,,,,,,,,,,,,,
1644853852.607003,1644853852.619405,33.000000,0.000000,4210.256348,4206.410156,4204.615234,4226.666504,4217.307617,4233.589844,4221.538574,4219.230957,4223.589844,4248.846191,4229.487305,4203.461426,4240.000000,4232.692383,0.000000,4.000000,86.000000,,,,0.000000,4.000000,4.000000,4.000000,4.000000,4.000000,4.000000,4.000000,4.000000,4.000000,4.000000,4.000000,4.000000,4.000000,4.000000,100.000000,,,,,,,,,,,,,,,,
1644853852.610943,1644853852.623345,34.000000,0.000000,4211.025879,4208.205078,4202.307617,4215.641113,4215.128418,4236.153809,4222.563965,4217.948730,4221.410156,4242.051270,4227.307617,4200.512695,4230.256348,4230.128418,0.000000,4.000000,86.000000,,,,0.000000,4.000000,4.000000,4.000000,4.000000,4.000000,4.000000,4.000000,4.000000,4.000000,4.000000,4.000000,4.000000,4.000000,4.000000,100.000000,,,,,,,,,,,,,,,,
1644853852.614883,1644853852.627185,35.000000,0.000000,4210.512695,4210.128418,4200.128418,4207.436035,4211.410156,4240.641113,4225.256348,4218.717773,4219.615234,4232.948730,4220.897461,4199.743652,4221.153809,4221.282227,0.000000,4.000000,86.000000,,,,0.000000,4.000000,4.000000,4.000000,4.000000,4.000000,4.000000,4.000000,4.000000,4.000000,4.000000,4.000000,4.000000,4.000000,4.000000,100.000000,,,,,,,,,,,,,,,,
1644853852.618823,1644853852.631125,36.000000,0.000000,4208.077148,4210.897461,4197.692383,4207.948730,4209.743652,4243.717773,4226.410156,4220.769043,4219.615234,4225.897461,4212.051270,4201.410156,4215.769043,4211.025879,0.000000,4.000000,86.000000,,,,0.000000,4.000000,4.000000,4.000000,4.000000,4.000000,4.000000,4.000000,4.000000,4.000000,4.000000,4.000000,4.000000,4.000000,4.000000,100.000000,,,,,,,,,,,,,,,,
1644853852.622763,1644853852.635065,37.000000,0.000000,4206.410156,4211.153809,4195.769043,4217.307617,4210.897461,4243.077148,4225.128418,4223.589844,4221.282227,4223.589844,4203.461426,4204.871582,4215.769043,4206.794922,0.000000,4.000000,86.000000,,,,0.000000,4.000000,4.000000,4.000000,4.000000,4.000000,4.000000,4.000000,4.000000,4.000000,4.000000,4.000000,4.000000,4.000000,4.000000,100.000000,,,,,,,,,,,,,,,,
1644853852.626703,1644853852.639005,38.000000,0.000000,4208.461426,4212.051270,4195.769043,4228.333496,4211.794922,4239.358887,4223.717773,4226.282227,4223.461426,4225.512695,4199.102539,4209.230957,4220.769043,4212.307617,0.000000,4.000000,86.000000,,,,0.000000,4.000000,4.000000,4.000000,4.000000,4.000000,4.000000,4.000000,4.000000,4.000000,4.000000,4.000000,4.000000,4.000000,4.000000,100.000000,,,,,,,,,,,,,,,,
1644853852.630643,1644853852.642946,39.000000,0.000000,4213.717773,4213.333496,4198.717773,4231.922852,4209.615234,4235.641113,4224.102539,4227.436035,4224.743652,4229.230957,4201.794922,4213.717773,4228.717773,4223.974121,0.000000,4.000000,86.000000,,,,0.000000,4.000000,4.000000,4.000000,4.000000,4.000000,4.000000,4.000000,4.000000,4.000000,4.000000,4.000000,4.000000,4.000000,4.000000,100.000000,,,,,,,,,,,,,,,,
1644853852.634583,1644853852.646886,40.000000,0.000000,4217.179688,4213.846191,4203.333496,4224.102539,4204.615234,4234.230957,4226.025879,4226.794922,4225.128418,4233.205078,4211.282227,4217.436035,4237.051270,4233.333496,0.000000,4.000000,86.000000,,,,0.000000,4.000000,4.000000,4.000000,4.000000,4.000000,4.000000,4.000000,4.000000,4.000000,4.000000,4.000000,4.000000,4.000000,4.000000,100.000000,,,,,,,,,,,,,,,,
1644853852.638523,1644853852.650826,41.000000,0.000000,4215.128418,4212.307617,4207.307617,4209.358887,4200.769043,4235.000000,4227.179688,4225.128418,4225.769043,4237.436035,4223.589844,4219.487305,4242.692383,4234.871582,0.000000,4.000000,86.000000,,,,0.000000,4.000000,4.000000,4.000000,4.000000,4.000000,4.000000,4.000000,4.000000,4.000000,4.000000,4.000000,4.000000,4.000000,4.000000,100.000000,,,,,,,,,,,,,,,,
1644853852.642463,1644853852.654766,42.000000,0.000000,4208.461426,4209.487305,4208.846191,4197.820313,4201.410156,4235.769043,4226.410156,4224.358887,4227.563965,4242.179688,4233.077148,4219.230957,4243.205078,4230.384766,0.000000,4.000000,86.000000,,,,0.000000,4.000000,4.000000,4.000000,4.000000,4.000000,4.000000,4.000000,4.000000,4.000000,4.000000,4.000000,4.000000,4.000000,4.000000,100.000000,,,,,,,,,,,,,,,,
1644853852.646403,1644853852.658706,43.000000,0.000000,4202.051270,4207.436035,4207.436035,4197.948730,4207.051270,4234.102539,4225.512695,4226.153809,4229.615234,4245.897461,4236.538574,4217.179688,4237.948730,4225.897461,0.000000,4.000000,86.000000,,,,0.000000,4.000000,4.000000,4.000000,4.000000,4.000000,4.000000,4.000000,4.000000,4.000000,4.000000,4.000000,4.000000,4.000000,4.000000,100.000000,,,,,,,,,,,,,,,,
1644853852.650343,1644853852.662646,44.000000,0.000000,4200.897461,4208.205078,4204.230957,4211.153809,4215.128418,4230.897461,4226.410156,4229.871582,4230.384766,4246.666504,4235.641113,4215.512695,4229.871582,4225.384766,0.000000,4.000000,86.000000,,,,0.000000,4.000000,4.000000,4.000000,4.000000,4.000000,4.000000,4.000000,4.000000,4.000000,4.000000,4.000000,4.000000,4.000000,4.000000,100.000000,,,,,,,,,,,,,,,,
1644853852.654283,1644853852.666586,45.000000,0.000000,4205.512695,4211.410156,4201.538574,4229.871582,4222.436035,4229.230957,4228.846191,4233.077148,4228.974121,4243.974121,4234.230957,4216.153809,4224.102539,4227.436035,0.000000,4.000000,86.000000,,,,0.000000,4.000000,4.000000,4.000000,4.000000,4.000000,4.000000,4.000000,4.000000,4.000000,4.000000,4.000000,4.000000,4.000000,4.000000,100.000000,,,,,,,,,,,,,,,,
1644853852.658223,1644853852.670526,46.000000,0.000000,4212.436035,4215.512695,4201.666504,4242.436035,4226.153809,4230.641113,4230.641113,4233.846191,4226.794922,4238.846191,4233.846191,4219.230957,4223.717773,4228.077148,0.000000,4.000000,86.000000,,,,0.000000,4.000000,4.000000,4.000000,4.000000,4.000000,4.000000,4.000000,4.000000,4.000000,4.000000,4.000000,4.000000,4.000000,4.000000,100.000000,,,,,,,,,,,,,,,,
1644853852.662163,1644853852.674466,47.000000,0.000000,4217.307617,4218.205078,4205.769043,4241.025879,4225.256348,4233.461426,4230.256348,4232.051270,4225.769043,4232.948730,4232.436035,4222.051270,4227.563965,4225.384766,0.000000,4.000000,86.000000,,,,0.000000,4.000000,4.000000,4.000000,4.000000,4.000000,4.000000,4.000000,4.000000,4.000000,4.000000,4.000000,4.000000,4.000000,4.000000,100.000000,,,,,,,,,,,,,,,,
1644853852.666103,1644853852.678407,48.000000,0.000000,4219.358887,4218.461426,4212.307617,4227.563965,4220.256348,4234.743652,4228.589844,4229.358887,4226.410156,4227.820313,4226.922852,4221.922852,4230.512695,4221.922852,0.000000,4.000000,86.000000,,,,0.000000,4.000000,4.000000,4.000000,4.000000,4.000000,4.000000,4.000000,4.000000,4.000000,4.000000,4.000000,4.000000,4.000000,4.000000,100.000000,,,,,,,,,,,,,,,,
1644853852.670043,1644853852.682347,49.000000,0.000000,4220.897461,4217.179688,4217.692383,4213.589844,4213.333496,4233.461426,4227.563965,4228.077148,4228.077148,4225.256348,4218.589844,4218.333496,4229.743652,4221.666504,0.000000,4.000000,86.000000,,,,0.000000,4.000000,4.000000,4.000000,4.000000,4.000000,4.000000,4.000000,4.000000,4.000000,4.000000,4.000000,4.000000,4.000000,4.000000,100.000000,,,,,,,,,,,,,,,,
1644853852.673983,1644853852.686287,50.000000,0.000000,4224.615234,4216.282227,4219.487305,4211.794922,4208.333496,4231.922852,4227.692383,4228.589844,4229.743652,4227.820313,4212.436035,4213.974121,4227.436035,4226.410156,0.000000,4.000000,86.000000,,,,0.000000,4.000000,4.000000,4.000000,4.000000,4.000000,4.000000,4.000000,4.000000,4.000000,4.000000,4.000000,4.000000,4.000000,4.000000,100.000000,,,,,,,,,,,,,,,,
1644853852.677923,1644853852.690227,51.000000,0.000000,4229.615234,4217.563965,4218.077148,4225.256348,4209.102539,4233.333496,4227.948730,4229.487305,4230.769043,4236.025879,4212.948730,4212.563965,4229.230957,4234.230957,0.000000,4.000000,86.000000,,,,0.000000,4.000000,4.000000,4.000000,4.000000,4.000000,4.000000,4.000000,4.000000,4.000000,4.000000,4.000000,4.000000,4.000000,4.000000,100.000000,,,,,,,,,,,,,,,,
1644853852.681863,1644853852.694167,52.000000,0.000000,4231.794922,4220.769043,4216.025879,4242.563965,4216.538574,4238.077148,4228.205078,4228.846191,4231.153809,4246.666504,4219.102539,4216.025879,4237.563965,4241.282227,0.000000,4.000000,86.000000,,,,0.000000,4.000000,4.000000,4.000000,4.000000,4.000000,4.000000,4.000000,4.000000,4.000000,4.000000,4.000000,4.000000,4.000000,4.000000,100.000000,,,,,,,,,,,,,,,,
1644853852.685804,1644853852.698007,53.000000,0.000000,4228.205078,4223.846191,4215.641113,4246.666504,4225.897461,4242.692383,4228.974121,4226.410156,4230.897461,4254.358887,4225.641113,4222.692383,4248.974121,4244.487305,0.000000,4.000000,86.000000,,,,0.000000,4.000000,4.000000,4.000000,4.000000,4.000000,4.000000,4.000000,4.000000,4.000000,4.000000,4.000000,4.000000,4.000000,4.000000,100.000000,,,,,,,,,,,,,,,,
1644853852.689743,1644853852.701947,54.000000,0.000000,4219.743652,4223.974121,4216.922852,4229.615234,4230.641113,4243.589844,4230.128418,4223.333496,4229.487305,4254.615234,4228.077148,4227.948730,4255.256348,4243.077148,0.000000,4.000000,86.000000,,,,0.000000,4.000000,4.000000,4.000000,4.000000,4.000000,4.000000,4.000000,4.000000,4.000000,4.000000,4.000000,4.000000,4.000000,4.000000,100.000000,,,,,,,,,,,,,,,,
1644853852.693684,1644853852.705887,55.000000,0.000000,4211.153809,4220.256348,4218.205078,4200.128418,4227.563965,4239.871582,4230.128418,4221.153809,4227.051270,4247.436035,4227.051270,4227.948730,4250.512695,4237.692383,0.000000,4.000000,86.000000,,,,0.000000,4.000000,4.000000,4.000000,4.000000,4.000000,4.000000,4.000000,4.000000,4.000000,4.000000,4.000000,4.000000,4.000000,4.000000,100.000000,,,,,,,,,,,,,,,,
1644853852.697624,1644853852.709827,56.000000,0.000000,4207.436035,4214.871582,4217.692383,4178.846191,4218.846191,4233.974121,4227.051270,4220.512695,4224.358887,4236.666504,4227.307617,4222.692383,4236.282227,4230.384766,0.000000,4.000000,86.000000,,,,0.000000,4.000000,4.000000,4.000000,4.000000,4.000000,4.000000,4.000000,4.000000,4.000000,4.000000,4.000000,4.000000,4.000000,4.000000,100.000000,,,,,,,,,,,,,,,,
1644853852.701563,1644853852.713768,57.000000,0.000000,4209.743652,4210.512695,4214.871582,4182.051270,4210.000000,4229.487305,4222.179688,4221.282227,4222.307617,4227.436035,4231.025879,4216.794922,4220.641113,4223.974121,0.000000,4.000000,86.000000,,,,0.000000,4.000000,4.000000,4.000000,4.000000,4.000000,4.000000,4.000000,4.000000,4.000000,4.000000,4.000000,4.000000,4.000000,4.000000,100.000000,,,,,,,,,,,,,,,,
1644853852.705504,1644853852.717708,58.000000,0.000000,4215.641113,4208.589844,4211.153809,4208.589844,4206.666504,4228.461426,4218.974121,4222.436035,4221.282227,4223.205078,4234.871582,4214.743652,4212.820313,4220.897461,0.000000,4.000000,86.000000,,,,0.000000,4.000000,4.000000,4.000000,4.000000,4.000000,4.000000,4.000000,4.000000,4.000000,4.000000,4.000000,4.000000,4.000000,4.000000,100.000000,,,,,,,,,,,,,,,,
1644853852.709444,1644853852.721648,59.000000,0.000000,4220.641113,4208.846191,4208.589844,4240.512695,4210.897461,4230.384766,4219.615234,4222.948730,4221.410156,4224.487305,4233.846191,4217.307617,4217.692383,4221.538574,0.000000,4.000000,86.000000,,,,0.000000,4.000000,4.000000,4.000000,4.000000,4.000000,4.000000,4.000000,4.000000,4.000000,4.000000,4.000000,4.000000,4.000000,4.000000,100.000000,,,,,,,,,,,,,,,,
1644853852.713384,1644853852.725588,60.000000,0.000000,4222.563965,4209.743652,4208.461426,4256.666504,4220.256348,4233.077148,4222.692383,4222.820313,4222.563965,4228.589844,4227.179688,4221.538574,4232.307617,4224.230957,0.000000,4.000000,86.000000,,,,0.000000,4.000000,4.000000,4.000000,4.000000,4.000000,4.000000,4.000000,4.000000,4.000000,4.000000,4.000000,4.000000,4.000000,4.000000,100.000000,,,,,,,,,,,,,,,,
1644853852.717324,1644853852.729528,61.000000,0.000000,4222.051270,4209.743652,4210.000000,4248.974121,4228.205078,4234.358887,4224.615234,4222.692383,4224.487305,4232.307617,4220.384766,4223.077148,4248.205078,4226.410156,0.000000,4.000000,86.000000,,,,0.000000,4.000000,4.000000,4.000000,4.000000,4.000000,4.000000,4.000000,4.000000,4.000000,4.000000,4.000000,4.000000,4.000000,4.000000,100.000000,,,,,,,,,,,,,,,,
1644853852.721264,1644853852.733468,62.000000,0.000000,4220.769043,4208.333496,4211.282227,4227.563965,4228.717773,4234.230957,4223.974121,4223.846191,4226.922852,4234.487305,4219.871582,4220.897461,4257.051270,4227.051270,0.000000,4.000000,86.000000,,,,0.000000,4.000000,4.000000,4.000000,4.000000,4.000000,4.000000,4.000000,4.000000,4.000000,4.000000,4.000000,4.000000,4.000000,4.000000,100.000000,,,,,,,,,,,,,,,,
1644853852.725204,1644853852.737408,63.000000,0.000000,4219.230957,4206.666504,4211.282227,4211.025879,4221.538574,4233.846191,4222.948730,4226.794922,4229.230957,4236.538574,4227.436035,4217.179688,4255.769043,4227.307617,0.000000,4.000000,86.000000,,,,0.000000,4.000000,4.000000,4.000000,4.000000,4.000000,4.000000,4.000000,4.000000,4.000000,4.000000,4.000000,4.000000,4.000000,4.000000,100.000000,,,,,,,,,,,,,,,,
1644853852.729144,1644853852.741348,64.000000,0.000000,4217.179688,4206.282227,4210.512695,4210.512695,4213.077148,4233.974121,4224.230957,4230.641113,4230.897461,4240.897461,4238.333496,4214.743652,4247.179688,4228.846191,0.000000,4.000000,86.000000,,,,0.000000,4.000000,4.000000,4.000000,4.000000,4.000000,4.000000,4.000000,4.000000,4.000000,4.000000,4.000000,4.000000,4.000000,4.000000,100.000000,,,,,,,,,,,,,,,,
1644853852.733084,1644853852.745288,65.000000,0.000000,4214.743652,4208.717773,4209.871582,4221.666504,4210.641113,4234.358887,4227.051270,4233.333496,4232.051270,4247.692383,4246.282227,4214.871582,4237.179688,4231.922852,0.000000,4.000000,86.000000,,,,0.000000,4.000000,4.000000,4.000000,4.000000,4.000000,4.000000,4.000000,4.000000,4.000000,4.000000,4.000000,4.000000,4.000000,4.000000,100.000000,,,,,,,,,,,,,,,,
1644853852.737024,1644853852.749229,66.000000,0.000000,4213.717773,4213.333496,4209.487305,4230.769043,4215.641113,4233.589844,4228.205078,4233.333496,4233.077148,4253.589844,4248.077148,4216.410156,4230.512695,4235.641113,0.000000,4.000000,86.000000,,,,0.000000,4.000000,4.000000,4.000000,4.000000,4.000000,4.000000,4.000000,4.000000,4.000000,4.000000,4.000000,4.000000,4.000000,4.000000,100.000000,,,,,,,,,,,,,,,,
1644853852.740964,1644853852.753169,67.000000,0.000000,4216.410156,4217.179688,4209.102539,4229.487305,4223.077148,4231.538574,4226.410156,4231.538574,4233.974121,4254.102539,4244.615234,4217.436035,4229.487305,4238.589844,0.000000,4.000000,86.000000,,,,0.000000,4.000000,4.000000,4.000000,4.000000,4.000000,4.000000,4.000000,4.000000,4.000000,4.000000,4.000000,4.000000,4.000000,4.000000,100.000000,,,,,,,,,,,,,,,,
1644853852.744904,1644853852.757109,68.000000,0.000000,4223.205078,4217.820313,4209.358887,4221.410156,4226.282227,4229.615234,4223.589844,4229.871582,4235.128418,4248.205078,4238.589844,4217.563965,4233.333496,4240.256348,0.000000,4.000000,86.000000,,,,0.000000,4.000000,4.000000,4.000000,4.000000,4.000000,4.000000,4.000000,4.000000,4.000000,4.000000,4.000000,4.000000,4.000000,4.000000,100.000000,,,,,,,,,,,,,,,,
1644853852.748844,1644853852.761149,69.000000,0.000000,4232.179688,4215.641113,4210.897461,4217.051270,4223.589844,4229.358887,4223.077148,4230.000000,4236.153809,4239.358887,4230.512695,4217.051270,4240.000000,4240.256348,0.000000,4.000000,86.000000,,,,0.000000,4.000000,4.000000,4.000000,4.000000,4.000000,4.000000,4.000000,4.000000,4.000000,4.000000,4.000000,4.000000,4.000000,4.000000,100.000000,,,,,,,,,,,,,,,,
1644853852.752784,1644853852.765089,70.000000,0.000000,4238.461426,4213.589844,4213.077148,4221.922852,4219.102539,4231.153809,4225.000000,4231.153809,4237.051270,4233.717773,4219.615234,4215.769043,4246.025879,4237.436035,0.000000,4.000000,86.000000,,,,0.000000,4.000000,4.000000,4.000000,4.000000,4.000000,4.000000,4.000000,4.000000,4.000000,4.000000,4.000000,4.000000,4.000000,4.000000,100.000000,,,,,,,,,,,,,,,,
1644853852.756724,1644853852.769029,71.000000,0.000000,4237.692383,4213.717773,4213.974121,4230.769043,4216.922852,4233.077148,4226.666504,4230.897461,4237.307617,4235.256348,4208.077148,4212.436035,4248.461426,4231.282227,0.000000,4.000000,86.000000,,,,0.000000,4.000000,4.000000,4.000000,4.000000,4.000000,4.000000,4.000000,4.000000,4.000000,4.000000,4.000000,4.000000,4.000000,4.000000,100.000000,,,,,,,,,,,,,,,,
1644853852.760664,1644853852.772969,72.000000,0.000000,4228.589844,4215.384766,4211.922852,4233.333496,4217.051270,4233.846191,4225.512695,4228.333496,4236.794922,4241.922852,4202.179688,4206.794922,4245.897461,4223.846191,0.000000,4.000000,86.000000,,,,0.000000,4.000000,4.000000,4.000000,4.000000,4.000000,4.000000,4.000000,4.000000,4.000000,4.000000,4.000000,4.000000,4.000000,4.000000,100.000000,,,,,,,,,,,,,,,,
1644853852.764604,1644853852.776909,73.000000,0.000000,4214.230957,4216.538574,4207.948730,4224.615234,4216.922852,4233.205078,4222.436035,4225.000000,4235.384766,4247.692383,4208.846191,4200.256348,4239.102539,4219.358887,0.000000,4.000000,86.000000,,,,0.000000,4.000000,4.000000,4.000000,4.000000,4.000000,4.000000,4.000000,4.000000,4.000000,4.000000,4.000000,4.000000,4.000000,4.000000,100.000000,,,,,,,,,,,,,,,,
1644853852.768544,1644853852.780849,74.000000,0.000000,4201.794922,4216.282227,4205.641113,4210.000000,4215.256348,4232.563965,4220.512695,4222.563965,4232.948730,4247.179688,4226.410156,4196.153809,4231.410156,4219.743652,0.000000,4.000000,86.000000,,,,0.000000,4.000000,4.000000,4.000000,4.000000,4.000000,4.000000,4.000000,4.000000,4.000000,4.000000,4.000000,4.000000,4.000000,4.000000,100.000000,,,,,,,,,,,,,,,,
1644853852.772484,1644853852.784789,75.000000,0.000000,4198.205078,4216.282227,4207.179688,4201.282227,4214.871582,4233.077148,4221.153809,4221.410156,4229.615234,4240.641113,4244.230957,4196.410156,4226.794922,4222.563965,0.000000,4.000000,86.000000,,,,0.000000,4.000000,4.000000,4.000000,4.000000,4.000000,4.000000,4.000000,4.000000,4.000000,4.000000,4.000000,4.000000,4.000000,4.000000,100.000000,,,,,,,,,,,,,,,,
1644853852.776424,1644853852.788729,76.000000,0.000000,4205.000000,4218.333496,4211.025879,4205.512695,4217.820313,4234.230957,4222.563965,4220.641113,4226.410156,4233.974121,4250.512695,4199.871582,4226.922852,4223.589844,0.000000,4.000000,86.000000,,,,0.000000,4.000000,4.000000,4.000000,4.000000,4.000000,4.000000,4.000000,4.000000,4.000000,4.000000,4.000000,4.000000,4.000000,4.000000,100.000000,,,,,,,,,,,,,,,,
1644853852.780364,1644853852.792670,77.000000,0.000000,4218.077148,4221.410156,4214.358887,4219.487305,4223.205078,4234.487305,4222.179688,4218.974121,4223.461426,4232.948730,4242.307617,4202.820313,4230.384766,4221.538574,0.000000,4.000000,86.000000,,,,0.000000,4.000000,4.000000,4.000000,4.000000,4.000000,4.000000,4.000000,4.000000,4.000000,4.000000,4.000000,4.000000,4.000000,4.000000,100.000000,,,,,,,,,,,,,,,,
1644853852.784304,1644853852.796610,78.000000,0.000000,4230.641113,4222.307617,4215.128418,4233.333496,4227.436035,4233.333496,4220.128418,4216.666504,4220.897461,4238.333496,4227.179688,4202.820313,4233.077148,4219.871582,0.000000,4.000000,86.000000,,,,0.000000,4.000000,4.000000,4.000000,4.000000,4.000000,4.000000,4.000000,4.000000,4.000000,4.000000,4.000000,4.000000,4.000000,4.000000,100.000000,,,,,,,,,,,,,,,,
1644853852.788244,1644853852.800550,79.000000,0.000000,4237.051270,4218.974121,4213.461426,4238.205078,4227.307617,4231.282227,4218.589844,4215.000000,4218.846191,4244.358887,4216.153809,4200.384766,4231.794922,4222.179688,0.000000,4.000000,86.000000,,,,0.000000,4.000000,4.000000,4.000000,4.000000,4.000000,4.000000,4.000000,4.000000,4.000000,4.000000,4.000000,4.000000,4.000000,4.000000,100.000000,,,,,,,,,,,,,,,,
1644853852.792184,1644853852.804490,80.000000,0.000000,4235.512695,4213.846191,4211.025879,4234.102539,4223.077148,4230.128418,4218.974121,4215.384766,4218.333496,4245.384766,4214.743652,4198.589844,4227.563965,4227.051270,0.000000,4.000000,86.000000,,,,0.000000,4.000000,4.000000,4.000000,4.000000,4.000000,4.000000,4.000000,4.000000,4.000000,4.000000,4.000000,4.000000,4.000000,4.000000,100.000000,,,,,,,,,,,,,,,,
1644853852.796124,1644853852.808430,81.000000,0.000000,4228.077148,4211.538574,4209.743652,4228.846191,4219.487305,4230.897461,4220.769043,4217.820313,4220.128418,4241.025879,4219.487305,4200.641113,4224.871582,4229.743652,0.000000,4.000000,86.000000,,,,0.000000,4.000000,4.000000,4.000000,4.000000,4.000000,4.000000,4.000000,4.000000,4.000000,4.000000,4.000000,4.000000,4.000000,4.000000,100.000000,,,,,,,,,,,,,,,,
1644853852.800064,1644853852.812370,82.000000,0.000000,4219.102539,4215.512695,4210.769043,4230.641113,4222.436035,4233.333496,4222.179688,4220.512695,4224.358887,4236.922852,4224.615234,4207.051270,4227.692383,4227.563965,0.000000,4.000000,86.000000,,,,0.000000,4.000000,4.000000,4.000000,4.000000,4.000000,4.000000,4.000000,4.000000,4.000000,4.000000,4.000000,4.000000,4.000000,4.000000,100.000000,,,,,,,,,,,,,,,,
1644853852.804005,1644853852.816310,83.000000,0.000000,4213.077148,4224.358887,4214.102539,4239.871582,4232.179688,4235.641113,4223.205078,4222.051270,4229.358887,4238.205078,4227.307617,4215.769043,4236.410156,4223.077148,0.000000,4.000000,86.000000,,,,0.000000,4.000000,4.000000,4.000000,4.000000,4.000000,4.000000,4.000000,4.000000,4.000000,4.000000,4.000000,4.000000,4.000000,4.000000,100.000000,,,,,,,,,,,,,,,,
1644853852.807944,1644853852.820250,84.000000,0.000000,4212.436035,4232.692383,4218.717773,4248.846191,4241.538574,4236.410156,4224.487305,4222.179688,4232.692383,4244.615234,4229.487305,4222.820313,4246.410156,4221.410156,0.000000,4.000000,86.000000,,,,0.000000,4.000000,4.000000,4.000000,4.000000,4.000000,4.000000,4.000000,4.000000,4.000000,4.000000,4.000000,4.000000,4.000000,4.000000,100.000000,,,,,,,,,,,,,,,,
1644853852.811885,1644853852.824190,85.000000,0.000000,4217.051270,4234.615234,4221.794922,4249.358887,4240.641113,4235.384766,4226.025879,4221.794922,4232.307617,4250.641113,4233.589844,4224.615234,4251.538574,4224.102539,0.000000,4.000000,86.000000,,,,0.000000,4.000000,4.000000,4.000000,4.000000,4.000000,4.000000,4.000000,4.000000,4.000000,4.000000,4.000000,4.000000,4.000000,4.000000,100.000000,,,,,,,,,,,,,,,,
1644853852.815825,1644853852.828131,86.000000,0.000000,4223.333496,4227.948730,4221.025879,4240.128418,4226.922852,4233.461426,4225.641113,4221.410156,4228.717773,4251.025879,4238.717773,4220.897461,4248.846191,4227.820313,0.000000,4.000000,86.000000,,,,0.000000,4.000000,4.000000,4.000000,4.000000,4.000000,4.000000,4.000000,4.000000,4.000000,4.000000,4.000000,4.000000,4.000000,4.000000,100.000000,,,,,,,,,,,,,,,,
1644853852.819765,1644853852.832071,87.000000,0.000000,4227.179688,4216.666504,4216.794922,4227.179688,4208.846191,4231.922852,4222.563965,4221.025879,4224.102539,4245.000000,4241.410156,4215.000000,4240.641113,4228.077148,0.000000,4.000000,86.000000,,,,0.000000,4.000000,4.000000,4.000000,4.000000,4.000000,4.000000,4.000000,4.000000,4.000000,4.000000,4.000000,4.000000,4.000000,4.000000,100.000000,,,,,,,,,,,,,,,,
1644853852.823705,1644853852.836011,88.000000,0.000000,4226.666504,4208.205078,4211.794922,4217.948730,4199.871582,4231.153809,4218.717773,4220.641113,4221.538574,4236.666504,4238.846191,4211.025879,4233.077148,4223.717773,0.000000,4.000000,86.000000,,,,0.000000,4.000000,4.000000,4.000000,4.000000,4.000000,4.000000,4.000000,4.000000,4.000000,4.000000,4.000000,4.000000,4.000000,4.000000,100.000000,,,,,,,,,,,,,,,,
1644853852.827645,1644853852.839951,89.000000,0.000000,4222.563965,4208.589844,4209.487305,4215.641113,4207.051270,4231.025879,4217.820313,4220.512695,4222.179688,4232.563965,4232.307617,4211.282227,4231.282227,4218.077148,0.000000,4.000000,86.000000,,,,0.000000,4.000000,4.000000,4.000000,4.000000,4.000000,4.000000,4.000000,4.000000,4.000000,4.000000,4.000000,4.000000,4.000000,4.000000,100.000000,,,,,,,,,,,,,,,,
1644853852.831585,1644853852.843891,90.000000,0.000000,4218.589844,4217.563965,4211.538574,4219.615234,4225.641113,4231.282227,4221.282227,4221.025879,4224.871582,4235.384766,4227.179688,4213.974121,4235.769043,4215.384766,0.000000,4.000000,86.000000,,,,0.000000,4.000000,4.000000,4.000000,4.000000,4.000000,4.000000,4.000000,4.000000,4.000000,4.000000,4.000000,4.000000,4.000000,4.000000,100.000000,,,,,,,,,,,,,,,,
1644853852.835525,1644853852.847831,91.000000,0.000000,4218.717773,4228.717773,4216.410156,4227.307617,4243.717773,4231.538574,4225.897461,4222.179688,4227.563965,4242.179688,4228.205078,4216.153809,4242.436035,4217.820313,0.000000,4.000000,86.000000,,,,0.000000,4.000000,4.000000,4.000000,4.000000,4.000000,4.000000,4.000000,4.000000,4.000000,4.000000,4.000000,4.000000,4.000000,4.000000,100.000000,,,,,,,,,,,,,,,,
1644853852.839465,1644853852.851771,92.000000,0.000000,4224.230957,4235.897461,4221.538574,4235.128418,4252.692383,4232.051270,4227.563965,4222.692383,4228.077148,4246.410156,4234.743652,4215.641113,4246.282227,4224.871582,0.000000,4.000000,86.000000,,,,0.000000,4.000000,4.000000,4.000000,4.000000,4.000000,4.000000,4.000000,4.000000,4.000000,4.000000,4.000000,4.000000,4.000000,4.000000,100.000000,,,,,,,,,,,,,,,,
1644853852.843405,1644853852.855711,93.000000,0.000000,4232.563965,4237.179688,4223.589844,4239.487305,4251.922852,4232.692383,4225.769043,4221.922852,4226.410156,4243.846191,4240.000000,4212.051270,4244.871582,4234.230957,0.000000,4.000000,86.000000,,,,0.000000,4.000000,4.000000,4.000000,4.000000,4.000000,4.000000,4.000000,4.000000,4.000000,4.000000,4.000000,4.000000,4.000000,4.000000,100.000000,,,,,,,,,,,,,,,,
1644853852.847345,1644853852.859651,94.000000,0.000000,4238.333496,4235.769043,4221.410156,4237.563965,4244.487305,4232.692383,4223.333496,4220.128418,4223.333496,4235.769043,4237.436035,4206.025879,4239.230957,4241.794922,0.000000,4.000000,86.000000,,,,0.000000,4.000000,4.000000,4.000000,4.000000,4.000000,4.000000,4.000000,4.000000,4.000000,4.000000,4.000000,4.000000,4.000000,4.000000,100.000000,,,,,,,,,,,,,,,,
1644853852.851285,1644853852.863591,95.000000,0.000000,4237.692383,4234.743652,4216.153809,4230.384766,4232.948730,4231.282227,4223.205078,4218.717773,4220.897461,4227.563965,4227.563965,4199.102539,4232.563965,4243.333496,0.000000,4.000000,86.000000,,,,0.000000,4.000000,4.000000,4.000000,4.000000,4.000000,4.000000,4.000000,4.000000,4.000000,4.000000,4.000000,4.000000,4.000000,4.000000,100.000000,,,,,,,,,,,,,,,,
1644853852.855225,1644853852.867532,96.000000,0.000000,4230.769043,4233.717773,4210.512695,4222.692383,4218.077148,4228.974121,4225.000000,4218.589844,4220.897461,4224.487305,4217.948730,4193.974121,4227.692383,4236.666504,0.000000,4.000000,86.000000,,,,0.000000,4.000000,4.000000,4.000000,4.000000,4.000000,4.000000,4.000000,4.000000,4.000000,4.000000,4.000000,4.000000,4.000000,4.000000,100.000000,,,,,,,,,,,,,,,,
1644853852.859165,1644853852.871472,97.000000,0.000000,4220.897461,4228.974121,4207.307617,4219.871582,4202.948730,4227.051270,4226.794922,4219.102539,4222.948730,4227.692383,4215.512695,4193.589844,4224.487305,4223.974121,0.000000,4.000000,86.000000,,,,0.000000,4.000000,4.000000,4.000000,4.000000,4.000000,4.000000,4.000000,4.000000,4.000000,4.000000,4.000000,4.000000,4.000000,4.000000,100.000000,,,,,,,,,,,,,,,,
1644853852.863105,1644853852.875512,98.000000,0.000000,4212.307617,4218.846191,4207.179688,4223.974121,4193.974121,4226.922852,4227.307617,4219.615234,4225.000000,4233.717773,4220.000000,4198.846191,4221.922852,4211.410156,0.000000,4.000000,86.000000,,,,0.000000,4.000000,4.000000,4.000000,4.000000,4.000000,4.000000,4.000000,4.000000,4.000000,4.000000,4.000000,4.000000,4.000000,4.000000,100.000000,,,,,,,,,,,,,,,,
1644853852.867045,1644853852.879452,99.000000,0.000000,4207.051270,4205.897461,4209.487305,4231.922852,4196.922852,4228.974121,4227.307617,4219.743652,4225.128418,4238.974121,4225.256348,4207.179688,4220.128418,4204.487305,0.000000,4.000000,86.000000,,,,0.000000,4.000000,4.000000,4.000000,4.000000,4.000000,4.000000,4.000000,4.000000,4.000000,4.000000,4.000000,4.000000,4.000000,4.000000,100.000000,,,,,,,,,,,,,,,,
1644853852.870985,1644853852.883392,100.000000,0.000000,4206.538574,4197.179688,4213.461426,4237.563965,4212.051270,4232.051270,4227.563965,4220.256348,4224.102539,4241.922852,4225.384766,4214.487305,4221.282227,4204.230957,0.000000,4.000000,86.000000,,,,0.000000,4.000000,4.000000,4.000000,4.000000,4.000000,4.000000,4.000000,4.000000,4.000000,4.000000,4.000000,4.000000,4.000000,4.000000,100.000000,,,,,,,,,,,,,,,,
1644853852.874925,1644853852.887332,101.000000,0.000000,4211.282227,4199.487305,4218.461426,4235.897461,4232.948730,4234.871582,4228.077148,4221.282227,4223.974121,4243.589844,4220.512695,4217.692383,4226.538574,4207.692383,0.000000,4.000000,86.000000,,,,0.000000,4.000000,4.000000,4.000000,4.000000,4.000000,4.000000,4.000000,4.000000,4.000000,4.000000,4.000000,4.000000,4.000000,4.000000,100.000000,,,,,,,,,,,,,,,,
1644853852.878865,1644853852.891272,102.000000,0.000000,4221.025879,4213.333496,4222.820313,4227.051270,4249.871582,4236.666504,4228.205078,4222.179688,4226.666504,4245.000000,4215.512695,4216.282227,4233.717773,4211.794922,0.000000,4.000000,86.000000,,,,0.000000,4.000000,4.000000,4.000000,4.000000,4.000000,4.000000,4.000000,4.000000,4.000000,4.000000,4.000000,4.000000,4.000000,4.000000,100.000000,,,,,,,,,,,,,,,,
1644853852.882805,1644853852.895212,103.000000,0.000000,4231.538574,4232.051270,4224.615234,4216.666504,4255.641113,4236.794922,4228.333496,4223.077148,4231.282227,4244.743652,4215.128418,4211.666504,4237.436035,4215.000000,0.000000,4.000000,86.000000,,,,0.000000,4.000000,4.000000,4.000000,4.000000,4.000000,4.000000,4.000000,4.000000,4.000000,4.000000,4.000000,4.000000,4.000000,4.000000,100.000000,,,,,,,,,,,,,,,,
1644853852.886745,1644853852.899152,104.000000,0.000000,4237.179688,4244.871582,4222.436035,4211.922852,4249.102539,4235.512695,4229.102539,4223.974121,4235.000000,4241.153809,4219.871582,4205.769043,4233.333496,4217.948730,0.000000,4.000000,86.000000,,,,0.000000,4.000000,4.000000,4.000000,4.000000,4.000000,4.000000,4.000000,4.000000,4.000000,4.000000,4.000000,4.000000,4.000000,4.000000,100.000000,,,,,,,,,,,,,,,,
1644853852.890685,1644853852.902993,105.000000,0.000000,4233.974121,4244.230957,4217.563965,4216.282227,4235.641113,4233.717773,4230.384766,4225.128418,4235.384766,4234.615234,4226.794922,4201.282227,4222.692383,4220.000000,0.000000,4.000000,86.000000,,,,0.000000,4.000000,4.000000,4.000000,4.000000,4.000000,4.000000,4.000000,4.000000,4.000000,4.000000,4.000000,4.000000,4.000000,4.000000,100.000000,,,,,,,,,,,,,,,,
1644853852.894625,1644853852.906933,106.000000,0.000000,4223.461426,4231.282227,4212.820313,4226.410156,4222.307617,4232.051270,4229.871582,4226.025879,4232.179688,4228.717773,4232.179688,4199.615234,4211.922852,4219.487305,0.000000,4.000000,86.000000,,,,0.000000,4.000000,4.000000,4.000000,4.000000,4.000000,4.000000,4.000000,4.000000,4.000000,4.000000,4.000000,4.000000,4.000000,4.000000,100.000000,,,,,,,,,,,,,,,,
1644853852.898565,1644853852.910873,107.000000,0.000000,4211.922852,4214.615234,4209.871582,4234.102539,4212.948730,4230.897461,4226.410156,4226.025879,4227.307617,4227.051270,4233.974121,4200.384766,4208.333496,4215.897461,0.000000,4.000000,86.000000,,,,0.000000,4.000000,4.000000,4.000000,4.000000,4.000000,4.000000,4.000000,4.000000,4.000000,4.000000,4.000000,4.000000,4.000000,4.000000,100.000000,,,,,,,,,,,,,,,,
1644853852.902505,1644853852.914913,108.000000,0.000000,4205.256348,4203.717773,4208.974121,4232.820313,4207.692383,4230.128418,4221.666504,4225.128418,4222.948730,4229.871582,4231.794922,4201.410156,4213.717773,4211.922852,0.000000,4.000000,86.000000,,,,0.000000,4.000000,4.000000,4.000000,4.000000,4.000000,4.000000,4.000000,4.000000,4.000000,4.000000,4.000000,4.000000,4.000000,4.000000,100.000000,,,,,,,,,,,,,,,,
1644853852.906445,1644853852.918853,109.000000,0.000000,4204.743652,4202.563965,4209.102539,4223.974121,4205.769043,4229.230957,4219.358887,4224.358887,4220.769043,4233.846191,4226.282227,4200.641113,4223.589844,4211.410156,0.000000,4.000000,86.000000,,,,0.000000,4.000000,4.000000,4.000000,4.000000,4.000000,4.000000,4.000000,4.000000,4.000000,4.000000,4.000000,4.000000,4.000000,4.000000,100.000000,,,,,,,,,,,,,,,,
1644853852.910385,1644853852.922793,110.000000,0.000000,4207.692383,4208.461426,4209.615234,4214.743652,4208.461426,4228.589844,4221.282227,4224.487305,4221.282227,4235.384766,4218.974121,4198.974121,4231.025879,4215.384766,0.000000,4.000000,86.000000,,,,0.000000,4.000000,4.000000,4.000000,4.000000,4.000000,4.000000,4.000000,4.000000,4.000000,4.000000,4.000000,4.000000,4.000000,4.000000,100.000000,,,,,,,,,,,,,,,,
1644853852.914325,1644853852.926733,111.000000,0.000000,4211.153809,4215.641113,4210.769043,4212.179688,4216.666504,4228.589844,4225.384766,4225.512695,4224.102539,4234.230957,4212.948730,4198.717773,4232.692383,4220.384766,0.000000,4.000000,86.000000,,,,0.000000,4.000000,4.000000,4.000000,4.000000,4.000000,4.000000,4.000000,4.000000,4.000000,4.000000,4.000000,4.000000,4.000000,4.000000,100.000000,,,,,,,,,,,,,,,,
1644853852.918265,1644853852.930773,112.000000,0.000000,4215.128418,4220.897461,4213.077148,4216.666504,4228.333496,4229.743652,4227.436035,4227.051270,4228.333496,4233.205078,4211.538574,4201.025879,4230.897461,4222.051270,0.000000,4.000000,86.000000,,,,0.000000,4.000000,4.000000,4.000000,4.000000,4.000000,4.000000,4.000000,4.000000,4.000000,4.000000,4.000000,4.000000,4.000000,4.000000,100.000000,,,,,,,,,,,,,,,,
1644853852.922206,1644853852.934713,113.000000,0.000000,4221.282227,4224.102539,4216.666504,4224.358887,4237.307617,4231.794922,4226.666504,4229.487305,4231.922852,4235.128418,4216.282227,4204.615234,4229.871582,4219.743652,0.000000,4.000000,86.000000,,,,0.000000,4.000000,4.000000,4.000000,4.000000,4.000000,4.000000,4.000000,4.000000,4.000000,4.000000,4.000000,4.000000,4.000000,4.000000,100.000000,,,,,,,,,,,,,,,,
1644853852.926146,1644853852.938553,114.000000,0.000000,4229.871582,4226.153809,4221.794922,4230.897461,4238.717773,4233.461426,4225.384766,4232.820313,4232.820313,4239.615234,4225.000000,4206.666504,4231.153809,4217.307617,0.000000,4.000000,86.000000,,,,0.000000,4.000000,4.000000,4.000000,4.000000,4.000000,4.000000,4.000000,4.000000,4.000000,4.000000,4.000000,4.000000,4.000000,4.000000,100.000000,,,,,,,,,,,,,,,,
1644853852.930086,1644853852.942493,115.000000,0.000000,4238.077148,4227.051270,4227.436035,4234.615234,4233.333496,4233.717773,4226.153809,4235.769043,4230.769043,4243.077148,4231.922852,4206.153809,4232.948730,4218.205078,0.000000,4.000000,86.000000,,,,0.000000,4.000000,4.000000,4.000000,4.000000,4.000000,4.000000,4.000000,4.000000,4.000000,4.000000,4.000000,4.000000,4.000000,4.000000,100.000000,,,,,,,,,,,,,,,,
1644853852.934026,1644853852.946434,116.000000,0.000000,4241.794922,4226.410156,4231.666504,4236.410156,4227.179688,4232.692383,4228.846191,4236.794922,4227.436035,4241.794922,4231.538574,4204.102539,4231.282227,4220.897461,0.000000,4.000000,86.000000,,,,0.000000,4.000000,4.000000,4.000000,4.000000,4.000000,4.000000,4.000000,4.000000,4.000000,4.000000,4.000000,4.000000,4.000000,4.000000,100.000000,,,,,,,,,,,,,,,,
1644853852.937966,1644853852.950374,117.000000,0.000000,4238.461426,4224.358887,4232.436035,4237.307617,4225.000000,4231.282227,4230.512695,4235.384766,4225.256348,4236.025879,4222.820313,4202.051270,4224.358887,4220.512695,0.000000,4.000000,86.000000,,,,0.000000,4.000000,4.000000,4.000000,4.000000,4.000000,4.000000,4.000000,4.000000,4.000000,4.000000,4.000000,4.000000,4.000000,4.000000,100.000000,,,,,,,,,,,,,,,,
1644853852.941906,1644853852.954314,118.000000,0.000000,4229.358887,4221.666504,4229.487305,4237.307617,4225.256348,4230.384766,4229.871582,4232.563965,4225.384766,4229.358887,4210.512695,4200.256348,4214.102539,4213.589844,0.000000,4.000000,86.000000,,,,0.000000,4.000000,4.000000,4.000000,4.000000,4.000000,4.000000,4.000000,4.000000,4.000000,4.000000,4.000000,4.000000,4.000000,4.000000,100.000000,,,,,,,,,,,,,,,,
1644853852.945846,1644853852.958254,119.000000,0.000000,4218.974121,4219.102539,4225.384766,4235.384766,4223.205078,4230.641113,4228.974121,4230.769043,4226.794922,4226.025879,4201.794922,4199.358887,4204.615234,4202.692383,0.000000,4.000000,86.000000,,,,0.000000,4.000000,4.000000,4.000000,4.000000,4.000000,4.000000,4.000000,4.000000,4.000000,4.000000,4.000000,4.000000,4.000000,4.000000,100.000000,,,,,,,,,,,,,,,,
1644853852.949786,1644853852.962194,120.000000,0.000000,4212.179688,4217.051270,4223.333496,4231.410156,4217.563965,4231.794922,4230.384766,4231.666504,4227.820313,4227.179688,4200.641113,4200.000000,4199.615234,4193.974121,0.000000,4.000000,86.000000,,,,0.000000,4.000000,4.000000,4.000000,4.000000,4.000000,4.000000,4.000000,4.000000,4.000000,4.000000,4.000000,4.000000,4.000000,4.000000,100.000000,,,,,,,,,,,,,,,,
