title:Alex-ZQ9cQzeGhpkehXWbZDUxrA, start timestamp:1644852788.457087, stop timestamp:1644852814.725270, headset type:EPOCPLUS, headset serial:3B9AEBFF, headset firmware:626, channels:55, sampling rate:eeg_256, samples:6668      , version:2.1, 
Timestamp,EEG.Counter,EEG.Interpolated,EEG.AF3,EEG.F7,EEG.F3,EEG.FC5,EEG.T7,EEG.P7,EEG.O1,EEG.O2,EEG.P8,EEG.T8,EEG.FC6,EEG.F4,EEG.F8,EEG.AF4,EEG.RawCq,EEG.Battery,EEG.BatteryPercent,MarkerIndex,MarkerType,MarkerValueInt,EEG.MarkerHardware,CQ.AF3,CQ.F7,CQ.F3,CQ.FC5,CQ.T7,CQ.P7,CQ.O1,CQ.O2,CQ.P8,CQ.T8,CQ.FC6,CQ.F4,CQ.F8,CQ.AF4,CQ.Overall,EQ.SampleRateQuality,EQ.OVERALL,EQ.AF3,EQ.F7,EQ.F3,EQ.FC5,EQ.T7,EQ.P7,EQ.O1,EQ.O2,EQ.P8,EQ.T8,EQ.FC6,EQ.F4,EQ.F8,EQ.AF4
1644852788.457087,83.000000,0.000000,4216.794922,4209.871582,4203.846191,4234.487305,4211.282227,4211.282227,4204.487305,4204.871582,4213.205078,4213.846191,4210.897461,4202.948730,4201.666504,4186.538574,0.000000,4.000000,91.000000,,,,0.000000,4.000000,4.000000,4.000000,4.000000,4.000000,4.000000,4.000000,4.000000,4.000000,4.000000,4.000000,4.000000,4.000000,4.000000,100.000000,,,,,,,,,,,,,,,,
1644852788.460927,84.000000,0.000000,4219.615234,4206.666504,4203.846191,4234.102539,4205.256348,4204.615234,4206.153809,4204.743652,4210.256348,4204.615234,4218.077148,4200.000000,4196.666504,4190.897461,0.000000,4.000000,91.000000,,,,0.000000,4.000000,4.000000,4.000000,4.000000,4.000000,4.000000,4.000000,4.000000,4.000000,4.000000,4.000000,4.000000,4.000000,4.000000,100.000000,,,,,,,,,,,,,,,,
1644852788.464867,85.000000,0.000000,4222.179688,4206.794922,4206.538574,4225.512695,4201.282227,4201.666504,4206.538574,4203.461426,4208.846191,4202.436035,4223.974121,4202.179688,4194.102539,4187.051270,0.000000,4.000000,91.000000,,,,0.000000,4.000000,4.000000,4.000000,4.000000,4.000000,4.000000,4.000000,4.000000,4.000000,4.000000,4.000000,4.000000,4.000000,4.000000,100.000000,,,,,,,,,,,,,,,,
1644852788.468807,86.000000,0.000000,4221.410156,4208.589844,4210.769043,4215.128418,4201.025879,4203.717773,4206.282227,4201.794922,4209.871582,4208.461426,4224.358887,4207.948730,4195.256348,4178.589844,0.000000,4.000000,91.000000,,,,0.000000,4.000000,4.000000,4.000000,4.000000,4.000000,4.000000,4.000000,4.000000,4.000000,4.000000,4.000000,4.000000,4.000000,4.000000,100.000000,,,,,,,,,,,,,,,,
1644852788.472747,87.000000,0.000000,4217.436035,4210.000000,4215.000000,4210.256348,4204.615234,4208.333496,4207.563965,4201.410156,4212.179688,4217.692383,4218.461426,4211.794922,4199.615234,4172.436035,0.000000,4.000000,91.000000,,,,0.000000,4.000000,4.000000,4.000000,4.000000,4.000000,4.000000,4.000000,4.000000,4.000000,4.000000,4.000000,4.000000,4.000000,4.000000,100.000000,,,,,,,,,,,,,,,,
1644852788.476687,88.000000,0.000000,4213.974121,4210.256348,4217.179688,4213.589844,4211.025879,4211.666504,4210.384766,4203.461426,4213.974121,4222.820313,4209.102539,4208.717773,4205.256348,4173.589844,0.000000,4.000000,91.000000,,,,0.000000,4.000000,4.000000,4.000000,4.000000,4.000000,4.000000,4.000000,4.000000,4.000000,4.000000,4.000000,4.000000,4.000000,4.000000,100.000000,,,,,,,,,,,,,,,,
1644852788.480628,89.000000,0.000000,4214.358887,4209.358887,4216.153809,4221.922852,4218.205078,4211.538574,4211.666504,4206.538574,4213.717773,4220.384766,4201.410156,4200.128418,4209.871582,4181.282227,0.000000,4.000000,91.000000,,,,0.000000,4.000000,4.000000,4.000000,4.000000,4.000000,4.000000,4.000000,4.000000,4.000000,4.000000,4.000000,4.000000,4.000000,4.000000,100.000000,,,,,,,,,,,,,,,,
1644852788.484568,90.000000,0.000000,4218.077148,4207.692383,4212.051270,4229.743652,4223.717773,4209.358887,4209.358887,4208.461426,4211.922852,4213.589844,4199.487305,4191.666504,4211.282227,4188.974121,0.000000,4.000000,91.000000,,,,0.000000,4.000000,4.000000,4.000000,4.000000,4.000000,4.000000,4.000000,4.000000,4.000000,4.000000,4.000000,4.000000,4.000000,4.000000,100.000000,,,,,,,,,,,,,,,,
1644852788.488508,91.000000,0.000000,4221.025879,4204.871582,4207.179688,4233.846191,4225.512695,4207.692383,4205.512695,4208.461426,4210.128418,4209.102539,4203.846191,4189.358887,4208.974121,4190.000000,0.000000,4.000000,91.000000,,,,0.000000,4.000000,4.000000,4.000000,4.000000,4.000000,4.000000,4.000000,4.000000,4.000000,4.000000,4.000000,4.000000,4.000000,4.000000,100.000000,,,,,,,,,,,,,,,,
1644852788.492448,92.000000,0.000000,4218.974121,4201.282227,4204.230957,4234.358887,4222.307617,4208.333496,4204.358887,4207.179688,4209.871582,4211.538574,4210.641113,4194.487305,4203.974121,4182.820313,0.000000,4.000000,91.000000,,,,0.000000,4.000000,4.000000,4.000000,4.000000,4.000000,4.000000,4.000000,4.000000,4.000000,4.000000,4.000000,4.000000,4.000000,4.000000,100.000000,,,,,,,,,,,,,,,,
1644852788.496388,93.000000,0.000000,4211.282227,4198.589844,4203.717773,4232.563965,4215.384766,4211.153809,4206.922852,4206.025879,4211.282227,4219.102539,4214.871582,4202.820313,4198.717773,4172.179688,0.000000,4.000000,91.000000,,,,0.000000,4.000000,4.000000,4.000000,4.000000,4.000000,4.000000,4.000000,4.000000,4.000000,4.000000,4.000000,4.000000,4.000000,4.000000,100.000000,,,,,,,,,,,,,,,,
1644852788.500328,94.000000,0.000000,4202.436035,4197.436035,4204.230957,4228.974121,4208.589844,4213.974121,4210.256348,4206.153809,4213.333496,4224.871582,4213.974121,4208.589844,4195.384766,4165.128418,0.000000,4.000000,91.000000,,,,0.000000,4.000000,4.000000,4.000000,4.000000,4.000000,4.000000,4.000000,4.000000,4.000000,4.000000,4.000000,4.000000,4.000000,4.000000,100.000000,,,,,,,,,,,,,,,,
1644852788.504268,95.000000,0.000000,4198.077148,4198.205078,4204.487305,4223.333496,4205.128418,4214.487305,4210.641113,4207.948730,4215.000000,4222.948730,4209.102539,4208.974121,4195.512695,4165.384766,0.000000,4.000000,91.000000,,,,0.000000,4.000000,4.000000,4.000000,4.000000,4.000000,4.000000,4.000000,4.000000,4.000000,4.000000,4.000000,4.000000,4.000000,4.000000,100.000000,,,,,,,,,,,,,,,,
1644852788.508208,96.000000,0.000000,4200.897461,4199.615234,4205.256348,4216.794922,4205.000000,4211.922852,4208.205078,4211.153809,4215.897461,4213.717773,4204.487305,4205.641113,4198.077148,4171.153809,0.000000,4.000000,91.000000,,,,0.000000,4.000000,4.000000,4.000000,4.000000,4.000000,4.000000,4.000000,4.000000,4.000000,4.000000,4.000000,4.000000,4.000000,4.000000,100.000000,,,,,,,,,,,,,,,,
1644852788.512148,97.000000,0.000000,4208.846191,4200.384766,4208.974121,4212.692383,4204.615234,4207.820313,4206.153809,4215.128418,4217.051270,4203.846191,4204.358887,4203.589844,4201.153809,4177.307617,0.000000,4.000000,91.000000,,,,0.000000,4.000000,4.000000,4.000000,4.000000,4.000000,4.000000,4.000000,4.000000,4.000000,4.000000,4.000000,4.000000,4.000000,4.000000,100.000000,,,,,,,,,,,,,,,,
1644852788.516089,98.000000,0.000000,4217.179688,4200.512695,4216.538574,4213.205078,4200.769043,4205.512695,4206.538574,4218.205078,4219.230957,4201.153809,4209.102539,4206.153809,4204.102539,4180.256348,0.000000,4.000000,91.000000,,,,0.000000,4.000000,4.000000,4.000000,4.000000,4.000000,4.000000,4.000000,4.000000,4.000000,4.000000,4.000000,4.000000,4.000000,4.000000,100.000000,,,,,,,,,,,,,,,,
1644852788.520029,99.000000,0.000000,4222.692383,4200.641113,4225.256348,4217.051270,4194.102539,4207.307617,4208.205078,4219.102539,4222.307617,4208.717773,4215.256348,4213.205078,4207.179688,4180.512695,0.000000,4.000000,91.000000,,,,0.000000,4.000000,4.000000,4.000000,4.000000,4.000000,4.000000,4.000000,4.000000,4.000000,4.000000,4.000000,4.000000,4.000000,4.000000,100.000000,,,,,,,,,,,,,,,,
1644852788.523969,100.000000,0.000000,4223.846191,4201.666504,4230.769043,4219.743652,4188.717773,4212.051270,4208.461426,4217.179688,4224.871582,4221.922852,4217.051270,4220.256348,4210.256348,4181.666504,0.000000,4.000000,91.000000,,,,0.000000,4.000000,4.000000,4.000000,4.000000,4.000000,4.000000,4.000000,4.000000,4.000000,4.000000,4.000000,4.000000,4.000000,4.000000,100.000000,,,,,,,,,,,,,,,,
1644852788.527909,101.000000,0.000000,4221.410156,4203.461426,4230.897461,4218.077148,4188.846191,4216.410156,4207.051270,4213.717773,4224.871582,4231.922852,4211.794922,4222.179688,4211.922852,4185.512695,0.000000,4.000000,91.000000,,,,0.000000,4.000000,4.000000,4.000000,4.000000,4.000000,4.000000,4.000000,4.000000,4.000000,4.000000,4.000000,4.000000,4.000000,4.000000,100.000000,,,,,,,,,,,,,,,,
1644852788.531849,102.000000,0.000000,4217.692383,4205.384766,4226.922852,4213.589844,4195.512695,4217.179688,4205.897461,4210.256348,4221.410156,4232.179688,4203.077148,4216.794922,4210.256348,4190.897461,0.000000,4.000000,91.000000,,,,0.000000,4.000000,4.000000,4.000000,4.000000,4.000000,4.000000,4.000000,4.000000,4.000000,4.000000,4.000000,4.000000,4.000000,4.000000,100.000000,,,,,,,,,,,,,,,,
1644852788.535689,103.000000,0.000000,4215.384766,4206.282227,4222.051270,4211.153809,4205.512695,4214.487305,4206.025879,4207.692383,4215.641113,4223.333496,4197.307617,4207.051270,4205.897461,4195.256348,0.000000,4.000000,91.000000,,,,0.000000,4.000000,4.000000,4.000000,4.000000,4.000000,4.000000,4.000000,4.000000,4.000000,4.000000,4.000000,4.000000,4.000000,4.000000,100.000000,,,,,,,,,,,,,,,,
1644852788.539629,104.000000,0.000000,4215.897461,4205.897461,4217.820313,4214.743652,4214.230957,4211.025879,4205.769043,4206.025879,4210.256348,4211.922852,4198.461426,4197.692383,4201.282227,4196.282227,0.000000,4.000000,91.000000,,,,0.000000,4.000000,4.000000,4.000000,4.000000,4.000000,4.000000,4.000000,4.000000,4.000000,4.000000,4.000000,4.000000,4.000000,4.000000,100.000000,,,,,,,,,,,,,,,,
1644852788.543569,105.000000,0.000000,4217.307617,4203.717773,4214.230957,4223.333496,4217.820313,4209.743652,4203.846191,4204.487305,4207.820313,4204.743652,4204.615234,4192.051270,4198.333496,4192.436035,0.000000,4.000000,91.000000,,,,0.000000,4.000000,4.000000,4.000000,4.000000,4.000000,4.000000,4.000000,4.000000,4.000000,4.000000,4.000000,4.000000,4.000000,4.000000,100.000000,,,,,,,,,,,,,,,,
1644852788.547509,106.000000,0.000000,4216.282227,4199.871582,4210.256348,4232.307617,4216.153809,4211.025879,4202.051270,4202.820313,4208.333496,4204.102539,4209.615234,4189.615234,4197.307617,4185.256348,0.000000,4.000000,91.000000,,,,0.000000,4.000000,4.000000,4.000000,4.000000,4.000000,4.000000,4.000000,4.000000,4.000000,4.000000,4.000000,4.000000,4.000000,4.000000,100.000000,,,,,,,,,,,,,,,,
1644852788.551450,107.000000,0.000000,4211.282227,4195.769043,4206.410156,4236.410156,4212.820313,4213.717773,4203.205078,4201.794922,4209.615234,4207.436035,4208.077148,4188.077148,4197.307617,4178.077148,0.000000,4.000000,91.000000,,,,0.000000,4.000000,4.000000,4.000000,4.000000,4.000000,4.000000,4.000000,4.000000,4.000000,4.000000,4.000000,4.000000,4.000000,4.000000,100.000000,,,,,,,,,,,,,,,,
1644852788.555390,108.000000,0.000000,4204.743652,4194.358887,4204.358887,4235.641113,4211.666504,4215.897461,4207.948730,4202.051270,4210.128418,4210.897461,4200.512695,4186.282227,4198.077148,4175.512695,0.000000,4.000000,91.000000,,,,0.000000,4.000000,4.000000,4.000000,4.000000,4.000000,4.000000,4.000000,4.000000,4.000000,4.000000,4.000000,4.000000,4.000000,4.000000,100.000000,,,,,,,,,,,,,,,,
1644852788.559330,109.000000,0.000000,4201.666504,4197.563965,4206.025879,4233.974121,4213.846191,4217.179688,4212.820313,4203.461426,4209.743652,4212.307617,4193.205078,4185.512695,4198.974121,4179.743652,0.000000,4.000000,91.000000,,,,0.000000,4.000000,4.000000,4.000000,4.000000,4.000000,4.000000,4.000000,4.000000,4.000000,4.000000,4.000000,4.000000,4.000000,4.000000,100.000000,,,,,,,,,,,,,,,,
1644852788.563270,110.000000,0.000000,4204.102539,4203.589844,4210.769043,4233.717773,4215.897461,4218.205078,4214.102539,4205.128418,4209.743652,4212.051270,4192.820313,4188.205078,4198.974121,4187.563965,0.000000,4.000000,91.000000,,,,0.000000,4.000000,4.000000,4.000000,4.000000,4.000000,4.000000,4.000000,4.000000,4.000000,4.000000,4.000000,4.000000,4.000000,4.000000,100.000000,,,,,,,,,,,,,,,,
1644852788.567210,111.000000,0.000000,4209.358887,4207.948730,4215.384766,4232.820313,4213.205078,4219.230957,4211.410156,4205.769043,4210.384766,4211.153809,4200.769043,4193.974121,4196.666504,4192.051270,0.000000,4.000000,91.000000,,,,0.000000,4.000000,4.000000,4.000000,4.000000,4.000000,4.000000,4.000000,4.000000,4.000000,4.000000,4.000000,4.000000,4.000000,4.000000,100.000000,,,,,,,,,,,,,,,,
1644852788.571150,112.000000,0.000000,4212.692383,4206.282227,4215.512695,4226.538574,4204.871582,4219.358887,4207.820313,4204.487305,4210.000000,4209.743652,4210.641113,4200.256348,4191.794922,4187.436035,0.000000,4.000000,91.000000,,,,0.000000,4.000000,4.000000,4.000000,4.000000,4.000000,4.000000,4.000000,4.000000,4.000000,4.000000,4.000000,4.000000,4.000000,4.000000,100.000000,,,,,,,,,,,,,,,,
1644852788.575090,113.000000,0.000000,4211.922852,4198.717773,4209.358887,4213.974121,4195.256348,4217.692383,4205.769043,4201.794922,4207.436035,4206.666504,4213.717773,4203.461426,4186.025879,4174.871582,0.000000,4.000000,91.000000,,,,0.000000,4.000000,4.000000,4.000000,4.000000,4.000000,4.000000,4.000000,4.000000,4.000000,4.000000,4.000000,4.000000,4.000000,4.000000,100.000000,,,,,,,,,,,,,,,,
1644852788.579030,114.000000,0.000000,4208.205078,4189.743652,4200.000000,4199.743652,4191.153809,4214.615234,4205.384766,4198.846191,4203.717773,4202.051270,4206.153809,4201.025879,4181.922852,4161.922852,0.000000,4.000000,91.000000,,,,0.000000,4.000000,4.000000,4.000000,4.000000,4.000000,4.000000,4.000000,4.000000,4.000000,4.000000,4.000000,4.000000,4.000000,4.000000,100.000000,,,,,,,,,,,,,,,,
1644852788.582970,115.000000,0.000000,4204.615234,4184.487305,4193.333496,4190.897461,4195.000000,4211.282227,4204.615234,4196.410156,4201.538574,4198.333496,4191.153809,4193.717773,4181.153809,4157.179688,0.000000,4.000000,91.000000,,,,0.000000,4.000000,4.000000,4.000000,4.000000,4.000000,4.000000,4.000000,4.000000,4.000000,4.000000,4.000000,4.000000,4.000000,4.000000,100.000000,,,,,,,,,,,,,,,,
1644852788.586911,116.000000,0.000000,4202.307617,4185.769043,4193.461426,4191.794922,4203.461426,4208.717773,4203.077148,4195.000000,4202.436035,4197.307617,4176.410156,4184.743652,4182.692383,4163.077148,0.000000,4.000000,91.000000,,,,0.000000,4.000000,4.000000,4.000000,4.000000,4.000000,4.000000,4.000000,4.000000,4.000000,4.000000,4.000000,4.000000,4.000000,4.000000,100.000000,,,,,,,,,,,,,,,,
1644852788.590851,117.000000,0.000000,4200.000000,4191.666504,4199.487305,4201.922852,4209.230957,4208.205078,4202.563965,4195.000000,4205.641113,4199.230957,4168.717773,4178.077148,4184.615234,4174.102539,0.000000,4.000000,91.000000,,,,0.000000,4.000000,4.000000,4.000000,4.000000,4.000000,4.000000,4.000000,4.000000,4.000000,4.000000,4.000000,4.000000,4.000000,4.000000,100.000000,,,,,,,,,,,,,,,,
1644852788.594791,118.000000,0.000000,4196.025879,4197.820313,4206.153809,4215.641113,4208.589844,4210.128418,4204.230957,4196.282227,4208.205078,4202.179688,4170.769043,4176.153809,4185.897461,4181.922852,0.000000,4.000000,91.000000,,,,0.000000,4.000000,4.000000,4.000000,4.000000,4.000000,4.000000,4.000000,4.000000,4.000000,4.000000,4.000000,4.000000,4.000000,4.000000,100.000000,1.000000,100.000000,4.000000,4.000000,4.000000,4.000000,4.000000,4.000000,4.000000,4.000000,4.000000,4.000000,4.000000,4.000000,4.000000,4.000000
1644852788.598731,119.000000,0.000000,4191.025879,4200.897461,4208.846191,4226.922852,4204.230957,4213.717773,4207.307617,4198.333496,4208.717773,4205.000000,4180.256348,4178.333496,4187.692383,4182.563965,0.000000,4.000000,91.000000,,,,0.000000,4.000000,4.000000,4.000000,4.000000,4.000000,4.000000,4.000000,4.000000,4.000000,4.000000,4.000000,4.000000,4.000000,4.000000,100.000000,,,,,,,,,,,,,,,,
1644852788.602671,120.000000,0.000000,4188.717773,4201.153809,4206.153809,4232.436035,4201.922852,4216.666504,4208.974121,4200.641113,4207.820313,4207.307617,4191.538574,4182.563965,4190.897461,4178.589844,0.000000,4.000000,91.000000,,,,0.000000,4.000000,4.000000,4.000000,4.000000,4.000000,4.000000,4.000000,4.000000,4.000000,4.000000,4.000000,4.000000,4.000000,4.000000,100.000000,,,,,,,,,,,,,,,,
1644852788.606511,121.000000,0.000000,4192.307617,4201.153809,4201.025879,4232.051270,4205.128418,4217.692383,4208.589844,4202.692383,4207.179688,4208.717773,4199.615234,4186.538574,4194.871582,4176.410156,0.000000,4.000000,91.000000,,,,0.000000,4.000000,4.000000,4.000000,4.000000,4.000000,4.000000,4.000000,4.000000,4.000000,4.000000,4.000000,4.000000,4.000000,4.000000,100.000000,,,,,,,,,,,,,,,,
1644852788.610451,122.000000,0.000000,4201.538574,4202.948730,4198.077148,4227.563965,4211.538574,4216.538574,4207.820313,4204.615234,4207.692383,4210.128418,4202.179688,4189.102539,4198.205078,4180.384766,0.000000,4.000000,91.000000,,,,0.000000,4.000000,4.000000,4.000000,4.000000,4.000000,4.000000,4.000000,4.000000,4.000000,4.000000,4.000000,4.000000,4.000000,4.000000,100.000000,,,,,,,,,,,,,,,,
1644852788.614391,123.000000,0.000000,4211.538574,4207.051270,4199.743652,4221.153809,4216.282227,4215.128418,4208.333496,4206.922852,4209.615234,4212.436035,4200.128418,4191.153809,4199.743652,4189.487305,0.000000,4.000000,91.000000,,,,0.000000,4.000000,4.000000,4.000000,4.000000,4.000000,4.000000,4.000000,4.000000,4.000000,4.000000,4.000000,4.000000,4.000000,4.000000,100.000000,,,,,,,,,,,,,,,,
1644852788.618331,124.000000,0.000000,4216.538574,4211.666504,4204.487305,4214.743652,4216.794922,4215.000000,4209.615234,4209.230957,4211.922852,4216.666504,4196.538574,4193.717773,4200.128418,4198.333496,0.000000,4.000000,91.000000,,,,0.000000,4.000000,4.000000,4.000000,4.000000,4.000000,4.000000,4.000000,4.000000,4.000000,4.000000,4.000000,4.000000,4.000000,4.000000,100.000000,,,,,,,,,,,,,,,,
1644852788.622272,125.000000,0.000000,4214.102539,4214.615234,4208.717773,4210.641113,4214.102539,4216.282227,4209.743652,4210.769043,4214.230957,4221.922852,4195.000000,4197.051270,4200.897461,4201.153809,0.000000,4.000000,91.000000,,,,0.000000,4.000000,4.000000,4.000000,4.000000,4.000000,4.000000,4.000000,4.000000,4.000000,4.000000,4.000000,4.000000,4.000000,4.000000,100.000000,,,,,,,,,,,,,,,,
1644852788.626212,126.000000,0.000000,4207.948730,4214.358887,4210.000000,4211.538574,4210.769043,4217.436035,4208.461426,4211.153809,4215.897461,4225.512695,4198.205078,4200.128418,4202.820313,4196.153809,0.000000,4.000000,91.000000,,,,0.000000,4.000000,4.000000,4.000000,4.000000,4.000000,4.000000,4.000000,4.000000,4.000000,4.000000,4.000000,4.000000,4.000000,4.000000,100.000000,,,,,,,,,,,,,,,,
1644852788.630152,127.000000,0.000000,4205.128418,4211.538574,4209.487305,4217.563965,4208.846191,4217.051270,4208.077148,4211.410156,4216.538574,4225.128418,4205.512695,4201.794922,4204.743652,4187.563965,0.000000,4.000000,91.000000,,,,0.000000,4.000000,4.000000,4.000000,4.000000,4.000000,4.000000,4.000000,4.000000,4.000000,4.000000,4.000000,4.000000,4.000000,4.000000,100.000000,,,,,,,,,,,,,,,,
1644852788.634092,128.000000,0.000000,4209.487305,4208.461426,4209.871582,4225.897461,4208.589844,4215.000000,4210.128418,4213.077148,4216.794922,4221.153809,4213.461426,4202.307617,4205.000000,4181.410156,3412.000000,4.000000,91.000000,,,,0.000000,4.000000,4.000000,4.000000,4.000000,4.000000,4.000000,4.000000,4.000000,4.000000,4.000000,4.000000,4.000000,4.000000,4.000000,100.000000,,,,,,,,,,,,,,,,
1644852788.638032,129.000000,0.000000,4216.922852,4206.410156,4211.922852,4231.410156,4209.358887,4213.333496,4212.948730,4215.769043,4217.820313,4217.563965,4217.179688,4202.051270,4203.333496,4180.512695,3296.000000,4.000000,91.000000,,,,0.000000,4.000000,4.000000,4.000000,4.000000,4.000000,4.000000,4.000000,4.000000,4.000000,4.000000,4.000000,4.000000,4.000000,4.000000,100.000000,,,,,,,,,,,,,,,,
1644852788.641972,130.000000,0.000000,4218.077148,4204.358887,4213.846191,4229.230957,4209.358887,4213.333496,4212.948730,4217.051270,4219.358887,4217.563965,4213.333496,4201.282227,4200.384766,4182.820313,3575.000000,4.000000,91.000000,,,,0.000000,4.000000,4.000000,4.000000,4.000000,4.000000,4.000000,4.000000,4.000000,4.000000,4.000000,4.000000,4.000000,4.000000,4.000000,100.000000,,,,,,,,,,,,,,,,
1644852788.645912,131.000000,0.000000,4207.563965,4200.641113,4213.205078,4217.948730,4207.307617,4214.743652,4208.333496,4214.358887,4218.846191,4220.000000,4202.436035,4199.487305,4196.922852,4184.487305,3349.000000,4.000000,91.000000,,,,0.000000,4.000000,4.000000,4.000000,4.000000,4.000000,4.000000,4.000000,4.000000,4.000000,4.000000,4.000000,4.000000,4.000000,4.000000,100.000000,,,,,,,,,,,,,,,,
1644852788.649852,132.000000,0.000000,4189.615234,4195.641113,4209.487305,4202.692383,4203.333496,4215.512695,4202.179688,4207.692383,4214.102539,4220.384766,4189.871582,4195.897461,4192.820313,4183.717773,3514.000000,4.000000,91.000000,,,,0.000000,4.000000,4.000000,4.000000,4.000000,4.000000,4.000000,4.000000,4.000000,4.000000,4.000000,4.000000,4.000000,4.000000,4.000000,100.000000,,,,,,,,,,,,,,,,
1644852788.653792,133.000000,0.000000,4175.256348,4192.179688,4205.769043,4192.051270,4199.615234,4214.358887,4198.589844,4200.641113,4206.282227,4215.897461,4182.948730,4190.641113,4188.461426,4182.692383,3355.000000,4.000000,91.000000,,,,0.000000,4.000000,4.000000,4.000000,4.000000,4.000000,4.000000,4.000000,4.000000,4.000000,4.000000,4.000000,4.000000,4.000000,4.000000,100.000000,,,,,,,,,,,,,,,,
1644852788.657733,134.000000,0.000000,4173.717773,4192.692383,4205.512695,4191.922852,4198.333496,4212.692383,4199.230957,4197.179688,4199.615234,4208.974121,4186.025879,4185.256348,4185.512695,4184.358887,2534.000000,4.000000,91.000000,,,,0.000000,4.000000,4.000000,4.000000,4.000000,4.000000,4.000000,4.000000,4.000000,4.000000,4.000000,4.000000,4.000000,4.000000,4.000000,100.000000,,,,,,,,,,,,,,,,
1644852788.661673,135.000000,0.000000,4185.641113,4197.307617,4209.358887,4201.538574,4199.871582,4212.307617,4201.922852,4198.589844,4198.333496,4205.000000,4197.179688,4182.307617,4186.282227,4189.743652,2741.000000,4.000000,91.000000,,,,0.000000,4.000000,4.000000,4.000000,4.000000,4.000000,4.000000,4.000000,4.000000,4.000000,4.000000,4.000000,4.000000,4.000000,4.000000,100.000000,,,,,,,,,,,,,,,,
1644852788.665613,136.000000,0.000000,4202.948730,4203.461426,4214.487305,4213.846191,4202.179688,4213.717773,4203.846191,4203.077148,4202.563965,4206.538574,4208.846191,4183.205078,4191.410156,4196.666504,3259.000000,4.000000,91.000000,,,,0.000000,4.000000,4.000000,4.000000,4.000000,4.000000,4.000000,4.000000,4.000000,4.000000,4.000000,4.000000,4.000000,4.000000,4.000000,100.000000,,,,,,,,,,,,,,,,
1644852788.669553,137.000000,0.000000,4214.743652,4207.051270,4216.666504,4220.897461,4202.948730,4215.641113,4204.615234,4206.922852,4208.205078,4211.282227,4213.846191,4187.563965,4198.333496,4202.436035,3530.000000,4.000000,91.000000,,,,0.000000,4.000000,4.000000,4.000000,4.000000,4.000000,4.000000,4.000000,4.000000,4.000000,4.000000,4.000000,4.000000,4.000000,4.000000,100.000000,,,,,,,,,,,,,,,,
1644852788.673493,138.000000,0.000000,4213.974121,4205.641113,4213.717773,4219.102539,4202.051270,4215.769043,4205.000000,4207.948730,4210.512695,4213.333496,4210.000000,4191.922852,4203.077148,4204.871582,3516.000000,4.000000,91.000000,,,,0.000000,4.000000,4.000000,4.000000,4.000000,4.000000,4.000000,4.000000,4.000000,4.000000,4.000000,4.000000,4.000000,4.000000,4.000000,100.000000,,,,,,,,,,,,,,,,
1644852788.677333,139.000000,0.000000,4203.077148,4199.487305,4207.179688,4211.025879,4201.410156,4212.948730,4204.615234,4205.769043,4207.692383,4209.871582,4201.666504,4193.333496,4202.692383,4202.820313,3454.000000,4.000000,91.000000,,,,0.000000,4.000000,4.000000,4.000000,4.000000,4.000000,4.000000,4.000000,4.000000,4.000000,4.000000,4.000000,4.000000,4.000000,4.000000,100.000000,,,,,,,,,,,,,,,,
1644852788.681273,140.000000,0.000000,4190.769043,4192.563965,4200.000000,4203.589844,4202.948730,4207.563965,4202.179688,4202.179688,4202.307617,4203.077148,4195.128418,4191.410156,4197.436035,4197.307617,3263.000000,4.000000,91.000000,,,,0.000000,4.000000,4.000000,4.000000,4.000000,4.000000,4.000000,4.000000,4.000000,4.000000,4.000000,4.000000,4.000000,4.000000,4.000000,100.000000,,,,,,,,,,,,,,,,
1644852788.685213,141.000000,0.000000,4185.384766,4189.102539,4195.897461,4202.820313,4205.897461,4202.051270,4198.846191,4200.256348,4199.102539,4198.333496,4194.743652,4188.974121,4191.153809,4190.897461,3478.000000,4.000000,91.000000,,,,0.000000,4.000000,4.000000,4.000000,4.000000,4.000000,4.000000,4.000000,4.000000,4.000000,4.000000,4.000000,4.000000,4.000000,4.000000,100.000000,,,,,,,,,,,,,,,,
1644852788.689153,142.000000,0.000000,4188.589844,4191.282227,4196.666504,4209.102539,4207.307617,4199.102539,4197.948730,4202.051270,4200.641113,4199.487305,4200.384766,4189.743652,4188.589844,4186.666504,3516.000000,4.000000,91.000000,,,,0.000000,4.000000,4.000000,4.000000,4.000000,4.000000,4.000000,4.000000,4.000000,4.000000,4.000000,4.000000,4.000000,4.000000,4.000000,100.000000,,,,,,,,,,,,,,,,
1644852788.693094,143.000000,0.000000,4195.256348,4196.922852,4200.769043,4217.307617,4204.230957,4199.871582,4201.282227,4206.538574,4206.153809,4205.128418,4207.948730,4194.358887,4191.922852,4186.282227,3454.000000,4.000000,91.000000,,,,0.000000,4.000000,4.000000,4.000000,4.000000,4.000000,4.000000,4.000000,4.000000,4.000000,4.000000,4.000000,4.000000,4.000000,4.000000,100.000000,,,,,,,,,,,,,,,,
1644852788.697034,144.000000,0.000000,4197.563965,4201.410156,4204.615234,4220.897461,4197.051270,4203.205078,4206.282227,4210.384766,4212.179688,4210.769043,4212.563965,4199.358887,4198.974121,4189.102539,3263.000000,4.000000,91.000000,,,,0.000000,4.000000,4.000000,4.000000,4.000000,4.000000,4.000000,4.000000,4.000000,4.000000,4.000000,4.000000,4.000000,4.000000,4.000000,100.000000,,,,,,,,,,,,,,,,
1644852788.700974,145.000000,0.000000,4192.051270,4201.153809,4204.871582,4217.051270,4190.384766,4206.153809,4207.820313,4210.512695,4215.000000,4212.179688,4211.410156,4201.025879,4205.000000,4193.333496,3478.000000,4.000000,91.000000,,,,0.000000,4.000000,4.000000,4.000000,4.000000,4.000000,4.000000,4.000000,4.000000,4.000000,4.000000,4.000000,4.000000,4.000000,4.000000,100.000000,,,,,,,,,,,,,,,,
1644852788.704914,146.000000,0.000000,4181.282227,4195.769043,4201.410156,4208.846191,4189.358887,4206.666504,4204.102539,4207.051270,4212.563965,4208.717773,4205.256348,4197.051270,4205.897461,4196.922852,3516.000000,4.000000,91.000000,,,,0.000000,4.000000,4.000000,4.000000,4.000000,4.000000,4.000000,4.000000,4.000000,4.000000,4.000000,4.000000,4.000000,4.000000,4.000000,100.000000,,,,,,,,,,,,,,,,
1644852788.708854,147.000000,0.000000,4171.666504,4189.102539,4195.769043,4201.666504,4194.871582,4204.487305,4198.589844,4202.692383,4205.512695,4202.948730,4196.410156,4188.846191,4200.128418,4197.307617,3454.000000,4.000000,91.000000,,,,0.000000,4.000000,4.000000,4.000000,4.000000,4.000000,4.000000,4.000000,4.000000,4.000000,4.000000,4.000000,4.000000,4.000000,4.000000,100.000000,,,,,,,,,,,,,,,,
1644852788.712794,148.000000,0.000000,4167.820313,4185.512695,4190.512695,4198.717773,4202.179688,4201.538574,4197.051270,4200.769043,4197.307617,4198.333496,4187.307617,4179.871582,4190.000000,4192.948730,3263.000000,4.000000,91.000000,,,,0.000000,4.000000,4.000000,4.000000,4.000000,4.000000,4.000000,4.000000,4.000000,4.000000,4.000000,4.000000,4.000000,4.000000,4.000000,100.000000,,,,,,,,,,,,,,,,
1644852788.716734,149.000000,0.000000,4170.512695,4187.307617,4186.922852,4198.717773,4203.846191,4200.769043,4200.512695,4201.666504,4192.692383,4197.692383,4180.384766,4173.205078,4180.256348,4185.000000,3478.000000,4.000000,91.000000,,,,0.000000,4.000000,4.000000,4.000000,4.000000,4.000000,4.000000,4.000000,4.000000,4.000000,4.000000,4.000000,4.000000,4.000000,4.000000,100.000000,,,,,,,,,,,,,,,,
1644852788.720674,150.000000,0.000000,4177.948730,4192.692383,4186.282227,4198.333496,4197.563965,4203.461426,4205.897461,4203.846191,4194.487305,4201.410156,4177.436035,4171.025879,4176.025879,4176.922852,3516.000000,4.000000,91.000000,,,,0.000000,4.000000,4.000000,4.000000,4.000000,4.000000,4.000000,4.000000,4.000000,4.000000,4.000000,4.000000,4.000000,4.000000,4.000000,100.000000,,,,,,,,,,,,,,,,
1644852788.724614,151.000000,0.000000,4186.794922,4198.589844,4188.846191,4196.538574,4189.230957,4209.230957,4209.358887,4205.769043,4201.282227,4207.307617,4179.743652,4172.948730,4178.974121,4172.436035,3454.000000,4.000000,91.000000,,,,0.000000,4.000000,4.000000,4.000000,4.000000,4.000000,4.000000,4.000000,4.000000,4.000000,4.000000,4.000000,4.000000,4.000000,4.000000,100.000000,,,,,,,,,,,,,,,,
1644852788.728555,152.000000,0.000000,4193.846191,4201.666504,4194.487305,4195.641113,4187.692383,4215.128418,4210.769043,4207.307617,4208.589844,4212.179688,4185.769043,4177.563965,4186.794922,4172.307617,3263.000000,4.000000,91.000000,,,,0.000000,4.000000,4.000000,4.000000,4.000000,4.000000,4.000000,4.000000,4.000000,4.000000,4.000000,4.000000,4.000000,4.000000,4.000000,100.000000,,,,,,,,,,,,,,,,
1644852788.732495,153.000000,0.000000,4196.282227,4201.025879,4200.769043,4199.615234,4196.282227,4218.461426,4211.410156,4208.717773,4212.051270,4213.205078,4191.794922,4182.820313,4194.487305,4175.256348,3478.000000,4.000000,91.000000,,,,0.000000,4.000000,4.000000,4.000000,4.000000,4.000000,4.000000,4.000000,4.000000,4.000000,4.000000,4.000000,4.000000,4.000000,4.000000,100.000000,,,,,,,,,,,,,,,,
1644852788.736435,154.000000,0.000000,4193.974121,4197.563965,4203.974121,4209.102539,4209.102539,4217.820313,4212.051270,4209.230957,4210.128418,4210.769043,4194.358887,4187.051270,4198.589844,4179.487305,3516.000000,4.000000,91.000000,,,,0.000000,4.000000,4.000000,4.000000,4.000000,4.000000,4.000000,4.000000,4.000000,4.000000,4.000000,4.000000,4.000000,4.000000,4.000000,100.000000,,,,,,,,,,,,,,,,
1644852788.740375,155.000000,0.000000,4188.717773,4193.717773,4202.179688,4219.358887,4216.282227,4213.974121,4210.769043,4207.820313,4205.384766,4207.051270,4192.948730,4189.358887,4198.205078,4184.743652,3454.000000,4.000000,91.000000,,,,0.000000,4.000000,4.000000,4.000000,4.000000,4.000000,4.000000,4.000000,4.000000,4.000000,4.000000,4.000000,4.000000,4.000000,4.000000,100.000000,,,,,,,,,,,,,,,,
1644852788.744315,156.000000,0.000000,4182.436035,4191.282227,4196.538574,4223.461426,4212.563965,4208.589844,4207.179688,4204.102539,4201.794922,4204.358887,4189.743652,4188.461426,4194.230957,4190.128418,3263.000000,4.000000,91.000000,,,,0.000000,4.000000,4.000000,4.000000,4.000000,4.000000,4.000000,4.000000,4.000000,4.000000,4.000000,4.000000,4.000000,4.000000,4.000000,100.000000,,,,,,,,,,,,,,,,
1644852788.748255,157.000000,0.000000,4175.769043,4190.384766,4190.512695,4217.307617,4200.641113,4203.846191,4203.077148,4200.512695,4201.153809,4202.820313,4187.436035,4183.589844,4187.692383,4192.820313,3478.000000,4.000000,91.000000,,,,0.000000,4.000000,4.000000,4.000000,4.000000,4.000000,4.000000,4.000000,4.000000,4.000000,4.000000,4.000000,4.000000,4.000000,4.000000,100.000000,,,,,,,,,,,,,,,,
1644852788.752095,158.000000,0.000000,4169.230957,4190.000000,4187.179688,4203.333496,4188.846191,4201.282227,4201.922852,4199.230957,4202.563965,4200.897461,4186.922852,4176.410156,4180.128418,4189.358887,3516.000000,4.000000,91.000000,,,,0.000000,4.000000,4.000000,4.000000,4.000000,4.000000,4.000000,4.000000,4.000000,4.000000,4.000000,4.000000,4.000000,4.000000,4.000000,100.000000,,,,,,,,,,,,,,,,
1644852788.756035,159.000000,0.000000,4164.487305,4190.128418,4187.436035,4189.743652,4184.487305,4200.512695,4203.717773,4200.897461,4203.717773,4197.307617,4187.307617,4171.025879,4174.743652,4179.615234,3454.000000,4.000000,91.000000,,,,0.000000,4.000000,4.000000,4.000000,4.000000,4.000000,4.000000,4.000000,4.000000,4.000000,4.000000,4.000000,4.000000,4.000000,4.000000,100.000000,,,,,,,,,,,,,,,,
1644852788.759975,160.000000,0.000000,4165.256348,4191.410156,4190.384766,4185.384766,4189.871582,4201.025879,4206.153809,4203.077148,4203.589844,4193.589844,4188.205078,4171.025879,4176.025879,4170.000000,3263.000000,4.000000,91.000000,,,,0.000000,4.000000,4.000000,4.000000,4.000000,4.000000,4.000000,4.000000,4.000000,4.000000,4.000000,4.000000,4.000000,4.000000,4.000000,100.000000,,,,,,,,,,,,,,,,
1644852788.763916,161.000000,0.000000,4173.717773,4195.384766,4195.000000,4193.717773,4201.538574,4202.436035,4206.794922,4204.230957,4203.717773,4193.077148,4190.641113,4176.794922,4186.410156,4169.871582,3478.000000,4.000000,91.000000,,,,0.000000,4.000000,4.000000,4.000000,4.000000,4.000000,4.000000,4.000000,4.000000,4.000000,4.000000,4.000000,4.000000,4.000000,4.000000,100.000000,,,,,,,,,,,,,,,,
1644852788.767856,162.000000,0.000000,4187.692383,4201.282227,4200.128418,4209.615234,4212.307617,4205.512695,4206.538574,4204.615234,4205.769043,4198.589844,4194.615234,4185.000000,4203.333496,4183.461426,3516.000000,4.000000,91.000000,,,,0.000000,4.000000,4.000000,4.000000,4.000000,4.000000,4.000000,4.000000,4.000000,4.000000,4.000000,4.000000,4.000000,4.000000,4.000000,100.000000,,,,,,,,,,,,,,,,
1644852788.771796,163.000000,0.000000,4201.025879,4205.897461,4204.615234,4222.436035,4216.794922,4210.256348,4207.692383,4205.769043,4210.256348,4209.230957,4198.333496,4190.769043,4218.974121,4204.743652,3454.000000,4.000000,91.000000,,,,0.000000,4.000000,4.000000,4.000000,4.000000,4.000000,4.000000,4.000000,4.000000,4.000000,4.000000,4.000000,4.000000,4.000000,4.000000,100.000000,,,,,,,,,,,,,,,,
1644852788.775736,164.000000,0.000000,4207.051270,4206.410156,4206.410156,4224.487305,4214.230957,4215.256348,4210.256348,4207.948730,4214.871582,4219.743652,4198.974121,4191.538574,4225.512695,4221.025879,3263.000000,4.000000,91.000000,,,,0.000000,4.000000,4.000000,4.000000,4.000000,4.000000,4.000000,4.000000,4.000000,4.000000,4.000000,4.000000,4.000000,4.000000,4.000000,100.000000,,,,,,,,,,,,,,,,
1644852788.779676,165.000000,0.000000,4203.717773,4202.436035,4204.871582,4215.897461,4208.589844,4219.102539,4211.794922,4210.000000,4216.025879,4224.487305,4195.512695,4188.589844,4220.897461,4222.436035,3478.000000,4.000000,91.000000,,,,0.000000,4.000000,4.000000,4.000000,4.000000,4.000000,4.000000,4.000000,4.000000,4.000000,4.000000,4.000000,4.000000,4.000000,4.000000,100.000000,,,,,,,,,,,,,,,,
1644852788.783616,166.000000,0.000000,4193.974121,4196.410156,4201.153809,4203.846191,4204.230957,4220.256348,4210.000000,4210.000000,4212.307617,4221.410156,4189.743652,4185.384766,4210.641113,4208.333496,3516.000000,4.000000,91.000000,,,,0.000000,4.000000,4.000000,4.000000,4.000000,4.000000,4.000000,4.000000,4.000000,4.000000,4.000000,4.000000,4.000000,4.000000,4.000000,100.000000,,,,,,,,,,,,,,,,
1644852788.787556,167.000000,0.000000,4183.333496,4190.769043,4198.077148,4196.025879,4202.820313,4218.974121,4206.282227,4207.179688,4205.641113,4212.820313,4184.615234,4183.846191,4201.794922,4188.077148,3454.000000,4.000000,91.000000,,,,0.000000,4.000000,4.000000,4.000000,4.000000,4.000000,4.000000,4.000000,4.000000,4.000000,4.000000,4.000000,4.000000,4.000000,4.000000,100.000000,,,,,,,,,,,,,,,,
1644852788.791496,168.000000,0.000000,4177.051270,4186.794922,4197.563965,4195.512695,4203.846191,4215.769043,4204.102539,4203.589844,4200.000000,4204.487305,4182.563965,4184.230957,4198.589844,4175.000000,3263.000000,4.000000,91.000000,,,,0.000000,4.000000,4.000000,4.000000,4.000000,4.000000,4.000000,4.000000,4.000000,4.000000,4.000000,4.000000,4.000000,4.000000,4.000000,100.000000,,,,,,,,,,,,,,,,
1644852788.795436,169.000000,0.000000,4177.051270,4185.128418,4200.000000,4200.384766,4206.282227,4212.179688,4204.743652,4202.692383,4199.743652,4201.538574,4184.230957,4186.538574,4200.512695,4177.307617,3478.000000,4.000000,91.000000,,,,0.000000,4.000000,4.000000,4.000000,4.000000,4.000000,4.000000,4.000000,4.000000,4.000000,4.000000,4.000000,4.000000,4.000000,4.000000,100.000000,,,,,,,,,,,,,,,,
1644852788.799377,170.000000,0.000000,4182.179688,4186.794922,4203.461426,4207.563965,4209.358887,4210.128418,4206.794922,4206.410156,4205.897461,4205.897461,4189.102539,4190.256348,4205.128418,4192.948730,3516.000000,4.000000,91.000000,,,,0.000000,4.000000,4.000000,4.000000,4.000000,4.000000,4.000000,4.000000,4.000000,4.000000,4.000000,4.000000,4.000000,4.000000,4.000000,100.000000,,,,,,,,,,,,,,,,
1644852788.803317,171.000000,0.000000,4188.333496,4190.641113,4205.256348,4214.743652,4211.025879,4210.512695,4208.205078,4213.205078,4215.384766,4214.615234,4195.512695,4195.128418,4210.512695,4210.512695,3454.000000,4.000000,91.000000,,,,0.000000,4.000000,4.000000,4.000000,4.000000,4.000000,4.000000,4.000000,4.000000,4.000000,4.000000,4.000000,4.000000,4.000000,4.000000,100.000000,,,,,,,,,,,,,,,,
1644852788.807257,172.000000,0.000000,4191.282227,4192.948730,4203.974121,4219.871582,4208.974121,4212.436035,4208.589844,4218.589844,4222.820313,4221.410156,4201.282227,4200.256348,4214.102539,4217.436035,3263.000000,4.000000,91.000000,,,,0.000000,4.000000,4.000000,4.000000,4.000000,4.000000,4.000000,4.000000,4.000000,4.000000,4.000000,4.000000,4.000000,4.000000,4.000000,100.000000,,,,,,,,,,,,,,,,
1644852788.811197,173.000000,0.000000,4188.589844,4189.871582,4200.256348,4220.384766,4203.333496,4214.230957,4209.230957,4218.974121,4223.717773,4222.051270,4205.512695,4203.846191,4213.846191,4209.487305,3478.000000,4.000000,91.000000,,,,0.000000,4.000000,4.000000,4.000000,4.000000,4.000000,4.000000,4.000000,4.000000,4.000000,4.000000,4.000000,4.000000,4.000000,4.000000,100.000000,,,,,,,,,,,,,,,,
1644852788.815137,174.000000,0.000000,4181.025879,4181.794922,4196.410156,4214.230957,4197.820313,4214.230957,4210.384766,4213.974121,4217.436035,4216.410156,4208.846191,4203.461426,4208.461426,4193.205078,3516.000000,4.000000,91.000000,,,,0.000000,4.000000,4.000000,4.000000,4.000000,4.000000,4.000000,4.000000,4.000000,4.000000,4.000000,4.000000,4.000000,4.000000,4.000000,100.000000,,,,,,,,,,,,,,,,
1644852788.819077,175.000000,0.000000,4172.436035,4173.717773,4193.974121,4201.922852,4196.153809,4212.307617,4210.256348,4206.538574,4208.077148,4208.461426,4212.179688,4198.717773,4199.871582,4180.384766,3454.000000,4.000000,91.000000,1,1,1,0.000000,4.000000,4.000000,4.000000,4.000000,4.000000,4.000000,4.000000,4.000000,4.000000,4.000000,4.000000,4.000000,4.000000,4.000000,100.000000,,,,,,,,,,,,,,,,
1644852788.823117,176.000000,0.000000,4166.666504,4171.538574,4193.461426,4188.589844,4198.461426,4209.743652,4207.436035,4201.025879,4201.153809,4203.077148,4213.589844,4191.282227,4192.307617,4178.589844,3263.000000,4.000000,91.000000,,,,0.000000,4.000000,4.000000,4.000000,4.000000,4.000000,4.000000,4.000000,4.000000,4.000000,4.000000,4.000000,4.000000,4.000000,4.000000,100.000000,,,,,,,,,,,,,,,,
1644852788.827057,177.000000,0.000000,4166.282227,4176.794922,4193.974121,4182.436035,4200.769043,4207.820313,4203.333496,4199.743652,4200.000000,4202.179688,4209.487305,4185.128418,4190.000000,4185.128418,3478.000000,4.000000,91.000000,,,,0.000000,4.000000,4.000000,4.000000,4.000000,4.000000,4.000000,4.000000,4.000000,4.000000,4.000000,4.000000,4.000000,4.000000,4.000000,100.000000,,,,,,,,,,,,,,,,
1644852788.830997,178.000000,0.000000,4170.641113,4185.256348,4194.487305,4188.461426,4200.384766,4207.307617,4201.410156,4202.820313,4204.102539,4204.743652,4198.589844,4183.717773,4194.487305,4191.282227,3516.000000,4.000000,91.000000,,,,0.000000,4.000000,4.000000,4.000000,4.000000,4.000000,4.000000,4.000000,4.000000,4.000000,4.000000,4.000000,4.000000,4.000000,4.000000,100.000000,,,,,,,,,,,,,,,,
1644852788.834937,179.000000,0.000000,4177.051270,4190.897461,4195.000000,4203.077148,4198.717773,4207.948730,4203.717773,4208.205078,4210.000000,4209.230957,4185.897461,4187.948730,4203.333496,4190.769043,3454.000000,4.000000,91.000000,,,,0.000000,4.000000,4.000000,4.000000,4.000000,4.000000,4.000000,4.000000,4.000000,4.000000,4.000000,4.000000,4.000000,4.000000,4.000000,100.000000,,,,,,,,,,,,,,,,
1644852788.838877,180.000000,0.000000,4181.922852,4191.282227,4195.512695,4215.384766,4199.230957,4209.102539,4208.205078,4212.436035,4214.615234,4215.000000,4179.487305,4195.384766,4211.538574,4185.256348,3263.000000,4.000000,91.000000,,,,0.000000,4.000000,4.000000,4.000000,4.000000,4.000000,4.000000,4.000000,4.000000,4.000000,4.000000,4.000000,4.000000,4.000000,4.000000,100.000000,,,,,,,,,,,,,,,,
1644852788.842818,181.000000,0.000000,4183.974121,4188.717773,4195.512695,4215.384766,4202.820313,4210.128418,4210.769043,4213.461426,4216.410156,4221.282227,4183.589844,4201.666504,4215.384766,4182.179688,3478.000000,4.000000,91.000000,,,,0.000000,4.000000,4.000000,4.000000,4.000000,4.000000,4.000000,4.000000,4.000000,4.000000,4.000000,4.000000,4.000000,4.000000,4.000000,100.000000,,,,,,,,,,,,,,,,
1644852788.846758,182.000000,0.000000,4182.948730,4186.410156,4194.743652,4202.820313,4205.897461,4210.769043,4210.000000,4211.538574,4215.512695,4226.282227,4193.974121,4203.589844,4214.487305,4187.307617,3516.000000,4.000000,91.000000,,,,0.000000,4.000000,4.000000,4.000000,4.000000,4.000000,4.000000,4.000000,4.000000,4.000000,4.000000,4.000000,4.000000,4.000000,4.000000,100.000000,,,,,,,,,,,,,,,,
1644852788.850698,183.000000,0.000000,4180.512695,4185.128418,4193.974121,4188.333496,4203.974121,4211.153809,4208.205078,4209.358887,4213.205078,4227.051270,4201.410156,4200.769043,4211.666504,4199.102539,3454.000000,4.000000,91.000000,,,,0.000000,4.000000,4.000000,4.000000,4.000000,4.000000,4.000000,4.000000,4.000000,4.000000,4.000000,4.000000,4.000000,4.000000,4.000000,100.000000,,,,,,,,,,,,,,,,
1644852788.854638,184.000000,0.000000,4178.846191,4183.461426,4194.487305,4184.871582,4196.666504,4212.051270,4208.205078,4209.102539,4210.641113,4222.436035,4199.743652,4196.025879,4210.128418,4210.256348,3263.000000,4.000000,91.000000,,,,0.000000,4.000000,4.000000,4.000000,4.000000,4.000000,4.000000,4.000000,4.000000,4.000000,4.000000,4.000000,4.000000,4.000000,4.000000,100.000000,,,,,,,,,,,,,,,,
1644852788.858578,185.000000,0.000000,4180.000000,4180.769043,4197.179688,4196.282227,4189.871582,4213.589844,4210.000000,4211.025879,4209.615234,4215.256348,4191.410156,4192.948730,4210.769043,4213.974121,3478.000000,4.000000,91.000000,,,,0.000000,4.000000,4.000000,4.000000,4.000000,4.000000,4.000000,4.000000,4.000000,4.000000,4.000000,4.000000,4.000000,4.000000,4.000000,100.000000,,,,,,,,,,,,,,,,
1644852788.862518,186.000000,0.000000,4183.974121,4177.563965,4199.871582,4212.948730,4190.641113,4215.000000,4211.025879,4213.461426,4210.512695,4210.384766,4184.102539,4192.179688,4211.666504,4209.230957,3516.000000,4.000000,91.000000,,,,0.000000,4.000000,4.000000,4.000000,4.000000,4.000000,4.000000,4.000000,4.000000,4.000000,4.000000,4.000000,4.000000,4.000000,4.000000,100.000000,,,,,,,,,,,,,,,,
1644852788.866458,187.000000,0.000000,4188.077148,4176.153809,4199.230957,4220.769043,4200.128418,4215.512695,4210.128418,4214.102539,4212.563965,4210.000000,4183.717773,4191.922852,4210.384766,4201.153809,3454.000000,4.000000,91.000000,,,,0.000000,4.000000,4.000000,4.000000,4.000000,4.000000,4.000000,4.000000,4.000000,4.000000,4.000000,4.000000,4.000000,4.000000,4.000000,100.000000,,,,,,,,,,,,,,,,
1644852788.870398,188.000000,0.000000,4188.717773,4178.205078,4194.615234,4213.974121,4211.666504,4214.615234,4208.717773,4212.692383,4213.717773,4211.410156,4188.974121,4189.358887,4206.153809,4195.897461,3263.000000,4.000000,91.000000,,,,0.000000,4.000000,4.000000,4.000000,4.000000,4.000000,4.000000,4.000000,4.000000,4.000000,4.000000,4.000000,4.000000,4.000000,4.000000,100.000000,,,,,,,,,,,,,,,,
1644852788.874338,189.000000,0.000000,4184.358887,4183.205078,4188.974121,4199.743652,4215.256348,4213.846191,4208.974121,4210.512695,4212.307617,4210.897461,4194.102539,4184.871582,4201.666504,4195.641113,3478.000000,4.000000,91.000000,,,,0.000000,4.000000,4.000000,4.000000,4.000000,4.000000,4.000000,4.000000,4.000000,4.000000,4.000000,4.000000,4.000000,4.000000,4.000000,100.000000,,,,,,,,,,,,,,,,
1644852788.878279,190.000000,0.000000,4176.794922,4188.846191,4186.922852,4190.769043,4206.666504,4214.615234,4210.128418,4209.615234,4209.102539,4208.077148,4194.102539,4181.410156,4200.512695,4197.179688,3516.000000,4.000000,91.000000,,,,0.000000,4.000000,4.000000,4.000000,4.000000,4.000000,4.000000,4.000000,4.000000,4.000000,4.000000,4.000000,4.000000,4.000000,4.000000,100.000000,,,,,,,,,,,,,,,,
1644852788.882219,191.000000,0.000000,4170.128418,4191.410156,4190.128418,4194.102539,4191.410156,4216.794922,4210.384766,4210.384766,4206.538574,4206.153809,4189.487305,4181.025879,4203.333496,4195.512695,3454.000000,4.000000,91.000000,,,,0.000000,4.000000,4.000000,4.000000,4.000000,4.000000,4.000000,4.000000,4.000000,4.000000,4.000000,4.000000,4.000000,4.000000,4.000000,100.000000,,,,,,,,,,,,,,,,
1644852788.886159,192.000000,0.000000,4167.563965,4189.871582,4196.282227,4205.769043,4181.025879,4218.461426,4208.974121,4211.538574,4206.538574,4207.563965,4185.384766,4183.205078,4207.563965,4189.615234,3263.000000,4.000000,91.000000,,,,0.000000,4.000000,4.000000,4.000000,4.000000,4.000000,4.000000,4.000000,4.000000,4.000000,4.000000,4.000000,4.000000,4.000000,4.000000,100.000000,,,,,,,,,,,,,,,,
1644852788.890099,193.000000,0.000000,4170.384766,4186.153809,4200.769043,4215.512695,4182.948730,4218.077148,4207.692383,4211.666504,4208.974121,4211.666504,4186.282227,4185.512695,4209.487305,4183.205078,3478.000000,4.000000,91.000000,,,,0.000000,4.000000,4.000000,4.000000,4.000000,4.000000,4.000000,4.000000,4.000000,4.000000,4.000000,4.000000,4.000000,4.000000,4.000000,100.000000,,,,,,,,,,,,,,,,
1644852788.894039,194.000000,0.000000,4177.051270,4184.102539,4200.256348,4215.128418,4195.256348,4215.641113,4208.205078,4210.384766,4211.922852,4215.000000,4192.436035,4186.538574,4207.179688,4181.666504,3516.000000,4.000000,91.000000,,,,0.000000,4.000000,4.000000,4.000000,4.000000,4.000000,4.000000,4.000000,4.000000,4.000000,4.000000,4.000000,4.000000,4.000000,4.000000,100.000000,,,,,,,,,,,,,,,,
1644852788.897879,195.000000,0.000000,4183.717773,4185.256348,4195.128418,4205.641113,4209.487305,4212.820313,4209.102539,4208.077148,4213.461426,4215.000000,4198.717773,4186.538574,4202.436035,4186.538574,3454.000000,4.000000,91.000000,,,,0.000000,4.000000,4.000000,4.000000,4.000000,4.000000,4.000000,4.000000,4.000000,4.000000,4.000000,4.000000,4.000000,4.000000,4.000000,100.000000,,,,,,,,,,,,,,,,
1644852788.901819,196.000000,0.000000,4187.307617,4188.846191,4188.974121,4194.871582,4217.563965,4211.666504,4207.563965,4206.410156,4212.948730,4212.563965,4200.128418,4187.563965,4198.717773,4194.871582,3263.000000,4.000000,91.000000,,,,0.000000,4.000000,4.000000,4.000000,4.000000,4.000000,4.000000,4.000000,4.000000,4.000000,4.000000,4.000000,4.000000,4.000000,4.000000,100.000000,,,,,,,,,,,,,,,,
1644852788.905759,197.000000,0.000000,4187.692383,4192.051270,4186.538574,4191.282227,4218.717773,4212.692383,4203.846191,4207.179688,4211.538574,4210.769043,4195.769043,4191.410156,4198.974121,4201.794922,3478.000000,4.000000,91.000000,,,,0.000000,4.000000,4.000000,4.000000,4.000000,4.000000,4.000000,4.000000,4.000000,4.000000,4.000000,4.000000,4.000000,4.000000,4.000000,100.000000,,,,,,,,,,,,,,,,
1644852788.909699,198.000000,0.000000,4186.794922,4193.333496,4190.769043,4197.563965,4217.436035,4215.384766,4201.410156,4210.641113,4210.769043,4212.307617,4190.000000,4197.307617,4203.589844,4204.615234,3516.000000,4.000000,91.000000,,,,0.000000,4.000000,4.000000,4.000000,4.000000,4.000000,4.000000,4.000000,4.000000,4.000000,4.000000,4.000000,4.000000,4.000000,4.000000,100.000000,,,,,,,,,,,,,,,,
1644852788.913640,199.000000,0.000000,4187.948730,4193.205078,4200.000000,4210.000000,4217.563965,4217.948730,4203.461426,4214.871582,4211.666504,4217.307617,4188.205078,4201.922852,4209.743652,4203.974121,3454.000000,4.000000,91.000000,,,,0.000000,4.000000,4.000000,4.000000,4.000000,4.000000,4.000000,4.000000,4.000000,4.000000,4.000000,4.000000,4.000000,4.000000,4.000000,100.000000,,,,,,,,,,,,,,,,
1644852788.917580,200.000000,0.000000,4192.820313,4193.589844,4208.974121,4221.666504,4218.461426,4219.230957,4208.589844,4217.307617,4214.102539,4223.461426,4191.922852,4202.692383,4214.102539,4202.307617,3263.000000,4.000000,91.000000,,,,0.000000,4.000000,4.000000,4.000000,4.000000,4.000000,4.000000,4.000000,4.000000,4.000000,4.000000,4.000000,4.000000,4.000000,4.000000,100.000000,,,,,,,,,,,,,,,,
1644852788.921520,201.000000,0.000000,4200.000000,4196.025879,4213.589844,4226.794922,4216.538574,4218.846191,4212.692383,4216.794922,4217.820313,4228.333496,4198.589844,4200.641113,4215.128418,4200.897461,3478.000000,4.000000,91.000000,,,,0.000000,4.000000,4.000000,4.000000,4.000000,4.000000,4.000000,4.000000,4.000000,4.000000,4.000000,4.000000,4.000000,4.000000,4.000000,100.000000,,,,,,,,,,,,,,,,
1644852788.925460,202.000000,0.000000,4205.641113,4200.769043,4213.589844,4223.846191,4210.641113,4218.077148,4213.717773,4215.128418,4221.794922,4230.641113,4204.615234,4199.230957,4213.461426,4200.897461,3516.000000,4.000000,91.000000,,,,0.000000,4.000000,4.000000,4.000000,4.000000,4.000000,4.000000,4.000000,4.000000,4.000000,4.000000,4.000000,4.000000,4.000000,4.000000,100.000000,,,,,,,,,,,,,,,,
1644852788.929400,203.000000,0.000000,4207.051270,4205.897461,4212.563965,4216.282227,4203.974121,4218.589844,4213.717773,4215.128418,4224.743652,4230.641113,4208.333496,4201.666504,4211.794922,4203.077148,3454.000000,4.000000,91.000000,,,,0.000000,4.000000,4.000000,4.000000,4.000000,4.000000,4.000000,4.000000,4.000000,4.000000,4.000000,4.000000,4.000000,4.000000,4.000000,100.000000,,,,,,,,,,,,,,,,
1644852788.933340,204.000000,0.000000,4203.846191,4209.871582,4213.205078,4210.384766,4201.922852,4220.000000,4215.128418,4218.205078,4225.512695,4229.871582,4209.358887,4207.307617,4211.922852,4207.692383,3263.000000,4.000000,91.000000,,,,0.000000,4.000000,4.000000,4.000000,4.000000,4.000000,4.000000,4.000000,4.000000,4.000000,4.000000,4.000000,4.000000,4.000000,4.000000,100.000000,,,,,,,,,,,,,,,,
1644852788.937280,205.000000,0.000000,4198.461426,4211.282227,4215.384766,4211.153809,4207.051270,4220.641113,4216.922852,4222.179688,4223.717773,4228.974121,4208.077148,4212.179688,4214.102539,4213.846191,3478.000000,4.000000,91.000000,,,,0.000000,4.000000,4.000000,4.000000,4.000000,4.000000,4.000000,4.000000,4.000000,4.000000,4.000000,4.000000,4.000000,4.000000,4.000000,100.000000,,,,,,,,,,,,,,,,
1644852788.941220,206.000000,0.000000,4194.487305,4209.358887,4216.025879,4218.589844,4215.384766,4218.461426,4215.769043,4223.589844,4220.256348,4226.666504,4205.384766,4212.692383,4216.410156,4217.820313,3516.000000,4.000000,91.000000,,,,0.000000,4.000000,4.000000,4.000000,4.000000,4.000000,4.000000,4.000000,4.000000,4.000000,4.000000,4.000000,4.000000,4.000000,4.000000,100.000000,,,,,,,,,,,,,,,,
1644852788.945160,207.000000,0.000000,4194.358887,4203.974121,4213.589844,4227.436035,4218.846191,4213.846191,4210.384766,4220.384766,4215.641113,4220.641113,4202.563965,4208.717773,4216.666504,4215.641113,3454.000000,4.000000,91.000000,,,,0.000000,4.000000,4.000000,4.000000,4.000000,4.000000,4.000000,4.000000,4.000000,4.000000,4.000000,4.000000,4.000000,4.000000,4.000000,100.000000,,,,,,,,,,,,,,,,
1644852788.949101,208.000000,0.000000,4197.692383,4196.410156,4209.358887,4232.820313,4212.436035,4208.846191,4204.615234,4214.102539,4210.897461,4210.512695,4200.256348,4203.077148,4214.230957,4205.769043,3263.000000,4.000000,91.000000,,,,0.000000,4.000000,4.000000,4.000000,4.000000,4.000000,4.000000,4.000000,4.000000,4.000000,4.000000,4.000000,4.000000,4.000000,4.000000,100.000000,,,,,,,,,,,,,,,,
1644852788.953041,209.000000,0.000000,4201.794922,4189.230957,4206.538574,4233.077148,4199.358887,4206.410156,4202.820313,4208.974121,4206.666504,4199.743652,4198.205078,4198.974121,4210.641113,4191.282227,3478.000000,4.000000,91.000000,,,,0.000000,4.000000,4.000000,4.000000,4.000000,4.000000,4.000000,4.000000,4.000000,4.000000,4.000000,4.000000,4.000000,4.000000,4.000000,100.000000,,,,,,,,,,,,,,,,
1644852788.956981,210.000000,0.000000,4203.589844,4184.871582,4206.666504,4230.128418,4189.743652,4208.333496,4205.512695,4208.077148,4203.974121,4193.461426,4195.641113,4197.820313,4208.205078,4178.974121,3516.000000,4.000000,91.000000,,,,0.000000,4.000000,4.000000,4.000000,4.000000,4.000000,4.000000,4.000000,4.000000,4.000000,4.000000,4.000000,4.000000,4.000000,4.000000,100.000000,,,,,,,,,,,,,,,,
1644852788.961021,211.000000,0.000000,4201.922852,4184.743652,4208.461426,4225.641113,4191.666504,4212.820313,4208.589844,4210.128418,4203.461426,4194.743652,4192.179688,4198.333496,4207.436035,4175.128418,3454.000000,4.000000,91.000000,,,,0.000000,4.000000,4.000000,4.000000,4.000000,4.000000,4.000000,4.000000,4.000000,4.000000,4.000000,4.000000,4.000000,4.000000,4.000000,100.000000,,,,,,,,,,,,,,,,
1644852788.964961,212.000000,0.000000,4198.461426,4187.692383,4208.846191,4219.102539,4204.102539,4216.538574,4208.589844,4211.922852,4203.974121,4201.538574,4187.820313,4198.205078,4206.794922,4181.282227,3263.000000,4.000000,91.000000,,,,0.000000,4.000000,4.000000,4.000000,4.000000,4.000000,4.000000,4.000000,4.000000,4.000000,4.000000,4.000000,4.000000,4.000000,4.000000,100.000000,,,,,,,,,,,,,,,,
1644852788.968901,213.000000,0.000000,4195.641113,4190.384766,4206.922852,4209.102539,4217.692383,4216.666504,4205.897461,4210.897461,4203.717773,4209.487305,4183.846191,4196.153809,4204.230957,4193.077148,3478.000000,4.000000,91.000000,,,,0.000000,4.000000,4.000000,4.000000,4.000000,4.000000,4.000000,4.000000,4.000000,4.000000,4.000000,4.000000,4.000000,4.000000,4.000000,100.000000,,,,,,,,,,,,,,,,
1644852788.972841,214.000000,0.000000,4194.487305,4190.256348,4204.230957,4196.922852,4222.820313,4213.589844,4204.230957,4207.948730,4202.179688,4215.256348,4183.077148,4192.563965,4199.871582,4203.205078,3516.000000,4.000000,91.000000,2,1,1,0.000000,4.000000,4.000000,4.000000,4.000000,4.000000,4.000000,4.000000,4.000000,4.000000,4.000000,4.000000,4.000000,4.000000,4.000000,100.000000,,,,,,,,,,,,,,,,
1644852788.976781,215.000000,0.000000,4194.102539,4187.307617,4203.461426,4187.563965,4216.794922,4210.384766,4205.128418,4206.025879,4200.641113,4218.333496,4187.948730,4189.358887,4195.897461,4206.153809,3454.000000,4.000000,91.000000,,,,0.000000,4.000000,4.000000,4.000000,4.000000,4.000000,4.000000,4.000000,4.000000,4.000000,4.000000,4.000000,4.000000,4.000000,4.000000,100.000000,,,,,,,,,,,,,,,,
1644852788.980721,216.000000,0.000000,4193.333496,4184.615234,4205.769043,4186.794922,4204.871582,4210.256348,4206.794922,4207.051270,4201.538574,4220.128418,4197.820313,4188.205078,4194.871582,4200.897461,3263.000000,4.000000,91.000000,,,,0.000000,4.000000,4.000000,4.000000,4.000000,4.000000,4.000000,4.000000,4.000000,4.000000,4.000000,4.000000,4.000000,4.000000,4.000000,100.000000,,,,,,,,,,,,,,,,
1644852788.984661,217.000000,0.000000,4192.563965,4185.000000,4209.487305,4195.384766,4195.256348,4213.461426,4207.307617,4210.769043,4205.000000,4221.538574,4207.563965,4189.102539,4197.436035,4190.128418,3478.000000,4.000000,91.000000,,,,0.000000,4.000000,4.000000,4.000000,4.000000,4.000000,4.000000,4.000000,4.000000,4.000000,4.000000,4.000000,4.000000,4.000000,4.000000,100.000000,,,,,,,,,,,,,,,,
1644852788.988601,218.000000,0.000000,4193.205078,4188.717773,4211.922852,4208.589844,4192.948730,4217.692383,4206.666504,4214.743652,4208.205078,4221.538574,4210.512695,4190.641113,4201.538574,4178.205078,3516.000000,4.000000,91.000000,,,,0.000000,4.000000,4.000000,4.000000,4.000000,4.000000,4.000000,4.000000,4.000000,4.000000,4.000000,4.000000,4.000000,4.000000,4.000000,100.000000,,,,,,,,,,,,,,,,
1644852788.992542,219.000000,0.000000,4195.384766,4193.589844,4210.512695,4219.102539,4198.077148,4219.487305,4206.794922,4216.282227,4208.461426,4219.230957,4203.589844,4191.410156,4204.487305,4169.102539,3454.000000,4.000000,91.000000,,,,0.000000,4.000000,4.000000,4.000000,4.000000,4.000000,4.000000,4.000000,4.000000,4.000000,4.000000,4.000000,4.000000,4.000000,4.000000,100.000000,,,,,,,,,,,,,,,,
1644852788.996482,220.000000,0.000000,4197.563965,4197.051270,4205.000000,4222.692383,4206.410156,4217.820313,4208.461426,4214.358887,4205.769043,4215.000000,4190.769043,4191.025879,4205.128418,4165.897461,3263.000000,4.000000,91.000000,,,,0.000000,4.000000,4.000000,4.000000,4.000000,4.000000,4.000000,4.000000,4.000000,4.000000,4.000000,4.000000,4.000000,4.000000,4.000000,100.000000,,,,,,,,,,,,,,,,
1644852789.000422,221.000000,0.000000,4197.692383,4197.179688,4197.563965,4220.256348,4213.461426,4214.615234,4210.128418,4210.641113,4202.692383,4210.000000,4180.000000,4190.128418,4204.871582,4168.461426,3478.000000,4.000000,91.000000,,,,0.000000,4.000000,4.000000,4.000000,4.000000,4.000000,4.000000,4.000000,4.000000,4.000000,4.000000,4.000000,4.000000,4.000000,4.000000,100.000000,,,,,,,,,,,,,,,,
1644852789.004362,222.000000,0.000000,4195.384766,4193.717773,4191.794922,4215.769043,4217.436035,4212.692383,4210.128418,4207.820313,4202.051270,4205.897461,4177.692383,4188.974121,4205.000000,4172.948730,3516.000000,4.000000,91.000000,,,,0.000000,4.000000,4.000000,4.000000,4.000000,4.000000,4.000000,4.000000,4.000000,4.000000,4.000000,4.000000,4.000000,4.000000,4.000000,100.000000,,,,,,,,,,,,,,,,
1644852789.008302,223.000000,0.000000,4192.179688,4188.461426,4190.384766,4212.307617,4218.589844,4213.461426,4209.743652,4208.589844,4204.358887,4203.846191,4183.717773,4187.436035,4205.128418,4173.846191,3454.000000,4.000000,91.000000,,,,0.000000,4.000000,4.000000,4.000000,4.000000,4.000000,4.000000,4.000000,4.000000,4.000000,4.000000,4.000000,4.000000,4.000000,4.000000,100.000000,,,,,,,,,,,,,,,,
1644852789.012242,224.000000,0.000000,4190.641113,4183.333496,4192.820313,4208.974121,4217.820313,4215.384766,4211.025879,4213.077148,4208.461426,4204.230957,4192.948730,4185.641113,4204.487305,4168.717773,3263.000000,4.000000,91.000000,,,,0.000000,4.000000,4.000000,4.000000,4.000000,4.000000,4.000000,4.000000,4.000000,4.000000,4.000000,4.000000,4.000000,4.000000,4.000000,100.000000,,,,,,,,,,,,,,,,
1644852789.016182,225.000000,0.000000,4191.794922,4180.512695,4196.025879,4203.333496,4216.538574,4216.666504,4214.358887,4218.846191,4212.692383,4207.307617,4199.743652,4184.871582,4203.589844,4161.025879,3478.000000,4.000000,91.000000,,,,0.000000,4.000000,4.000000,4.000000,4.000000,4.000000,4.000000,4.000000,4.000000,4.000000,4.000000,4.000000,4.000000,4.000000,4.000000,100.000000,,,,,,,,,,,,,,,,
1644852789.020122,226.000000,0.000000,4194.615234,4181.153809,4197.307617,4194.871582,4215.641113,4217.307617,4217.051270,4222.436035,4216.153809,4212.692383,4202.051270,4186.153809,4204.615234,4156.666504,3516.000000,4.000000,91.000000,,,,0.000000,4.000000,4.000000,4.000000,4.000000,4.000000,4.000000,4.000000,4.000000,4.000000,4.000000,4.000000,4.000000,4.000000,4.000000,100.000000,,,,,,,,,,,,,,,,
1644852789.024062,227.000000,0.000000,4196.153809,4185.000000,4196.666504,4187.692383,4216.153809,4218.205078,4216.538574,4221.794922,4218.333496,4219.358887,4201.025879,4189.743652,4207.948730,4158.717773,3454.000000,4.000000,91.000000,,,,0.000000,4.000000,4.000000,4.000000,4.000000,4.000000,4.000000,4.000000,4.000000,4.000000,4.000000,4.000000,4.000000,4.000000,4.000000,100.000000,,,,,,,,,,,,,,,,
1644852789.028003,228.000000,0.000000,4194.871582,4190.769043,4196.538574,4187.692383,4218.589844,4219.358887,4213.846191,4218.717773,4219.102539,4225.641113,4199.871582,4194.615234,4211.794922,4165.128418,3263.000000,4.000000,91.000000,,,,0.000000,4.000000,4.000000,4.000000,4.000000,4.000000,4.000000,4.000000,4.000000,4.000000,4.000000,4.000000,4.000000,4.000000,4.000000,100.000000,,,,,,,,,,,,,,,,
1644852789.032043,229.000000,0.000000,4191.922852,4196.666504,4199.230957,4196.282227,4221.666504,4219.743652,4211.794922,4216.922852,4218.589844,4230.256348,4201.794922,4198.589844,4212.692383,4170.384766,3478.000000,4.000000,91.000000,,,,0.000000,4.000000,4.000000,4.000000,4.000000,4.000000,4.000000,4.000000,4.000000,4.000000,4.000000,4.000000,4.000000,4.000000,4.000000,100.000000,,,,,,,,,,,,,,,,
1644852789.035983,230.000000,0.000000,4191.282227,4200.384766,4203.846191,4208.333496,4223.205078,4217.948730,4211.794922,4217.692383,4216.666504,4232.179688,4207.820313,4200.512695,4209.871582,4170.128418,3516.000000,4.000000,91.000000,,,,0.000000,4.000000,4.000000,4.000000,4.000000,4.000000,4.000000,4.000000,4.000000,4.000000,4.000000,4.000000,4.000000,4.000000,4.000000,100.000000,,,,,,,,,,,,,,,,
1644852789.039923,231.000000,0.000000,4194.743652,4201.025879,4206.153809,4215.128418,4220.384766,4213.974121,4211.794922,4218.333496,4213.461426,4231.153809,4215.000000,4199.743652,4205.897461,4164.358887,3454.000000,4.000000,91.000000,,,,0.000000,4.000000,4.000000,4.000000,4.000000,4.000000,4.000000,4.000000,4.000000,4.000000,4.000000,4.000000,4.000000,4.000000,4.000000,100.000000,,,,,,,,,,,,,,,,
1644852789.043863,232.000000,0.000000,4200.384766,4198.717773,4203.077148,4212.179688,4213.077148,4209.358887,4209.358887,4215.384766,4208.974121,4227.563965,4218.077148,4196.282227,4205.384766,4157.051270,3263.000000,4.000000,91.000000,,,,0.000000,4.000000,4.000000,4.000000,4.000000,4.000000,4.000000,4.000000,4.000000,4.000000,4.000000,4.000000,4.000000,4.000000,4.000000,100.000000,,,,,,,,,,,,,,,,
1644852789.047803,233.000000,0.000000,4203.717773,4195.256348,4195.384766,4203.333496,4204.615234,4206.794922,4205.641113,4208.974121,4204.487305,4221.922852,4213.717773,4191.410156,4210.128418,4152.948730,3478.000000,4.000000,91.000000,,,,0.000000,4.000000,4.000000,4.000000,4.000000,4.000000,4.000000,4.000000,4.000000,4.000000,4.000000,4.000000,4.000000,4.000000,4.000000,100.000000,,,,,,,,,,,,,,,,
1644852789.051743,234.000000,0.000000,4202.692383,4192.820313,4188.974121,4195.897461,4199.615234,4207.948730,4204.230957,4203.589844,4202.563965,4215.641113,4204.487305,4188.077148,4217.436035,4153.205078,3516.000000,4.000000,91.000000,,,,0.000000,4.000000,4.000000,4.000000,4.000000,4.000000,4.000000,4.000000,4.000000,4.000000,4.000000,4.000000,4.000000,4.000000,4.000000,100.000000,,,,,,,,,,,,,,,,
1644852789.055683,235.000000,0.000000,4199.487305,4192.948730,4188.717773,4194.102539,4200.897461,4212.692383,4207.051270,4203.461426,4204.871582,4211.025879,4196.922852,4188.333496,4222.179688,4155.641113,3454.000000,4.000000,91.000000,,,,0.000000,4.000000,4.000000,4.000000,4.000000,4.000000,4.000000,4.000000,4.000000,4.000000,4.000000,4.000000,4.000000,4.000000,4.000000,100.000000,,,,,,,,,,,,,,,,
1644852789.059623,236.000000,0.000000,4197.948730,4195.256348,4195.384766,4196.025879,4208.205078,4217.948730,4211.794922,4209.102539,4210.384766,4210.128418,4196.025879,4192.563965,4221.666504,4156.410156,3263.000000,4.000000,91.000000,,,,0.000000,4.000000,4.000000,4.000000,4.000000,4.000000,4.000000,4.000000,4.000000,4.000000,4.000000,4.000000,4.000000,4.000000,4.000000,100.000000,,,,,,,,,,,,,,,,
1644852789.063563,237.000000,0.000000,4199.615234,4197.563965,4203.846191,4197.692383,4218.333496,4220.384766,4214.487305,4216.410156,4215.512695,4213.333496,4200.769043,4198.589844,4216.794922,4153.974121,3478.000000,4.000000,91.000000,,,,0.000000,4.000000,4.000000,4.000000,4.000000,4.000000,4.000000,4.000000,4.000000,4.000000,4.000000,4.000000,4.000000,4.000000,4.000000,100.000000,,,,,,,,,,,,,,,,
1644852789.067504,238.000000,0.000000,4202.051270,4197.820313,4208.077148,4197.692383,4226.794922,4218.717773,4213.461426,4220.384766,4217.179688,4218.333496,4205.512695,4203.461426,4211.153809,4150.769043,3516.000000,4.000000,91.000000,,,,0.000000,4.000000,4.000000,4.000000,4.000000,4.000000,4.000000,4.000000,4.000000,4.000000,4.000000,4.000000,4.000000,4.000000,4.000000,100.000000,,,,,,,,,,,,,,,,
1644852789.071444,239.000000,0.000000,4202.820313,4195.641113,4205.384766,4198.333496,4229.487305,4215.128418,4210.897461,4218.846191,4215.256348,4222.051270,4204.871582,4205.512695,4208.077148,4151.282227,3454.000000,4.000000,91.000000,,,,0.000000,4.000000,4.000000,4.000000,4.000000,4.000000,4.000000,4.000000,4.000000,4.000000,4.000000,4.000000,4.000000,4.000000,4.000000,100.000000,,,,,,,,,,,,,,,,
1644852789.075384,240.000000,0.000000,4202.692383,4192.948730,4198.589844,4201.666504,4225.256348,4213.077148,4209.743652,4214.871582,4213.717773,4223.077148,4199.358887,4204.615234,4209.230957,4158.205078,3263.000000,4.000000,91.000000,,,,0.000000,4.000000,4.000000,4.000000,4.000000,4.000000,4.000000,4.000000,4.000000,4.000000,4.000000,4.000000,4.000000,4.000000,4.000000,100.000000,,,,,,,,,,,,,,,,
1644852789.079324,241.000000,0.000000,4205.769043,4192.563965,4194.102539,4206.794922,4217.436035,4214.871582,4211.153809,4213.589844,4216.410156,4224.230957,4195.769043,4203.333496,4215.128418,4170.000000,3478.000000,4.000000,91.000000,,,,0.000000,4.000000,4.000000,4.000000,4.000000,4.000000,4.000000,4.000000,4.000000,4.000000,4.000000,4.000000,4.000000,4.000000,4.000000,100.000000,,,,,,,,,,,,,,,,
1644852789.083264,242.000000,0.000000,4213.974121,4196.410156,4196.666504,4210.384766,4212.948730,4220.128418,4214.230957,4218.333496,4224.487305,4229.743652,4200.641113,4204.871582,4223.461426,4181.538574,3516.000000,4.000000,91.000000,,,,0.000000,4.000000,4.000000,4.000000,4.000000,4.000000,4.000000,4.000000,4.000000,4.000000,4.000000,4.000000,4.000000,4.000000,4.000000,100.000000,,,,,,,,,,,,,,,,
1644852789.087204,243.000000,0.000000,4222.948730,4203.461426,4205.256348,4209.487305,4215.769043,4225.512695,4217.820313,4227.051270,4234.230957,4240.512695,4213.077148,4209.615234,4230.769043,4187.051270,3454.000000,4.000000,91.000000,,,,0.000000,4.000000,4.000000,4.000000,4.000000,4.000000,4.000000,4.000000,4.000000,4.000000,4.000000,4.000000,4.000000,4.000000,4.000000,100.000000,,,,,,,,,,,,,,,,
1644852789.091144,244.000000,0.000000,4225.512695,4209.743652,4213.589844,4203.846191,4223.461426,4227.692383,4220.769043,4234.102539,4238.974121,4251.153809,4223.974121,4214.102539,4233.589844,4184.487305,3263.000000,4.000000,91.000000,,,,0.000000,4.000000,4.000000,4.000000,4.000000,4.000000,4.000000,4.000000,4.000000,4.000000,4.000000,4.000000,4.000000,4.000000,4.000000,100.000000,,,,,,,,,,,,,,,,
1644852789.095084,245.000000,0.000000,4217.948730,4211.538574,4215.256348,4196.794922,4230.128418,4225.000000,4221.666504,4234.487305,4234.743652,4253.589844,4223.077148,4213.077148,4231.282227,4176.025879,3478.000000,4.000000,91.000000,,,,0.000000,4.000000,4.000000,4.000000,4.000000,4.000000,4.000000,4.000000,4.000000,4.000000,4.000000,4.000000,4.000000,4.000000,4.000000,100.000000,,,,,,,,,,,,,,,,
1644852789.099024,246.000000,0.000000,4205.000000,4207.307617,4209.487305,4193.333496,4231.666504,4219.102539,4219.102539,4227.307617,4224.230957,4245.000000,4209.230957,4205.128418,4226.666504,4165.897461,3516.000000,4.000000,91.000000,,,,0.000000,4.000000,4.000000,4.000000,4.000000,4.000000,4.000000,4.000000,4.000000,4.000000,4.000000,4.000000,4.000000,4.000000,4.000000,100.000000,1.000000,91.666664,4.000000,4.000000,4.000000,4.000000,4.000000,4.000000,4.000000,4.000000,4.000000,4.000000,4.000000,4.000000,4.000000,3.000000
1644852789.102964,247.000000,0.000000,4195.512695,4199.871582,4201.025879,4196.153809,4228.077148,4213.846191,4213.589844,4216.922852,4215.384766,4231.025879,4191.922852,4194.487305,4223.077148,4158.589844,3454.000000,4.000000,91.000000,,,,0.000000,4.000000,4.000000,4.000000,4.000000,4.000000,4.000000,4.000000,4.000000,4.000000,4.000000,4.000000,4.000000,4.000000,4.000000,100.000000,,,,,,,,,,,,,,,,
1644852789.106805,248.000000,0.000000,4196.538574,4194.102539,4195.641113,4203.333496,4222.307617,4212.179688,4208.717773,4210.384766,4214.615234,4222.051270,4184.230957,4188.077148,4222.563965,4156.794922,3263.000000,4.000000,91.000000,,,,0.000000,4.000000,4.000000,4.000000,4.000000,4.000000,4.000000,4.000000,4.000000,4.000000,4.000000,4.000000,4.000000,4.000000,4.000000,100.000000,,,,,,,,,,,,,,,,
1644852789.110745,249.000000,0.000000,4207.820313,4194.358887,4196.282227,4210.000000,4218.205078,4215.128418,4208.589844,4211.666504,4221.666504,4223.717773,4192.563965,4190.000000,4224.743652,4161.153809,3478.000000,4.000000,91.000000,,,,0.000000,4.000000,4.000000,4.000000,4.000000,4.000000,4.000000,4.000000,4.000000,4.000000,4.000000,4.000000,4.000000,4.000000,4.000000,100.000000,,,,,,,,,,,,,,,,
1644852789.114685,250.000000,0.000000,4223.205078,4201.538574,4201.025879,4213.333496,4218.461426,4220.641113,4212.820313,4219.102539,4230.384766,4232.948730,4211.538574,4198.461426,4227.436035,4169.102539,3516.000000,4.000000,91.000000,,,,0.000000,4.000000,4.000000,4.000000,4.000000,4.000000,4.000000,4.000000,4.000000,4.000000,4.000000,4.000000,4.000000,4.000000,4.000000,100.000000,,,,,,,,,,,,,,,,
1644852789.118625,251.000000,0.000000,4235.512695,4211.410156,4206.153809,4213.974121,4222.563965,4225.256348,4217.179688,4226.666504,4234.615234,4241.538574,4228.333496,4208.333496,4228.846191,4177.051270,3454.000000,4.000000,91.000000,,,,0.000000,4.000000,4.000000,4.000000,4.000000,4.000000,4.000000,4.000000,4.000000,4.000000,4.000000,4.000000,4.000000,4.000000,4.000000,100.000000,,,,,,,,,,,,,,,,
1644852789.122465,252.000000,0.000000,4239.743652,4217.692383,4209.230957,4214.487305,4227.692383,4226.153809,4217.179688,4229.743652,4233.077148,4242.948730,4232.948730,4215.000000,4228.077148,4181.794922,3263.000000,4.000000,91.000000,,,,0.000000,4.000000,4.000000,4.000000,4.000000,4.000000,4.000000,4.000000,4.000000,4.000000,4.000000,4.000000,4.000000,4.000000,4.000000,100.000000,,,,,,,,,,,,,,,,
1644852789.126405,253.000000,0.000000,4235.897461,4216.025879,4210.769043,4215.128418,4229.358887,4223.461426,4213.333496,4227.948730,4229.102539,4237.307617,4225.256348,4217.307617,4225.256348,4182.563965,3478.000000,4.000000,91.000000,,,,0.000000,4.000000,4.000000,4.000000,4.000000,4.000000,4.000000,4.000000,4.000000,4.000000,4.000000,4.000000,4.000000,4.000000,4.000000,100.000000,,,,,,,,,,,,,,,,
1644852789.130345,254.000000,0.000000,4227.179688,4207.692383,4212.436035,4214.743652,4225.256348,4219.358887,4209.615234,4224.487305,4227.179688,4229.615234,4214.102539,4217.051270,4221.922852,4179.615234,3516.000000,4.000000,91.000000,,,,0.000000,4.000000,4.000000,4.000000,4.000000,4.000000,4.000000,4.000000,4.000000,4.000000,4.000000,4.000000,4.000000,4.000000,4.000000,100.000000,,,,,,,,,,,,,,,,
1644852789.134285,255.000000,0.000000,4218.461426,4198.846191,4214.230957,4211.922852,4217.563965,4216.538574,4209.102539,4222.179688,4227.948730,4225.641113,4208.589844,4216.153809,4220.384766,4174.743652,114.000000,4.000000,91.000000,,,,0.000000,4.000000,4.000000,4.000000,4.000000,4.000000,4.000000,4.000000,4.000000,4.000000,4.000000,4.000000,4.000000,4.000000,4.000000,100.000000,,,,,,,,,,,,,,,,
1644852789.138226,0.000000,0.000000,4213.589844,4195.128418,4214.230957,4207.692383,4212.051270,4216.153809,4210.128418,4221.025879,4228.846191,4227.051270,4210.641113,4214.871582,4221.282227,4170.384766,3412.000000,4.000000,91.000000,,,,0.000000,4.000000,4.000000,4.000000,4.000000,4.000000,4.000000,4.000000,4.000000,4.000000,4.000000,4.000000,4.000000,4.000000,4.000000,100.000000,,,,,,,,,,,,,,,,
1644852789.142166,1.000000,0.000000,4214.487305,4198.205078,4211.538574,4205.384766,4212.948730,4217.051270,4209.871582,4219.743652,4227.307617,4230.641113,4215.000000,4212.179688,4223.077148,4168.846191,3305.000000,4.000000,91.000000,,,,0.000000,4.000000,4.000000,4.000000,4.000000,4.000000,4.000000,4.000000,4.000000,4.000000,4.000000,4.000000,4.000000,4.000000,4.000000,100.000000,,,,,,,,,,,,,,,,
1644852789.146106,2.000000,0.000000,4220.897461,4204.743652,4206.922852,4207.051270,4220.128418,4217.692383,4207.948730,4217.692383,4223.205078,4231.538574,4215.256348,4207.692383,4223.077148,4171.282227,3539.000000,4.000000,91.000000,,,,0.000000,4.000000,4.000000,4.000000,4.000000,4.000000,4.000000,4.000000,4.000000,4.000000,4.000000,4.000000,4.000000,4.000000,4.000000,100.000000,,,,,,,,,,,,,,,,
1644852789.150046,3.000000,0.000000,4229.230957,4210.256348,4202.692383,4211.282227,4228.589844,4217.436035,4207.436035,4215.512695,4218.717773,4227.820313,4210.256348,4202.307617,4220.384766,4176.153809,3482.000000,4.000000,91.000000,,,,0.000000,4.000000,4.000000,4.000000,4.000000,4.000000,4.000000,4.000000,4.000000,4.000000,4.000000,4.000000,4.000000,4.000000,4.000000,100.000000,,,,,,,,,,,,,,,,
1644852789.153986,4.000000,0.000000,4235.512695,4212.820313,4200.897461,4213.461426,4232.307617,4216.666504,4210.128418,4215.128418,4216.794922,4222.179688,4204.487305,4198.589844,4216.153809,4180.256348,3639.000000,4.000000,91.000000,,,,0.000000,4.000000,4.000000,4.000000,4.000000,4.000000,4.000000,4.000000,4.000000,4.000000,4.000000,4.000000,4.000000,4.000000,4.000000,100.000000,,,,,,,,,,,,,,,,
1644852789.157926,5.000000,0.000000,4236.410156,4213.461426,4202.051270,4209.871582,4228.589844,4216.282227,4214.230957,4216.794922,4218.205078,4220.256348,4203.717773,4199.102539,4212.948730,4182.051270,3312.000000,4.000000,91.000000,,,,0.000000,4.000000,4.000000,4.000000,4.000000,4.000000,4.000000,4.000000,4.000000,4.000000,4.000000,4.000000,4.000000,4.000000,4.000000,100.000000,,,,,,,,,,,,,,,,
1644852789.161866,6.000000,0.000000,4233.077148,4214.487305,4205.769043,4202.563965,4220.384766,4217.307617,4215.769043,4219.358887,4221.794922,4224.358887,4209.102539,4204.102539,4212.563965,4182.563965,2637.000000,4.000000,91.000000,,,,0.000000,4.000000,4.000000,4.000000,4.000000,4.000000,4.000000,4.000000,4.000000,4.000000,4.000000,4.000000,4.000000,4.000000,4.000000,100.000000,,,,,,,,,,,,,,,,
1644852789.165806,7.000000,0.000000,4230.000000,4216.666504,4210.256348,4197.948730,4214.102539,4219.358887,4213.974121,4221.153809,4225.000000,4231.794922,4216.666504,4211.153809,4215.512695,4183.333496,3052.000000,4.000000,91.000000,,,,0.000000,4.000000,4.000000,4.000000,4.000000,4.000000,4.000000,4.000000,4.000000,4.000000,4.000000,4.000000,4.000000,4.000000,4.000000,100.000000,,,,,,,,,,,,,,,,
1644852789.169746,8.000000,0.000000,4231.538574,4218.205078,4214.102539,4201.922852,4214.743652,4220.769043,4211.794922,4221.282227,4225.769043,4236.794922,4220.384766,4215.769043,4220.384766,4185.128418,3248.000000,4.000000,91.000000,,,,0.000000,4.000000,4.000000,4.000000,4.000000,4.000000,4.000000,4.000000,4.000000,4.000000,4.000000,4.000000,4.000000,4.000000,4.000000,100.000000,,,,,,,,,,,,,,,,
1644852789.173687,9.000000,0.000000,4237.692383,4217.307617,4216.025879,4214.743652,4222.179688,4219.743652,4212.436035,4220.641113,4224.230957,4236.025879,4218.205078,4215.897461,4224.743652,4186.153809,3664.000000,4.000000,91.000000,,,,0.000000,4.000000,4.000000,4.000000,4.000000,4.000000,4.000000,4.000000,4.000000,4.000000,4.000000,4.000000,4.000000,4.000000,4.000000,100.000000,,,,,,,,,,,,,,,,
1644852789.177627,10.000000,0.000000,4243.974121,4214.230957,4216.538574,4229.487305,4231.153809,4217.563965,4215.384766,4220.384766,4222.563965,4232.307617,4213.717773,4212.820313,4226.922852,4185.641113,3625.000000,4.000000,91.000000,,,,0.000000,4.000000,4.000000,4.000000,4.000000,4.000000,4.000000,4.000000,4.000000,4.000000,4.000000,4.000000,4.000000,4.000000,4.000000,100.000000,,,,,,,,,,,,,,,,
1644852789.181567,11.000000,0.000000,4246.153809,4212.179688,4216.666504,4237.436035,4235.641113,4216.922852,4217.307617,4221.282227,4223.205078,4231.282227,4212.563965,4210.000000,4227.692383,4184.487305,3417.000000,4.000000,91.000000,,,,0.000000,4.000000,4.000000,4.000000,4.000000,4.000000,4.000000,4.000000,4.000000,4.000000,4.000000,4.000000,4.000000,4.000000,4.000000,100.000000,,,,,,,,,,,,,,,,
1644852789.185507,12.000000,0.000000,4243.077148,4213.461426,4217.307617,4232.948730,4233.077148,4219.615234,4216.794922,4223.077148,4226.410156,4236.410156,4217.179688,4210.128418,4228.461426,4185.769043,3425.000000,4.000000,91.000000,,,,0.000000,4.000000,4.000000,4.000000,4.000000,4.000000,4.000000,4.000000,4.000000,4.000000,4.000000,4.000000,4.000000,4.000000,4.000000,100.000000,,,,,,,,,,,,,,,,
1644852789.189447,13.000000,0.000000,4237.307617,4217.179688,4218.717773,4218.589844,4225.769043,4224.358887,4215.641113,4225.128418,4230.256348,4245.000000,4224.615234,4212.820313,4230.000000,4191.282227,3490.000000,4.000000,91.000000,,,,0.000000,4.000000,4.000000,4.000000,4.000000,4.000000,4.000000,4.000000,4.000000,4.000000,4.000000,4.000000,4.000000,4.000000,4.000000,100.000000,,,,,,,,,,,,,,,,
1644852789.193387,14.000000,0.000000,4231.538574,4219.487305,4219.871582,4202.820313,4218.974121,4228.077148,4215.897461,4226.922852,4232.563965,4250.769043,4229.102539,4215.512695,4230.641113,4199.230957,3625.000000,4.000000,91.000000,,,,0.000000,4.000000,4.000000,4.000000,4.000000,4.000000,4.000000,4.000000,4.000000,4.000000,4.000000,4.000000,4.000000,4.000000,4.000000,100.000000,,,,,,,,,,,,,,,,
1644852789.197227,15.000000,0.000000,4227.436035,4217.436035,4218.846191,4193.846191,4216.922852,4227.563965,4217.436035,4227.692383,4232.948730,4249.102539,4227.692383,4215.641113,4228.846191,4205.000000,3417.000000,4.000000,91.000000,,,,0.000000,4.000000,4.000000,4.000000,4.000000,4.000000,4.000000,4.000000,4.000000,4.000000,4.000000,4.000000,4.000000,4.000000,4.000000,100.000000,,,,,,,,,,,,,,,,
1644852789.201167,16.000000,0.000000,4225.000000,4211.538574,4214.230957,4192.948730,4220.384766,4222.820313,4217.948730,4227.563965,4232.820313,4240.769043,4222.692383,4212.563965,4224.615234,4204.358887,3425.000000,4.000000,91.000000,,,,0.000000,4.000000,4.000000,4.000000,4.000000,4.000000,4.000000,4.000000,4.000000,4.000000,4.000000,4.000000,4.000000,4.000000,4.000000,100.000000,,,,,,,,,,,,,,,,
1644852789.205107,17.000000,0.000000,4224.102539,4206.282227,4207.820313,4195.897461,4226.410156,4216.794922,4216.410156,4227.436035,4233.589844,4231.410156,4218.717773,4207.820313,4220.256348,4197.563965,3490.000000,4.000000,91.000000,,,,0.000000,4.000000,4.000000,4.000000,4.000000,4.000000,4.000000,4.000000,4.000000,4.000000,4.000000,4.000000,4.000000,4.000000,4.000000,100.000000,,,,,,,,,,,,,,,,
1644852789.209048,18.000000,0.000000,4224.358887,4205.384766,4202.948730,4198.974121,4230.256348,4213.461426,4215.256348,4228.461426,4235.128418,4226.922852,4217.692383,4203.846191,4217.948730,4188.333496,3625.000000,4.000000,91.000000,,,,0.000000,4.000000,4.000000,4.000000,4.000000,4.000000,4.000000,4.000000,4.000000,4.000000,4.000000,4.000000,4.000000,4.000000,4.000000,100.000000,,,,,,,,,,,,,,,,
1644852789.212988,19.000000,0.000000,4224.487305,4208.717773,4201.666504,4201.410156,4229.615234,4214.102539,4216.922852,4231.025879,4235.897461,4228.974121,4217.692383,4202.051270,4217.948730,4181.282227,3417.000000,4.000000,91.000000,,,,0.000000,4.000000,4.000000,4.000000,4.000000,4.000000,4.000000,4.000000,4.000000,4.000000,4.000000,4.000000,4.000000,4.000000,4.000000,100.000000,,,,,,,,,,,,,,,,
1644852789.216928,20.000000,0.000000,4222.820313,4212.179688,4203.333496,4203.589844,4225.000000,4216.794922,4220.512695,4233.077148,4234.487305,4233.846191,4216.153809,4201.922852,4218.461426,4178.589844,3425.000000,4.000000,91.000000,,,,0.000000,4.000000,4.000000,4.000000,4.000000,4.000000,4.000000,4.000000,4.000000,4.000000,4.000000,4.000000,4.000000,4.000000,4.000000,100.000000,,,,,,,,,,,,,,,,
1644852789.220868,21.000000,0.000000,4218.205078,4211.282227,4204.230957,4205.897461,4219.102539,4218.461426,4221.922852,4231.666504,4231.410156,4236.538574,4212.436035,4201.794922,4217.692383,4179.871582,3490.000000,4.000000,91.000000,,,,0.000000,4.000000,4.000000,4.000000,4.000000,4.000000,4.000000,4.000000,4.000000,4.000000,4.000000,4.000000,4.000000,4.000000,4.000000,100.000000,,,,,,,,,,,,,,,,
1644852789.224808,22.000000,0.000000,4212.307617,4205.641113,4201.666504,4209.102539,4213.717773,4217.820313,4219.358887,4226.410156,4227.820313,4234.871582,4207.948730,4200.897461,4216.153809,4183.077148,3625.000000,4.000000,91.000000,,,,0.000000,4.000000,4.000000,4.000000,4.000000,4.000000,4.000000,4.000000,4.000000,4.000000,4.000000,4.000000,4.000000,4.000000,4.000000,100.000000,,,,,,,,,,,,,,,,
1644852789.228748,23.000000,0.000000,4208.974121,4199.615234,4197.948730,4213.333496,4210.128418,4216.666504,4215.512695,4220.128418,4225.128418,4231.666504,4205.000000,4199.743652,4215.256348,4187.179688,3417.000000,4.000000,91.000000,,,,0.000000,4.000000,4.000000,4.000000,4.000000,4.000000,4.000000,4.000000,4.000000,4.000000,4.000000,4.000000,4.000000,4.000000,4.000000,100.000000,,,,,,,,,,,,,,,,
1644852789.232688,24.000000,0.000000,4211.410156,4198.717773,4198.205078,4217.692383,4209.230957,4217.692383,4215.000000,4217.436035,4224.487305,4231.153809,4205.128418,4200.256348,4216.282227,4191.282227,3425.000000,4.000000,91.000000,,,,0.000000,4.000000,4.000000,4.000000,4.000000,4.000000,4.000000,4.000000,4.000000,4.000000,4.000000,4.000000,4.000000,4.000000,4.000000,100.000000,,,,,,,,,,,,,,,,
1644852789.236628,25.000000,0.000000,4218.846191,4204.230957,4204.615234,4219.615234,4211.410156,4221.922852,4218.461426,4219.487305,4225.769043,4235.128418,4208.717773,4202.948730,4219.102539,4194.615234,3490.000000,4.000000,91.000000,,,,0.000000,4.000000,4.000000,4.000000,4.000000,4.000000,4.000000,4.000000,4.000000,4.000000,4.000000,4.000000,4.000000,4.000000,4.000000,100.000000,,,,,,,,,,,,,,,,
1644852789.240568,26.000000,0.000000,4226.538574,4211.922852,4213.589844,4217.436035,4216.538574,4226.794922,4222.179688,4222.948730,4227.307617,4240.512695,4214.230957,4206.410156,4222.307617,4195.256348,3625.000000,4.000000,91.000000,,,,0.000000,4.000000,4.000000,4.000000,4.000000,4.000000,4.000000,4.000000,4.000000,4.000000,4.000000,4.000000,4.000000,4.000000,4.000000,100.000000,,,,,,,,,,,,,,,,
1644852789.244509,27.000000,0.000000,4230.000000,4215.769043,4218.717773,4211.538574,4222.179688,4228.205078,4221.538574,4223.205078,4226.666504,4242.307617,4218.717773,4207.948730,4222.948730,4192.179688,3417.000000,4.000000,91.000000,,,,0.000000,4.000000,4.000000,4.000000,4.000000,4.000000,4.000000,4.000000,4.000000,4.000000,4.000000,4.000000,4.000000,4.000000,4.000000,100.000000,,,,,,,,,,,,,,,,
1644852789.248449,28.000000,0.000000,4226.922852,4212.820313,4216.666504,4204.230957,4224.358887,4223.974121,4216.794922,4218.205078,4222.820313,4237.820313,4218.974121,4205.769043,4219.487305,4186.538574,3425.000000,4.000000,91.000000,,,,0.000000,4.000000,4.000000,4.000000,4.000000,4.000000,4.000000,4.000000,4.000000,4.000000,4.000000,4.000000,4.000000,4.000000,4.000000,100.000000,,,,,,,,,,,,,,,,
1644852789.252389,29.000000,0.000000,4220.256348,4206.025879,4210.384766,4198.077148,4221.282227,4216.538574,4211.794922,4211.410156,4217.307617,4229.487305,4214.615234,4201.538574,4212.692383,4182.692383,3490.000000,4.000000,91.000000,,,,0.000000,4.000000,4.000000,4.000000,4.000000,4.000000,4.000000,4.000000,4.000000,4.000000,4.000000,4.000000,4.000000,4.000000,4.000000,100.000000,,,,,,,,,,,,,,,,
1644852789.256329,30.000000,0.000000,4215.641113,4201.922852,4206.794922,4195.256348,4216.025879,4211.410156,4210.384766,4207.948730,4213.974121,4222.948730,4208.461426,4200.000000,4206.922852,4184.743652,3625.000000,4.000000,91.000000,,,,0.000000,4.000000,4.000000,4.000000,4.000000,4.000000,4.000000,4.000000,4.000000,4.000000,4.000000,4.000000,4.000000,4.000000,4.000000,100.000000,,,,,,,,,,,,,,,,
1644852789.260269,31.000000,0.000000,4218.077148,4204.487305,4210.000000,4195.897461,4215.128418,4212.051270,4212.948730,4211.282227,4216.282227,4223.077148,4205.897461,4205.256348,4207.563965,4192.948730,3417.000000,4.000000,91.000000,,,,0.000000,4.000000,4.000000,4.000000,4.000000,4.000000,4.000000,4.000000,4.000000,4.000000,4.000000,4.000000,4.000000,4.000000,4.000000,100.000000,,,,,,,,,,,,,,,,
1644852789.264209,32.000000,0.000000,4227.692383,4212.179688,4219.487305,4198.205078,4221.666504,4218.205078,4217.051270,4220.256348,4224.487305,4229.871582,4209.871582,4216.794922,4216.666504,4203.717773,0.000000,4.000000,91.000000,,,,0.000000,4.000000,4.000000,4.000000,4.000000,4.000000,4.000000,4.000000,4.000000,4.000000,4.000000,4.000000,4.000000,4.000000,4.000000,100.000000,,,,,,,,,,,,,,,,
1644852789.268149,33.000000,0.000000,4239.358887,4219.102539,4230.641113,4200.128418,4230.769043,4225.512695,4221.025879,4230.769043,4234.358887,4238.974121,4218.974121,4229.102539,4230.512695,4212.820313,0.000000,4.000000,91.000000,,,,0.000000,4.000000,4.000000,4.000000,4.000000,4.000000,4.000000,4.000000,4.000000,4.000000,4.000000,4.000000,4.000000,4.000000,4.000000,100.000000,,,,,,,,,,,,,,,,
1644852789.271989,34.000000,0.000000,4247.436035,4220.769043,4238.333496,4201.666504,4235.256348,4230.384766,4224.743652,4238.333496,4240.897461,4244.743652,4228.077148,4236.025879,4242.307617,4218.333496,0.000000,4.000000,91.000000,,,,0.000000,4.000000,4.000000,4.000000,4.000000,4.000000,4.000000,4.000000,4.000000,4.000000,4.000000,4.000000,4.000000,4.000000,4.000000,100.000000,,,,,,,,,,,,,,,,
1644852789.275929,35.000000,0.000000,4249.230957,4218.077148,4240.000000,4203.589844,4231.410156,4231.922852,4227.820313,4240.641113,4242.051270,4246.282227,4232.820313,4234.743652,4246.794922,4220.641113,0.000000,4.000000,91.000000,,,,0.000000,4.000000,4.000000,4.000000,4.000000,4.000000,4.000000,4.000000,4.000000,4.000000,4.000000,4.000000,4.000000,4.000000,4.000000,100.000000,,,,,,,,,,,,,,,,
1644852789.279870,36.000000,0.000000,4246.282227,4215.384766,4236.153809,4206.538574,4222.307617,4231.153809,4228.717773,4238.974121,4239.871582,4246.538574,4231.794922,4228.077148,4243.205078,4220.000000,0.000000,4.000000,91.000000,,,,0.000000,4.000000,4.000000,4.000000,4.000000,4.000000,4.000000,4.000000,4.000000,4.000000,4.000000,4.000000,4.000000,4.000000,4.000000,100.000000,,,,,,,,,,,,,,,,
1644852789.283810,37.000000,0.000000,4241.666504,4215.641113,4230.128418,4209.871582,4214.102539,4229.358887,4227.179688,4236.282227,4237.692383,4248.205078,4227.692383,4221.153809,4234.358887,4216.153809,0.000000,4.000000,91.000000,,,,0.000000,4.000000,4.000000,4.000000,4.000000,4.000000,4.000000,4.000000,4.000000,4.000000,4.000000,4.000000,4.000000,4.000000,4.000000,100.000000,,,,,,,,,,,,,,,,
1644852789.287650,38.000000,0.000000,4237.563965,4217.820313,4225.128418,4212.820313,4211.538574,4226.153809,4224.743652,4235.128418,4237.436035,4250.384766,4224.358887,4217.820313,4224.743652,4210.000000,0.000000,4.000000,91.000000,,,,0.000000,4.000000,4.000000,4.000000,4.000000,4.000000,4.000000,4.000000,4.000000,4.000000,4.000000,4.000000,4.000000,4.000000,4.000000,100.000000,,,,,,,,,,,,,,,,
1644852789.291590,39.000000,0.000000,4234.358887,4218.846191,4222.179688,4214.615234,4215.256348,4221.282227,4223.717773,4236.153809,4238.077148,4250.128418,4223.846191,4217.563965,4218.846191,4204.487305,0.000000,4.000000,91.000000,,,,0.000000,4.000000,4.000000,4.000000,4.000000,4.000000,4.000000,4.000000,4.000000,4.000000,4.000000,4.000000,4.000000,4.000000,4.000000,100.000000,,,,,,,,,,,,,,,,
1644852789.295530,40.000000,0.000000,4231.538574,4217.436035,4220.128418,4215.256348,4222.692383,4216.025879,4224.871582,4237.307617,4238.205078,4247.307617,4225.897461,4217.692383,4219.743652,4203.717773,0.000000,4.000000,91.000000,,,,0.000000,4.000000,4.000000,4.000000,4.000000,4.000000,4.000000,4.000000,4.000000,4.000000,4.000000,4.000000,4.000000,4.000000,4.000000,100.000000,,,,,,,,,,,,,,,,
1644852789.299470,41.000000,0.000000,4229.487305,4215.256348,4217.692383,4215.897461,4230.897461,4213.974121,4226.025879,4236.538574,4237.563965,4244.871582,4229.487305,4216.282227,4228.333496,4208.461426,0.000000,4.000000,91.000000,,,,0.000000,4.000000,4.000000,4.000000,4.000000,4.000000,4.000000,4.000000,4.000000,4.000000,4.000000,4.000000,4.000000,4.000000,4.000000,100.000000,,,,,,,,,,,,,,,,
1644852789.303410,42.000000,0.000000,4229.358887,4215.000000,4215.769043,4217.692383,4237.179688,4217.948730,4225.384766,4234.487305,4236.922852,4245.641113,4234.358887,4214.871582,4240.897461,4214.358887,0.000000,4.000000,91.000000,,,,0.000000,4.000000,4.000000,4.000000,4.000000,4.000000,4.000000,4.000000,4.000000,4.000000,4.000000,4.000000,4.000000,4.000000,4.000000,100.000000,,,,,,,,,,,,,,,,
1644852789.307350,43.000000,0.000000,4231.538574,4217.820313,4216.025879,4220.256348,4239.615234,4226.410156,4223.717773,4233.333496,4236.922852,4248.333496,4239.358887,4216.153809,4249.615234,4213.461426,0.000000,4.000000,91.000000,,,,0.000000,4.000000,4.000000,4.000000,4.000000,4.000000,4.000000,4.000000,4.000000,4.000000,4.000000,4.000000,4.000000,4.000000,4.000000,100.000000,,,,,,,,,,,,,,,,
1644852789.311291,44.000000,0.000000,4234.102539,4221.153809,4218.846191,4220.641113,4237.051270,4233.589844,4222.820313,4234.358887,4237.563965,4248.589844,4241.538574,4220.384766,4247.436035,4202.051270,0.000000,4.000000,91.000000,,,,0.000000,4.000000,4.000000,4.000000,4.000000,4.000000,4.000000,4.000000,4.000000,4.000000,4.000000,4.000000,4.000000,4.000000,4.000000,100.000000,,,,,,,,,,,,,,,,
1644852789.315231,45.000000,0.000000,4233.846191,4221.410156,4221.282227,4216.282227,4229.743652,4233.717773,4222.563965,4236.282227,4237.307617,4244.102539,4236.922852,4224.102539,4233.589844,4185.256348,0.000000,4.000000,91.000000,,,,0.000000,4.000000,4.000000,4.000000,4.000000,4.000000,4.000000,4.000000,4.000000,4.000000,4.000000,4.000000,4.000000,4.000000,4.000000,100.000000,,,,,,,,,,,,,,,,
1644852789.319171,46.000000,0.000000,4229.615234,4218.077148,4219.615234,4207.436035,4219.743652,4226.666504,4220.897461,4236.282227,4235.512695,4236.922852,4224.615234,4223.333496,4215.256348,4174.230957,0.000000,4.000000,91.000000,,,,0.000000,4.000000,4.000000,4.000000,4.000000,4.000000,4.000000,4.000000,4.000000,4.000000,4.000000,4.000000,4.000000,4.000000,4.000000,100.000000,,,,,,,,,,,,,,,,
1644852789.323111,47.000000,0.000000,4223.846191,4213.974121,4213.589844,4197.692383,4210.512695,4217.692383,4217.051270,4232.948730,4233.333496,4233.077148,4210.384766,4217.436035,4203.974121,4176.922852,0.000000,4.000000,91.000000,,,,0.000000,4.000000,4.000000,4.000000,4.000000,4.000000,4.000000,4.000000,4.000000,4.000000,4.000000,4.000000,4.000000,4.000000,4.000000,100.000000,,,,,,,,,,,,,,,,
1644852789.327051,48.000000,0.000000,4220.128418,4212.948730,4206.025879,4190.769043,4205.769043,4213.589844,4213.717773,4227.692383,4232.179688,4236.410156,4202.820313,4209.615234,4206.666504,4191.025879,0.000000,4.000000,91.000000,,,,0.000000,4.000000,4.000000,4.000000,4.000000,4.000000,4.000000,4.000000,4.000000,4.000000,4.000000,4.000000,4.000000,4.000000,4.000000,100.000000,,,,,,,,,,,,,,,,
1644852789.330991,49.000000,0.000000,4219.871582,4215.384766,4201.153809,4188.077148,4207.179688,4217.307617,4214.487305,4223.333496,4231.666504,4244.102539,4207.051270,4204.230957,4220.897461,4205.641113,0.000000,4.000000,91.000000,,,,0.000000,4.000000,4.000000,4.000000,4.000000,4.000000,4.000000,4.000000,4.000000,4.000000,4.000000,4.000000,4.000000,4.000000,4.000000,100.000000,,,,,,,,,,,,,,,,
1644852789.334931,50.000000,0.000000,4222.307617,4218.846191,4201.025879,4189.102539,4213.333496,4225.641113,4219.358887,4221.666504,4230.897461,4249.230957,4219.743652,4203.205078,4236.794922,4210.769043,0.000000,4.000000,91.000000,,,,0.000000,4.000000,4.000000,4.000000,4.000000,4.000000,4.000000,4.000000,4.000000,4.000000,4.000000,4.000000,4.000000,4.000000,4.000000,100.000000,,,,,,,,,,,,,,,,
1644852789.338871,51.000000,0.000000,4224.743652,4220.128418,4205.128418,4192.436035,4220.512695,4232.051270,4223.205078,4221.538574,4228.846191,4246.538574,4232.179688,4204.743652,4244.615234,4204.487305,0.000000,4.000000,91.000000,,,,0.000000,4.000000,4.000000,4.000000,4.000000,4.000000,4.000000,4.000000,4.000000,4.000000,4.000000,4.000000,4.000000,4.000000,4.000000,100.000000,,,,,,,,,,,,,,,,
1644852789.342811,52.000000,0.000000,4225.000000,4217.948730,4210.769043,4196.794922,4225.128418,4231.538574,4221.794922,4221.153809,4225.897461,4236.666504,4235.769043,4205.769043,4241.025879,4194.871582,0.000000,4.000000,91.000000,,,,0.000000,4.000000,4.000000,4.000000,4.000000,4.000000,4.000000,4.000000,4.000000,4.000000,4.000000,4.000000,4.000000,4.000000,4.000000,100.000000,,,,,,,,,,,,,,,,
1644852789.346752,53.000000,0.000000,4222.179688,4212.820313,4215.128418,4200.256348,4224.102539,4224.743652,4216.282227,4218.974121,4222.820313,4225.384766,4228.205078,4204.871582,4230.641113,4191.538574,0.000000,4.000000,91.000000,,,,0.000000,4.000000,4.000000,4.000000,4.000000,4.000000,4.000000,4.000000,4.000000,4.000000,4.000000,4.000000,4.000000,4.000000,4.000000,100.000000,,,,,,,,,,,,,,,,
1644852789.350692,54.000000,0.000000,4217.436035,4206.410156,4217.051270,4201.794922,4218.717773,4216.282227,4212.436035,4216.410156,4220.128418,4218.077148,4215.000000,4203.333496,4220.769043,4196.666504,0.000000,4.000000,91.000000,,,,0.000000,4.000000,4.000000,4.000000,4.000000,4.000000,4.000000,4.000000,4.000000,4.000000,4.000000,4.000000,4.000000,4.000000,4.000000,100.000000,,,,,,,,,,,,,,,,
1644852789.354632,55.000000,0.000000,4212.820313,4200.897461,4217.051270,4201.794922,4212.820313,4211.666504,4214.358887,4215.641113,4218.589844,4216.794922,4204.871582,4203.974121,4216.538574,4203.461426,0.000000,4.000000,91.000000,,,,0.000000,4.000000,4.000000,4.000000,4.000000,4.000000,4.000000,4.000000,4.000000,4.000000,4.000000,4.000000,4.000000,4.000000,4.000000,100.000000,,,,,,,,,,,,,,,,
1644852789.358472,56.000000,0.000000,4211.153809,4198.333496,4216.538574,4201.282227,4211.794922,4213.077148,4219.871582,4217.692383,4218.461426,4220.256348,4203.846191,4207.307617,4217.692383,4202.948730,0.000000,4.000000,91.000000,,,,0.000000,4.000000,4.000000,4.000000,4.000000,4.000000,4.000000,4.000000,4.000000,4.000000,4.000000,4.000000,4.000000,4.000000,4.000000,100.000000,,,,,,,,,,,,,,,,
1644852789.362412,57.000000,0.000000,4213.717773,4199.615234,4215.897461,4201.410156,4217.307617,4217.948730,4223.974121,4221.410156,4220.128418,4226.025879,4211.153809,4211.410156,4219.871582,4193.717773,0.000000,4.000000,91.000000,,,,0.000000,4.000000,4.000000,4.000000,4.000000,4.000000,4.000000,4.000000,4.000000,4.000000,4.000000,4.000000,4.000000,4.000000,4.000000,100.000000,,,,,,,,,,,,,,,,
1644852789.366352,58.000000,0.000000,4218.717773,4203.333496,4214.871582,4201.794922,4225.256348,4221.666504,4223.589844,4224.487305,4222.820313,4231.922852,4219.102539,4212.307617,4218.077148,4182.179688,0.000000,4.000000,91.000000,,,,0.000000,4.000000,4.000000,4.000000,4.000000,4.000000,4.000000,4.000000,4.000000,4.000000,4.000000,4.000000,4.000000,4.000000,4.000000,100.000000,,,,,,,,,,,,,,,,
1644852789.370292,59.000000,0.000000,4221.282227,4206.025879,4213.077148,4200.769043,4227.692383,4220.897461,4220.512695,4225.000000,4224.487305,4235.512695,4219.230957,4208.205078,4210.897461,4176.666504,0.000000,4.000000,91.000000,,,,0.000000,4.000000,4.000000,4.000000,4.000000,4.000000,4.000000,4.000000,4.000000,4.000000,4.000000,4.000000,4.000000,4.000000,4.000000,100.000000,,,,,,,,,,,,,,,,
1644852789.374132,60.000000,0.000000,4218.333496,4204.102539,4210.641113,4196.666504,4218.333496,4216.153809,4217.820313,4223.205078,4223.589844,4235.000000,4209.230957,4201.282227,4201.794922,4179.615234,0.000000,4.000000,91.000000,,,,0.000000,4.000000,4.000000,4.000000,4.000000,4.000000,4.000000,4.000000,4.000000,4.000000,4.000000,4.000000,4.000000,4.000000,4.000000,100.000000,,,,,,,,,,,,,,,,
1644852789.378073,61.000000,0.000000,4210.769043,4197.307617,4208.717773,4190.512695,4199.358887,4211.025879,4216.282227,4220.641113,4220.128418,4230.256348,4195.897461,4196.538574,4196.282227,4186.538574,0.000000,4.000000,91.000000,,,,0.000000,4.000000,4.000000,4.000000,4.000000,4.000000,4.000000,4.000000,4.000000,4.000000,4.000000,4.000000,4.000000,4.000000,4.000000,100.000000,,,,,,,,,,,,,,,,
1644852789.382013,62.000000,0.000000,4204.487305,4190.256348,4208.461426,4185.769043,4181.666504,4209.230957,4215.128418,4219.230957,4216.794922,4223.846191,4189.358887,4197.692383,4197.820313,4190.897461,0.000000,4.000000,91.000000,,,,0.000000,4.000000,4.000000,4.000000,4.000000,4.000000,4.000000,4.000000,4.000000,4.000000,4.000000,4.000000,4.000000,4.000000,4.000000,100.000000,,,,,,,,,,,,,,,,
1644852789.385953,63.000000,0.000000,4204.358887,4189.615234,4210.641113,4186.282227,4177.820313,4212.179688,4214.487305,4220.000000,4217.051270,4220.769043,4195.000000,4203.974121,4205.512695,4190.641113,0.000000,4.000000,91.000000,,,,0.000000,4.000000,4.000000,4.000000,4.000000,4.000000,4.000000,4.000000,4.000000,4.000000,4.000000,4.000000,4.000000,4.000000,4.000000,100.000000,,,,,,,,,,,,,,,,
1644852789.389993,64.000000,0.000000,4210.641113,4197.948730,4214.358887,4192.820313,4192.179688,4217.179688,4215.641113,4223.077148,4222.307617,4224.487305,4209.358887,4210.512695,4215.641113,4188.589844,0.000000,4.000000,91.000000,,,,0.000000,4.000000,4.000000,4.000000,4.000000,4.000000,4.000000,4.000000,4.000000,4.000000,4.000000,4.000000,4.000000,4.000000,4.000000,100.000000,,,,,,,,,,,,,,,,
1644852789.393933,65.000000,0.000000,4218.846191,4211.410156,4217.436035,4202.307617,4216.282227,4219.871582,4218.974121,4227.179688,4229.871582,4233.589844,4223.461426,4212.563965,4224.102539,4188.846191,0.000000,4.000000,91.000000,,,,0.000000,4.000000,4.000000,4.000000,4.000000,4.000000,4.000000,4.000000,4.000000,4.000000,4.000000,4.000000,4.000000,4.000000,4.000000,100.000000,,,,,,,,,,,,,,,,
1644852789.397873,66.000000,0.000000,4225.128418,4222.179688,4217.820313,4210.512695,4235.512695,4217.948730,4221.666504,4230.256348,4235.384766,4242.307617,4230.128418,4209.358887,4228.974121,4193.461426,0.000000,4.000000,91.000000,,,,0.000000,4.000000,4.000000,4.000000,4.000000,4.000000,4.000000,4.000000,4.000000,4.000000,4.000000,4.000000,4.000000,4.000000,4.000000,100.000000,,,,,,,,,,,,,,,,
1644852789.401813,67.000000,0.000000,4227.692383,4224.102539,4215.000000,4213.717773,4238.589844,4212.948730,4220.897461,4230.641113,4235.641113,4243.846191,4228.077148,4203.974121,4230.641113,4200.769043,0.000000,4.000000,91.000000,,,,0.000000,4.000000,4.000000,4.000000,4.000000,4.000000,4.000000,4.000000,4.000000,4.000000,4.000000,4.000000,4.000000,4.000000,4.000000,100.000000,,,,,,,,,,,,,,,,
1644852789.405753,68.000000,0.000000,4226.922852,4216.666504,4209.871582,4211.538574,4227.051270,4209.102539,4217.051270,4228.077148,4231.025879,4236.153809,4221.153809,4199.615234,4230.000000,4206.538574,0.000000,4.000000,91.000000,,,,0.000000,4.000000,4.000000,4.000000,4.000000,4.000000,4.000000,4.000000,4.000000,4.000000,4.000000,4.000000,4.000000,4.000000,4.000000,100.000000,,,,,,,,,,,,,,,,
1644852789.409693,69.000000,0.000000,4222.820313,4204.743652,4204.230957,4206.282227,4211.538574,4208.717773,4213.717773,4224.487305,4224.615234,4223.461426,4213.974121,4197.948730,4227.692383,4207.307617,0.000000,4.000000,91.000000,,,,0.000000,4.000000,4.000000,4.000000,4.000000,4.000000,4.000000,4.000000,4.000000,4.000000,4.000000,4.000000,4.000000,4.000000,4.000000,100.000000,,,,,,,,,,,,,,,,
1644852789.413633,70.000000,0.000000,4215.641113,4195.512695,4200.128418,4201.538574,4202.179688,4210.384766,4213.846191,4221.794922,4219.871582,4214.102539,4208.974121,4198.717773,4224.358887,4201.922852,0.000000,4.000000,91.000000,,,,0.000000,4.000000,4.000000,4.000000,4.000000,4.000000,4.000000,4.000000,4.000000,4.000000,4.000000,4.000000,4.000000,4.000000,4.000000,100.000000,,,,,,,,,,,,,,,,
1644852789.417574,71.000000,0.000000,4206.666504,4193.461426,4198.205078,4199.743652,4201.538574,4211.282227,4216.025879,4220.641113,4218.717773,4214.487305,4205.769043,4200.384766,4221.153809,4193.846191,0.000000,4.000000,91.000000,,,,0.000000,4.000000,4.000000,4.000000,4.000000,4.000000,4.000000,4.000000,4.000000,4.000000,4.000000,4.000000,4.000000,4.000000,4.000000,100.000000,,,,,,,,,,,,,,,,
1644852789.421514,72.000000,0.000000,4199.102539,4197.820313,4197.948730,4200.641113,4204.487305,4209.743652,4217.436035,4220.641113,4220.769043,4224.615234,4204.230957,4202.051270,4219.871582,4188.846191,0.000000,4.000000,91.000000,,,,0.000000,4.000000,4.000000,4.000000,4.000000,4.000000,4.000000,4.000000,4.000000,4.000000,4.000000,4.000000,4.000000,4.000000,4.000000,100.000000,,,,,,,,,,,,,,,,
1644852789.425454,73.000000,0.000000,4195.641113,4203.846191,4198.077148,4201.794922,4204.358887,4207.307617,4216.794922,4221.410156,4224.102539,4237.307617,4205.128418,4203.333496,4220.512695,4190.256348,0.000000,4.000000,91.000000,,,,0.000000,4.000000,4.000000,4.000000,4.000000,4.000000,4.000000,4.000000,4.000000,4.000000,4.000000,4.000000,4.000000,4.000000,4.000000,100.000000,,,,,,,,,,,,,,,,
1644852789.429394,74.000000,0.000000,4197.307617,4206.410156,4198.333496,4201.538574,4199.102539,4206.410156,4216.282227,4223.333496,4226.794922,4242.948730,4208.205078,4204.102539,4221.282227,4196.410156,0.000000,4.000000,91.000000,,,,0.000000,4.000000,4.000000,4.000000,4.000000,4.000000,4.000000,4.000000,4.000000,4.000000,4.000000,4.000000,4.000000,4.000000,4.000000,100.000000,,,,,,,,,,,,,,,,
1644852789.433334,75.000000,0.000000,4202.692383,4203.589844,4198.974121,4200.641113,4192.563965,4208.205078,4217.820313,4226.153809,4227.563965,4237.820313,4211.538574,4204.102539,4219.230957,4200.769043,0.000000,4.000000,91.000000,,,,0.000000,4.000000,4.000000,4.000000,4.000000,4.000000,4.000000,4.000000,4.000000,4.000000,4.000000,4.000000,4.000000,4.000000,4.000000,100.000000,,,,,,,,,,,,,,,,
1644852789.437274,76.000000,0.000000,4208.461426,4197.563965,4199.102539,4201.025879,4190.384766,4211.025879,4220.000000,4228.205078,4226.282227,4226.282227,4211.282227,4202.436035,4212.692383,4196.282227,0.000000,4.000000,91.000000,,,,0.000000,4.000000,4.000000,4.000000,4.000000,4.000000,4.000000,4.000000,4.000000,4.000000,4.000000,4.000000,4.000000,4.000000,4.000000,100.000000,,,,,,,,,,,,,,,,
1644852789.441214,77.000000,0.000000,4211.410156,4192.179688,4197.563965,4203.461426,4195.512695,4212.307617,4220.000000,4226.794922,4223.461426,4216.410156,4204.615234,4199.102539,4202.692383,4181.538574,0.000000,4.000000,91.000000,,,,0.000000,4.000000,4.000000,4.000000,4.000000,4.000000,4.000000,4.000000,4.000000,4.000000,4.000000,4.000000,4.000000,4.000000,4.000000,100.000000,,,,,,,,,,,,,,,,
1644852789.445254,78.000000,0.000000,4209.230957,4191.153809,4193.717773,4205.897461,4205.128418,4211.025879,4216.922852,4221.282227,4218.974121,4212.563965,4193.205078,4194.743652,4192.692383,4162.692383,0.000000,4.000000,91.000000,,,,0.000000,4.000000,4.000000,4.000000,4.000000,4.000000,4.000000,4.000000,4.000000,4.000000,4.000000,4.000000,4.000000,4.000000,4.000000,100.000000,,,,,,,,,,,,,,,,
1644852789.449194,79.000000,0.000000,4203.461426,4195.384766,4189.358887,4204.358887,4214.358887,4209.102539,4213.589844,4214.358887,4213.333496,4212.820313,4184.230957,4190.512695,4187.436035,4150.641113,0.000000,4.000000,91.000000,,,,0.000000,4.000000,4.000000,4.000000,4.000000,4.000000,4.000000,4.000000,4.000000,4.000000,4.000000,4.000000,4.000000,4.000000,4.000000,100.000000,,,,,,,,,,,,,,,,
1644852789.453134,80.000000,0.000000,4199.102539,4202.948730,4187.820313,4196.410156,4219.615234,4209.487305,4213.333496,4210.000000,4207.563965,4212.820313,4185.897461,4187.436035,4190.128418,4153.461426,0.000000,4.000000,91.000000,,,,0.000000,4.000000,4.000000,4.000000,4.000000,4.000000,4.000000,4.000000,4.000000,4.000000,4.000000,4.000000,4.000000,4.000000,4.000000,100.000000,,,,,,,,,,,,,,,,
1644852789.457074,81.000000,0.000000,4200.769043,4210.384766,4191.282227,4184.102539,4221.282227,4212.948730,4216.410156,4210.256348,4203.717773,4210.384766,4198.333496,4185.641113,4198.974121,4169.743652,0.000000,4.000000,91.000000,,,,0.000000,4.000000,4.000000,4.000000,4.000000,4.000000,4.000000,4.000000,4.000000,4.000000,4.000000,4.000000,4.000000,4.000000,4.000000,100.000000,,,,,,,,,,,,,,,,
1644852789.461015,82.000000,0.000000,4207.051270,4214.230957,4198.205078,4172.692383,4221.794922,4217.307617,4219.487305,4214.102539,4203.717773,4206.666504,4211.153809,4184.487305,4206.922852,4187.948730,0.000000,4.000000,91.000000,,,,0.000000,4.000000,4.000000,4.000000,4.000000,4.000000,4.000000,4.000000,4.000000,4.000000,4.000000,4.000000,4.000000,4.000000,4.000000,100.000000,,,,,,,,,,,,,,,,
1644852789.464955,83.000000,0.000000,4210.769043,4211.538574,4204.615234,4168.077148,4221.666504,4218.717773,4219.615234,4218.333496,4207.436035,4204.358887,4211.153809,4183.846191,4206.922852,4195.000000,0.000000,4.000000,91.000000,,,,0.000000,4.000000,4.000000,4.000000,4.000000,4.000000,4.000000,4.000000,4.000000,4.000000,4.000000,4.000000,4.000000,4.000000,4.000000,100.000000,,,,,,,,,,,,,,,,
1644852789.468895,84.000000,0.000000,4206.666504,4202.820313,4207.179688,4174.102539,4220.256348,4215.384766,4217.563965,4220.384766,4212.307617,4206.410156,4194.743652,4183.846191,4198.333496,4187.436035,0.000000,4.000000,91.000000,,,,0.000000,4.000000,4.000000,4.000000,4.000000,4.000000,4.000000,4.000000,4.000000,4.000000,4.000000,4.000000,4.000000,4.000000,4.000000,100.000000,,,,,,,,,,,,,,,,
1644852789.472835,85.000000,0.000000,4198.205078,4193.333496,4205.384766,4190.000000,4217.307617,4210.128418,4215.897461,4220.000000,4216.025879,4213.717773,4173.077148,4184.743652,4188.846191,4174.358887,0.000000,4.000000,91.000000,,,,0.000000,4.000000,4.000000,4.000000,4.000000,4.000000,4.000000,4.000000,4.000000,4.000000,4.000000,4.000000,4.000000,4.000000,4.000000,100.000000,,,,,,,,,,,,,,,,
1644852789.476775,86.000000,0.000000,4194.230957,4190.000000,4202.179688,4209.871582,4214.358887,4207.948730,4216.410156,4219.230957,4218.589844,4223.461426,4163.077148,4186.666504,4188.717773,4169.102539,0.000000,4.000000,91.000000,,,,0.000000,4.000000,4.000000,4.000000,4.000000,4.000000,4.000000,4.000000,4.000000,4.000000,4.000000,4.000000,4.000000,4.000000,4.000000,100.000000,,,,,,,,,,,,,,,,
1644852789.480715,87.000000,0.000000,4199.615234,4196.153809,4201.025879,4224.358887,4212.179688,4211.282227,4217.820313,4219.743652,4221.666504,4231.025879,4171.794922,4191.153809,4201.282227,4174.743652,0.000000,4.000000,91.000000,,,,0.000000,4.000000,4.000000,4.000000,4.000000,4.000000,4.000000,4.000000,4.000000,4.000000,4.000000,4.000000,4.000000,4.000000,4.000000,100.000000,,,,,,,,,,,,,,,,
1644852789.484655,88.000000,0.000000,4209.871582,4207.436035,4203.461426,4226.794922,4209.871582,4217.563965,4218.717773,4222.179688,4226.025879,4233.205078,4191.922852,4199.230957,4219.358887,4181.794922,0.000000,4.000000,91.000000,,,,0.000000,4.000000,4.000000,4.000000,4.000000,4.000000,4.000000,4.000000,4.000000,4.000000,4.000000,4.000000,4.000000,4.000000,4.000000,100.000000,,,,,,,,,,,,,,,,
1644852789.488595,89.000000,0.000000,4215.769043,4215.641113,4208.333496,4218.589844,4207.051270,4221.794922,4219.358887,4225.641113,4230.512695,4231.666504,4209.743652,4210.000000,4232.820313,4181.538574,0.000000,4.000000,91.000000,,,,0.000000,4.000000,4.000000,4.000000,4.000000,4.000000,4.000000,4.000000,4.000000,4.000000,4.000000,4.000000,4.000000,4.000000,4.000000,100.000000,,,,,,,,,,,,,,,,
1644852789.492535,90.000000,0.000000,4213.077148,4215.256348,4212.692383,4208.077148,4205.384766,4221.410156,4221.025879,4229.102539,4232.563965,4232.051270,4218.846191,4219.102539,4237.948730,4178.846191,0.000000,4.000000,91.000000,,,,0.000000,4.000000,4.000000,4.000000,4.000000,4.000000,4.000000,4.000000,4.000000,4.000000,4.000000,4.000000,4.000000,4.000000,4.000000,100.000000,,,,,,,,,,,,,,,,
1644852789.496476,91.000000,0.000000,4203.846191,4207.563965,4214.487305,4202.179688,4207.948730,4218.077148,4222.820313,4231.025879,4231.153809,4237.820313,4222.179688,4221.282227,4238.461426,4185.897461,0.000000,4.000000,91.000000,,,,0.000000,4.000000,4.000000,4.000000,4.000000,4.000000,4.000000,4.000000,4.000000,4.000000,4.000000,4.000000,4.000000,4.000000,4.000000,100.000000,,,,,,,,,,,,,,,,
1644852789.500416,92.000000,0.000000,4191.025879,4197.692383,4214.102539,4200.641113,4215.256348,4215.384766,4222.820313,4230.384766,4227.820313,4245.512695,4223.333496,4216.538574,4237.179688,4201.794922,0.000000,4.000000,91.000000,,,,0.000000,4.000000,4.000000,4.000000,4.000000,4.000000,4.000000,4.000000,4.000000,4.000000,4.000000,4.000000,4.000000,4.000000,4.000000,100.000000,,,,,,,,,,,,,,,,
1644852789.504356,93.000000,0.000000,4173.205078,4188.846191,4213.461426,4197.051270,4223.077148,4215.512695,4219.871582,4227.563965,4224.615234,4245.769043,4218.589844,4211.538574,4229.102539,4206.153809,0.000000,4.000000,91.000000,,,,0.000000,4.000000,4.000000,4.000000,4.000000,4.000000,4.000000,4.000000,4.000000,4.000000,4.000000,4.000000,4.000000,4.000000,4.000000,100.000000,,,,,,,,,,,,,,,,
1644852789.508296,94.000000,0.000000,4148.846191,4180.641113,4214.743652,4187.179688,4224.743652,4216.922852,4216.410156,4224.102539,4222.692383,4231.282227,4201.538574,4214.102539,4206.410156,4177.563965,0.000000,4.000000,91.000000,,,,0.000000,4.000000,4.000000,4.000000,4.000000,4.000000,4.000000,4.000000,4.000000,4.000000,4.000000,4.000000,4.000000,4.000000,4.000000,100.000000,,,,,,,,,,,,,,,,
1644852789.512136,95.000000,0.000000,4123.077148,4173.589844,4218.333496,4174.615234,4217.948730,4217.307617,4215.769043,4222.179688,4221.922852,4206.282227,4174.102539,4226.282227,4171.153809,4120.384766,0.000000,4.000000,91.000000,,,,0.000000,4.000000,4.000000,4.000000,4.000000,4.000000,4.000000,4.000000,4.000000,4.000000,4.000000,4.000000,4.000000,4.000000,4.000000,100.000000,,,,,,,,,,,,,,,,
1644852789.516076,96.000000,0.000000,4109.871582,4171.794922,4222.179688,4167.948730,4207.948730,4215.769043,4218.461426,4222.563965,4222.307617,4185.641113,4150.769043,4240.512695,4140.128418,4069.230713,0.000000,4.000000,91.000000,,,,0.000000,4.000000,4.000000,4.000000,4.000000,4.000000,4.000000,4.000000,4.000000,4.000000,4.000000,4.000000,4.000000,4.000000,4.000000,100.000000,,,,,,,,,,,,,,,,
1644852789.520016,97.000000,0.000000,4123.461426,4179.871582,4223.589844,4173.974121,4203.717773,4214.102539,4221.410156,4224.102539,4223.846191,4185.128418,4149.871582,4245.384766,4135.769043,4065.897461,0.000000,4.000000,91.000000,,,,0.000000,4.000000,4.000000,4.000000,4.000000,4.000000,4.000000,4.000000,4.000000,4.000000,4.000000,4.000000,4.000000,4.000000,4.000000,100.000000,,,,,,,,,,,,,,,,
1644852789.523956,98.000000,0.000000,4165.769043,4197.436035,4221.538574,4190.256348,4210.897461,4214.743652,4222.179688,4225.384766,4226.410156,4208.205078,4178.846191,4234.358887,4168.333496,4124.743652,0.000000,4.000000,91.000000,,,,0.000000,4.000000,4.000000,4.000000,4.000000,4.000000,4.000000,4.000000,4.000000,4.000000,4.000000,4.000000,4.000000,4.000000,4.000000,100.000000,,,,,,,,,,,,,,,,
1644852789.527896,99.000000,0.000000,4221.153809,4217.179688,4217.563965,4208.205078,4227.307617,4217.820313,4221.538574,4225.384766,4228.461426,4242.436035,4225.641113,4211.282227,4226.025879,4218.077148,0.000000,4.000000,91.000000,,,,0.000000,4.000000,4.000000,4.000000,4.000000,4.000000,4.000000,4.000000,4.000000,4.000000,4.000000,4.000000,4.000000,4.000000,4.000000,100.000000,,,,,,,,,,,,,,,,
1644852789.531837,100.000000,0.000000,4264.230957,4229.487305,4213.974121,4219.102539,4243.717773,4221.410156,4221.794922,4224.230957,4228.333496,4267.820313,4264.743652,4187.692383,4280.128418,4293.589844,0.000000,4.000000,91.000000,,,,0.000000,4.000000,4.000000,4.000000,4.000000,4.000000,4.000000,4.000000,4.000000,4.000000,4.000000,4.000000,4.000000,4.000000,4.000000,100.000000,,,,,,,,,,,,,,,,
1644852789.535777,101.000000,0.000000,4276.025879,4229.102539,4211.538574,4220.512695,4250.256348,4223.461426,4223.974121,4222.179688,4226.025879,4270.256348,4275.000000,4175.769043,4304.487305,4310.256348,0.000000,4.000000,91.000000,,,,0.000000,4.000000,4.000000,4.000000,4.000000,4.000000,4.000000,4.000000,4.000000,4.000000,4.000000,4.000000,4.000000,4.000000,4.000000,100.000000,,,,,,,,,,,,,,,,
1644852789.539717,102.000000,0.000000,4255.897461,4218.717773,4209.358887,4216.794922,4243.589844,4223.461426,4226.025879,4220.256348,4222.820313,4252.307617,4255.128418,4179.358887,4292.692383,4266.922852,0.000000,4.000000,91.000000,,,,0.000000,4.000000,4.000000,4.000000,4.000000,4.000000,4.000000,4.000000,4.000000,4.000000,4.000000,4.000000,4.000000,4.000000,4.000000,100.000000,,,,,,,,,,,,,,,,
1644852789.543657,103.000000,0.000000,4221.922852,4206.538574,4207.179688,4214.102539,4229.102539,4223.333496,4226.153809,4219.358887,4220.641113,4229.487305,4224.487305,4191.794922,4260.128418,4199.358887,0.000000,4.000000,91.000000,,,,0.000000,4.000000,4.000000,4.000000,4.000000,4.000000,4.000000,4.000000,4.000000,4.000000,4.000000,4.000000,4.000000,4.000000,4.000000,100.000000,,,,,,,,,,,,,,,,
1644852789.547597,104.000000,0.000000,4197.948730,4200.641113,4205.512695,4215.512695,4216.410156,4224.615234,4225.128418,4220.128418,4220.769043,4218.205078,4206.666504,4202.051270,4230.512695,4152.179688,0.000000,4.000000,91.000000,,,,0.000000,4.000000,4.000000,4.000000,4.000000,4.000000,4.000000,4.000000,4.000000,4.000000,4.000000,4.000000,4.000000,4.000000,4.000000,100.000000,,,,,,,,,,,,,,,,
1644852789.551537,105.000000,0.000000,4196.666504,4203.717773,4205.641113,4218.461426,4212.692383,4227.307617,4225.128418,4222.692383,4223.461426,4223.461426,4210.512695,4203.846191,4218.589844,4146.666504,0.000000,4.000000,91.000000,,,,0.000000,4.000000,4.000000,4.000000,4.000000,4.000000,4.000000,4.000000,4.000000,4.000000,4.000000,4.000000,4.000000,4.000000,4.000000,100.000000,,,,,,,,,,,,,,,,
1644852789.555477,106.000000,0.000000,4212.051270,4212.563965,4207.436035,4217.563965,4219.743652,4230.256348,4226.410156,4226.538574,4228.461426,4236.922852,4225.897461,4199.102539,4222.436035,4171.922852,0.000000,4.000000,91.000000,,,,0.000000,4.000000,4.000000,4.000000,4.000000,4.000000,4.000000,4.000000,4.000000,4.000000,4.000000,4.000000,4.000000,4.000000,4.000000,100.000000,,,,,,,,,,,,,,,,
1644852789.559417,107.000000,0.000000,4227.692383,4220.000000,4209.871582,4210.641113,4232.948730,4232.179688,4226.794922,4230.256348,4234.487305,4247.436035,4235.769043,4194.615234,4231.794922,4201.410156,0.000000,4.000000,91.000000,,,,0.000000,4.000000,4.000000,4.000000,4.000000,4.000000,4.000000,4.000000,4.000000,4.000000,4.000000,4.000000,4.000000,4.000000,4.000000,100.000000,,,,,,,,,,,,,,,,
1644852789.563357,108.000000,0.000000,4231.153809,4221.666504,4211.922852,4201.794922,4244.358887,4232.692383,4225.384766,4232.692383,4239.230957,4249.358887,4232.820313,4195.000000,4238.461426,4217.820313,0.000000,4.000000,91.000000,,,,0.000000,4.000000,4.000000,4.000000,4.000000,4.000000,4.000000,4.000000,4.000000,4.000000,4.000000,4.000000,4.000000,4.000000,4.000000,100.000000,,,,,,,,,,,,,,,,
1644852789.567298,109.000000,0.000000,4222.563965,4218.077148,4213.589844,4197.179688,4247.307617,4231.922852,4223.974121,4234.230957,4240.384766,4245.128418,4222.820313,4198.846191,4242.948730,4224.230957,0.000000,4.000000,91.000000,,,,0.000000,4.000000,4.000000,4.000000,4.000000,4.000000,4.000000,4.000000,4.000000,4.000000,4.000000,4.000000,4.000000,4.000000,4.000000,100.000000,,,,,,,,,,,,,,,,
1644852789.571238,110.000000,0.000000,4211.025879,4214.102539,4215.000000,4198.589844,4240.641113,4230.000000,4225.384766,4235.641113,4237.820313,4240.384766,4216.282227,4201.410156,4248.461426,4233.077148,0.000000,4.000000,91.000000,,,,0.000000,4.000000,4.000000,4.000000,4.000000,4.000000,4.000000,4.000000,4.000000,4.000000,4.000000,4.000000,4.000000,4.000000,4.000000,100.000000,,,,,,,,,,,,,,,,
1644852789.575178,111.000000,0.000000,4205.769043,4214.102539,4216.538574,4201.794922,4229.487305,4226.922852,4229.230957,4237.563965,4234.102539,4238.846191,4218.205078,4200.256348,4254.871582,4249.743652,0.000000,4.000000,91.000000,,,,0.000000,4.000000,4.000000,4.000000,4.000000,4.000000,4.000000,4.000000,4.000000,4.000000,4.000000,4.000000,4.000000,4.000000,4.000000,100.000000,,,,,,,,,,,,,,,,
1644852789.579118,112.000000,0.000000,4208.717773,4217.563965,4218.589844,4202.307617,4221.025879,4224.230957,4231.794922,4239.102539,4232.563965,4240.641113,4225.000000,4197.563965,4257.307617,4267.563965,0.000000,4.000000,91.000000,,,,0.000000,4.000000,4.000000,4.000000,4.000000,4.000000,4.000000,4.000000,4.000000,4.000000,4.000000,4.000000,4.000000,4.000000,4.000000,100.000000,,,,,,,,,,,,,,,,
1644852789.583158,113.000000,0.000000,4216.153809,4220.256348,4220.897461,4200.512695,4218.974121,4222.948730,4229.871582,4238.846191,4233.974121,4243.205078,4230.512695,4196.794922,4252.692383,4277.436035,0.000000,4.000000,91.000000,,,,0.000000,4.000000,4.000000,4.000000,4.000000,4.000000,4.000000,4.000000,4.000000,4.000000,4.000000,4.000000,4.000000,4.000000,4.000000,100.000000,,,,,,,,,,,,,,,,
1644852789.587098,114.000000,0.000000,4222.179688,4218.717773,4222.436035,4200.256348,4221.794922,4222.820313,4224.743652,4236.666504,4236.025879,4244.230957,4231.538574,4197.820313,4243.205078,4278.846191,0.000000,4.000000,91.000000,,,,0.000000,4.000000,4.000000,4.000000,4.000000,4.000000,4.000000,4.000000,4.000000,4.000000,4.000000,4.000000,4.000000,4.000000,4.000000,100.000000,,,,,,,,,,,,,,,,
1644852789.591038,115.000000,0.000000,4222.436035,4213.717773,4222.307617,4203.205078,4225.384766,4222.820313,4220.769043,4233.846191,4235.641113,4243.205078,4228.974121,4198.077148,4234.615234,4278.205078,0.000000,4.000000,91.000000,,,,0.000000,4.000000,4.000000,4.000000,4.000000,4.000000,4.000000,4.000000,4.000000,4.000000,4.000000,4.000000,4.000000,4.000000,4.000000,100.000000,,,,,,,,,,,,,,,,
1644852789.594978,116.000000,0.000000,4216.153809,4208.077148,4220.256348,4206.153809,4227.307617,4222.051270,4220.897461,4231.282227,4232.051270,4241.410156,4223.589844,4195.512695,4230.512695,4280.128418,0.000000,4.000000,91.000000,,,,0.000000,4.000000,4.000000,4.000000,4.000000,4.000000,4.000000,4.000000,4.000000,4.000000,4.000000,4.000000,4.000000,4.000000,4.000000,100.000000,,,,,,,,,,,,,,,,
1644852789.598918,117.000000,0.000000,4207.051270,4204.358887,4216.922852,4203.205078,4228.333496,4221.153809,4223.333496,4229.487305,4227.307617,4240.512695,4216.538574,4192.051270,4229.615234,4283.717773,0.000000,4.000000,91.000000,,,,0.000000,4.000000,4.000000,4.000000,4.000000,4.000000,4.000000,4.000000,4.000000,4.000000,4.000000,4.000000,4.000000,4.000000,4.000000,100.000000,,,,,,,,,,,,,,,,
1644852789.602858,118.000000,0.000000,4201.282227,4203.333496,4213.974121,4192.563965,4230.512695,4221.153809,4225.000000,4228.205078,4223.974121,4239.487305,4209.358887,4190.769043,4228.589844,4285.384766,0.000000,4.000000,91.000000,,,,0.000000,4.000000,4.000000,4.000000,4.000000,4.000000,4.000000,4.000000,4.000000,4.000000,4.000000,4.000000,4.000000,4.000000,4.000000,100.000000,1.000000,58.333332,3.000000,4.000000,4.000000,4.000000,4.000000,4.000000,4.000000,4.000000,4.000000,4.000000,4.000000,4.000000,3.000000,1.000000
1644852789.606798,119.000000,0.000000,4203.461426,4203.717773,4213.205078,4178.717773,4234.487305,4221.922852,4224.487305,4226.794922,4222.692383,4235.128418,4205.512695,4193.461426,4225.897461,4283.461426,0.000000,4.000000,91.000000,,,,0.000000,4.000000,4.000000,4.000000,4.000000,4.000000,4.000000,4.000000,4.000000,4.000000,4.000000,4.000000,4.000000,4.000000,4.000000,100.000000,,,,,,,,,,,,,,,,
1644852789.610739,120.000000,0.000000,4212.820313,4203.589844,4215.256348,4170.641113,4237.307617,4223.205078,4223.077148,4224.358887,4221.282227,4226.025879,4207.948730,4198.205078,4222.948730,4278.205078,0.000000,4.000000,91.000000,,,,0.000000,4.000000,4.000000,4.000000,4.000000,4.000000,4.000000,4.000000,4.000000,4.000000,4.000000,4.000000,4.000000,4.000000,4.000000,100.000000,,,,,,,,,,,,,,,,
1644852789.614579,121.000000,0.000000,4222.563965,4202.307617,4218.589844,4174.487305,4235.512695,4224.230957,4222.307617,4220.256348,4217.436035,4214.871582,4215.897461,4201.922852,4221.025879,4271.410156,0.000000,4.000000,91.000000,,,,0.000000,4.000000,4.000000,4.000000,4.000000,4.000000,4.000000,4.000000,4.000000,4.000000,4.000000,4.000000,4.000000,4.000000,4.000000,100.000000,,,,,,,,,,,,,,,,
1644852789.618519,122.000000,0.000000,4225.384766,4200.897461,4220.256348,4187.820313,4228.461426,4224.615234,4221.666504,4215.256348,4211.794922,4207.948730,4224.871582,4202.692383,4220.256348,4265.769043,0.000000,4.000000,91.000000,,,,0.000000,4.000000,4.000000,4.000000,4.000000,4.000000,4.000000,4.000000,4.000000,4.000000,4.000000,4.000000,4.000000,4.000000,4.000000,100.000000,,,,,,,,,,,,,,,,
1644852789.622459,123.000000,0.000000,4219.487305,4201.666504,4218.717773,4200.897461,4219.743652,4223.461426,4220.000000,4211.153809,4207.820313,4209.871582,4228.333496,4201.410156,4218.205078,4263.333496,0.000000,4.000000,91.000000,,,,0.000000,4.000000,4.000000,4.000000,4.000000,4.000000,4.000000,4.000000,4.000000,4.000000,4.000000,4.000000,4.000000,4.000000,4.000000,100.000000,,,,,,,,,,,,,,,,
