title:Alex-Z6VgZCWoTbwjMRNP8qjxnQ, start timestamp:1644853660.267818, stop timestamp:1644853687.519051, headset type:EPOCPLUS, headset serial:3B9AEBFF, headset firmware:626, channels:55, sampling rate:eeg_256, samples:6923      , version:2.1, 
Timestamp,EEG.Counter,EEG.Interpolated,EEG.AF3,EEG.F7,EEG.F3,EEG.FC5,EEG.T7,EEG.P7,EEG.O1,EEG.O2,EEG.P8,EEG.T8,EEG.FC6,EEG.F4,EEG.F8,EEG.AF4,EEG.RawCq,EEG.Battery,EEG.BatteryPercent,MarkerIndex,MarkerType,MarkerValueInt,EEG.MarkerHardware,CQ.AF3,CQ.F7,CQ.F3,CQ.FC5,CQ.T7,CQ.P7,CQ.O1,CQ.O2,CQ.P8,CQ.T8,CQ.FC6,CQ.F4,CQ.F8,CQ.AF4,CQ.Overall,EQ.SampleRateQuality,EQ.OVERALL,EQ.AF3,EQ.F7,EQ.F3,EQ.FC5,EQ.T7,EQ.P7,EQ.O1,EQ.O2,EQ.P8,EQ.T8,EQ.FC6,EQ.F4,EQ.F8,EQ.AF4
1644853660.267818,108.000000,0.000000,4194.615234,4208.846191,4198.974121,4196.666504,4216.410156,4219.102539,4222.820313,4219.743652,4231.025879,4229.358887,4222.692383,4182.948730,4185.256348,4178.717773,0.000000,4.000000,86.000000,,,,0.000000,4.000000,4.000000,4.000000,4.000000,4.000000,4.000000,4.000000,4.000000,4.000000,4.000000,4.000000,4.000000,4.000000,4.000000,100.000000,,,,,,,,,,,,,,,,
1644853660.271858,109.000000,0.000000,4199.487305,4212.307617,4197.179688,4203.333496,4210.769043,4217.563965,4220.256348,4217.436035,4225.128418,4227.948730,4230.641113,4183.846191,4191.025879,4184.487305,0.000000,4.000000,86.000000,,,,0.000000,4.000000,4.000000,4.000000,4.000000,4.000000,4.000000,4.000000,4.000000,4.000000,4.000000,4.000000,4.000000,4.000000,4.000000,100.000000,,,,,,,,,,,,,,,,
1644853660.275798,110.000000,0.000000,4204.230957,4214.230957,4195.897461,4214.358887,4203.333496,4216.025879,4215.897461,4215.769043,4220.512695,4227.948730,4232.563965,4187.820313,4198.974121,4193.461426,0.000000,4.000000,86.000000,,,,0.000000,4.000000,4.000000,4.000000,4.000000,4.000000,4.000000,4.000000,4.000000,4.000000,4.000000,4.000000,4.000000,4.000000,4.000000,100.000000,,,,,,,,,,,,,,,,
1644853660.279738,111.000000,0.000000,4210.512695,4215.384766,4198.461426,4224.230957,4200.769043,4215.641113,4213.846191,4216.922852,4220.769043,4230.512695,4228.461426,4195.128418,4207.051270,4203.974121,0.000000,4.000000,86.000000,,,,0.000000,4.000000,4.000000,4.000000,4.000000,4.000000,4.000000,4.000000,4.000000,4.000000,4.000000,4.000000,4.000000,4.000000,4.000000,100.000000,,,,,,,,,,,,,,,,
1644853660.283678,112.000000,0.000000,4217.820313,4216.153809,4205.000000,4229.615234,4204.358887,4216.153809,4215.384766,4220.769043,4225.000000,4235.384766,4223.461426,4203.717773,4212.948730,4212.948730,0.000000,4.000000,86.000000,,,,0.000000,4.000000,4.000000,4.000000,4.000000,4.000000,4.000000,4.000000,4.000000,4.000000,4.000000,4.000000,4.000000,4.000000,4.000000,100.000000,,,,,,,,,,,,,,,,
1644853660.287618,113.000000,0.000000,4223.205078,4216.410156,4212.436035,4231.538574,4209.743652,4216.410156,4217.948730,4224.230957,4229.487305,4239.615234,4223.846191,4210.384766,4214.615234,4217.436035,0.000000,4.000000,86.000000,,,,0.000000,4.000000,4.000000,4.000000,4.000000,4.000000,4.000000,4.000000,4.000000,4.000000,4.000000,4.000000,4.000000,4.000000,4.000000,100.000000,,,,,,,,,,,,,,,,
1644853660.291559,114.000000,0.000000,4223.333496,4215.384766,4216.538574,4231.922852,4212.307617,4215.512695,4218.333496,4223.846191,4230.128418,4239.743652,4231.153809,4212.436035,4211.666504,4216.794922,0.000000,4.000000,86.000000,,,,0.000000,4.000000,4.000000,4.000000,4.000000,4.000000,4.000000,4.000000,4.000000,4.000000,4.000000,4.000000,4.000000,4.000000,4.000000,100.000000,,,,,,,,,,,,,,,,
1644853660.295499,115.000000,0.000000,4217.692383,4213.333496,4215.512695,4232.692383,4210.384766,4213.717773,4216.794922,4219.230957,4225.769043,4234.743652,4240.256348,4209.230957,4205.641113,4211.922852,0.000000,4.000000,86.000000,,,,0.000000,4.000000,4.000000,4.000000,4.000000,4.000000,4.000000,4.000000,4.000000,4.000000,4.000000,4.000000,4.000000,4.000000,4.000000,100.000000,,,,,,,,,,,,,,,,
1644853660.299439,116.000000,0.000000,4209.358887,4211.538574,4211.025879,4233.205078,4205.897461,4212.436035,4215.769043,4213.461426,4218.333496,4227.563965,4242.563965,4202.948730,4199.358887,4205.000000,0.000000,4.000000,86.000000,,,,0.000000,4.000000,4.000000,4.000000,4.000000,4.000000,4.000000,4.000000,4.000000,4.000000,4.000000,4.000000,4.000000,4.000000,4.000000,100.000000,,,,,,,,,,,,,,,,
1644853660.303379,117.000000,0.000000,4203.333496,4212.307617,4206.922852,4231.922852,4202.692383,4213.077148,4216.794922,4210.512695,4211.922852,4221.922852,4233.589844,4197.563965,4194.871582,4197.563965,0.000000,4.000000,86.000000,,,,0.000000,4.000000,4.000000,4.000000,4.000000,4.000000,4.000000,4.000000,4.000000,4.000000,4.000000,4.000000,4.000000,4.000000,4.000000,100.000000,,,,,,,,,,,,,,,,
1644853660.307319,118.000000,0.000000,4201.922852,4215.641113,4205.512695,4228.077148,4203.461426,4215.128418,4218.461426,4211.922852,4209.871582,4219.743652,4217.948730,4196.153809,4192.307617,4190.384766,0.000000,4.000000,86.000000,,,,0.000000,4.000000,4.000000,4.000000,4.000000,4.000000,4.000000,4.000000,4.000000,4.000000,4.000000,4.000000,4.000000,4.000000,4.000000,100.000000,,,,,,,,,,,,,,,,
1644853660.311259,119.000000,0.000000,4203.205078,4218.974121,4206.794922,4222.436035,4207.692383,4217.179688,4219.230957,4216.153809,4213.205078,4219.743652,4206.538574,4199.102539,4190.000000,4184.230957,0.000000,4.000000,86.000000,,,,0.000000,4.000000,4.000000,4.000000,4.000000,4.000000,4.000000,4.000000,4.000000,4.000000,4.000000,4.000000,4.000000,4.000000,4.000000,100.000000,,,,,,,,,,,,,,,,
1644853660.315199,120.000000,0.000000,4203.589844,4219.615234,4209.487305,4216.794922,4211.538574,4217.948730,4218.974121,4220.384766,4219.743652,4219.358887,4206.922852,4203.717773,4187.051270,4180.000000,0.000000,4.000000,86.000000,,,,0.000000,4.000000,4.000000,4.000000,4.000000,4.000000,4.000000,4.000000,4.000000,4.000000,4.000000,4.000000,4.000000,4.000000,4.000000,100.000000,,,,,,,,,,,,,,,,
1644853660.319139,121.000000,0.000000,4202.948730,4216.794922,4212.948730,4212.820313,4211.922852,4217.307617,4219.871582,4222.948730,4225.384766,4218.205078,4216.666504,4206.794922,4183.461426,4179.615234,0.000000,4.000000,86.000000,,,,0.000000,4.000000,4.000000,4.000000,4.000000,4.000000,4.000000,4.000000,4.000000,4.000000,4.000000,4.000000,4.000000,4.000000,4.000000,100.000000,,,,,,,,,,,,,,,,
1644853660.323079,122.000000,0.000000,4204.743652,4213.846191,4216.922852,4211.282227,4209.358887,4216.153809,4222.307617,4223.974121,4227.692383,4217.820313,4225.641113,4208.077148,4181.025879,4184.230957,0.000000,4.000000,86.000000,,,,0.000000,4.000000,4.000000,4.000000,4.000000,4.000000,4.000000,4.000000,4.000000,4.000000,4.000000,4.000000,4.000000,4.000000,4.000000,100.000000,,,,,,,,,,,,,,,,
1644853660.327020,123.000000,0.000000,4212.051270,4214.743652,4221.153809,4212.948730,4207.436035,4216.025879,4224.487305,4225.128418,4226.666504,4220.512695,4227.179688,4209.743652,4182.692383,4193.717773,0.000000,4.000000,86.000000,,,,0.000000,4.000000,4.000000,4.000000,4.000000,4.000000,4.000000,4.000000,4.000000,4.000000,4.000000,4.000000,4.000000,4.000000,4.000000,100.000000,,,,,,,,,,,,,,,,
1644853660.330960,124.000000,0.000000,4222.820313,4220.769043,4224.487305,4218.077148,4209.615234,4217.820313,4224.358887,4227.051270,4224.615234,4227.436035,4224.102539,4213.333496,4190.000000,4205.384766,0.000000,4.000000,86.000000,,,,0.000000,4.000000,4.000000,4.000000,4.000000,4.000000,4.000000,4.000000,4.000000,4.000000,4.000000,4.000000,4.000000,4.000000,4.000000,100.000000,,,,,,,,,,,,,,,,
1644853660.334900,125.000000,0.000000,4230.641113,4228.077148,4225.512695,4225.384766,4215.256348,4220.769043,4221.922852,4228.846191,4223.333496,4236.794922,4223.974121,4217.563965,4200.512695,4215.769043,0.000000,4.000000,86.000000,,,,0.000000,4.000000,4.000000,4.000000,4.000000,4.000000,4.000000,4.000000,4.000000,4.000000,4.000000,4.000000,4.000000,4.000000,4.000000,100.000000,,,,,,,,,,,,,,,,
1644853660.338840,126.000000,0.000000,4230.384766,4229.871582,4222.820313,4231.922852,4220.128418,4222.436035,4218.461426,4228.974121,4222.307617,4243.589844,4229.743652,4217.692383,4209.487305,4221.410156,0.000000,4.000000,86.000000,,,,0.000000,4.000000,4.000000,4.000000,4.000000,4.000000,4.000000,4.000000,4.000000,4.000000,4.000000,4.000000,4.000000,4.000000,4.000000,100.000000,,,,,,,,,,,,,,,,
1644853660.342780,127.000000,0.000000,4222.436035,4223.461426,4216.538574,4234.487305,4220.512695,4220.512695,4215.000000,4226.153809,4220.000000,4243.205078,4234.487305,4210.897461,4212.563965,4220.897461,0.000000,4.000000,86.000000,,,,0.000000,4.000000,4.000000,4.000000,4.000000,4.000000,4.000000,4.000000,4.000000,4.000000,4.000000,4.000000,4.000000,4.000000,4.000000,100.000000,,,,,,,,,,,,,,,,
1644853660.346820,128.000000,0.000000,4212.179688,4212.436035,4208.205078,4231.282227,4216.538574,4215.384766,4211.025879,4220.769043,4215.128418,4234.487305,4229.487305,4199.487305,4209.102539,4214.871582,3420.000000,4.000000,86.000000,,,,0.000000,4.000000,4.000000,4.000000,4.000000,4.000000,4.000000,4.000000,4.000000,4.000000,4.000000,4.000000,4.000000,4.000000,4.000000,100.000000,,,,,,,,,,,,,,,,
1644853660.350760,129.000000,0.000000,4204.487305,4204.358887,4200.897461,4223.846191,4210.897461,4209.102539,4207.051270,4214.230957,4208.589844,4221.282227,4214.358887,4189.487305,4201.666504,4205.512695,3331.000000,4.000000,86.000000,,,,0.000000,4.000000,4.000000,4.000000,4.000000,4.000000,4.000000,4.000000,4.000000,4.000000,4.000000,4.000000,4.000000,4.000000,4.000000,100.000000,,,,,,,,,,,,,,,,
1644853660.354700,130.000000,0.000000,4200.256348,4203.205078,4198.077148,4215.512695,4206.410156,4204.743652,4204.743652,4208.846191,4202.948730,4208.974121,4197.692383,4185.769043,4193.846191,4195.897461,3556.000000,4.000000,86.000000,,,,0.000000,4.000000,4.000000,4.000000,4.000000,4.000000,4.000000,4.000000,4.000000,4.000000,4.000000,4.000000,4.000000,4.000000,4.000000,100.000000,,,,,,,,,,,,,,,,
1644853660.358640,131.000000,0.000000,4197.051270,4206.794922,4200.256348,4210.512695,4203.846191,4203.846191,4206.538574,4206.794922,4200.000000,4201.410156,4190.641113,4188.333496,4187.820313,4187.820313,3472.000000,4.000000,86.000000,,,,0.000000,4.000000,4.000000,4.000000,4.000000,4.000000,4.000000,4.000000,4.000000,4.000000,4.000000,4.000000,4.000000,4.000000,4.000000,100.000000,,,,,,,,,,,,,,,,
1644853660.362580,132.000000,0.000000,4194.487305,4210.128418,4205.641113,4211.025879,4203.589844,4206.410156,4211.666504,4209.358887,4201.025879,4200.512695,4197.692383,4193.077148,4184.743652,4182.179688,3527.000000,4.000000,86.000000,,,,0.000000,4.000000,4.000000,4.000000,4.000000,4.000000,4.000000,4.000000,4.000000,4.000000,4.000000,4.000000,4.000000,4.000000,4.000000,100.000000,,,,,,,,,,,,,,,,
1644853660.366520,133.000000,0.000000,4194.743652,4210.128418,4210.384766,4216.153809,4205.769043,4211.025879,4217.051270,4214.871582,4205.512695,4206.666504,4213.717773,4195.769043,4185.641113,4179.615234,3584.000000,4.000000,86.000000,,,,0.000000,4.000000,4.000000,4.000000,4.000000,4.000000,4.000000,4.000000,4.000000,4.000000,4.000000,4.000000,4.000000,4.000000,4.000000,100.000000,,,,,,,,,,,,,,,,
1644853660.370461,134.000000,0.000000,4200.256348,4207.948730,4211.794922,4221.282227,4209.871582,4215.641113,4219.487305,4220.769043,4212.563965,4218.846191,4228.333496,4194.871582,4190.128418,4180.897461,2861.000000,4.000000,86.000000,,,,0.000000,4.000000,4.000000,4.000000,4.000000,4.000000,4.000000,4.000000,4.000000,4.000000,4.000000,4.000000,4.000000,4.000000,4.000000,100.000000,,,,,,,,,,,,,,,,
1644853660.374401,135.000000,0.000000,4210.384766,4207.051270,4209.871582,4221.922852,4214.230957,4218.717773,4219.487305,4224.871582,4219.871582,4232.948730,4233.846191,4191.538574,4195.769043,4186.794922,2949.000000,4.000000,86.000000,,,,0.000000,4.000000,4.000000,4.000000,4.000000,4.000000,4.000000,4.000000,4.000000,4.000000,4.000000,4.000000,4.000000,4.000000,4.000000,100.000000,,,,,,,,,,,,,,,,
1644853660.378341,136.000000,0.000000,4221.666504,4210.256348,4206.282227,4217.307617,4217.179688,4219.615234,4218.974121,4226.794922,4224.487305,4243.077148,4230.000000,4188.461426,4199.487305,4196.025879,3516.000000,4.000000,86.000000,,,,0.000000,4.000000,4.000000,4.000000,4.000000,4.000000,4.000000,4.000000,4.000000,4.000000,4.000000,4.000000,4.000000,4.000000,4.000000,100.000000,,,,,,,,,,,,,,,,
1644853660.382281,137.000000,0.000000,4229.358887,4217.692383,4203.077148,4211.153809,4217.820313,4218.846191,4219.358887,4226.794922,4224.743652,4245.128418,4223.077148,4187.563965,4198.846191,4203.717773,3526.000000,4.000000,86.000000,,,,0.000000,4.000000,4.000000,4.000000,4.000000,4.000000,4.000000,4.000000,4.000000,4.000000,4.000000,4.000000,4.000000,4.000000,4.000000,100.000000,,,,,,,,,,,,,,,,
1644853660.386221,138.000000,0.000000,4230.000000,4225.769043,4201.025879,4207.051270,4216.025879,4217.307617,4219.487305,4225.769043,4221.538574,4240.128418,4218.461426,4188.974121,4195.000000,4205.128418,3738.000000,4.000000,86.000000,,,,0.000000,4.000000,4.000000,4.000000,4.000000,4.000000,4.000000,4.000000,4.000000,4.000000,4.000000,4.000000,4.000000,4.000000,4.000000,100.000000,,,,,,,,,,,,,,,,
1644853660.390161,139.000000,0.000000,4222.948730,4229.871582,4199.615234,4206.410156,4212.307617,4216.282227,4217.692383,4223.974121,4217.307617,4233.333496,4215.897461,4190.512695,4191.666504,4199.743652,3110.000000,4.000000,86.000000,,,,0.000000,4.000000,4.000000,4.000000,4.000000,4.000000,4.000000,4.000000,4.000000,4.000000,4.000000,4.000000,4.000000,4.000000,4.000000,100.000000,,,,,,,,,,,,,,,,
1644853660.394101,140.000000,0.000000,4210.128418,4226.666504,4198.077148,4207.820313,4207.948730,4216.282227,4214.871582,4221.666504,4214.102539,4228.589844,4212.051270,4189.358887,4191.666504,4192.692383,3395.000000,4.000000,86.000000,,,,0.000000,4.000000,4.000000,4.000000,4.000000,4.000000,4.000000,4.000000,4.000000,4.000000,4.000000,4.000000,4.000000,4.000000,4.000000,100.000000,1.000000,75.000000,4.000000,4.000000,3.000000,4.000000,4.000000,4.000000,4.000000,4.000000,4.000000,4.000000,3.000000,4.000000,3.000000,3.000000
1644853660.398041,141.000000,0.000000,4195.769043,4216.922852,4196.666504,4208.974121,4205.512695,4217.307617,4213.333496,4219.487305,4212.051270,4225.000000,4205.128418,4184.615234,4195.000000,4190.256348,3487.000000,4.000000,86.000000,,,,0.000000,4.000000,4.000000,4.000000,4.000000,4.000000,4.000000,4.000000,4.000000,4.000000,4.000000,4.000000,4.000000,4.000000,4.000000,100.000000,,,,,,,,,,,,,,,,
1644853660.401981,142.000000,0.000000,4183.974121,4205.641113,4195.769043,4209.230957,4207.436035,4219.358887,4214.871582,4218.717773,4210.641113,4219.743652,4197.948730,4178.589844,4198.846191,4193.846191,3738.000000,4.000000,86.000000,,,,0.000000,4.000000,4.000000,4.000000,4.000000,4.000000,4.000000,4.000000,4.000000,4.000000,4.000000,4.000000,4.000000,4.000000,4.000000,100.000000,,,,,,,,,,,,,,,,
1644853660.405922,143.000000,0.000000,4178.333496,4198.205078,4195.897461,4208.974121,4213.333496,4221.666504,4217.820313,4219.615234,4210.000000,4212.307617,4194.743652,4175.769043,4199.102539,4198.077148,3110.000000,4.000000,86.000000,,,,0.000000,4.000000,4.000000,4.000000,4.000000,4.000000,4.000000,4.000000,4.000000,4.000000,4.000000,4.000000,4.000000,4.000000,4.000000,100.000000,,,,,,,,,,,,,,,,
1644853660.409862,144.000000,0.000000,4179.871582,4198.077148,4197.051270,4209.102539,4219.871582,4223.333496,4219.102539,4221.666504,4210.641113,4206.282227,4197.307617,4179.743652,4193.974121,4196.922852,3395.000000,4.000000,86.000000,,,,0.000000,4.000000,4.000000,4.000000,4.000000,4.000000,4.000000,4.000000,4.000000,4.000000,4.000000,4.000000,4.000000,4.000000,4.000000,100.000000,,,,,,,,,,,,,,,,
1644853660.413802,145.000000,0.000000,4186.666504,4203.846191,4199.358887,4208.974121,4222.948730,4223.589844,4217.692383,4223.589844,4212.307617,4206.282227,4203.974121,4189.487305,4185.128418,4190.641113,3487.000000,4.000000,86.000000,,,,0.000000,4.000000,4.000000,4.000000,4.000000,4.000000,4.000000,4.000000,4.000000,4.000000,4.000000,4.000000,4.000000,4.000000,4.000000,100.000000,,,,,,,,,,,,,,,,
1644853660.417742,146.000000,0.000000,4195.128418,4211.538574,4202.563965,4207.436035,4220.256348,4221.794922,4215.128418,4224.871582,4214.743652,4213.333496,4211.025879,4199.230957,4177.436035,4185.897461,3738.000000,4.000000,86.000000,,,,0.000000,4.000000,4.000000,4.000000,4.000000,4.000000,4.000000,4.000000,4.000000,4.000000,4.000000,4.000000,4.000000,4.000000,4.000000,100.000000,,,,,,,,,,,,,,,,
1644853660.421782,147.000000,0.000000,4201.153809,4217.563965,4206.025879,4204.358887,4214.230957,4218.974121,4213.461426,4225.641113,4217.948730,4223.974121,4217.051270,4203.461426,4176.922852,4188.717773,3110.000000,4.000000,86.000000,,,,0.000000,4.000000,4.000000,4.000000,4.000000,4.000000,4.000000,4.000000,4.000000,4.000000,4.000000,4.000000,4.000000,4.000000,4.000000,100.000000,,,,,,,,,,,,,,,,
1644853660.425722,148.000000,0.000000,4202.820313,4220.256348,4208.717773,4201.666504,4209.487305,4216.666504,4212.948730,4226.153809,4221.666504,4233.461426,4223.205078,4200.256348,4185.769043,4198.333496,3395.000000,4.000000,86.000000,,,,0.000000,4.000000,4.000000,4.000000,4.000000,4.000000,4.000000,4.000000,4.000000,4.000000,4.000000,4.000000,4.000000,4.000000,4.000000,100.000000,,,,,,,,,,,,,,,,
1644853660.429662,149.000000,0.000000,4202.179688,4220.000000,4209.871582,4201.538574,4209.102539,4215.512695,4212.051270,4226.538574,4224.487305,4237.692383,4229.743652,4193.077148,4200.128418,4207.307617,3487.000000,4.000000,86.000000,,,,0.000000,4.000000,4.000000,4.000000,4.000000,4.000000,4.000000,4.000000,4.000000,4.000000,4.000000,4.000000,4.000000,4.000000,4.000000,100.000000,,,,,,,,,,,,,,,,
1644853660.433602,150.000000,0.000000,4204.102539,4218.333496,4209.871582,4204.358887,4211.794922,4215.128418,4210.769043,4226.538574,4224.358887,4235.512695,4233.974121,4187.563965,4211.922852,4209.102539,3738.000000,4.000000,86.000000,,,,0.000000,4.000000,4.000000,4.000000,4.000000,4.000000,4.000000,4.000000,4.000000,4.000000,4.000000,4.000000,4.000000,4.000000,4.000000,100.000000,,,,,,,,,,,,,,,,
1644853660.437542,151.000000,0.000000,4210.769043,4217.179688,4209.230957,4208.333496,4213.461426,4214.615234,4210.769043,4226.153809,4220.769043,4228.589844,4231.794922,4187.692383,4215.769043,4203.589844,3110.000000,4.000000,86.000000,,,,0.000000,4.000000,4.000000,4.000000,4.000000,4.000000,4.000000,4.000000,4.000000,4.000000,4.000000,4.000000,4.000000,4.000000,4.000000,100.000000,,,,,,,,,,,,,,,,
1644853660.441482,152.000000,0.000000,4219.615234,4216.538574,4208.589844,4211.025879,4211.538574,4213.461426,4212.948730,4225.512695,4216.153809,4221.153809,4222.179688,4192.563965,4212.179688,4197.051270,3395.000000,4.000000,86.000000,,,,0.000000,4.000000,4.000000,4.000000,4.000000,4.000000,4.000000,4.000000,4.000000,4.000000,4.000000,4.000000,4.000000,4.000000,4.000000,100.000000,,,,,,,,,,,,,,,,
1644853660.445422,153.000000,0.000000,4224.871582,4215.897461,4208.461426,4211.025879,4207.436035,4212.436035,4215.512695,4224.615234,4213.589844,4217.563965,4209.743652,4198.205078,4206.794922,4196.282227,3487.000000,4.000000,86.000000,,,,0.000000,4.000000,4.000000,4.000000,4.000000,4.000000,4.000000,4.000000,4.000000,4.000000,4.000000,4.000000,4.000000,4.000000,4.000000,100.000000,,,,,,,,,,,,,,,,
1644853660.449363,154.000000,0.000000,4222.179688,4214.487305,4209.615234,4208.974121,4205.000000,4212.307617,4215.384766,4222.948730,4214.358887,4219.487305,4201.153809,4200.769043,4204.487305,4202.179688,3738.000000,4.000000,86.000000,,,,0.000000,4.000000,4.000000,4.000000,4.000000,4.000000,4.000000,4.000000,4.000000,4.000000,4.000000,4.000000,4.000000,4.000000,4.000000,100.000000,,,,,,,,,,,,,,,,
1644853660.453303,155.000000,0.000000,4213.077148,4213.461426,4212.179688,4206.922852,4207.179688,4213.461426,4212.307617,4220.769043,4217.179688,4223.846191,4200.512695,4200.000000,4206.025879,4209.871582,3110.000000,4.000000,86.000000,,,,0.000000,4.000000,4.000000,4.000000,4.000000,4.000000,4.000000,4.000000,4.000000,4.000000,4.000000,4.000000,4.000000,4.000000,4.000000,100.000000,,,,,,,,,,,,,,,,
1644853660.457243,156.000000,0.000000,4203.461426,4214.743652,4215.512695,4207.563965,4212.179688,4215.256348,4209.487305,4219.102539,4218.974121,4226.153809,4207.051270,4199.230957,4207.820313,4213.077148,3395.000000,4.000000,86.000000,,,,0.000000,4.000000,4.000000,4.000000,4.000000,4.000000,4.000000,4.000000,4.000000,4.000000,4.000000,4.000000,4.000000,4.000000,4.000000,100.000000,,,,,,,,,,,,,,,,
1644853660.461183,157.000000,0.000000,4199.871582,4218.589844,4218.205078,4210.641113,4216.025879,4216.666504,4210.128418,4219.358887,4218.205078,4224.102539,4216.282227,4201.410156,4206.794922,4210.256348,3487.000000,4.000000,86.000000,,,,0.000000,4.000000,4.000000,4.000000,4.000000,4.000000,4.000000,4.000000,4.000000,4.000000,4.000000,4.000000,4.000000,4.000000,4.000000,100.000000,,,,,,,,,,,,,,,,
1644853660.465123,158.000000,0.000000,4204.487305,4222.820313,4218.846191,4212.692383,4216.410156,4217.692383,4213.589844,4221.794922,4215.769043,4219.871582,4223.333496,4206.666504,4202.563965,4205.769043,3738.000000,4.000000,86.000000,,,,0.000000,4.000000,4.000000,4.000000,4.000000,4.000000,4.000000,4.000000,4.000000,4.000000,4.000000,4.000000,4.000000,4.000000,4.000000,100.000000,,,,,,,,,,,,,,,,
1644853660.469063,159.000000,0.000000,4213.974121,4224.487305,4217.179688,4209.871582,4215.000000,4218.846191,4216.153809,4224.743652,4213.846191,4217.179688,4225.384766,4212.692383,4197.307617,4204.487305,3110.000000,4.000000,86.000000,,,,0.000000,4.000000,4.000000,4.000000,4.000000,4.000000,4.000000,4.000000,4.000000,4.000000,4.000000,4.000000,4.000000,4.000000,4.000000,100.000000,,,,,,,,,,,,,,,,
1644853660.473003,160.000000,0.000000,4221.794922,4222.820313,4215.128418,4202.692383,4216.025879,4219.871582,4215.769043,4226.410156,4214.102539,4218.461426,4223.077148,4216.922852,4194.230957,4207.692383,3395.000000,4.000000,86.000000,,,,0.000000,4.000000,4.000000,4.000000,4.000000,4.000000,4.000000,4.000000,4.000000,4.000000,4.000000,4.000000,4.000000,4.000000,4.000000,100.000000,,,,,,,,,,,,,,,,
1644853660.476943,161.000000,0.000000,4223.589844,4219.871582,4214.743652,4196.025879,4220.769043,4220.384766,4214.102539,4226.282227,4215.641113,4222.563965,4219.102539,4218.846191,4194.615234,4211.922852,3487.000000,4.000000,86.000000,,,,0.000000,4.000000,4.000000,4.000000,4.000000,4.000000,4.000000,4.000000,4.000000,4.000000,4.000000,4.000000,4.000000,4.000000,4.000000,100.000000,,,,,,,,,,,,,,,,
1644853660.480883,162.000000,0.000000,4219.230957,4218.461426,4216.666504,4196.025879,4226.025879,4219.743652,4214.230957,4225.512695,4217.948730,4226.666504,4217.307617,4219.102539,4197.820313,4213.333496,3738.000000,4.000000,86.000000,,,,0.000000,4.000000,4.000000,4.000000,4.000000,4.000000,4.000000,4.000000,4.000000,4.000000,4.000000,4.000000,4.000000,4.000000,4.000000,100.000000,,,,,,,,,,,,,,,,
1644853660.484824,163.000000,0.000000,4212.179688,4219.615234,4219.230957,4205.128418,4226.538574,4218.333496,4216.538574,4225.512695,4220.384766,4227.820313,4219.871582,4218.461426,4202.179688,4211.538574,3110.000000,4.000000,86.000000,,,,0.000000,4.000000,4.000000,4.000000,4.000000,4.000000,4.000000,4.000000,4.000000,4.000000,4.000000,4.000000,4.000000,4.000000,4.000000,100.000000,,,,,,,,,,,,,,,,
1644853660.488764,164.000000,0.000000,4205.769043,4221.922852,4219.615234,4219.230957,4220.769043,4217.692383,4218.461426,4226.282227,4222.692383,4225.512695,4225.769043,4216.282227,4206.153809,4209.871582,3395.000000,4.000000,86.000000,,,,0.000000,4.000000,4.000000,4.000000,4.000000,4.000000,4.000000,4.000000,4.000000,4.000000,4.000000,4.000000,4.000000,4.000000,4.000000,100.000000,,,,,,,,,,,,,,,,
1644853660.492704,165.000000,0.000000,4201.538574,4223.205078,4217.307617,4230.512695,4212.179688,4218.589844,4218.077148,4226.922852,4224.102539,4221.410156,4230.128418,4212.051270,4208.461426,4212.051270,3487.000000,4.000000,86.000000,,,,0.000000,4.000000,4.000000,4.000000,4.000000,4.000000,4.000000,4.000000,4.000000,4.000000,4.000000,4.000000,4.000000,4.000000,4.000000,100.000000,,,,,,,,,,,,,,,,
1644853660.496744,166.000000,0.000000,4200.256348,4222.820313,4214.102539,4232.307617,4207.179688,4220.769043,4216.153809,4226.794922,4224.102539,4217.820313,4227.948730,4205.769043,4208.205078,4218.077148,3738.000000,4.000000,86.000000,,,,0.000000,4.000000,4.000000,4.000000,4.000000,4.000000,4.000000,4.000000,4.000000,4.000000,4.000000,4.000000,4.000000,4.000000,4.000000,100.000000,,,,,,,,,,,,,,,,
1644853660.500684,167.000000,0.000000,4202.692383,4221.025879,4212.436035,4223.974121,4209.615234,4222.692383,4214.871582,4225.641113,4222.692383,4217.051270,4218.846191,4199.358887,4204.743652,4223.333496,3110.000000,4.000000,86.000000,,,,0.000000,4.000000,4.000000,4.000000,4.000000,4.000000,4.000000,4.000000,4.000000,4.000000,4.000000,4.000000,4.000000,4.000000,4.000000,100.000000,,,,,,,,,,,,,,,,
1644853660.504624,168.000000,0.000000,4208.333496,4218.846191,4212.692383,4211.025879,4218.846191,4223.461426,4215.000000,4223.974121,4220.384766,4219.230957,4207.563965,4195.128418,4198.974121,4222.820313,3395.000000,4.000000,86.000000,,,,0.000000,4.000000,4.000000,4.000000,4.000000,4.000000,4.000000,4.000000,4.000000,4.000000,4.000000,4.000000,4.000000,4.000000,4.000000,100.000000,,,,,,,,,,,,,,,,
1644853660.508564,169.000000,0.000000,4215.256348,4217.307617,4213.205078,4200.641113,4229.615234,4222.948730,4214.871582,4222.692383,4218.717773,4223.461426,4200.512695,4193.717773,4193.077148,4216.025879,3487.000000,4.000000,86.000000,,,,0.000000,4.000000,4.000000,4.000000,4.000000,4.000000,4.000000,4.000000,4.000000,4.000000,4.000000,4.000000,4.000000,4.000000,4.000000,100.000000,,,,,,,,,,,,,,,,
1644853660.512504,170.000000,0.000000,4220.897461,4216.922852,4212.051270,4197.692383,4236.282227,4221.666504,4214.230957,4222.563965,4218.589844,4227.436035,4199.743652,4194.487305,4188.974121,4207.051270,3738.000000,4.000000,86.000000,,,,0.000000,4.000000,4.000000,4.000000,4.000000,4.000000,4.000000,4.000000,4.000000,4.000000,4.000000,4.000000,4.000000,4.000000,4.000000,100.000000,,,,,,,,,,,,,,,,
1644853660.516444,171.000000,0.000000,4222.820313,4217.307617,4209.487305,4201.666504,4236.410156,4220.000000,4214.230957,4223.846191,4219.487305,4229.102539,4202.179688,4195.641113,4187.820313,4201.410156,3110.000000,4.000000,86.000000,,,,0.000000,4.000000,4.000000,4.000000,4.000000,4.000000,4.000000,4.000000,4.000000,4.000000,4.000000,4.000000,4.000000,4.000000,4.000000,100.000000,,,,,,,,,,,,,,,,
1644853660.520384,172.000000,0.000000,4220.512695,4217.692383,4207.179688,4207.436035,4231.922852,4218.333496,4215.897461,4225.128418,4219.615234,4227.051270,4203.589844,4196.153809,4189.230957,4200.769043,3395.000000,4.000000,86.000000,,,,0.000000,4.000000,4.000000,4.000000,4.000000,4.000000,4.000000,4.000000,4.000000,4.000000,4.000000,4.000000,4.000000,4.000000,4.000000,100.000000,,,,,,,,,,,,,,,,
1644853660.524324,173.000000,0.000000,4216.025879,4219.230957,4207.563965,4209.230957,4226.282227,4217.563965,4217.820313,4224.871582,4217.948730,4222.820313,4203.589844,4196.153809,4192.820313,4203.205078,3487.000000,4.000000,86.000000,,,,0.000000,4.000000,4.000000,4.000000,4.000000,4.000000,4.000000,4.000000,4.000000,4.000000,4.000000,4.000000,4.000000,4.000000,4.000000,100.000000,,,,,,,,,,,,,,,,
1644853660.528265,174.000000,0.000000,4212.179688,4223.333496,4210.641113,4205.128418,4222.820313,4218.717773,4217.820313,4223.333496,4216.153809,4219.487305,4205.128418,4196.153809,4198.205078,4205.641113,3738.000000,4.000000,86.000000,1,1,0,0.000000,4.000000,4.000000,4.000000,4.000000,4.000000,4.000000,4.000000,4.000000,4.000000,4.000000,4.000000,4.000000,4.000000,4.000000,100.000000,,,,,,,,,,,,,,,,
1644853660.532205,175.000000,0.000000,4210.512695,4229.230957,4214.102539,4198.846191,4222.051270,4221.538574,4216.025879,4222.563965,4216.794922,4219.230957,4210.641113,4195.769043,4204.615234,4207.307617,3110.000000,4.000000,86.000000,,,,0.000000,4.000000,4.000000,4.000000,4.000000,4.000000,4.000000,4.000000,4.000000,4.000000,4.000000,4.000000,4.000000,4.000000,4.000000,100.000000,,,,,,,,,,,,,,,,
1644853660.536145,176.000000,0.000000,4209.615234,4233.205078,4215.512695,4196.410156,4221.922852,4224.358887,4214.615234,4225.128418,4220.256348,4221.666504,4219.102539,4193.846191,4210.512695,4210.000000,3395.000000,4.000000,86.000000,,,,0.000000,4.000000,4.000000,4.000000,4.000000,4.000000,4.000000,4.000000,4.000000,4.000000,4.000000,4.000000,4.000000,4.000000,4.000000,100.000000,,,,,,,,,,,,,,,,
1644853660.540085,177.000000,0.000000,4206.282227,4231.025879,4213.717773,4200.769043,4219.358887,4224.871582,4215.512695,4230.384766,4223.461426,4224.487305,4225.641113,4189.871582,4213.974121,4215.000000,3487.000000,4.000000,86.000000,,,,0.000000,4.000000,4.000000,4.000000,4.000000,4.000000,4.000000,4.000000,4.000000,4.000000,4.000000,4.000000,4.000000,4.000000,4.000000,100.000000,,,,,,,,,,,,,,,,
1644853660.544025,178.000000,0.000000,4199.230957,4223.205078,4210.000000,4209.358887,4213.846191,4222.436035,4217.436035,4234.487305,4223.205078,4226.153809,4225.384766,4185.512695,4213.717773,4220.128418,3738.000000,4.000000,86.000000,,,,0.000000,4.000000,4.000000,4.000000,4.000000,4.000000,4.000000,4.000000,4.000000,4.000000,4.000000,4.000000,4.000000,4.000000,4.000000,100.000000,,,,,,,,,,,,,,,,
1644853660.547965,179.000000,0.000000,4192.307617,4215.000000,4206.922852,4216.794922,4208.205078,4219.358887,4217.820313,4234.358887,4219.615234,4226.922852,4218.333496,4183.589844,4210.384766,4221.282227,3110.000000,4.000000,86.000000,,,,0.000000,4.000000,4.000000,4.000000,4.000000,4.000000,4.000000,4.000000,4.000000,4.000000,4.000000,4.000000,4.000000,4.000000,4.000000,100.000000,,,,,,,,,,,,,,,,
1644853660.551905,180.000000,0.000000,4191.794922,4212.948730,4205.897461,4219.615234,4207.307617,4218.589844,4216.153809,4230.000000,4215.897461,4228.333496,4209.358887,4185.641113,4206.025879,4217.051270,3395.000000,4.000000,86.000000,,,,0.000000,4.000000,4.000000,4.000000,4.000000,4.000000,4.000000,4.000000,4.000000,4.000000,4.000000,4.000000,4.000000,4.000000,4.000000,100.000000,,,,,,,,,,,,,,,,
1644853660.555945,181.000000,0.000000,4201.025879,4218.846191,4207.692383,4218.589844,4213.974121,4221.794922,4214.743652,4225.384766,4215.256348,4231.025879,4204.358887,4191.025879,4203.589844,4210.641113,3487.000000,4.000000,86.000000,,,,0.000000,4.000000,4.000000,4.000000,4.000000,4.000000,4.000000,4.000000,4.000000,4.000000,4.000000,4.000000,4.000000,4.000000,4.000000,100.000000,,,,,,,,,,,,,,,,
1644853660.559885,182.000000,0.000000,4215.769043,4228.589844,4211.153809,4216.666504,4226.666504,4227.563965,4216.153809,4224.358887,4218.205078,4233.077148,4206.410156,4197.051270,4204.871582,4207.948730,3738.000000,4.000000,86.000000,,,,0.000000,4.000000,4.000000,4.000000,4.000000,4.000000,4.000000,4.000000,4.000000,4.000000,4.000000,4.000000,4.000000,4.000000,4.000000,100.000000,,,,,,,,,,,,,,,,
1644853660.563825,183.000000,0.000000,4227.051270,4235.384766,4214.615234,4216.025879,4239.743652,4232.179688,4219.102539,4227.436035,4222.051270,4231.666504,4212.820313,4201.025879,4209.871582,4211.922852,3110.000000,4.000000,86.000000,,,,0.000000,4.000000,4.000000,4.000000,4.000000,4.000000,4.000000,4.000000,4.000000,4.000000,4.000000,4.000000,4.000000,4.000000,4.000000,100.000000,,,,,,,,,,,,,,,,
1644853660.567766,184.000000,0.000000,4227.948730,4235.256348,4216.153809,4216.410156,4247.179688,4232.436035,4220.384766,4231.282227,4223.846191,4226.410156,4217.820313,4201.538574,4216.922852,4220.256348,3395.000000,4.000000,86.000000,,,,0.000000,4.000000,4.000000,4.000000,4.000000,4.000000,4.000000,4.000000,4.000000,4.000000,4.000000,4.000000,4.000000,4.000000,4.000000,100.000000,,,,,,,,,,,,,,,,
1644853660.571806,185.000000,0.000000,4219.358887,4229.230957,4215.384766,4215.897461,4245.897461,4227.563965,4218.333496,4232.307617,4222.820313,4220.897461,4217.179688,4198.974121,4222.692383,4226.153809,3487.000000,4.000000,86.000000,,,,0.000000,4.000000,4.000000,4.000000,4.000000,4.000000,4.000000,4.000000,4.000000,4.000000,4.000000,4.000000,4.000000,4.000000,4.000000,100.000000,,,,,,,,,,,,,,,,
1644853660.575746,186.000000,0.000000,4208.589844,4222.179688,4213.461426,4213.846191,4237.179688,4220.641113,4215.000000,4230.128418,4220.641113,4220.000000,4211.922852,4196.025879,4224.102539,4224.230957,3738.000000,4.000000,86.000000,,,,0.000000,4.000000,4.000000,4.000000,4.000000,4.000000,4.000000,4.000000,4.000000,4.000000,4.000000,4.000000,4.000000,4.000000,4.000000,100.000000,,,,,,,,,,,,,,,,
1644853660.579686,187.000000,0.000000,4202.563965,4218.846191,4212.051270,4211.538574,4225.897461,4215.384766,4213.333496,4226.922852,4219.615234,4226.025879,4206.666504,4195.769043,4219.743652,4213.846191,3110.000000,4.000000,86.000000,,,,0.000000,4.000000,4.000000,4.000000,4.000000,4.000000,4.000000,4.000000,4.000000,4.000000,4.000000,4.000000,4.000000,4.000000,4.000000,100.000000,,,,,,,,,,,,,,,,
1644853660.583626,188.000000,0.000000,4203.205078,4221.025879,4212.051270,4210.897461,4218.205078,4213.846191,4213.974121,4225.128418,4220.769043,4236.922852,4205.897461,4199.743652,4211.922852,4200.897461,3395.000000,4.000000,86.000000,,,,0.000000,4.000000,4.000000,4.000000,4.000000,4.000000,4.000000,4.000000,4.000000,4.000000,4.000000,4.000000,4.000000,4.000000,4.000000,100.000000,,,,,,,,,,,,,,,,
1644853660.587566,189.000000,0.000000,4208.205078,4226.922852,4213.333496,4213.461426,4217.692383,4215.512695,4214.743652,4226.025879,4222.948730,4246.922852,4210.641113,4206.538574,4205.512695,4194.358887,3487.000000,4.000000,86.000000,,,,0.000000,4.000000,4.000000,4.000000,4.000000,4.000000,4.000000,4.000000,4.000000,4.000000,4.000000,4.000000,4.000000,4.000000,4.000000,100.000000,,,,,,,,,,,,,,,,
1644853660.591506,190.000000,0.000000,4214.102539,4232.692383,4215.256348,4217.820313,4223.461426,4218.589844,4214.230957,4229.102539,4224.743652,4250.769043,4217.563965,4212.820313,4204.871582,4200.256348,3738.000000,4.000000,86.000000,,,,0.000000,4.000000,4.000000,4.000000,4.000000,4.000000,4.000000,4.000000,4.000000,4.000000,4.000000,4.000000,4.000000,4.000000,4.000000,100.000000,,,,,,,,,,,,,,,,
1644853660.595446,191.000000,0.000000,4218.846191,4235.384766,4216.922852,4221.153809,4230.512695,4221.153809,4214.230957,4232.948730,4225.384766,4247.436035,4222.179688,4215.512695,4210.384766,4216.153809,3110.000000,4.000000,86.000000,,,,0.000000,4.000000,4.000000,4.000000,4.000000,4.000000,4.000000,4.000000,4.000000,4.000000,4.000000,4.000000,4.000000,4.000000,4.000000,100.000000,,,,,,,,,,,,,,,,
1644853660.599386,192.000000,0.000000,4221.538574,4234.358887,4218.205078,4221.025879,4232.179688,4222.436035,4216.666504,4236.153809,4225.256348,4240.384766,4222.692383,4213.974121,4217.948730,4231.922852,3395.000000,4.000000,86.000000,,,,0.000000,4.000000,4.000000,4.000000,4.000000,4.000000,4.000000,4.000000,4.000000,4.000000,4.000000,4.000000,4.000000,4.000000,4.000000,100.000000,,,,,,,,,,,,,,,,
1644853660.603326,193.000000,0.000000,4222.051270,4231.922852,4219.871582,4217.692383,4225.641113,4222.563965,4221.025879,4237.692383,4225.000000,4234.615234,4220.512695,4210.128418,4222.692383,4237.051270,3487.000000,4.000000,86.000000,,,,0.000000,4.000000,4.000000,4.000000,4.000000,4.000000,4.000000,4.000000,4.000000,4.000000,4.000000,4.000000,4.000000,4.000000,4.000000,100.000000,,,,,,,,,,,,,,,,
1644853660.607266,194.000000,0.000000,4221.025879,4230.256348,4221.794922,4213.974121,4213.846191,4222.051270,4224.230957,4237.051270,4224.743652,4232.948730,4218.461426,4206.666504,4222.051270,4228.589844,3738.000000,4.000000,86.000000,,,,0.000000,4.000000,4.000000,4.000000,4.000000,4.000000,4.000000,4.000000,4.000000,4.000000,4.000000,4.000000,4.000000,4.000000,4.000000,100.000000,,,,,,,,,,,,,,,,
1644853660.611207,195.000000,0.000000,4219.615234,4229.871582,4224.102539,4213.077148,4203.589844,4221.282227,4224.230957,4234.358887,4223.589844,4233.461426,4218.205078,4204.487305,4217.692383,4213.846191,3110.000000,4.000000,86.000000,,,,0.000000,4.000000,4.000000,4.000000,4.000000,4.000000,4.000000,4.000000,4.000000,4.000000,4.000000,4.000000,4.000000,4.000000,4.000000,100.000000,,,,,,,,,,,,,,,,
1644853660.615147,196.000000,0.000000,4218.974121,4230.384766,4226.538574,4216.794922,4201.025879,4221.282227,4222.051270,4230.769043,4221.025879,4232.307617,4219.102539,4203.589844,4213.077148,4204.743652,3395.000000,4.000000,86.000000,,,,0.000000,4.000000,4.000000,4.000000,4.000000,4.000000,4.000000,4.000000,4.000000,4.000000,4.000000,4.000000,4.000000,4.000000,4.000000,100.000000,,,,,,,,,,,,,,,,
1644853660.619087,197.000000,0.000000,4220.000000,4231.153809,4228.461426,4224.358887,4208.333496,4222.948730,4221.153809,4228.077148,4217.692383,4227.692383,4220.000000,4202.948730,4211.410156,4207.820313,3487.000000,4.000000,86.000000,,,,0.000000,4.000000,4.000000,4.000000,4.000000,4.000000,4.000000,4.000000,4.000000,4.000000,4.000000,4.000000,4.000000,4.000000,4.000000,100.000000,,,,,,,,,,,,,,,,
1644853660.623027,198.000000,0.000000,4222.820313,4232.051270,4228.974121,4232.563965,4222.563965,4226.666504,4223.077148,4227.563965,4215.384766,4222.436035,4218.589844,4202.436035,4212.563965,4219.102539,3738.000000,4.000000,86.000000,,,,0.000000,4.000000,4.000000,4.000000,4.000000,4.000000,4.000000,4.000000,4.000000,4.000000,4.000000,4.000000,4.000000,4.000000,4.000000,100.000000,,,,,,,,,,,,,,,,
1644853660.626967,199.000000,0.000000,4226.282227,4233.333496,4227.436035,4237.051270,4236.666504,4230.769043,4225.897461,4228.974121,4216.153809,4221.153809,4214.102539,4202.307617,4213.077148,4227.820313,3110.000000,4.000000,86.000000,,,,0.000000,4.000000,4.000000,4.000000,4.000000,4.000000,4.000000,4.000000,4.000000,4.000000,4.000000,4.000000,4.000000,4.000000,4.000000,100.000000,,,,,,,,,,,,,,,,
1644853660.630907,200.000000,0.000000,4227.307617,4234.743652,4224.871582,4235.128418,4244.230957,4233.461426,4226.410156,4231.025879,4219.871582,4226.025879,4207.436035,4203.333496,4210.128418,4226.538574,3395.000000,4.000000,86.000000,,,,0.000000,4.000000,4.000000,4.000000,4.000000,4.000000,4.000000,4.000000,4.000000,4.000000,4.000000,4.000000,4.000000,4.000000,4.000000,100.000000,,,,,,,,,,,,,,,,
1644853660.634847,201.000000,0.000000,4223.589844,4235.641113,4223.974121,4227.563965,4242.436035,4233.461426,4224.102539,4232.692383,4224.358887,4234.871582,4200.769043,4206.410156,4204.871582,4217.307617,3487.000000,4.000000,86.000000,,,,0.000000,4.000000,4.000000,4.000000,4.000000,4.000000,4.000000,4.000000,4.000000,4.000000,4.000000,4.000000,4.000000,4.000000,4.000000,100.000000,,,,,,,,,,,,,,,,
1644853660.638787,202.000000,0.000000,4216.282227,4235.256348,4226.538574,4219.615234,4234.102539,4231.538574,4221.794922,4233.717773,4227.307617,4243.077148,4197.179688,4211.410156,4201.922852,4209.230957,3738.000000,4.000000,86.000000,,,,0.000000,4.000000,4.000000,4.000000,4.000000,4.000000,4.000000,4.000000,4.000000,4.000000,4.000000,4.000000,4.000000,4.000000,4.000000,100.000000,,,,,,,,,,,,,,,,
1644853660.642827,203.000000,0.000000,4210.641113,4233.717773,4231.794922,4216.538574,4225.897461,4229.615234,4221.666504,4234.487305,4227.948730,4246.922852,4198.717773,4216.794922,4204.487305,4210.128418,3110.000000,4.000000,86.000000,,,,0.000000,4.000000,4.000000,4.000000,4.000000,4.000000,4.000000,4.000000,4.000000,4.000000,4.000000,4.000000,4.000000,4.000000,4.000000,100.000000,,,,,,,,,,,,,,,,
1644853660.646767,204.000000,0.000000,4212.436035,4232.051270,4236.025879,4219.743652,4223.589844,4229.102539,4222.948730,4234.230957,4227.563965,4245.769043,4205.384766,4220.128418,4211.538574,4218.846191,3395.000000,4.000000,86.000000,,,,0.000000,4.000000,4.000000,4.000000,4.000000,4.000000,4.000000,4.000000,4.000000,4.000000,4.000000,4.000000,4.000000,4.000000,4.000000,100.000000,,,,,,,,,,,,,,,,
1644853660.650708,205.000000,0.000000,4221.922852,4232.307617,4235.641113,4224.487305,4227.436035,4230.128418,4222.563965,4232.307617,4227.436035,4241.666504,4215.000000,4219.230957,4218.717773,4227.692383,3487.000000,4.000000,86.000000,,,,0.000000,4.000000,4.000000,4.000000,4.000000,4.000000,4.000000,4.000000,4.000000,4.000000,4.000000,4.000000,4.000000,4.000000,4.000000,100.000000,,,,,,,,,,,,,,,,
1644853660.654648,206.000000,0.000000,4233.461426,4234.743652,4230.000000,4223.205078,4232.307617,4230.641113,4219.487305,4228.461426,4227.436035,4237.179688,4224.102539,4214.358887,4222.051270,4229.102539,3738.000000,4.000000,86.000000,,,,0.000000,4.000000,4.000000,4.000000,4.000000,4.000000,4.000000,4.000000,4.000000,4.000000,4.000000,4.000000,4.000000,4.000000,4.000000,100.000000,,,,,,,,,,,,,,,,
1644853660.658588,207.000000,0.000000,4239.615234,4238.205078,4222.436035,4211.922852,4232.692383,4228.846191,4215.769043,4224.358887,4226.410156,4233.974121,4229.102539,4207.692383,4221.538574,4222.307617,3110.000000,4.000000,86.000000,,,,0.000000,4.000000,4.000000,4.000000,4.000000,4.000000,4.000000,4.000000,4.000000,4.000000,4.000000,4.000000,4.000000,4.000000,4.000000,100.000000,,,,,,,,,,,,,,,,
1644853660.662528,208.000000,0.000000,4237.307617,4241.025879,4217.692383,4195.000000,4228.205078,4225.512695,4214.230957,4221.922852,4224.102539,4232.051270,4229.358887,4203.205078,4220.641113,4212.948730,3395.000000,4.000000,86.000000,,,,0.000000,4.000000,4.000000,4.000000,4.000000,4.000000,4.000000,4.000000,4.000000,4.000000,4.000000,4.000000,4.000000,4.000000,4.000000,100.000000,,,,,,,,,,,,,,,,
1644853660.666468,209.000000,0.000000,4230.128418,4242.179688,4218.589844,4183.205078,4224.102539,4223.461426,4215.897461,4222.820313,4222.179688,4231.153809,4226.922852,4203.974121,4222.307617,4208.205078,3487.000000,4.000000,86.000000,,,,0.000000,4.000000,4.000000,4.000000,4.000000,4.000000,4.000000,4.000000,4.000000,4.000000,4.000000,4.000000,4.000000,4.000000,4.000000,100.000000,,,,,,,,,,,,,,,,
1644853660.670408,210.000000,0.000000,4223.974121,4241.922852,4224.102539,4185.512695,4225.000000,4224.743652,4219.230957,4226.410156,4222.179688,4231.282227,4225.000000,4210.128418,4225.897461,4211.922852,3738.000000,4.000000,86.000000,2,1,0,0.000000,4.000000,4.000000,4.000000,4.000000,4.000000,4.000000,4.000000,4.000000,4.000000,4.000000,4.000000,4.000000,4.000000,4.000000,100.000000,,,,,,,,,,,,,,,,
1644853660.674348,211.000000,0.000000,4221.922852,4240.512695,4229.743652,4202.563965,4230.256348,4227.948730,4222.563965,4230.256348,4223.974121,4232.563965,4224.743652,4218.333496,4228.589844,4221.282227,3110.000000,4.000000,86.000000,,,,0.000000,4.000000,4.000000,4.000000,4.000000,4.000000,4.000000,4.000000,4.000000,4.000000,4.000000,4.000000,4.000000,4.000000,4.000000,100.000000,,,,,,,,,,,,,,,,
1644853660.678288,212.000000,0.000000,4222.692383,4238.717773,4231.922852,4224.871582,4235.256348,4229.743652,4224.871582,4232.051270,4225.641113,4235.769043,4225.769043,4223.846191,4228.077148,4229.102539,3395.000000,4.000000,86.000000,,,,0.000000,4.000000,4.000000,4.000000,4.000000,4.000000,4.000000,4.000000,4.000000,4.000000,4.000000,4.000000,4.000000,4.000000,4.000000,100.000000,,,,,,,,,,,,,,,,
1644853660.682228,213.000000,0.000000,4222.563965,4237.307617,4230.384766,4240.128418,4235.641113,4227.692383,4225.512695,4231.282227,4225.256348,4240.769043,4227.307617,4223.717773,4225.512695,4229.102539,3487.000000,4.000000,86.000000,,,,0.000000,4.000000,4.000000,4.000000,4.000000,4.000000,4.000000,4.000000,4.000000,4.000000,4.000000,4.000000,4.000000,4.000000,4.000000,100.000000,,,,,,,,,,,,,,,,
1644853660.686168,214.000000,0.000000,4219.358887,4236.410156,4226.794922,4240.769043,4231.922852,4222.820313,4224.487305,4228.589844,4223.077148,4246.282227,4229.230957,4219.230957,4224.615234,4221.025879,3738.000000,4.000000,86.000000,,,,0.000000,4.000000,4.000000,4.000000,4.000000,4.000000,4.000000,4.000000,4.000000,4.000000,4.000000,4.000000,4.000000,4.000000,4.000000,100.000000,,,,,,,,,,,,,,,,
1644853660.690109,215.000000,0.000000,4213.589844,4235.769043,4223.846191,4228.589844,4227.307617,4218.589844,4222.051270,4226.153809,4221.282227,4249.230957,4230.641113,4213.846191,4227.307617,4210.897461,3110.000000,4.000000,86.000000,,,,0.000000,4.000000,4.000000,4.000000,4.000000,4.000000,4.000000,4.000000,4.000000,4.000000,4.000000,4.000000,4.000000,4.000000,4.000000,100.000000,,,,,,,,,,,,,,,,
1644853660.694049,216.000000,0.000000,4208.461426,4234.358887,4222.307617,4212.820313,4225.384766,4218.077148,4220.000000,4226.282227,4221.410156,4246.794922,4229.615234,4210.512695,4232.051270,4206.410156,3395.000000,4.000000,86.000000,,,,0.000000,4.000000,4.000000,4.000000,4.000000,4.000000,4.000000,4.000000,4.000000,4.000000,4.000000,4.000000,4.000000,4.000000,4.000000,100.000000,,,,,,,,,,,,,,,,
1644853660.697989,217.000000,0.000000,4207.692383,4231.282227,4222.051270,4203.974121,4226.794922,4221.538574,4220.512695,4229.358887,4223.461426,4239.230957,4224.615234,4209.743652,4234.358887,4210.897461,3487.000000,4.000000,86.000000,,,,0.000000,4.000000,4.000000,4.000000,4.000000,4.000000,4.000000,4.000000,4.000000,4.000000,4.000000,4.000000,4.000000,4.000000,4.000000,100.000000,,,,,,,,,,,,,,,,
1644853660.701929,218.000000,0.000000,4213.461426,4227.820313,4221.794922,4206.794922,4229.358887,4226.794922,4224.102539,4233.846191,4225.641113,4230.512695,4217.436035,4209.871582,4232.436035,4221.410156,3738.000000,4.000000,86.000000,,,,0.000000,4.000000,4.000000,4.000000,4.000000,4.000000,4.000000,4.000000,4.000000,4.000000,4.000000,4.000000,4.000000,4.000000,4.000000,100.000000,,,,,,,,,,,,,,,,
1644853660.705869,219.000000,0.000000,4224.358887,4226.538574,4221.153809,4218.077148,4231.410156,4231.153809,4227.563965,4237.307617,4226.666504,4227.051270,4212.563965,4210.128418,4228.077148,4231.153809,3110.000000,4.000000,86.000000,,,,0.000000,4.000000,4.000000,4.000000,4.000000,4.000000,4.000000,4.000000,4.000000,4.000000,4.000000,4.000000,4.000000,4.000000,4.000000,100.000000,,,,,,,,,,,,,,,,
1644853660.709809,220.000000,0.000000,4234.615234,4228.717773,4220.769043,4228.974121,4232.820313,4233.205078,4227.692383,4238.077148,4226.282227,4231.666504,4214.487305,4210.641113,4226.025879,4234.230957,3395.000000,4.000000,86.000000,,,,0.000000,4.000000,4.000000,4.000000,4.000000,4.000000,4.000000,4.000000,4.000000,4.000000,4.000000,4.000000,4.000000,4.000000,4.000000,100.000000,,,,,,,,,,,,,,,,
1644853660.713849,221.000000,0.000000,4238.205078,4232.051270,4221.538574,4230.128418,4233.461426,4232.820313,4224.358887,4236.666504,4224.743652,4241.922852,4222.307617,4212.307617,4228.205078,4229.743652,3487.000000,4.000000,86.000000,,,,0.000000,4.000000,4.000000,4.000000,4.000000,4.000000,4.000000,4.000000,4.000000,4.000000,4.000000,4.000000,4.000000,4.000000,4.000000,100.000000,,,,,,,,,,,,,,,,
1644853660.717789,222.000000,0.000000,4232.436035,4232.948730,4223.333496,4218.461426,4232.563965,4230.897461,4220.769043,4234.743652,4222.436035,4251.025879,4230.000000,4214.615234,4232.051270,4221.538574,3738.000000,4.000000,86.000000,,,,0.000000,4.000000,4.000000,4.000000,4.000000,4.000000,4.000000,4.000000,4.000000,4.000000,4.000000,4.000000,4.000000,4.000000,4.000000,100.000000,,,,,,,,,,,,,,,,
1644853660.721729,223.000000,0.000000,4220.128418,4230.000000,4224.487305,4199.615234,4228.974121,4228.205078,4219.871582,4234.102539,4220.256348,4253.461426,4232.307617,4215.641113,4232.179688,4215.128418,3110.000000,4.000000,86.000000,,,,0.000000,4.000000,4.000000,4.000000,4.000000,4.000000,4.000000,4.000000,4.000000,4.000000,4.000000,4.000000,4.000000,4.000000,4.000000,100.000000,,,,,,,,,,,,,,,,
1644853660.725669,224.000000,0.000000,4207.563965,4226.153809,4223.077148,4183.846191,4223.077148,4225.512695,4220.897461,4234.102539,4219.102539,4248.589844,4228.077148,4213.974121,4226.282227,4213.589844,3395.000000,4.000000,86.000000,,,,0.000000,4.000000,4.000000,4.000000,4.000000,4.000000,4.000000,4.000000,4.000000,4.000000,4.000000,4.000000,4.000000,4.000000,4.000000,100.000000,,,,,,,,,,,,,,,,
1644853660.729610,225.000000,0.000000,4200.512695,4224.487305,4219.487305,4179.358887,4216.794922,4222.692383,4220.384766,4233.461426,4219.487305,4240.769043,4220.512695,4209.743652,4217.692383,4215.769043,3487.000000,4.000000,86.000000,,,,0.000000,4.000000,4.000000,4.000000,4.000000,4.000000,4.000000,4.000000,4.000000,4.000000,4.000000,4.000000,4.000000,4.000000,4.000000,100.000000,,,,,,,,,,,,,,,,
1644853660.733550,226.000000,0.000000,4199.871582,4225.384766,4215.769043,4186.282227,4212.179688,4219.615234,4217.436035,4231.153809,4220.512695,4235.256348,4212.051270,4205.000000,4210.769043,4217.179688,3738.000000,4.000000,86.000000,,,,0.000000,4.000000,4.000000,4.000000,4.000000,4.000000,4.000000,4.000000,4.000000,4.000000,4.000000,4.000000,4.000000,4.000000,4.000000,100.000000,,,,,,,,,,,,,,,,
1644853660.737490,227.000000,0.000000,4201.794922,4225.897461,4214.230957,4197.692383,4210.769043,4217.179688,4214.230957,4227.820313,4220.641113,4233.205078,4203.589844,4201.410156,4206.794922,4213.846191,3110.000000,4.000000,86.000000,,,,0.000000,4.000000,4.000000,4.000000,4.000000,4.000000,4.000000,4.000000,4.000000,4.000000,4.000000,4.000000,4.000000,4.000000,4.000000,100.000000,,,,,,,,,,,,,,,,
1644853660.741430,228.000000,0.000000,4202.051270,4223.846191,4215.641113,4205.000000,4212.948730,4216.538574,4213.846191,4225.512695,4219.487305,4232.436035,4196.666504,4199.871582,4204.230957,4206.025879,3395.000000,4.000000,86.000000,,,,0.000000,4.000000,4.000000,4.000000,4.000000,4.000000,4.000000,4.000000,4.000000,4.000000,4.000000,4.000000,4.000000,4.000000,4.000000,100.000000,,,,,,,,,,,,,,,,
1644853660.745370,229.000000,0.000000,4200.128418,4219.743652,4218.205078,4204.871582,4217.307617,4217.563965,4216.282227,4225.384766,4217.948730,4230.641113,4195.000000,4200.256348,4202.436035,4198.077148,3487.000000,4.000000,86.000000,,,,0.000000,4.000000,4.000000,4.000000,4.000000,4.000000,4.000000,4.000000,4.000000,4.000000,4.000000,4.000000,4.000000,4.000000,4.000000,100.000000,,,,,,,,,,,,,,,,
1644853660.749310,230.000000,0.000000,4198.461426,4215.897461,4219.487305,4200.256348,4221.282227,4218.846191,4218.205078,4227.051270,4217.692383,4228.461426,4201.282227,4201.666504,4202.948730,4195.000000,3738.000000,4.000000,86.000000,,,,0.000000,4.000000,4.000000,4.000000,4.000000,4.000000,4.000000,4.000000,4.000000,4.000000,4.000000,4.000000,4.000000,4.000000,4.000000,100.000000,,,,,,,,,,,,,,,,
1644853660.753250,231.000000,0.000000,4200.384766,4214.358887,4218.461426,4196.922852,4222.563965,4218.717773,4217.563965,4228.974121,4219.487305,4228.717773,4211.922852,4202.820313,4207.563965,4198.974121,3110.000000,4.000000,86.000000,,,,0.000000,4.000000,4.000000,4.000000,4.000000,4.000000,4.000000,4.000000,4.000000,4.000000,4.000000,4.000000,4.000000,4.000000,4.000000,100.000000,,,,,,,,,,,,,,,,
1644853660.757190,232.000000,0.000000,4205.769043,4215.000000,4216.025879,4197.948730,4220.256348,4216.922852,4215.256348,4230.000000,4223.077148,4232.692383,4219.102539,4202.563965,4215.000000,4208.077148,3395.000000,4.000000,86.000000,,,,0.000000,4.000000,4.000000,4.000000,4.000000,4.000000,4.000000,4.000000,4.000000,4.000000,4.000000,4.000000,4.000000,4.000000,4.000000,100.000000,,,,,,,,,,,,,,,,
1644853660.761130,233.000000,0.000000,4212.051270,4216.153809,4214.743652,4200.769043,4215.897461,4215.000000,4213.717773,4229.871582,4226.538574,4238.461426,4217.820313,4200.897461,4221.794922,4217.820313,3487.000000,4.000000,86.000000,,,,0.000000,4.000000,4.000000,4.000000,4.000000,4.000000,4.000000,4.000000,4.000000,4.000000,4.000000,4.000000,4.000000,4.000000,4.000000,100.000000,,,,,,,,,,,,,,,,
1644853660.765070,234.000000,0.000000,4215.897461,4216.538574,4216.282227,4200.256348,4211.922852,4214.102539,4213.589844,4228.974121,4228.205078,4242.436035,4210.128418,4199.102539,4225.128418,4223.974121,3738.000000,4.000000,86.000000,,,,0.000000,4.000000,4.000000,4.000000,4.000000,4.000000,4.000000,4.000000,4.000000,4.000000,4.000000,4.000000,4.000000,4.000000,4.000000,100.000000,,,,,,,,,,,,,,,,
1644853660.769011,235.000000,0.000000,4216.538574,4216.538574,4220.128418,4194.358887,4211.153809,4214.871582,4213.846191,4227.692383,4227.436035,4242.436035,4203.846191,4198.846191,4225.000000,4225.000000,3110.000000,4.000000,86.000000,,,,0.000000,4.000000,4.000000,4.000000,4.000000,4.000000,4.000000,4.000000,4.000000,4.000000,4.000000,4.000000,4.000000,4.000000,4.000000,100.000000,,,,,,,,,,,,,,,,
1644853660.773051,236.000000,0.000000,4216.025879,4218.077148,4223.974121,4185.897461,4214.487305,4216.410156,4213.333496,4227.051270,4225.512695,4239.230957,4204.871582,4200.897461,4223.333496,4222.179688,3395.000000,4.000000,86.000000,,,,0.000000,4.000000,4.000000,4.000000,4.000000,4.000000,4.000000,4.000000,4.000000,4.000000,4.000000,4.000000,4.000000,4.000000,4.000000,100.000000,,,,,,,,,,,,,,,,
1644853660.776991,237.000000,0.000000,4216.282227,4222.436035,4226.025879,4179.743652,4220.128418,4217.179688,4212.563965,4227.307617,4223.333496,4236.282227,4212.563965,4204.487305,4223.077148,4218.717773,3487.000000,4.000000,86.000000,,,,0.000000,4.000000,4.000000,4.000000,4.000000,4.000000,4.000000,4.000000,4.000000,4.000000,4.000000,4.000000,4.000000,4.000000,4.000000,100.000000,,,,,,,,,,,,,,,,
1644853660.780931,238.000000,0.000000,4217.692383,4228.846191,4225.897461,4178.333496,4224.615234,4216.666504,4213.205078,4228.333496,4221.410156,4235.897461,4220.128418,4208.846191,4224.871582,4217.692383,3738.000000,4.000000,86.000000,,,,0.000000,4.000000,4.000000,4.000000,4.000000,4.000000,4.000000,4.000000,4.000000,4.000000,4.000000,4.000000,4.000000,4.000000,4.000000,100.000000,,,,,,,,,,,,,,,,
1644853660.784871,239.000000,0.000000,4218.333496,4233.461426,4224.871582,4179.871582,4225.512695,4215.512695,4214.743652,4229.743652,4220.512695,4238.205078,4221.282227,4212.692383,4227.692383,4220.512695,3110.000000,4.000000,86.000000,,,,0.000000,4.000000,4.000000,4.000000,4.000000,4.000000,4.000000,4.000000,4.000000,4.000000,4.000000,4.000000,4.000000,4.000000,4.000000,100.000000,,,,,,,,,,,,,,,,
1644853660.788811,240.000000,0.000000,4216.282227,4233.077148,4224.358887,4182.692383,4222.692383,4215.641113,4215.769043,4231.282227,4220.897461,4240.512695,4216.410156,4215.128418,4228.974121,4225.769043,3395.000000,4.000000,86.000000,,,,0.000000,4.000000,4.000000,4.000000,4.000000,4.000000,4.000000,4.000000,4.000000,4.000000,4.000000,4.000000,4.000000,4.000000,4.000000,100.000000,,,,,,,,,,,,,,,,
1644853660.792751,241.000000,0.000000,4211.282227,4226.538574,4224.743652,4188.077148,4218.846191,4217.948730,4215.897461,4232.820313,4222.948730,4240.256348,4212.436035,4214.871582,4227.436035,4231.153809,3487.000000,4.000000,86.000000,,,,0.000000,4.000000,4.000000,4.000000,4.000000,4.000000,4.000000,4.000000,4.000000,4.000000,4.000000,4.000000,4.000000,4.000000,4.000000,100.000000,,,,,,,,,,,,,,,,
1644853660.796691,242.000000,0.000000,4205.641113,4217.563965,4225.384766,4198.077148,4216.666504,4221.922852,4216.666504,4234.487305,4226.025879,4237.307617,4215.897461,4211.666504,4223.717773,4235.000000,3738.000000,4.000000,86.000000,,,,0.000000,4.000000,4.000000,4.000000,4.000000,4.000000,4.000000,4.000000,4.000000,4.000000,4.000000,4.000000,4.000000,4.000000,4.000000,100.000000,,,,,,,,,,,,,,,,
1644853660.800631,243.000000,0.000000,4202.563965,4211.666504,4225.512695,4210.512695,4217.948730,4224.871582,4219.487305,4236.025879,4228.717773,4234.102539,4225.512695,4206.794922,4219.615234,4236.794922,3110.000000,4.000000,86.000000,,,,0.000000,4.000000,4.000000,4.000000,4.000000,4.000000,4.000000,4.000000,4.000000,4.000000,4.000000,4.000000,4.000000,4.000000,4.000000,100.000000,,,,,,,,,,,,,,,,
1644853660.804571,244.000000,0.000000,4204.615234,4212.563965,4224.871582,4218.589844,4222.307617,4225.000000,4222.820313,4236.794922,4229.743652,4233.205078,4232.307617,4202.692383,4216.666504,4235.512695,3395.000000,4.000000,86.000000,,,,0.000000,4.000000,4.000000,4.000000,4.000000,4.000000,4.000000,4.000000,4.000000,4.000000,4.000000,4.000000,4.000000,4.000000,4.000000,100.000000,,,,,,,,,,,,,,,,
1644853660.808512,245.000000,0.000000,4211.922852,4219.871582,4224.230957,4215.641113,4227.051270,4222.307617,4223.717773,4236.025879,4228.717773,4235.769043,4228.846191,4201.410156,4214.871582,4230.512695,3487.000000,4.000000,86.000000,,,,0.000000,4.000000,4.000000,4.000000,4.000000,4.000000,4.000000,4.000000,4.000000,4.000000,4.000000,4.000000,4.000000,4.000000,4.000000,100.000000,,,,,,,,,,,,,,,,
1644853660.812452,246.000000,0.000000,4221.666504,4229.358887,4224.230957,4202.692383,4228.974121,4219.358887,4221.025879,4233.333496,4226.666504,4240.128418,4216.538574,4202.820313,4213.461426,4222.307617,3738.000000,4.000000,86.000000,,,,0.000000,4.000000,4.000000,4.000000,4.000000,4.000000,4.000000,4.000000,4.000000,4.000000,4.000000,4.000000,4.000000,4.000000,4.000000,100.000000,,,,,,,,,,,,,,,,
1644853660.816392,247.000000,0.000000,4230.256348,4236.025879,4225.384766,4187.948730,4227.307617,4218.589844,4217.436035,4229.487305,4224.230957,4242.820313,4204.230957,4205.000000,4212.051270,4214.230957,3110.000000,4.000000,86.000000,,,,0.000000,4.000000,4.000000,4.000000,4.000000,4.000000,4.000000,4.000000,4.000000,4.000000,4.000000,4.000000,4.000000,4.000000,4.000000,100.000000,,,,,,,,,,,,,,,,
1644853660.820332,248.000000,0.000000,4234.743652,4236.666504,4227.179688,4181.282227,4223.846191,4220.256348,4215.897461,4226.025879,4222.179688,4240.769043,4199.615234,4206.153809,4211.922852,4210.384766,3395.000000,4.000000,86.000000,,,,0.000000,4.000000,4.000000,4.000000,4.000000,4.000000,4.000000,4.000000,4.000000,4.000000,4.000000,4.000000,4.000000,4.000000,4.000000,100.000000,,,,,,,,,,,,,,,,
1644853660.824272,249.000000,0.000000,4233.717773,4231.538574,4227.820313,4186.153809,4221.538574,4222.436035,4216.794922,4223.974121,4220.769043,4234.102539,4201.410156,4205.256348,4214.487305,4212.179688,3487.000000,4.000000,86.000000,3,1,0,0.000000,4.000000,4.000000,4.000000,4.000000,4.000000,4.000000,4.000000,4.000000,4.000000,4.000000,4.000000,4.000000,4.000000,4.000000,100.000000,,,,,,,,,,,,,,,,
1644853660.828212,250.000000,0.000000,4227.179688,4224.102539,4225.769043,4197.692383,4221.410156,4223.205078,4217.563965,4223.717773,4220.769043,4226.666504,4202.179688,4201.282227,4219.487305,4217.563965,3738.000000,4.000000,86.000000,4,1,0,0.000000,4.000000,4.000000,4.000000,4.000000,4.000000,4.000000,4.000000,4.000000,4.000000,4.000000,4.000000,4.000000,4.000000,4.000000,100.000000,,,,,,,,,,,,,,,,
1644853660.832152,251.000000,0.000000,4217.051270,4218.589844,4221.282227,4206.666504,4221.922852,4222.436035,4216.282227,4224.615234,4222.179688,4222.563965,4197.307617,4195.128418,4223.589844,4223.461426,3110.000000,4.000000,86.000000,,,,0.000000,4.000000,4.000000,4.000000,4.000000,4.000000,4.000000,4.000000,4.000000,4.000000,4.000000,4.000000,4.000000,4.000000,4.000000,100.000000,,,,,,,,,,,,,,,,
1644853660.835992,252.000000,0.000000,4206.922852,4217.820313,4217.436035,4208.077148,4220.769043,4221.282227,4213.717773,4226.025879,4223.974121,4223.333496,4190.641113,4189.743652,4223.077148,4227.820313,3395.000000,4.000000,86.000000,,,,0.000000,4.000000,4.000000,4.000000,4.000000,4.000000,4.000000,4.000000,4.000000,4.000000,4.000000,4.000000,4.000000,4.000000,4.000000,100.000000,,,,,,,,,,,,,,,,
1644853660.839932,253.000000,0.000000,4201.538574,4221.538574,4217.563965,4203.205078,4217.179688,4221.025879,4212.692383,4226.922852,4224.743652,4226.282227,4191.282227,4189.102539,4217.307617,4229.358887,3487.000000,4.000000,86.000000,,,,0.000000,4.000000,4.000000,4.000000,4.000000,4.000000,4.000000,4.000000,4.000000,4.000000,4.000000,4.000000,4.000000,4.000000,4.000000,100.000000,,,,,,,,,,,,,,,,
1644853660.843873,254.000000,0.000000,4204.102539,4226.794922,4221.922852,4197.692383,4212.820313,4221.922852,4213.974121,4226.922852,4224.230957,4227.948730,4202.563965,4195.641113,4209.871582,4227.820313,3738.000000,4.000000,86.000000,,,,0.000000,4.000000,4.000000,4.000000,4.000000,4.000000,4.000000,4.000000,4.000000,4.000000,4.000000,4.000000,4.000000,4.000000,4.000000,100.000000,,,,,,,,,,,,,,,,
1644853660.847813,255.000000,0.000000,4214.615234,4230.769043,4227.179688,4195.256348,4211.666504,4223.461426,4215.384766,4226.410156,4224.230957,4228.717773,4218.846191,4207.179688,4205.384766,4224.358887,113.000000,4.000000,86.000000,,,,0.000000,4.000000,4.000000,4.000000,4.000000,4.000000,4.000000,4.000000,4.000000,4.000000,4.000000,4.000000,4.000000,4.000000,4.000000,100.000000,,,,,,,,,,,,,,,,
1644853660.851753,0.000000,0.000000,4228.589844,4232.563965,4229.487305,4196.410156,4216.025879,4224.743652,4215.128418,4226.410156,4225.769043,4231.410156,4229.358887,4218.077148,4206.922852,4222.179688,3134.000000,4.000000,86.000000,,,,0.000000,4.000000,4.000000,4.000000,4.000000,4.000000,4.000000,4.000000,4.000000,4.000000,4.000000,4.000000,4.000000,4.000000,4.000000,100.000000,,,,,,,,,,,,,,,,
1644853660.855693,1.000000,0.000000,4238.333496,4232.563965,4227.563965,4198.846191,4224.871582,4225.000000,4213.974121,4227.820313,4227.948730,4238.333496,4229.102539,4222.179688,4213.461426,4223.974121,3340.000000,4.000000,86.000000,,,,0.000000,4.000000,4.000000,4.000000,4.000000,4.000000,4.000000,4.000000,4.000000,4.000000,4.000000,4.000000,4.000000,4.000000,4.000000,100.000000,,,,,,,,,,,,,,,,
1644853660.859633,2.000000,0.000000,4237.948730,4231.538574,4223.717773,4200.769043,4233.333496,4224.358887,4214.358887,4230.384766,4229.487305,4247.179688,4222.051270,4217.436035,4220.769043,4228.205078,3271.000000,4.000000,86.000000,,,,0.000000,4.000000,4.000000,4.000000,4.000000,4.000000,4.000000,4.000000,4.000000,4.000000,4.000000,4.000000,4.000000,4.000000,4.000000,100.000000,,,,,,,,,,,,,,,,
1644853660.863573,3.000000,0.000000,4228.205078,4229.358887,4220.897461,4202.436035,4237.051270,4223.461426,4217.563965,4232.948730,4229.230957,4252.820313,4215.384766,4207.307617,4223.717773,4229.615234,3520.000000,4.000000,86.000000,,,,0.000000,4.000000,4.000000,4.000000,4.000000,4.000000,4.000000,4.000000,4.000000,4.000000,4.000000,4.000000,4.000000,4.000000,4.000000,100.000000,,,,,,,,,,,,,,,,
1644853660.867513,4.000000,0.000000,4215.897461,4225.897461,4219.743652,4203.846191,4235.512695,4222.692383,4221.282227,4233.846191,4227.051270,4250.384766,4212.820313,4197.563965,4220.641113,4224.230957,3273.000000,4.000000,86.000000,,,,0.000000,4.000000,4.000000,4.000000,4.000000,4.000000,4.000000,4.000000,4.000000,4.000000,4.000000,4.000000,4.000000,4.000000,4.000000,100.000000,,,,,,,,,,,,,,,,
1644853660.871453,5.000000,0.000000,4208.846191,4222.563965,4218.717773,4203.846191,4231.922852,4221.922852,4222.307617,4232.179688,4223.461426,4240.384766,4211.794922,4193.333496,4214.743652,4214.102539,3407.000000,4.000000,86.000000,,,,0.000000,4.000000,4.000000,4.000000,4.000000,4.000000,4.000000,4.000000,4.000000,4.000000,4.000000,4.000000,4.000000,4.000000,4.000000,100.000000,,,,,,,,,,,,,,,,
1644853660.875393,6.000000,0.000000,4209.871582,4221.282227,4216.666504,4199.871582,4229.871582,4220.897461,4220.641113,4228.846191,4219.102539,4228.077148,4208.333496,4195.384766,4211.282227,4206.794922,2672.000000,4.000000,86.000000,,,,0.000000,4.000000,4.000000,4.000000,4.000000,4.000000,4.000000,4.000000,4.000000,4.000000,4.000000,4.000000,4.000000,4.000000,4.000000,100.000000,,,,,,,,,,,,,,,,
1644853660.879334,7.000000,0.000000,4214.230957,4222.179688,4213.846191,4191.922852,4229.358887,4219.102539,4218.589844,4225.384766,4215.256348,4220.000000,4202.820313,4200.256348,4212.563965,4207.820313,2773.000000,4.000000,86.000000,,,,0.000000,4.000000,4.000000,4.000000,4.000000,4.000000,4.000000,4.000000,4.000000,4.000000,4.000000,4.000000,4.000000,4.000000,4.000000,100.000000,,,,,,,,,,,,,,,,
1644853660.883274,8.000000,0.000000,4214.871582,4223.205078,4212.051270,4182.948730,4227.948730,4216.538574,4218.461426,4223.461426,4213.333496,4219.358887,4198.846191,4202.820313,4216.025879,4215.641113,3349.000000,4.000000,86.000000,,,,0.000000,4.000000,4.000000,4.000000,4.000000,4.000000,4.000000,4.000000,4.000000,4.000000,4.000000,4.000000,4.000000,4.000000,4.000000,100.000000,,,,,,,,,,,,,,,,
1644853660.887214,9.000000,0.000000,4208.846191,4222.179688,4212.179688,4177.948730,4223.717773,4215.000000,4220.256348,4223.589844,4213.846191,4224.615234,4200.512695,4201.410156,4216.538574,4223.333496,3538.000000,4.000000,86.000000,,,,0.000000,4.000000,4.000000,4.000000,4.000000,4.000000,4.000000,4.000000,4.000000,4.000000,4.000000,4.000000,4.000000,4.000000,4.000000,100.000000,,,,,,,,,,,,,,,,
1644853660.891154,10.000000,0.000000,4201.922852,4219.743652,4214.487305,4180.512695,4218.077148,4215.897461,4222.307617,4225.512695,4216.282227,4231.666504,4206.794922,4198.461426,4212.436035,4225.256348,3580.000000,4.000000,86.000000,,,,0.000000,4.000000,4.000000,4.000000,4.000000,4.000000,4.000000,4.000000,4.000000,4.000000,4.000000,4.000000,4.000000,4.000000,4.000000,100.000000,,,,,,,,,,,,,,,,
1644853660.895094,11.000000,0.000000,4202.179688,4218.333496,4217.692383,4190.256348,4215.384766,4219.487305,4223.589844,4228.717773,4219.743652,4237.051270,4213.974121,4198.077148,4206.922852,4221.922852,3097.000000,4.000000,86.000000,,,,0.000000,4.000000,4.000000,4.000000,4.000000,4.000000,4.000000,4.000000,4.000000,4.000000,4.000000,4.000000,4.000000,4.000000,4.000000,100.000000,,,,,,,,,,,,,,,,
1644853660.899034,12.000000,0.000000,4212.820313,4220.128418,4220.512695,4202.179688,4218.717773,4224.102539,4224.743652,4232.179688,4223.077148,4239.615234,4218.717773,4201.666504,4205.897461,4218.846191,3453.000000,4.000000,86.000000,,,,0.000000,4.000000,4.000000,4.000000,4.000000,4.000000,4.000000,4.000000,4.000000,4.000000,4.000000,4.000000,4.000000,4.000000,4.000000,100.000000,1.000000,91.666664,4.000000,4.000000,4.000000,4.000000,4.000000,4.000000,4.000000,4.000000,4.000000,4.000000,3.000000,4.000000,4.000000,4.000000
1644853660.903074,13.000000,0.000000,4228.077148,4224.358887,4221.794922,4208.974121,4227.051270,4227.307617,4225.384766,4234.615234,4226.410156,4240.384766,4221.538574,4206.922852,4213.205078,4220.384766,3487.000000,4.000000,86.000000,,,,0.000000,4.000000,4.000000,4.000000,4.000000,4.000000,4.000000,4.000000,4.000000,4.000000,4.000000,4.000000,4.000000,4.000000,4.000000,100.000000,,,,,,,,,,,,,,,,
1644853660.907014,14.000000,0.000000,4237.307617,4228.077148,4221.538574,4205.897461,4234.871582,4227.436035,4224.871582,4234.871582,4229.358887,4241.025879,4225.128418,4210.512695,4226.538574,4226.410156,3580.000000,4.000000,86.000000,,,,0.000000,4.000000,4.000000,4.000000,4.000000,4.000000,4.000000,4.000000,4.000000,4.000000,4.000000,4.000000,4.000000,4.000000,4.000000,100.000000,,,,,,,,,,,,,,,,
1644853660.910954,15.000000,0.000000,4233.846191,4228.589844,4220.641113,4194.358887,4236.666504,4225.000000,4222.692383,4233.077148,4231.282227,4241.666504,4230.000000,4211.025879,4239.230957,4232.563965,3097.000000,4.000000,86.000000,5,1,0,0.000000,4.000000,4.000000,4.000000,4.000000,4.000000,4.000000,4.000000,4.000000,4.000000,4.000000,4.000000,4.000000,4.000000,4.000000,100.000000,,,,,,,,,,,,,,,,
1644853660.914894,16.000000,0.000000,4220.000000,4226.410156,4220.512695,4181.922852,4231.538574,4221.922852,4220.256348,4230.384766,4231.666504,4241.282227,4233.077148,4210.128418,4244.615234,4234.615234,3453.000000,4.000000,86.000000,,,,0.000000,4.000000,4.000000,4.000000,4.000000,4.000000,4.000000,4.000000,4.000000,4.000000,4.000000,4.000000,4.000000,4.000000,4.000000,100.000000,,,,,,,,,,,,,,,,
1644853660.918834,17.000000,0.000000,4205.641113,4224.615234,4221.794922,4178.077148,4224.230957,4220.384766,4220.128418,4228.974121,4231.153809,4239.358887,4230.512695,4210.128418,4241.025879,4231.922852,3487.000000,4.000000,86.000000,,,,0.000000,4.000000,4.000000,4.000000,4.000000,4.000000,4.000000,4.000000,4.000000,4.000000,4.000000,4.000000,4.000000,4.000000,4.000000,100.000000,,,,,,,,,,,,,,,,
1644853660.922775,18.000000,0.000000,4200.641113,4226.282227,4223.333496,4186.922852,4220.512695,4221.282227,4222.820313,4230.000000,4231.025879,4237.563965,4222.307617,4211.794922,4232.948730,4227.820313,3580.000000,4.000000,86.000000,,,,0.000000,4.000000,4.000000,4.000000,4.000000,4.000000,4.000000,4.000000,4.000000,4.000000,4.000000,4.000000,4.000000,4.000000,4.000000,100.000000,,,,,,,,,,,,,,,,
1644853660.926715,19.000000,0.000000,4207.307617,4231.025879,4223.846191,4203.974121,4223.589844,4223.589844,4225.641113,4233.333496,4232.692383,4238.333496,4213.846191,4214.358887,4226.538574,4226.282227,3097.000000,4.000000,86.000000,,,,0.000000,4.000000,4.000000,4.000000,4.000000,4.000000,4.000000,4.000000,4.000000,4.000000,4.000000,4.000000,4.000000,4.000000,4.000000,100.000000,,,,,,,,,,,,,,,,
1644853660.930655,20.000000,0.000000,4219.230957,4234.743652,4222.692383,4219.487305,4230.769043,4225.000000,4225.384766,4236.922852,4235.641113,4242.307617,4211.410156,4216.153809,4225.384766,4227.948730,3453.000000,4.000000,86.000000,,,,0.000000,4.000000,4.000000,4.000000,4.000000,4.000000,4.000000,4.000000,4.000000,4.000000,4.000000,4.000000,4.000000,4.000000,4.000000,100.000000,,,,,,,,,,,,,,,,
1644853660.934595,21.000000,0.000000,4226.794922,4233.205078,4220.512695,4224.230957,4235.641113,4223.717773,4221.794922,4238.974121,4238.205078,4246.410156,4216.410156,4216.410156,4227.948730,4228.974121,3487.000000,4.000000,86.000000,,,,0.000000,4.000000,4.000000,4.000000,4.000000,4.000000,4.000000,4.000000,4.000000,4.000000,4.000000,4.000000,4.000000,4.000000,4.000000,100.000000,,,,,,,,,,,,,,,,
1644853660.938535,22.000000,0.000000,4225.000000,4225.128418,4218.333496,4216.922852,4233.974121,4219.871582,4218.077148,4238.974121,4238.205078,4246.410156,4223.846191,4214.743652,4229.102539,4224.487305,3580.000000,4.000000,86.000000,,,,0.000000,4.000000,4.000000,4.000000,4.000000,4.000000,4.000000,4.000000,4.000000,4.000000,4.000000,4.000000,4.000000,4.000000,4.000000,100.000000,,,,,,,,,,,,,,,,
1644853660.942475,23.000000,0.000000,4216.922852,4215.000000,4217.563965,4203.846191,4226.025879,4216.025879,4217.307617,4237.820313,4235.384766,4240.897461,4226.666504,4211.922852,4225.384766,4214.871582,3097.000000,4.000000,86.000000,,,,0.000000,4.000000,4.000000,4.000000,4.000000,4.000000,4.000000,4.000000,4.000000,4.000000,4.000000,4.000000,4.000000,4.000000,4.000000,100.000000,,,,,,,,,,,,,,,,
1644853660.946415,24.000000,0.000000,4209.871582,4209.230957,4217.820313,4194.615234,4217.436035,4214.358887,4218.846191,4235.769043,4230.769043,4233.846191,4222.563965,4208.717773,4218.461426,4205.769043,3453.000000,4.000000,86.000000,,,,0.000000,4.000000,4.000000,4.000000,4.000000,4.000000,4.000000,4.000000,4.000000,4.000000,4.000000,4.000000,4.000000,4.000000,4.000000,100.000000,,,,,,,,,,,,,,,,
1644853660.950355,25.000000,0.000000,4208.974121,4210.897461,4218.077148,4194.358887,4212.948730,4215.384766,4220.256348,4233.077148,4226.538574,4231.025879,4216.025879,4205.256348,4213.077148,4204.102539,3487.000000,4.000000,86.000000,,,,0.000000,4.000000,4.000000,4.000000,4.000000,4.000000,4.000000,4.000000,4.000000,4.000000,4.000000,4.000000,4.000000,4.000000,4.000000,100.000000,,,,,,,,,,,,,,,,
1644853660.954295,26.000000,0.000000,4212.179688,4216.794922,4216.666504,4200.384766,4213.461426,4217.307617,4220.128418,4229.487305,4223.589844,4233.974121,4212.820313,4200.769043,4212.179688,4210.897461,3580.000000,4.000000,86.000000,,,,0.000000,4.000000,4.000000,4.000000,4.000000,4.000000,4.000000,4.000000,4.000000,4.000000,4.000000,4.000000,4.000000,4.000000,4.000000,100.000000,,,,,,,,,,,,,,,,
1644853660.958236,27.000000,0.000000,4213.589844,4220.641113,4213.461426,4205.128418,4215.769043,4217.820313,4219.230957,4225.769043,4221.153809,4238.077148,4213.974121,4194.615234,4213.717773,4220.128418,3097.000000,4.000000,86.000000,,,,0.000000,4.000000,4.000000,4.000000,4.000000,4.000000,4.000000,4.000000,4.000000,4.000000,4.000000,4.000000,4.000000,4.000000,4.000000,100.000000,,,,,,,,,,,,,,,,
1644853660.962176,28.000000,0.000000,4209.358887,4218.717773,4209.358887,4204.358887,4216.410156,4216.282227,4218.589844,4223.077148,4217.948730,4236.410156,4215.128418,4187.948730,4213.589844,4223.077148,3453.000000,4.000000,86.000000,,,,0.000000,4.000000,4.000000,4.000000,4.000000,4.000000,4.000000,4.000000,4.000000,4.000000,4.000000,4.000000,4.000000,4.000000,4.000000,100.000000,,,,,,,,,,,,,,,,
1644853660.966116,29.000000,0.000000,4201.282227,4212.820313,4205.512695,4200.000000,4215.128418,4213.974121,4217.820313,4222.436035,4214.615234,4227.436035,4212.307617,4183.205078,4210.128418,4216.666504,3487.000000,4.000000,86.000000,,,,0.000000,4.000000,4.000000,4.000000,4.000000,4.000000,4.000000,4.000000,4.000000,4.000000,4.000000,4.000000,4.000000,4.000000,4.000000,100.000000,,,,,,,,,,,,,,,,
1644853660.970056,30.000000,0.000000,4195.641113,4208.205078,4202.820313,4197.436035,4214.358887,4212.948730,4216.410156,4223.589844,4213.974121,4216.666504,4205.512695,4183.077148,4206.025879,4206.282227,3580.000000,4.000000,86.000000,,,,0.000000,4.000000,4.000000,4.000000,4.000000,4.000000,4.000000,4.000000,4.000000,4.000000,4.000000,4.000000,4.000000,4.000000,4.000000,100.000000,,,,,,,,,,,,,,,,
1644853660.974096,31.000000,0.000000,4196.922852,4208.589844,4202.307617,4198.589844,4215.769043,4213.846191,4215.000000,4225.641113,4217.563965,4211.410156,4198.846191,4187.436035,4204.871582,4202.820313,3097.000000,4.000000,86.000000,,,,0.000000,4.000000,4.000000,4.000000,4.000000,4.000000,4.000000,4.000000,4.000000,4.000000,4.000000,4.000000,4.000000,4.000000,4.000000,100.000000,,,,,,,,,,,,,,,,
1644853660.978036,32.000000,0.000000,4204.871582,4213.333496,4204.487305,4200.897461,4218.333496,4215.128418,4215.512695,4227.692383,4223.717773,4214.615234,4195.769043,4194.615234,4206.666504,4212.436035,0.000000,4.000000,86.000000,,,,0.000000,4.000000,4.000000,4.000000,4.000000,4.000000,4.000000,4.000000,4.000000,4.000000,4.000000,4.000000,4.000000,4.000000,4.000000,100.000000,,,,,,,,,,,,,,,,
1644853660.981976,33.000000,0.000000,4213.461426,4218.205078,4207.820313,4200.769043,4219.358887,4215.256348,4218.461426,4228.974121,4228.077148,4222.692383,4196.794922,4201.666504,4209.487305,4230.256348,0.000000,4.000000,86.000000,,,,0.000000,4.000000,4.000000,4.000000,4.000000,4.000000,4.000000,4.000000,4.000000,4.000000,4.000000,4.000000,4.000000,4.000000,4.000000,100.000000,,,,,,,,,,,,,,,,
1644853660.985916,34.000000,0.000000,4216.538574,4219.615234,4210.000000,4197.436035,4217.563965,4213.846191,4221.410156,4228.717773,4227.436035,4229.487305,4200.000000,4206.025879,4211.538574,4243.589844,0.000000,4.000000,86.000000,,,,0.000000,4.000000,4.000000,4.000000,4.000000,4.000000,4.000000,4.000000,4.000000,4.000000,4.000000,4.000000,4.000000,4.000000,4.000000,100.000000,,,,,,,,,,,,,,,,
1644853660.989856,35.000000,0.000000,4211.794922,4216.922852,4209.487305,4192.948730,4214.102539,4211.282227,4221.025879,4226.538574,4222.307617,4230.897461,4203.077148,4206.538574,4212.820313,4242.051270,0.000000,4.000000,86.000000,,,,0.000000,4.000000,4.000000,4.000000,4.000000,4.000000,4.000000,4.000000,4.000000,4.000000,4.000000,4.000000,4.000000,4.000000,4.000000,100.000000,,,,,,,,,,,,,,,,
1644853660.993796,36.000000,0.000000,4202.948730,4212.563965,4206.922852,4189.743652,4211.666504,4208.461426,4217.051270,4222.820313,4215.769043,4226.922852,4205.000000,4203.205078,4214.487305,4225.769043,0.000000,4.000000,86.000000,,,,0.000000,4.000000,4.000000,4.000000,4.000000,4.000000,4.000000,4.000000,4.000000,4.000000,4.000000,4.000000,4.000000,4.000000,4.000000,100.000000,,,,,,,,,,,,,,,,
1644853660.997737,37.000000,0.000000,4196.666504,4208.461426,4204.230957,4188.846191,4211.666504,4205.769043,4212.692383,4218.974121,4210.641113,4220.512695,4204.871582,4197.692383,4215.769043,4205.897461,0.000000,4.000000,86.000000,,,,0.000000,4.000000,4.000000,4.000000,4.000000,4.000000,4.000000,4.000000,4.000000,4.000000,4.000000,4.000000,4.000000,4.000000,4.000000,100.000000,,,,,,,,,,,,,,,,
1644853661.001677,38.000000,0.000000,4197.179688,4205.384766,4202.563965,4189.743652,4213.717773,4203.077148,4210.641113,4215.769043,4207.820313,4215.128418,4202.436035,4191.282227,4215.000000,4195.000000,0.000000,4.000000,86.000000,,,,0.000000,4.000000,4.000000,4.000000,4.000000,4.000000,4.000000,4.000000,4.000000,4.000000,4.000000,4.000000,4.000000,4.000000,4.000000,100.000000,,,,,,,,,,,,,,,,
1644853661.005617,39.000000,0.000000,4203.333496,4202.948730,4202.051270,4191.153809,4215.384766,4200.512695,4211.025879,4212.948730,4206.410156,4213.077148,4198.461426,4185.384766,4211.410156,4197.948730,0.000000,4.000000,86.000000,,,,0.000000,4.000000,4.000000,4.000000,4.000000,4.000000,4.000000,4.000000,4.000000,4.000000,4.000000,4.000000,4.000000,4.000000,4.000000,100.000000,,,,,,,,,,,,,,,,
1644853661.009557,40.000000,0.000000,4210.512695,4201.410156,4201.794922,4191.025879,4215.256348,4199.102539,4211.410156,4210.769043,4206.025879,4215.000000,4194.743652,4180.769043,4206.538574,4209.102539,0.000000,4.000000,86.000000,,,,0.000000,4.000000,4.000000,4.000000,4.000000,4.000000,4.000000,4.000000,4.000000,4.000000,4.000000,4.000000,4.000000,4.000000,4.000000,100.000000,,,,,,,,,,,,,,,,
1644853661.013497,41.000000,0.000000,4213.974121,4201.794922,4201.794922,4187.820313,4213.205078,4200.256348,4210.769043,4210.128418,4206.153809,4218.974121,4192.563965,4179.487305,4203.846191,4218.974121,0.000000,4.000000,86.000000,,,,0.000000,4.000000,4.000000,4.000000,4.000000,4.000000,4.000000,4.000000,4.000000,4.000000,4.000000,4.000000,4.000000,4.000000,4.000000,100.000000,,,,,,,,,,,,,,,,
1644853661.017437,42.000000,0.000000,4212.436035,4204.871582,4202.307617,4181.922852,4211.025879,4203.974121,4211.025879,4212.436035,4207.179688,4222.436035,4192.179688,4182.563965,4205.000000,4220.897461,0.000000,4.000000,86.000000,,,,0.000000,4.000000,4.000000,4.000000,4.000000,4.000000,4.000000,4.000000,4.000000,4.000000,4.000000,4.000000,4.000000,4.000000,4.000000,100.000000,,,,,,,,,,,,,,,,
1644853661.021377,43.000000,0.000000,4207.179688,4209.230957,4203.717773,4177.307617,4210.512695,4208.205078,4213.333496,4217.179688,4209.358887,4223.846191,4193.461426,4189.871582,4209.102539,4214.871582,0.000000,4.000000,86.000000,,,,0.000000,4.000000,4.000000,4.000000,4.000000,4.000000,4.000000,4.000000,4.000000,4.000000,4.000000,4.000000,4.000000,4.000000,4.000000,100.000000,,,,,,,,,,,,,,,,
1644853661.025317,44.000000,0.000000,4201.410156,4212.692383,4205.384766,4178.333496,4212.563965,4210.641113,4216.538574,4221.538574,4212.563965,4223.205078,4196.153809,4198.077148,4212.692383,4205.512695,0.000000,4.000000,86.000000,,,,0.000000,4.000000,4.000000,4.000000,4.000000,4.000000,4.000000,4.000000,4.000000,4.000000,4.000000,4.000000,4.000000,4.000000,4.000000,100.000000,,,,,,,,,,,,,,,,
1644853661.029257,45.000000,0.000000,4197.436035,4212.820313,4205.769043,4186.282227,4215.897461,4210.512695,4217.051270,4222.692383,4215.641113,4221.025879,4198.717773,4202.563965,4212.692383,4198.077148,0.000000,4.000000,86.000000,,,,0.000000,4.000000,4.000000,4.000000,4.000000,4.000000,4.000000,4.000000,4.000000,4.000000,4.000000,4.000000,4.000000,4.000000,4.000000,100.000000,,,,,,,,,,,,,,,,
1644853661.033197,46.000000,0.000000,4195.641113,4209.743652,4203.589844,4196.922852,4218.589844,4208.974121,4213.589844,4219.743652,4216.794922,4217.436035,4199.743652,4200.512695,4208.333496,4195.769043,0.000000,4.000000,86.000000,,,,0.000000,4.000000,4.000000,4.000000,4.000000,4.000000,4.000000,4.000000,4.000000,4.000000,4.000000,4.000000,4.000000,4.000000,4.000000,100.000000,,,,,,,,,,,,,,,,
1644853661.037138,47.000000,0.000000,4195.256348,4206.410156,4200.000000,4202.948730,4219.358887,4208.077148,4209.102539,4215.512695,4214.487305,4212.436035,4198.589844,4192.820313,4202.692383,4198.717773,0.000000,4.000000,86.000000,,,,0.000000,4.000000,4.000000,4.000000,4.000000,4.000000,4.000000,4.000000,4.000000,4.000000,4.000000,4.000000,4.000000,4.000000,4.000000,100.000000,,,,,,,,,,,,,,,,
1644853661.041078,48.000000,0.000000,4195.256348,4206.666504,4197.563965,4199.743652,4218.205078,4209.102539,4207.563965,4213.846191,4209.743652,4207.436035,4195.897461,4184.102539,4200.000000,4204.871582,0.000000,4.000000,86.000000,,,,0.000000,4.000000,4.000000,4.000000,4.000000,4.000000,4.000000,4.000000,4.000000,4.000000,4.000000,4.000000,4.000000,4.000000,4.000000,100.000000,,,,,,,,,,,,,,,,
1644853661.045118,49.000000,0.000000,4195.641113,4211.666504,4197.692383,4188.974121,4217.436035,4211.282227,4210.256348,4216.282227,4206.025879,4205.512695,4194.230957,4179.743652,4202.820313,4211.410156,0.000000,4.000000,86.000000,,,,0.000000,4.000000,4.000000,4.000000,4.000000,4.000000,4.000000,4.000000,4.000000,4.000000,4.000000,4.000000,4.000000,4.000000,4.000000,100.000000,,,,,,,,,,,,,,,,
1644853661.049058,50.000000,0.000000,4197.179688,4218.717773,4199.743652,4177.948730,4218.333496,4212.692383,4213.974121,4220.641113,4206.153809,4208.717773,4196.153809,4182.563965,4209.487305,4215.512695,0.000000,4.000000,86.000000,,,,0.000000,4.000000,4.000000,4.000000,4.000000,4.000000,4.000000,4.000000,4.000000,4.000000,4.000000,4.000000,4.000000,4.000000,4.000000,100.000000,,,,,,,,,,,,,,,,
1644853661.052998,51.000000,0.000000,4200.512695,4222.820313,4201.538574,4174.487305,4220.384766,4211.794922,4215.512695,4223.205078,4210.000000,4215.641113,4202.179688,4191.025879,4215.512695,4216.282227,0.000000,4.000000,86.000000,,,,0.000000,4.000000,4.000000,4.000000,4.000000,4.000000,4.000000,4.000000,4.000000,4.000000,4.000000,4.000000,4.000000,4.000000,4.000000,100.000000,,,,,,,,,,,,,,,,
1644853661.056938,52.000000,0.000000,4205.256348,4221.025879,4202.563965,4181.922852,4221.538574,4209.230957,4214.615234,4222.436035,4214.743652,4222.436035,4210.000000,4200.128418,4217.563965,4215.256348,0.000000,4.000000,86.000000,,,,0.000000,4.000000,4.000000,4.000000,4.000000,4.000000,4.000000,4.000000,4.000000,4.000000,4.000000,4.000000,4.000000,4.000000,4.000000,100.000000,,,,,,,,,,,,,,,,
1644853661.060878,53.000000,0.000000,4210.384766,4215.641113,4203.846191,4195.128418,4221.282227,4207.436035,4214.230957,4220.256348,4217.307617,4225.641113,4215.128418,4204.358887,4216.794922,4215.769043,0.000000,4.000000,86.000000,,,,0.000000,4.000000,4.000000,4.000000,4.000000,4.000000,4.000000,4.000000,4.000000,4.000000,4.000000,4.000000,4.000000,4.000000,4.000000,100.000000,,,,,,,,,,,,,,,,
1644853661.064818,54.000000,0.000000,4214.615234,4212.179688,4206.666504,4205.128418,4221.922852,4208.717773,4215.897461,4219.743652,4216.922852,4225.384766,4213.461426,4202.179688,4216.794922,4219.871582,0.000000,4.000000,86.000000,,,,0.000000,4.000000,4.000000,4.000000,4.000000,4.000000,4.000000,4.000000,4.000000,4.000000,4.000000,4.000000,4.000000,4.000000,4.000000,100.000000,,,,,,,,,,,,,,,,
1644853661.068758,55.000000,0.000000,4216.922852,4214.358887,4210.641113,4206.410156,4225.384766,4213.205078,4217.563965,4221.922852,4215.256348,4225.000000,4205.000000,4196.666504,4220.128418,4225.512695,0.000000,4.000000,86.000000,,,,0.000000,4.000000,4.000000,4.000000,4.000000,4.000000,4.000000,4.000000,4.000000,4.000000,4.000000,4.000000,4.000000,4.000000,4.000000,100.000000,,,,,,,,,,,,,,,,
1644853661.072698,56.000000,0.000000,4215.769043,4220.384766,4213.461426,4202.051270,4230.641113,4218.205078,4217.179688,4225.000000,4215.128418,4227.820313,4194.358887,4192.563965,4225.256348,4227.563965,0.000000,4.000000,86.000000,,,,0.000000,4.000000,4.000000,4.000000,4.000000,4.000000,4.000000,4.000000,4.000000,4.000000,4.000000,4.000000,4.000000,4.000000,4.000000,100.000000,,,,,,,,,,,,,,,,
1644853661.076639,57.000000,0.000000,4210.384766,4224.230957,4212.563965,4199.487305,4233.461426,4220.641113,4214.743652,4226.538574,4217.307617,4232.820313,4187.820313,4192.179688,4227.692383,4222.179688,0.000000,4.000000,86.000000,,,,0.000000,4.000000,4.000000,4.000000,4.000000,4.000000,4.000000,4.000000,4.000000,4.000000,4.000000,4.000000,4.000000,4.000000,4.000000,100.000000,,,,,,,,,,,,,,,,
1644853661.080579,58.000000,0.000000,4202.563965,4221.794922,4208.205078,4201.922852,4230.512695,4219.487305,4213.461426,4225.512695,4220.897461,4235.256348,4190.256348,4194.615234,4224.487305,4211.666504,0.000000,4.000000,86.000000,,,,0.000000,4.000000,4.000000,4.000000,4.000000,4.000000,4.000000,4.000000,4.000000,4.000000,4.000000,4.000000,4.000000,4.000000,4.000000,100.000000,,,,,,,,,,,,,,,,
1644853661.084519,59.000000,0.000000,4197.051270,4215.384766,4203.846191,4204.615234,4223.461426,4216.666504,4215.000000,4223.461426,4223.846191,4231.282227,4201.410156,4197.179688,4217.051270,4203.717773,0.000000,4.000000,86.000000,,,,0.000000,4.000000,4.000000,4.000000,4.000000,4.000000,4.000000,4.000000,4.000000,4.000000,4.000000,4.000000,4.000000,4.000000,4.000000,100.000000,,,,,,,,,,,,,,,,
1644853661.088459,60.000000,0.000000,4197.948730,4211.410156,4203.077148,4200.384766,4217.563965,4215.384766,4218.333496,4223.205078,4224.871582,4221.922852,4215.256348,4197.948730,4210.897461,4204.743652,0.000000,4.000000,86.000000,,,,0.000000,4.000000,4.000000,4.000000,4.000000,4.000000,4.000000,4.000000,4.000000,4.000000,4.000000,4.000000,4.000000,4.000000,4.000000,100.000000,,,,,,,,,,,,,,,,
1644853661.092399,61.000000,0.000000,4204.871582,4214.102539,4206.666504,4188.333496,4216.922852,4216.410156,4221.410156,4225.897461,4224.743652,4212.436035,4223.205078,4197.563965,4210.384766,4213.589844,0.000000,4.000000,86.000000,,,,0.000000,4.000000,4.000000,4.000000,4.000000,4.000000,4.000000,4.000000,4.000000,4.000000,4.000000,4.000000,4.000000,4.000000,4.000000,100.000000,,,,,,,,,,,,,,,,
1644853661.096339,62.000000,0.000000,4212.563965,4221.282227,4211.666504,4176.153809,4220.641113,4218.205078,4223.974121,4230.512695,4225.000000,4208.846191,4220.128418,4197.307617,4215.512695,4222.692383,0.000000,4.000000,86.000000,,,,0.000000,4.000000,4.000000,4.000000,4.000000,4.000000,4.000000,4.000000,4.000000,4.000000,4.000000,4.000000,4.000000,4.000000,4.000000,100.000000,,,,,,,,,,,,,,,,
1644853661.100179,63.000000,0.000000,4215.128418,4226.666504,4214.102539,4173.589844,4224.358887,4218.717773,4226.025879,4234.615234,4226.153809,4213.077148,4208.461426,4197.948730,4221.538574,4224.358887,0.000000,4.000000,86.000000,,,,0.000000,4.000000,4.000000,4.000000,4.000000,4.000000,4.000000,4.000000,4.000000,4.000000,4.000000,4.000000,4.000000,4.000000,4.000000,100.000000,,,,,,,,,,,,,,,,
1644853661.104119,64.000000,0.000000,4210.641113,4225.897461,4212.307617,4183.333496,4224.358887,4218.077148,4227.179688,4236.666504,4227.820313,4221.922852,4196.666504,4198.974121,4224.358887,4217.563965,0.000000,4.000000,86.000000,,,,0.000000,4.000000,4.000000,4.000000,4.000000,4.000000,4.000000,4.000000,4.000000,4.000000,4.000000,4.000000,4.000000,4.000000,4.000000,100.000000,,,,,,,,,,,,,,,,
1644853661.108059,65.000000,0.000000,4202.436035,4219.487305,4207.820313,4198.077148,4221.410156,4217.436035,4226.153809,4235.641113,4228.589844,4229.487305,4192.436035,4198.717773,4222.436035,4208.333496,0.000000,4.000000,86.000000,,,,0.000000,4.000000,4.000000,4.000000,4.000000,4.000000,4.000000,4.000000,4.000000,4.000000,4.000000,4.000000,4.000000,4.000000,4.000000,100.000000,,,,,,,,,,,,,,,,
1644853661.112000,66.000000,0.000000,4195.641113,4211.794922,4203.717773,4206.282227,4219.358887,4217.307617,4222.563965,4232.179688,4227.051270,4231.025879,4196.922852,4196.153809,4217.307617,4203.717773,0.000000,4.000000,86.000000,,,,0.000000,4.000000,4.000000,4.000000,4.000000,4.000000,4.000000,4.000000,4.000000,4.000000,4.000000,4.000000,4.000000,4.000000,4.000000,100.000000,,,,,,,,,,,,,,,,
1644853661.115940,67.000000,0.000000,4193.205078,4207.307617,4202.563965,4202.051270,4221.025879,4217.436035,4218.846191,4227.820313,4222.820313,4226.538574,4203.974121,4191.410156,4210.512695,4205.641113,0.000000,4.000000,86.000000,,,,0.000000,4.000000,4.000000,4.000000,4.000000,4.000000,4.000000,4.000000,4.000000,4.000000,4.000000,4.000000,4.000000,4.000000,4.000000,100.000000,,,,,,,,,,,,,,,,
1644853661.119880,68.000000,0.000000,4195.384766,4207.436035,4204.487305,4189.871582,4225.641113,4217.179688,4217.820313,4224.487305,4217.307617,4219.743652,4205.769043,4186.538574,4202.307617,4210.256348,0.000000,4.000000,86.000000,,,,0.000000,4.000000,4.000000,4.000000,4.000000,4.000000,4.000000,4.000000,4.000000,4.000000,4.000000,4.000000,4.000000,4.000000,4.000000,100.000000,,,,,,,,,,,,,,,,
1644853661.123820,69.000000,0.000000,4199.615234,4210.897461,4207.563965,4180.641113,4230.128418,4216.922852,4219.487305,4222.948730,4212.179688,4214.230957,4199.487305,4183.589844,4193.333496,4212.692383,0.000000,4.000000,86.000000,,,,0.000000,4.000000,4.000000,4.000000,4.000000,4.000000,4.000000,4.000000,4.000000,4.000000,4.000000,4.000000,4.000000,4.000000,4.000000,100.000000,,,,,,,,,,,,,,,,
1644853661.127760,70.000000,0.000000,4203.077148,4215.128418,4209.615234,4181.794922,4231.666504,4216.666504,4221.410156,4222.563965,4208.846191,4210.128418,4189.871582,4183.205078,4186.153809,4211.025879,0.000000,4.000000,86.000000,,,,0.000000,4.000000,4.000000,4.000000,4.000000,4.000000,4.000000,4.000000,4.000000,4.000000,4.000000,4.000000,4.000000,4.000000,4.000000,100.000000,,,,,,,,,,,,,,,,
1644853661.131700,71.000000,0.000000,4204.487305,4218.717773,4210.000000,4191.666504,4229.743652,4216.538574,4221.282227,4221.922852,4207.820313,4205.512695,4184.358887,4184.615234,4184.102539,4207.692383,0.000000,4.000000,86.000000,,,,0.000000,4.000000,4.000000,4.000000,4.000000,4.000000,4.000000,4.000000,4.000000,4.000000,4.000000,4.000000,4.000000,4.000000,4.000000,100.000000,,,,,,,,,,,,,,,,
1644853661.135640,72.000000,0.000000,4204.230957,4220.256348,4209.871582,4201.922852,4226.282227,4216.666504,4220.000000,4220.769043,4208.461426,4198.974121,4186.410156,4186.666504,4188.077148,4206.922852,0.000000,4.000000,86.000000,,,,0.000000,4.000000,4.000000,4.000000,4.000000,4.000000,4.000000,4.000000,4.000000,4.000000,4.000000,4.000000,4.000000,4.000000,4.000000,100.000000,,,,,,,,,,,,,,,,
1644853661.139580,73.000000,0.000000,4203.205078,4219.102539,4210.512695,4204.743652,4223.589844,4217.051270,4220.000000,4220.256348,4208.974121,4192.436035,4192.820313,4188.333496,4194.871582,4209.487305,0.000000,4.000000,86.000000,,,,0.000000,4.000000,4.000000,4.000000,4.000000,4.000000,4.000000,4.000000,4.000000,4.000000,4.000000,4.000000,4.000000,4.000000,4.000000,100.000000,,,,,,,,,,,,,,,,
1644853661.143520,74.000000,0.000000,4201.538574,4215.512695,4211.153809,4199.358887,4221.922852,4218.077148,4221.794922,4221.282227,4208.717773,4190.256348,4196.794922,4189.358887,4199.358887,4212.179688,0.000000,4.000000,86.000000,,,,0.000000,4.000000,4.000000,4.000000,4.000000,4.000000,4.000000,4.000000,4.000000,4.000000,4.000000,4.000000,4.000000,4.000000,4.000000,100.000000,,,,,,,,,,,,,,,,
1644853661.147461,75.000000,0.000000,4199.615234,4211.025879,4210.128418,4191.922852,4219.487305,4218.846191,4222.948730,4222.820313,4207.948730,4194.615234,4194.871582,4189.487305,4198.589844,4211.153809,0.000000,4.000000,86.000000,,,,0.000000,4.000000,4.000000,4.000000,4.000000,4.000000,4.000000,4.000000,4.000000,4.000000,4.000000,4.000000,4.000000,4.000000,4.000000,100.000000,,,,,,,,,,,,,,,,
1644853661.151401,76.000000,0.000000,4198.461426,4207.948730,4206.794922,4189.487305,4215.128418,4218.205078,4221.410156,4223.846191,4208.461426,4203.589844,4189.230957,4188.846191,4194.615234,4207.436035,0.000000,4.000000,86.000000,,,,0.000000,4.000000,4.000000,4.000000,4.000000,4.000000,4.000000,4.000000,4.000000,4.000000,4.000000,4.000000,4.000000,4.000000,4.000000,100.000000,,,,,,,,,,,,,,,,
1644853661.155341,77.000000,0.000000,4200.384766,4208.205078,4202.820313,4194.615234,4210.641113,4216.153809,4218.461426,4223.717773,4210.897461,4212.436035,4185.641113,4188.333496,4192.820313,4205.769043,0.000000,4.000000,86.000000,,,,0.000000,4.000000,4.000000,4.000000,4.000000,4.000000,4.000000,4.000000,4.000000,4.000000,4.000000,4.000000,4.000000,4.000000,4.000000,100.000000,,,,,,,,,,,,,,,,
1644853661.159281,78.000000,0.000000,4205.897461,4211.794922,4201.153809,4204.102539,4209.743652,4213.974121,4217.307617,4223.205078,4214.358887,4217.820313,4188.846191,4188.717773,4197.563965,4210.384766,0.000000,4.000000,86.000000,,,,0.000000,4.000000,4.000000,4.000000,4.000000,4.000000,4.000000,4.000000,4.000000,4.000000,4.000000,4.000000,4.000000,4.000000,4.000000,100.000000,,,,,,,,,,,,,,,,
1644853661.163221,79.000000,0.000000,4213.205078,4216.794922,4203.333496,4211.538574,4214.615234,4213.077148,4219.102539,4223.589844,4217.307617,4220.000000,4199.230957,4190.769043,4209.871582,4220.128418,0.000000,4.000000,86.000000,,,,0.000000,4.000000,4.000000,4.000000,4.000000,4.000000,4.000000,4.000000,4.000000,4.000000,4.000000,4.000000,4.000000,4.000000,4.000000,100.000000,,,,,,,,,,,,,,,,
1644853661.167161,80.000000,0.000000,4217.948730,4220.641113,4207.563965,4212.436035,4223.589844,4214.358887,4222.179688,4225.384766,4219.487305,4222.436035,4212.179688,4194.230957,4226.153809,4228.974121,0.000000,4.000000,86.000000,,,,0.000000,4.000000,4.000000,4.000000,4.000000,4.000000,4.000000,4.000000,4.000000,4.000000,4.000000,4.000000,4.000000,4.000000,4.000000,100.000000,,,,,,,,,,,,,,,,
1644853661.171201,81.000000,0.000000,4216.538574,4221.794922,4210.384766,4206.922852,4231.922852,4217.051270,4223.589844,4228.846191,4221.794922,4227.307617,4222.820313,4198.333496,4240.769043,4232.051270,0.000000,4.000000,86.000000,,,,0.000000,4.000000,4.000000,4.000000,4.000000,4.000000,4.000000,4.000000,4.000000,4.000000,4.000000,4.000000,4.000000,4.000000,4.000000,100.000000,,,,,,,,,,,,,,,,
1644853661.175141,82.000000,0.000000,4209.487305,4220.256348,4210.000000,4199.102539,4235.512695,4219.615234,4222.820313,4233.077148,4225.384766,4234.102539,4228.461426,4201.922852,4249.230957,4230.256348,0.000000,4.000000,86.000000,,,,0.000000,4.000000,4.000000,4.000000,4.000000,4.000000,4.000000,4.000000,4.000000,4.000000,4.000000,4.000000,4.000000,4.000000,4.000000,100.000000,,,,,,,,,,,,,,,,
1644853661.179081,83.000000,0.000000,4201.153809,4217.051270,4207.692383,4193.333496,4234.230957,4220.897461,4221.666504,4237.436035,4230.256348,4240.128418,4230.128418,4203.589844,4250.512695,4229.615234,0.000000,4.000000,86.000000,,,,0.000000,4.000000,4.000000,4.000000,4.000000,4.000000,4.000000,4.000000,4.000000,4.000000,4.000000,4.000000,4.000000,4.000000,4.000000,100.000000,,,,,,,,,,,,,,,,
1644853661.183021,84.000000,0.000000,4196.794922,4213.333496,4205.769043,4191.410156,4230.256348,4220.641113,4222.051270,4240.769043,4235.384766,4243.589844,4229.871582,4202.948730,4248.333496,4234.230957,0.000000,4.000000,86.000000,,,,0.000000,4.000000,4.000000,4.000000,4.000000,4.000000,4.000000,4.000000,4.000000,4.000000,4.000000,4.000000,4.000000,4.000000,4.000000,100.000000,,,,,,,,,,,,,,,,
1644853661.186961,85.000000,0.000000,4198.461426,4209.230957,4205.128418,4192.307617,4227.307617,4220.128418,4223.589844,4242.692383,4239.358887,4245.256348,4229.230957,4200.384766,4247.051270,4241.922852,0.000000,4.000000,86.000000,,,,0.000000,4.000000,4.000000,4.000000,4.000000,4.000000,4.000000,4.000000,4.000000,4.000000,4.000000,4.000000,4.000000,4.000000,4.000000,100.000000,,,,,,,,,,,,,,,,
1644853661.190902,86.000000,0.000000,4204.102539,4205.384766,4205.256348,4194.102539,4227.563965,4221.025879,4225.256348,4243.461426,4241.153809,4247.051270,4227.820313,4198.205078,4248.205078,4246.025879,0.000000,4.000000,86.000000,,,,0.000000,4.000000,4.000000,4.000000,4.000000,4.000000,4.000000,4.000000,4.000000,4.000000,4.000000,4.000000,4.000000,4.000000,4.000000,100.000000,,,,,,,,,,,,,,,,
1644853661.194842,87.000000,0.000000,4208.974121,4203.333496,4205.769043,4196.282227,4230.641113,4224.358887,4226.922852,4243.974121,4241.153809,4249.615234,4225.256348,4198.205078,4250.256348,4242.051270,0.000000,4.000000,86.000000,,,,0.000000,4.000000,4.000000,4.000000,4.000000,4.000000,4.000000,4.000000,4.000000,4.000000,4.000000,4.000000,4.000000,4.000000,4.000000,100.000000,,,,,,,,,,,,,,,,
1644853661.198782,88.000000,0.000000,4208.974121,4204.230957,4207.179688,4200.641113,4234.487305,4228.974121,4229.102539,4245.128418,4239.871582,4250.897461,4222.307617,4200.512695,4250.769043,4232.436035,0.000000,4.000000,86.000000,,,,0.000000,4.000000,4.000000,4.000000,4.000000,4.000000,4.000000,4.000000,4.000000,4.000000,4.000000,4.000000,4.000000,4.000000,4.000000,100.000000,,,,,,,,,,,,,,,,
1644853661.202722,89.000000,0.000000,4203.461426,4207.820313,4209.230957,4207.436035,4236.410156,4232.692383,4231.922852,4246.282227,4238.717773,4247.563965,4220.384766,4202.436035,4248.846191,4224.102539,0.000000,4.000000,86.000000,,,,0.000000,4.000000,4.000000,4.000000,4.000000,4.000000,4.000000,4.000000,4.000000,4.000000,4.000000,4.000000,4.000000,4.000000,4.000000,100.000000,,,,,,,,,,,,,,,,
1644853661.206662,90.000000,0.000000,4195.897461,4212.307617,4210.897461,4213.333496,4235.641113,4233.717773,4233.205078,4246.410156,4238.077148,4238.717773,4220.512695,4200.897461,4245.000000,4222.051270,0.000000,4.000000,86.000000,,,,0.000000,4.000000,4.000000,4.000000,4.000000,4.000000,4.000000,4.000000,4.000000,4.000000,4.000000,4.000000,4.000000,4.000000,4.000000,100.000000,,,,,,,,,,,,,,,,
1644853661.210602,91.000000,0.000000,4190.384766,4214.743652,4210.769043,4212.692383,4232.820313,4232.307617,4231.153809,4244.230957,4237.948730,4228.077148,4221.410156,4195.769043,4240.384766,4225.256348,0.000000,4.000000,86.000000,,,,0.000000,4.000000,4.000000,4.000000,4.000000,4.000000,4.000000,4.000000,4.000000,4.000000,4.000000,4.000000,4.000000,4.000000,4.000000,100.000000,,,,,,,,,,,,,,,,
1644853661.214542,92.000000,0.000000,4189.487305,4213.846191,4208.077148,4204.358887,4229.871582,4230.256348,4227.179688,4240.256348,4237.179688,4220.641113,4220.897461,4189.743652,4235.384766,4228.974121,0.000000,4.000000,86.000000,,,,0.000000,4.000000,4.000000,4.000000,4.000000,4.000000,4.000000,4.000000,4.000000,4.000000,4.000000,4.000000,4.000000,4.000000,4.000000,100.000000,,,,,,,,,,,,,,,,
1644853661.218482,93.000000,0.000000,4192.820313,4210.128418,4203.974121,4192.820313,4227.820313,4229.358887,4224.871582,4236.410156,4235.384766,4220.256348,4218.717773,4186.410156,4230.897461,4229.358887,0.000000,4.000000,86.000000,,,,0.000000,4.000000,4.000000,4.000000,4.000000,4.000000,4.000000,4.000000,4.000000,4.000000,4.000000,4.000000,4.000000,4.000000,4.000000,100.000000,,,,,,,,,,,,,,,,
1644853661.222422,94.000000,0.000000,4198.589844,4206.153809,4200.641113,4185.384766,4226.538574,4229.871582,4226.282227,4234.615234,4233.077148,4227.051270,4216.666504,4187.692383,4229.102539,4226.538574,0.000000,4.000000,86.000000,,,,0.000000,4.000000,4.000000,4.000000,4.000000,4.000000,4.000000,4.000000,4.000000,4.000000,4.000000,4.000000,4.000000,4.000000,4.000000,100.000000,,,,,,,,,,,,,,,,
1644853661.226363,95.000000,0.000000,4205.128418,4205.384766,4200.128418,4186.794922,4226.410156,4230.512695,4229.487305,4235.641113,4232.051270,4237.051270,4217.436035,4192.563965,4231.794922,4224.230957,0.000000,4.000000,86.000000,,,,0.000000,4.000000,4.000000,4.000000,4.000000,4.000000,4.000000,4.000000,4.000000,4.000000,4.000000,4.000000,4.000000,4.000000,4.000000,100.000000,,,,,,,,,,,,,,,,
1644853661.230303,96.000000,0.000000,4211.666504,4209.743652,4203.077148,4195.256348,4228.333496,4230.641113,4230.897461,4238.589844,4233.717773,4244.871582,4222.307617,4198.461426,4238.589844,4225.512695,0.000000,4.000000,86.000000,,,,0.000000,4.000000,4.000000,4.000000,4.000000,4.000000,4.000000,4.000000,4.000000,4.000000,4.000000,4.000000,4.000000,4.000000,4.000000,100.000000,,,,,,,,,,,,,,,,
1644853661.234243,97.000000,0.000000,4216.794922,4218.205078,4208.461426,4205.641113,4232.692383,4230.000000,4229.358887,4241.794922,4236.922852,4246.410156,4229.615234,4202.948730,4246.538574,4230.897461,0.000000,4.000000,86.000000,,,,0.000000,4.000000,4.000000,4.000000,4.000000,4.000000,4.000000,4.000000,4.000000,4.000000,4.000000,4.000000,4.000000,4.000000,4.000000,100.000000,,,,,,,,,,,,,,,,
1644853661.238183,98.000000,0.000000,4219.230957,4226.410156,4214.230957,4212.820313,4238.205078,4228.717773,4226.922852,4243.717773,4239.871582,4242.307617,4235.384766,4204.358887,4251.922852,4237.436035,0.000000,4.000000,86.000000,,,,0.000000,4.000000,4.000000,4.000000,4.000000,4.000000,4.000000,4.000000,4.000000,4.000000,4.000000,4.000000,4.000000,4.000000,4.000000,100.000000,,,,,,,,,,,,,,,,
1644853661.242023,99.000000,0.000000,4218.205078,4230.128418,4218.333496,4214.871582,4242.563965,4226.794922,4226.153809,4243.589844,4240.769043,4236.922852,4235.769043,4203.077148,4252.948730,4241.282227,0.000000,4.000000,86.000000,,,,0.000000,4.000000,4.000000,4.000000,4.000000,4.000000,4.000000,4.000000,4.000000,4.000000,4.000000,4.000000,4.000000,4.000000,4.000000,100.000000,,,,,,,,,,,,,,,,
1644853661.245963,100.000000,0.000000,4215.384766,4228.461426,4219.615234,4211.922852,4244.615234,4225.000000,4227.051270,4241.666504,4239.358887,4234.102539,4229.615234,4200.897461,4250.000000,4241.153809,0.000000,4.000000,86.000000,,,,0.000000,4.000000,4.000000,4.000000,4.000000,4.000000,4.000000,4.000000,4.000000,4.000000,4.000000,4.000000,4.000000,4.000000,4.000000,100.000000,,,,,,,,,,,,,,,,
1644853661.249903,101.000000,0.000000,4213.205078,4224.615234,4218.717773,4206.282227,4244.743652,4224.487305,4227.179688,4239.102539,4236.666504,4234.871582,4220.512695,4200.256348,4245.256348,4239.871582,0.000000,4.000000,86.000000,,,,0.000000,4.000000,4.000000,4.000000,4.000000,4.000000,4.000000,4.000000,4.000000,4.000000,4.000000,4.000000,4.000000,4.000000,4.000000,100.000000,,,,,,,,,,,,,,,,
1644853661.253843,102.000000,0.000000,4213.461426,4222.436035,4217.692383,4200.512695,4242.820313,4225.641113,4225.512695,4237.051270,4233.846191,4236.922852,4214.743652,4202.051270,4241.153809,4241.025879,0.000000,4.000000,86.000000,,,,0.000000,4.000000,4.000000,4.000000,4.000000,4.000000,4.000000,4.000000,4.000000,4.000000,4.000000,4.000000,4.000000,4.000000,4.000000,100.000000,,,,,,,,,,,,,,,,
1644853661.257783,103.000000,0.000000,4215.641113,4223.077148,4218.717773,4196.922852,4238.717773,4227.436035,4223.974121,4235.897461,4231.538574,4237.820313,4216.794922,4206.410156,4240.128418,4245.641113,0.000000,4.000000,86.000000,,,,0.000000,4.000000,4.000000,4.000000,4.000000,4.000000,4.000000,4.000000,4.000000,4.000000,4.000000,4.000000,4.000000,4.000000,4.000000,100.000000,,,,,,,,,,,,,,,,
1644853661.261724,104.000000,0.000000,4217.436035,4225.512695,4222.051270,4197.179688,4232.307617,4228.717773,4224.871582,4236.153809,4230.128418,4237.436035,4225.897461,4211.922852,4242.820313,4250.769043,0.000000,4.000000,86.000000,,,,0.000000,4.000000,4.000000,4.000000,4.000000,4.000000,4.000000,4.000000,4.000000,4.000000,4.000000,4.000000,4.000000,4.000000,4.000000,100.000000,,,,,,,,,,,,,,,,
1644853661.265664,105.000000,0.000000,4216.282227,4227.563965,4226.153809,4202.307617,4226.025879,4228.974121,4227.948730,4237.563965,4230.256348,4237.820313,4237.051270,4217.051270,4249.102539,4252.563965,0.000000,4.000000,86.000000,,,,0.000000,4.000000,4.000000,4.000000,4.000000,4.000000,4.000000,4.000000,4.000000,4.000000,4.000000,4.000000,4.000000,4.000000,4.000000,100.000000,,,,,,,,,,,,,,,,
1644853661.269604,106.000000,0.000000,4212.307617,4228.077148,4228.717773,4209.871582,4223.077148,4228.589844,4230.641113,4239.358887,4231.922852,4240.000000,4244.102539,4220.000000,4257.436035,4250.000000,0.000000,4.000000,86.000000,,,,0.000000,4.000000,4.000000,4.000000,4.000000,4.000000,4.000000,4.000000,4.000000,4.000000,4.000000,4.000000,4.000000,4.000000,4.000000,100.000000,,,,,,,,,,,,,,,,
1644853661.273544,107.000000,0.000000,4207.563965,4226.794922,4228.717773,4215.769043,4224.743652,4228.589844,4230.512695,4241.153809,4234.358887,4243.205078,4243.461426,4218.974121,4265.384766,4246.153809,0.000000,4.000000,86.000000,,,,0.000000,4.000000,4.000000,4.000000,4.000000,4.000000,4.000000,4.000000,4.000000,4.000000,4.000000,4.000000,4.000000,4.000000,4.000000,100.000000,,,,,,,,,,,,,,,,
1644853661.277484,108.000000,0.000000,4204.615234,4224.358887,4227.051270,4216.538574,4229.743652,4229.358887,4229.230957,4243.333496,4236.153809,4245.128418,4235.769043,4213.974121,4270.256348,4244.743652,0.000000,4.000000,86.000000,,,,0.000000,4.000000,4.000000,4.000000,4.000000,4.000000,4.000000,4.000000,4.000000,4.000000,4.000000,4.000000,4.000000,4.000000,4.000000,100.000000,,,,,,,,,,,,,,,,
1644853661.281324,109.000000,0.000000,4204.871582,4221.153809,4224.615234,4211.922852,4234.871582,4231.153809,4229.358887,4245.384766,4235.769043,4244.871582,4225.256348,4207.051270,4270.256348,4246.794922,0.000000,4.000000,86.000000,,,,0.000000,4.000000,4.000000,4.000000,4.000000,4.000000,4.000000,4.000000,4.000000,4.000000,4.000000,4.000000,4.000000,4.000000,4.000000,100.000000,,,,,,,,,,,,,,,,
1644853661.285264,110.000000,0.000000,4208.077148,4218.205078,4222.051270,4205.128418,4237.820313,4233.589844,4231.282227,4246.666504,4233.461426,4243.333496,4217.179688,4201.922852,4265.128418,4249.615234,0.000000,4.000000,86.000000,,,,0.000000,4.000000,4.000000,4.000000,4.000000,4.000000,4.000000,4.000000,4.000000,4.000000,4.000000,4.000000,4.000000,4.000000,4.000000,100.000000,,,,,,,,,,,,,,,,
1644853661.289204,111.000000,0.000000,4212.820313,4216.025879,4219.230957,4199.230957,4237.563965,4235.512695,4232.948730,4246.153809,4230.897461,4241.538574,4214.487305,4200.897461,4257.179688,4249.358887,0.000000,4.000000,86.000000,,,,0.000000,4.000000,4.000000,4.000000,4.000000,4.000000,4.000000,4.000000,4.000000,4.000000,4.000000,4.000000,4.000000,4.000000,4.000000,100.000000,,,,,,,,,,,,,,,,
1644853661.293145,112.000000,0.000000,4216.922852,4214.358887,4216.282227,4195.384766,4234.615234,4236.025879,4232.307617,4243.717773,4229.487305,4238.974121,4216.538574,4203.077148,4249.487305,4245.384766,0.000000,4.000000,86.000000,,,,0.000000,4.000000,4.000000,4.000000,4.000000,4.000000,4.000000,4.000000,4.000000,4.000000,4.000000,4.000000,4.000000,4.000000,4.000000,100.000000,,,,,,,,,,,,,,,,
1644853661.297185,113.000000,0.000000,4218.333496,4212.436035,4213.461426,4192.563965,4230.384766,4234.358887,4230.128418,4240.256348,4228.846191,4233.333496,4220.512695,4204.615234,4244.743652,4240.000000,0.000000,4.000000,86.000000,,,,0.000000,4.000000,4.000000,4.000000,4.000000,4.000000,4.000000,4.000000,4.000000,4.000000,4.000000,4.000000,4.000000,4.000000,4.000000,100.000000,,,,,,,,,,,,,,,,
1644853661.301125,114.000000,0.000000,4215.769043,4209.743652,4211.153809,4189.230957,4226.538574,4231.282227,4228.461426,4237.051270,4227.563965,4224.102539,4222.436035,4203.077148,4243.717773,4236.794922,0.000000,4.000000,86.000000,,,,0.000000,4.000000,4.000000,4.000000,4.000000,4.000000,4.000000,4.000000,4.000000,4.000000,4.000000,4.000000,4.000000,4.000000,4.000000,100.000000,,,,,,,,,,,,,,,,
1644853661.305065,115.000000,0.000000,4210.128418,4206.922852,4209.743652,4186.794922,4224.871582,4228.461426,4228.077148,4234.487305,4225.000000,4214.358887,4220.897461,4198.974121,4244.743652,4236.794922,0.000000,4.000000,86.000000,,,,0.000000,4.000000,4.000000,4.000000,4.000000,4.000000,4.000000,4.000000,4.000000,4.000000,4.000000,4.000000,4.000000,4.000000,4.000000,100.000000,,,,,,,,,,,,,,,,
1644853661.309005,116.000000,0.000000,4205.000000,4205.000000,4209.615234,4188.974121,4226.666504,4228.077148,4228.333496,4232.179688,4222.820313,4209.358887,4218.077148,4195.384766,4246.794922,4239.102539,0.000000,4.000000,86.000000,,,,0.000000,4.000000,4.000000,4.000000,4.000000,4.000000,4.000000,4.000000,4.000000,4.000000,4.000000,4.000000,4.000000,4.000000,4.000000,100.000000,,,,,,,,,,,,,,,,
1644853661.312945,117.000000,0.000000,4202.948730,4204.871582,4210.769043,4196.922852,4231.282227,4230.641113,4228.205078,4230.384766,4222.820313,4212.692383,4217.307617,4195.000000,4249.230957,4241.538574,0.000000,4.000000,86.000000,,,,0.000000,4.000000,4.000000,4.000000,4.000000,4.000000,4.000000,4.000000,4.000000,4.000000,4.000000,4.000000,4.000000,4.000000,4.000000,100.000000,,,,,,,,,,,,,,,,
1644853661.316885,118.000000,0.000000,4204.615234,4206.025879,4213.461426,4205.256348,4235.897461,4234.487305,4227.692383,4229.871582,4224.871582,4222.563965,4219.358887,4197.820313,4251.410156,4242.307617,0.000000,4.000000,86.000000,,,,0.000000,4.000000,4.000000,4.000000,4.000000,4.000000,4.000000,4.000000,4.000000,4.000000,4.000000,4.000000,4.000000,4.000000,4.000000,100.000000,,,,,,,,,,,,,,,,
1644853661.320825,119.000000,0.000000,4207.948730,4208.205078,4217.307617,4207.179688,4237.563965,4236.666504,4227.692383,4230.256348,4227.179688,4232.436035,4221.922852,4201.794922,4252.307617,4241.153809,0.000000,4.000000,86.000000,,,,0.000000,4.000000,4.000000,4.000000,4.000000,4.000000,4.000000,4.000000,4.000000,4.000000,4.000000,4.000000,4.000000,4.000000,4.000000,100.000000,,,,,,,,,,,,,,,,
1644853661.324765,120.000000,0.000000,4210.512695,4211.153809,4219.871582,4200.512695,4235.641113,4235.512695,4227.692383,4230.641113,4227.820313,4236.282227,4222.051270,4203.717773,4251.666504,4238.717773,0.000000,4.000000,86.000000,,,,0.000000,4.000000,4.000000,4.000000,4.000000,4.000000,4.000000,4.000000,4.000000,4.000000,4.000000,4.000000,4.000000,4.000000,4.000000,100.000000,,,,,,,,,,,,,,,,
1644853661.328705,121.000000,0.000000,4210.897461,4214.615234,4219.230957,4191.410156,4231.538574,4230.897461,4226.410156,4229.871582,4226.410156,4233.333496,4218.974121,4202.436035,4249.487305,4235.641113,0.000000,4.000000,86.000000,,,,0.000000,4.000000,4.000000,4.000000,4.000000,4.000000,4.000000,4.000000,4.000000,4.000000,4.000000,4.000000,4.000000,4.000000,4.000000,100.000000,,,,,,,,,,,,,,,,
1644853661.332645,122.000000,0.000000,4208.461426,4216.794922,4215.512695,4187.179688,4227.051270,4225.256348,4223.717773,4227.820313,4224.102539,4228.589844,4214.230957,4199.102539,4247.051270,4232.051270,0.000000,4.000000,86.000000,,,,0.000000,4.000000,4.000000,4.000000,4.000000,4.000000,4.000000,4.000000,4.000000,4.000000,4.000000,4.000000,4.000000,4.000000,4.000000,100.000000,,,,,,,,,,,,,,,,
1644853661.336586,123.000000,0.000000,4203.205078,4216.410156,4211.153809,4190.000000,4222.948730,4221.282227,4221.538574,4226.282227,4222.307617,4226.153809,4208.846191,4196.282227,4243.974121,4228.589844,0.000000,4.000000,86.000000,,,,0.000000,4.000000,4.000000,4.000000,4.000000,4.000000,4.000000,4.000000,4.000000,4.000000,4.000000,4.000000,4.000000,4.000000,4.000000,100.000000,,,,,,,,,,,,,,,,
1644853661.340626,124.000000,0.000000,4196.538574,4213.333496,4209.358887,4195.384766,4220.256348,4220.897461,4221.922852,4226.410156,4221.410156,4226.410156,4204.230957,4196.153809,4239.487305,4226.794922,0.000000,4.000000,86.000000,,,,0.000000,4.000000,4.000000,4.000000,4.000000,4.000000,4.000000,4.000000,4.000000,4.000000,4.000000,4.000000,4.000000,4.000000,4.000000,100.000000,,,,,,,,,,,,,,,,
1644853661.344566,125.000000,0.000000,4191.538574,4209.358887,4211.153809,4197.563965,4219.102539,4223.589844,4223.974121,4228.333496,4220.897461,4226.794922,4201.794922,4198.461426,4234.358887,4227.051270,0.000000,4.000000,86.000000,,,,0.000000,4.000000,4.000000,4.000000,4.000000,4.000000,4.000000,4.000000,4.000000,4.000000,4.000000,4.000000,4.000000,4.000000,4.000000,100.000000,,,,,,,,,,,,,,,,
1644853661.348506,126.000000,0.000000,4190.769043,4206.794922,4214.615234,4195.256348,4220.000000,4227.179688,4225.384766,4230.384766,4220.384766,4225.384766,4202.948730,4200.512695,4231.410156,4228.205078,0.000000,4.000000,86.000000,,,,0.000000,4.000000,4.000000,4.000000,4.000000,4.000000,4.000000,4.000000,4.000000,4.000000,4.000000,4.000000,4.000000,4.000000,4.000000,100.000000,,,,,,,,,,,,,,,,
1644853661.352446,127.000000,0.000000,4193.589844,4206.153809,4216.538574,4192.820313,4223.333496,4230.128418,4224.743652,4231.794922,4220.384766,4222.948730,4206.282227,4199.615234,4232.948730,4227.820313,0.000000,4.000000,86.000000,,,,0.000000,4.000000,4.000000,4.000000,4.000000,4.000000,4.000000,4.000000,4.000000,4.000000,4.000000,4.000000,4.000000,4.000000,4.000000,100.000000,,,,,,,,,,,,,,,,
1644853661.356386,128.000000,0.000000,4195.384766,4206.025879,4214.358887,4193.717773,4227.948730,4231.282227,4223.589844,4232.692383,4221.025879,4222.051270,4208.589844,4195.000000,4237.563965,4225.512695,3352.000000,4.000000,86.000000,,,,0.000000,4.000000,4.000000,4.000000,4.000000,4.000000,4.000000,4.000000,4.000000,4.000000,4.000000,4.000000,4.000000,4.000000,4.000000,100.000000,,,,,,,,,,,,,,,,
1644853661.360326,129.000000,0.000000,4191.922852,4204.358887,4208.846191,4196.794922,4231.794922,4230.769043,4224.487305,4233.717773,4221.922852,4224.102539,4207.307617,4188.846191,4241.153809,4222.563965,3525.000000,4.000000,86.000000,,,,0.000000,4.000000,4.000000,4.000000,4.000000,4.000000,4.000000,4.000000,4.000000,4.000000,4.000000,4.000000,4.000000,4.000000,4.000000,100.000000,,,,,,,,,,,,,,,,
1644853661.364266,130.000000,0.000000,4183.333496,4200.128418,4202.948730,4196.025879,4232.436035,4229.871582,4227.179688,4235.128418,4222.692383,4228.077148,4202.692383,4184.358887,4239.871582,4221.410156,3485.000000,4.000000,86.000000,,,,0.000000,4.000000,4.000000,4.000000,4.000000,4.000000,4.000000,4.000000,4.000000,4.000000,4.000000,4.000000,4.000000,4.000000,4.000000,100.000000,,,,,,,,,,,,,,,,
1644853661.368206,131.000000,0.000000,4174.615234,4195.384766,4200.256348,4187.820313,4229.102539,4229.743652,4229.102539,4236.025879,4223.205078,4231.025879,4197.948730,4184.230957,4234.615234,4222.436035,3537.000000,4.000000,86.000000,,,,0.000000,4.000000,4.000000,4.000000,4.000000,4.000000,4.000000,4.000000,4.000000,4.000000,4.000000,4.000000,4.000000,4.000000,4.000000,100.000000,,,,,,,,,,,,,,,,
1644853661.372146,132.000000,0.000000,4170.897461,4193.205078,4201.922852,4175.769043,4223.205078,4230.769043,4228.333496,4235.256348,4223.589844,4230.769043,4195.512695,4187.820313,4228.461426,4223.333496,3474.000000,4.000000,86.000000,,,,0.000000,4.000000,4.000000,4.000000,4.000000,4.000000,4.000000,4.000000,4.000000,4.000000,4.000000,4.000000,4.000000,4.000000,4.000000,100.000000,,,,,,,,,,,,,,,,
1644853661.376087,133.000000,0.000000,4174.230957,4194.871582,4205.384766,4168.589844,4218.077148,4232.307617,4226.153809,4232.563965,4223.717773,4225.897461,4196.153809,4191.538574,4224.358887,4221.153809,3365.000000,4.000000,86.000000,,,,0.000000,4.000000,4.000000,4.000000,4.000000,4.000000,4.000000,4.000000,4.000000,4.000000,4.000000,4.000000,4.000000,4.000000,4.000000,100.000000,,,,,,,,,,,,,,,,
1644853661.380027,134.000000,0.000000,4181.153809,4198.589844,4206.794922,4173.077148,4216.282227,4232.307617,4225.256348,4228.461426,4222.948730,4217.307617,4198.846191,4191.153809,4222.436035,4214.743652,2618.000000,4.000000,86.000000,,,,0.000000,4.000000,4.000000,4.000000,4.000000,4.000000,4.000000,4.000000,4.000000,4.000000,4.000000,4.000000,4.000000,4.000000,4.000000,100.000000,,,,,,,,,,,,,,,,
1644853661.383967,135.000000,0.000000,4186.666504,4200.641113,4203.717773,4187.692383,4218.461426,4229.615234,4226.282227,4224.358887,4220.641113,4208.461426,4201.282227,4185.000000,4221.794922,4204.871582,3192.000000,4.000000,86.000000,,,,0.000000,4.000000,4.000000,4.000000,4.000000,4.000000,4.000000,4.000000,4.000000,4.000000,4.000000,4.000000,4.000000,4.000000,4.000000,100.000000,,,,,,,,,,,,,,,,
1644853661.387907,136.000000,0.000000,4187.436035,4199.743652,4197.307617,4203.205078,4222.820313,4225.512695,4227.051270,4221.410156,4217.051270,4203.717773,4201.538574,4175.384766,4222.692383,4194.487305,3307.000000,4.000000,86.000000,,,,0.000000,4.000000,4.000000,4.000000,4.000000,4.000000,4.000000,4.000000,4.000000,4.000000,4.000000,4.000000,4.000000,4.000000,4.000000,100.000000,,,,,,,,,,,,,,,,
1644853661.391847,137.000000,0.000000,4183.974121,4197.436035,4191.153809,4208.589844,4225.512695,4221.538574,4225.128418,4220.000000,4213.974121,4205.641113,4198.333496,4166.922852,4226.153809,4188.077148,3726.000000,4.000000,86.000000,,,,0.000000,4.000000,4.000000,4.000000,4.000000,4.000000,4.000000,4.000000,4.000000,4.000000,4.000000,4.000000,4.000000,4.000000,4.000000,100.000000,,,,,,,,,,,,,,,,
1644853661.395787,138.000000,0.000000,4180.641113,4196.282227,4188.974121,4200.128418,4223.589844,4218.846191,4221.153809,4219.358887,4212.563965,4212.436035,4192.179688,4163.846191,4231.666504,4189.487305,3547.000000,4.000000,86.000000,,,,0.000000,4.000000,4.000000,4.000000,4.000000,4.000000,4.000000,4.000000,4.000000,4.000000,4.000000,4.000000,4.000000,4.000000,4.000000,100.000000,,,,,,,,,,,,,,,,
1644853661.399727,139.000000,0.000000,4181.025879,4196.922852,4191.794922,4183.205078,4216.922852,4217.179688,4218.205078,4218.717773,4213.077148,4218.846191,4185.128418,4167.051270,4235.641113,4199.615234,3109.000000,4.000000,86.000000,,,,0.000000,4.000000,4.000000,4.000000,4.000000,4.000000,4.000000,4.000000,4.000000,4.000000,4.000000,4.000000,4.000000,4.000000,4.000000,100.000000,,,,,,,,,,,,,,,,
1644853661.403667,140.000000,0.000000,4184.102539,4197.563965,4197.307617,4168.077148,4210.256348,4216.282227,4217.820313,4217.820313,4215.000000,4221.025879,4181.410156,4174.102539,4234.743652,4213.717773,3460.000000,4.000000,86.000000,,,,0.000000,4.000000,4.000000,4.000000,4.000000,4.000000,4.000000,4.000000,4.000000,4.000000,4.000000,4.000000,4.000000,4.000000,4.000000,100.000000,1.000000,66.666664,4.000000,4.000000,4.000000,4.000000,4.000000,4.000000,1.000000,4.000000,4.000000,3.000000,4.000000,4.000000,4.000000,4.000000
1644853661.407507,141.000000,0.000000,4184.743652,4195.897461,4202.948730,4162.307617,4209.230957,4216.153809,4219.102539,4217.179688,4217.948730,4218.974121,4184.358887,4182.051270,4229.743652,4224.230957,3672.000000,4.000000,86.000000,,,,0.000000,4.000000,4.000000,4.000000,4.000000,4.000000,4.000000,4.000000,4.000000,4.000000,4.000000,4.000000,4.000000,4.000000,4.000000,100.000000,,,,,,,,,,,,,,,,
1644853661.411448,142.000000,0.000000,4179.615234,4191.794922,4206.922852,4166.538574,4215.512695,4217.692383,4220.000000,4217.563965,4221.794922,4216.282227,4193.846191,4188.974121,4224.871582,4226.410156,3547.000000,4.000000,86.000000,,,,0.000000,4.000000,4.000000,4.000000,4.000000,4.000000,4.000000,4.000000,4.000000,4.000000,4.000000,4.000000,4.000000,4.000000,4.000000,100.000000,,,,,,,,,,,,,,,,
1644853661.415388,143.000000,0.000000,4172.179688,4188.461426,4209.743652,4176.538574,4225.256348,4221.282227,4220.897461,4220.256348,4226.153809,4216.922852,4205.384766,4193.846191,4225.128418,4222.436035,3109.000000,4.000000,86.000000,,,,0.000000,4.000000,4.000000,4.000000,4.000000,4.000000,4.000000,4.000000,4.000000,4.000000,4.000000,4.000000,4.000000,4.000000,4.000000,100.000000,,,,,,,,,,,,,,,,
1644853661.419328,144.000000,0.000000,4169.871582,4190.000000,4212.563965,4186.025879,4233.077148,4226.282227,4223.717773,4225.641113,4230.512695,4221.666504,4213.333496,4195.000000,4231.794922,4218.846191,3460.000000,4.000000,86.000000,,,,0.000000,4.000000,4.000000,4.000000,4.000000,4.000000,4.000000,4.000000,4.000000,4.000000,4.000000,4.000000,4.000000,4.000000,4.000000,100.000000,,,,,,,,,,,,,,,,
1644853661.423268,145.000000,0.000000,4177.692383,4198.589844,4215.897461,4190.256348,4235.641113,4230.641113,4228.461426,4232.307617,4234.487305,4228.589844,4215.384766,4192.692383,4242.692383,4221.025879,3672.000000,4.000000,86.000000,,,,0.000000,4.000000,4.000000,4.000000,4.000000,4.000000,4.000000,4.000000,4.000000,4.000000,4.000000,4.000000,4.000000,4.000000,4.000000,100.000000,,,,,,,,,,,,,,,,
1644853661.427208,146.000000,0.000000,4193.974121,4210.897461,4218.589844,4188.333496,4234.230957,4232.179688,4232.307617,4237.563965,4237.051270,4234.358887,4213.846191,4188.717773,4252.820313,4228.846191,3547.000000,4.000000,86.000000,,,,0.000000,4.000000,4.000000,4.000000,4.000000,4.000000,4.000000,4.000000,4.000000,4.000000,4.000000,4.000000,4.000000,4.000000,4.000000,100.000000,,,,,,,,,,,,,,,,
1644853661.431148,147.000000,0.000000,4211.025879,4220.384766,4218.717773,4183.077148,4231.282227,4229.871582,4232.051270,4239.358887,4237.179688,4236.410156,4212.307617,4187.307617,4257.179688,4238.205078,3109.000000,4.000000,86.000000,,,,0.000000,4.000000,4.000000,4.000000,4.000000,4.000000,4.000000,4.000000,4.000000,4.000000,4.000000,4.000000,4.000000,4.000000,4.000000,100.000000,,,,,,,,,,,,,,,,
