title:Alex-IBH1c8NJ1FeYxvaxsnXODw, start timestamp:1644853396.536635, stop timestamp:1644853423.514793, headset type:EPOCPLUS, headset serial:3B9AEBFF, headset firmware:626, channels:55, sampling rate:eeg_256, samples:6847      , version:2.1, 
Timestamp,EEG.Counter,EEG.Interpolated,EEG.AF3,EEG.F7,EEG.F3,EEG.FC5,EEG.T7,EEG.P7,EEG.O1,EEG.O2,EEG.P8,EEG.T8,EEG.FC6,EEG.F4,EEG.F8,EEG.AF4,EEG.RawCq,EEG.Battery,EEG.BatteryPercent,MarkerIndex,MarkerType,MarkerValueInt,EEG.MarkerHardware,CQ.AF3,CQ.F7,CQ.F3,CQ.FC5,CQ.T7,CQ.P7,CQ.O1,CQ.O2,CQ.P8,CQ.T8,CQ.FC6,CQ.F4,CQ.F8,CQ.AF4,CQ.Overall,EQ.SampleRateQuality,EQ.OVERALL,EQ.AF3,EQ.F7,EQ.F3,EQ.FC5,EQ.T7,EQ.P7,EQ.O1,EQ.O2,EQ.P8,EQ.T8,EQ.FC6,EQ.F4,EQ.F8,EQ.AF4
1644853396.536635,248.000000,0.000000,4218.846191,4236.410156,4233.846191,4220.384766,4223.333496,4228.461426,4225.897461,4225.769043,4225.641113,4220.128418,4228.077148,4231.025879,4161.410156,4218.077148,3559.000000,4.000000,86.000000,,,,0.000000,4.000000,4.000000,4.000000,4.000000,4.000000,4.000000,4.000000,4.000000,4.000000,4.000000,4.000000,4.000000,4.000000,4.000000,100.000000,,,,,,,,,,,,,,,,
1644853396.540475,249.000000,0.000000,4224.871582,4235.641113,4234.102539,4224.230957,4227.307617,4230.512695,4227.436035,4226.025879,4223.077148,4219.615234,4229.102539,4221.666504,4163.205078,4227.692383,3498.000000,4.000000,86.000000,,,,0.000000,4.000000,4.000000,4.000000,4.000000,4.000000,4.000000,4.000000,4.000000,4.000000,4.000000,4.000000,4.000000,4.000000,4.000000,100.000000,,,,,,,,,,,,,,,,
1644853396.544416,250.000000,0.000000,4235.256348,4236.794922,4234.487305,4231.153809,4233.333496,4231.538574,4226.153809,4226.025879,4222.179688,4223.077148,4226.282227,4209.871582,4168.717773,4239.615234,3395.000000,4.000000,86.000000,,,,0.000000,4.000000,4.000000,4.000000,4.000000,4.000000,4.000000,4.000000,4.000000,4.000000,4.000000,4.000000,4.000000,4.000000,4.000000,100.000000,,,,,,,,,,,,,,,,
1644853396.548356,251.000000,0.000000,4243.333496,4238.846191,4234.358887,4237.563965,4237.179688,4230.769043,4224.102539,4225.897461,4222.948730,4228.717773,4221.282227,4202.307617,4173.461426,4248.461426,3126.000000,4.000000,86.000000,,,,0.000000,4.000000,4.000000,4.000000,4.000000,4.000000,4.000000,4.000000,4.000000,4.000000,4.000000,4.000000,4.000000,4.000000,4.000000,100.000000,,,,,,,,,,,,,,,,
1644853396.552296,252.000000,0.000000,4245.000000,4240.128418,4234.230957,4240.512695,4234.871582,4228.333496,4223.461426,4225.769043,4223.846191,4233.333496,4217.948730,4203.077148,4173.589844,4250.000000,3559.000000,4.000000,86.000000,,,,0.000000,4.000000,4.000000,4.000000,4.000000,4.000000,4.000000,4.000000,4.000000,4.000000,4.000000,4.000000,4.000000,4.000000,4.000000,100.000000,,,,,,,,,,,,,,,,
1644853396.556236,253.000000,0.000000,4241.538574,4239.615234,4235.384766,4239.358887,4227.051270,4225.641113,4224.487305,4225.384766,4223.461426,4235.384766,4218.077148,4211.025879,4169.102539,4243.205078,3498.000000,4.000000,86.000000,,,,0.000000,4.000000,4.000000,4.000000,4.000000,4.000000,4.000000,4.000000,4.000000,4.000000,4.000000,4.000000,4.000000,4.000000,4.000000,100.000000,,,,,,,,,,,,,,,,
1644853396.560176,254.000000,0.000000,4236.666504,4236.666504,4237.948730,4235.384766,4218.974121,4224.358887,4225.384766,4224.230957,4222.563965,4234.358887,4219.871582,4220.256348,4163.333496,4231.153809,3395.000000,4.000000,86.000000,,,,0.000000,4.000000,4.000000,4.000000,4.000000,4.000000,4.000000,4.000000,4.000000,4.000000,4.000000,4.000000,4.000000,4.000000,4.000000,100.000000,,,,,,,,,,,,,,,,
1644853396.564116,255.000000,0.000000,4232.563965,4232.436035,4240.128418,4230.128418,4215.769043,4225.256348,4225.000000,4222.307617,4222.051270,4230.256348,4219.358887,4224.230957,4159.487305,4219.102539,113.000000,4.000000,86.000000,,,,0.000000,4.000000,4.000000,4.000000,4.000000,4.000000,4.000000,4.000000,4.000000,4.000000,4.000000,4.000000,4.000000,4.000000,4.000000,100.000000,,,,,,,,,,,,,,,,
1644853396.568056,0.000000,0.000000,4229.615234,4228.717773,4240.384766,4226.282227,4218.205078,4226.794922,4223.974121,4220.897461,4222.179688,4224.102539,4214.358887,4220.769043,4157.436035,4211.410156,3529.000000,4.000000,86.000000,,,,0.000000,4.000000,4.000000,4.000000,4.000000,4.000000,4.000000,4.000000,4.000000,4.000000,4.000000,4.000000,4.000000,4.000000,4.000000,100.000000,,,,,,,,,,,,,,,,
1644853396.571996,1.000000,0.000000,4227.948730,4227.948730,4238.589844,4226.538574,4222.692383,4226.666504,4223.717773,4221.666504,4223.077148,4218.974121,4207.563965,4213.717773,4155.641113,4209.743652,3304.000000,4.000000,86.000000,,,,0.000000,4.000000,4.000000,4.000000,4.000000,4.000000,4.000000,4.000000,4.000000,4.000000,4.000000,4.000000,4.000000,4.000000,4.000000,100.000000,,,,,,,,,,,,,,,,
1644853396.575936,2.000000,0.000000,4228.333496,4230.384766,4236.666504,4232.563965,4226.282227,4224.230957,4224.102539,4225.128418,4225.384766,4217.820313,4204.871582,4209.743652,4153.333496,4213.333496,3545.000000,4.000000,86.000000,,,,0.000000,4.000000,4.000000,4.000000,4.000000,4.000000,4.000000,4.000000,4.000000,4.000000,4.000000,4.000000,4.000000,4.000000,4.000000,100.000000,,,,,,,,,,,,,,,,
1644853396.579876,3.000000,0.000000,4231.666504,4234.102539,4236.282227,4242.179688,4227.692383,4220.897461,4223.846191,4228.974121,4228.974121,4221.025879,4209.102539,4212.692383,4153.077148,4219.743652,3556.000000,4.000000,86.000000,,,,0.000000,4.000000,4.000000,4.000000,4.000000,4.000000,4.000000,4.000000,4.000000,4.000000,4.000000,4.000000,4.000000,4.000000,4.000000,100.000000,,,,,,,,,,,,,,,,
1644853396.583817,4.000000,0.000000,4237.436035,4236.410156,4237.820313,4250.000000,4227.948730,4218.461426,4222.692383,4230.897461,4232.307617,4225.128418,4217.948730,4220.384766,4157.307617,4227.436035,3504.000000,4.000000,86.000000,,,,0.000000,4.000000,4.000000,4.000000,4.000000,4.000000,4.000000,4.000000,4.000000,4.000000,4.000000,4.000000,4.000000,4.000000,4.000000,100.000000,,,,,,,,,,,,,,,,
1644853396.587757,5.000000,0.000000,4243.846191,4236.282227,4240.128418,4250.769043,4227.307617,4218.077148,4222.436035,4230.128418,4232.692383,4225.512695,4225.897461,4226.922852,4164.743652,4235.000000,3511.000000,4.000000,86.000000,,,,0.000000,4.000000,4.000000,4.000000,4.000000,4.000000,4.000000,4.000000,4.000000,4.000000,4.000000,4.000000,4.000000,4.000000,4.000000,100.000000,,,,,,,,,,,,,,,,
1644853396.591697,6.000000,0.000000,4248.333496,4235.256348,4241.666504,4243.077148,4225.641113,4220.000000,4223.974121,4227.563965,4229.615234,4221.153809,4228.333496,4228.205078,4170.641113,4240.384766,2472.000000,4.000000,86.000000,,,,0.000000,4.000000,4.000000,4.000000,4.000000,4.000000,4.000000,4.000000,4.000000,4.000000,4.000000,4.000000,4.000000,4.000000,4.000000,100.000000,,,,,,,,,,,,,,,,
1644853396.595637,7.000000,0.000000,4248.846191,4236.153809,4241.794922,4232.051270,4224.102539,4223.461426,4226.153809,4225.128418,4225.000000,4215.512695,4225.256348,4224.358887,4170.641113,4240.897461,2904.000000,4.000000,86.000000,,,,0.000000,4.000000,4.000000,4.000000,4.000000,4.000000,4.000000,4.000000,4.000000,4.000000,4.000000,4.000000,4.000000,4.000000,4.000000,100.000000,,,,,,,,,,,,,,,,
1644853396.599577,8.000000,0.000000,4246.538574,4240.512695,4240.512695,4225.512695,4224.743652,4226.410156,4226.538574,4223.461426,4221.922852,4213.589844,4218.974121,4218.846191,4163.974121,4235.769043,3282.000000,4.000000,86.000000,,,,0.000000,4.000000,4.000000,4.000000,4.000000,4.000000,4.000000,4.000000,4.000000,4.000000,4.000000,4.000000,4.000000,4.000000,4.000000,100.000000,,,,,,,,,,,,,,,,
1644853396.603517,9.000000,0.000000,4243.461426,4246.794922,4239.230957,4228.461426,4227.948730,4226.410156,4224.615234,4222.692383,4221.153809,4216.538574,4212.948730,4214.743652,4154.487305,4228.333496,3397.000000,4.000000,86.000000,,,,0.000000,4.000000,4.000000,4.000000,4.000000,4.000000,4.000000,4.000000,4.000000,4.000000,4.000000,4.000000,4.000000,4.000000,4.000000,100.000000,,,,,,,,,,,,,,,,
1644853396.607457,10.000000,0.000000,4241.666504,4251.538574,4238.846191,4239.230957,4231.666504,4223.205078,4222.051270,4221.794922,4220.641113,4221.282227,4208.461426,4212.051270,4147.563965,4224.102539,3435.000000,4.000000,86.000000,,,,0.000000,4.000000,4.000000,4.000000,4.000000,4.000000,4.000000,4.000000,4.000000,4.000000,4.000000,4.000000,4.000000,4.000000,4.000000,100.000000,,,,,,,,,,,,,,,,
1644853396.611297,11.000000,0.000000,4240.769043,4251.666504,4239.358887,4251.282227,4231.666504,4218.461426,4221.025879,4219.743652,4217.692383,4222.692383,4205.512695,4209.487305,4146.794922,4225.256348,3152.000000,4.000000,86.000000,,,,0.000000,4.000000,4.000000,4.000000,4.000000,4.000000,4.000000,4.000000,4.000000,4.000000,4.000000,4.000000,4.000000,4.000000,4.000000,100.000000,,,,,,,,,,,,,,,,
1644853396.615238,12.000000,0.000000,4239.871582,4246.282227,4239.358887,4257.820313,4225.641113,4215.384766,4221.282227,4215.769043,4211.538574,4218.205078,4202.948730,4206.153809,4151.153809,4228.589844,3464.000000,4.000000,86.000000,,,,0.000000,4.000000,4.000000,4.000000,4.000000,4.000000,4.000000,4.000000,4.000000,4.000000,4.000000,4.000000,4.000000,4.000000,4.000000,100.000000,,,,,,,,,,,,,,,,
1644853396.619178,13.000000,0.000000,4238.333496,4238.077148,4237.436035,4256.282227,4214.743652,4215.384766,4220.512695,4210.512695,4203.974121,4209.871582,4200.256348,4202.563965,4156.153809,4229.102539,3681.000000,4.000000,86.000000,,,,0.000000,4.000000,4.000000,4.000000,4.000000,4.000000,4.000000,4.000000,4.000000,4.000000,4.000000,4.000000,4.000000,4.000000,4.000000,100.000000,,,,,,,,,,,,,,,,
1644853396.623118,14.000000,0.000000,4237.563965,4231.538574,4234.230957,4249.615234,4204.230957,4217.307617,4218.077148,4206.282227,4198.846191,4202.563965,4197.436035,4201.282227,4157.692383,4225.512695,3435.000000,4.000000,86.000000,,,,0.000000,4.000000,4.000000,4.000000,4.000000,4.000000,4.000000,4.000000,4.000000,4.000000,4.000000,4.000000,4.000000,4.000000,4.000000,100.000000,,,,,,,,,,,,,,,,
1644853396.627058,15.000000,0.000000,4238.846191,4230.256348,4232.948730,4243.846191,4199.743652,4218.717773,4216.282227,4206.538574,4199.871582,4201.410156,4196.538574,4204.871582,4155.256348,4221.153809,3152.000000,4.000000,86.000000,,,,0.000000,4.000000,4.000000,4.000000,4.000000,4.000000,4.000000,4.000000,4.000000,4.000000,4.000000,4.000000,4.000000,4.000000,4.000000,100.000000,,,,,,,,,,,,,,,,
1644853396.630898,16.000000,0.000000,4242.436035,4234.102539,4235.769043,4243.846191,4204.358887,4218.717773,4217.948730,4212.307617,4206.922852,4207.307617,4200.000000,4213.205078,4151.922852,4220.769043,3464.000000,4.000000,86.000000,,,,0.000000,4.000000,4.000000,4.000000,4.000000,4.000000,4.000000,4.000000,4.000000,4.000000,4.000000,4.000000,4.000000,4.000000,4.000000,100.000000,,,,,,,,,,,,,,,,
1644853396.634838,17.000000,0.000000,4246.410156,4240.384766,4242.051270,4248.974121,4216.025879,4218.333496,4222.820313,4220.641113,4216.666504,4216.794922,4209.487305,4223.461426,4151.282227,4226.153809,3681.000000,4.000000,86.000000,,,,0.000000,4.000000,4.000000,4.000000,4.000000,4.000000,4.000000,4.000000,4.000000,4.000000,4.000000,4.000000,4.000000,4.000000,4.000000,100.000000,,,,,,,,,,,,,,,,
1644853396.638778,18.000000,0.000000,4248.205078,4245.384766,4248.205078,4253.846191,4227.948730,4218.717773,4226.922852,4226.666504,4223.846191,4224.102539,4223.589844,4231.538574,4154.230957,4234.487305,3435.000000,4.000000,86.000000,,,,0.000000,4.000000,4.000000,4.000000,4.000000,4.000000,4.000000,4.000000,4.000000,4.000000,4.000000,4.000000,4.000000,4.000000,4.000000,100.000000,,,,,,,,,,,,,,,,
1644853396.642718,19.000000,0.000000,4246.922852,4247.179688,4251.282227,4253.077148,4233.333496,4219.102539,4226.410156,4227.179688,4224.871582,4225.128418,4236.282227,4234.358887,4156.922852,4241.282227,3152.000000,4.000000,86.000000,,,,0.000000,4.000000,4.000000,4.000000,4.000000,4.000000,4.000000,4.000000,4.000000,4.000000,4.000000,4.000000,4.000000,4.000000,4.000000,100.000000,,,,,,,,,,,,,,,,
1644853396.646658,20.000000,0.000000,4243.846191,4245.384766,4250.128418,4245.897461,4229.487305,4217.948730,4221.666504,4222.563965,4219.871582,4219.871582,4239.871582,4231.538574,4155.641113,4243.717773,3464.000000,4.000000,86.000000,,,,0.000000,4.000000,4.000000,4.000000,4.000000,4.000000,4.000000,4.000000,4.000000,4.000000,4.000000,4.000000,4.000000,4.000000,4.000000,100.000000,,,,,,,,,,,,,,,,
1644853396.650599,21.000000,0.000000,4241.153809,4241.153809,4245.641113,4237.307617,4220.384766,4214.743652,4216.153809,4215.897461,4212.436035,4211.794922,4231.410156,4225.256348,4149.743652,4242.436035,3681.000000,4.000000,86.000000,,,,0.000000,4.000000,4.000000,4.000000,4.000000,4.000000,4.000000,4.000000,4.000000,4.000000,4.000000,4.000000,4.000000,4.000000,4.000000,100.000000,,,,,,,,,,,,,,,,
1644853396.654539,22.000000,0.000000,4240.000000,4236.282227,4239.487305,4233.205078,4212.820313,4210.897461,4213.205078,4210.384766,4206.922852,4205.256348,4215.769043,4218.333496,4144.102539,4239.743652,3435.000000,4.000000,86.000000,,,,0.000000,4.000000,4.000000,4.000000,4.000000,4.000000,4.000000,4.000000,4.000000,4.000000,4.000000,4.000000,4.000000,4.000000,4.000000,100.000000,,,,,,,,,,,,,,,,
1644853396.658479,23.000000,0.000000,4240.256348,4232.692383,4233.974121,4234.743652,4211.153809,4208.461426,4212.820313,4207.563965,4205.769043,4203.333496,4203.077148,4213.333496,4145.000000,4237.820313,3152.000000,4.000000,86.000000,,,,0.000000,4.000000,4.000000,4.000000,4.000000,4.000000,4.000000,4.000000,4.000000,4.000000,4.000000,4.000000,4.000000,4.000000,4.000000,100.000000,,,,,,,,,,,,,,,,
1644853396.662419,24.000000,0.000000,4240.641113,4231.794922,4231.025879,4237.307617,4213.461426,4208.717773,4213.333496,4207.948730,4207.948730,4206.410156,4200.769043,4211.282227,4153.717773,4236.538574,3464.000000,4.000000,86.000000,,,,0.000000,4.000000,4.000000,4.000000,4.000000,4.000000,4.000000,4.000000,4.000000,4.000000,4.000000,4.000000,4.000000,4.000000,4.000000,100.000000,,,,,,,,,,,,,,,,
1644853396.666359,25.000000,0.000000,4240.000000,4232.692383,4231.025879,4234.487305,4214.487305,4211.153809,4214.358887,4211.153809,4211.025879,4212.436035,4207.307617,4211.410156,4165.384766,4234.615234,3681.000000,4.000000,86.000000,,,,0.000000,4.000000,4.000000,4.000000,4.000000,4.000000,4.000000,4.000000,4.000000,4.000000,4.000000,4.000000,4.000000,4.000000,4.000000,100.000000,,,,,,,,,,,,,,,,
1644853396.670399,26.000000,0.000000,4237.563965,4233.461426,4232.692383,4224.615234,4210.897461,4214.102539,4216.410156,4215.641113,4212.820313,4217.563965,4214.743652,4211.922852,4171.666504,4230.769043,3435.000000,4.000000,86.000000,,,,0.000000,4.000000,4.000000,4.000000,4.000000,4.000000,4.000000,4.000000,4.000000,4.000000,4.000000,4.000000,4.000000,4.000000,4.000000,100.000000,,,,,,,,,,,,,,,,
1644853396.674339,27.000000,0.000000,4233.846191,4232.051270,4233.846191,4212.692383,4204.487305,4215.641113,4219.230957,4219.102539,4213.333496,4219.487305,4217.051270,4212.051270,4167.820313,4226.794922,3152.000000,4.000000,86.000000,,,,0.000000,4.000000,4.000000,4.000000,4.000000,4.000000,4.000000,4.000000,4.000000,4.000000,4.000000,4.000000,4.000000,4.000000,4.000000,100.000000,,,,,,,,,,,,,,,,
1644853396.678279,28.000000,0.000000,4230.897461,4229.487305,4232.820313,4206.538574,4200.641113,4215.000000,4221.282227,4219.615234,4213.333496,4218.974121,4215.512695,4211.922852,4157.179688,4226.025879,3464.000000,4.000000,86.000000,,,,0.000000,4.000000,4.000000,4.000000,4.000000,4.000000,4.000000,4.000000,4.000000,4.000000,4.000000,4.000000,4.000000,4.000000,4.000000,100.000000,,,,,,,,,,,,,,,,
1644853396.682219,29.000000,0.000000,4229.743652,4227.820313,4229.871582,4210.769043,4203.205078,4213.461426,4221.153809,4217.436035,4213.717773,4218.846191,4215.641113,4212.563965,4147.948730,4230.769043,3681.000000,4.000000,86.000000,,,,0.000000,4.000000,4.000000,4.000000,4.000000,4.000000,4.000000,4.000000,4.000000,4.000000,4.000000,4.000000,4.000000,4.000000,4.000000,100.000000,,,,,,,,,,,,,,,,
1644853396.686259,30.000000,0.000000,4230.000000,4228.974121,4227.051270,4222.179688,4211.282227,4212.692383,4220.384766,4214.743652,4214.358887,4221.410156,4220.384766,4213.589844,4147.692383,4238.846191,3435.000000,4.000000,86.000000,,,,0.000000,4.000000,4.000000,4.000000,4.000000,4.000000,4.000000,4.000000,4.000000,4.000000,4.000000,4.000000,4.000000,4.000000,4.000000,100.000000,,,,,,,,,,,,,,,,
1644853396.690199,31.000000,0.000000,4230.897461,4232.179688,4227.179688,4232.563965,4220.897461,4214.230957,4221.410156,4213.846191,4214.871582,4225.641113,4226.282227,4214.615234,4156.538574,4244.871582,3152.000000,4.000000,86.000000,,,,0.000000,4.000000,4.000000,4.000000,4.000000,4.000000,4.000000,4.000000,4.000000,4.000000,4.000000,4.000000,4.000000,4.000000,4.000000,100.000000,,,,,,,,,,,,,,,,
1644853396.694140,32.000000,0.000000,4232.563965,4235.128418,4231.153809,4235.897461,4227.820313,4217.948730,4224.487305,4215.897461,4215.128418,4228.717773,4228.333496,4215.769043,4168.333496,4244.871582,0.000000,4.000000,86.000000,,,,0.000000,4.000000,4.000000,4.000000,4.000000,4.000000,4.000000,4.000000,4.000000,4.000000,4.000000,4.000000,4.000000,4.000000,4.000000,100.000000,,,,,,,,,,,,,,,,
1644853396.698080,33.000000,0.000000,4236.538574,4236.666504,4237.307617,4232.820313,4230.000000,4221.922852,4227.179688,4219.358887,4216.025879,4228.205078,4225.256348,4218.077148,4175.897461,4239.102539,0.000000,4.000000,86.000000,,,,0.000000,4.000000,4.000000,4.000000,4.000000,4.000000,4.000000,4.000000,4.000000,4.000000,4.000000,4.000000,4.000000,4.000000,4.000000,100.000000,,,,,,,,,,,,,,,,
1644853396.702020,34.000000,0.000000,4242.436035,4237.307617,4242.307617,4228.974121,4228.077148,4223.974121,4226.794922,4221.410156,4217.692383,4224.487305,4221.538574,4221.794922,4177.307617,4231.538574,0.000000,4.000000,86.000000,,,,0.000000,4.000000,4.000000,4.000000,4.000000,4.000000,4.000000,4.000000,4.000000,4.000000,4.000000,4.000000,4.000000,4.000000,4.000000,100.000000,,,,,,,,,,,,,,,,
1644853396.705960,35.000000,0.000000,4247.563965,4238.461426,4243.589844,4228.846191,4223.717773,4223.077148,4223.717773,4221.025879,4219.615234,4220.256348,4222.051270,4226.025879,4175.897461,4226.538574,0.000000,4.000000,86.000000,,,,0.000000,4.000000,4.000000,4.000000,4.000000,4.000000,4.000000,4.000000,4.000000,4.000000,4.000000,4.000000,4.000000,4.000000,4.000000,100.000000,,,,,,,,,,,,,,,,
1644853396.709900,36.000000,0.000000,4248.589844,4240.897461,4241.538574,4231.410156,4218.846191,4220.000000,4221.538574,4219.102539,4220.512695,4218.974121,4227.307617,4228.717773,4176.282227,4226.410156,0.000000,4.000000,86.000000,,,,0.000000,4.000000,4.000000,4.000000,4.000000,4.000000,4.000000,4.000000,4.000000,4.000000,4.000000,4.000000,4.000000,4.000000,4.000000,100.000000,,,,,,,,,,,,,,,,
1644853396.713840,37.000000,0.000000,4245.000000,4244.230957,4238.077148,4233.205078,4214.743652,4217.179688,4222.563965,4218.205078,4220.256348,4222.563965,4232.692383,4228.846191,4179.230957,4231.025879,0.000000,4.000000,86.000000,,,,0.000000,4.000000,4.000000,4.000000,4.000000,4.000000,4.000000,4.000000,4.000000,4.000000,4.000000,4.000000,4.000000,4.000000,4.000000,100.000000,,,,,,,,,,,,,,,,
1644853396.717780,38.000000,0.000000,4239.487305,4246.538574,4235.641113,4231.153809,4212.692383,4216.666504,4225.512695,4220.000000,4220.000000,4229.743652,4232.948730,4226.025879,4180.897461,4238.589844,0.000000,4.000000,86.000000,,,,0.000000,4.000000,4.000000,4.000000,4.000000,4.000000,4.000000,4.000000,4.000000,4.000000,4.000000,4.000000,4.000000,4.000000,4.000000,100.000000,,,,,,,,,,,,,,,,
1644853396.721720,39.000000,0.000000,4235.641113,4245.769043,4235.128418,4225.384766,4213.846191,4218.717773,4227.051270,4223.333496,4220.512695,4236.153809,4227.436035,4221.794922,4176.538574,4246.538574,0.000000,4.000000,86.000000,,,,0.000000,4.000000,4.000000,4.000000,4.000000,4.000000,4.000000,4.000000,4.000000,4.000000,4.000000,4.000000,4.000000,4.000000,4.000000,100.000000,,,,,,,,,,,,,,,,
1644853396.725660,40.000000,0.000000,4235.256348,4241.410156,4236.025879,4218.333496,4217.692383,4221.538574,4225.384766,4225.512695,4221.282227,4237.051270,4220.769043,4217.692383,4166.025879,4251.410156,0.000000,4.000000,86.000000,,,,0.000000,4.000000,4.000000,4.000000,4.000000,4.000000,4.000000,4.000000,4.000000,4.000000,4.000000,4.000000,4.000000,4.000000,4.000000,100.000000,,,,,,,,,,,,,,,,
1644853396.729600,41.000000,0.000000,4236.794922,4235.128418,4236.666504,4212.436035,4221.282227,4222.692383,4221.922852,4224.358887,4221.025879,4231.282227,4218.461426,4215.384766,4154.358887,4251.153809,0.000000,4.000000,86.000000,,,,0.000000,4.000000,4.000000,4.000000,4.000000,4.000000,4.000000,4.000000,4.000000,4.000000,4.000000,4.000000,4.000000,4.000000,4.000000,100.000000,,,,,,,,,,,,,,,,
1644853396.733541,42.000000,0.000000,4237.179688,4229.230957,4236.025879,4208.974121,4221.025879,4221.282227,4218.589844,4220.128418,4218.846191,4222.948730,4221.922852,4215.256348,4149.102539,4245.897461,0.000000,4.000000,86.000000,,,,0.000000,4.000000,4.000000,4.000000,4.000000,4.000000,4.000000,4.000000,4.000000,4.000000,4.000000,4.000000,4.000000,4.000000,4.000000,100.000000,,,,,,,,,,,,,,,,
1644853396.737481,43.000000,0.000000,4235.000000,4225.512695,4233.974121,4207.307617,4216.153809,4218.205078,4216.282227,4215.000000,4215.769043,4217.563965,4226.666504,4216.410156,4153.974121,4238.589844,0.000000,4.000000,86.000000,,,,0.000000,4.000000,4.000000,4.000000,4.000000,4.000000,4.000000,4.000000,4.000000,4.000000,4.000000,4.000000,4.000000,4.000000,4.000000,100.000000,,,,,,,,,,,,,,,,
1644853396.741421,44.000000,0.000000,4231.025879,4224.230957,4231.410156,4206.666504,4209.615234,4215.512695,4214.615234,4211.282227,4212.948730,4217.820313,4227.307617,4217.051270,4165.641113,4233.333496,0.000000,4.000000,86.000000,1,1,1,0.000000,4.000000,4.000000,4.000000,4.000000,4.000000,4.000000,4.000000,4.000000,4.000000,4.000000,4.000000,4.000000,4.000000,4.000000,100.000000,,,,,,,,,,,,,,,,
1644853396.745361,45.000000,0.000000,4228.461426,4225.000000,4229.871582,4207.948730,4205.641113,4214.743652,4213.974121,4209.871582,4211.410156,4220.641113,4221.794922,4215.641113,4176.538574,4232.563965,0.000000,4.000000,86.000000,,,,0.000000,4.000000,4.000000,4.000000,4.000000,4.000000,4.000000,4.000000,4.000000,4.000000,4.000000,4.000000,4.000000,4.000000,4.000000,100.000000,,,,,,,,,,,,,,,,
1644853396.749301,46.000000,0.000000,4229.615234,4226.666504,4230.512695,4212.436035,4206.794922,4215.256348,4215.256348,4210.641113,4210.384766,4221.282227,4213.717773,4211.922852,4179.871582,4235.641113,0.000000,4.000000,86.000000,,,,0.000000,4.000000,4.000000,4.000000,4.000000,4.000000,4.000000,4.000000,4.000000,4.000000,4.000000,4.000000,4.000000,4.000000,4.000000,100.000000,,,,,,,,,,,,,,,,
1644853396.753241,47.000000,0.000000,4234.102539,4228.077148,4232.948730,4219.487305,4212.051270,4216.025879,4217.692383,4212.307617,4208.974121,4216.666504,4208.205078,4207.563965,4174.230957,4239.230957,0.000000,4.000000,86.000000,,,,0.000000,4.000000,4.000000,4.000000,4.000000,4.000000,4.000000,4.000000,4.000000,4.000000,4.000000,4.000000,4.000000,4.000000,4.000000,100.000000,,,,,,,,,,,,,,,,
1644853396.757281,48.000000,0.000000,4238.974121,4228.461426,4234.871582,4225.512695,4217.436035,4216.410156,4219.230957,4213.205078,4206.666504,4208.589844,4207.307617,4205.128418,4163.205078,4239.871582,0.000000,4.000000,86.000000,,,,0.000000,4.000000,4.000000,4.000000,4.000000,4.000000,4.000000,4.000000,4.000000,4.000000,4.000000,4.000000,4.000000,4.000000,4.000000,100.000000,,,,,,,,,,,,,,,,
1644853396.761221,49.000000,0.000000,4240.897461,4227.820313,4234.102539,4225.769043,4219.102539,4216.538574,4218.461426,4212.179688,4204.487305,4202.179688,4208.974121,4205.641113,4152.051270,4235.897461,0.000000,4.000000,86.000000,,,,0.000000,4.000000,4.000000,4.000000,4.000000,4.000000,4.000000,4.000000,4.000000,4.000000,4.000000,4.000000,4.000000,4.000000,4.000000,100.000000,,,,,,,,,,,,,,,,
1644853396.765161,50.000000,0.000000,4238.077148,4226.153809,4230.769043,4219.230957,4216.410156,4217.051270,4216.666504,4210.256348,4203.974121,4201.410156,4209.871582,4208.461426,4143.717773,4228.846191,0.000000,4.000000,86.000000,,,,0.000000,4.000000,4.000000,4.000000,4.000000,4.000000,4.000000,4.000000,4.000000,4.000000,4.000000,4.000000,4.000000,4.000000,4.000000,100.000000,1.000000,75.000000,4.000000,4.000000,4.000000,4.000000,4.000000,4.000000,1.000000,4.000000,4.000000,4.000000,4.000000,4.000000,4.000000,4.000000
1644853396.769101,51.000000,0.000000,4232.179688,4224.487305,4227.436035,4209.487305,4212.307617,4218.333496,4216.922852,4209.871582,4205.641113,4206.025879,4209.230957,4211.282227,4138.077148,4221.666504,0.000000,4.000000,86.000000,,,,0.000000,4.000000,4.000000,4.000000,4.000000,4.000000,4.000000,4.000000,4.000000,4.000000,4.000000,4.000000,4.000000,4.000000,4.000000,100.000000,,,,,,,,,,,,,,,,
1644853396.773042,52.000000,0.000000,4226.794922,4223.846191,4226.666504,4202.692383,4210.641113,4219.615234,4219.615234,4211.922852,4208.333496,4211.666504,4208.205078,4212.307617,4134.102539,4217.563965,0.000000,4.000000,86.000000,,,,0.000000,4.000000,4.000000,4.000000,4.000000,4.000000,4.000000,4.000000,4.000000,4.000000,4.000000,4.000000,4.000000,4.000000,4.000000,100.000000,,,,,,,,,,,,,,,,
1644853396.776982,53.000000,0.000000,4224.615234,4224.743652,4228.077148,4202.820313,4213.077148,4220.000000,4222.051270,4214.871582,4210.128418,4212.820313,4207.692383,4210.256348,4132.051270,4217.307617,0.000000,4.000000,86.000000,,,,0.000000,4.000000,4.000000,4.000000,4.000000,4.000000,4.000000,4.000000,4.000000,4.000000,4.000000,4.000000,4.000000,4.000000,4.000000,100.000000,,,,,,,,,,,,,,,,
1644853396.780922,54.000000,0.000000,4224.871582,4226.666504,4229.615234,4209.102539,4217.948730,4218.974121,4221.153809,4215.769043,4209.871582,4207.563965,4206.410156,4205.897461,4133.461426,4220.384766,0.000000,4.000000,86.000000,,,,0.000000,4.000000,4.000000,4.000000,4.000000,4.000000,4.000000,4.000000,4.000000,4.000000,4.000000,4.000000,4.000000,4.000000,4.000000,100.000000,,,,,,,,,,,,,,,,
1644853396.784862,55.000000,0.000000,4225.000000,4227.692383,4229.358887,4216.794922,4221.538574,4217.179688,4217.436035,4213.205078,4207.948730,4198.589844,4202.179688,4201.410156,4137.692383,4226.153809,0.000000,4.000000,86.000000,,,,0.000000,4.000000,4.000000,4.000000,4.000000,4.000000,4.000000,4.000000,4.000000,4.000000,4.000000,4.000000,4.000000,4.000000,4.000000,100.000000,,,,,,,,,,,,,,,,
1644853396.788802,56.000000,0.000000,4223.974121,4225.641113,4226.922852,4221.410156,4221.666504,4216.153809,4214.487305,4209.102539,4205.641113,4190.769043,4195.384766,4198.589844,4142.436035,4233.205078,0.000000,4.000000,86.000000,,,,0.000000,4.000000,4.000000,4.000000,4.000000,4.000000,4.000000,4.000000,4.000000,4.000000,4.000000,4.000000,4.000000,4.000000,4.000000,100.000000,,,,,,,,,,,,,,,,
1644853396.792742,57.000000,0.000000,4223.205078,4220.256348,4222.948730,4221.410156,4218.333496,4216.666504,4215.000000,4206.410156,4203.717773,4187.948730,4189.358887,4197.563965,4144.615234,4238.717773,0.000000,4.000000,86.000000,,,,0.000000,4.000000,4.000000,4.000000,4.000000,4.000000,4.000000,4.000000,4.000000,4.000000,4.000000,4.000000,4.000000,4.000000,4.000000,100.000000,,,,,,,,,,,,,,,,
1644853396.796682,58.000000,0.000000,4225.256348,4214.358887,4218.974121,4218.333496,4213.974121,4217.948730,4217.948730,4206.538574,4202.948730,4190.769043,4188.589844,4197.307617,4143.589844,4239.615234,0.000000,4.000000,86.000000,,,,0.000000,4.000000,4.000000,4.000000,4.000000,4.000000,4.000000,4.000000,4.000000,4.000000,4.000000,4.000000,4.000000,4.000000,4.000000,100.000000,,,,,,,,,,,,,,,,
1644853396.800622,59.000000,0.000000,4230.128418,4211.794922,4216.282227,4214.871582,4211.282227,4218.461426,4219.487305,4208.846191,4203.461426,4197.179688,4194.230957,4196.794922,4141.153809,4234.102539,0.000000,4.000000,86.000000,,,,0.000000,4.000000,4.000000,4.000000,4.000000,4.000000,4.000000,4.000000,4.000000,4.000000,4.000000,4.000000,4.000000,4.000000,4.000000,100.000000,,,,,,,,,,,,,,,,
1644853396.804462,60.000000,0.000000,4234.487305,4215.128418,4215.512695,4212.948730,4211.410156,4217.307617,4218.077148,4211.922852,4205.000000,4204.871582,4203.205078,4197.051270,4139.358887,4224.487305,0.000000,4.000000,86.000000,,,,0.000000,4.000000,4.000000,4.000000,4.000000,4.000000,4.000000,4.000000,4.000000,4.000000,4.000000,4.000000,4.000000,4.000000,4.000000,100.000000,,,,,,,,,,,,,,,,
1644853396.808403,61.000000,0.000000,4234.487305,4222.692383,4215.897461,4213.461426,4213.461426,4214.743652,4216.025879,4214.743652,4206.922852,4211.410156,4210.000000,4199.358887,4138.333496,4215.641113,0.000000,4.000000,86.000000,,,,0.000000,4.000000,4.000000,4.000000,4.000000,4.000000,4.000000,4.000000,4.000000,4.000000,4.000000,4.000000,4.000000,4.000000,4.000000,100.000000,,,,,,,,,,,,,,,,
1644853396.812343,62.000000,0.000000,4228.589844,4230.128418,4217.051270,4216.025879,4215.512695,4212.692383,4215.769043,4215.897461,4208.205078,4214.743652,4211.025879,4203.333496,4136.538574,4212.692383,0.000000,4.000000,86.000000,,,,0.000000,4.000000,4.000000,4.000000,4.000000,4.000000,4.000000,4.000000,4.000000,4.000000,4.000000,4.000000,4.000000,4.000000,4.000000,100.000000,,,,,,,,,,,,,,,,
1644853396.816283,63.000000,0.000000,4220.769043,4233.077148,4219.102539,4218.846191,4216.794922,4212.051270,4217.692383,4215.000000,4208.461426,4214.102539,4207.179688,4207.307617,4134.230957,4217.307617,0.000000,4.000000,86.000000,,,,0.000000,4.000000,4.000000,4.000000,4.000000,4.000000,4.000000,4.000000,4.000000,4.000000,4.000000,4.000000,4.000000,4.000000,4.000000,100.000000,,,,,,,,,,,,,,,,
1644853396.820223,64.000000,0.000000,4216.282227,4230.512695,4221.794922,4220.000000,4216.538574,4213.333496,4219.871582,4212.692383,4208.333496,4211.153809,4203.077148,4208.974121,4133.461426,4227.051270,0.000000,4.000000,86.000000,,,,0.000000,4.000000,4.000000,4.000000,4.000000,4.000000,4.000000,4.000000,4.000000,4.000000,4.000000,4.000000,4.000000,4.000000,4.000000,100.000000,,,,,,,,,,,,,,,,
1644853396.824163,65.000000,0.000000,4217.692383,4224.358887,4225.000000,4218.717773,4215.128418,4215.256348,4221.153809,4211.410156,4209.230957,4209.102539,4202.051270,4207.179688,4136.410156,4235.769043,0.000000,4.000000,86.000000,,,,0.000000,4.000000,4.000000,4.000000,4.000000,4.000000,4.000000,4.000000,4.000000,4.000000,4.000000,4.000000,4.000000,4.000000,4.000000,100.000000,,,,,,,,,,,,,,,,
1644853396.828003,66.000000,0.000000,4221.922852,4218.333496,4227.948730,4215.256348,4213.333496,4216.922852,4222.563965,4212.563965,4211.282227,4209.743652,4204.615234,4203.205078,4142.307617,4237.820313,0.000000,4.000000,86.000000,,,,0.000000,4.000000,4.000000,4.000000,4.000000,4.000000,4.000000,4.000000,4.000000,4.000000,4.000000,4.000000,4.000000,4.000000,4.000000,100.000000,,,,,,,,,,,,,,,,
1644853396.831943,67.000000,0.000000,4224.358887,4216.025879,4229.615234,4211.025879,4212.179688,4217.563965,4224.358887,4215.641113,4213.717773,4212.436035,4209.102539,4199.871582,4147.692383,4231.666504,0.000000,4.000000,86.000000,,,,0.000000,4.000000,4.000000,4.000000,4.000000,4.000000,4.000000,4.000000,4.000000,4.000000,4.000000,4.000000,4.000000,4.000000,4.000000,100.000000,,,,,,,,,,,,,,,,
1644853396.835883,68.000000,0.000000,4223.461426,4219.230957,4229.358887,4207.948730,4212.563965,4217.051270,4225.256348,4218.333496,4215.000000,4215.897461,4213.717773,4199.358887,4150.000000,4221.538574,0.000000,4.000000,86.000000,,,,0.000000,4.000000,4.000000,4.000000,4.000000,4.000000,4.000000,4.000000,4.000000,4.000000,4.000000,4.000000,4.000000,4.000000,4.000000,100.000000,,,,,,,,,,,,,,,,
1644853396.839923,69.000000,0.000000,4222.563965,4226.922852,4227.820313,4207.563965,4213.974121,4215.641113,4223.461426,4218.717773,4215.000000,4218.846191,4217.563965,4201.666504,4150.256348,4215.641113,0.000000,4.000000,86.000000,,,,0.000000,4.000000,4.000000,4.000000,4.000000,4.000000,4.000000,4.000000,4.000000,4.000000,4.000000,4.000000,4.000000,4.000000,4.000000,100.000000,,,,,,,,,,,,,,,,
1644853396.843864,70.000000,0.000000,4226.538574,4235.256348,4226.666504,4209.871582,4215.641113,4214.230957,4219.358887,4216.922852,4214.487305,4221.538574,4219.871582,4205.256348,4152.179688,4219.102539,0.000000,4.000000,86.000000,,,,0.000000,4.000000,4.000000,4.000000,4.000000,4.000000,4.000000,4.000000,4.000000,4.000000,4.000000,4.000000,4.000000,4.000000,4.000000,100.000000,,,,,,,,,,,,,,,,
1644853396.847804,71.000000,0.000000,4236.282227,4239.743652,4227.563965,4213.974121,4216.666504,4213.461426,4216.410156,4215.512695,4214.615234,4223.846191,4220.000000,4208.077148,4157.051270,4230.512695,0.000000,4.000000,86.000000,,,,0.000000,4.000000,4.000000,4.000000,4.000000,4.000000,4.000000,4.000000,4.000000,4.000000,4.000000,4.000000,4.000000,4.000000,4.000000,100.000000,,,,,,,,,,,,,,,,
1644853396.851744,72.000000,0.000000,4246.538574,4239.102539,4230.641113,4218.589844,4217.563965,4213.846191,4217.563965,4216.025879,4216.153809,4226.410156,4218.461426,4209.615234,4162.692383,4242.692383,0.000000,4.000000,86.000000,,,,0.000000,4.000000,4.000000,4.000000,4.000000,4.000000,4.000000,4.000000,4.000000,4.000000,4.000000,4.000000,4.000000,4.000000,4.000000,100.000000,,,,,,,,,,,,,,,,
1644853396.855684,73.000000,0.000000,4250.128418,4236.282227,4234.487305,4222.948730,4219.358887,4215.641113,4222.051270,4218.846191,4219.358887,4229.102539,4216.538574,4210.769043,4165.769043,4247.436035,0.000000,4.000000,86.000000,,,,0.000000,4.000000,4.000000,4.000000,4.000000,4.000000,4.000000,4.000000,4.000000,4.000000,4.000000,4.000000,4.000000,4.000000,4.000000,100.000000,,,,,,,,,,,,,,,,
1644853396.859624,74.000000,0.000000,4243.974121,4234.871582,4236.922852,4226.282227,4223.205078,4218.333496,4226.538574,4222.307617,4223.461426,4230.384766,4215.512695,4213.333496,4165.000000,4242.563965,0.000000,4.000000,86.000000,,,,0.000000,4.000000,4.000000,4.000000,4.000000,4.000000,4.000000,4.000000,4.000000,4.000000,4.000000,4.000000,4.000000,4.000000,4.000000,100.000000,,,,,,,,,,,,,,,,
1644853396.863564,75.000000,0.000000,4232.179688,4235.128418,4236.410156,4226.922852,4229.102539,4220.769043,4227.948730,4224.871582,4226.410156,4228.461426,4215.000000,4217.692383,4162.307617,4233.205078,0.000000,4.000000,86.000000,,,,0.000000,4.000000,4.000000,4.000000,4.000000,4.000000,4.000000,4.000000,4.000000,4.000000,4.000000,4.000000,4.000000,4.000000,4.000000,100.000000,,,,,,,,,,,,,,,,
1644853396.867504,76.000000,0.000000,4222.307617,4234.358887,4233.077148,4224.615234,4234.871582,4222.051270,4226.794922,4225.384766,4226.025879,4222.563965,4214.102539,4221.282227,4160.641113,4227.436035,0.000000,4.000000,86.000000,2,1,1,0.000000,4.000000,4.000000,4.000000,4.000000,4.000000,4.000000,4.000000,4.000000,4.000000,4.000000,4.000000,4.000000,4.000000,4.000000,100.000000,,,,,,,,,,,,,,,,
1644853396.871444,77.000000,0.000000,4219.358887,4230.128418,4228.589844,4220.897461,4237.179688,4221.410156,4225.256348,4223.717773,4221.666504,4215.384766,4212.179688,4221.282227,4161.153809,4229.743652,0.000000,4.000000,86.000000,,,,0.000000,4.000000,4.000000,4.000000,4.000000,4.000000,4.000000,4.000000,4.000000,4.000000,4.000000,4.000000,4.000000,4.000000,4.000000,100.000000,,,,,,,,,,,,,,,,
1644853396.875384,78.000000,0.000000,4223.333496,4223.717773,4225.256348,4218.717773,4234.230957,4219.487305,4224.487305,4220.384766,4215.384766,4211.410156,4211.025879,4216.922852,4162.692383,4238.333496,0.000000,4.000000,86.000000,,,,0.000000,4.000000,4.000000,4.000000,4.000000,4.000000,4.000000,4.000000,4.000000,4.000000,4.000000,4.000000,4.000000,4.000000,4.000000,100.000000,,,,,,,,,,,,,,,,
1644853396.879225,79.000000,0.000000,4230.000000,4218.846191,4223.717773,4219.487305,4227.692383,4217.563965,4223.589844,4216.538574,4210.769043,4213.205078,4212.051270,4210.897461,4162.436035,4246.666504,0.000000,4.000000,86.000000,,,,0.000000,4.000000,4.000000,4.000000,4.000000,4.000000,4.000000,4.000000,4.000000,4.000000,4.000000,4.000000,4.000000,4.000000,4.000000,100.000000,,,,,,,,,,,,,,,,
1644853396.883165,80.000000,0.000000,4235.128418,4219.487305,4223.589844,4221.666504,4221.410156,4216.410156,4221.794922,4213.717773,4210.384766,4218.974121,4215.256348,4206.666504,4159.358887,4249.230957,0.000000,4.000000,86.000000,,,,0.000000,4.000000,4.000000,4.000000,4.000000,4.000000,4.000000,4.000000,4.000000,4.000000,4.000000,4.000000,4.000000,4.000000,4.000000,100.000000,,,,,,,,,,,,,,,,
1644853396.887105,81.000000,0.000000,4237.051270,4225.641113,4225.000000,4223.077148,4218.717773,4216.538574,4220.641113,4213.333496,4213.717773,4223.205078,4218.077148,4206.666504,4155.641113,4245.512695,0.000000,4.000000,86.000000,,,,0.000000,4.000000,4.000000,4.000000,4.000000,4.000000,4.000000,4.000000,4.000000,4.000000,4.000000,4.000000,4.000000,4.000000,4.000000,100.000000,,,,,,,,,,,,,,,,
1644853396.891045,82.000000,0.000000,4235.641113,4234.487305,4227.820313,4222.948730,4219.871582,4217.692383,4222.051270,4215.769043,4218.717773,4221.922852,4218.589844,4210.641113,4154.743652,4239.230957,0.000000,4.000000,86.000000,,,,0.000000,4.000000,4.000000,4.000000,4.000000,4.000000,4.000000,4.000000,4.000000,4.000000,4.000000,4.000000,4.000000,4.000000,4.000000,100.000000,,,,,,,,,,,,,,,,
1644853396.894985,83.000000,0.000000,4232.692383,4241.666504,4231.666504,4222.692383,4222.948730,4219.230957,4225.769043,4219.871582,4222.948730,4216.794922,4217.179688,4216.666504,4158.589844,4234.230957,0.000000,4.000000,86.000000,,,,0.000000,4.000000,4.000000,4.000000,4.000000,4.000000,4.000000,4.000000,4.000000,4.000000,4.000000,4.000000,4.000000,4.000000,4.000000,100.000000,,,,,,,,,,,,,,,,
1644853396.898925,84.000000,0.000000,4229.230957,4243.717773,4234.487305,4223.461426,4225.256348,4220.256348,4228.846191,4223.461426,4224.871582,4213.077148,4216.794922,4221.282227,4164.871582,4231.410156,0.000000,4.000000,86.000000,,,,0.000000,4.000000,4.000000,4.000000,4.000000,4.000000,4.000000,4.000000,4.000000,4.000000,4.000000,4.000000,4.000000,4.000000,4.000000,100.000000,,,,,,,,,,,,,,,,
1644853396.902865,85.000000,0.000000,4225.384766,4238.974121,4233.974121,4225.000000,4225.256348,4220.128418,4228.589844,4224.615234,4223.974121,4213.974121,4218.461426,4222.051270,4168.205078,4229.615234,0.000000,4.000000,86.000000,,,,0.000000,4.000000,4.000000,4.000000,4.000000,4.000000,4.000000,4.000000,4.000000,4.000000,4.000000,4.000000,4.000000,4.000000,4.000000,100.000000,,,,,,,,,,,,,,,,
1644853396.906805,86.000000,0.000000,4221.922852,4228.846191,4229.487305,4225.512695,4222.436035,4218.846191,4225.000000,4222.820313,4220.256348,4218.077148,4220.769043,4217.692383,4164.871582,4228.717773,0.000000,4.000000,86.000000,,,,0.000000,4.000000,4.000000,4.000000,4.000000,4.000000,4.000000,4.000000,4.000000,4.000000,4.000000,4.000000,4.000000,4.000000,4.000000,100.000000,,,,,,,,,,,,,,,,
1644853396.910745,87.000000,0.000000,4220.384766,4217.692383,4223.205078,4223.717773,4218.333496,4217.051270,4221.282227,4219.358887,4215.384766,4221.922852,4220.641113,4210.128418,4156.794922,4229.871582,0.000000,4.000000,86.000000,,,,0.000000,4.000000,4.000000,4.000000,4.000000,4.000000,4.000000,4.000000,4.000000,4.000000,4.000000,4.000000,4.000000,4.000000,4.000000,100.000000,,,,,,,,,,,,,,,,
1644853396.914686,88.000000,0.000000,4223.205078,4210.897461,4218.974121,4219.871582,4214.871582,4215.897461,4219.487305,4216.282227,4212.179688,4223.461426,4216.794922,4203.461426,4149.871582,4233.205078,0.000000,4.000000,86.000000,,,,0.000000,4.000000,4.000000,4.000000,4.000000,4.000000,4.000000,4.000000,4.000000,4.000000,4.000000,4.000000,4.000000,4.000000,4.000000,100.000000,,,,,,,,,,,,,,,,
1644853396.918626,89.000000,0.000000,4229.871582,4211.410156,4218.846191,4216.410156,4214.358887,4215.897461,4219.615234,4214.487305,4212.051270,4222.692383,4211.153809,4200.641113,4148.589844,4236.538574,0.000000,4.000000,86.000000,,,,0.000000,4.000000,4.000000,4.000000,4.000000,4.000000,4.000000,4.000000,4.000000,4.000000,4.000000,4.000000,4.000000,4.000000,4.000000,100.000000,,,,,,,,,,,,,,,,
1644853396.922566,90.000000,0.000000,4236.794922,4217.820313,4222.692383,4216.153809,4216.666504,4216.538574,4220.256348,4214.102539,4213.974121,4220.897461,4207.692383,4202.307617,4152.179688,4238.333496,0.000000,4.000000,86.000000,,,,0.000000,4.000000,4.000000,4.000000,4.000000,4.000000,4.000000,4.000000,4.000000,4.000000,4.000000,4.000000,4.000000,4.000000,4.000000,100.000000,,,,,,,,,,,,,,,,
1644853396.926506,91.000000,0.000000,4238.974121,4225.641113,4228.077148,4221.153809,4220.128418,4216.922852,4220.769043,4214.871582,4215.512695,4218.205078,4208.461426,4205.769043,4156.282227,4238.589844,0.000000,4.000000,86.000000,,,,0.000000,4.000000,4.000000,4.000000,4.000000,4.000000,4.000000,4.000000,4.000000,4.000000,4.000000,4.000000,4.000000,4.000000,4.000000,100.000000,,,,,,,,,,,,,,,,
1644853396.930446,92.000000,0.000000,4235.384766,4230.769043,4232.692383,4229.230957,4222.307617,4216.538574,4222.051270,4216.153809,4214.871582,4214.358887,4212.436035,4207.563965,4157.307617,4238.333496,0.000000,4.000000,86.000000,,,,0.000000,4.000000,4.000000,4.000000,4.000000,4.000000,4.000000,4.000000,4.000000,4.000000,4.000000,4.000000,4.000000,4.000000,4.000000,100.000000,,,,,,,,,,,,,,,,
1644853396.934386,93.000000,0.000000,4230.641113,4232.436035,4235.256348,4236.410156,4221.922852,4215.641113,4224.102539,4217.948730,4212.820313,4210.128418,4216.410156,4205.897461,4155.512695,4237.692383,0.000000,4.000000,86.000000,,,,0.000000,4.000000,4.000000,4.000000,4.000000,4.000000,4.000000,4.000000,4.000000,4.000000,4.000000,4.000000,4.000000,4.000000,4.000000,100.000000,,,,,,,,,,,,,,,,
1644853396.938326,94.000000,0.000000,4230.641113,4232.692383,4236.282227,4239.743652,4220.384766,4215.000000,4224.871582,4219.743652,4212.051270,4208.205078,4217.436035,4201.794922,4154.230957,4236.153809,0.000000,4.000000,86.000000,,,,0.000000,4.000000,4.000000,4.000000,4.000000,4.000000,4.000000,4.000000,4.000000,4.000000,4.000000,4.000000,4.000000,4.000000,4.000000,100.000000,,,,,,,,,,,,,,,,
1644853396.942266,95.000000,0.000000,4237.051270,4234.358887,4236.666504,4239.743652,4219.743652,4215.256348,4223.461426,4220.769043,4214.743652,4211.538574,4216.153809,4198.846191,4155.641113,4234.743652,0.000000,4.000000,86.000000,,,,0.000000,4.000000,4.000000,4.000000,4.000000,4.000000,4.000000,4.000000,4.000000,4.000000,4.000000,4.000000,4.000000,4.000000,4.000000,100.000000,,,,,,,,,,,,,,,,
1644853396.946206,96.000000,0.000000,4245.512695,4238.589844,4237.179688,4240.256348,4220.512695,4216.025879,4221.025879,4220.769043,4220.000000,4220.128418,4215.128418,4199.615234,4158.589844,4235.256348,0.000000,4.000000,86.000000,,,,0.000000,4.000000,4.000000,4.000000,4.000000,4.000000,4.000000,4.000000,4.000000,4.000000,4.000000,4.000000,4.000000,4.000000,4.000000,100.000000,,,,,,,,,,,,,,,,
1644853396.950047,97.000000,0.000000,4250.128418,4243.846191,4237.820313,4243.461426,4221.410156,4216.794922,4220.641113,4220.000000,4224.487305,4229.102539,4216.153809,4205.128418,4160.256348,4237.948730,0.000000,4.000000,86.000000,,,,0.000000,4.000000,4.000000,4.000000,4.000000,4.000000,4.000000,4.000000,4.000000,4.000000,4.000000,4.000000,4.000000,4.000000,4.000000,100.000000,,,,,,,,,,,,,,,,
1644853396.953987,98.000000,0.000000,4247.436035,4247.307617,4237.948730,4247.179688,4221.666504,4217.307617,4222.820313,4218.974121,4225.128418,4232.179688,4217.563965,4212.563965,4158.846191,4240.256348,0.000000,4.000000,86.000000,,,,0.000000,4.000000,4.000000,4.000000,4.000000,4.000000,4.000000,4.000000,4.000000,4.000000,4.000000,4.000000,4.000000,4.000000,4.000000,100.000000,,,,,,,,,,,,,,,,
1644853396.957927,99.000000,0.000000,4239.615234,4246.538574,4236.538574,4246.538574,4222.179688,4217.692383,4225.641113,4217.820313,4221.025879,4226.538574,4216.666504,4217.307617,4155.000000,4239.615234,0.000000,4.000000,86.000000,,,,0.000000,4.000000,4.000000,4.000000,4.000000,4.000000,4.000000,4.000000,4.000000,4.000000,4.000000,4.000000,4.000000,4.000000,4.000000,100.000000,,,,,,,,,,,,,,,,
1644853396.961867,100.000000,0.000000,4231.922852,4241.538574,4233.333496,4239.615234,4223.461426,4218.333496,4226.410156,4215.897461,4214.230957,4216.282227,4212.436035,4216.538574,4150.641113,4235.000000,0.000000,4.000000,86.000000,,,,0.000000,4.000000,4.000000,4.000000,4.000000,4.000000,4.000000,4.000000,4.000000,4.000000,4.000000,4.000000,4.000000,4.000000,4.000000,100.000000,,,,,,,,,,,,,,,,
1644853396.965807,101.000000,0.000000,4228.846191,4235.000000,4229.230957,4229.487305,4225.641113,4219.358887,4224.871582,4212.948730,4207.948730,4207.948730,4207.051270,4210.641113,4147.820313,4227.820313,0.000000,4.000000,86.000000,,,,0.000000,4.000000,4.000000,4.000000,4.000000,4.000000,4.000000,4.000000,4.000000,4.000000,4.000000,4.000000,4.000000,4.000000,4.000000,100.000000,,,,,,,,,,,,,,,,
1644853396.969747,102.000000,0.000000,4230.769043,4230.128418,4226.153809,4222.563965,4226.922852,4219.871582,4223.205078,4209.743652,4204.871582,4205.769043,4203.846191,4202.948730,4147.179688,4220.384766,0.000000,4.000000,86.000000,,,,0.000000,4.000000,4.000000,4.000000,4.000000,4.000000,4.000000,4.000000,4.000000,4.000000,4.000000,4.000000,4.000000,4.000000,4.000000,100.000000,,,,,,,,,,,,,,,,
1644853396.973787,103.000000,0.000000,4234.102539,4228.717773,4224.871582,4223.077148,4225.384766,4219.615234,4222.948730,4207.179688,4205.512695,4208.077148,4204.871582,4197.563965,4148.205078,4214.487305,0.000000,4.000000,86.000000,,,,0.000000,4.000000,4.000000,4.000000,4.000000,4.000000,4.000000,4.000000,4.000000,4.000000,4.000000,4.000000,4.000000,4.000000,4.000000,100.000000,,,,,,,,,,,,,,,,
1644853396.977727,104.000000,0.000000,4234.871582,4229.871582,4225.384766,4231.282227,4220.897461,4218.717773,4223.589844,4206.410156,4208.589844,4210.769043,4209.358887,4196.025879,4149.615234,4211.666504,0.000000,4.000000,86.000000,,,,0.000000,4.000000,4.000000,4.000000,4.000000,4.000000,4.000000,4.000000,4.000000,4.000000,4.000000,4.000000,4.000000,4.000000,4.000000,100.000000,,,,,,,,,,,,,,,,
1644853396.981667,105.000000,0.000000,4232.051270,4231.922852,4226.922852,4243.077148,4216.922852,4218.077148,4224.102539,4207.948730,4212.692383,4211.282227,4214.230957,4197.436035,4151.666504,4212.948730,0.000000,4.000000,86.000000,3,1,1,0.000000,4.000000,4.000000,4.000000,4.000000,4.000000,4.000000,4.000000,4.000000,4.000000,4.000000,4.000000,4.000000,4.000000,4.000000,100.000000,,,,,,,,,,,,,,,,
1644853396.985607,106.000000,0.000000,4228.333496,4233.077148,4228.333496,4253.077148,4216.922852,4218.717773,4224.487305,4211.794922,4217.051270,4210.769043,4216.922852,4199.743652,4154.230957,4217.948730,0.000000,4.000000,86.000000,,,,0.000000,4.000000,4.000000,4.000000,4.000000,4.000000,4.000000,4.000000,4.000000,4.000000,4.000000,4.000000,4.000000,4.000000,4.000000,100.000000,,,,,,,,,,,,,,,,
1644853396.989548,107.000000,0.000000,4227.051270,4232.692383,4228.589844,4256.282227,4221.025879,4220.000000,4226.025879,4216.666504,4221.025879,4212.051270,4216.666504,4201.538574,4157.179688,4225.256348,0.000000,4.000000,86.000000,,,,0.000000,4.000000,4.000000,4.000000,4.000000,4.000000,4.000000,4.000000,4.000000,4.000000,4.000000,4.000000,4.000000,4.000000,4.000000,100.000000,,,,,,,,,,,,,,,,
1644853396.993388,108.000000,0.000000,4228.461426,4230.769043,4226.922852,4251.025879,4225.897461,4220.641113,4228.205078,4220.641113,4223.589844,4216.025879,4215.256348,4201.922852,4159.487305,4232.051270,0.000000,4.000000,86.000000,,,,0.000000,4.000000,4.000000,4.000000,4.000000,4.000000,4.000000,4.000000,4.000000,4.000000,4.000000,4.000000,4.000000,4.000000,4.000000,100.000000,,,,,,,,,,,,,,,,
1644853396.997328,109.000000,0.000000,4229.871582,4227.563965,4223.589844,4240.128418,4227.051270,4219.871582,4229.102539,4222.436035,4224.615234,4221.410156,4214.487305,4200.769043,4160.384766,4235.897461,0.000000,4.000000,86.000000,,,,0.000000,4.000000,4.000000,4.000000,4.000000,4.000000,4.000000,4.000000,4.000000,4.000000,4.000000,4.000000,4.000000,4.000000,4.000000,100.000000,,,,,,,,,,,,,,,,
1644853397.001268,110.000000,0.000000,4228.717773,4223.846191,4220.000000,4229.615234,4223.077148,4218.333496,4227.051270,4221.922852,4224.358887,4226.025879,4215.641113,4198.974121,4160.000000,4236.025879,0.000000,4.000000,86.000000,,,,0.000000,4.000000,4.000000,4.000000,4.000000,4.000000,4.000000,4.000000,4.000000,4.000000,4.000000,4.000000,4.000000,4.000000,4.000000,100.000000,,,,,,,,,,,,,,,,
1644853397.005108,111.000000,0.000000,4225.256348,4221.025879,4217.820313,4224.871582,4216.922852,4217.307617,4223.333496,4220.256348,4224.102539,4228.589844,4218.589844,4198.205078,4159.102539,4233.333496,0.000000,4.000000,86.000000,4,1,1,0.000000,4.000000,4.000000,4.000000,4.000000,4.000000,4.000000,4.000000,4.000000,4.000000,4.000000,4.000000,4.000000,4.000000,4.000000,100.000000,,,,,,,,,,,,,,,,
1644853397.009048,112.000000,0.000000,4221.025879,4219.615234,4217.563965,4227.307617,4212.948730,4217.692383,4221.025879,4219.102539,4224.230957,4228.717773,4221.025879,4199.102539,4156.922852,4228.846191,0.000000,4.000000,86.000000,,,,0.000000,4.000000,4.000000,4.000000,4.000000,4.000000,4.000000,4.000000,4.000000,4.000000,4.000000,4.000000,4.000000,4.000000,4.000000,100.000000,,,,,,,,,,,,,,,,
1644853397.013088,113.000000,0.000000,4217.948730,4219.230957,4218.333496,4233.846191,4213.974121,4218.461426,4221.410156,4218.717773,4224.871582,4226.666504,4220.641113,4200.641113,4152.436035,4223.461426,0.000000,4.000000,86.000000,,,,0.000000,4.000000,4.000000,4.000000,4.000000,4.000000,4.000000,4.000000,4.000000,4.000000,4.000000,4.000000,4.000000,4.000000,4.000000,100.000000,,,,,,,,,,,,,,,,
1644853397.017028,114.000000,0.000000,4216.153809,4218.461426,4218.205078,4238.717773,4219.487305,4218.461426,4222.436035,4218.461426,4225.256348,4223.461426,4216.666504,4201.666504,4145.641113,4217.820313,0.000000,4.000000,86.000000,,,,0.000000,4.000000,4.000000,4.000000,4.000000,4.000000,4.000000,4.000000,4.000000,4.000000,4.000000,4.000000,4.000000,4.000000,4.000000,100.000000,,,,,,,,,,,,,,,,
1644853397.020968,115.000000,0.000000,4215.000000,4217.179688,4216.282227,4238.205078,4225.512695,4217.179688,4221.538574,4216.794922,4224.615234,4219.871582,4211.153809,4201.282227,4139.743652,4212.692383,0.000000,4.000000,86.000000,,,,0.000000,4.000000,4.000000,4.000000,4.000000,4.000000,4.000000,4.000000,4.000000,4.000000,4.000000,4.000000,4.000000,4.000000,4.000000,100.000000,,,,,,,,,,,,,,,,
1644853397.024909,116.000000,0.000000,4213.589844,4216.282227,4213.974121,4232.436035,4227.820313,4215.128418,4218.717773,4213.717773,4222.307617,4215.897461,4207.820313,4199.871582,4137.692383,4208.846191,0.000000,4.000000,86.000000,,,,0.000000,4.000000,4.000000,4.000000,4.000000,4.000000,4.000000,4.000000,4.000000,4.000000,4.000000,4.000000,4.000000,4.000000,4.000000,100.000000,,,,,,,,,,,,,,,,
1644853397.028849,117.000000,0.000000,4211.922852,4217.051270,4213.589844,4225.897461,4224.358887,4213.589844,4216.794922,4210.256348,4218.589844,4211.282227,4208.461426,4197.948730,4140.256348,4207.307617,0.000000,4.000000,86.000000,,,,0.000000,4.000000,4.000000,4.000000,4.000000,4.000000,4.000000,4.000000,4.000000,4.000000,4.000000,4.000000,4.000000,4.000000,4.000000,100.000000,,,,,,,,,,,,,,,,
1644853397.032789,118.000000,0.000000,4210.769043,4218.846191,4216.538574,4223.205078,4217.051270,4213.461426,4218.077148,4207.820313,4215.000000,4206.538574,4211.410156,4196.025879,4144.102539,4208.461426,0.000000,4.000000,86.000000,,,,0.000000,4.000000,4.000000,4.000000,4.000000,4.000000,4.000000,4.000000,4.000000,4.000000,4.000000,4.000000,4.000000,4.000000,4.000000,100.000000,,,,,,,,,,,,,,,,
1644853397.036829,119.000000,0.000000,4211.538574,4220.641113,4221.410156,4225.128418,4210.769043,4214.871582,4221.538574,4206.922852,4212.948730,4203.333496,4213.205078,4193.974121,4144.743652,4211.794922,0.000000,4.000000,86.000000,,,,0.000000,4.000000,4.000000,4.000000,4.000000,4.000000,4.000000,4.000000,4.000000,4.000000,4.000000,4.000000,4.000000,4.000000,4.000000,100.000000,,,,,,,,,,,,,,,,
1644853397.040669,120.000000,0.000000,4215.512695,4222.051270,4224.871582,4229.358887,4210.000000,4216.794922,4223.974121,4207.051270,4212.820313,4203.461426,4211.153809,4192.307617,4141.794922,4214.743652,0.000000,4.000000,86.000000,,,,0.000000,4.000000,4.000000,4.000000,4.000000,4.000000,4.000000,4.000000,4.000000,4.000000,4.000000,4.000000,4.000000,4.000000,4.000000,100.000000,,,,,,,,,,,,,,,,
1644853397.044609,121.000000,0.000000,4221.282227,4223.846191,4225.512695,4232.179688,4215.384766,4217.692383,4223.589844,4207.307617,4213.461426,4206.794922,4205.897461,4192.563965,4138.846191,4214.871582,0.000000,4.000000,86.000000,,,,0.000000,4.000000,4.000000,4.000000,4.000000,4.000000,4.000000,4.000000,4.000000,4.000000,4.000000,4.000000,4.000000,4.000000,4.000000,100.000000,,,,,,,,,,,,,,,,
1644853397.048549,122.000000,0.000000,4226.025879,4226.410156,4224.358887,4232.692383,4222.820313,4216.922852,4221.666504,4207.948730,4213.461426,4211.666504,4201.538574,4196.410156,4140.512695,4212.179688,0.000000,4.000000,86.000000,,,,0.000000,4.000000,4.000000,4.000000,4.000000,4.000000,4.000000,4.000000,4.000000,4.000000,4.000000,4.000000,4.000000,4.000000,4.000000,100.000000,,,,,,,,,,,,,,,,
1644853397.052489,123.000000,0.000000,4226.666504,4228.717773,4223.461426,4233.333496,4226.666504,4215.000000,4220.769043,4209.358887,4213.205078,4216.282227,4203.077148,4203.717773,4147.948730,4210.384766,0.000000,4.000000,86.000000,,,,0.000000,4.000000,4.000000,4.000000,4.000000,4.000000,4.000000,4.000000,4.000000,4.000000,4.000000,4.000000,4.000000,4.000000,4.000000,100.000000,,,,,,,,,,,,,,,,
1644853397.056429,124.000000,0.000000,4223.589844,4229.358887,4223.717773,4236.025879,4224.358887,4213.846191,4221.794922,4211.922852,4214.102539,4220.256348,4211.794922,4211.922852,4158.077148,4213.077148,0.000000,4.000000,86.000000,,,,0.000000,4.000000,4.000000,4.000000,4.000000,4.000000,4.000000,4.000000,4.000000,4.000000,4.000000,4.000000,4.000000,4.000000,4.000000,100.000000,,,,,,,,,,,,,,,,
1644853397.060370,125.000000,0.000000,4220.000000,4228.205078,4225.000000,4240.641113,4218.717773,4214.871582,4223.461426,4215.128418,4217.179688,4223.846191,4223.461426,4217.563965,4166.282227,4220.256348,0.000000,4.000000,86.000000,,,,0.000000,4.000000,4.000000,4.000000,4.000000,4.000000,4.000000,4.000000,4.000000,4.000000,4.000000,4.000000,4.000000,4.000000,4.000000,100.000000,,,,,,,,,,,,,,,,
1644853397.064410,126.000000,0.000000,4219.358887,4226.025879,4226.538574,4244.487305,4214.358887,4217.436035,4224.615234,4217.820313,4221.025879,4226.282227,4231.282227,4218.846191,4169.615234,4228.333496,0.000000,4.000000,86.000000,,,,0.000000,4.000000,4.000000,4.000000,4.000000,4.000000,4.000000,4.000000,4.000000,4.000000,4.000000,4.000000,4.000000,4.000000,4.000000,100.000000,,,,,,,,,,,,,,,,
1644853397.068350,127.000000,0.000000,4222.948730,4224.102539,4228.077148,4245.128418,4214.102539,4219.615234,4225.128418,4218.717773,4222.692383,4225.769043,4230.897461,4216.922852,4167.820313,4232.563965,0.000000,4.000000,86.000000,5,1,1,0.000000,4.000000,4.000000,4.000000,4.000000,4.000000,4.000000,4.000000,4.000000,4.000000,4.000000,4.000000,4.000000,4.000000,4.000000,100.000000,,,,,,,,,,,,,,,,
1644853397.072290,128.000000,0.000000,4228.846191,4223.077148,4229.487305,4242.179688,4217.948730,4219.615234,4225.512695,4217.563965,4220.256348,4221.025879,4223.077148,4214.487305,4163.717773,4230.769043,3503.000000,4.000000,86.000000,,,,0.000000,4.000000,4.000000,4.000000,4.000000,4.000000,4.000000,4.000000,4.000000,4.000000,4.000000,4.000000,4.000000,4.000000,4.000000,100.000000,,,,,,,,,,,,,,,,
1644853397.076130,129.000000,0.000000,4233.974121,4222.692383,4230.384766,4237.436035,4223.717773,4217.307617,4225.384766,4215.384766,4215.256348,4213.333496,4213.846191,4212.948730,4159.743652,4224.487305,3066.000000,4.000000,86.000000,,,,0.000000,4.000000,4.000000,4.000000,4.000000,4.000000,4.000000,4.000000,4.000000,4.000000,4.000000,4.000000,4.000000,4.000000,4.000000,100.000000,,,,,,,,,,,,,,,,
1644853397.080070,130.000000,0.000000,4235.641113,4222.563965,4230.256348,4232.692383,4227.820313,4214.487305,4223.846191,4213.589844,4211.666504,4206.025879,4209.743652,4212.820313,4156.794922,4217.436035,3542.000000,4.000000,86.000000,,,,0.000000,4.000000,4.000000,4.000000,4.000000,4.000000,4.000000,4.000000,4.000000,4.000000,4.000000,4.000000,4.000000,4.000000,4.000000,100.000000,,,,,,,,,,,,,,,,
1644853397.084110,131.000000,0.000000,4231.794922,4222.563965,4229.615234,4228.077148,4228.077148,4213.333496,4221.410156,4213.077148,4211.410156,4202.051270,4212.820313,4213.205078,4153.589844,4214.102539,3594.000000,4.000000,86.000000,,,,0.000000,4.000000,4.000000,4.000000,4.000000,4.000000,4.000000,4.000000,4.000000,4.000000,4.000000,4.000000,4.000000,4.000000,4.000000,100.000000,,,,,,,,,,,,,,,,
1644853397.088050,132.000000,0.000000,4223.333496,4221.922852,4228.974121,4222.692383,4224.487305,4214.358887,4219.743652,4213.846191,4213.974121,4202.948730,4219.102539,4212.948730,4149.358887,4216.922852,3497.000000,4.000000,86.000000,,,,0.000000,4.000000,4.000000,4.000000,4.000000,4.000000,4.000000,4.000000,4.000000,4.000000,4.000000,4.000000,4.000000,4.000000,4.000000,100.000000,,,,,,,,,,,,,,,,
1644853397.091990,133.000000,0.000000,4213.717773,4219.358887,4229.358887,4216.410156,4220.128418,4216.282227,4219.871582,4215.128418,4216.282227,4208.589844,4222.179688,4211.153809,4145.769043,4224.230957,3405.000000,4.000000,86.000000,,,,0.000000,4.000000,4.000000,4.000000,4.000000,4.000000,4.000000,4.000000,4.000000,4.000000,4.000000,4.000000,4.000000,4.000000,4.000000,100.000000,,,,,,,,,,,,,,,,
1644853397.095930,134.000000,0.000000,4208.077148,4215.000000,4230.769043,4210.897461,4217.692383,4217.179688,4220.512695,4215.641113,4216.538574,4217.307617,4218.974121,4209.230957,4146.025879,4231.025879,2570.000000,4.000000,86.000000,,,,0.000000,4.000000,4.000000,4.000000,4.000000,4.000000,4.000000,4.000000,4.000000,4.000000,4.000000,4.000000,4.000000,4.000000,4.000000,100.000000,,,,,,,,,,,,,,,,
1644853397.099870,135.000000,0.000000,4210.384766,4211.410156,4231.666504,4209.615234,4218.077148,4216.538574,4219.743652,4214.743652,4215.384766,4225.128418,4212.307617,4209.102539,4151.410156,4232.563965,2738.000000,4.000000,86.000000,,,,0.000000,4.000000,4.000000,4.000000,4.000000,4.000000,4.000000,4.000000,4.000000,4.000000,4.000000,4.000000,4.000000,4.000000,4.000000,100.000000,,,,,,,,,,,,,,,,
1644853397.103811,136.000000,0.000000,4220.000000,4211.410156,4230.769043,4214.358887,4219.743652,4215.000000,4216.922852,4212.820313,4214.487305,4227.563965,4207.948730,4211.153809,4158.717773,4227.051270,3281.000000,4.000000,86.000000,,,,0.000000,4.000000,4.000000,4.000000,4.000000,4.000000,4.000000,4.000000,4.000000,4.000000,4.000000,4.000000,4.000000,4.000000,4.000000,100.000000,,,,,,,,,,,,,,,,
1644853397.107751,137.000000,0.000000,4231.922852,4215.128418,4228.333496,4223.077148,4220.256348,4213.589844,4214.230957,4211.410156,4215.128418,4223.205078,4208.205078,4212.563965,4162.051270,4217.307617,3255.000000,4.000000,86.000000,,,,0.000000,4.000000,4.000000,4.000000,4.000000,4.000000,4.000000,4.000000,4.000000,4.000000,4.000000,4.000000,4.000000,4.000000,4.000000,100.000000,,,,,,,,,,,,,,,,
1644853397.111691,138.000000,0.000000,4239.102539,4220.512695,4225.769043,4230.128418,4218.589844,4212.820313,4213.589844,4211.538574,4216.538574,4215.769043,4211.153809,4211.025879,4158.333496,4209.487305,3522.000000,4.000000,86.000000,,,,0.000000,4.000000,4.000000,4.000000,4.000000,4.000000,4.000000,4.000000,4.000000,4.000000,4.000000,4.000000,4.000000,4.000000,4.000000,100.000000,,,,,,,,,,,,,,,,
1644853397.115631,139.000000,0.000000,4237.307617,4225.384766,4224.743652,4230.512695,4215.769043,4212.307617,4214.871582,4213.333496,4217.692383,4211.153809,4213.333496,4206.794922,4150.512695,4209.102539,3152.000000,4.000000,86.000000,,,,0.000000,4.000000,4.000000,4.000000,4.000000,4.000000,4.000000,4.000000,4.000000,4.000000,4.000000,4.000000,4.000000,4.000000,4.000000,100.000000,,,,,,,,,,,,,,,,
1644853397.119571,140.000000,0.000000,4227.820313,4228.333496,4225.128418,4224.871582,4213.589844,4211.794922,4215.512695,4215.000000,4217.820313,4212.307617,4214.615234,4203.333496,4145.641113,4216.410156,3460.000000,4.000000,86.000000,,,,0.000000,4.000000,4.000000,4.000000,4.000000,4.000000,4.000000,4.000000,4.000000,4.000000,4.000000,4.000000,4.000000,4.000000,4.000000,100.000000,,,,,,,,,,,,,,,,
1644853397.123511,141.000000,0.000000,4217.179688,4228.589844,4226.410156,4218.589844,4212.948730,4211.538574,4214.487305,4214.871582,4217.307617,4217.307617,4217.307617,4204.230957,4148.077148,4226.794922,3297.000000,4.000000,86.000000,,,,0.000000,4.000000,4.000000,4.000000,4.000000,4.000000,4.000000,4.000000,4.000000,4.000000,4.000000,4.000000,4.000000,4.000000,4.000000,100.000000,,,,,,,,,,,,,,,,
1644853397.127451,142.000000,0.000000,4212.820313,4226.538574,4227.307617,4217.179688,4214.102539,4212.179688,4214.230957,4213.461426,4217.179688,4221.410156,4222.948730,4210.256348,4156.666504,4233.974121,3522.000000,4.000000,86.000000,,,,0.000000,4.000000,4.000000,4.000000,4.000000,4.000000,4.000000,4.000000,4.000000,4.000000,4.000000,4.000000,4.000000,4.000000,4.000000,100.000000,,,,,,,,,,,,,,,,
1644853397.131391,143.000000,0.000000,4217.563965,4223.974121,4227.692383,4220.256348,4217.051270,4214.230957,4216.794922,4212.563965,4218.333496,4221.282227,4230.512695,4217.820313,4166.025879,4234.358887,3152.000000,4.000000,86.000000,,,,0.000000,4.000000,4.000000,4.000000,4.000000,4.000000,4.000000,4.000000,4.000000,4.000000,4.000000,4.000000,4.000000,4.000000,4.000000,100.000000,,,,,,,,,,,,,,,,
1644853397.135331,144.000000,0.000000,4227.051270,4222.692383,4227.948730,4222.820313,4222.051270,4216.794922,4221.153809,4213.461426,4220.641113,4217.692383,4237.051270,4221.922852,4171.666504,4228.205078,3460.000000,4.000000,86.000000,,,,0.000000,4.000000,4.000000,4.000000,4.000000,4.000000,4.000000,4.000000,4.000000,4.000000,4.000000,4.000000,4.000000,4.000000,4.000000,100.000000,,,,,,,,,,,,,,,,
1644853397.139272,145.000000,0.000000,4232.307617,4222.436035,4227.820313,4220.000000,4227.436035,4218.461426,4223.077148,4215.000000,4222.820313,4215.128418,4239.615234,4220.000000,4172.820313,4219.358887,3297.000000,4.000000,86.000000,,,,0.000000,4.000000,4.000000,4.000000,4.000000,4.000000,4.000000,4.000000,4.000000,4.000000,4.000000,4.000000,4.000000,4.000000,4.000000,100.000000,,,,,,,,,,,,,,,,
1644853397.143212,146.000000,0.000000,4226.922852,4220.384766,4226.153809,4211.666504,4229.615234,4217.563965,4219.871582,4215.128418,4222.948730,4216.538574,4236.410156,4213.589844,4170.897461,4212.436035,3522.000000,4.000000,86.000000,,,,0.000000,4.000000,4.000000,4.000000,4.000000,4.000000,4.000000,4.000000,4.000000,4.000000,4.000000,4.000000,4.000000,4.000000,4.000000,100.000000,,,,,,,,,,,,,,,,
1644853397.147252,147.000000,0.000000,4212.051270,4214.102539,4221.922852,4202.692383,4225.641113,4214.230957,4214.102539,4212.563965,4220.256348,4221.410156,4227.948730,4206.410156,4167.820313,4210.897461,3152.000000,4.000000,86.000000,,,,0.000000,4.000000,4.000000,4.000000,4.000000,4.000000,4.000000,4.000000,4.000000,4.000000,4.000000,4.000000,4.000000,4.000000,4.000000,100.000000,,,,,,,,,,,,,,,,
1644853397.151192,148.000000,0.000000,4197.051270,4205.000000,4216.153809,4198.077148,4216.922852,4210.769043,4210.897461,4208.717773,4215.769043,4226.153809,4217.436035,4201.922852,4164.615234,4214.871582,3460.000000,4.000000,86.000000,,,,0.000000,4.000000,4.000000,4.000000,4.000000,4.000000,4.000000,4.000000,4.000000,4.000000,4.000000,4.000000,4.000000,4.000000,4.000000,100.000000,,,,,,,,,,,,,,,,
1644853397.155132,149.000000,0.000000,4193.205078,4198.461426,4212.436035,4200.512695,4209.743652,4209.871582,4212.948730,4206.153809,4212.436035,4228.205078,4209.487305,4201.410156,4162.563965,4221.666504,3297.000000,4.000000,86.000000,,,,0.000000,4.000000,4.000000,4.000000,4.000000,4.000000,4.000000,4.000000,4.000000,4.000000,4.000000,4.000000,4.000000,4.000000,4.000000,100.000000,,,,,,,,,,,,,,,,
1644853397.159072,150.000000,0.000000,4204.230957,4199.743652,4212.948730,4208.333496,4209.358887,4212.563965,4217.307617,4206.282227,4212.563965,4227.179688,4208.589844,4204.230957,4162.820313,4227.948730,3522.000000,4.000000,86.000000,,,,0.000000,4.000000,4.000000,4.000000,4.000000,4.000000,4.000000,4.000000,4.000000,4.000000,4.000000,4.000000,4.000000,4.000000,4.000000,100.000000,,,,,,,,,,,,,,,,
1644853397.163012,151.000000,0.000000,4223.461426,4208.589844,4217.692383,4216.922852,4215.641113,4216.794922,4220.000000,4208.589844,4216.538574,4225.128418,4215.512695,4208.333496,4165.641113,4231.794922,3152.000000,4.000000,86.000000,,,,0.000000,4.000000,4.000000,4.000000,4.000000,4.000000,4.000000,4.000000,4.000000,4.000000,4.000000,4.000000,4.000000,4.000000,4.000000,100.000000,,,,,,,,,,,,,,,,
1644853397.166952,152.000000,0.000000,4238.077148,4220.000000,4223.589844,4221.538574,4222.820313,4219.358887,4220.000000,4211.666504,4221.666504,4224.230957,4225.256348,4212.051270,4170.000000,4233.077148,3460.000000,4.000000,86.000000,,,,0.000000,4.000000,4.000000,4.000000,4.000000,4.000000,4.000000,4.000000,4.000000,4.000000,4.000000,4.000000,4.000000,4.000000,4.000000,100.000000,,,,,,,,,,,,,,,,
1644853397.170892,153.000000,0.000000,4239.230957,4227.563965,4227.692383,4220.897461,4224.743652,4218.589844,4219.358887,4214.358887,4225.256348,4225.512695,4231.410156,4213.589844,4174.102539,4232.563965,3297.000000,4.000000,86.000000,,,,0.000000,4.000000,4.000000,4.000000,4.000000,4.000000,4.000000,4.000000,4.000000,4.000000,4.000000,4.000000,4.000000,4.000000,4.000000,100.000000,,,,,,,,,,,,,,,,
1644853397.174732,154.000000,0.000000,4228.461426,4228.846191,4228.717773,4217.051270,4220.128418,4215.897461,4220.128418,4216.025879,4225.897461,4228.589844,4231.025879,4213.205078,4176.538574,4231.153809,3522.000000,4.000000,86.000000,,,,0.000000,4.000000,4.000000,4.000000,4.000000,4.000000,4.000000,4.000000,4.000000,4.000000,4.000000,4.000000,4.000000,4.000000,4.000000,100.000000,,,,,,,,,,,,,,,,
1644853397.178673,155.000000,0.000000,4215.384766,4225.897461,4227.563965,4213.717773,4214.743652,4213.974121,4221.666504,4216.410156,4224.358887,4231.153809,4226.282227,4212.179688,4177.179688,4230.769043,3152.000000,4.000000,86.000000,,,,0.000000,4.000000,4.000000,4.000000,4.000000,4.000000,4.000000,4.000000,4.000000,4.000000,4.000000,4.000000,4.000000,4.000000,4.000000,100.000000,,,,,,,,,,,,,,,,
1644853397.182613,156.000000,0.000000,4209.871582,4221.794922,4226.025879,4213.333496,4215.128418,4214.743652,4221.922852,4215.512695,4221.794922,4230.641113,4221.666504,4211.025879,4176.282227,4232.051270,3460.000000,4.000000,86.000000,,,,0.000000,4.000000,4.000000,4.000000,4.000000,4.000000,4.000000,4.000000,4.000000,4.000000,4.000000,4.000000,4.000000,4.000000,4.000000,100.000000,,,,,,,,,,,,,,,,
1644853397.186553,157.000000,0.000000,4213.461426,4218.333496,4225.384766,4215.256348,4222.563965,4217.436035,4220.897461,4213.717773,4219.230957,4225.256348,4220.000000,4209.230957,4173.589844,4233.205078,3297.000000,4.000000,86.000000,,,,0.000000,4.000000,4.000000,4.000000,4.000000,4.000000,4.000000,4.000000,4.000000,4.000000,4.000000,4.000000,4.000000,4.000000,4.000000,100.000000,,,,,,,,,,,,,,,,
1644853397.190493,158.000000,0.000000,4220.256348,4215.256348,4225.128418,4216.538574,4231.282227,4219.487305,4219.743652,4211.922852,4216.282227,4215.384766,4221.153809,4206.538574,4168.461426,4231.282227,3522.000000,4.000000,86.000000,,,,0.000000,4.000000,4.000000,4.000000,4.000000,4.000000,4.000000,4.000000,4.000000,4.000000,4.000000,4.000000,4.000000,4.000000,4.000000,100.000000,,,,,,,,,,,,,,,,
1644853397.194433,159.000000,0.000000,4223.589844,4211.922852,4223.717773,4214.230957,4234.230957,4219.230957,4219.487305,4210.897461,4213.717773,4205.256348,4223.077148,4204.358887,4161.282227,4224.871582,3152.000000,4.000000,86.000000,,,,0.000000,4.000000,4.000000,4.000000,4.000000,4.000000,4.000000,4.000000,4.000000,4.000000,4.000000,4.000000,4.000000,4.000000,4.000000,100.000000,,,,,,,,,,,,,,,,
1644853397.198473,160.000000,0.000000,4222.051270,4209.743652,4220.000000,4207.563965,4230.128418,4216.794922,4219.743652,4210.384766,4212.436035,4200.769043,4223.717773,4204.358887,4154.615234,4216.282227,3460.000000,4.000000,86.000000,,,,0.000000,4.000000,4.000000,4.000000,4.000000,4.000000,4.000000,4.000000,4.000000,4.000000,4.000000,4.000000,4.000000,4.000000,4.000000,100.000000,,,,,,,,,,,,,,,,
1644853397.202413,161.000000,0.000000,4219.615234,4210.641113,4215.128418,4198.333496,4223.589844,4214.230957,4219.358887,4210.897461,4213.717773,4205.641113,4222.307617,4206.794922,4152.051270,4210.769043,3297.000000,4.000000,86.000000,,,,0.000000,4.000000,4.000000,4.000000,4.000000,4.000000,4.000000,4.000000,4.000000,4.000000,4.000000,4.000000,4.000000,4.000000,4.000000,100.000000,,,,,,,,,,,,,,,,
1644853397.206353,162.000000,0.000000,4220.000000,4215.897461,4211.666504,4190.512695,4220.256348,4213.077148,4218.974121,4212.820313,4217.307617,4217.563965,4220.000000,4210.128418,4154.358887,4212.563965,3522.000000,4.000000,86.000000,,,,0.000000,4.000000,4.000000,4.000000,4.000000,4.000000,4.000000,4.000000,4.000000,4.000000,4.000000,4.000000,4.000000,4.000000,4.000000,100.000000,,,,,,,,,,,,,,,,
1644853397.210293,163.000000,0.000000,4223.077148,4223.205078,4211.922852,4188.077148,4221.282227,4213.846191,4220.000000,4216.282227,4221.282227,4228.846191,4218.333496,4211.282227,4159.230957,4221.410156,3152.000000,4.000000,86.000000,,,,0.000000,4.000000,4.000000,4.000000,4.000000,4.000000,4.000000,4.000000,4.000000,4.000000,4.000000,4.000000,4.000000,4.000000,4.000000,100.000000,,,,,,,,,,,,,,,,
1644853397.214233,164.000000,0.000000,4225.384766,4228.205078,4215.384766,4192.820313,4223.717773,4215.897461,4221.922852,4220.384766,4223.717773,4232.692383,4217.436035,4209.102539,4162.307617,4231.922852,3460.000000,4.000000,86.000000,,,,0.000000,4.000000,4.000000,4.000000,4.000000,4.000000,4.000000,4.000000,4.000000,4.000000,4.000000,4.000000,4.000000,4.000000,4.000000,100.000000,,,,,,,,,,,,,,,,
1644853397.218174,165.000000,0.000000,4224.102539,4228.333496,4220.000000,4202.948730,4223.717773,4218.077148,4223.077148,4223.589844,4224.487305,4228.077148,4216.153809,4205.769043,4161.538574,4239.102539,3297.000000,4.000000,86.000000,,,,0.000000,4.000000,4.000000,4.000000,4.000000,4.000000,4.000000,4.000000,4.000000,4.000000,4.000000,4.000000,4.000000,4.000000,4.000000,100.000000,,,,,,,,,,,,,,,,
1644853397.222114,166.000000,0.000000,4220.769043,4225.000000,4222.692383,4212.820313,4220.128418,4219.358887,4222.179688,4225.256348,4225.128418,4220.384766,4213.077148,4203.974121,4158.846191,4241.410156,3522.000000,4.000000,86.000000,,,,0.000000,4.000000,4.000000,4.000000,4.000000,4.000000,4.000000,4.000000,4.000000,4.000000,4.000000,4.000000,4.000000,4.000000,4.000000,100.000000,,,,,,,,,,,,,,,,
1644853397.226054,167.000000,0.000000,4219.358887,4222.563965,4222.820313,4218.205078,4215.256348,4219.487305,4220.897461,4225.769043,4226.794922,4216.153809,4208.717773,4205.256348,4157.820313,4240.641113,3152.000000,4.000000,86.000000,,,,0.000000,4.000000,4.000000,4.000000,4.000000,4.000000,4.000000,4.000000,4.000000,4.000000,4.000000,4.000000,4.000000,4.000000,4.000000,100.000000,,,,,,,,,,,,,,,,
1644853397.229994,168.000000,0.000000,4222.436035,4222.948730,4221.794922,4218.717773,4213.205078,4218.461426,4221.282227,4225.384766,4228.846191,4218.333496,4206.410156,4208.077148,4160.897461,4238.846191,3460.000000,4.000000,86.000000,,,,0.000000,4.000000,4.000000,4.000000,4.000000,4.000000,4.000000,4.000000,4.000000,4.000000,4.000000,4.000000,4.000000,4.000000,4.000000,100.000000,,,,,,,,,,,,,,,,
1644853397.233934,169.000000,0.000000,4227.307617,4225.128418,4221.153809,4217.563965,4215.897461,4217.307617,4223.589844,4223.461426,4229.615234,4223.974121,4209.102539,4210.128418,4166.922852,4236.025879,3297.000000,4.000000,86.000000,,,,0.000000,4.000000,4.000000,4.000000,4.000000,4.000000,4.000000,4.000000,4.000000,4.000000,4.000000,4.000000,4.000000,4.000000,4.000000,100.000000,,,,,,,,,,,,,,,,
1644853397.237874,170.000000,0.000000,4230.128418,4226.153809,4221.538574,4217.563965,4221.922852,4216.922852,4225.769043,4219.487305,4227.820313,4227.820313,4217.820313,4210.512695,4173.077148,4231.666504,3522.000000,4.000000,86.000000,,,,0.000000,4.000000,4.000000,4.000000,4.000000,4.000000,4.000000,4.000000,4.000000,4.000000,4.000000,4.000000,4.000000,4.000000,4.000000,100.000000,,,,,,,,,,,,,,,,
1644853397.241814,171.000000,0.000000,4228.846191,4224.871582,4223.077148,4218.461426,4228.333496,4218.461426,4225.897461,4215.128418,4224.358887,4226.025879,4229.230957,4210.384766,4176.666504,4227.051270,3152.000000,4.000000,86.000000,,,,0.000000,4.000000,4.000000,4.000000,4.000000,4.000000,4.000000,4.000000,4.000000,4.000000,4.000000,4.000000,4.000000,4.000000,4.000000,100.000000,,,,,,,,,,,,,,,,
1644853397.245754,172.000000,0.000000,4225.512695,4222.436035,4225.641113,4217.948730,4232.307617,4221.538574,4224.487305,4212.948730,4221.666504,4219.487305,4237.563965,4211.538574,4176.410156,4224.230957,3460.000000,4.000000,86.000000,,,,0.000000,4.000000,4.000000,4.000000,4.000000,4.000000,4.000000,4.000000,4.000000,4.000000,4.000000,4.000000,4.000000,4.000000,4.000000,100.000000,,,,,,,,,,,,,,,,
1644853397.249694,173.000000,0.000000,4223.205078,4220.641113,4228.589844,4213.974121,4233.077148,4224.230957,4223.589844,4214.102539,4220.897461,4211.794922,4239.102539,4214.487305,4173.077148,4225.512695,3297.000000,4.000000,86.000000,,,,0.000000,4.000000,4.000000,4.000000,4.000000,4.000000,4.000000,4.000000,4.000000,4.000000,4.000000,4.000000,4.000000,4.000000,4.000000,100.000000,,,,,,,,,,,,,,,,
1644853397.253635,174.000000,0.000000,4222.948730,4220.384766,4231.025879,4206.666504,4230.641113,4224.102539,4223.846191,4216.538574,4221.922852,4206.538574,4234.743652,4217.563965,4167.820313,4230.256348,3522.000000,4.000000,86.000000,,,,0.000000,4.000000,4.000000,4.000000,4.000000,4.000000,4.000000,4.000000,4.000000,4.000000,4.000000,4.000000,4.000000,4.000000,4.000000,100.000000,,,,,,,,,,,,,,,,
1644853397.257675,175.000000,0.000000,4224.102539,4220.897461,4231.922852,4198.974121,4225.641113,4220.897461,4224.102539,4217.051270,4222.436035,4205.384766,4228.974121,4218.846191,4162.948730,4235.128418,3152.000000,4.000000,86.000000,,,,0.000000,4.000000,4.000000,4.000000,4.000000,4.000000,4.000000,4.000000,4.000000,4.000000,4.000000,4.000000,4.000000,4.000000,4.000000,100.000000,,,,,,,,,,,,,,,,
1644853397.261615,176.000000,0.000000,4225.128418,4221.282227,4231.538574,4195.000000,4219.871582,4217.179688,4222.948730,4215.256348,4221.410156,4208.205078,4225.897461,4217.948730,4159.871582,4235.897461,3460.000000,4.000000,86.000000,,,,0.000000,4.000000,4.000000,4.000000,4.000000,4.000000,4.000000,4.000000,4.000000,4.000000,4.000000,4.000000,4.000000,4.000000,4.000000,100.000000,,,,,,,,,,,,,,,,
1644853397.265555,177.000000,0.000000,4225.512695,4221.025879,4231.025879,4197.436035,4216.794922,4216.666504,4221.410156,4212.692383,4219.102539,4214.230957,4225.897461,4215.769043,4159.230957,4232.436035,3297.000000,4.000000,86.000000,,,,0.000000,4.000000,4.000000,4.000000,4.000000,4.000000,4.000000,4.000000,4.000000,4.000000,4.000000,4.000000,4.000000,4.000000,4.000000,100.000000,,,,,,,,,,,,,,,,
1644853397.269495,178.000000,0.000000,4226.282227,4220.512695,4231.282227,4205.512695,4218.717773,4220.384766,4221.538574,4211.922852,4216.666504,4221.025879,4227.307617,4214.102539,4160.897461,4228.974121,3522.000000,4.000000,86.000000,,,,0.000000,4.000000,4.000000,4.000000,4.000000,4.000000,4.000000,4.000000,4.000000,4.000000,4.000000,4.000000,4.000000,4.000000,4.000000,100.000000,1.000000,66.666664,4.000000,4.000000,4.000000,4.000000,4.000000,4.000000,1.000000,4.000000,4.000000,4.000000,4.000000,4.000000,3.000000,4.000000
1644853397.273435,179.000000,0.000000,4229.487305,4221.794922,4231.794922,4215.384766,4224.487305,4225.641113,4223.589844,4213.461426,4215.384766,4226.153809,4227.948730,4214.487305,4164.743652,4230.128418,3152.000000,4.000000,86.000000,,,,0.000000,4.000000,4.000000,4.000000,4.000000,4.000000,4.000000,4.000000,4.000000,4.000000,4.000000,4.000000,4.000000,4.000000,4.000000,100.000000,,,,,,,,,,,,,,,,
1644853397.277375,180.000000,0.000000,4234.871582,4226.794922,4230.769043,4222.179688,4229.871582,4228.461426,4225.128418,4215.641113,4215.384766,4227.563965,4227.820313,4215.769043,4170.769043,4236.153809,3460.000000,4.000000,86.000000,,,,0.000000,4.000000,4.000000,4.000000,4.000000,4.000000,4.000000,4.000000,4.000000,4.000000,4.000000,4.000000,4.000000,4.000000,4.000000,100.000000,,,,,,,,,,,,,,,,
1644853397.281315,181.000000,0.000000,4240.512695,4234.615234,4227.563965,4223.589844,4230.256348,4226.794922,4223.846191,4216.410156,4216.025879,4225.897461,4229.102539,4215.641113,4177.563965,4242.436035,3297.000000,4.000000,86.000000,,,,0.000000,4.000000,4.000000,4.000000,4.000000,4.000000,4.000000,4.000000,4.000000,4.000000,4.000000,4.000000,4.000000,4.000000,4.000000,100.000000,,,,,,,,,,,,,,,,
1644853397.285255,182.000000,0.000000,4242.692383,4240.897461,4223.589844,4221.025879,4224.871582,4222.563965,4220.128418,4215.256348,4216.538574,4223.077148,4232.948730,4212.692383,4182.563965,4244.615234,3522.000000,4.000000,86.000000,,,,0.000000,4.000000,4.000000,4.000000,4.000000,4.000000,4.000000,4.000000,4.000000,4.000000,4.000000,4.000000,4.000000,4.000000,4.000000,100.000000,,,,,,,,,,,,,,,,
1644853397.289195,183.000000,0.000000,4239.743652,4240.769043,4221.538574,4217.563965,4218.077148,4219.102539,4217.307617,4214.102539,4217.051270,4221.538574,4238.333496,4208.589844,4183.333496,4242.692383,3152.000000,4.000000,86.000000,,,,0.000000,4.000000,4.000000,4.000000,4.000000,4.000000,4.000000,4.000000,4.000000,4.000000,4.000000,4.000000,4.000000,4.000000,4.000000,100.000000,,,,,,,,,,,,,,,,
1644853397.293135,184.000000,0.000000,4232.307617,4233.077148,4223.077148,4215.000000,4216.538574,4218.846191,4218.077148,4215.384766,4218.974121,4222.692383,4243.077148,4207.051270,4180.000000,4240.000000,3460.000000,4.000000,86.000000,,,,0.000000,4.000000,4.000000,4.000000,4.000000,4.000000,4.000000,4.000000,4.000000,4.000000,4.000000,4.000000,4.000000,4.000000,4.000000,100.000000,,,,,,,,,,,,,,,,
1644853397.297076,185.000000,0.000000,4223.333496,4222.307617,4227.436035,4212.436035,4222.948730,4221.025879,4221.282227,4220.256348,4223.205078,4225.641113,4245.512695,4210.000000,4175.897461,4238.974121,3297.000000,4.000000,86.000000,,,,0.000000,4.000000,4.000000,4.000000,4.000000,4.000000,4.000000,4.000000,4.000000,4.000000,4.000000,4.000000,4.000000,4.000000,4.000000,100.000000,,,,,,,,,,,,,,,,
1644853397.301016,186.000000,0.000000,4215.897461,4214.871582,4231.666504,4208.333496,4233.846191,4223.333496,4223.717773,4226.153809,4228.589844,4228.461426,4245.897461,4216.025879,4173.846191,4239.743652,3522.000000,4.000000,86.000000,,,,0.000000,4.000000,4.000000,4.000000,4.000000,4.000000,4.000000,4.000000,4.000000,4.000000,4.000000,4.000000,4.000000,4.000000,4.000000,100.000000,,,,,,,,,,,,,,,,
1644853397.304956,187.000000,0.000000,4213.333496,4215.000000,4233.717773,4203.205078,4242.051270,4223.589844,4223.717773,4229.871582,4232.948730,4229.615234,4244.487305,4221.153809,4175.512695,4240.128418,3152.000000,4.000000,86.000000,,,,0.000000,4.000000,4.000000,4.000000,4.000000,4.000000,4.000000,4.000000,4.000000,4.000000,4.000000,4.000000,4.000000,4.000000,4.000000,100.000000,,,,,,,,,,,,,,,,
1644853397.308896,188.000000,0.000000,4217.179688,4221.666504,4232.563965,4199.743652,4242.179688,4222.179688,4222.820313,4229.358887,4234.743652,4229.230957,4242.307617,4222.436035,4180.769043,4239.230957,3460.000000,4.000000,86.000000,,,,0.000000,4.000000,4.000000,4.000000,4.000000,4.000000,4.000000,4.000000,4.000000,4.000000,4.000000,4.000000,4.000000,4.000000,4.000000,100.000000,,,,,,,,,,,,,,,,
1644853397.312836,189.000000,0.000000,4225.769043,4229.871582,4229.230957,4200.512695,4234.871582,4221.922852,4223.974121,4226.282227,4233.846191,4228.461426,4240.384766,4219.871582,4187.948730,4237.820313,3297.000000,4.000000,86.000000,,,,0.000000,4.000000,4.000000,4.000000,4.000000,4.000000,4.000000,4.000000,4.000000,4.000000,4.000000,4.000000,4.000000,4.000000,4.000000,100.000000,,,,,,,,,,,,,,,,
1644853397.316776,190.000000,0.000000,4234.615234,4234.102539,4225.000000,4205.000000,4225.897461,4224.743652,4227.179688,4224.102539,4231.794922,4228.846191,4239.230957,4215.641113,4194.487305,4237.692383,3522.000000,4.000000,86.000000,,,,0.000000,4.000000,4.000000,4.000000,4.000000,4.000000,4.000000,4.000000,4.000000,4.000000,4.000000,4.000000,4.000000,4.000000,4.000000,100.000000,,,,,,,,,,,,,,,,
1644853397.320716,191.000000,0.000000,4237.692383,4231.538574,4220.512695,4210.128418,4222.179688,4229.487305,4230.000000,4225.000000,4230.512695,4230.384766,4238.333496,4212.563965,4196.410156,4238.461426,3152.000000,4.000000,86.000000,,,,0.000000,4.000000,4.000000,4.000000,4.000000,4.000000,4.000000,4.000000,4.000000,4.000000,4.000000,4.000000,4.000000,4.000000,4.000000,100.000000,,,,,,,,,,,,,,,,
1644853397.324656,192.000000,0.000000,4232.563965,4223.717773,4217.051270,4212.820313,4225.641113,4232.692383,4230.512695,4228.205078,4230.897461,4232.051270,4236.153809,4212.051270,4190.897461,4237.820313,3460.000000,4.000000,86.000000,,,,0.000000,4.000000,4.000000,4.000000,4.000000,4.000000,4.000000,4.000000,4.000000,4.000000,4.000000,4.000000,4.000000,4.000000,4.000000,100.000000,,,,,,,,,,,,,,,,
1644853397.328596,193.000000,0.000000,4222.563965,4215.256348,4215.256348,4212.820313,4231.538574,4231.538574,4229.358887,4231.025879,4232.307617,4232.179688,4232.307617,4213.461426,4178.846191,4234.487305,3297.000000,4.000000,86.000000,,,,0.000000,4.000000,4.000000,4.000000,4.000000,4.000000,4.000000,4.000000,4.000000,4.000000,4.000000,4.000000,4.000000,4.000000,4.000000,100.000000,,,,,,,,,,,,,,,,
1644853397.332636,194.000000,0.000000,4215.128418,4211.153809,4216.153809,4212.051270,4233.205078,4226.153809,4228.333496,4231.538574,4233.589844,4230.769043,4228.974121,4215.000000,4166.538574,4230.384766,3522.000000,4.000000,86.000000,,,,0.000000,4.000000,4.000000,4.000000,4.000000,4.000000,4.000000,4.000000,4.000000,4.000000,4.000000,4.000000,4.000000,4.000000,4.000000,100.000000,,,,,,,,,,,,,,,,
1644853397.336577,195.000000,0.000000,4216.666504,4213.333496,4219.358887,4213.205078,4228.974121,4220.384766,4227.692383,4230.641113,4234.358887,4230.128418,4228.717773,4215.641113,4162.051270,4229.102539,3152.000000,4.000000,86.000000,,,,0.000000,4.000000,4.000000,4.000000,4.000000,4.000000,4.000000,4.000000,4.000000,4.000000,4.000000,4.000000,4.000000,4.000000,4.000000,100.000000,,,,,,,,,,,,,,,,
1644853397.340517,196.000000,0.000000,4226.538574,4219.615234,4223.589844,4215.512695,4222.563965,4217.436035,4226.794922,4229.871582,4235.384766,4232.692383,4232.051270,4215.512695,4168.461426,4232.692383,3460.000000,4.000000,86.000000,,,,0.000000,4.000000,4.000000,4.000000,4.000000,4.000000,4.000000,4.000000,4.000000,4.000000,4.000000,4.000000,4.000000,4.000000,4.000000,100.000000,,,,,,,,,,,,,,,,
1644853397.344457,197.000000,0.000000,4237.436035,4225.641113,4227.179688,4216.282227,4219.615234,4217.948730,4225.256348,4230.000000,4237.051270,4237.436035,4236.794922,4215.512695,4181.410156,4240.256348,3297.000000,4.000000,86.000000,,,,0.000000,4.000000,4.000000,4.000000,4.000000,4.000000,4.000000,4.000000,4.000000,4.000000,4.000000,4.000000,4.000000,4.000000,4.000000,100.000000,,,,,,,,,,,,,,,,
1644853397.348397,198.000000,0.000000,4240.512695,4227.436035,4228.717773,4212.692383,4220.769043,4219.615234,4224.743652,4230.512695,4238.205078,4239.487305,4239.743652,4214.871582,4191.794922,4247.948730,3522.000000,4.000000,86.000000,,,,0.000000,4.000000,4.000000,4.000000,4.000000,4.000000,4.000000,4.000000,4.000000,4.000000,4.000000,4.000000,4.000000,4.000000,4.000000,100.000000,,,,,,,,,,,,,,,,
1644853397.352337,199.000000,0.000000,4231.666504,4223.333496,4227.179688,4205.384766,4222.436035,4219.743652,4225.641113,4230.512695,4236.538574,4234.358887,4238.589844,4212.563965,4192.563965,4250.641113,3152.000000,4.000000,86.000000,,,,0.000000,4.000000,4.000000,4.000000,4.000000,4.000000,4.000000,4.000000,4.000000,4.000000,4.000000,4.000000,4.000000,4.000000,4.000000,100.000000,,,,,,,,,,,,,,,,
1644853397.356277,200.000000,0.000000,4215.256348,4215.128418,4222.436035,4198.205078,4220.512695,4218.205078,4226.794922,4228.717773,4231.666504,4223.461426,4232.563965,4207.948730,4183.333496,4245.641113,3460.000000,4.000000,86.000000,,,,0.000000,4.000000,4.000000,4.000000,4.000000,4.000000,4.000000,4.000000,4.000000,4.000000,4.000000,4.000000,4.000000,4.000000,4.000000,100.000000,,,,,,,,,,,,,,,,
1644853397.360217,201.000000,0.000000,4200.897461,4207.307617,4216.282227,4195.512695,4215.641113,4216.025879,4225.897461,4224.487305,4225.512695,4214.230957,4223.589844,4202.436035,4170.128418,4235.128418,3297.000000,4.000000,86.000000,,,,0.000000,4.000000,4.000000,4.000000,4.000000,4.000000,4.000000,4.000000,4.000000,4.000000,4.000000,4.000000,4.000000,4.000000,4.000000,100.000000,,,,,,,,,,,,,,,,
1644853397.364157,202.000000,0.000000,4197.948730,4203.461426,4211.922852,4198.461426,4211.794922,4214.743652,4222.820313,4219.230957,4221.025879,4212.948730,4216.153809,4198.461426,4160.769043,4225.512695,3522.000000,4.000000,86.000000,,,,0.000000,4.000000,4.000000,4.000000,4.000000,4.000000,4.000000,4.000000,4.000000,4.000000,4.000000,4.000000,4.000000,4.000000,4.000000,100.000000,,,,,,,,,,,,,,,,
1644853397.368097,203.000000,0.000000,4207.948730,4204.871582,4211.666504,4204.743652,4212.820313,4214.871582,4220.384766,4215.769043,4220.384766,4220.256348,4214.230957,4198.333496,4159.743652,4222.179688,3152.000000,4.000000,86.000000,,,,0.000000,4.000000,4.000000,4.000000,4.000000,4.000000,4.000000,4.000000,4.000000,4.000000,4.000000,4.000000,4.000000,4.000000,4.000000,100.000000,,,,,,,,,,,,,,,,
1644853397.372037,204.000000,0.000000,4223.974121,4210.256348,4215.641113,4209.743652,4218.589844,4216.025879,4221.538574,4216.794922,4222.563965,4230.000000,4219.487305,4201.666504,4165.769043,4225.512695,3460.000000,4.000000,86.000000,,,,0.000000,4.000000,4.000000,4.000000,4.000000,4.000000,4.000000,4.000000,4.000000,4.000000,4.000000,4.000000,4.000000,4.000000,4.000000,100.000000,,,,,,,,,,,,,,,,
1644853397.375978,205.000000,0.000000,4235.384766,4217.179688,4220.512695,4210.256348,4225.384766,4217.436035,4225.384766,4221.666504,4225.384766,4234.615234,4228.717773,4205.897461,4173.333496,4231.410156,3297.000000,4.000000,86.000000,,,,0.000000,4.000000,4.000000,4.000000,4.000000,4.000000,4.000000,4.000000,4.000000,4.000000,4.000000,4.000000,4.000000,4.000000,4.000000,100.000000,,,,,,,,,,,,,,,,
1644853397.379918,206.000000,0.000000,4235.384766,4222.563965,4222.307617,4206.538574,4228.589844,4218.333496,4227.948730,4227.307617,4226.922852,4231.153809,4236.025879,4208.333496,4177.179688,4234.615234,3522.000000,4.000000,86.000000,,,,0.000000,4.000000,4.000000,4.000000,4.000000,4.000000,4.000000,4.000000,4.000000,4.000000,4.000000,4.000000,4.000000,4.000000,4.000000,100.000000,,,,,,,,,,,,,,,,
1644853397.383858,207.000000,0.000000,4225.128418,4224.615234,4218.717773,4201.153809,4226.025879,4217.820313,4226.666504,4230.000000,4227.051270,4223.205078,4236.794922,4208.077148,4176.025879,4231.794922,3152.000000,4.000000,86.000000,,,,0.000000,4.000000,4.000000,4.000000,4.000000,4.000000,4.000000,4.000000,4.000000,4.000000,4.000000,4.000000,4.000000,4.000000,4.000000,100.000000,,,,,,,,,,,,,,,,
1644853397.387798,208.000000,0.000000,4212.307617,4223.974121,4211.153809,4197.307617,4219.358887,4216.410156,4222.820313,4228.589844,4226.794922,4217.820313,4230.384766,4206.282227,4171.922852,4223.974121,3460.000000,4.000000,86.000000,,,,0.000000,4.000000,4.000000,4.000000,4.000000,4.000000,4.000000,4.000000,4.000000,4.000000,4.000000,4.000000,4.000000,4.000000,4.000000,100.000000,,,,,,,,,,,,,,,,
1644853397.391738,209.000000,0.000000,4204.871582,4222.307617,4203.717773,4196.666504,4213.974121,4215.256348,4220.128418,4224.487305,4227.051270,4219.230957,4220.256348,4203.589844,4167.051270,4214.871582,3297.000000,4.000000,86.000000,,,,0.000000,4.000000,4.000000,4.000000,4.000000,4.000000,4.000000,4.000000,4.000000,4.000000,4.000000,4.000000,4.000000,4.000000,4.000000,100.000000,,,,,,,,,,,,,,,,
1644853397.395678,210.000000,0.000000,4206.153809,4221.410156,4200.512695,4198.974121,4215.641113,4215.641113,4219.871582,4220.384766,4227.692383,4225.897461,4210.897461,4200.128418,4163.077148,4209.743652,3522.000000,4.000000,86.000000,,,,0.000000,4.000000,4.000000,4.000000,4.000000,4.000000,4.000000,4.000000,4.000000,4.000000,4.000000,4.000000,4.000000,4.000000,4.000000,100.000000,,,,,,,,,,,,,,,,
1644853397.399618,211.000000,0.000000,4213.333496,4221.153809,4201.794922,4202.948730,4224.615234,4217.820313,4220.512695,4217.436035,4228.205078,4232.436035,4206.282227,4195.641113,4160.512695,4211.282227,3152.000000,4.000000,86.000000,,,,0.000000,4.000000,4.000000,4.000000,4.000000,4.000000,4.000000,4.000000,4.000000,4.000000,4.000000,4.000000,4.000000,4.000000,4.000000,100.000000,,,,,,,,,,,,,,,,
1644853397.403558,212.000000,0.000000,4219.358887,4220.000000,4204.615234,4206.794922,4235.000000,4220.512695,4219.743652,4215.641113,4226.666504,4233.205078,4207.563965,4191.153809,4160.384766,4217.307617,3460.000000,4.000000,86.000000,,,,0.000000,4.000000,4.000000,4.000000,4.000000,4.000000,4.000000,4.000000,4.000000,4.000000,4.000000,4.000000,4.000000,4.000000,4.000000,100.000000,,,,,,,,,,,,,,,,
1644853397.407598,213.000000,0.000000,4218.974121,4217.179688,4205.769043,4208.205078,4239.102539,4221.538574,4217.948730,4214.102539,4222.820313,4227.179688,4212.563965,4188.077148,4163.077148,4222.692383,3297.000000,4.000000,86.000000,,,,0.000000,4.000000,4.000000,4.000000,4.000000,4.000000,4.000000,4.000000,4.000000,4.000000,4.000000,4.000000,4.000000,4.000000,4.000000,100.000000,,,,,,,,,,,,,,,,
1644853397.411538,214.000000,0.000000,4213.205078,4215.384766,4205.512695,4206.538574,4234.102539,4220.000000,4216.922852,4212.820313,4217.692383,4218.333496,4218.077148,4188.077148,4167.820313,4224.358887,3522.000000,4.000000,86.000000,,,,0.000000,4.000000,4.000000,4.000000,4.000000,4.000000,4.000000,4.000000,4.000000,4.000000,4.000000,4.000000,4.000000,4.000000,4.000000,100.000000,,,,,,,,,,,,,,,,
1644853397.415479,215.000000,0.000000,4208.974121,4218.333496,4205.897461,4203.205078,4224.871582,4217.307617,4217.948730,4212.563965,4214.615234,4213.333496,4222.820313,4191.666504,4173.333496,4222.948730,3152.000000,4.000000,86.000000,,,,0.000000,4.000000,4.000000,4.000000,4.000000,4.000000,4.000000,4.000000,4.000000,4.000000,4.000000,4.000000,4.000000,4.000000,4.000000,100.000000,,,,,,,,,,,,,,,,
1644853397.419419,216.000000,0.000000,4212.436035,4226.794922,4208.205078,4200.641113,4219.230957,4216.025879,4219.871582,4213.077148,4216.025879,4216.538574,4227.307617,4197.179688,4177.820313,4221.794922,3460.000000,4.000000,86.000000,,,,0.000000,4.000000,4.000000,4.000000,4.000000,4.000000,4.000000,4.000000,4.000000,4.000000,4.000000,4.000000,4.000000,4.000000,4.000000,100.000000,,,,,,,,,,,,,,,,
1644853397.423359,217.000000,0.000000,4221.794922,4236.025879,4210.384766,4200.128418,4221.025879,4217.948730,4220.897461,4213.333496,4220.769043,4225.641113,4231.153809,4201.153809,4180.512695,4222.692383,3297.000000,4.000000,86.000000,,,,0.000000,4.000000,4.000000,4.000000,4.000000,4.000000,4.000000,4.000000,4.000000,4.000000,4.000000,4.000000,4.000000,4.000000,4.000000,100.000000,,,,,,,,,,,,,,,,
1644853397.427299,218.000000,0.000000,4227.436035,4238.846191,4209.743652,4200.384766,4228.333496,4222.436035,4221.025879,4212.563965,4224.487305,4233.333496,4231.410156,4200.769043,4180.128418,4224.871582,3522.000000,4.000000,86.000000,,,,0.000000,4.000000,4.000000,4.000000,4.000000,4.000000,4.000000,4.000000,4.000000,4.000000,4.000000,4.000000,4.000000,4.000000,4.000000,100.000000,,,,,,,,,,,,,,,,
1644853397.431239,219.000000,0.000000,4221.922852,4231.538574,4205.256348,4200.000000,4235.000000,4226.794922,4221.153809,4211.153809,4223.589844,4232.948730,4225.384766,4196.282227,4176.153809,4225.641113,3152.000000,4.000000,86.000000,,,,0.000000,4.000000,4.000000,4.000000,4.000000,4.000000,4.000000,4.000000,4.000000,4.000000,4.000000,4.000000,4.000000,4.000000,4.000000,100.000000,,,,,,,,,,,,,,,,
1644853397.435179,220.000000,0.000000,4206.410156,4217.820313,4198.846191,4198.846191,4236.410156,4228.205078,4221.282227,4209.615234,4218.205078,4224.358887,4215.128418,4191.153809,4169.102539,4224.230957,3460.000000,4.000000,86.000000,,,,0.000000,4.000000,4.000000,4.000000,4.000000,4.000000,4.000000,4.000000,4.000000,4.000000,4.000000,4.000000,4.000000,4.000000,4.000000,100.000000,,,,,,,,,,,,,,,,
1644853397.439119,221.000000,0.000000,4190.769043,4205.384766,4193.589844,4198.717773,4231.410156,4225.769043,4220.384766,4208.333496,4211.922852,4213.589844,4206.922852,4188.333496,4162.051270,4221.922852,3297.000000,4.000000,86.000000,,,,0.000000,4.000000,4.000000,4.000000,4.000000,4.000000,4.000000,4.000000,4.000000,4.000000,4.000000,4.000000,4.000000,4.000000,4.000000,100.000000,,,,,,,,,,,,,,,,
1644853397.443059,222.000000,0.000000,4184.487305,4199.743652,4191.153809,4199.743652,4222.820313,4220.897461,4218.077148,4207.436035,4208.333496,4207.563965,4206.282227,4188.205078,4158.205078,4220.512695,3522.000000,4.000000,86.000000,,,,0.000000,4.000000,4.000000,4.000000,4.000000,4.000000,4.000000,4.000000,4.000000,4.000000,4.000000,4.000000,4.000000,4.000000,4.000000,100.000000,,,,,,,,,,,,,,,,
1644853397.446999,223.000000,0.000000,4189.358887,4200.512695,4190.897461,4199.615234,4214.743652,4216.153809,4215.769043,4207.563965,4208.589844,4209.230957,4212.051270,4188.974121,4158.205078,4218.974121,3152.000000,4.000000,86.000000,,,,0.000000,4.000000,4.000000,4.000000,4.000000,4.000000,4.000000,4.000000,4.000000,4.000000,4.000000,4.000000,4.000000,4.000000,4.000000,100.000000,,,,,,,,,,,,,,,,
1644853397.450939,224.000000,0.000000,4198.974121,4203.077148,4190.897461,4195.384766,4210.256348,4213.717773,4215.769043,4208.461426,4210.641113,4216.025879,4217.948730,4188.846191,4159.615234,4215.128418,3460.000000,4.000000,86.000000,,,,0.000000,4.000000,4.000000,4.000000,4.000000,4.000000,4.000000,4.000000,4.000000,4.000000,4.000000,4.000000,4.000000,4.000000,4.000000,100.000000,,,,,,,,,,,,,,,,
1644853397.454880,225.000000,0.000000,4205.000000,4203.717773,4190.512695,4186.794922,4210.000000,4213.974121,4218.077148,4209.358887,4212.307617,4221.538574,4217.179688,4187.948730,4159.487305,4208.589844,3297.000000,4.000000,86.000000,,,,0.000000,4.000000,4.000000,4.000000,4.000000,4.000000,4.000000,4.000000,4.000000,4.000000,4.000000,4.000000,4.000000,4.000000,4.000000,100.000000,,,,,,,,,,,,,,,,
1644853397.458820,226.000000,0.000000,4203.846191,4202.307617,4190.769043,4177.436035,4212.179688,4215.641113,4220.000000,4209.615234,4212.820313,4221.410156,4210.256348,4188.461426,4157.563965,4202.051270,3522.000000,4.000000,86.000000,,,,0.000000,4.000000,4.000000,4.000000,4.000000,4.000000,4.000000,4.000000,4.000000,4.000000,4.000000,4.000000,4.000000,4.000000,4.000000,100.000000,,,,,,,,,,,,,,,,
1644853397.462760,227.000000,0.000000,4198.333496,4201.794922,4193.205078,4172.307617,4214.615234,4217.051270,4219.871582,4210.000000,4213.461426,4217.051270,4204.487305,4192.051270,4156.666504,4200.128418,3152.000000,4.000000,86.000000,,,,0.000000,4.000000,4.000000,4.000000,4.000000,4.000000,4.000000,4.000000,4.000000,4.000000,4.000000,4.000000,4.000000,4.000000,4.000000,100.000000,,,,,,,,,,,,,,,,
1644853397.466700,228.000000,0.000000,4195.000000,4205.769043,4198.077148,4174.230957,4216.282227,4217.179688,4218.974121,4211.666504,4215.897461,4213.846191,4207.692383,4197.948730,4159.615234,4206.153809,3460.000000,4.000000,86.000000,,,,0.000000,4.000000,4.000000,4.000000,4.000000,4.000000,4.000000,4.000000,4.000000,4.000000,4.000000,4.000000,4.000000,4.000000,4.000000,100.000000,,,,,,,,,,,,,,,,
1644853397.470640,229.000000,0.000000,4198.333496,4214.615234,4204.230957,4182.692383,4217.820313,4216.025879,4219.615234,4215.256348,4220.128418,4215.641113,4220.512695,4203.333496,4167.051270,4219.102539,3297.000000,4.000000,86.000000,,,,0.000000,4.000000,4.000000,4.000000,4.000000,4.000000,4.000000,4.000000,4.000000,4.000000,4.000000,4.000000,4.000000,4.000000,4.000000,100.000000,,,,,,,,,,,,,,,,
1644853397.474580,230.000000,0.000000,4207.563965,4224.358887,4208.974121,4194.230957,4220.128418,4213.846191,4222.051270,4218.974121,4223.974121,4222.563965,4234.102539,4205.256348,4176.025879,4232.820313,3522.000000,4.000000,86.000000,,,,0.000000,4.000000,4.000000,4.000000,4.000000,4.000000,4.000000,4.000000,4.000000,4.000000,4.000000,4.000000,4.000000,4.000000,4.000000,100.000000,,,,,,,,,,,,,,,,
1644853397.478520,231.000000,0.000000,4217.436035,4229.487305,4209.871582,4203.589844,4222.436035,4211.153809,4223.205078,4220.384766,4225.128418,4230.769043,4238.333496,4202.563965,4181.794922,4240.128418,3152.000000,4.000000,86.000000,,,,0.000000,4.000000,4.000000,4.000000,4.000000,4.000000,4.000000,4.000000,4.000000,4.000000,4.000000,4.000000,4.000000,4.000000,4.000000,100.000000,,,,,,,,,,,,,,,,
1644853397.482360,232.000000,0.000000,4223.077148,4227.820313,4206.922852,4207.051270,4222.563965,4208.846191,4221.025879,4218.333496,4223.077148,4235.769043,4229.743652,4197.179688,4180.769043,4238.846191,3460.000000,4.000000,86.000000,,,,0.000000,4.000000,4.000000,4.000000,4.000000,4.000000,4.000000,4.000000,4.000000,4.000000,4.000000,4.000000,4.000000,4.000000,4.000000,100.000000,,,,,,,,,,,,,,,,
1644853397.486301,233.000000,0.000000,4222.820313,4221.282227,4202.692383,4204.102539,4219.487305,4207.948730,4217.307617,4214.743652,4219.871582,4235.512695,4214.743652,4192.179688,4173.717773,4233.846191,3297.000000,4.000000,86.000000,,,,0.000000,4.000000,4.000000,4.000000,4.000000,4.000000,4.000000,4.000000,4.000000,4.000000,4.000000,4.000000,4.000000,4.000000,4.000000,100.000000,,,,,,,,,,,,,,,,
1644853397.490241,234.000000,0.000000,4218.589844,4214.487305,4201.025879,4198.077148,4214.743652,4209.743652,4216.282227,4212.948730,4218.333496,4231.282227,4203.846191,4190.128418,4165.769043,4231.794922,3522.000000,4.000000,86.000000,,,,0.000000,4.000000,4.000000,4.000000,4.000000,4.000000,4.000000,4.000000,4.000000,4.000000,4.000000,4.000000,4.000000,4.000000,4.000000,100.000000,,,,,,,,,,,,,,,,
1644853397.494181,235.000000,0.000000,4213.589844,4211.025879,4203.589844,4192.692383,4211.538574,4213.974121,4219.743652,4214.487305,4219.743652,4225.897461,4204.230957,4191.922852,4163.333496,4234.358887,3152.000000,4.000000,86.000000,,,,0.000000,4.000000,4.000000,4.000000,4.000000,4.000000,4.000000,4.000000,4.000000,4.000000,4.000000,4.000000,4.000000,4.000000,4.000000,100.000000,,,,,,,,,,,,,,,,
1644853397.498121,236.000000,0.000000,4210.512695,4212.307617,4208.205078,4190.256348,4212.307617,4218.461426,4224.615234,4217.307617,4222.436035,4221.794922,4214.615234,4196.410156,4167.948730,4236.282227,3460.000000,4.000000,86.000000,,,,0.000000,4.000000,4.000000,4.000000,4.000000,4.000000,4.000000,4.000000,4.000000,4.000000,4.000000,4.000000,4.000000,4.000000,4.000000,100.000000,,,,,,,,,,,,,,,,
1644853397.502061,237.000000,0.000000,4209.102539,4217.563965,4211.666504,4190.769043,4217.051270,4220.769043,4226.538574,4218.077148,4223.717773,4219.358887,4226.410156,4200.769043,4174.615234,4231.538574,3297.000000,4.000000,86.000000,,,,0.000000,4.000000,4.000000,4.000000,4.000000,4.000000,4.000000,4.000000,4.000000,4.000000,4.000000,4.000000,4.000000,4.000000,4.000000,100.000000,,,,,,,,,,,,,,,,
1644853397.506001,238.000000,0.000000,4207.692383,4223.846191,4211.794922,4193.589844,4222.948730,4220.256348,4224.487305,4215.641113,4221.410156,4217.307617,4231.922852,4202.563965,4176.153809,4220.128418,3522.000000,4.000000,86.000000,,,,0.000000,4.000000,4.000000,4.000000,4.000000,4.000000,4.000000,4.000000,4.000000,4.000000,4.000000,4.000000,4.000000,4.000000,4.000000,100.000000,,,,,,,,,,,,,,,,
1644853397.509941,239.000000,0.000000,4205.769043,4228.205078,4208.717773,4197.820313,4226.666504,4219.102539,4221.153809,4211.410156,4216.025879,4214.615234,4229.358887,4200.897461,4168.974121,4208.333496,3152.000000,4.000000,86.000000,,,,0.000000,4.000000,4.000000,4.000000,4.000000,4.000000,4.000000,4.000000,4.000000,4.000000,4.000000,4.000000,4.000000,4.000000,4.000000,100.000000,,,,,,,,,,,,,,,,
1644853397.513881,240.000000,0.000000,4204.743652,4228.333496,4204.871582,4202.436035,4226.794922,4219.487305,4220.256348,4207.436035,4210.512695,4211.666504,4223.333496,4197.051270,4156.922852,4202.051270,3460.000000,4.000000,86.000000,,,,0.000000,4.000000,4.000000,4.000000,4.000000,4.000000,4.000000,4.000000,4.000000,4.000000,4.000000,4.000000,4.000000,4.000000,4.000000,100.000000,,,,,,,,,,,,,,,,
1644853397.517821,241.000000,0.000000,4206.794922,4225.384766,4202.948730,4204.871582,4225.512695,4222.563965,4222.436035,4205.897461,4208.333496,4209.102539,4218.974121,4194.102539,4148.333496,4201.922852,3297.000000,4.000000,86.000000,,,,0.000000,4.000000,4.000000,4.000000,4.000000,4.000000,4.000000,4.000000,4.000000,4.000000,4.000000,4.000000,4.000000,4.000000,4.000000,100.000000,,,,,,,,,,,,,,,,
1644853397.521761,242.000000,0.000000,4213.205078,4221.794922,4204.230957,4203.717773,4225.897461,4227.948730,4225.641113,4207.051270,4210.769043,4208.333496,4218.077148,4194.615234,4149.358887,4204.871582,3522.000000,4.000000,86.000000,,,,0.000000,4.000000,4.000000,4.000000,4.000000,4.000000,4.000000,4.000000,4.000000,4.000000,4.000000,4.000000,4.000000,4.000000,4.000000,100.000000,,,,,,,,,,,,,,,,
1644853397.525702,243.000000,0.000000,4222.179688,4220.000000,4208.077148,4200.512695,4229.615234,4233.717773,4228.589844,4210.512695,4216.410156,4209.615234,4219.230957,4198.846191,4158.974121,4209.102539,3152.000000,4.000000,86.000000,,,,0.000000,4.000000,4.000000,4.000000,4.000000,4.000000,4.000000,4.000000,4.000000,4.000000,4.000000,4.000000,4.000000,4.000000,4.000000,100.000000,,,,,,,,,,,,,,,,
1644853397.529642,244.000000,0.000000,4230.256348,4220.897461,4212.563965,4198.461426,4234.487305,4237.692383,4231.282227,4215.128418,4221.666504,4212.563965,4220.384766,4204.487305,4170.000000,4216.794922,3460.000000,4.000000,86.000000,,,,0.000000,4.000000,4.000000,4.000000,4.000000,4.000000,4.000000,4.000000,4.000000,4.000000,4.000000,4.000000,4.000000,4.000000,4.000000,100.000000,,,,,,,,,,,,,,,,
1644853397.533582,245.000000,0.000000,4233.717773,4223.461426,4214.871582,4199.358887,4236.410156,4238.333496,4233.846191,4219.358887,4223.846191,4216.153809,4220.128418,4207.307617,4175.384766,4228.974121,3297.000000,4.000000,86.000000,,,,0.000000,4.000000,4.000000,4.000000,4.000000,4.000000,4.000000,4.000000,4.000000,4.000000,4.000000,4.000000,4.000000,4.000000,4.000000,100.000000,,,,,,,,,,,,,,,,
1644853397.537522,246.000000,0.000000,4230.769043,4225.769043,4213.589844,4201.410156,4232.307617,4235.256348,4234.871582,4221.153809,4222.692383,4219.230957,4218.077148,4205.000000,4172.436035,4241.410156,3522.000000,4.000000,86.000000,,,,0.000000,4.000000,4.000000,4.000000,4.000000,4.000000,4.000000,4.000000,4.000000,4.000000,4.000000,4.000000,4.000000,4.000000,4.000000,100.000000,,,,,,,,,,,,,,,,
1644853397.541462,247.000000,0.000000,4222.307617,4225.769043,4209.358887,4201.410156,4223.461426,4229.871582,4232.692383,4219.615234,4219.615234,4221.025879,4214.230957,4199.102539,4163.205078,4246.538574,3152.000000,4.000000,86.000000,,,,0.000000,4.000000,4.000000,4.000000,4.000000,4.000000,4.000000,4.000000,4.000000,4.000000,4.000000,4.000000,4.000000,4.000000,4.000000,100.000000,,,,,,,,,,,,,,,,
1644853397.545402,248.000000,0.000000,4211.282227,4222.563965,4205.128418,4197.820313,4214.487305,4224.230957,4228.205078,4215.769043,4216.153809,4220.384766,4209.871582,4193.589844,4152.820313,4241.025879,3460.000000,4.000000,86.000000,,,,0.000000,4.000000,4.000000,4.000000,4.000000,4.000000,4.000000,4.000000,4.000000,4.000000,4.000000,4.000000,4.000000,4.000000,4.000000,100.000000,,,,,,,,,,,,,,,,
1644853397.549342,249.000000,0.000000,4201.666504,4217.051270,4203.205078,4192.948730,4210.512695,4220.512695,4224.358887,4211.922852,4212.948730,4216.922852,4206.153809,4191.666504,4146.410156,4228.333496,3297.000000,4.000000,86.000000,,,,0.000000,4.000000,4.000000,4.000000,4.000000,4.000000,4.000000,4.000000,4.000000,4.000000,4.000000,4.000000,4.000000,4.000000,4.000000,100.000000,,,,,,,,,,,,,,,,
1644853397.553282,250.000000,0.000000,4196.922852,4211.922852,4203.974121,4190.128418,4213.717773,4220.000000,4223.589844,4210.256348,4210.897461,4211.666504,4205.641113,4193.589844,4146.794922,4216.538574,3522.000000,4.000000,86.000000,,,,0.000000,4.000000,4.000000,4.000000,4.000000,4.000000,4.000000,4.000000,4.000000,4.000000,4.000000,4.000000,4.000000,4.000000,4.000000,100.000000,,,,,,,,,,,,,,,,
1644853397.557123,251.000000,0.000000,4199.871582,4210.641113,4206.410156,4191.282227,4222.051270,4222.436035,4225.256348,4211.922852,4211.538574,4208.461426,4210.897461,4198.077148,4154.487305,4212.179688,3152.000000,4.000000,86.000000,,,,0.000000,4.000000,4.000000,4.000000,4.000000,4.000000,4.000000,4.000000,4.000000,4.000000,4.000000,4.000000,4.000000,4.000000,4.000000,100.000000,,,,,,,,,,,,,,,,
1644853397.561063,252.000000,0.000000,4210.256348,4215.000000,4208.974121,4195.641113,4230.897461,4226.538574,4226.794922,4216.282227,4216.153809,4211.282227,4222.179688,4203.077148,4167.051270,4216.922852,3460.000000,4.000000,86.000000,,,,0.000000,4.000000,4.000000,4.000000,4.000000,4.000000,4.000000,4.000000,4.000000,4.000000,4.000000,4.000000,4.000000,4.000000,4.000000,100.000000,,,,,,,,,,,,,,,,
1644853397.565003,253.000000,0.000000,4223.717773,4223.461426,4211.794922,4201.153809,4236.025879,4230.384766,4226.794922,4221.282227,4223.846191,4220.384766,4235.641113,4206.666504,4179.871582,4228.077148,3297.000000,4.000000,86.000000,,,,0.000000,4.000000,4.000000,4.000000,4.000000,4.000000,4.000000,4.000000,4.000000,4.000000,4.000000,4.000000,4.000000,4.000000,4.000000,100.000000,,,,,,,,,,,,,,,,
1644853397.568943,254.000000,0.000000,4234.358887,4231.410156,4215.128418,4205.128418,4236.025879,4232.820313,4226.282227,4225.000000,4231.794922,4231.282227,4244.230957,4208.077148,4188.077148,4240.000000,3522.000000,4.000000,86.000000,,,,0.000000,4.000000,4.000000,4.000000,4.000000,4.000000,4.000000,4.000000,4.000000,4.000000,4.000000,4.000000,4.000000,4.000000,4.000000,100.000000,,,,,,,,,,,,,,,,
1644853397.572883,255.000000,0.000000,4238.205078,4235.384766,4218.717773,4205.512695,4232.948730,4233.846191,4226.282227,4226.153809,4236.025879,4238.205078,4243.461426,4207.051270,4188.846191,4247.563965,113.000000,4.000000,86.000000,,,,0.000000,4.000000,4.000000,4.000000,4.000000,4.000000,4.000000,4.000000,4.000000,4.000000,4.000000,4.000000,4.000000,4.000000,4.000000,100.000000,,,,,,,,,,,,,,,,
1644853397.576823,0.000000,0.000000,4235.256348,4234.871582,4221.025879,4201.794922,4230.641113,4234.102539,4226.666504,4224.487305,4235.256348,4238.717773,4234.615234,4204.487305,4182.948730,4248.461426,3436.000000,4.000000,86.000000,,,,0.000000,4.000000,4.000000,4.000000,4.000000,4.000000,4.000000,4.000000,4.000000,4.000000,4.000000,4.000000,4.000000,4.000000,4.000000,100.000000,,,,,,,,,,,,,,,,
1644853397.580763,1.000000,0.000000,4228.333496,4232.051270,4220.256348,4196.025879,4230.641113,4234.102539,4226.153809,4220.641113,4231.153809,4234.871582,4223.846191,4202.051270,4175.000000,4243.461426,3247.000000,4.000000,86.000000,,,,0.000000,4.000000,4.000000,4.000000,4.000000,4.000000,4.000000,4.000000,4.000000,4.000000,4.000000,4.000000,4.000000,4.000000,4.000000,100.000000,,,,,,,,,,,,,,,,
1644853397.584703,2.000000,0.000000,4220.641113,4228.974121,4216.538574,4192.179688,4231.794922,4233.589844,4224.230957,4216.282227,4227.563965,4230.641113,4217.051270,4200.769043,4168.589844,4235.128418,3786.000000,4.000000,86.000000,,,,0.000000,4.000000,4.000000,4.000000,4.000000,4.000000,4.000000,4.000000,4.000000,4.000000,4.000000,4.000000,4.000000,4.000000,4.000000,100.000000,,,,,,,,,,,,,,,,
1644853397.588643,3.000000,0.000000,4214.230957,4226.922852,4212.179688,4193.205078,4231.666504,4232.563965,4222.948730,4213.333496,4226.666504,4228.333496,4215.897461,4200.769043,4164.743652,4226.025879,3557.000000,4.000000,86.000000,,,,0.000000,4.000000,4.000000,4.000000,4.000000,4.000000,4.000000,4.000000,4.000000,4.000000,4.000000,4.000000,4.000000,4.000000,4.000000,100.000000,,,,,,,,,,,,,,,,
1644853397.592583,4.000000,0.000000,4210.641113,4226.025879,4209.743652,4199.487305,4229.871582,4231.153809,4223.846191,4212.820313,4228.205078,4226.922852,4217.307617,4201.025879,4161.538574,4218.717773,3726.000000,4.000000,86.000000,,,,0.000000,4.000000,4.000000,4.000000,4.000000,4.000000,4.000000,4.000000,4.000000,4.000000,4.000000,4.000000,4.000000,4.000000,4.000000,100.000000,,,,,,,,,,,,,,,,
1644853397.596524,5.000000,0.000000,4211.153809,4227.436035,4209.871582,4208.461426,4227.948730,4230.769043,4226.025879,4213.846191,4229.358887,4224.487305,4217.692383,4199.743652,4158.589844,4216.410156,3354.000000,4.000000,86.000000,,,,0.000000,4.000000,4.000000,4.000000,4.000000,4.000000,4.000000,4.000000,4.000000,4.000000,4.000000,4.000000,4.000000,4.000000,4.000000,100.000000,,,,,,,,,,,,,,,,
1644853397.600364,6.000000,0.000000,4216.025879,4231.282227,4210.128418,4216.794922,4227.436035,4232.051270,4226.794922,4213.717773,4227.436035,4219.487305,4216.666504,4196.025879,4158.205078,4221.538574,2817.000000,4.000000,86.000000,,,,0.000000,4.000000,4.000000,4.000000,4.000000,4.000000,4.000000,4.000000,4.000000,4.000000,4.000000,4.000000,4.000000,4.000000,4.000000,100.000000,,,,,,,,,,,,,,,,
1644853397.604304,7.000000,0.000000,4224.230957,4235.769043,4208.846191,4220.641113,4227.820313,4233.974121,4224.487305,4210.512695,4221.794922,4212.179688,4216.410156,4190.641113,4162.692383,4232.307617,2926.000000,4.000000,86.000000,,,,0.000000,4.000000,4.000000,4.000000,4.000000,4.000000,4.000000,4.000000,4.000000,4.000000,4.000000,4.000000,4.000000,4.000000,4.000000,100.000000,,,,,,,,,,,,,,,,
1644853397.608344,8.000000,0.000000,4230.512695,4237.179688,4205.897461,4217.820313,4227.820313,4234.871582,4220.641113,4204.102539,4213.589844,4204.230957,4217.179688,4186.282227,4169.743652,4241.666504,3287.000000,4.000000,86.000000,,,,0.000000,4.000000,4.000000,4.000000,4.000000,4.000000,4.000000,4.000000,4.000000,4.000000,4.000000,4.000000,4.000000,4.000000,4.000000,100.000000,,,,,,,,,,,,,,,,
1644853397.612284,9.000000,0.000000,4228.461426,4232.692383,4203.333496,4209.102539,4226.666504,4233.461426,4217.948730,4196.922852,4205.256348,4198.077148,4215.769043,4185.641113,4172.948730,4240.256348,3452.000000,4.000000,86.000000,,,,0.000000,4.000000,4.000000,4.000000,4.000000,4.000000,4.000000,4.000000,4.000000,4.000000,4.000000,4.000000,4.000000,4.000000,4.000000,100.000000,,,,,,,,,,,,,,,,
1644853397.616224,10.000000,0.000000,4215.000000,4222.436035,4203.077148,4199.102539,4225.897461,4231.153809,4217.692383,4191.922852,4199.615234,4195.897461,4208.077148,4190.256348,4166.922852,4224.615234,3536.000000,4.000000,86.000000,,,,0.000000,4.000000,4.000000,4.000000,4.000000,4.000000,4.000000,4.000000,4.000000,4.000000,4.000000,4.000000,4.000000,4.000000,4.000000,100.000000,,,,,,,,,,,,,,,,
1644853397.620164,11.000000,0.000000,4195.641113,4211.410156,4205.512695,4194.102539,4227.820313,4230.000000,4218.974121,4191.025879,4198.846191,4198.205078,4195.128418,4198.461426,4153.589844,4201.794922,3163.000000,4.000000,86.000000,,,,0.000000,4.000000,4.000000,4.000000,4.000000,4.000000,4.000000,4.000000,4.000000,4.000000,4.000000,4.000000,4.000000,4.000000,4.000000,100.000000,,,,,,,,,,,,,,,,
1644853397.624104,12.000000,0.000000,4182.692383,4206.794922,4209.487305,4197.307617,4232.820313,4230.897461,4220.769043,4194.871582,4203.077148,4203.974121,4184.102539,4205.769043,4142.051270,4186.794922,3666.000000,4.000000,86.000000,,,,0.000000,4.000000,4.000000,4.000000,4.000000,4.000000,4.000000,4.000000,4.000000,4.000000,4.000000,4.000000,4.000000,4.000000,4.000000,100.000000,,,,,,,,,,,,,,,,
1644853397.628044,13.000000,0.000000,4186.410156,4213.205078,4213.077148,4205.897461,4237.948730,4232.820313,4222.692383,4201.794922,4210.641113,4211.025879,4184.102539,4207.563965,4142.051270,4191.538574,3406.000000,4.000000,86.000000,,,,0.000000,4.000000,4.000000,4.000000,4.000000,4.000000,4.000000,4.000000,4.000000,4.000000,4.000000,4.000000,4.000000,4.000000,4.000000,100.000000,,,,,,,,,,,,,,,,
1644853397.631985,14.000000,0.000000,4208.461426,4228.461426,4215.384766,4214.358887,4239.743652,4233.974121,4225.000000,4208.974121,4218.077148,4217.307617,4199.102539,4202.948730,4156.794922,4215.897461,3536.000000,4.000000,86.000000,,,,0.000000,4.000000,4.000000,4.000000,4.000000,4.000000,4.000000,4.000000,4.000000,4.000000,4.000000,4.000000,4.000000,4.000000,4.000000,100.000000,,,,,,,,,,,,,,,,
1644853397.636025,15.000000,0.000000,4239.102539,4244.615234,4216.410156,4219.358887,4237.692383,4233.461426,4227.051270,4213.717773,4222.563965,4222.692383,4223.974121,4196.153809,4180.641113,4247.307617,3163.000000,4.000000,86.000000,,,,0.000000,4.000000,4.000000,4.000000,4.000000,4.000000,4.000000,4.000000,4.000000,4.000000,4.000000,4.000000,4.000000,4.000000,4.000000,100.000000,,,,,,,,,,,,,,,,
1644853397.639965,16.000000,0.000000,4264.487305,4253.846191,4217.179688,4221.410156,4234.743652,4232.051270,4227.563965,4215.000000,4223.717773,4228.205078,4247.692383,4192.820313,4202.692383,4270.897461,3666.000000,4.000000,86.000000,,,,0.000000,4.000000,4.000000,4.000000,4.000000,4.000000,4.000000,4.000000,4.000000,4.000000,4.000000,4.000000,4.000000,4.000000,4.000000,100.000000,,,,,,,,,,,,,,,,
1644853397.643905,17.000000,0.000000,4274.358887,4253.974121,4218.717773,4222.179688,4235.000000,4231.025879,4226.666504,4214.102539,4223.461426,4234.230957,4259.871582,4195.769043,4213.205078,4278.461426,3406.000000,4.000000,86.000000,,,,0.000000,4.000000,4.000000,4.000000,4.000000,4.000000,4.000000,4.000000,4.000000,4.000000,4.000000,4.000000,4.000000,4.000000,4.000000,100.000000,,,,,,,,,,,,,,,,
1644853397.647845,18.000000,0.000000,4267.563965,4248.333496,4221.538574,4221.922852,4238.589844,4231.153809,4226.025879,4213.461426,4223.717773,4239.615234,4258.461426,4203.717773,4209.358887,4272.051270,3536.000000,4.000000,86.000000,,,,0.000000,4.000000,4.000000,4.000000,4.000000,4.000000,4.000000,4.000000,4.000000,4.000000,4.000000,4.000000,4.000000,4.000000,4.000000,100.000000,,,,,,,,,,,,,,,,
1644853397.651785,19.000000,0.000000,4250.512695,4242.436035,4225.641113,4218.333496,4242.179688,4231.538574,4227.692383,4215.384766,4225.256348,4242.563965,4250.000000,4212.563965,4195.641113,4259.487305,3163.000000,4.000000,86.000000,,,,0.000000,4.000000,4.000000,4.000000,4.000000,4.000000,4.000000,4.000000,4.000000,4.000000,4.000000,4.000000,4.000000,4.000000,4.000000,100.000000,,,,,,,,,,,,,,,,
1644853397.655725,20.000000,0.000000,4232.436035,4239.230957,4230.128418,4210.641113,4241.538574,4231.410156,4230.641113,4220.384766,4227.563965,4242.948730,4243.589844,4217.948730,4180.769043,4247.692383,3666.000000,4.000000,86.000000,,,,0.000000,4.000000,4.000000,4.000000,4.000000,4.000000,4.000000,4.000000,4.000000,4.000000,4.000000,4.000000,4.000000,4.000000,4.000000,100.000000,,,,,,,,,,,,,,,,
1644853397.659665,21.000000,0.000000,4220.384766,4238.077148,4232.563965,4201.666504,4236.666504,4230.512695,4232.179688,4226.025879,4230.000000,4241.410156,4243.077148,4218.846191,4171.282227,4238.974121,3406.000000,4.000000,86.000000,,,,0.000000,4.000000,4.000000,4.000000,4.000000,4.000000,4.000000,4.000000,4.000000,4.000000,4.000000,4.000000,4.000000,4.000000,4.000000,100.000000,,,,,,,,,,,,,,,,
1644853397.663605,22.000000,0.000000,4216.666504,4236.410156,4231.410156,4197.307617,4231.410156,4229.871582,4230.512695,4229.615234,4232.307617,4238.589844,4244.871582,4217.436035,4169.358887,4232.563965,3536.000000,4.000000,86.000000,,,,0.000000,4.000000,4.000000,4.000000,4.000000,4.000000,4.000000,4.000000,4.000000,4.000000,4.000000,4.000000,4.000000,4.000000,4.000000,100.000000,,,,,,,,,,,,,,,,
1644853397.667545,23.000000,0.000000,4220.384766,4232.179688,4227.436035,4201.410156,4229.871582,4229.871582,4226.794922,4229.615234,4232.948730,4234.230957,4241.538574,4216.025879,4172.948730,4227.948730,3163.000000,4.000000,86.000000,,,,0.000000,4.000000,4.000000,4.000000,4.000000,4.000000,4.000000,4.000000,4.000000,4.000000,4.000000,4.000000,4.000000,4.000000,4.000000,100.000000,,,,,,,,,,,,,,,,
1644853397.671485,24.000000,0.000000,4228.717773,4226.153809,4223.461426,4211.538574,4231.666504,4229.615234,4224.487305,4226.666504,4231.282227,4227.948730,4228.974121,4215.641113,4178.333496,4226.666504,3666.000000,4.000000,86.000000,,,,0.000000,4.000000,4.000000,4.000000,4.000000,4.000000,4.000000,4.000000,4.000000,4.000000,4.000000,4.000000,4.000000,4.000000,4.000000,100.000000,,,,,,,,,,,,,,,,
1644853397.675426,25.000000,0.000000,4237.307617,4221.025879,4221.794922,4220.256348,4232.436035,4227.820313,4224.871582,4223.205078,4227.948730,4221.410156,4212.051270,4215.384766,4181.794922,4229.102539,3406.000000,4.000000,86.000000,,,,0.000000,4.000000,4.000000,4.000000,4.000000,4.000000,4.000000,4.000000,4.000000,4.000000,4.000000,4.000000,4.000000,4.000000,4.000000,100.000000,,,,,,,,,,,,,,,,
1644853397.679366,26.000000,0.000000,4242.307617,4219.230957,4222.820313,4221.410156,4228.974121,4224.871582,4226.666504,4221.153809,4225.000000,4216.794922,4201.153809,4213.589844,4181.025879,4233.717773,3536.000000,4.000000,86.000000,,,,0.000000,4.000000,4.000000,4.000000,4.000000,4.000000,4.000000,4.000000,4.000000,4.000000,4.000000,4.000000,4.000000,4.000000,4.000000,100.000000,,,,,,,,,,,,,,,,
1644853397.683406,27.000000,0.000000,4242.307617,4221.153809,4225.512695,4214.743652,4222.563965,4222.692383,4227.948730,4220.897461,4224.230957,4216.666504,4203.846191,4209.615234,4176.922852,4237.307617,3163.000000,4.000000,86.000000,,,,0.000000,4.000000,4.000000,4.000000,4.000000,4.000000,4.000000,4.000000,4.000000,4.000000,4.000000,4.000000,4.000000,4.000000,4.000000,100.000000,,,,,,,,,,,,,,,,
1644853397.687346,28.000000,0.000000,4239.358887,4225.384766,4227.820313,4206.410156,4217.820313,4223.205078,4228.461426,4221.666504,4225.256348,4221.025879,4218.205078,4204.743652,4173.846191,4238.974121,3666.000000,4.000000,86.000000,,,,0.000000,4.000000,4.000000,4.000000,4.000000,4.000000,4.000000,4.000000,4.000000,4.000000,4.000000,4.000000,4.000000,4.000000,4.000000,100.000000,,,,,,,,,,,,,,,,
1644853397.691286,29.000000,0.000000,4236.794922,4230.000000,4228.589844,4202.563965,4218.077148,4226.282227,4229.102539,4222.563965,4226.282227,4226.410156,4235.384766,4202.307617,4177.179688,4240.128418,3406.000000,4.000000,86.000000,,,,0.000000,4.000000,4.000000,4.000000,4.000000,4.000000,4.000000,4.000000,4.000000,4.000000,4.000000,4.000000,4.000000,4.000000,4.000000,100.000000,,,,,,,,,,,,,,,,
1644853397.695226,30.000000,0.000000,4235.769043,4233.077148,4227.692383,4203.974121,4222.692383,4229.615234,4229.743652,4222.563965,4226.025879,4228.589844,4246.153809,4206.666504,4187.820313,4240.897461,3536.000000,4.000000,86.000000,,,,0.000000,4.000000,4.000000,4.000000,4.000000,4.000000,4.000000,4.000000,4.000000,4.000000,4.000000,4.000000,4.000000,4.000000,4.000000,100.000000,,,,,,,,,,,,,,,,
1644853397.699166,31.000000,0.000000,4233.461426,4233.333496,4226.794922,4205.384766,4228.461426,4231.153809,4229.358887,4222.051270,4225.128418,4225.384766,4246.538574,4219.615234,4198.846191,4238.974121,3163.000000,4.000000,86.000000,,,,0.000000,4.000000,4.000000,4.000000,4.000000,4.000000,4.000000,4.000000,4.000000,4.000000,4.000000,4.000000,4.000000,4.000000,4.000000,100.000000,,,,,,,,,,,,,,,,
1644853397.703106,32.000000,0.000000,4226.153809,4229.871582,4227.563965,4201.666504,4232.820313,4230.897461,4227.307617,4221.538574,4225.384766,4219.230957,4240.256348,4237.179688,4201.282227,4233.205078,0.000000,4.000000,86.000000,,,,0.000000,4.000000,4.000000,4.000000,4.000000,4.000000,4.000000,4.000000,4.000000,4.000000,4.000000,4.000000,4.000000,4.000000,4.000000,100.000000,,,,,,,,,,,,,,,,
