title:Alex-GArQ9Neu_3hdZcJwQYMndA, start timestamp:1644854559.278393, stop timestamp:1644854585.695401, headset type:EPOCPLUS, headset serial:3B9AEBFF, headset firmware:626, channels:55, sampling rate:eeg_256, samples:6706      , version:2.1, 
Timestamp,EEG.Counter,EEG.Interpolated,EEG.AF3,EEG.F7,EEG.F3,EEG.FC5,EEG.T7,EEG.P7,EEG.O1,EEG.O2,EEG.P8,EEG.T8,EEG.FC6,EEG.F4,EEG.F8,EEG.AF4,EEG.RawCq,EEG.Battery,EEG.BatteryPercent,MarkerIndex,MarkerType,MarkerValueInt,EEG.MarkerHardware,CQ.AF3,CQ.F7,CQ.F3,CQ.FC5,CQ.T7,CQ.P7,CQ.O1,CQ.O2,CQ.P8,CQ.T8,CQ.FC6,CQ.F4,CQ.F8,CQ.AF4,CQ.Overall,EQ.SampleRateQuality,EQ.OVERALL,EQ.AF3,EQ.F7,EQ.F3,EQ.FC5,EQ.T7,EQ.P7,EQ.O1,EQ.O2,EQ.P8,EQ.T8,EQ.FC6,EQ.F4,EQ.F8,EQ.AF4
1644854559.278393,180.000000,0.000000,4242.307617,4208.077148,4174.102539,4149.230957,4198.461426,4189.487305,4190.128418,4192.307617,4201.282227,4224.743652,4220.128418,4167.563965,4185.769043,4229.871582,3455.000000,4.000000,82.000000,,,,0.000000,4.000000,4.000000,4.000000,4.000000,4.000000,4.000000,4.000000,4.000000,4.000000,4.000000,4.000000,4.000000,4.000000,4.000000,100.000000,,,,,,,,,,,,,,,,
1644854559.282433,181.000000,0.000000,4237.436035,4210.512695,4178.077148,4152.820313,4192.820313,4190.512695,4192.051270,4194.230957,4201.282227,4219.871582,4213.974121,4170.384766,4199.743652,4236.410156,3648.000000,4.000000,82.000000,,,,0.000000,4.000000,4.000000,4.000000,4.000000,4.000000,4.000000,4.000000,4.000000,4.000000,4.000000,4.000000,4.000000,4.000000,4.000000,100.000000,,,,,,,,,,,,,,,,
1644854559.286373,182.000000,0.000000,4237.563965,4211.153809,4182.051270,4165.769043,4192.307617,4191.025879,4195.256348,4195.641113,4200.128418,4211.666504,4216.666504,4170.641113,4215.641113,4245.384766,3531.000000,4.000000,82.000000,,,,0.000000,4.000000,4.000000,4.000000,4.000000,4.000000,4.000000,4.000000,4.000000,4.000000,4.000000,4.000000,4.000000,4.000000,4.000000,100.000000,,,,,,,,,,,,,,,,
1644854559.290313,183.000000,0.000000,4242.948730,4208.333496,4183.333496,4179.487305,4196.282227,4189.743652,4196.153809,4194.102539,4197.436035,4205.641113,4222.563965,4167.563965,4224.358887,4252.179688,2418.000000,4.000000,82.000000,,,,0.000000,4.000000,4.000000,4.000000,4.000000,4.000000,4.000000,4.000000,4.000000,4.000000,4.000000,4.000000,4.000000,4.000000,4.000000,100.000000,,,,,,,,,,,,,,,,
1644854559.294253,184.000000,0.000000,4249.871582,4203.589844,4182.051270,4182.820313,4198.846191,4187.051270,4192.692383,4189.615234,4193.846191,4205.641113,4222.948730,4164.102539,4222.179688,4255.512695,3455.000000,4.000000,82.000000,,,,0.000000,4.000000,4.000000,4.000000,4.000000,4.000000,4.000000,4.000000,4.000000,4.000000,4.000000,4.000000,4.000000,4.000000,4.000000,100.000000,,,,,,,,,,,,,,,,
1644854559.298194,185.000000,0.000000,4253.333496,4200.769043,4180.769043,4171.153809,4194.358887,4184.358887,4187.692383,4184.230957,4190.512695,4209.743652,4214.230957,4163.846191,4210.769043,4257.179688,3648.000000,4.000000,82.000000,,,,0.000000,4.000000,4.000000,4.000000,4.000000,4.000000,4.000000,4.000000,4.000000,4.000000,4.000000,4.000000,4.000000,4.000000,4.000000,100.000000,,,,,,,,,,,,,,,,
1644854559.302134,186.000000,0.000000,4250.641113,4202.692383,4181.666504,4150.128418,4183.461426,4183.205078,4185.256348,4180.128418,4187.307617,4211.282227,4200.641113,4167.307617,4196.410156,4258.589844,3531.000000,4.000000,82.000000,,,,0.000000,4.000000,4.000000,4.000000,4.000000,4.000000,4.000000,4.000000,4.000000,4.000000,4.000000,4.000000,4.000000,4.000000,4.000000,100.000000,,,,,,,,,,,,,,,,
1644854559.306074,187.000000,0.000000,4244.230957,4207.820313,4183.974121,4131.794922,4173.077148,4183.846191,4186.282227,4177.692383,4183.846191,4205.256348,4191.282227,4171.666504,4185.769043,4257.820313,2418.000000,4.000000,82.000000,,,,0.000000,4.000000,4.000000,4.000000,4.000000,4.000000,4.000000,4.000000,4.000000,4.000000,4.000000,4.000000,4.000000,4.000000,4.000000,100.000000,,,,,,,,,,,,,,,,
1644854559.310014,188.000000,0.000000,4238.333496,4212.436035,4185.000000,4127.692383,4169.871582,4185.384766,4187.179688,4175.384766,4180.000000,4193.077148,4192.179688,4172.563965,4182.179688,4251.922852,3455.000000,4.000000,82.000000,,,,0.000000,4.000000,4.000000,4.000000,4.000000,4.000000,4.000000,4.000000,4.000000,4.000000,4.000000,4.000000,4.000000,4.000000,4.000000,100.000000,,,,,,,,,,,,,,,,
1644854559.313954,189.000000,0.000000,4235.769043,4212.563965,4183.205078,4140.384766,4175.128418,4185.897461,4184.743652,4172.051270,4176.410156,4181.666504,4202.563965,4168.846191,4184.871582,4241.153809,3648.000000,4.000000,82.000000,,,,0.000000,4.000000,4.000000,4.000000,4.000000,4.000000,4.000000,4.000000,4.000000,4.000000,4.000000,4.000000,4.000000,4.000000,4.000000,100.000000,,,,,,,,,,,,,,,,
1644854559.317894,190.000000,0.000000,4235.897461,4208.333496,4180.000000,4161.922852,4184.487305,4185.128418,4180.769043,4168.717773,4174.230957,4177.436035,4215.384766,4163.077148,4190.000000,4230.897461,3531.000000,4.000000,82.000000,,,,0.000000,4.000000,4.000000,4.000000,4.000000,4.000000,4.000000,4.000000,4.000000,4.000000,4.000000,4.000000,4.000000,4.000000,4.000000,100.000000,,,,,,,,,,,,,,,,
1644854559.321834,191.000000,0.000000,4236.922852,4203.846191,4179.102539,4179.487305,4192.820313,4184.102539,4179.871582,4167.436035,4175.000000,4182.179688,4222.820313,4159.743652,4194.102539,4227.948730,2418.000000,4.000000,82.000000,,,,0.000000,4.000000,4.000000,4.000000,4.000000,4.000000,4.000000,4.000000,4.000000,4.000000,4.000000,4.000000,4.000000,4.000000,4.000000,100.000000,,,,,,,,,,,,,,,,
1644854559.325774,192.000000,0.000000,4238.333496,4203.717773,4182.436035,4183.461426,4197.692383,4184.487305,4183.846191,4170.128418,4178.589844,4191.538574,4221.794922,4161.153809,4195.641113,4233.846191,3455.000000,4.000000,82.000000,,,,0.000000,4.000000,4.000000,4.000000,4.000000,4.000000,4.000000,4.000000,4.000000,4.000000,4.000000,4.000000,4.000000,4.000000,4.000000,100.000000,,,,,,,,,,,,,,,,
1644854559.329714,193.000000,0.000000,4241.794922,4209.230957,4187.563965,4172.948730,4199.871582,4186.538574,4188.589844,4174.871582,4182.948730,4199.615234,4214.871582,4165.384766,4194.743652,4243.717773,3648.000000,4.000000,82.000000,,,,0.000000,4.000000,4.000000,4.000000,4.000000,4.000000,4.000000,4.000000,4.000000,4.000000,4.000000,4.000000,4.000000,4.000000,4.000000,100.000000,,,,,,,,,,,,,,,,
1644854559.333654,194.000000,0.000000,4249.743652,4216.538574,4190.128418,4155.512695,4200.512695,4188.589844,4189.615234,4178.589844,4186.025879,4202.436035,4207.692383,4168.589844,4192.179688,4251.025879,3531.000000,4.000000,82.000000,,,,0.000000,4.000000,4.000000,4.000000,4.000000,4.000000,4.000000,4.000000,4.000000,4.000000,4.000000,4.000000,4.000000,4.000000,4.000000,100.000000,,,,,,,,,,,,,,,,
1644854559.337595,195.000000,0.000000,4261.794922,4220.769043,4188.461426,4141.153809,4199.102539,4188.589844,4186.282227,4179.743652,4187.563965,4200.641113,4205.769043,4168.333496,4188.974121,4253.205078,2418.000000,4.000000,82.000000,,,,0.000000,4.000000,4.000000,4.000000,4.000000,4.000000,4.000000,4.000000,4.000000,4.000000,4.000000,4.000000,4.000000,4.000000,4.000000,100.000000,,,,,,,,,,,,,,,,
1644854559.341535,196.000000,0.000000,4273.846191,4220.769043,4185.128418,4137.820313,4194.230957,4186.538574,4183.461426,4180.384766,4189.230957,4198.205078,4211.025879,4165.769043,4188.717773,4253.205078,3455.000000,4.000000,82.000000,,,,0.000000,4.000000,4.000000,4.000000,4.000000,4.000000,4.000000,4.000000,4.000000,4.000000,4.000000,4.000000,4.000000,4.000000,4.000000,100.000000,,,,,,,,,,,,,,,,
1644854559.345475,197.000000,0.000000,4280.769043,4218.717773,4184.230957,4147.179688,4186.666504,4184.743652,4185.000000,4183.077148,4192.179688,4199.487305,4220.769043,4164.487305,4195.128418,4254.615234,3648.000000,4.000000,82.000000,,,,0.000000,4.000000,4.000000,4.000000,4.000000,4.000000,4.000000,4.000000,4.000000,4.000000,4.000000,4.000000,4.000000,4.000000,4.000000,100.000000,,,,,,,,,,,,,,,,
1644854559.349415,198.000000,0.000000,4280.000000,4217.307617,4187.051270,4165.000000,4180.384766,4185.384766,4189.871582,4187.563965,4196.025879,4205.000000,4228.205078,4166.410156,4208.205078,4258.205078,3531.000000,4.000000,82.000000,,,,0.000000,4.000000,4.000000,4.000000,4.000000,4.000000,4.000000,4.000000,4.000000,4.000000,4.000000,4.000000,4.000000,4.000000,4.000000,100.000000,,,,,,,,,,,,,,,,
1644854559.353355,199.000000,0.000000,4273.333496,4216.282227,4191.538574,4182.692383,4180.000000,4187.820313,4193.461426,4191.282227,4198.589844,4211.538574,4227.948730,4170.256348,4222.179688,4260.897461,2418.000000,4.000000,82.000000,,,,0.000000,4.000000,4.000000,4.000000,4.000000,4.000000,4.000000,4.000000,4.000000,4.000000,4.000000,4.000000,4.000000,4.000000,4.000000,100.000000,,,,,,,,,,,,,,,,
1644854559.357195,200.000000,0.000000,4265.384766,4215.000000,4194.102539,4192.307617,4186.282227,4189.871582,4193.205078,4192.051270,4198.205078,4214.743652,4219.871582,4172.820313,4228.461426,4259.743652,3455.000000,4.000000,82.000000,,,,0.000000,4.000000,4.000000,4.000000,4.000000,4.000000,4.000000,4.000000,4.000000,4.000000,4.000000,4.000000,4.000000,4.000000,4.000000,100.000000,,,,,,,,,,,,,,,,
1644854559.361135,201.000000,0.000000,4259.871582,4213.717773,4192.692383,4189.743652,4195.512695,4189.487305,4190.769043,4190.769043,4195.641113,4213.077148,4210.256348,4172.436035,4222.820313,4253.974121,3648.000000,4.000000,82.000000,,,,0.000000,4.000000,4.000000,4.000000,4.000000,4.000000,4.000000,4.000000,4.000000,4.000000,4.000000,4.000000,4.000000,4.000000,4.000000,100.000000,,,,,,,,,,,,,,,,
1644854559.365075,202.000000,0.000000,4258.333496,4214.230957,4188.461426,4176.410156,4201.794922,4186.922852,4189.615234,4189.743652,4193.717773,4208.717773,4207.179688,4170.512695,4209.230957,4246.538574,3531.000000,4.000000,82.000000,,,,0.000000,4.000000,4.000000,4.000000,4.000000,4.000000,4.000000,4.000000,4.000000,4.000000,4.000000,4.000000,4.000000,4.000000,4.000000,100.000000,,,,,,,,,,,,,,,,
1644854559.369016,203.000000,0.000000,4260.256348,4218.077148,4184.743652,4159.230957,4202.051270,4184.358887,4190.256348,4190.897461,4195.256348,4206.666504,4214.871582,4169.871582,4197.179688,4242.051270,2418.000000,4.000000,82.000000,,,,0.000000,4.000000,4.000000,4.000000,4.000000,4.000000,4.000000,4.000000,4.000000,4.000000,4.000000,4.000000,4.000000,4.000000,4.000000,100.000000,,,,,,,,,,,,,,,,
1644854559.372956,204.000000,0.000000,4263.846191,4223.717773,4183.461426,4146.922852,4197.948730,4184.102539,4191.153809,4193.846191,4200.512695,4210.256348,4230.384766,4171.666504,4193.974121,4243.717773,3455.000000,4.000000,82.000000,,,,0.000000,4.000000,4.000000,4.000000,4.000000,4.000000,4.000000,4.000000,4.000000,4.000000,4.000000,4.000000,4.000000,4.000000,4.000000,100.000000,,,,,,,,,,,,,,,,
1644854559.376896,205.000000,0.000000,4266.666504,4227.948730,4185.128418,4145.128418,4193.333496,4186.410156,4190.769043,4196.666504,4206.282227,4218.333496,4245.000000,4174.358887,4199.743652,4251.025879,3648.000000,4.000000,82.000000,,,,0.000000,4.000000,4.000000,4.000000,4.000000,4.000000,4.000000,4.000000,4.000000,4.000000,4.000000,4.000000,4.000000,4.000000,4.000000,100.000000,,,,,,,,,,,,,,,,
1644854559.380836,206.000000,0.000000,4265.769043,4227.179688,4187.692383,4152.692383,4189.871582,4188.846191,4189.615234,4197.051270,4207.820313,4225.897461,4248.974121,4175.512695,4208.205078,4259.871582,3531.000000,4.000000,82.000000,,,,0.000000,4.000000,4.000000,4.000000,4.000000,4.000000,4.000000,4.000000,4.000000,4.000000,4.000000,4.000000,4.000000,4.000000,4.000000,100.000000,,,,,,,,,,,,,,,,
1644854559.384776,207.000000,0.000000,4260.512695,4221.794922,4189.230957,4163.974121,4187.436035,4189.102539,4188.333496,4193.974121,4203.846191,4227.948730,4239.230957,4174.102539,4213.974121,4265.512695,2418.000000,4.000000,82.000000,,,,0.000000,4.000000,4.000000,4.000000,4.000000,4.000000,4.000000,4.000000,4.000000,4.000000,4.000000,4.000000,4.000000,4.000000,4.000000,100.000000,,,,,,,,,,,,,,,,
1644854559.388716,208.000000,0.000000,4253.077148,4215.000000,4188.461426,4172.948730,4185.897461,4186.410156,4186.794922,4188.589844,4197.051270,4223.589844,4222.051270,4171.153809,4217.051270,4265.641113,3455.000000,4.000000,82.000000,,,,0.000000,4.000000,4.000000,4.000000,4.000000,4.000000,4.000000,4.000000,4.000000,4.000000,4.000000,4.000000,4.000000,4.000000,4.000000,100.000000,,,,,,,,,,,,,,,,
1644854559.392656,209.000000,0.000000,4248.205078,4211.410156,4185.897461,4176.410156,4186.282227,4182.948730,4183.974121,4183.974121,4192.563965,4215.641113,4209.487305,4168.205078,4221.025879,4262.436035,3648.000000,4.000000,82.000000,,,,0.000000,4.000000,4.000000,4.000000,4.000000,4.000000,4.000000,4.000000,4.000000,4.000000,4.000000,4.000000,4.000000,4.000000,4.000000,100.000000,,,,,,,,,,,,,,,,
1644854559.396596,210.000000,0.000000,4249.871582,4212.820313,4182.820313,4174.743652,4189.358887,4181.666504,4180.769043,4182.436035,4193.205078,4208.205078,4210.769043,4166.922852,4227.436035,4261.282227,3531.000000,4.000000,82.000000,,,,0.000000,4.000000,4.000000,4.000000,4.000000,4.000000,4.000000,4.000000,4.000000,4.000000,4.000000,4.000000,4.000000,4.000000,4.000000,100.000000,,,,,,,,,,,,,,,,
1644854559.400536,211.000000,0.000000,4258.589844,4218.333496,4181.153809,4171.282227,4194.230957,4183.717773,4179.615234,4184.102539,4196.922852,4204.871582,4226.153809,4167.820313,4233.974121,4265.897461,2418.000000,4.000000,82.000000,,,,0.000000,4.000000,4.000000,4.000000,4.000000,4.000000,4.000000,4.000000,4.000000,4.000000,4.000000,4.000000,4.000000,4.000000,4.000000,100.000000,,,,,,,,,,,,,,,,
1644854559.404476,212.000000,0.000000,4269.871582,4225.512695,4182.307617,4169.871582,4198.589844,4187.948730,4182.179688,4186.538574,4199.102539,4207.051270,4246.025879,4170.256348,4236.025879,4274.102539,3455.000000,4.000000,82.000000,,,,0.000000,4.000000,4.000000,4.000000,4.000000,4.000000,4.000000,4.000000,4.000000,4.000000,4.000000,4.000000,4.000000,4.000000,4.000000,100.000000,,,,,,,,,,,,,,,,
1644854559.408417,213.000000,0.000000,4277.948730,4232.307617,4184.871582,4171.922852,4201.153809,4191.666504,4186.282227,4187.436035,4197.563965,4213.717773,4257.692383,4174.230957,4231.025879,4278.333496,3648.000000,4.000000,82.000000,,,,0.000000,4.000000,4.000000,4.000000,4.000000,4.000000,4.000000,4.000000,4.000000,4.000000,4.000000,4.000000,4.000000,4.000000,4.000000,100.000000,,,,,,,,,,,,,,,,
1644854559.412357,214.000000,0.000000,4279.358887,4237.307617,4186.666504,4174.743652,4201.025879,4192.307617,4188.846191,4186.153809,4193.717773,4221.153809,4253.205078,4179.358887,4221.025879,4273.589844,3531.000000,4.000000,82.000000,,,,0.000000,4.000000,4.000000,4.000000,4.000000,4.000000,4.000000,4.000000,4.000000,4.000000,4.000000,4.000000,4.000000,4.000000,4.000000,100.000000,,,,,,,,,,,,,,,,
1644854559.416297,215.000000,0.000000,4275.000000,4239.102539,4185.641113,4174.487305,4198.077148,4189.743652,4188.589844,4184.358887,4191.025879,4224.743652,4236.282227,4184.230957,4210.512695,4262.692383,2418.000000,4.000000,82.000000,,,,0.000000,4.000000,4.000000,4.000000,4.000000,4.000000,4.000000,4.000000,4.000000,4.000000,4.000000,4.000000,4.000000,4.000000,4.000000,100.000000,,,,,,,,,,,,,,,,
1644854559.420237,216.000000,0.000000,4267.820313,4235.897461,4181.922852,4169.230957,4193.974121,4185.769043,4187.948730,4183.589844,4190.897461,4222.436035,4218.205078,4185.769043,4203.333496,4254.102539,3455.000000,4.000000,82.000000,,,,0.000000,4.000000,4.000000,4.000000,4.000000,4.000000,4.000000,4.000000,4.000000,4.000000,4.000000,4.000000,4.000000,4.000000,4.000000,100.000000,,,,,,,,,,,,,,,,
1644854559.424177,217.000000,0.000000,4260.000000,4227.179688,4177.563965,4161.153809,4192.051270,4183.205078,4189.358887,4184.230957,4192.436035,4216.025879,4208.974121,4181.538574,4200.256348,4252.179688,3648.000000,4.000000,82.000000,,,,0.000000,4.000000,4.000000,4.000000,4.000000,4.000000,4.000000,4.000000,4.000000,4.000000,4.000000,4.000000,4.000000,4.000000,4.000000,100.000000,,,,,,,,,,,,,,,,
1644854559.428217,218.000000,0.000000,4251.794922,4215.128418,4174.871582,4155.000000,4194.615234,4183.461426,4192.179688,4185.000000,4193.461426,4208.974121,4209.871582,4172.692383,4199.230957,4253.717773,3531.000000,4.000000,82.000000,,,,0.000000,4.000000,4.000000,4.000000,4.000000,4.000000,4.000000,4.000000,4.000000,4.000000,4.000000,4.000000,4.000000,4.000000,4.000000,100.000000,,,,,,,,,,,,,,,,
1644854559.432157,219.000000,0.000000,4242.948730,4204.102539,4174.615234,4153.846191,4199.743652,4186.282227,4193.974121,4185.128418,4193.077148,4203.846191,4214.358887,4164.230957,4198.461426,4252.051270,2418.000000,4.000000,82.000000,,,,0.000000,4.000000,4.000000,4.000000,4.000000,4.000000,4.000000,4.000000,4.000000,4.000000,4.000000,4.000000,4.000000,4.000000,4.000000,100.000000,,,,,,,,,,,,,,,,
1644854559.436097,220.000000,0.000000,4234.230957,4197.948730,4175.512695,4157.948730,4201.922852,4189.615234,4193.333496,4184.743652,4191.538574,4201.282227,4214.487305,4160.897461,4197.692383,4245.897461,3455.000000,4.000000,82.000000,,,,0.000000,4.000000,4.000000,4.000000,4.000000,4.000000,4.000000,4.000000,4.000000,4.000000,4.000000,4.000000,4.000000,4.000000,4.000000,100.000000,,,,,,,,,,,,,,,,
1644854559.440037,221.000000,0.000000,4228.589844,4196.922852,4176.282227,4163.846191,4197.563965,4191.282227,4191.666504,4184.358887,4190.128418,4200.641113,4207.948730,4163.461426,4197.307617,4240.769043,3648.000000,4.000000,82.000000,,,,0.000000,4.000000,4.000000,4.000000,4.000000,4.000000,4.000000,4.000000,4.000000,4.000000,4.000000,4.000000,4.000000,4.000000,4.000000,100.000000,,,,,,,,,,,,,,,,
1644854559.443977,222.000000,0.000000,4228.461426,4198.589844,4176.025879,4167.179688,4188.717773,4190.384766,4191.282227,4184.358887,4189.743652,4201.153809,4200.128418,4167.436035,4197.307617,4242.820313,3531.000000,4.000000,82.000000,,,,0.000000,4.000000,4.000000,4.000000,4.000000,4.000000,4.000000,4.000000,4.000000,4.000000,4.000000,4.000000,4.000000,4.000000,4.000000,100.000000,,,,,,,,,,,,,,,,
1644854559.447918,223.000000,0.000000,4232.948730,4200.000000,4174.615234,4165.512695,4181.410156,4187.307617,4191.794922,4184.871582,4190.256348,4202.051270,4199.743652,4167.307617,4196.410156,4251.410156,2418.000000,4.000000,82.000000,,,,0.000000,4.000000,4.000000,4.000000,4.000000,4.000000,4.000000,4.000000,4.000000,4.000000,4.000000,4.000000,4.000000,4.000000,4.000000,100.000000,,,,,,,,,,,,,,,,
1644854559.451858,224.000000,0.000000,4237.563965,4200.384766,4172.563965,4159.615234,4179.871582,4184.487305,4191.410156,4184.871582,4190.769043,4201.922852,4210.000000,4161.410156,4192.948730,4259.615234,3455.000000,4.000000,82.000000,,,,0.000000,4.000000,4.000000,4.000000,4.000000,4.000000,4.000000,4.000000,4.000000,4.000000,4.000000,4.000000,4.000000,4.000000,4.000000,100.000000,,,,,,,,,,,,,,,,
1644854559.455798,225.000000,0.000000,4237.436035,4200.769043,4170.769043,4152.307617,4182.563965,4183.589844,4189.615234,4183.974121,4190.000000,4198.589844,4223.974121,4153.333496,4186.025879,4260.897461,3648.000000,4.000000,82.000000,,,,0.000000,4.000000,4.000000,4.000000,4.000000,4.000000,4.000000,4.000000,4.000000,4.000000,4.000000,4.000000,4.000000,4.000000,4.000000,100.000000,,,,,,,,,,,,,,,,
1644854559.459738,226.000000,0.000000,4232.179688,4201.666504,4170.384766,4148.589844,4185.000000,4184.871582,4188.077148,4182.179688,4187.436035,4191.666504,4230.128418,4148.846191,4176.666504,4254.487305,3531.000000,4.000000,82.000000,,,,0.000000,4.000000,4.000000,4.000000,4.000000,4.000000,4.000000,4.000000,4.000000,4.000000,4.000000,4.000000,4.000000,4.000000,4.000000,100.000000,,,,,,,,,,,,,,,,
1644854559.463678,227.000000,0.000000,4226.153809,4201.794922,4172.051270,4152.179688,4183.846191,4187.051270,4188.717773,4180.384766,4183.846191,4183.846191,4221.538574,4151.922852,4168.717773,4245.384766,2418.000000,4.000000,82.000000,,,,0.000000,4.000000,4.000000,4.000000,4.000000,4.000000,4.000000,4.000000,4.000000,4.000000,4.000000,4.000000,4.000000,4.000000,4.000000,100.000000,,,,,,,,,,,,,,,,
1644854559.467618,228.000000,0.000000,4225.128418,4200.128418,4174.871582,4161.282227,4181.153809,4188.846191,4190.641113,4179.358887,4180.897461,4180.384766,4203.846191,4161.153809,4166.410156,4239.871582,3455.000000,4.000000,82.000000,,,,0.000000,4.000000,4.000000,4.000000,4.000000,4.000000,4.000000,4.000000,4.000000,4.000000,4.000000,4.000000,4.000000,4.000000,4.000000,100.000000,,,,,,,,,,,,,,,,
1644854559.471558,229.000000,0.000000,4231.153809,4198.077148,4177.179688,4168.846191,4181.153809,4189.615234,4191.410156,4178.974121,4180.128418,4184.102539,4190.512695,4171.153809,4172.051270,4240.641113,3648.000000,4.000000,82.000000,,,,0.000000,4.000000,4.000000,4.000000,4.000000,4.000000,4.000000,4.000000,4.000000,4.000000,4.000000,4.000000,4.000000,4.000000,4.000000,100.000000,,,,,,,,,,,,,,,,
1644854559.475498,230.000000,0.000000,4241.794922,4198.333496,4178.589844,4168.589844,4187.179688,4189.230957,4189.615234,4178.846191,4181.025879,4192.948730,4192.563965,4175.769043,4185.000000,4247.179688,3531.000000,4.000000,82.000000,,,,0.000000,4.000000,4.000000,4.000000,4.000000,4.000000,4.000000,4.000000,4.000000,4.000000,4.000000,4.000000,4.000000,4.000000,4.000000,100.000000,,,,,,,,,,,,,,,,
1644854559.479438,231.000000,0.000000,4252.436035,4202.820313,4180.384766,4161.794922,4197.051270,4187.436035,4186.922852,4178.589844,4181.922852,4200.897461,4208.461426,4173.077148,4201.538574,4256.538574,2418.000000,4.000000,82.000000,,,,0.000000,4.000000,4.000000,4.000000,4.000000,4.000000,4.000000,4.000000,4.000000,4.000000,4.000000,4.000000,4.000000,4.000000,4.000000,100.000000,,,,,,,,,,,,,,,,
1644854559.483378,232.000000,0.000000,4259.615234,4210.769043,4184.102539,4156.153809,4204.487305,4184.615234,4185.512695,4178.846191,4181.794922,4203.077148,4225.641113,4166.538574,4215.769043,4265.256348,3455.000000,4.000000,82.000000,,,,0.000000,4.000000,4.000000,4.000000,4.000000,4.000000,4.000000,4.000000,4.000000,4.000000,4.000000,4.000000,4.000000,4.000000,4.000000,100.000000,,,,,,,,,,,,,,,,
1644854559.487319,233.000000,0.000000,4263.333496,4218.589844,4189.871582,4157.563965,4202.179688,4181.153809,4185.641113,4179.743652,4181.153809,4199.871582,4230.256348,4162.179688,4222.179688,4270.384766,3648.000000,4.000000,82.000000,,,,0.000000,4.000000,4.000000,4.000000,4.000000,4.000000,4.000000,4.000000,4.000000,4.000000,4.000000,4.000000,4.000000,4.000000,4.000000,100.000000,,,,,,,,,,,,,,,,
1644854559.491259,234.000000,0.000000,4265.641113,4222.820313,4195.384766,4164.230957,4189.358887,4178.589844,4185.128418,4180.641113,4181.666504,4196.410156,4219.871582,4164.743652,4218.333496,4271.794922,3531.000000,4.000000,82.000000,,,,0.000000,4.000000,4.000000,4.000000,4.000000,4.000000,4.000000,4.000000,4.000000,4.000000,4.000000,4.000000,4.000000,4.000000,4.000000,100.000000,,,,,,,,,,,,,,,,
1644854559.495199,235.000000,0.000000,4268.589844,4223.333496,4198.717773,4169.487305,4174.358887,4178.205078,4183.077148,4181.282227,4183.846191,4197.436035,4205.512695,4173.589844,4207.563965,4271.410156,2418.000000,4.000000,82.000000,,,,0.000000,4.000000,4.000000,4.000000,4.000000,4.000000,4.000000,4.000000,4.000000,4.000000,4.000000,4.000000,4.000000,4.000000,4.000000,100.000000,,,,,,,,,,,,,,,,
1644854559.499239,236.000000,0.000000,4271.153809,4222.051270,4199.230957,4168.333496,4168.333496,4180.128418,4181.153809,4182.179688,4187.436035,4203.205078,4201.410156,4183.717773,4195.769043,4270.000000,3455.000000,4.000000,82.000000,,,,0.000000,4.000000,4.000000,4.000000,4.000000,4.000000,4.000000,4.000000,4.000000,4.000000,4.000000,4.000000,4.000000,4.000000,4.000000,100.000000,,,,,,,,,,,,,,,,
1644854559.503179,237.000000,0.000000,4270.512695,4220.641113,4198.205078,4162.436035,4175.384766,4183.461426,4181.282227,4184.743652,4191.410156,4208.717773,4212.563965,4190.512695,4187.948730,4266.538574,3648.000000,4.000000,82.000000,,,,0.000000,4.000000,4.000000,4.000000,4.000000,4.000000,4.000000,4.000000,4.000000,4.000000,4.000000,4.000000,4.000000,4.000000,4.000000,100.000000,,,,,,,,,,,,,,,,
1644854559.507119,238.000000,0.000000,4264.871582,4218.717773,4197.820313,4156.794922,4188.461426,4186.410156,4182.820313,4188.974121,4194.487305,4208.846191,4230.128418,4192.179688,4186.025879,4259.743652,3531.000000,4.000000,82.000000,,,,0.000000,4.000000,4.000000,4.000000,4.000000,4.000000,4.000000,4.000000,4.000000,4.000000,4.000000,4.000000,4.000000,4.000000,4.000000,100.000000,,,,,,,,,,,,,,,,
1644854559.511059,239.000000,0.000000,4255.000000,4215.256348,4198.974121,4156.282227,4195.512695,4187.563965,4182.948730,4192.948730,4196.153809,4203.077148,4240.256348,4190.128418,4189.230957,4252.692383,2418.000000,4.000000,82.000000,,,,0.000000,4.000000,4.000000,4.000000,4.000000,4.000000,4.000000,4.000000,4.000000,4.000000,4.000000,4.000000,4.000000,4.000000,4.000000,100.000000,,,,,,,,,,,,,,,,
1644854559.514999,240.000000,0.000000,4244.871582,4210.256348,4200.641113,4162.051270,4190.641113,4187.179688,4181.153809,4194.358887,4196.282227,4196.538574,4234.615234,4186.666504,4195.641113,4250.769043,3455.000000,4.000000,82.000000,,,,0.000000,4.000000,4.000000,4.000000,4.000000,4.000000,4.000000,4.000000,4.000000,4.000000,4.000000,4.000000,4.000000,4.000000,4.000000,100.000000,,,,,,,,,,,,,,,,
1644854559.518939,241.000000,0.000000,4239.743652,4204.871582,4201.410156,4169.871582,4179.615234,4186.282227,4180.256348,4192.563965,4195.384766,4195.384766,4217.948730,4183.846191,4202.948730,4256.410156,3648.000000,4.000000,82.000000,,,,0.000000,4.000000,4.000000,4.000000,4.000000,4.000000,4.000000,4.000000,4.000000,4.000000,4.000000,4.000000,4.000000,4.000000,4.000000,100.000000,,,,,,,,,,,,,,,,
1644854559.522879,242.000000,0.000000,4242.436035,4201.410156,4200.128418,4173.077148,4173.589844,4185.897461,4182.948730,4189.615234,4194.358887,4201.410156,4203.461426,4182.051270,4208.974121,4265.641113,3531.000000,4.000000,82.000000,,,,0.000000,4.000000,4.000000,4.000000,4.000000,4.000000,4.000000,4.000000,4.000000,4.000000,4.000000,4.000000,4.000000,4.000000,4.000000,100.000000,,,,,,,,,,,,,,,,
1644854559.526820,243.000000,0.000000,4251.922852,4201.153809,4197.179688,4166.922852,4179.358887,4186.282227,4187.692383,4188.333496,4194.615234,4210.384766,4203.205078,4181.282227,4212.436035,4270.641113,2418.000000,4.000000,82.000000,,,,0.000000,4.000000,4.000000,4.000000,4.000000,4.000000,4.000000,4.000000,4.000000,4.000000,4.000000,4.000000,4.000000,4.000000,4.000000,100.000000,,,,,,,,,,,,,,,,
1644854559.530760,244.000000,0.000000,4262.820313,4204.615234,4193.589844,4154.102539,4193.205078,4186.794922,4190.384766,4189.743652,4197.179688,4216.410156,4218.333496,4181.410156,4214.102539,4267.692383,3455.000000,4.000000,82.000000,,,,0.000000,4.000000,4.000000,4.000000,4.000000,4.000000,4.000000,4.000000,4.000000,4.000000,4.000000,4.000000,4.000000,4.000000,4.000000,100.000000,,,,,,,,,,,,,,,,
1644854559.534700,245.000000,0.000000,4268.974121,4209.487305,4190.897461,4143.461426,4204.871582,4186.922852,4189.102539,4192.948730,4202.051270,4217.051270,4238.333496,4181.282227,4215.384766,4260.641113,3648.000000,4.000000,82.000000,,,,0.000000,4.000000,4.000000,4.000000,4.000000,4.000000,4.000000,4.000000,4.000000,4.000000,4.000000,4.000000,4.000000,4.000000,4.000000,100.000000,,,,,,,,,,,,,,,,
1644854559.538640,246.000000,0.000000,4266.282227,4212.692383,4189.871582,4143.717773,4205.512695,4186.410156,4186.410156,4196.666504,4206.922852,4214.102539,4249.358887,4179.743652,4217.051270,4257.820313,3531.000000,4.000000,82.000000,,,,0.000000,4.000000,4.000000,4.000000,4.000000,4.000000,4.000000,4.000000,4.000000,4.000000,4.000000,4.000000,4.000000,4.000000,4.000000,100.000000,,,,,,,,,,,,,,,,
1644854559.542580,247.000000,0.000000,4255.641113,4212.179688,4190.769043,4156.025879,4194.743652,4186.410156,4186.282227,4200.000000,4209.743652,4211.538574,4243.846191,4176.538574,4217.179688,4262.820313,2418.000000,4.000000,82.000000,,,,0.000000,4.000000,4.000000,4.000000,4.000000,4.000000,4.000000,4.000000,4.000000,4.000000,4.000000,4.000000,4.000000,4.000000,4.000000,100.000000,,,,,,,,,,,,,,,,
1644854559.546520,248.000000,0.000000,4243.077148,4209.615234,4192.436035,4171.922852,4181.025879,4188.589844,4189.487305,4202.692383,4210.384766,4212.307617,4225.897461,4173.077148,4212.948730,4271.410156,3455.000000,4.000000,82.000000,,,,0.000000,4.000000,4.000000,4.000000,4.000000,4.000000,4.000000,4.000000,4.000000,4.000000,4.000000,4.000000,4.000000,4.000000,4.000000,100.000000,,,,,,,,,,,,,,,,
1644854559.550460,249.000000,0.000000,4236.922852,4208.333496,4194.102539,4180.512695,4175.641113,4193.461426,4192.948730,4205.000000,4210.641113,4216.538574,4208.205078,4171.410156,4204.102539,4274.615234,3648.000000,4.000000,82.000000,,,,0.000000,4.000000,4.000000,4.000000,4.000000,4.000000,4.000000,4.000000,4.000000,4.000000,4.000000,4.000000,4.000000,4.000000,4.000000,100.000000,,,,,,,,,,,,,,,,
1644854559.554400,250.000000,0.000000,4241.666504,4211.025879,4195.128418,4176.666504,4183.461426,4199.230957,4193.717773,4206.794922,4212.179688,4221.538574,4201.922852,4172.820313,4194.615234,4268.717773,3531.000000,4.000000,82.000000,,,,0.000000,4.000000,4.000000,4.000000,4.000000,4.000000,4.000000,4.000000,4.000000,4.000000,4.000000,4.000000,4.000000,4.000000,4.000000,100.000000,,,,,,,,,,,,,,,,
1644854559.558340,251.000000,0.000000,4254.487305,4216.282227,4195.256348,4164.230957,4198.589844,4202.563965,4192.563965,4207.820313,4214.743652,4223.846191,4207.948730,4176.282227,4189.743652,4257.820313,2418.000000,4.000000,82.000000,,,,0.000000,4.000000,4.000000,4.000000,4.000000,4.000000,4.000000,4.000000,4.000000,4.000000,4.000000,4.000000,4.000000,4.000000,4.000000,100.000000,,,,,,,,,,,,,,,,
1644854559.562280,252.000000,0.000000,4266.410156,4220.512695,4193.205078,4151.282227,4208.974121,4201.282227,4192.179688,4207.820313,4215.641113,4222.051270,4218.077148,4180.256348,4191.666504,4250.384766,3455.000000,4.000000,82.000000,,,,0.000000,4.000000,4.000000,4.000000,4.000000,4.000000,4.000000,4.000000,4.000000,4.000000,4.000000,4.000000,4.000000,4.000000,4.000000,100.000000,,,,,,,,,,,,,,,,
1644854559.566320,253.000000,0.000000,4269.871582,4220.769043,4188.846191,4145.000000,4206.282227,4196.666504,4193.461426,4206.922852,4213.589844,4217.820313,4223.589844,4182.563965,4198.974121,4250.384766,3648.000000,4.000000,82.000000,,,,0.000000,4.000000,4.000000,4.000000,4.000000,4.000000,4.000000,4.000000,4.000000,4.000000,4.000000,4.000000,4.000000,4.000000,4.000000,100.000000,,,,,,,,,,,,,,,,
1644854559.570261,254.000000,0.000000,4263.974121,4216.922852,4183.205078,4148.461426,4193.333496,4192.563965,4194.358887,4205.512695,4209.615234,4215.128418,4222.820313,4183.077148,4208.077148,4256.025879,3531.000000,4.000000,82.000000,1,1,3,0.000000,4.000000,4.000000,4.000000,4.000000,4.000000,4.000000,4.000000,4.000000,4.000000,4.000000,4.000000,4.000000,4.000000,4.000000,100.000000,,,,,,,,,,,,,,,,
1644854559.574201,255.000000,0.000000,4254.743652,4211.922852,4178.846191,4159.615234,4181.538574,4192.179688,4193.077148,4204.102539,4206.282227,4216.922852,4221.922852,4183.205078,4215.769043,4263.333496,112.000000,4.000000,82.000000,,,,0.000000,4.000000,4.000000,4.000000,4.000000,4.000000,4.000000,4.000000,4.000000,4.000000,4.000000,4.000000,4.000000,4.000000,4.000000,100.000000,,,,,,,,,,,,,,,,
1644854559.578141,0.000000,0.000000,4249.487305,4208.846191,4177.820313,4171.922852,4179.871582,4195.897461,4191.025879,4203.077148,4205.641113,4222.436035,4227.051270,4184.487305,4220.256348,4270.897461,3417.000000,4.000000,82.000000,,,,0.000000,4.000000,4.000000,4.000000,4.000000,4.000000,4.000000,4.000000,4.000000,4.000000,4.000000,4.000000,4.000000,4.000000,4.000000,100.000000,,,,,,,,,,,,,,,,
1644854559.582081,1.000000,0.000000,4251.282227,4208.461426,4180.128418,4177.307617,4187.820313,4200.000000,4190.641113,4201.794922,4207.179688,4227.948730,4237.820313,4186.538574,4221.922852,4279.358887,3378.000000,4.000000,82.000000,,,,0.000000,4.000000,4.000000,4.000000,4.000000,4.000000,4.000000,4.000000,4.000000,4.000000,4.000000,4.000000,4.000000,4.000000,4.000000,100.000000,,,,,,,,,,,,,,,,
1644854559.586021,2.000000,0.000000,4257.692383,4210.641113,4184.230957,4172.179688,4197.820313,4201.025879,4192.436035,4200.000000,4208.846191,4229.615234,4247.820313,4187.692383,4222.820313,4286.922852,3358.000000,4.000000,82.000000,,,,0.000000,4.000000,4.000000,4.000000,4.000000,4.000000,4.000000,4.000000,4.000000,4.000000,4.000000,4.000000,4.000000,4.000000,4.000000,100.000000,,,,,,,,,,,,,,,,
1644854559.589961,3.000000,0.000000,4263.589844,4214.230957,4187.563965,4160.000000,4202.307617,4198.077148,4193.846191,4197.179688,4208.974121,4227.307617,4250.000000,4186.538574,4225.128418,4288.461426,3562.000000,4.000000,82.000000,,,,0.000000,4.000000,4.000000,4.000000,4.000000,4.000000,4.000000,4.000000,4.000000,4.000000,4.000000,4.000000,4.000000,4.000000,4.000000,100.000000,,,,,,,,,,,,,,,,
1644854559.593901,4.000000,0.000000,4265.641113,4218.077148,4187.820313,4149.615234,4199.871582,4193.589844,4192.948730,4193.846191,4207.307617,4224.102539,4242.436035,4184.615234,4228.205078,4280.769043,3508.000000,4.000000,82.000000,,,,0.000000,4.000000,4.000000,4.000000,4.000000,4.000000,4.000000,4.000000,4.000000,4.000000,4.000000,4.000000,4.000000,4.000000,4.000000,100.000000,,,,,,,,,,,,,,,,
1644854559.597841,5.000000,0.000000,4263.717773,4220.769043,4185.128418,4147.820313,4193.974121,4190.769043,4190.384766,4190.769043,4204.358887,4222.179688,4230.256348,4184.358887,4227.948730,4267.436035,3396.000000,4.000000,82.000000,,,,0.000000,4.000000,4.000000,4.000000,4.000000,4.000000,4.000000,4.000000,4.000000,4.000000,4.000000,4.000000,4.000000,4.000000,4.000000,100.000000,,,,,,,,,,,,,,,,
1644854559.601682,6.000000,0.000000,4260.769043,4222.436035,4181.666504,4154.743652,4190.128418,4191.538574,4188.974121,4188.846191,4200.769043,4221.410156,4221.794922,4186.282227,4222.179688,4257.051270,2657.000000,4.000000,82.000000,,,,0.000000,4.000000,4.000000,4.000000,4.000000,4.000000,4.000000,4.000000,4.000000,4.000000,4.000000,4.000000,4.000000,4.000000,4.000000,100.000000,,,,,,,,,,,,,,,,
1644854559.605622,7.000000,0.000000,4259.358887,4223.974121,4179.358887,4165.384766,4191.794922,4195.128418,4189.615234,4188.589844,4197.692383,4219.615234,4222.179688,4188.205078,4213.205078,4255.769043,2866.000000,4.000000,82.000000,,,,0.000000,4.000000,4.000000,4.000000,4.000000,4.000000,4.000000,4.000000,4.000000,4.000000,4.000000,4.000000,4.000000,4.000000,4.000000,100.000000,,,,,,,,,,,,,,,,
1644854559.609562,8.000000,0.000000,4259.230957,4225.384766,4178.717773,4174.358887,4198.846191,4199.230957,4191.025879,4189.358887,4196.025879,4215.897461,4228.717773,4187.820313,4206.922852,4261.538574,3126.000000,4.000000,82.000000,,,,0.000000,4.000000,4.000000,4.000000,4.000000,4.000000,4.000000,4.000000,4.000000,4.000000,4.000000,4.000000,4.000000,4.000000,4.000000,100.000000,,,,,,,,,,,,,,,,
1644854559.613502,9.000000,0.000000,4258.077148,4224.871582,4178.589844,4178.461426,4206.666504,4201.410156,4191.153809,4190.000000,4195.641113,4211.282227,4232.820313,4184.102539,4206.410156,4267.563965,3537.000000,4.000000,82.000000,,,,0.000000,4.000000,4.000000,4.000000,4.000000,4.000000,4.000000,4.000000,4.000000,4.000000,4.000000,4.000000,4.000000,4.000000,4.000000,100.000000,,,,,,,,,,,,,,,,
1644854559.617442,10.000000,0.000000,4253.333496,4220.641113,4178.461426,4177.948730,4209.487305,4201.153809,4190.512695,4190.384766,4195.897461,4207.948730,4228.333496,4178.461426,4208.461426,4270.000000,3537.000000,4.000000,82.000000,,,,0.000000,4.000000,4.000000,4.000000,4.000000,4.000000,4.000000,4.000000,4.000000,4.000000,4.000000,4.000000,4.000000,4.000000,4.000000,100.000000,,,,,,,,,,,,,,,,
1644854559.621382,11.000000,0.000000,4246.282227,4213.717773,4178.333496,4174.487305,4204.871582,4200.000000,4191.282227,4191.410156,4196.666504,4206.922852,4216.922852,4174.102539,4206.666504,4269.230957,2403.000000,4.000000,82.000000,,,,0.000000,4.000000,4.000000,4.000000,4.000000,4.000000,4.000000,4.000000,4.000000,4.000000,4.000000,4.000000,4.000000,4.000000,4.000000,100.000000,,,,,,,,,,,,,,,,
1644854559.625322,12.000000,0.000000,4240.897461,4207.948730,4177.948730,4171.282227,4196.025879,4199.871582,4194.102539,4193.205078,4198.205078,4207.307617,4206.922852,4173.589844,4198.333496,4266.794922,3292.000000,4.000000,82.000000,,,,0.000000,4.000000,4.000000,4.000000,4.000000,4.000000,4.000000,4.000000,4.000000,4.000000,4.000000,4.000000,4.000000,4.000000,4.000000,100.000000,,,,,,,,,,,,,,,,
1644854559.629262,13.000000,0.000000,4241.410156,4207.307617,4176.538574,4169.615234,4189.358887,4200.897461,4196.410156,4194.743652,4200.641113,4207.820313,4205.256348,4177.051270,4188.205078,4263.461426,3520.000000,4.000000,82.000000,,,,0.000000,4.000000,4.000000,4.000000,4.000000,4.000000,4.000000,4.000000,4.000000,4.000000,4.000000,4.000000,4.000000,4.000000,4.000000,100.000000,,,,,,,,,,,,,,,,
1644854559.633202,14.000000,0.000000,4247.051270,4212.820313,4174.487305,4169.743652,4187.948730,4201.666504,4195.512695,4194.743652,4202.820313,4207.051270,4212.436035,4181.282227,4184.487305,4259.743652,3537.000000,4.000000,82.000000,,,,0.000000,4.000000,4.000000,4.000000,4.000000,4.000000,4.000000,4.000000,4.000000,4.000000,4.000000,4.000000,4.000000,4.000000,4.000000,100.000000,,,,,,,,,,,,,,,,
1644854559.637142,15.000000,0.000000,4252.948730,4220.897461,4173.717773,4170.128418,4189.230957,4200.641113,4191.794922,4193.077148,4203.333496,4205.641113,4222.436035,4182.179688,4191.922852,4257.692383,2403.000000,4.000000,82.000000,,,,0.000000,4.000000,4.000000,4.000000,4.000000,4.000000,4.000000,4.000000,4.000000,4.000000,4.000000,4.000000,4.000000,4.000000,4.000000,100.000000,,,,,,,,,,,,,,,,
1644854559.641083,16.000000,0.000000,4254.230957,4226.410156,4175.897461,4169.230957,4188.461426,4198.333496,4188.717773,4190.769043,4201.794922,4205.256348,4228.461426,4177.563965,4207.051270,4258.717773,3292.000000,4.000000,82.000000,,,,0.000000,4.000000,4.000000,4.000000,4.000000,4.000000,4.000000,4.000000,4.000000,4.000000,4.000000,4.000000,4.000000,4.000000,4.000000,100.000000,,,,,,,,,,,,,,,,
1644854559.645023,17.000000,0.000000,4250.384766,4226.025879,4180.512695,4167.307617,4184.615234,4196.410156,4188.974121,4189.102539,4198.974121,4207.563965,4228.205078,4169.487305,4220.641113,4260.769043,3520.000000,4.000000,82.000000,,,,0.000000,4.000000,4.000000,4.000000,4.000000,4.000000,4.000000,4.000000,4.000000,4.000000,4.000000,4.000000,4.000000,4.000000,4.000000,100.000000,,,,,,,,,,,,,,,,
1644854559.648963,18.000000,0.000000,4245.769043,4220.641113,4184.871582,4165.512695,4181.666504,4196.538574,4190.897461,4188.589844,4196.922852,4212.436035,4225.128418,4162.820313,4223.846191,4259.743652,3537.000000,4.000000,82.000000,,,,0.000000,4.000000,4.000000,4.000000,4.000000,4.000000,4.000000,4.000000,4.000000,4.000000,4.000000,4.000000,4.000000,4.000000,4.000000,100.000000,,,,,,,,,,,,,,,,
1644854559.652903,19.000000,0.000000,4244.871582,4214.487305,4185.897461,4164.871582,4184.871582,4198.974121,4191.410156,4189.102539,4197.179688,4217.563965,4224.358887,4162.563965,4214.487305,4254.358887,2403.000000,4.000000,82.000000,,,,0.000000,4.000000,4.000000,4.000000,4.000000,4.000000,4.000000,4.000000,4.000000,4.000000,4.000000,4.000000,4.000000,4.000000,4.000000,100.000000,,,,,,,,,,,,,,,,
1644854559.656843,20.000000,0.000000,4249.230957,4212.692383,4183.589844,4165.000000,4194.615234,4202.051270,4190.000000,4191.153809,4200.128418,4221.025879,4228.333496,4169.487305,4199.102539,4249.230957,3292.000000,4.000000,82.000000,,,,0.000000,4.000000,4.000000,4.000000,4.000000,4.000000,4.000000,4.000000,4.000000,4.000000,4.000000,4.000000,4.000000,4.000000,4.000000,100.000000,,,,,,,,,,,,,,,,
1644854559.660783,21.000000,0.000000,4257.563965,4217.436035,4181.922852,4165.769043,4204.871582,4204.358887,4189.743652,4194.743652,4204.743652,4222.436035,4235.000000,4179.615234,4188.846191,4251.025879,3520.000000,4.000000,82.000000,,,,0.000000,4.000000,4.000000,4.000000,4.000000,4.000000,4.000000,4.000000,4.000000,4.000000,4.000000,4.000000,4.000000,4.000000,4.000000,100.000000,,,,,,,,,,,,,,,,
1644854559.664723,22.000000,0.000000,4268.205078,4226.538574,4184.871582,4169.358887,4208.333496,4204.743652,4192.563965,4198.974121,4208.846191,4224.230957,4239.230957,4187.179688,4190.897461,4261.153809,3537.000000,4.000000,82.000000,,,,0.000000,4.000000,4.000000,4.000000,4.000000,4.000000,4.000000,4.000000,4.000000,4.000000,4.000000,4.000000,4.000000,4.000000,4.000000,100.000000,,,,,,,,,,,,,,,,
1644854559.668563,23.000000,0.000000,4278.333496,4235.128418,4192.563965,4177.436035,4203.461426,4203.461426,4196.538574,4202.051270,4211.153809,4228.461426,4237.948730,4189.487305,4203.717773,4274.230957,2403.000000,4.000000,82.000000,,,,0.000000,4.000000,4.000000,4.000000,4.000000,4.000000,4.000000,4.000000,4.000000,4.000000,4.000000,4.000000,4.000000,4.000000,4.000000,100.000000,,,,,,,,,,,,,,,,
1644854559.672504,24.000000,0.000000,4285.000000,4238.461426,4200.512695,4188.846191,4194.871582,4201.666504,4198.077148,4202.563965,4211.282227,4232.948730,4232.563965,4188.333496,4217.692383,4282.820313,3292.000000,4.000000,82.000000,,,,0.000000,4.000000,4.000000,4.000000,4.000000,4.000000,4.000000,4.000000,4.000000,4.000000,4.000000,4.000000,4.000000,4.000000,4.000000,100.000000,,,,,,,,,,,,,,,,
1644854559.676444,25.000000,0.000000,4285.384766,4235.000000,4204.358887,4198.461426,4188.589844,4200.769043,4195.897461,4200.512695,4209.871582,4231.922852,4227.820313,4187.563965,4223.717773,4283.205078,3520.000000,4.000000,82.000000,,,,0.000000,4.000000,4.000000,4.000000,4.000000,4.000000,4.000000,4.000000,4.000000,4.000000,4.000000,4.000000,4.000000,4.000000,4.000000,100.000000,,,,,,,,,,,,,,,,
1644854559.680384,26.000000,0.000000,4280.128418,4226.666504,4202.563965,4200.000000,4186.538574,4201.282227,4192.051270,4197.051270,4206.922852,4221.410156,4226.282227,4188.974121,4219.871582,4277.436035,3537.000000,4.000000,82.000000,,,,0.000000,4.000000,4.000000,4.000000,4.000000,4.000000,4.000000,4.000000,4.000000,4.000000,4.000000,4.000000,4.000000,4.000000,4.000000,100.000000,,,,,,,,,,,,,,,,
1644854559.684324,27.000000,0.000000,4272.307617,4217.948730,4197.436035,4190.897461,4185.384766,4201.922852,4189.487305,4192.948730,4202.179688,4204.871582,4227.051270,4191.922852,4212.051270,4269.358887,2403.000000,4.000000,82.000000,,,,0.000000,4.000000,4.000000,4.000000,4.000000,4.000000,4.000000,4.000000,4.000000,4.000000,4.000000,4.000000,4.000000,4.000000,4.000000,100.000000,,,,,,,,,,,,,,,,
1644854559.688264,28.000000,0.000000,4265.897461,4212.051270,4192.692383,4174.230957,4181.153809,4201.282227,4188.589844,4188.589844,4196.538574,4192.563965,4227.179688,4194.743652,4207.692383,4263.077148,3292.000000,4.000000,82.000000,,,,0.000000,4.000000,4.000000,4.000000,4.000000,4.000000,4.000000,4.000000,4.000000,4.000000,4.000000,4.000000,4.000000,4.000000,4.000000,100.000000,,,,,,,,,,,,,,,,
1644854559.692204,29.000000,0.000000,4262.307617,4209.615234,4191.538574,4158.205078,4174.102539,4199.102539,4187.948730,4185.000000,4191.922852,4192.692383,4225.641113,4195.769043,4208.717773,4260.897461,3520.000000,4.000000,82.000000,2,1,3,0.000000,4.000000,4.000000,4.000000,4.000000,4.000000,4.000000,4.000000,4.000000,4.000000,4.000000,4.000000,4.000000,4.000000,4.000000,100.000000,,,,,,,,,,,,,,,,
1644854559.696144,30.000000,0.000000,4261.410156,4209.487305,4193.974121,4151.410156,4170.000000,4196.666504,4187.820313,4183.589844,4190.256348,4204.102539,4224.358887,4194.230957,4210.641113,4263.717773,3537.000000,4.000000,82.000000,,,,0.000000,4.000000,4.000000,4.000000,4.000000,4.000000,4.000000,4.000000,4.000000,4.000000,4.000000,4.000000,4.000000,4.000000,4.000000,100.000000,,,,,,,,,,,,,,,,
1644854559.700084,31.000000,0.000000,4261.666504,4210.128418,4197.563965,4156.666504,4175.384766,4195.769043,4189.230957,4184.358887,4191.410156,4216.794922,4226.025879,4190.384766,4208.333496,4269.358887,2403.000000,4.000000,82.000000,,,,0.000000,4.000000,4.000000,4.000000,4.000000,4.000000,4.000000,4.000000,4.000000,4.000000,4.000000,4.000000,4.000000,4.000000,4.000000,100.000000,,,,,,,,,,,,,,,,
1644854559.704024,32.000000,0.000000,4262.692383,4211.410156,4198.461426,4168.589844,4190.384766,4196.666504,4192.692383,4186.153809,4193.461426,4220.769043,4230.897461,4185.384766,4201.794922,4274.230957,0.000000,4.000000,82.000000,,,,0.000000,4.000000,4.000000,4.000000,4.000000,4.000000,4.000000,4.000000,4.000000,4.000000,4.000000,4.000000,4.000000,4.000000,4.000000,100.000000,,,,,,,,,,,,,,,,
1644854559.707964,33.000000,0.000000,4263.077148,4213.846191,4195.000000,4177.563965,4207.692383,4198.333496,4195.512695,4187.179688,4194.230957,4214.487305,4236.282227,4180.897461,4197.179688,4274.871582,0.000000,4.000000,82.000000,,,,0.000000,4.000000,4.000000,4.000000,4.000000,4.000000,4.000000,4.000000,4.000000,4.000000,4.000000,4.000000,4.000000,4.000000,4.000000,100.000000,,,,,,,,,,,,,,,,
1644854559.711905,34.000000,0.000000,4261.153809,4217.307617,4188.589844,4176.410156,4217.179688,4199.871582,4194.871582,4186.410156,4193.589844,4205.128418,4237.179688,4177.436035,4199.615234,4271.410156,0.000000,4.000000,82.000000,,,,0.000000,4.000000,4.000000,4.000000,4.000000,4.000000,4.000000,4.000000,4.000000,4.000000,4.000000,4.000000,4.000000,4.000000,4.000000,100.000000,,,,,,,,,,,,,,,,
1644854559.715845,35.000000,0.000000,4255.769043,4220.256348,4182.692383,4166.153809,4213.333496,4200.769043,4190.897461,4184.743652,4192.307617,4201.025879,4230.641113,4174.871582,4207.692383,4266.666504,0.000000,4.000000,82.000000,,,,0.000000,4.000000,4.000000,4.000000,4.000000,4.000000,4.000000,4.000000,4.000000,4.000000,4.000000,4.000000,4.000000,4.000000,4.000000,100.000000,,,,,,,,,,,,,,,,
1644854559.719785,36.000000,0.000000,4247.948730,4221.025879,4179.871582,4154.358887,4199.615234,4200.512695,4187.179688,4183.461426,4191.025879,4203.717773,4217.179688,4172.948730,4214.743652,4263.205078,0.000000,4.000000,82.000000,,,,0.000000,4.000000,4.000000,4.000000,4.000000,4.000000,4.000000,4.000000,4.000000,4.000000,4.000000,4.000000,4.000000,4.000000,4.000000,100.000000,,,,,,,,,,,,,,,,
1644854559.723725,37.000000,0.000000,4241.538574,4219.230957,4180.256348,4149.615234,4186.025879,4198.589844,4186.666504,4183.205078,4189.487305,4207.820313,4202.051270,4172.051270,4215.256348,4261.666504,0.000000,4.000000,82.000000,,,,0.000000,4.000000,4.000000,4.000000,4.000000,4.000000,4.000000,4.000000,4.000000,4.000000,4.000000,4.000000,4.000000,4.000000,4.000000,100.000000,,,,,,,,,,,,,,,,
1644854559.727665,38.000000,0.000000,4240.256348,4216.282227,4181.794922,4156.153809,4181.538574,4195.769043,4188.333496,4183.846191,4188.077148,4207.820313,4193.333496,4172.307617,4209.743652,4261.025879,0.000000,4.000000,82.000000,,,,0.000000,4.000000,4.000000,4.000000,4.000000,4.000000,4.000000,4.000000,4.000000,4.000000,4.000000,4.000000,4.000000,4.000000,4.000000,100.000000,,,,,,,,,,,,,,,,
1644854559.731605,39.000000,0.000000,4245.512695,4214.615234,4182.307617,4169.743652,4187.692383,4193.974121,4189.358887,4185.000000,4187.948730,4203.589844,4196.153809,4172.948730,4203.205078,4260.384766,0.000000,4.000000,82.000000,,,,0.000000,4.000000,4.000000,4.000000,4.000000,4.000000,4.000000,4.000000,4.000000,4.000000,4.000000,4.000000,4.000000,4.000000,4.000000,100.000000,,,,,,,,,,,,,,,,
1644854559.735545,40.000000,0.000000,4256.025879,4215.256348,4180.897461,4181.794922,4197.436035,4194.230957,4188.589844,4186.410156,4190.000000,4200.384766,4207.692383,4172.307617,4200.384766,4260.000000,0.000000,4.000000,82.000000,,,,0.000000,4.000000,4.000000,4.000000,4.000000,4.000000,4.000000,4.000000,4.000000,4.000000,4.000000,4.000000,4.000000,4.000000,4.000000,100.000000,,,,,,,,,,,,,,,,
1644854559.739485,41.000000,0.000000,4267.179688,4216.922852,4178.333496,4185.256348,4201.282227,4196.538574,4188.077148,4188.846191,4194.102539,4203.589844,4218.461426,4169.871582,4200.897461,4261.282227,0.000000,4.000000,82.000000,,,,0.000000,4.000000,4.000000,4.000000,4.000000,4.000000,4.000000,4.000000,4.000000,4.000000,4.000000,4.000000,4.000000,4.000000,4.000000,100.000000,,,,,,,,,,,,,,,,
1644854559.743326,42.000000,0.000000,4272.179688,4217.563965,4175.769043,4179.487305,4194.358887,4198.461426,4189.871582,4192.563965,4199.102539,4213.717773,4221.282227,4166.282227,4200.769043,4265.128418,0.000000,4.000000,82.000000,,,,0.000000,4.000000,4.000000,4.000000,4.000000,4.000000,4.000000,4.000000,4.000000,4.000000,4.000000,4.000000,4.000000,4.000000,4.000000,100.000000,,,,,,,,,,,,,,,,
1644854559.747266,43.000000,0.000000,4267.179688,4216.794922,4173.717773,4169.230957,4180.384766,4198.333496,4192.436035,4197.179688,4203.974121,4225.641113,4216.282227,4163.717773,4198.846191,4269.615234,0.000000,4.000000,82.000000,,,,0.000000,4.000000,4.000000,4.000000,4.000000,4.000000,4.000000,4.000000,4.000000,4.000000,4.000000,4.000000,4.000000,4.000000,4.000000,100.000000,,,,,,,,,,,,,,,,
1644854559.751206,44.000000,0.000000,4254.487305,4216.025879,4172.051270,4160.897461,4168.717773,4196.153809,4192.563965,4201.025879,4207.948730,4232.307617,4209.871582,4163.717773,4197.820313,4271.538574,0.000000,4.000000,82.000000,,,,0.000000,4.000000,4.000000,4.000000,4.000000,4.000000,4.000000,4.000000,4.000000,4.000000,4.000000,4.000000,4.000000,4.000000,4.000000,100.000000,1.000000,100.000000,4.000000,4.000000,4.000000,4.000000,4.000000,4.000000,4.000000,4.000000,4.000000,4.000000,4.000000,4.000000,4.000000,4.000000
1644854559.755146,45.000000,0.000000,4241.282227,4216.153809,4170.128418,4158.461426,4166.922852,4193.717773,4189.230957,4202.307617,4210.000000,4230.000000,4208.589844,4166.153809,4201.153809,4269.102539,0.000000,4.000000,82.000000,,,,0.000000,4.000000,4.000000,4.000000,4.000000,4.000000,4.000000,4.000000,4.000000,4.000000,4.000000,4.000000,4.000000,4.000000,4.000000,100.000000,,,,,,,,,,,,,,,,
1644854559.759086,46.000000,0.000000,4234.487305,4215.512695,4168.333496,4162.692383,4174.871582,4192.179688,4185.256348,4200.897461,4209.230957,4221.025879,4213.461426,4168.974121,4207.948730,4264.230957,0.000000,4.000000,82.000000,,,,0.000000,4.000000,4.000000,4.000000,4.000000,4.000000,4.000000,4.000000,4.000000,4.000000,4.000000,4.000000,4.000000,4.000000,4.000000,100.000000,,,,,,,,,,,,,,,,
1644854559.763026,47.000000,0.000000,4235.256348,4212.692383,4167.179688,4170.384766,4186.410156,4192.179688,4184.487305,4198.333496,4206.153809,4212.051270,4221.282227,4170.512695,4212.948730,4259.743652,0.000000,4.000000,82.000000,,,,0.000000,4.000000,4.000000,4.000000,4.000000,4.000000,4.000000,4.000000,4.000000,4.000000,4.000000,4.000000,4.000000,4.000000,4.000000,100.000000,,,,,,,,,,,,,,,,
1644854559.766966,48.000000,0.000000,4239.615234,4208.205078,4167.820313,4176.410156,4195.128418,4193.846191,4187.051270,4196.794922,4202.820313,4208.717773,4227.179688,4170.512695,4212.563965,4257.307617,0.000000,4.000000,82.000000,,,,0.000000,4.000000,4.000000,4.000000,4.000000,4.000000,4.000000,4.000000,4.000000,4.000000,4.000000,4.000000,4.000000,4.000000,4.000000,100.000000,,,,,,,,,,,,,,,,
1644854559.770906,49.000000,0.000000,4244.358887,4205.384766,4169.615234,4177.563965,4197.820313,4196.794922,4189.615234,4196.538574,4201.153809,4211.922852,4227.820313,4170.256348,4208.461426,4256.922852,0.000000,4.000000,82.000000,,,,0.000000,4.000000,4.000000,4.000000,4.000000,4.000000,4.000000,4.000000,4.000000,4.000000,4.000000,4.000000,4.000000,4.000000,4.000000,100.000000,,,,,,,,,,,,,,,,
1644854559.774846,50.000000,0.000000,4249.230957,4207.051270,4171.922852,4174.615234,4195.384766,4200.000000,4189.743652,4196.025879,4200.512695,4216.922852,4222.436035,4171.410156,4205.512695,4258.589844,0.000000,4.000000,82.000000,,,,0.000000,4.000000,4.000000,4.000000,4.000000,4.000000,4.000000,4.000000,4.000000,4.000000,4.000000,4.000000,4.000000,4.000000,4.000000,100.000000,,,,,,,,,,,,,,,,
1644854559.778786,51.000000,0.000000,4255.000000,4212.948730,4174.102539,4170.897461,4191.410156,4201.410156,4188.461426,4193.846191,4198.717773,4217.692383,4212.948730,4174.358887,4206.538574,4263.333496,0.000000,4.000000,82.000000,,,,0.000000,4.000000,4.000000,4.000000,4.000000,4.000000,4.000000,4.000000,4.000000,4.000000,4.000000,4.000000,4.000000,4.000000,4.000000,100.000000,,,,,,,,,,,,,,,,
1644854559.782727,52.000000,0.000000,4259.743652,4218.717773,4175.897461,4169.230957,4189.871582,4199.615234,4187.436035,4189.487305,4193.461426,4211.410156,4203.077148,4177.692383,4209.487305,4270.512695,0.000000,4.000000,82.000000,,,,0.000000,4.000000,4.000000,4.000000,4.000000,4.000000,4.000000,4.000000,4.000000,4.000000,4.000000,4.000000,4.000000,4.000000,4.000000,100.000000,,,,,,,,,,,,,,,,
1644854559.786667,53.000000,0.000000,4258.974121,4218.974121,4176.922852,4169.230957,4192.051270,4195.384766,4186.410156,4183.589844,4184.871582,4199.743652,4195.897461,4179.102539,4209.102539,4275.512695,0.000000,4.000000,82.000000,,,,0.000000,4.000000,4.000000,4.000000,4.000000,4.000000,4.000000,4.000000,4.000000,4.000000,4.000000,4.000000,4.000000,4.000000,4.000000,100.000000,,,,,,,,,,,,,,,,
1644854559.790607,54.000000,0.000000,4250.512695,4211.794922,4176.025879,4168.717773,4194.743652,4190.641113,4183.461426,4177.307617,4175.897461,4186.922852,4193.205078,4177.563965,4201.794922,4272.948730,0.000000,4.000000,82.000000,,,,0.000000,4.000000,4.000000,4.000000,4.000000,4.000000,4.000000,4.000000,4.000000,4.000000,4.000000,4.000000,4.000000,4.000000,4.000000,100.000000,,,,,,,,,,,,,,,,
1644854559.794547,55.000000,0.000000,4238.589844,4201.666504,4173.461426,4165.769043,4193.077148,4188.077148,4178.974121,4171.282227,4170.128418,4177.692383,4195.128418,4174.358887,4188.974121,4263.333496,0.000000,4.000000,82.000000,,,,0.000000,4.000000,4.000000,4.000000,4.000000,4.000000,4.000000,4.000000,4.000000,4.000000,4.000000,4.000000,4.000000,4.000000,4.000000,100.000000,,,,,,,,,,,,,,,,
1644854559.798487,56.000000,0.000000,4231.025879,4196.282227,4171.538574,4161.794922,4185.897461,4189.102539,4177.051270,4167.436035,4169.871582,4175.512695,4200.384766,4172.692383,4177.179688,4254.230957,0.000000,4.000000,82.000000,,,,0.000000,4.000000,4.000000,4.000000,4.000000,4.000000,4.000000,4.000000,4.000000,4.000000,4.000000,4.000000,4.000000,4.000000,4.000000,100.000000,,,,,,,,,,,,,,,,
1644854559.802427,57.000000,0.000000,4233.077148,4200.641113,4172.307617,4161.025879,4177.820313,4193.461426,4180.897461,4167.948730,4174.871582,4181.025879,4207.692383,4174.358887,4173.077148,4254.102539,0.000000,4.000000,82.000000,,,,0.000000,4.000000,4.000000,4.000000,4.000000,4.000000,4.000000,4.000000,4.000000,4.000000,4.000000,4.000000,4.000000,4.000000,4.000000,100.000000,,,,,,,,,,,,,,,,
1644854559.806367,58.000000,0.000000,4243.205078,4212.051270,4176.666504,4166.538574,4176.153809,4199.230957,4189.102539,4173.333496,4182.692383,4191.025879,4215.641113,4178.846191,4179.615234,4264.615234,0.000000,4.000000,82.000000,,,,0.000000,4.000000,4.000000,4.000000,4.000000,4.000000,4.000000,4.000000,4.000000,4.000000,4.000000,4.000000,4.000000,4.000000,4.000000,100.000000,,,,,,,,,,,,,,,,
1644854559.810307,59.000000,0.000000,4255.256348,4223.717773,4183.717773,4177.436035,4184.230957,4203.589844,4195.512695,4181.282227,4190.769043,4201.025879,4223.333496,4183.461426,4194.102539,4279.102539,0.000000,4.000000,82.000000,,,,0.000000,4.000000,4.000000,4.000000,4.000000,4.000000,4.000000,4.000000,4.000000,4.000000,4.000000,4.000000,4.000000,4.000000,4.000000,100.000000,,,,,,,,,,,,,,,,
1644854559.814347,60.000000,0.000000,4262.948730,4229.615234,4191.666504,4188.333496,4197.436035,4204.743652,4195.897461,4188.205078,4196.922852,4207.179688,4229.358887,4186.922852,4210.769043,4289.615234,0.000000,4.000000,82.000000,,,,0.000000,4.000000,4.000000,4.000000,4.000000,4.000000,4.000000,4.000000,4.000000,4.000000,4.000000,4.000000,4.000000,4.000000,4.000000,100.000000,,,,,,,,,,,,,,,,
1644854559.818287,61.000000,0.000000,4262.820313,4228.333496,4199.102539,4193.461426,4207.436035,4203.077148,4191.922852,4191.538574,4200.897461,4209.102539,4232.820313,4189.358887,4223.077148,4292.948730,0.000000,4.000000,82.000000,3,1,3,0.000000,4.000000,4.000000,4.000000,4.000000,4.000000,4.000000,4.000000,4.000000,4.000000,4.000000,4.000000,4.000000,4.000000,4.000000,100.000000,,,,,,,,,,,,,,,,
1644854559.822228,62.000000,0.000000,4257.179688,4222.307617,4204.358887,4191.282227,4208.717773,4200.384766,4188.589844,4192.051270,4203.077148,4208.974121,4232.948730,4191.025879,4227.436035,4291.153809,0.000000,4.000000,82.000000,,,,0.000000,4.000000,4.000000,4.000000,4.000000,4.000000,4.000000,4.000000,4.000000,4.000000,4.000000,4.000000,4.000000,4.000000,4.000000,100.000000,,,,,,,,,,,,,,,,
1644854559.826168,63.000000,0.000000,4252.307617,4215.897461,4206.282227,4185.384766,4202.692383,4198.717773,4188.846191,4191.666504,4203.974121,4210.000000,4230.000000,4191.538574,4225.000000,4286.922852,0.000000,4.000000,82.000000,,,,0.000000,4.000000,4.000000,4.000000,4.000000,4.000000,4.000000,4.000000,4.000000,4.000000,4.000000,4.000000,4.000000,4.000000,4.000000,100.000000,,,,,,,,,,,,,,,,
1644854559.830108,64.000000,0.000000,4254.358887,4212.307617,4203.846191,4181.538574,4196.153809,4198.461426,4190.897461,4191.922852,4204.743652,4213.846191,4224.230957,4190.128418,4219.871582,4282.051270,0.000000,4.000000,82.000000,,,,0.000000,4.000000,4.000000,4.000000,4.000000,4.000000,4.000000,4.000000,4.000000,4.000000,4.000000,4.000000,4.000000,4.000000,4.000000,100.000000,,,,,,,,,,,,,,,,
1644854559.834048,65.000000,0.000000,4263.333496,4212.051270,4197.307617,4182.436035,4193.717773,4198.205078,4191.538574,4192.692383,4205.000000,4219.743652,4216.538574,4185.769043,4215.769043,4278.589844,0.000000,4.000000,82.000000,,,,0.000000,4.000000,4.000000,4.000000,4.000000,4.000000,4.000000,4.000000,4.000000,4.000000,4.000000,4.000000,4.000000,4.000000,4.000000,100.000000,,,,,,,,,,,,,,,,
1644854559.837988,66.000000,0.000000,4272.820313,4213.333496,4188.717773,4185.641113,4193.974121,4196.153809,4190.256348,4193.333496,4204.102539,4224.487305,4208.077148,4179.358887,4212.948730,4278.589844,0.000000,4.000000,82.000000,,,,0.000000,4.000000,4.000000,4.000000,4.000000,4.000000,4.000000,4.000000,4.000000,4.000000,4.000000,4.000000,4.000000,4.000000,4.000000,100.000000,,,,,,,,,,,,,,,,
1644854559.841928,67.000000,0.000000,4274.871582,4213.974121,4181.538574,4185.769043,4192.179688,4192.179688,4188.846191,4192.948730,4201.794922,4224.487305,4201.410156,4173.846191,4210.512695,4281.666504,0.000000,4.000000,82.000000,,,,0.000000,4.000000,4.000000,4.000000,4.000000,4.000000,4.000000,4.000000,4.000000,4.000000,4.000000,4.000000,4.000000,4.000000,4.000000,100.000000,,,,,,,,,,,,,,,,
1644854559.845868,68.000000,0.000000,4267.563965,4213.461426,4178.333496,4180.256348,4186.153809,4188.461426,4188.589844,4191.153809,4199.230957,4218.846191,4199.102539,4172.692383,4207.820313,4283.589844,0.000000,4.000000,82.000000,,,,0.000000,4.000000,4.000000,4.000000,4.000000,4.000000,4.000000,4.000000,4.000000,4.000000,4.000000,4.000000,4.000000,4.000000,4.000000,100.000000,,,,,,,,,,,,,,,,
1644854559.849808,69.000000,0.000000,4256.025879,4212.051270,4179.615234,4171.666504,4179.102539,4187.307617,4188.846191,4189.230957,4197.820313,4211.794922,4203.717773,4177.179688,4205.769043,4281.282227,0.000000,4.000000,82.000000,,,,0.000000,4.000000,4.000000,4.000000,4.000000,4.000000,4.000000,4.000000,4.000000,4.000000,4.000000,4.000000,4.000000,4.000000,4.000000,100.000000,,,,,,,,,,,,,,,,
1644854559.853748,70.000000,0.000000,4248.717773,4210.641113,4184.487305,4166.410156,4176.922852,4188.974121,4188.717773,4188.846191,4198.333496,4208.461426,4215.384766,4184.871582,4205.384766,4276.282227,0.000000,4.000000,82.000000,,,,0.000000,4.000000,4.000000,4.000000,4.000000,4.000000,4.000000,4.000000,4.000000,4.000000,4.000000,4.000000,4.000000,4.000000,4.000000,100.000000,,,,,,,,,,,,,,,,
1644854559.857688,71.000000,0.000000,4250.384766,4209.615234,4191.025879,4169.487305,4182.948730,4192.051270,4188.974121,4191.153809,4199.743652,4210.897461,4230.769043,4191.538574,4207.179688,4274.102539,0.000000,4.000000,82.000000,,,,0.000000,4.000000,4.000000,4.000000,4.000000,4.000000,4.000000,4.000000,4.000000,4.000000,4.000000,4.000000,4.000000,4.000000,4.000000,100.000000,,,,,,,,,,,,,,,,
1644854559.861629,72.000000,0.000000,4259.871582,4210.256348,4197.179688,4180.000000,4195.897461,4195.000000,4191.153809,4195.897461,4200.769043,4216.282227,4242.692383,4195.769043,4211.794922,4278.205078,0.000000,4.000000,82.000000,,,,0.000000,4.000000,4.000000,4.000000,4.000000,4.000000,4.000000,4.000000,4.000000,4.000000,4.000000,4.000000,4.000000,4.000000,4.000000,100.000000,,,,,,,,,,,,,,,,
1644854559.865569,73.000000,0.000000,4271.538574,4214.102539,4201.538574,4191.794922,4209.358887,4198.077148,4195.128418,4200.897461,4201.410156,4219.743652,4245.000000,4199.102539,4218.846191,4286.410156,0.000000,4.000000,82.000000,,,,0.000000,4.000000,4.000000,4.000000,4.000000,4.000000,4.000000,4.000000,4.000000,4.000000,4.000000,4.000000,4.000000,4.000000,4.000000,100.000000,,,,,,,,,,,,,,,,
1644854559.869509,74.000000,0.000000,4280.000000,4221.794922,4203.589844,4198.077148,4216.410156,4201.153809,4198.461426,4203.846191,4202.820313,4218.461426,4237.948730,4204.615234,4226.025879,4292.948730,0.000000,4.000000,82.000000,,,,0.000000,4.000000,4.000000,4.000000,4.000000,4.000000,4.000000,4.000000,4.000000,4.000000,4.000000,4.000000,4.000000,4.000000,4.000000,100.000000,,,,,,,,,,,,,,,,
1644854559.873449,75.000000,0.000000,4282.563965,4231.410156,4204.102539,4195.000000,4213.974121,4203.846191,4198.717773,4203.589844,4205.512695,4213.974121,4227.051270,4212.307617,4228.974121,4294.358887,0.000000,4.000000,82.000000,,,,0.000000,4.000000,4.000000,4.000000,4.000000,4.000000,4.000000,4.000000,4.000000,4.000000,4.000000,4.000000,4.000000,4.000000,4.000000,100.000000,,,,,,,,,,,,,,,,
1644854559.877389,76.000000,0.000000,4278.846191,4237.563965,4203.589844,4184.102539,4203.717773,4204.615234,4196.282227,4200.769043,4207.307617,4209.230957,4218.077148,4218.077148,4224.102539,4291.666504,0.000000,4.000000,82.000000,,,,0.000000,4.000000,4.000000,4.000000,4.000000,4.000000,4.000000,4.000000,4.000000,4.000000,4.000000,4.000000,4.000000,4.000000,4.000000,100.000000,,,,,,,,,,,,,,,,
1644854559.881329,77.000000,0.000000,4271.153809,4235.384766,4201.025879,4171.410156,4190.641113,4202.436035,4193.461426,4197.051270,4205.128418,4205.897461,4212.436035,4216.666504,4211.922852,4287.307617,0.000000,4.000000,82.000000,,,,0.000000,4.000000,4.000000,4.000000,4.000000,4.000000,4.000000,4.000000,4.000000,4.000000,4.000000,4.000000,4.000000,4.000000,4.000000,100.000000,,,,,,,,,,,,,,,,
1644854559.885269,78.000000,0.000000,4263.461426,4224.487305,4195.897461,4165.000000,4180.512695,4198.461426,4192.051270,4193.974121,4198.205078,4202.948730,4208.205078,4207.051270,4198.461426,4282.948730,0.000000,4.000000,82.000000,,,,0.000000,4.000000,4.000000,4.000000,4.000000,4.000000,4.000000,4.000000,4.000000,4.000000,4.000000,4.000000,4.000000,4.000000,4.000000,100.000000,,,,,,,,,,,,,,,,
1644854559.889109,79.000000,0.000000,4258.717773,4209.743652,4189.230957,4168.974121,4177.820313,4195.256348,4191.922852,4192.179688,4190.256348,4199.358887,4204.615234,4194.102539,4191.282227,4278.846191,0.000000,4.000000,82.000000,,,,0.000000,4.000000,4.000000,4.000000,4.000000,4.000000,4.000000,4.000000,4.000000,4.000000,4.000000,4.000000,4.000000,4.000000,4.000000,100.000000,,,,,,,,,,,,,,,,
1644854559.893050,80.000000,0.000000,4256.922852,4198.461426,4183.974121,4179.871582,4182.820313,4195.512695,4192.692383,4192.179688,4186.410156,4196.025879,4204.230957,4184.743652,4193.461426,4276.410156,0.000000,4.000000,82.000000,,,,0.000000,4.000000,4.000000,4.000000,4.000000,4.000000,4.000000,4.000000,4.000000,4.000000,4.000000,4.000000,4.000000,4.000000,4.000000,100.000000,,,,,,,,,,,,,,,,
1644854559.896990,81.000000,0.000000,4255.256348,4195.128418,4182.051270,4188.974121,4191.282227,4199.358887,4194.102539,4194.358887,4189.230957,4195.256348,4208.974121,4182.307617,4200.769043,4278.077148,0.000000,4.000000,82.000000,,,,0.000000,4.000000,4.000000,4.000000,4.000000,4.000000,4.000000,4.000000,4.000000,4.000000,4.000000,4.000000,4.000000,4.000000,4.000000,100.000000,,,,,,,,,,,,,,,,
1644854559.900930,82.000000,0.000000,4251.410156,4198.717773,4183.461426,4189.358887,4197.051270,4204.230957,4196.666504,4198.717773,4196.922852,4198.205078,4217.179688,4183.846191,4205.000000,4283.077148,0.000000,4.000000,82.000000,,,,0.000000,4.000000,4.000000,4.000000,4.000000,4.000000,4.000000,4.000000,4.000000,4.000000,4.000000,4.000000,4.000000,4.000000,4.000000,100.000000,,,,,,,,,,,,,,,,
1644854559.904870,83.000000,0.000000,4246.410156,4205.512695,4185.769043,4181.153809,4196.666504,4207.563965,4198.846191,4203.974121,4205.128418,4204.230957,4223.589844,4184.102539,4201.025879,4287.563965,0.000000,4.000000,82.000000,,,,0.000000,4.000000,4.000000,4.000000,4.000000,4.000000,4.000000,4.000000,4.000000,4.000000,4.000000,4.000000,4.000000,4.000000,4.000000,100.000000,,,,,,,,,,,,,,,,
1644854559.908810,84.000000,0.000000,4243.333496,4211.794922,4186.794922,4169.743652,4192.563965,4208.974121,4198.589844,4208.461426,4210.897461,4211.282227,4224.358887,4179.871582,4192.051270,4286.666504,0.000000,4.000000,82.000000,,,,0.000000,4.000000,4.000000,4.000000,4.000000,4.000000,4.000000,4.000000,4.000000,4.000000,4.000000,4.000000,4.000000,4.000000,4.000000,100.000000,,,,,,,,,,,,,,,,
1644854559.912750,85.000000,0.000000,4244.615234,4216.282227,4185.256348,4160.769043,4190.128418,4209.871582,4195.641113,4211.025879,4213.077148,4216.922852,4218.846191,4172.820313,4186.153809,4280.769043,0.000000,4.000000,82.000000,,,,0.000000,4.000000,4.000000,4.000000,4.000000,4.000000,4.000000,4.000000,4.000000,4.000000,4.000000,4.000000,4.000000,4.000000,4.000000,100.000000,,,,,,,,,,,,,,,,
1644854559.916690,86.000000,0.000000,4248.077148,4218.974121,4181.922852,4157.307617,4192.948730,4211.666504,4192.948730,4211.025879,4212.307617,4219.102539,4209.743652,4166.922852,4189.487305,4274.743652,0.000000,4.000000,82.000000,,,,0.000000,4.000000,4.000000,4.000000,4.000000,4.000000,4.000000,4.000000,4.000000,4.000000,4.000000,4.000000,4.000000,4.000000,4.000000,100.000000,,,,,,,,,,,,,,,,
1644854559.920630,87.000000,0.000000,4249.871582,4220.000000,4178.205078,4159.487305,4199.487305,4213.333496,4193.974121,4208.589844,4209.230957,4217.820313,4200.384766,4164.871582,4200.512695,4272.948730,0.000000,4.000000,82.000000,,,,0.000000,4.000000,4.000000,4.000000,4.000000,4.000000,4.000000,4.000000,4.000000,4.000000,4.000000,4.000000,4.000000,4.000000,4.000000,100.000000,,,,,,,,,,,,,,,,
1644854559.924570,88.000000,0.000000,4247.179688,4218.717773,4175.000000,4166.410156,4203.717773,4213.205078,4197.820313,4203.974121,4204.871582,4214.358887,4193.461426,4165.769043,4211.153809,4273.333496,0.000000,4.000000,82.000000,,,,0.000000,4.000000,4.000000,4.000000,4.000000,4.000000,4.000000,4.000000,4.000000,4.000000,4.000000,4.000000,4.000000,4.000000,4.000000,100.000000,,,,,,,,,,,,,,,,
1644854559.928510,89.000000,0.000000,4240.897461,4214.871582,4172.307617,4175.000000,4200.512695,4210.769043,4199.615234,4197.307617,4199.743652,4211.153809,4189.871582,4166.153809,4213.461426,4270.256348,0.000000,4.000000,82.000000,,,,0.000000,4.000000,4.000000,4.000000,4.000000,4.000000,4.000000,4.000000,4.000000,4.000000,4.000000,4.000000,4.000000,4.000000,4.000000,100.000000,,,,,,,,,,,,,,,,
1644854559.932451,90.000000,0.000000,4234.743652,4208.589844,4170.384766,4181.538574,4190.128418,4206.922852,4196.153809,4189.871582,4194.743652,4208.589844,4189.358887,4163.846191,4206.025879,4260.256348,0.000000,4.000000,82.000000,,,,0.000000,4.000000,4.000000,4.000000,4.000000,4.000000,4.000000,4.000000,4.000000,4.000000,4.000000,4.000000,4.000000,4.000000,4.000000,100.000000,,,,,,,,,,,,,,,,
1644854559.936391,91.000000,0.000000,4231.410156,4202.436035,4170.256348,4183.461426,4180.000000,4203.974121,4189.487305,4183.846191,4191.282227,4206.153809,4191.282227,4161.282227,4195.128418,4248.461426,0.000000,4.000000,82.000000,,,,0.000000,4.000000,4.000000,4.000000,4.000000,4.000000,4.000000,4.000000,4.000000,4.000000,4.000000,4.000000,4.000000,4.000000,4.000000,100.000000,,,,,,,,,,,,,,,,
1644854559.940331,92.000000,0.000000,4231.922852,4200.641113,4173.205078,4180.512695,4178.333496,4202.692383,4185.512695,4181.794922,4190.641113,4203.717773,4195.384766,4162.307617,4190.000000,4244.102539,0.000000,4.000000,82.000000,,,,0.000000,4.000000,4.000000,4.000000,4.000000,4.000000,4.000000,4.000000,4.000000,4.000000,4.000000,4.000000,4.000000,4.000000,4.000000,100.000000,,,,,,,,,,,,,,,,
1644854559.944271,93.000000,0.000000,4235.641113,4206.282227,4179.358887,4175.384766,4187.307617,4202.948730,4187.307617,4184.743652,4192.948730,4202.948730,4202.051270,4168.717773,4194.871582,4252.436035,0.000000,4.000000,82.000000,,,,0.000000,4.000000,4.000000,4.000000,4.000000,4.000000,4.000000,4.000000,4.000000,4.000000,4.000000,4.000000,4.000000,4.000000,4.000000,100.000000,,,,,,,,,,,,,,,,
1644854559.948211,94.000000,0.000000,4241.666504,4218.333496,4186.666504,4172.563965,4200.769043,4203.974121,4192.051270,4190.128418,4197.436035,4206.025879,4211.153809,4178.333496,4206.025879,4269.358887,0.000000,4.000000,82.000000,,,,0.000000,4.000000,4.000000,4.000000,4.000000,4.000000,4.000000,4.000000,4.000000,4.000000,4.000000,4.000000,4.000000,4.000000,4.000000,100.000000,,,,,,,,,,,,,,,,
1644854559.952151,95.000000,0.000000,4249.102539,4231.282227,4192.563965,4174.615234,4209.871582,4206.025879,4194.230957,4194.487305,4201.922852,4212.179688,4219.871582,4186.410156,4215.384766,4285.384766,0.000000,4.000000,82.000000,,,,0.000000,4.000000,4.000000,4.000000,4.000000,4.000000,4.000000,4.000000,4.000000,4.000000,4.000000,4.000000,4.000000,4.000000,4.000000,100.000000,,,,,,,,,,,,,,,,
1644854559.956091,96.000000,0.000000,4255.769043,4239.230957,4195.641113,4180.000000,4210.000000,4208.846191,4192.436035,4195.641113,4204.871582,4216.666504,4223.846191,4189.871582,4216.666504,4293.589844,0.000000,4.000000,82.000000,,,,0.000000,4.000000,4.000000,4.000000,4.000000,4.000000,4.000000,4.000000,4.000000,4.000000,4.000000,4.000000,4.000000,4.000000,4.000000,100.000000,,,,,,,,,,,,,,,,
1644854559.960131,97.000000,0.000000,4259.487305,4239.358887,4197.051270,4184.615234,4203.461426,4211.922852,4189.743652,4194.358887,4205.256348,4215.256348,4222.051270,4189.230957,4209.871582,4294.615234,0.000000,4.000000,82.000000,,,,0.000000,4.000000,4.000000,4.000000,4.000000,4.000000,4.000000,4.000000,4.000000,4.000000,4.000000,4.000000,4.000000,4.000000,4.000000,100.000000,,,,,,,,,,,,,,,,
1644854559.964071,98.000000,0.000000,4259.487305,4233.974121,4199.102539,4184.102539,4197.051270,4213.717773,4190.384766,4192.948730,4204.102539,4208.333496,4217.436035,4187.948730,4200.128418,4292.692383,0.000000,4.000000,82.000000,,,,0.000000,4.000000,4.000000,4.000000,4.000000,4.000000,4.000000,4.000000,4.000000,4.000000,4.000000,4.000000,4.000000,4.000000,4.000000,100.000000,,,,,,,,,,,,,,,,
1644854559.968011,99.000000,0.000000,4257.692383,4229.102539,4202.307617,4177.179688,4196.922852,4213.333496,4194.358887,4192.692383,4203.846191,4202.051270,4215.128418,4188.974121,4194.615234,4290.641113,0.000000,4.000000,82.000000,,,,0.000000,4.000000,4.000000,4.000000,4.000000,4.000000,4.000000,4.000000,4.000000,4.000000,4.000000,4.000000,4.000000,4.000000,4.000000,100.000000,,,,,,,,,,,,,,,,
1644854559.971952,100.000000,0.000000,4257.692383,4228.846191,4205.128418,4168.205078,4203.589844,4210.512695,4198.077148,4194.358887,4205.512695,4203.333496,4217.051270,4192.692383,4196.282227,4288.974121,0.000000,4.000000,82.000000,,,,0.000000,4.000000,4.000000,4.000000,4.000000,4.000000,4.000000,4.000000,4.000000,4.000000,4.000000,4.000000,4.000000,4.000000,4.000000,100.000000,,,,,,,,,,,,,,,,
1644854559.975892,101.000000,0.000000,4262.051270,4232.948730,4206.025879,4165.128418,4212.563965,4206.794922,4199.230957,4197.436035,4208.077148,4213.205078,4220.384766,4197.051270,4202.820313,4287.692383,0.000000,4.000000,82.000000,,,,0.000000,4.000000,4.000000,4.000000,4.000000,4.000000,4.000000,4.000000,4.000000,4.000000,4.000000,4.000000,4.000000,4.000000,4.000000,100.000000,,,,,,,,,,,,,,,,
1644854559.979832,102.000000,0.000000,4270.641113,4236.922852,4205.256348,4172.820313,4217.179688,4203.077148,4198.589844,4200.897461,4209.230957,4225.512695,4220.897461,4199.487305,4209.615234,4287.563965,0.000000,4.000000,82.000000,,,,0.000000,4.000000,4.000000,4.000000,4.000000,4.000000,4.000000,4.000000,4.000000,4.000000,4.000000,4.000000,4.000000,4.000000,4.000000,100.000000,,,,,,,,,,,,,,,,
1644854559.983772,103.000000,0.000000,4280.000000,4236.410156,4204.743652,4187.179688,4214.487305,4200.512695,4198.205078,4203.205078,4207.307617,4232.051270,4217.820313,4199.743652,4214.487305,4288.974121,0.000000,4.000000,82.000000,,,,0.000000,4.000000,4.000000,4.000000,4.000000,4.000000,4.000000,4.000000,4.000000,4.000000,4.000000,4.000000,4.000000,4.000000,4.000000,100.000000,,,,,,,,,,,,,,,,
1644854559.987712,104.000000,0.000000,4285.641113,4230.897461,4206.153809,4196.922852,4206.794922,4199.615234,4198.205078,4202.948730,4203.333496,4229.743652,4213.717773,4198.846191,4218.717773,4291.282227,0.000000,4.000000,82.000000,,,,0.000000,4.000000,4.000000,4.000000,4.000000,4.000000,4.000000,4.000000,4.000000,4.000000,4.000000,4.000000,4.000000,4.000000,4.000000,100.000000,,,,,,,,,,,,,,,,
1644854559.991652,105.000000,0.000000,4284.487305,4223.077148,4209.615234,4193.717773,4199.615234,4200.384766,4197.179688,4200.128418,4199.743652,4221.666504,4212.179688,4198.461426,4223.333496,4293.077148,0.000000,4.000000,82.000000,,,,0.000000,4.000000,4.000000,4.000000,4.000000,4.000000,4.000000,4.000000,4.000000,4.000000,4.000000,4.000000,4.000000,4.000000,4.000000,100.000000,,,,,,,,,,,,,,,,
1644854559.995592,106.000000,0.000000,4276.666504,4216.538574,4213.717773,4180.256348,4196.794922,4202.563965,4195.641113,4196.922852,4199.230957,4213.846191,4214.230957,4198.717773,4226.025879,4293.717773,0.000000,4.000000,82.000000,,,,0.000000,4.000000,4.000000,4.000000,4.000000,4.000000,4.000000,4.000000,4.000000,4.000000,4.000000,4.000000,4.000000,4.000000,4.000000,100.000000,,,,,,,,,,,,,,,,
1644854559.999532,107.000000,0.000000,4265.256348,4212.948730,4217.563965,4167.948730,4197.820313,4205.641113,4196.025879,4196.538574,4202.179688,4210.384766,4218.333496,4198.846191,4223.205078,4292.948730,0.000000,4.000000,82.000000,,,,0.000000,4.000000,4.000000,4.000000,4.000000,4.000000,4.000000,4.000000,4.000000,4.000000,4.000000,4.000000,4.000000,4.000000,4.000000,100.000000,,,,,,,,,,,,,,,,
1644854560.003472,108.000000,0.000000,4255.256348,4212.692383,4220.256348,4166.153809,4199.358887,4209.230957,4199.358887,4200.512695,4207.436035,4212.051270,4222.436035,4198.461426,4214.358887,4290.512695,0.000000,4.000000,82.000000,,,,0.000000,4.000000,4.000000,4.000000,4.000000,4.000000,4.000000,4.000000,4.000000,4.000000,4.000000,4.000000,4.000000,4.000000,4.000000,100.000000,,,,,,,,,,,,,,,,
1644854560.007412,109.000000,0.000000,4251.282227,4215.128418,4220.769043,4173.333496,4198.846191,4212.563965,4202.948730,4207.307617,4212.820313,4216.794922,4224.871582,4198.333496,4204.743652,4286.282227,0.000000,4.000000,82.000000,,,,0.000000,4.000000,4.000000,4.000000,4.000000,4.000000,4.000000,4.000000,4.000000,4.000000,4.000000,4.000000,4.000000,4.000000,4.000000,100.000000,,,,,,,,,,,,,,,,
1644854560.011353,110.000000,0.000000,4254.615234,4218.974121,4218.589844,4180.256348,4196.025879,4213.717773,4203.205078,4213.205078,4216.410156,4222.051270,4225.000000,4199.358887,4202.179688,4281.282227,0.000000,4.000000,82.000000,,,,0.000000,4.000000,4.000000,4.000000,4.000000,4.000000,4.000000,4.000000,4.000000,4.000000,4.000000,4.000000,4.000000,4.000000,4.000000,100.000000,,,,,,,,,,,,,,,,
1644854560.015293,111.000000,0.000000,4263.461426,4221.666504,4214.358887,4179.102539,4192.307617,4210.897461,4199.487305,4215.256348,4216.922852,4226.025879,4222.563965,4201.153809,4210.000000,4277.820313,0.000000,4.000000,82.000000,,,,0.000000,4.000000,4.000000,4.000000,4.000000,4.000000,4.000000,4.000000,4.000000,4.000000,4.000000,4.000000,4.000000,4.000000,4.000000,100.000000,,,,,,,,,,,,,,,,
1644854560.019233,112.000000,0.000000,4273.717773,4221.794922,4210.384766,4171.666504,4190.128418,4204.487305,4195.641113,4213.589844,4214.743652,4227.692383,4218.974121,4202.692383,4224.743652,4278.205078,0.000000,4.000000,82.000000,,,,0.000000,4.000000,4.000000,4.000000,4.000000,4.000000,4.000000,4.000000,4.000000,4.000000,4.000000,4.000000,4.000000,4.000000,4.000000,100.000000,,,,,,,,,,,,,,,,
1644854560.023173,113.000000,0.000000,4281.282227,4219.743652,4208.846191,4166.666504,4191.153809,4197.948730,4195.128418,4210.256348,4211.666504,4227.563965,4217.307617,4202.820313,4238.461426,4282.179688,0.000000,4.000000,82.000000,,,,0.000000,4.000000,4.000000,4.000000,4.000000,4.000000,4.000000,4.000000,4.000000,4.000000,4.000000,4.000000,4.000000,4.000000,4.000000,100.000000,,,,,,,,,,,,,,,,
1644854560.027113,114.000000,0.000000,4283.077148,4217.563965,4209.487305,4170.769043,4196.282227,4195.769043,4197.563965,4208.333496,4210.769043,4227.436035,4220.897461,4201.666504,4244.743652,4286.410156,0.000000,4.000000,82.000000,,,,0.000000,4.000000,4.000000,4.000000,4.000000,4.000000,4.000000,4.000000,4.000000,4.000000,4.000000,4.000000,4.000000,4.000000,4.000000,100.000000,,,,,,,,,,,,,,,,
1644854560.031053,115.000000,0.000000,4278.077148,4217.051270,4210.384766,4181.666504,4204.230957,4199.487305,4199.615234,4209.743652,4214.230957,4228.846191,4229.743652,4200.512695,4242.692383,4287.179688,0.000000,4.000000,82.000000,,,,0.000000,4.000000,4.000000,4.000000,4.000000,4.000000,4.000000,4.000000,4.000000,4.000000,4.000000,4.000000,4.000000,4.000000,4.000000,100.000000,,,,,,,,,,,,,,,,
1644854560.034893,116.000000,0.000000,4268.077148,4217.820313,4209.230957,4190.512695,4210.000000,4206.666504,4198.974121,4214.230957,4221.025879,4232.436035,4238.974121,4200.128418,4235.512695,4283.846191,0.000000,4.000000,82.000000,,,,0.000000,4.000000,4.000000,4.000000,4.000000,4.000000,4.000000,4.000000,4.000000,4.000000,4.000000,4.000000,4.000000,4.000000,4.000000,100.000000,,,,,,,,,,,,,,,,
1644854560.038833,117.000000,0.000000,4256.282227,4216.922852,4205.897461,4189.358887,4208.461426,4212.563965,4197.051270,4219.102539,4227.051270,4236.666504,4241.794922,4200.384766,4227.436035,4278.589844,0.000000,4.000000,82.000000,,,,0.000000,4.000000,4.000000,4.000000,4.000000,4.000000,4.000000,4.000000,4.000000,4.000000,4.000000,4.000000,4.000000,4.000000,4.000000,100.000000,,,,,,,,,,,,,,,,
1644854560.042774,118.000000,0.000000,4246.794922,4211.922852,4202.179688,4178.333496,4199.102539,4214.487305,4196.666504,4221.153809,4228.974121,4239.358887,4234.743652,4200.512695,4221.794922,4274.102539,0.000000,4.000000,82.000000,,,,0.000000,4.000000,4.000000,4.000000,4.000000,4.000000,4.000000,4.000000,4.000000,4.000000,4.000000,4.000000,4.000000,4.000000,4.000000,100.000000,,,,,,,,,,,,,,,,
1644854560.046714,119.000000,0.000000,4242.179688,4203.461426,4200.000000,4165.384766,4188.589844,4213.205078,4198.717773,4219.615234,4227.179688,4239.743652,4221.410156,4200.000000,4220.641113,4271.794922,0.000000,4.000000,82.000000,,,,0.000000,4.000000,4.000000,4.000000,4.000000,4.000000,4.000000,4.000000,4.000000,4.000000,4.000000,4.000000,4.000000,4.000000,4.000000,100.000000,,,,,,,,,,,,,,,,
1644854560.050654,120.000000,0.000000,4242.692383,4196.153809,4200.384766,4159.358887,4184.487305,4211.922852,4201.794922,4215.897461,4224.743652,4238.589844,4210.512695,4199.743652,4223.717773,4272.179688,0.000000,4.000000,82.000000,,,,0.000000,4.000000,4.000000,4.000000,4.000000,4.000000,4.000000,4.000000,4.000000,4.000000,4.000000,4.000000,4.000000,4.000000,4.000000,100.000000,,,,,,,,,,,,,,,,
1644854560.054594,121.000000,0.000000,4246.153809,4194.615234,4202.563965,4162.948730,4189.615234,4213.461426,4204.615234,4212.948730,4224.230957,4237.436035,4210.256348,4200.897461,4229.358887,4276.025879,0.000000,4.000000,82.000000,,,,0.000000,4.000000,4.000000,4.000000,4.000000,4.000000,4.000000,4.000000,4.000000,4.000000,4.000000,4.000000,4.000000,4.000000,4.000000,100.000000,,,,,,,,,,,,,,,,
1644854560.058534,122.000000,0.000000,4250.897461,4199.487305,4205.384766,4170.128418,4199.358887,4217.820313,4207.436035,4212.563965,4225.769043,4236.922852,4222.436035,4203.077148,4235.384766,4282.820313,0.000000,4.000000,82.000000,,,,0.000000,4.000000,4.000000,4.000000,4.000000,4.000000,4.000000,4.000000,4.000000,4.000000,4.000000,4.000000,4.000000,4.000000,4.000000,100.000000,,,,,,,,,,,,,,,,
1644854560.062474,123.000000,0.000000,4255.897461,4207.692383,4206.666504,4172.692383,4207.563965,4222.948730,4210.512695,4214.615234,4227.307617,4237.179688,4240.512695,4204.230957,4240.128418,4289.615234,0.000000,4.000000,82.000000,,,,0.000000,4.000000,4.000000,4.000000,4.000000,4.000000,4.000000,4.000000,4.000000,4.000000,4.000000,4.000000,4.000000,4.000000,4.000000,100.000000,,,,,,,,,,,,,,,,
1644854560.066414,124.000000,0.000000,4260.384766,4214.487305,4205.128418,4167.436035,4210.769043,4226.666504,4212.307617,4217.179688,4226.922852,4237.692383,4254.487305,4202.307617,4241.538574,4291.922852,0.000000,4.000000,82.000000,,,,0.000000,4.000000,4.000000,4.000000,4.000000,4.000000,4.000000,4.000000,4.000000,4.000000,4.000000,4.000000,4.000000,4.000000,4.000000,100.000000,,,,,,,,,,,,,,,,
1644854560.070354,125.000000,0.000000,4261.538574,4217.820313,4201.025879,4159.487305,4210.512695,4227.563965,4210.897461,4218.333496,4225.128418,4238.077148,4256.282227,4197.307617,4237.563965,4288.205078,0.000000,4.000000,82.000000,,,,0.000000,4.000000,4.000000,4.000000,4.000000,4.000000,4.000000,4.000000,4.000000,4.000000,4.000000,4.000000,4.000000,4.000000,4.000000,100.000000,,,,,,,,,,,,,,,,
1644854560.074294,126.000000,0.000000,4257.051270,4218.589844,4195.897461,4156.666504,4209.358887,4224.871582,4206.666504,4216.922852,4222.563965,4237.179688,4244.743652,4191.538574,4227.436035,4281.153809,0.000000,4.000000,82.000000,,,,0.000000,4.000000,4.000000,4.000000,4.000000,4.000000,4.000000,4.000000,4.000000,4.000000,4.000000,4.000000,4.000000,4.000000,4.000000,100.000000,,,,,,,,,,,,,,,,
1644854560.078234,127.000000,0.000000,4246.794922,4218.333496,4191.538574,4162.051270,4207.820313,4219.487305,4202.948730,4213.717773,4219.871582,4234.743652,4225.256348,4187.820313,4214.102539,4275.512695,0.000000,4.000000,82.000000,,,,0.000000,4.000000,4.000000,4.000000,4.000000,4.000000,4.000000,4.000000,4.000000,4.000000,4.000000,4.000000,4.000000,4.000000,4.000000,100.000000,,,,,,,,,,,,,,,,
1644854560.082175,128.000000,0.000000,4234.743652,4217.179688,4188.846191,4170.769043,4204.487305,4213.077148,4202.051270,4210.256348,4216.922852,4231.025879,4206.282227,4186.538574,4202.820313,4272.436035,3422.000000,4.000000,82.000000,,,,0.000000,4.000000,4.000000,4.000000,4.000000,4.000000,4.000000,4.000000,4.000000,4.000000,4.000000,4.000000,4.000000,4.000000,4.000000,100.000000,,,,,,,,,,,,,,,,
1644854560.086115,129.000000,0.000000,4226.538574,4213.974121,4187.436035,4175.384766,4199.102539,4208.333496,4203.333496,4208.077148,4213.974121,4226.666504,4194.743652,4186.666504,4198.717773,4269.358887,3329.000000,4.000000,82.000000,,,,0.000000,4.000000,4.000000,4.000000,4.000000,4.000000,4.000000,4.000000,4.000000,4.000000,4.000000,4.000000,4.000000,4.000000,4.000000,100.000000,,,,,,,,,,,,,,,,
1644854560.090055,130.000000,0.000000,4226.538574,4208.077148,4186.410156,4172.948730,4193.846191,4207.051270,4203.974121,4208.205078,4211.538574,4222.307617,4192.948730,4187.051270,4203.077148,4263.974121,3520.000000,4.000000,82.000000,,,,0.000000,4.000000,4.000000,4.000000,4.000000,4.000000,4.000000,4.000000,4.000000,4.000000,4.000000,4.000000,4.000000,4.000000,4.000000,100.000000,,,,,,,,,,,,,,,,
1644854560.093995,131.000000,0.000000,4235.000000,4201.666504,4185.384766,4167.692383,4191.922852,4209.615234,4203.205078,4210.000000,4210.897461,4218.077148,4199.230957,4187.563965,4212.692383,4258.461426,3674.000000,4.000000,82.000000,,,,0.000000,4.000000,4.000000,4.000000,4.000000,4.000000,4.000000,4.000000,4.000000,4.000000,4.000000,4.000000,4.000000,4.000000,4.000000,100.000000,,,,,,,,,,,,,,,,
1644854560.097935,132.000000,0.000000,4247.179688,4198.846191,4184.615234,4166.538574,4195.769043,4214.102539,4203.077148,4212.692383,4212.051270,4214.871582,4209.230957,4189.487305,4221.922852,4257.948730,3504.000000,4.000000,82.000000,,,,0.000000,4.000000,4.000000,4.000000,4.000000,4.000000,4.000000,4.000000,4.000000,4.000000,4.000000,4.000000,4.000000,4.000000,4.000000,100.000000,,,,,,,,,,,,,,,,
1644854560.101875,133.000000,0.000000,4255.641113,4202.051270,4185.000000,4171.538574,4204.487305,4217.436035,4205.128418,4215.641113,4214.230957,4214.871582,4219.230957,4192.820313,4226.922852,4264.487305,3494.000000,4.000000,82.000000,,,,0.000000,4.000000,4.000000,4.000000,4.000000,4.000000,4.000000,4.000000,4.000000,4.000000,4.000000,4.000000,4.000000,4.000000,4.000000,100.000000,,,,,,,,,,,,,,,,
1644854560.105915,134.000000,0.000000,4255.128418,4209.871582,4187.436035,4177.820313,4214.871582,4217.563965,4207.948730,4218.589844,4216.282227,4219.615234,4226.666504,4195.897461,4227.436035,4273.461426,2766.000000,4.000000,82.000000,,,,0.000000,4.000000,4.000000,4.000000,4.000000,4.000000,4.000000,4.000000,4.000000,4.000000,4.000000,4.000000,4.000000,4.000000,4.000000,100.000000,,,,,,,,,,,,,,,,
1644854560.109855,135.000000,0.000000,4246.538574,4217.692383,4191.922852,4177.563965,4222.179688,4214.358887,4208.205078,4220.897461,4217.563965,4228.205078,4229.743652,4196.282227,4225.897461,4278.333496,3026.000000,4.000000,82.000000,,,,0.000000,4.000000,4.000000,4.000000,4.000000,4.000000,4.000000,4.000000,4.000000,4.000000,4.000000,4.000000,4.000000,4.000000,4.000000,100.000000,,,,,,,,,,,,,,,,
1644854560.113795,136.000000,0.000000,4235.769043,4221.025879,4196.922852,4167.692383,4221.666504,4210.000000,4204.743652,4221.666504,4217.948730,4236.538574,4228.077148,4192.692383,4224.615234,4277.307617,3275.000000,4.000000,82.000000,,,,0.000000,4.000000,4.000000,4.000000,4.000000,4.000000,4.000000,4.000000,4.000000,4.000000,4.000000,4.000000,4.000000,4.000000,4.000000,100.000000,,,,,,,,,,,,,,,,
1644854560.117735,137.000000,0.000000,4230.897461,4219.358887,4201.282227,4153.717773,4211.538574,4207.051270,4201.153809,4221.025879,4217.820313,4239.871582,4223.333496,4187.307617,4224.358887,4275.128418,3557.000000,4.000000,82.000000,,,,0.000000,4.000000,4.000000,4.000000,4.000000,4.000000,4.000000,4.000000,4.000000,4.000000,4.000000,4.000000,4.000000,4.000000,4.000000,100.000000,,,,,,,,,,,,,,,,
1644854560.121676,138.000000,0.000000,4235.897461,4215.769043,4204.358887,4146.794922,4196.025879,4207.307617,4201.922852,4220.512695,4218.333496,4236.666504,4220.128418,4184.871582,4224.615234,4277.948730,3534.000000,4.000000,82.000000,,,,0.000000,4.000000,4.000000,4.000000,4.000000,4.000000,4.000000,4.000000,4.000000,4.000000,4.000000,4.000000,4.000000,4.000000,4.000000,100.000000,,,,,,,,,,,,,,,,
1644854560.125616,139.000000,0.000000,4249.871582,4215.897461,4207.179688,4155.641113,4183.589844,4210.897461,4207.179688,4221.794922,4220.897461,4230.641113,4222.436035,4188.846191,4226.025879,4285.897461,2526.000000,4.000000,82.000000,,,,0.000000,4.000000,4.000000,4.000000,4.000000,4.000000,4.000000,4.000000,4.000000,4.000000,4.000000,4.000000,4.000000,4.000000,4.000000,100.000000,,,,,,,,,,,,,,,,
1644854560.129556,140.000000,0.000000,4267.692383,4221.922852,4210.769043,4178.846191,4181.794922,4215.641113,4212.563965,4224.871582,4225.384766,4227.820313,4230.512695,4198.974121,4230.128418,4293.846191,3447.000000,4.000000,82.000000,,,,0.000000,4.000000,4.000000,4.000000,4.000000,4.000000,4.000000,4.000000,4.000000,4.000000,4.000000,4.000000,4.000000,4.000000,4.000000,100.000000,,,,,,,,,,,,,,,,
1644854560.133496,141.000000,0.000000,4283.461426,4230.769043,4215.256348,4205.512695,4192.179688,4218.717773,4213.077148,4228.077148,4230.256348,4231.538574,4239.102539,4209.871582,4237.563965,4297.179688,3501.000000,4.000000,82.000000,,,,0.000000,4.000000,4.000000,4.000000,4.000000,4.000000,4.000000,4.000000,4.000000,4.000000,4.000000,4.000000,4.000000,4.000000,4.000000,100.000000,,,,,,,,,,,,,,,,
1644854560.137436,142.000000,0.000000,4292.179688,4236.666504,4219.102539,4220.897461,4208.205078,4218.333496,4209.230957,4229.230957,4232.307617,4239.102539,4241.666504,4215.128418,4245.769043,4296.282227,3534.000000,4.000000,82.000000,,,,0.000000,4.000000,4.000000,4.000000,4.000000,4.000000,4.000000,4.000000,4.000000,4.000000,4.000000,4.000000,4.000000,4.000000,4.000000,100.000000,,,,,,,,,,,,,,,,
1644854560.141376,143.000000,0.000000,4291.666504,4235.128418,4220.897461,4217.179688,4219.615234,4214.871582,4205.256348,4227.948730,4230.641113,4244.102539,4234.230957,4212.179688,4249.871582,4293.846191,2526.000000,4.000000,82.000000,,,,0.000000,4.000000,4.000000,4.000000,4.000000,4.000000,4.000000,4.000000,4.000000,4.000000,4.000000,4.000000,4.000000,4.000000,4.000000,100.000000,,,,,,,,,,,,,,,,
1644854560.145316,144.000000,0.000000,4282.692383,4227.436035,4220.769043,4198.333496,4218.974121,4211.153809,4204.358887,4224.615234,4226.410156,4242.307617,4219.615234,4204.743652,4247.051270,4290.769043,3447.000000,4.000000,82.000000,,,,0.000000,4.000000,4.000000,4.000000,4.000000,4.000000,4.000000,4.000000,4.000000,4.000000,4.000000,4.000000,4.000000,4.000000,4.000000,100.000000,,,,,,,,,,,,,,,,
1644854560.149256,145.000000,0.000000,4269.615234,4218.974121,4219.743652,4177.948730,4207.948730,4210.000000,4205.897461,4220.000000,4222.563965,4235.769043,4206.282227,4199.358887,4239.102539,4285.641113,3501.000000,4.000000,82.000000,,,,0.000000,4.000000,4.000000,4.000000,4.000000,4.000000,4.000000,4.000000,4.000000,4.000000,4.000000,4.000000,4.000000,4.000000,4.000000,100.000000,,,,,,,,,,,,,,,,
1644854560.153196,146.000000,0.000000,4258.589844,4215.128418,4220.000000,4168.974121,4194.743652,4211.922852,4207.179688,4214.487305,4220.769043,4230.000000,4202.051270,4199.230957,4232.051270,4278.846191,3534.000000,4.000000,82.000000,,,,0.000000,4.000000,4.000000,4.000000,4.000000,4.000000,4.000000,4.000000,4.000000,4.000000,4.000000,4.000000,4.000000,4.000000,4.000000,100.000000,,,,,,,,,,,,,,,,
1644854560.157136,147.000000,0.000000,4254.230957,4217.051270,4222.179688,4174.487305,4188.589844,4215.256348,4207.307617,4209.230957,4219.743652,4229.102539,4208.589844,4202.692383,4230.384766,4274.358887,2526.000000,4.000000,82.000000,,,,0.000000,4.000000,4.000000,4.000000,4.000000,4.000000,4.000000,4.000000,4.000000,4.000000,4.000000,4.000000,4.000000,4.000000,4.000000,100.000000,,,,,,,,,,,,,,,,
1644854560.161077,148.000000,0.000000,4256.922852,4221.282227,4224.871582,4186.153809,4192.563965,4217.436035,4207.436035,4205.512695,4217.436035,4230.512695,4220.897461,4204.743652,4232.563965,4276.282227,3447.000000,4.000000,82.000000,,,,0.000000,4.000000,4.000000,4.000000,4.000000,4.000000,4.000000,4.000000,4.000000,4.000000,4.000000,4.000000,4.000000,4.000000,4.000000,100.000000,,,,,,,,,,,,,,,,
1644854560.165017,149.000000,0.000000,4263.333496,4222.820313,4225.641113,4192.179688,4202.051270,4216.922852,4208.205078,4203.974121,4212.948730,4228.333496,4230.641113,4202.692383,4231.666504,4283.717773,3501.000000,4.000000,82.000000,,,,0.000000,4.000000,4.000000,4.000000,4.000000,4.000000,4.000000,4.000000,4.000000,4.000000,4.000000,4.000000,4.000000,4.000000,4.000000,100.000000,,,,,,,,,,,,,,,,
1644854560.168957,150.000000,0.000000,4268.461426,4218.589844,4222.563965,4186.666504,4208.461426,4213.589844,4208.205078,4203.974121,4207.692383,4219.871582,4233.077148,4198.333496,4222.436035,4289.615234,3534.000000,4.000000,82.000000,,,,0.000000,4.000000,4.000000,4.000000,4.000000,4.000000,4.000000,4.000000,4.000000,4.000000,4.000000,4.000000,4.000000,4.000000,4.000000,100.000000,,,,,,,,,,,,,,,,
1644854560.172897,151.000000,0.000000,4269.358887,4210.128418,4216.666504,4173.589844,4205.384766,4208.974121,4205.769043,4204.743652,4204.102539,4209.358887,4228.846191,4195.256348,4206.538574,4286.922852,2526.000000,4.000000,82.000000,,,,0.000000,4.000000,4.000000,4.000000,4.000000,4.000000,4.000000,4.000000,4.000000,4.000000,4.000000,4.000000,4.000000,4.000000,4.000000,100.000000,,,,,,,,,,,,,,,,
1644854560.176837,152.000000,0.000000,4265.769043,4202.051270,4211.153809,4162.563965,4194.230957,4204.358887,4202.307617,4206.025879,4203.717773,4204.230957,4221.282227,4196.025879,4193.461426,4276.922852,3447.000000,4.000000,82.000000,,,,0.000000,4.000000,4.000000,4.000000,4.000000,4.000000,4.000000,4.000000,4.000000,4.000000,4.000000,4.000000,4.000000,4.000000,4.000000,100.000000,,,,,,,,,,,,,,,,
1644854560.180677,153.000000,0.000000,4260.000000,4199.230957,4209.615234,4162.179688,4183.461426,4201.282227,4200.384766,4208.077148,4206.153809,4208.846191,4213.974121,4199.358887,4192.692383,4268.333496,3501.000000,4.000000,82.000000,,,,0.000000,4.000000,4.000000,4.000000,4.000000,4.000000,4.000000,4.000000,4.000000,4.000000,4.000000,4.000000,4.000000,4.000000,4.000000,100.000000,,,,,,,,,,,,,,,,
1644854560.184617,154.000000,0.000000,4255.641113,4202.692383,4212.307617,4173.333496,4181.666504,4200.384766,4200.512695,4210.128418,4210.000000,4220.769043,4208.717773,4201.922852,4206.153809,4269.615234,3534.000000,4.000000,82.000000,,,,0.000000,4.000000,4.000000,4.000000,4.000000,4.000000,4.000000,4.000000,4.000000,4.000000,4.000000,4.000000,4.000000,4.000000,4.000000,100.000000,,,,,,,,,,,,,,,,
1644854560.188557,155.000000,0.000000,4255.769043,4209.743652,4216.794922,4188.846191,4190.384766,4201.025879,4200.641113,4211.794922,4213.461426,4232.307617,4205.769043,4200.512695,4225.769043,4279.615234,2526.000000,4.000000,82.000000,,,,0.000000,4.000000,4.000000,4.000000,4.000000,4.000000,4.000000,4.000000,4.000000,4.000000,4.000000,4.000000,4.000000,4.000000,4.000000,100.000000,,,,,,,,,,,,,,,,
1644854560.192498,156.000000,0.000000,4260.256348,4216.153809,4219.230957,4198.461426,4202.563965,4201.666504,4198.846191,4212.820313,4215.769043,4236.922852,4204.615234,4195.000000,4239.743652,4289.358887,3447.000000,4.000000,82.000000,,,,0.000000,4.000000,4.000000,4.000000,4.000000,4.000000,4.000000,4.000000,4.000000,4.000000,4.000000,4.000000,4.000000,4.000000,4.000000,100.000000,,,,,,,,,,,,,,,,
1644854560.196438,157.000000,0.000000,4266.153809,4219.615234,4218.077148,4196.410156,4209.487305,4201.025879,4196.410156,4213.974121,4216.282227,4232.948730,4205.256348,4188.717773,4240.128418,4290.384766,3501.000000,4.000000,82.000000,,,,0.000000,4.000000,4.000000,4.000000,4.000000,4.000000,4.000000,4.000000,4.000000,4.000000,4.000000,4.000000,4.000000,4.000000,4.000000,100.000000,,,,,,,,,,,,,,,,
1644854560.200378,158.000000,0.000000,4269.615234,4220.384766,4214.871582,4186.153809,4207.436035,4199.615234,4196.410156,4215.512695,4215.897461,4224.871582,4207.948730,4185.641113,4229.102539,4282.436035,3534.000000,4.000000,82.000000,,,,0.000000,4.000000,4.000000,4.000000,4.000000,4.000000,4.000000,4.000000,4.000000,4.000000,4.000000,4.000000,4.000000,4.000000,4.000000,100.000000,,,,,,,,,,,,,,,,
1644854560.204318,159.000000,0.000000,4268.974121,4220.512695,4213.333496,4177.307617,4200.512695,4198.461426,4199.615234,4216.794922,4215.897461,4219.615234,4212.948730,4187.307617,4216.538574,4273.205078,2526.000000,4.000000,82.000000,,,,0.000000,4.000000,4.000000,4.000000,4.000000,4.000000,4.000000,4.000000,4.000000,4.000000,4.000000,4.000000,4.000000,4.000000,4.000000,100.000000,,,,,,,,,,,,,,,,
1644854560.208258,160.000000,0.000000,4266.025879,4222.563965,4215.641113,4178.461426,4195.128418,4199.230957,4203.205078,4217.179688,4217.179688,4221.666504,4219.487305,4192.692383,4212.563965,4271.410156,3447.000000,4.000000,82.000000,,,,0.000000,4.000000,4.000000,4.000000,4.000000,4.000000,4.000000,4.000000,4.000000,4.000000,4.000000,4.000000,4.000000,4.000000,4.000000,100.000000,,,,,,,,,,,,,,,,
1644854560.212198,161.000000,0.000000,4263.846191,4226.794922,4220.897461,4189.230957,4195.384766,4203.077148,4203.846191,4216.666504,4220.000000,4230.384766,4225.769043,4198.717773,4220.897461,4280.641113,3501.000000,4.000000,82.000000,,,,0.000000,4.000000,4.000000,4.000000,4.000000,4.000000,4.000000,4.000000,4.000000,4.000000,4.000000,4.000000,4.000000,4.000000,4.000000,100.000000,,,,,,,,,,,,,,,,
1644854560.216138,162.000000,0.000000,4264.487305,4231.666504,4226.538574,4202.051270,4200.000000,4209.102539,4202.436035,4216.282227,4223.461426,4240.256348,4229.743652,4203.205078,4236.282227,4296.666504,3534.000000,4.000000,82.000000,,,,0.000000,4.000000,4.000000,4.000000,4.000000,4.000000,4.000000,4.000000,4.000000,4.000000,4.000000,4.000000,4.000000,4.000000,4.000000,100.000000,,,,,,,,,,,,,,,,
1644854560.220078,163.000000,0.000000,4267.820313,4234.230957,4229.871582,4207.563965,4205.384766,4215.000000,4202.436035,4216.922852,4226.153809,4245.000000,4230.769043,4205.384766,4249.615234,4310.897461,2526.000000,4.000000,82.000000,,,,0.000000,4.000000,4.000000,4.000000,4.000000,4.000000,4.000000,4.000000,4.000000,4.000000,4.000000,4.000000,4.000000,4.000000,4.000000,100.000000,,,,,,,,,,,,,,,,
1644854560.224018,164.000000,0.000000,4272.692383,4232.307617,4229.230957,4202.179688,4209.102539,4217.948730,4205.769043,4218.205078,4227.179688,4242.051270,4230.256348,4205.897461,4254.102539,4315.256348,3447.000000,4.000000,82.000000,,,,0.000000,4.000000,4.000000,4.000000,4.000000,4.000000,4.000000,4.000000,4.000000,4.000000,4.000000,4.000000,4.000000,4.000000,4.000000,100.000000,,,,,,,,,,,,,,,,
1644854560.227958,165.000000,0.000000,4277.307617,4226.922852,4225.000000,4190.000000,4211.025879,4218.077148,4210.000000,4218.974121,4226.410156,4234.615234,4230.000000,4206.153809,4248.974121,4308.205078,3501.000000,4.000000,82.000000,,,,0.000000,4.000000,4.000000,4.000000,4.000000,4.000000,4.000000,4.000000,4.000000,4.000000,4.000000,4.000000,4.000000,4.000000,4.000000,100.000000,,,,,,,,,,,,,,,,
1644854560.231899,166.000000,0.000000,4279.871582,4222.179688,4219.743652,4179.487305,4212.051270,4217.436035,4211.666504,4218.077148,4224.615234,4228.333496,4230.897461,4206.538574,4238.974121,4295.897461,3534.000000,4.000000,82.000000,,,,0.000000,4.000000,4.000000,4.000000,4.000000,4.000000,4.000000,4.000000,4.000000,4.000000,4.000000,4.000000,4.000000,4.000000,4.000000,100.000000,,,,,,,,,,,,,,,,
1644854560.235839,167.000000,0.000000,4278.846191,4221.666504,4216.153809,4177.051270,4212.436035,4218.846191,4210.641113,4216.025879,4222.436035,4226.794922,4231.922852,4206.538574,4230.769043,4288.077148,2526.000000,4.000000,82.000000,,,,0.000000,4.000000,4.000000,4.000000,4.000000,4.000000,4.000000,4.000000,4.000000,4.000000,4.000000,4.000000,4.000000,4.000000,4.000000,100.000000,,,,,,,,,,,,,,,,
1644854560.239779,168.000000,0.000000,4275.256348,4226.410156,4215.769043,4183.846191,4212.692383,4223.077148,4209.743652,4213.589844,4220.128418,4229.230957,4231.538574,4205.256348,4229.102539,4290.384766,3447.000000,4.000000,82.000000,,,,0.000000,4.000000,4.000000,4.000000,4.000000,4.000000,4.000000,4.000000,4.000000,4.000000,4.000000,4.000000,4.000000,4.000000,4.000000,100.000000,,,,,,,,,,,,,,,,
1644854560.243719,169.000000,0.000000,4271.794922,4234.487305,4217.820313,4196.025879,4212.948730,4228.077148,4211.410156,4211.922852,4218.205078,4232.948730,4230.000000,4202.692383,4234.871582,4300.384766,3501.000000,4.000000,82.000000,,,,0.000000,4.000000,4.000000,4.000000,4.000000,4.000000,4.000000,4.000000,4.000000,4.000000,4.000000,4.000000,4.000000,4.000000,4.000000,100.000000,,,,,,,,,,,,,,,,
1644854560.247659,170.000000,0.000000,4271.794922,4242.948730,4219.871582,4206.538574,4214.102539,4231.025879,4214.871582,4211.666504,4217.436035,4236.153809,4229.615234,4199.871582,4245.512695,4310.256348,3534.000000,4.000000,82.000000,,,,0.000000,4.000000,4.000000,4.000000,4.000000,4.000000,4.000000,4.000000,4.000000,4.000000,4.000000,4.000000,4.000000,4.000000,4.000000,100.000000,,,,,,,,,,,,,,,,
1644854560.251699,171.000000,0.000000,4276.666504,4249.487305,4219.743652,4209.871582,4216.666504,4230.000000,4217.436035,4212.692383,4218.846191,4238.205078,4232.051270,4198.461426,4256.666504,4314.102539,2526.000000,4.000000,82.000000,,,,0.000000,4.000000,4.000000,4.000000,4.000000,4.000000,4.000000,4.000000,4.000000,4.000000,4.000000,4.000000,4.000000,4.000000,4.000000,100.000000,,,,,,,,,,,,,,,,
1644854560.255639,172.000000,0.000000,4283.589844,4252.692383,4217.563965,4205.769043,4220.128418,4225.897461,4218.077148,4214.615234,4222.436035,4238.974121,4236.410156,4198.974121,4262.948730,4311.538574,3447.000000,4.000000,82.000000,,,,0.000000,4.000000,4.000000,4.000000,4.000000,4.000000,4.000000,4.000000,4.000000,4.000000,4.000000,4.000000,4.000000,4.000000,4.000000,100.000000,1.000000,75.000000,4.000000,4.000000,4.000000,4.000000,4.000000,4.000000,4.000000,4.000000,4.000000,4.000000,3.000000,4.000000,3.000000,3.000000
1644854560.259579,173.000000,0.000000,4286.922852,4251.538574,4214.358887,4198.461426,4222.820313,4221.282227,4217.948730,4216.922852,4226.410156,4238.717773,4238.589844,4200.000000,4261.025879,4306.538574,3501.000000,4.000000,82.000000,,,,0.000000,4.000000,4.000000,4.000000,4.000000,4.000000,4.000000,4.000000,4.000000,4.000000,4.000000,4.000000,4.000000,4.000000,4.000000,100.000000,,,,,,,,,,,,,,,,
1644854560.263519,174.000000,0.000000,4282.692383,4246.410156,4211.410156,4193.077148,4222.179688,4218.846191,4218.077148,4219.102539,4227.820313,4237.948730,4235.256348,4199.615234,4251.666504,4301.922852,3534.000000,4.000000,82.000000,,,,0.000000,4.000000,4.000000,4.000000,4.000000,4.000000,4.000000,4.000000,4.000000,4.000000,4.000000,4.000000,4.000000,4.000000,4.000000,100.000000,,,,,,,,,,,,,,,,
1644854560.267459,175.000000,0.000000,4272.948730,4239.615234,4209.615234,4191.025879,4217.563965,4219.358887,4217.563965,4220.769043,4225.384766,4236.282227,4227.179688,4197.563965,4240.512695,4297.692383,2526.000000,4.000000,82.000000,,,,0.000000,4.000000,4.000000,4.000000,4.000000,4.000000,4.000000,4.000000,4.000000,4.000000,4.000000,4.000000,4.000000,4.000000,4.000000,100.000000,,,,,,,,,,,,,,,,
1644854560.271400,176.000000,0.000000,4264.487305,4234.487305,4209.358887,4190.512695,4211.153809,4221.153809,4215.512695,4221.025879,4220.897461,4233.077148,4218.974121,4195.769043,4233.846191,4293.717773,3447.000000,4.000000,82.000000,,,,0.000000,4.000000,4.000000,4.000000,4.000000,4.000000,4.000000,4.000000,4.000000,4.000000,4.000000,4.000000,4.000000,4.000000,4.000000,100.000000,,,,,,,,,,,,,,,,
1644854560.275340,177.000000,0.000000,4262.820313,4233.333496,4211.282227,4189.487305,4207.051270,4221.794922,4212.436035,4219.871582,4217.307617,4228.333496,4215.641113,4196.794922,4234.743652,4291.025879,3501.000000,4.000000,82.000000,,,,0.000000,4.000000,4.000000,4.000000,4.000000,4.000000,4.000000,4.000000,4.000000,4.000000,4.000000,4.000000,4.000000,4.000000,4.000000,100.000000,,,,,,,,,,,,,,,,
1644854560.279280,178.000000,0.000000,4268.333496,4235.128418,4216.025879,4188.077148,4207.307617,4220.384766,4210.769043,4218.717773,4216.922852,4223.589844,4218.846191,4201.282227,4241.410156,4291.153809,3534.000000,4.000000,82.000000,,,,0.000000,4.000000,4.000000,4.000000,4.000000,4.000000,4.000000,4.000000,4.000000,4.000000,4.000000,4.000000,4.000000,4.000000,4.000000,100.000000,,,,,,,,,,,,,,,,
1644854560.283220,179.000000,0.000000,4275.769043,4237.179688,4222.692383,4188.077148,4210.384766,4217.563965,4211.282227,4219.743652,4219.743652,4221.922852,4225.769043,4207.563965,4249.487305,4292.948730,2526.000000,4.000000,82.000000,,,,0.000000,4.000000,4.000000,4.000000,4.000000,4.000000,4.000000,4.000000,4.000000,4.000000,4.000000,4.000000,4.000000,4.000000,4.000000,100.000000,,,,,,,,,,,,,,,,
1644854560.287160,180.000000,0.000000,4279.230957,4237.692383,4228.846191,4189.615234,4212.436035,4215.384766,4212.179688,4223.589844,4223.974121,4225.000000,4231.794922,4213.205078,4256.153809,4293.205078,3447.000000,4.000000,82.000000,,,,0.000000,4.000000,4.000000,4.000000,4.000000,4.000000,4.000000,4.000000,4.000000,4.000000,4.000000,4.000000,4.000000,4.000000,4.000000,100.000000,,,,,,,,,,,,,,,,
1644854560.291100,181.000000,0.000000,4276.922852,4237.051270,4231.922852,4191.282227,4211.538574,4214.871582,4211.282227,4227.820313,4227.563965,4231.794922,4234.230957,4216.666504,4260.512695,4290.641113,3501.000000,4.000000,82.000000,,,,0.000000,4.000000,4.000000,4.000000,4.000000,4.000000,4.000000,4.000000,4.000000,4.000000,4.000000,4.000000,4.000000,4.000000,4.000000,100.000000,,,,,,,,,,,,,,,,
1644854560.295040,182.000000,0.000000,4271.794922,4236.153809,4231.794922,4192.436035,4208.589844,4215.256348,4208.589844,4229.358887,4229.358887,4238.717773,4234.102539,4217.820313,4263.461426,4288.333496,3534.000000,4.000000,82.000000,,,,0.000000,4.000000,4.000000,4.000000,4.000000,4.000000,4.000000,4.000000,4.000000,4.000000,4.000000,4.000000,4.000000,4.000000,4.000000,100.000000,,,,,,,,,,,,,,,,
1644854560.298980,183.000000,0.000000,4269.358887,4236.282227,4230.897461,4194.102539,4206.282227,4215.256348,4206.922852,4226.922852,4228.974121,4242.051270,4234.230957,4217.179688,4266.153809,4291.025879,2526.000000,4.000000,82.000000,,,,0.000000,4.000000,4.000000,4.000000,4.000000,4.000000,4.000000,4.000000,4.000000,4.000000,4.000000,4.000000,4.000000,4.000000,4.000000,100.000000,,,,,,,,,,,,,,,,
1644854560.302920,184.000000,0.000000,4274.102539,4237.948730,4231.666504,4198.205078,4205.128418,4214.230957,4208.333496,4222.692383,4227.179688,4240.769043,4236.282227,4215.897461,4269.615234,4299.743652,3447.000000,4.000000,82.000000,,,,0.000000,4.000000,4.000000,4.000000,4.000000,4.000000,4.000000,4.000000,4.000000,4.000000,4.000000,4.000000,4.000000,4.000000,4.000000,100.000000,,,,,,,,,,,,,,,,
1644854560.306860,185.000000,0.000000,4285.128418,4240.769043,4234.230957,4204.230957,4204.102539,4213.461426,4211.153809,4219.358887,4225.512695,4237.051270,4239.230957,4215.128418,4275.256348,4309.871582,3501.000000,4.000000,82.000000,,,,0.000000,4.000000,4.000000,4.000000,4.000000,4.000000,4.000000,4.000000,4.000000,4.000000,4.000000,4.000000,4.000000,4.000000,4.000000,100.000000,,,,,,,,,,,,,,,,
1644854560.310801,186.000000,0.000000,4296.410156,4242.820313,4236.282227,4208.077148,4203.077148,4214.487305,4212.051270,4218.589844,4224.743652,4233.846191,4241.794922,4215.769043,4283.974121,4315.000000,3534.000000,4.000000,82.000000,,,,0.000000,4.000000,4.000000,4.000000,4.000000,4.000000,4.000000,4.000000,4.000000,4.000000,4.000000,4.000000,4.000000,4.000000,4.000000,100.000000,,,,,,,,,,,,,,,,
1644854560.314741,187.000000,0.000000,4300.769043,4241.410156,4236.410156,4205.897461,4203.333496,4217.307617,4210.384766,4220.512695,4224.743652,4233.205078,4243.077148,4218.077148,4295.512695,4313.205078,2526.000000,4.000000,82.000000,,,,0.000000,4.000000,4.000000,4.000000,4.000000,4.000000,4.000000,4.000000,4.000000,4.000000,4.000000,4.000000,4.000000,4.000000,4.000000,100.000000,,,,,,,,,,,,,,,,
1644854560.318681,188.000000,0.000000,4296.922852,4236.282227,4235.512695,4197.692383,4205.897461,4219.487305,4208.846191,4223.461426,4224.230957,4234.487305,4243.846191,4222.179688,4308.205078,4308.589844,3447.000000,4.000000,82.000000,,,,0.000000,4.000000,4.000000,4.000000,4.000000,4.000000,4.000000,4.000000,4.000000,4.000000,4.000000,4.000000,4.000000,4.000000,4.000000,100.000000,,,,,,,,,,,,,,,,
1644854560.322621,189.000000,0.000000,4292.436035,4231.410156,4235.897461,4188.461426,4209.102539,4219.102539,4210.000000,4225.769043,4223.077148,4236.538574,4245.897461,4227.563965,4320.769043,4308.461426,3501.000000,4.000000,82.000000,,,,0.000000,4.000000,4.000000,4.000000,4.000000,4.000000,4.000000,4.000000,4.000000,4.000000,4.000000,4.000000,4.000000,4.000000,4.000000,100.000000,,,,,,,,,,,,,,,,
1644854560.326461,190.000000,0.000000,4296.666504,4233.205078,4238.846191,4184.358887,4211.282227,4216.538574,4212.692383,4226.153809,4221.922852,4237.436035,4250.769043,4232.436035,4333.846191,4317.692383,3534.000000,4.000000,82.000000,,,,0.000000,4.000000,4.000000,4.000000,4.000000,4.000000,4.000000,4.000000,4.000000,4.000000,4.000000,4.000000,4.000000,4.000000,4.000000,100.000000,,,,,,,,,,,,,,,,
1644854560.330401,191.000000,0.000000,4311.794922,4243.974121,4242.436035,4189.487305,4212.307617,4213.333496,4213.589844,4223.461426,4221.282227,4235.769043,4258.077148,4234.487305,4348.589844,4333.974121,2526.000000,4.000000,82.000000,,,,0.000000,4.000000,4.000000,4.000000,4.000000,4.000000,4.000000,4.000000,4.000000,4.000000,4.000000,4.000000,4.000000,4.000000,4.000000,100.000000,,,,,,,,,,,,,,,,
1644854560.334341,192.000000,0.000000,4327.820313,4259.487305,4244.230957,4203.589844,4213.333496,4211.153809,4211.025879,4218.974121,4220.641113,4230.384766,4263.846191,4233.205078,4363.461426,4349.487305,3447.000000,4.000000,82.000000,,,,0.000000,4.000000,4.000000,4.000000,4.000000,4.000000,4.000000,4.000000,4.000000,4.000000,4.000000,4.000000,4.000000,4.000000,4.000000,100.000000,,,,,,,,,,,,,,,,
1644854560.338281,193.000000,0.000000,4331.410156,4270.897461,4243.974121,4220.256348,4214.102539,4210.384766,4207.948730,4215.128418,4219.102539,4222.051270,4264.615234,4231.794922,4374.487305,4355.641113,3501.000000,4.000000,82.000000,,,,0.000000,4.000000,4.000000,4.000000,4.000000,4.000000,4.000000,4.000000,4.000000,4.000000,4.000000,4.000000,4.000000,4.000000,4.000000,100.000000,,,,,,,,,,,,,,,,
1644854560.342222,194.000000,0.000000,4319.358887,4272.436035,4244.743652,4230.384766,4213.717773,4210.769043,4207.820313,4215.000000,4217.051270,4214.358887,4262.051270,4234.230957,4380.769043,4350.256348,3534.000000,4.000000,82.000000,,,,0.000000,4.000000,4.000000,4.000000,4.000000,4.000000,4.000000,4.000000,4.000000,4.000000,4.000000,4.000000,4.000000,4.000000,4.000000,100.000000,,,,,,,,,,,,,,,,
1644854560.346162,195.000000,0.000000,4304.358887,4265.897461,4249.358887,4228.077148,4211.794922,4211.153809,4211.025879,4219.230957,4216.922852,4213.077148,4264.358887,4241.794922,4387.948730,4339.743652,2526.000000,4.000000,82.000000,,,,0.000000,4.000000,4.000000,4.000000,4.000000,4.000000,4.000000,4.000000,4.000000,4.000000,4.000000,4.000000,4.000000,4.000000,4.000000,100.000000,,,,,,,,,,,,,,,,
1644854560.350102,196.000000,0.000000,4304.487305,4259.102539,4256.794922,4215.641113,4208.205078,4211.410156,4213.974121,4225.128418,4220.897461,4221.410156,4280.384766,4251.538574,4405.000000,4336.922852,3447.000000,4.000000,82.000000,,,,0.000000,4.000000,4.000000,4.000000,4.000000,4.000000,4.000000,4.000000,4.000000,4.000000,4.000000,4.000000,4.000000,4.000000,4.000000,100.000000,,,,,,,,,,,,,,,,
1644854560.354042,197.000000,0.000000,4327.051270,4258.589844,4262.307617,4203.461426,4202.436035,4211.666504,4213.846191,4229.615234,4227.692383,4237.436035,4311.153809,4258.717773,4435.256348,4352.051270,3501.000000,4.000000,82.000000,,,,0.000000,4.000000,4.000000,4.000000,4.000000,4.000000,4.000000,4.000000,4.000000,4.000000,4.000000,4.000000,4.000000,4.000000,4.000000,100.000000,,,,,,,,,,,,,,,,
1644854560.357982,198.000000,0.000000,4360.128418,4264.871582,4262.051270,4200.769043,4195.384766,4212.179688,4211.794922,4231.153809,4233.333496,4252.820313,4347.179688,4260.769043,4472.179688,4384.487305,3534.000000,4.000000,82.000000,,,,0.000000,4.000000,4.000000,4.000000,4.000000,4.000000,4.000000,4.000000,4.000000,4.000000,4.000000,4.000000,4.000000,4.000000,4.000000,100.000000,,,,,,,,,,,,,,,,
1644854560.361922,199.000000,0.000000,4382.307617,4273.205078,4257.820313,4209.102539,4190.256348,4212.820313,4210.641113,4229.871582,4234.358887,4259.487305,4375.641113,4259.230957,4504.743652,4420.512695,2526.000000,4.000000,82.000000,,,,0.000000,4.000000,4.000000,4.000000,4.000000,4.000000,4.000000,4.000000,4.000000,4.000000,4.000000,4.000000,4.000000,4.000000,4.000000,100.000000,,,,,,,,,,,,,,,,
1644854560.365862,200.000000,0.000000,4378.461426,4278.589844,4255.384766,4221.410156,4191.666504,4212.948730,4210.897461,4227.436035,4230.641113,4255.256348,4388.974121,4257.948730,4527.563965,4441.922852,3447.000000,4.000000,82.000000,,,,0.000000,4.000000,4.000000,4.000000,4.000000,4.000000,4.000000,4.000000,4.000000,4.000000,4.000000,4.000000,4.000000,4.000000,4.000000,100.000000,,,,,,,,,,,,,,,,
1644854560.369802,201.000000,0.000000,4352.820313,4278.717773,4258.846191,4228.846191,4200.256348,4212.051270,4210.769043,4225.256348,4225.000000,4246.282227,4389.358887,4259.615234,4545.512695,4440.769043,3501.000000,4.000000,82.000000,,,,0.000000,4.000000,4.000000,4.000000,4.000000,4.000000,4.000000,4.000000,4.000000,4.000000,4.000000,4.000000,4.000000,4.000000,4.000000,100.000000,,,,,,,,,,,,,,,,
1644854560.373742,202.000000,0.000000,4325.128418,4274.487305,4266.794922,4227.820313,4211.025879,4210.512695,4208.974121,4224.102539,4220.641113,4241.666504,4383.461426,4264.102539,4568.333496,4426.153809,3534.000000,4.000000,82.000000,,,,0.000000,4.000000,4.000000,4.000000,4.000000,4.000000,4.000000,4.000000,4.000000,4.000000,4.000000,4.000000,4.000000,4.000000,4.000000,100.000000,,,,,,,,,,,,,,,,
1644854560.377682,203.000000,0.000000,4316.666504,4269.230957,4273.974121,4222.051270,4217.307617,4209.615234,4207.563965,4224.615234,4219.230957,4245.128418,4376.538574,4268.974121,4601.410156,4418.205078,2526.000000,4.000000,82.000000,,,,0.000000,4.000000,4.000000,4.000000,4.000000,4.000000,4.000000,4.000000,4.000000,4.000000,4.000000,4.000000,4.000000,4.000000,4.000000,100.000000,,,,,,,,,,,,,,,,
1644854560.381623,204.000000,0.000000,4335.384766,4266.922852,4276.538574,4218.205078,4217.692383,4210.128418,4209.230957,4226.538574,4221.025879,4252.820313,4370.769043,4272.436035,4640.512695,4430.897461,3447.000000,4.000000,82.000000,,,,0.000000,4.000000,4.000000,4.000000,4.000000,4.000000,4.000000,4.000000,4.000000,4.000000,4.000000,4.000000,4.000000,4.000000,4.000000,100.000000,,,,,,,,,,,,,,,,
1644854560.385563,205.000000,0.000000,4371.282227,4270.769043,4274.615234,4220.897461,4216.538574,4211.794922,4212.948730,4228.846191,4225.512695,4257.948730,4367.692383,4275.128418,4675.897461,4460.256348,3501.000000,4.000000,82.000000,,,,0.000000,4.000000,4.000000,4.000000,4.000000,4.000000,4.000000,4.000000,4.000000,4.000000,4.000000,4.000000,4.000000,4.000000,4.000000,100.000000,,,,,,,,,,,,,,,,
1644854560.389503,206.000000,0.000000,4405.641113,4281.025879,4272.692383,4228.717773,4218.077148,4213.589844,4214.871582,4230.897461,4231.794922,4257.563965,4369.615234,4278.974121,4700.000000,4487.436035,3534.000000,4.000000,82.000000,,,,0.000000,4.000000,4.000000,4.000000,4.000000,4.000000,4.000000,4.000000,4.000000,4.000000,4.000000,4.000000,4.000000,4.000000,4.000000,100.000000,,,,,,,,,,,,,,,,
1644854560.393443,207.000000,0.000000,4422.179688,4293.461426,4274.615234,4234.871582,4221.538574,4213.974121,4212.692383,4232.436035,4237.436035,4254.358887,4376.794922,4285.256348,4712.307617,4493.846191,2526.000000,4.000000,82.000000,,,,0.000000,4.000000,4.000000,4.000000,4.000000,4.000000,4.000000,4.000000,4.000000,4.000000,4.000000,4.000000,4.000000,4.000000,4.000000,100.000000,,,,,,,,,,,,,,,,
1644854560.397383,208.000000,0.000000,4416.410156,4301.153809,4280.128418,4233.846191,4222.307617,4211.922852,4208.589844,4233.077148,4239.358887,4253.205078,4384.743652,4292.563965,4719.743652,4476.538574,3447.000000,4.000000,82.000000,,,,0.000000,4.000000,4.000000,4.000000,4.000000,4.000000,4.000000,4.000000,4.000000,4.000000,4.000000,4.000000,4.000000,4.000000,4.000000,100.000000,,,,,,,,,,,,,,,,
1644854560.401223,209.000000,0.000000,4395.769043,4298.717773,4284.871582,4226.153809,4217.563965,4208.461426,4206.538574,4232.436035,4235.641113,4256.666504,4387.051270,4298.077148,4732.307617,4448.974121,3501.000000,4.000000,82.000000,,,,0.000000,4.000000,4.000000,4.000000,4.000000,4.000000,4.000000,4.000000,4.000000,4.000000,4.000000,4.000000,4.000000,4.000000,4.000000,100.000000,,,,,,,,,,,,,,,,
1644854560.405163,210.000000,0.000000,4373.717773,4286.282227,4283.717773,4218.461426,4209.743652,4206.666504,4207.948730,4230.128418,4227.820313,4263.461426,4379.743652,4299.487305,4755.897461,4429.487305,3534.000000,4.000000,82.000000,,,,0.000000,4.000000,4.000000,4.000000,4.000000,4.000000,4.000000,4.000000,4.000000,4.000000,4.000000,4.000000,4.000000,4.000000,4.000000,100.000000,,,,,,,,,,,,,,,,
1644854560.409103,211.000000,0.000000,4360.128418,4269.615234,4275.641113,4216.666504,4203.974121,4208.589844,4210.641113,4226.794922,4220.641113,4269.871582,4363.589844,4296.538574,4786.794922,4427.692383,2526.000000,4.000000,82.000000,,,,0.000000,4.000000,4.000000,4.000000,4.000000,4.000000,4.000000,4.000000,4.000000,4.000000,4.000000,4.000000,4.000000,4.000000,4.000000,100.000000,,,,,,,,,,,,,,,,
1644854560.413044,212.000000,0.000000,4356.282227,4256.282227,4264.871582,4219.487305,4202.563965,4213.589844,4212.436035,4224.615234,4218.333496,4271.794922,4342.692383,4290.512695,4812.051270,4438.589844,3447.000000,4.000000,82.000000,,,,0.000000,4.000000,4.000000,4.000000,4.000000,4.000000,4.000000,4.000000,4.000000,4.000000,4.000000,4.000000,4.000000,4.000000,4.000000,100.000000,,,,,,,,,,,,,,,,
1644854560.416984,213.000000,0.000000,4355.769043,4249.743652,4256.666504,4219.615234,4204.487305,4218.333496,4213.461426,4225.128418,4221.282227,4267.563965,4320.897461,4282.563965,4818.205078,4449.615234,3501.000000,4.000000,82.000000,,,,0.000000,4.000000,4.000000,4.000000,4.000000,4.000000,4.000000,4.000000,4.000000,4.000000,4.000000,4.000000,4.000000,4.000000,4.000000,100.000000,,,,,,,,,,,,,,,,
1644854560.420924,214.000000,0.000000,4350.641113,4247.820313,4253.717773,4212.436035,4207.179688,4219.871582,4215.000000,4228.205078,4225.641113,4259.615234,4300.256348,4273.333496,4802.051270,4448.974121,3534.000000,4.000000,82.000000,,,,0.000000,4.000000,4.000000,4.000000,4.000000,4.000000,4.000000,4.000000,4.000000,4.000000,4.000000,4.000000,4.000000,4.000000,4.000000,100.000000,,,,,,,,,,,,,,,,
1644854560.424864,215.000000,0.000000,4338.205078,4245.641113,4253.589844,4202.436035,4210.000000,4217.307617,4216.794922,4231.794922,4227.307617,4252.948730,4281.666504,4264.102539,4773.333496,4432.307617,2526.000000,4.000000,82.000000,,,,0.000000,4.000000,4.000000,4.000000,4.000000,4.000000,4.000000,4.000000,4.000000,4.000000,4.000000,4.000000,4.000000,4.000000,4.000000,100.000000,,,,,,,,,,,,,,,,
1644854560.428804,216.000000,0.000000,4321.922852,4240.769043,4251.794922,4198.461426,4212.948730,4212.563965,4216.666504,4232.948730,4225.384766,4251.410156,4266.282227,4257.179688,4747.692383,4404.743652,3447.000000,4.000000,82.000000,,,,0.000000,4.000000,4.000000,4.000000,4.000000,4.000000,4.000000,4.000000,4.000000,4.000000,4.000000,4.000000,4.000000,4.000000,4.000000,100.000000,,,,,,,,,,,,,,,,
1644854560.432744,217.000000,0.000000,4308.974121,4234.871582,4246.794922,4203.461426,4215.769043,4208.717773,4213.974121,4231.153809,4222.436035,4254.230957,4256.025879,4253.333496,4736.153809,4378.717773,3501.000000,4.000000,82.000000,,,,0.000000,4.000000,4.000000,4.000000,4.000000,4.000000,4.000000,4.000000,4.000000,4.000000,4.000000,4.000000,4.000000,4.000000,4.000000,100.000000,,,,,,,,,,,,,,,,
1644854560.436684,218.000000,0.000000,4305.769043,4232.820313,4241.922852,4210.512695,4217.436035,4207.563965,4210.641113,4228.717773,4221.794922,4258.333496,4253.077148,4250.641113,4739.871582,4367.307617,3534.000000,4.000000,82.000000,,,,0.000000,4.000000,4.000000,4.000000,4.000000,4.000000,4.000000,4.000000,4.000000,4.000000,4.000000,4.000000,4.000000,4.000000,4.000000,100.000000,,,,,,,,,,,,,,,,
1644854560.440624,219.000000,0.000000,4312.692383,4237.563965,4240.897461,4209.615234,4216.538574,4208.846191,4209.230957,4228.717773,4224.102539,4260.897461,4257.307617,4246.153809,4752.820313,4373.974121,2526.000000,4.000000,82.000000,,,,0.000000,4.000000,4.000000,4.000000,4.000000,4.000000,4.000000,4.000000,4.000000,4.000000,4.000000,4.000000,4.000000,4.000000,4.000000,100.000000,,,,,,,,,,,,,,,,
1644854560.444564,220.000000,0.000000,4325.256348,4247.307617,4244.615234,4198.717773,4213.717773,4211.282227,4209.871582,4232.179688,4227.051270,4261.410156,4265.128418,4238.974121,4765.128418,4389.358887,3447.000000,4.000000,82.000000,,,,0.000000,4.000000,4.000000,4.000000,4.000000,4.000000,4.000000,4.000000,4.000000,4.000000,4.000000,4.000000,4.000000,4.000000,4.000000,100.000000,,,,,,,,,,,,,,,,
