title:Alex-S0wp80iUeEwNal6oRK-wLg, start timestamp:1644854594.623927, stop timestamp:1644854620.998093, headset type:EPOCPLUS, headset serial:3B9AEBFF, headset firmware:626, channels:55, sampling rate:eeg_256, samples:6695      , version:2.1, 
Timestamp,EEG.Counter,EEG.Interpolated,EEG.AF3,EEG.F7,EEG.F3,EEG.FC5,EEG.T7,EEG.P7,EEG.O1,EEG.O2,EEG.P8,EEG.T8,EEG.FC6,EEG.F4,EEG.F8,EEG.AF4,EEG.RawCq,EEG.Battery,EEG.BatteryPercent,MarkerIndex,MarkerType,MarkerValueInt,EEG.MarkerHardware,CQ.AF3,CQ.F7,CQ.F3,CQ.FC5,CQ.T7,CQ.P7,CQ.O1,CQ.O2,CQ.P8,CQ.T8,CQ.FC6,CQ.F4,CQ.F8,CQ.AF4,CQ.Overall,EQ.SampleRateQuality,EQ.OVERALL,EQ.AF3,EQ.F7,EQ.F3,EQ.FC5,EQ.T7,EQ.P7,EQ.O1,EQ.O2,EQ.P8,EQ.T8,EQ.FC6,EQ.F4,EQ.F8,EQ.AF4
1644854594.623927,191.000000,0.000000,4217.692383,4216.538574,4231.922852,4219.487305,4228.717773,4224.487305,4229.743652,4235.512695,4240.128418,4238.205078,4237.820313,4221.025879,4238.974121,4253.461426,2313.000000,4.000000,82.000000,,,,0.000000,4.000000,4.000000,4.000000,4.000000,4.000000,4.000000,4.000000,4.000000,4.000000,4.000000,4.000000,4.000000,4.000000,4.000000,100.000000,,,,,,,,,,,,,,,,
1644854594.627767,192.000000,0.000000,4211.538574,4214.102539,4230.769043,4217.051270,4222.436035,4226.282227,4228.333496,4234.743652,4238.333496,4240.128418,4231.282227,4220.512695,4236.538574,4250.384766,3619.000000,4.000000,82.000000,,,,0.000000,4.000000,4.000000,4.000000,4.000000,4.000000,4.000000,4.000000,4.000000,4.000000,4.000000,4.000000,4.000000,4.000000,4.000000,100.000000,,,,,,,,,,,,,,,,
1644854594.631707,193.000000,0.000000,4217.179688,4215.256348,4228.717773,4216.282227,4220.256348,4229.871582,4225.897461,4232.436035,4239.102539,4239.358887,4228.717773,4220.384766,4231.153809,4247.307617,3498.000000,4.000000,82.000000,,,,0.000000,4.000000,4.000000,4.000000,4.000000,4.000000,4.000000,4.000000,4.000000,4.000000,4.000000,4.000000,4.000000,4.000000,4.000000,100.000000,,,,,,,,,,,,,,,,
1644854594.635647,194.000000,0.000000,4231.025879,4218.717773,4226.666504,4218.205078,4222.436035,4233.205078,4224.871582,4229.358887,4240.256348,4236.666504,4229.615234,4217.820313,4224.487305,4246.025879,3564.000000,4.000000,82.000000,,,,0.000000,4.000000,4.000000,4.000000,4.000000,4.000000,4.000000,4.000000,4.000000,4.000000,4.000000,4.000000,4.000000,4.000000,4.000000,100.000000,,,,,,,,,,,,,,,,
1644854594.639587,195.000000,0.000000,4244.871582,4222.820313,4224.743652,4220.769043,4226.410156,4234.102539,4226.282227,4227.436035,4239.615234,4234.615234,4230.897461,4211.666504,4218.717773,4246.666504,2313.000000,4.000000,82.000000,,,,0.000000,4.000000,4.000000,4.000000,4.000000,4.000000,4.000000,4.000000,4.000000,4.000000,4.000000,4.000000,4.000000,4.000000,4.000000,100.000000,,,,,,,,,,,,,,,,
1644854594.643527,196.000000,0.000000,4252.307617,4227.820313,4223.205078,4220.897461,4229.743652,4231.666504,4228.205078,4227.307617,4237.051270,4236.025879,4230.897461,4204.230957,4216.538574,4247.307617,3619.000000,4.000000,82.000000,,,,0.000000,4.000000,4.000000,4.000000,4.000000,4.000000,4.000000,4.000000,4.000000,4.000000,4.000000,4.000000,4.000000,4.000000,4.000000,100.000000,,,,,,,,,,,,,,,,
1644854594.647467,197.000000,0.000000,4252.179688,4233.846191,4221.153809,4217.948730,4231.410156,4226.666504,4227.948730,4227.692383,4233.974121,4239.871582,4230.512695,4198.589844,4218.589844,4245.769043,3498.000000,4.000000,82.000000,,,,0.000000,4.000000,4.000000,4.000000,4.000000,4.000000,4.000000,4.000000,4.000000,4.000000,4.000000,4.000000,4.000000,4.000000,4.000000,100.000000,,,,,,,,,,,,,,,,
1644854594.651408,198.000000,0.000000,4246.794922,4238.589844,4218.205078,4214.743652,4231.794922,4221.025879,4225.000000,4226.410156,4231.794922,4241.153809,4230.769043,4196.153809,4222.179688,4242.692383,3564.000000,4.000000,82.000000,,,,0.000000,4.000000,4.000000,4.000000,4.000000,4.000000,4.000000,4.000000,4.000000,4.000000,4.000000,4.000000,4.000000,4.000000,4.000000,100.000000,,,,,,,,,,,,,,,,
1644854594.655348,199.000000,0.000000,4238.333496,4238.589844,4215.000000,4214.230957,4231.282227,4216.666504,4222.307617,4222.820313,4230.128418,4234.743652,4231.153809,4196.153809,4222.563965,4239.487305,2313.000000,4.000000,82.000000,,,,0.000000,4.000000,4.000000,4.000000,4.000000,4.000000,4.000000,4.000000,4.000000,4.000000,4.000000,4.000000,4.000000,4.000000,4.000000,100.000000,,,,,,,,,,,,,,,,
1644854594.659288,200.000000,0.000000,4228.589844,4232.948730,4213.589844,4216.538574,4229.358887,4215.128418,4222.436035,4217.692383,4227.179688,4221.794922,4228.846191,4197.692383,4218.077148,4237.051270,3619.000000,4.000000,82.000000,,,,0.000000,4.000000,4.000000,4.000000,4.000000,4.000000,4.000000,4.000000,4.000000,4.000000,4.000000,4.000000,4.000000,4.000000,4.000000,100.000000,,,,,,,,,,,,,,,,
1644854594.663228,201.000000,0.000000,4218.846191,4224.230957,4214.743652,4219.230957,4225.769043,4216.025879,4223.974121,4212.563965,4222.436035,4208.717773,4222.563965,4200.000000,4210.641113,4234.230957,3498.000000,4.000000,82.000000,,,,0.000000,4.000000,4.000000,4.000000,4.000000,4.000000,4.000000,4.000000,4.000000,4.000000,4.000000,4.000000,4.000000,4.000000,4.000000,100.000000,,,,,,,,,,,,,,,,
1644854594.667168,202.000000,0.000000,4211.025879,4217.051270,4217.948730,4219.358887,4221.282227,4217.820313,4223.846191,4208.717773,4216.922852,4202.307617,4214.102539,4201.922852,4204.487305,4231.153809,3564.000000,4.000000,82.000000,,,,0.000000,4.000000,4.000000,4.000000,4.000000,4.000000,4.000000,4.000000,4.000000,4.000000,4.000000,4.000000,4.000000,4.000000,4.000000,100.000000,,,,,,,,,,,,,,,,
1644854594.671108,203.000000,0.000000,4207.692383,4214.358887,4221.025879,4216.410156,4217.692383,4218.461426,4220.256348,4206.538574,4212.948730,4203.589844,4208.205078,4201.922852,4202.051270,4229.743652,2313.000000,4.000000,82.000000,,,,0.000000,4.000000,4.000000,4.000000,4.000000,4.000000,4.000000,4.000000,4.000000,4.000000,4.000000,4.000000,4.000000,4.000000,4.000000,100.000000,,,,,,,,,,,,,,,,
1644854594.675048,204.000000,0.000000,4210.256348,4216.025879,4222.692383,4213.846191,4217.307617,4217.051270,4215.897461,4205.769043,4212.179688,4208.333496,4209.102539,4200.128418,4202.948730,4232.179688,3619.000000,4.000000,82.000000,,,,0.000000,4.000000,4.000000,4.000000,4.000000,4.000000,4.000000,4.000000,4.000000,4.000000,4.000000,4.000000,4.000000,4.000000,4.000000,100.000000,,,,,,,,,,,,,,,,
1644854594.678988,205.000000,0.000000,4219.230957,4220.769043,4223.333496,4216.025879,4220.512695,4214.358887,4214.358887,4206.538574,4214.615234,4211.538574,4217.179688,4198.333496,4205.641113,4236.922852,3498.000000,4.000000,82.000000,,,,0.000000,4.000000,4.000000,4.000000,4.000000,4.000000,4.000000,4.000000,4.000000,4.000000,4.000000,4.000000,4.000000,4.000000,4.000000,100.000000,,,,,,,,,,,,,,,,
1644854594.682928,206.000000,0.000000,4232.820313,4227.179688,4224.487305,4224.871582,4225.256348,4212.179688,4215.769043,4208.333496,4219.230957,4212.179688,4228.077148,4198.333496,4208.974121,4239.358887,3564.000000,4.000000,82.000000,,,,0.000000,4.000000,4.000000,4.000000,4.000000,4.000000,4.000000,4.000000,4.000000,4.000000,4.000000,4.000000,4.000000,4.000000,4.000000,100.000000,,,,,,,,,,,,,,,,
1644854594.686769,207.000000,0.000000,4246.922852,4234.102539,4226.153809,4237.307617,4228.717773,4211.538574,4217.307617,4210.897461,4223.589844,4213.461426,4234.615234,4199.871582,4212.692383,4237.436035,2313.000000,4.000000,82.000000,,,,0.000000,4.000000,4.000000,4.000000,4.000000,4.000000,4.000000,4.000000,4.000000,4.000000,4.000000,4.000000,4.000000,4.000000,4.000000,100.000000,,,,,,,,,,,,,,,,
1644854594.690709,208.000000,0.000000,4256.922852,4239.358887,4227.436035,4246.922852,4229.358887,4212.179688,4216.666504,4213.205078,4225.000000,4217.948730,4232.692383,4200.897461,4215.897461,4234.230957,3619.000000,4.000000,82.000000,,,,0.000000,4.000000,4.000000,4.000000,4.000000,4.000000,4.000000,4.000000,4.000000,4.000000,4.000000,4.000000,4.000000,4.000000,4.000000,100.000000,,,,,,,,,,,,,,,,
1644854594.694649,209.000000,0.000000,4258.717773,4241.282227,4227.820313,4247.948730,4227.307617,4213.205078,4215.384766,4215.000000,4223.077148,4225.128418,4223.589844,4200.128418,4217.692383,4235.128418,3498.000000,4.000000,82.000000,,,,0.000000,4.000000,4.000000,4.000000,4.000000,4.000000,4.000000,4.000000,4.000000,4.000000,4.000000,4.000000,4.000000,4.000000,4.000000,100.000000,,,,,,,,,,,,,,,,
1644854594.698589,210.000000,0.000000,4251.538574,4238.717773,4228.077148,4239.230957,4225.128418,4214.230957,4216.666504,4216.794922,4220.512695,4231.025879,4212.948730,4198.974121,4217.692383,4241.666504,3564.000000,4.000000,82.000000,,,,0.000000,4.000000,4.000000,4.000000,4.000000,4.000000,4.000000,4.000000,4.000000,4.000000,4.000000,4.000000,4.000000,4.000000,4.000000,100.000000,,,,,,,,,,,,,,,,
1644854594.702529,211.000000,0.000000,4237.307617,4233.205078,4228.846191,4225.897461,4225.512695,4215.512695,4220.769043,4219.102539,4220.512695,4231.794922,4206.538574,4199.743652,4215.769043,4247.820313,2313.000000,4.000000,82.000000,,,,0.000000,4.000000,4.000000,4.000000,4.000000,4.000000,4.000000,4.000000,4.000000,4.000000,4.000000,4.000000,4.000000,4.000000,4.000000,100.000000,,,,,,,,,,,,,,,,
1644854594.706469,212.000000,0.000000,4220.641113,4226.666504,4229.615234,4214.743652,4229.358887,4216.538574,4223.846191,4220.769043,4223.461426,4225.384766,4206.666504,4203.077148,4211.538574,4246.025879,3619.000000,4.000000,82.000000,,,,0.000000,4.000000,4.000000,4.000000,4.000000,4.000000,4.000000,4.000000,4.000000,4.000000,4.000000,4.000000,4.000000,4.000000,4.000000,100.000000,,,,,,,,,,,,,,,,
1644854594.710409,213.000000,0.000000,4207.179688,4221.538574,4228.846191,4210.128418,4233.205078,4216.794922,4222.692383,4220.128418,4225.897461,4214.230957,4211.666504,4206.025879,4204.871582,4235.384766,3498.000000,4.000000,82.000000,,,,0.000000,4.000000,4.000000,4.000000,4.000000,4.000000,4.000000,4.000000,4.000000,4.000000,4.000000,4.000000,4.000000,4.000000,4.000000,100.000000,,,,,,,,,,,,,,,,
1644854594.714349,214.000000,0.000000,4201.538574,4220.384766,4225.641113,4211.922852,4231.922852,4215.897461,4218.205078,4216.410156,4224.358887,4203.461426,4217.820313,4203.846191,4197.179688,4223.717773,3564.000000,4.000000,82.000000,,,,0.000000,4.000000,4.000000,4.000000,4.000000,4.000000,4.000000,4.000000,4.000000,4.000000,4.000000,4.000000,4.000000,4.000000,4.000000,100.000000,,,,,,,,,,,,,,,,
1644854594.718289,215.000000,0.000000,4206.410156,4224.102539,4221.410156,4216.666504,4223.461426,4214.358887,4215.384766,4211.922852,4218.589844,4199.487305,4220.897461,4195.384766,4191.922852,4220.641113,2313.000000,4.000000,82.000000,,,,0.000000,4.000000,4.000000,4.000000,4.000000,4.000000,4.000000,4.000000,4.000000,4.000000,4.000000,4.000000,4.000000,4.000000,4.000000,100.000000,,,,,,,,,,,,,,,,
1644854594.722230,216.000000,0.000000,4219.487305,4231.282227,4218.846191,4221.025879,4211.153809,4213.205078,4217.179688,4210.256348,4212.948730,4204.615234,4218.461426,4184.230957,4192.563965,4228.205078,3619.000000,4.000000,82.000000,,,,0.000000,4.000000,4.000000,4.000000,4.000000,4.000000,4.000000,4.000000,4.000000,4.000000,4.000000,4.000000,4.000000,4.000000,4.000000,100.000000,,,,,,,,,,,,,,,,
1644854594.726170,217.000000,0.000000,4234.102539,4237.051270,4219.230957,4223.205078,4201.922852,4213.205078,4221.538574,4213.333496,4211.666504,4215.128418,4211.794922,4177.307617,4199.230957,4238.846191,3498.000000,4.000000,82.000000,,,,0.000000,4.000000,4.000000,4.000000,4.000000,4.000000,4.000000,4.000000,4.000000,4.000000,4.000000,4.000000,4.000000,4.000000,4.000000,100.000000,,,,,,,,,,,,,,,,
1644854594.730110,218.000000,0.000000,4242.307617,4236.282227,4221.794922,4223.589844,4200.384766,4213.974121,4224.615234,4219.358887,4215.769043,4223.333496,4205.128418,4179.487305,4207.563965,4242.436035,3564.000000,4.000000,82.000000,,,,0.000000,4.000000,4.000000,4.000000,4.000000,4.000000,4.000000,4.000000,4.000000,4.000000,4.000000,4.000000,4.000000,4.000000,4.000000,100.000000,,,,,,,,,,,,,,,,
1644854594.734050,219.000000,0.000000,4240.000000,4227.820313,4224.230957,4222.436035,4206.794922,4214.743652,4224.615234,4224.358887,4221.282227,4223.717773,4201.666504,4189.487305,4210.769043,4235.384766,2313.000000,4.000000,82.000000,,,,0.000000,4.000000,4.000000,4.000000,4.000000,4.000000,4.000000,4.000000,4.000000,4.000000,4.000000,4.000000,4.000000,4.000000,4.000000,100.000000,,,,,,,,,,,,,,,,
1644854594.737990,220.000000,0.000000,4228.717773,4215.769043,4224.615234,4220.256348,4217.051270,4215.128418,4223.077148,4225.128418,4222.820313,4216.922852,4201.410156,4200.000000,4205.641113,4222.820313,3619.000000,4.000000,82.000000,,,,0.000000,4.000000,4.000000,4.000000,4.000000,4.000000,4.000000,4.000000,4.000000,4.000000,4.000000,4.000000,4.000000,4.000000,4.000000,100.000000,,,,,,,,,,,,,,,,
1644854594.741930,221.000000,0.000000,4214.487305,4207.948730,4222.436035,4217.307617,4226.410156,4215.641113,4221.794922,4220.769043,4218.461426,4209.358887,4200.641113,4203.077148,4195.128418,4213.333496,3498.000000,4.000000,82.000000,,,,0.000000,4.000000,4.000000,4.000000,4.000000,4.000000,4.000000,4.000000,4.000000,4.000000,4.000000,4.000000,4.000000,4.000000,4.000000,100.000000,,,,,,,,,,,,,,,,
1644854594.745870,222.000000,0.000000,4203.846191,4209.743652,4218.461426,4213.974121,4232.692383,4217.051270,4221.153809,4213.717773,4211.538574,4206.153809,4196.538574,4196.282227,4186.153809,4212.563965,3564.000000,4.000000,82.000000,,,,0.000000,4.000000,4.000000,4.000000,4.000000,4.000000,4.000000,4.000000,4.000000,4.000000,4.000000,4.000000,4.000000,4.000000,4.000000,100.000000,,,,,,,,,,,,,,,,
1644854594.749810,223.000000,0.000000,4200.641113,4220.384766,4214.358887,4211.282227,4237.051270,4219.487305,4220.384766,4207.692383,4206.410156,4207.436035,4190.256348,4184.871582,4185.000000,4221.153809,2313.000000,4.000000,82.000000,,,,0.000000,4.000000,4.000000,4.000000,4.000000,4.000000,4.000000,4.000000,4.000000,4.000000,4.000000,4.000000,4.000000,4.000000,4.000000,100.000000,,,,,,,,,,,,,,,,
1644854594.753750,224.000000,0.000000,4204.871582,4232.948730,4212.179688,4211.153809,4239.487305,4221.410156,4220.000000,4205.128418,4205.641113,4207.948730,4186.153809,4177.820313,4191.922852,4234.487305,3619.000000,4.000000,82.000000,,,,0.000000,4.000000,4.000000,4.000000,4.000000,4.000000,4.000000,4.000000,4.000000,4.000000,4.000000,4.000000,4.000000,4.000000,4.000000,100.000000,,,,,,,,,,,,,,,,
1644854594.757790,225.000000,0.000000,4213.333496,4239.358887,4212.692383,4213.589844,4238.461426,4220.897461,4221.153809,4206.410156,4207.307617,4203.333496,4189.615234,4180.000000,4201.153809,4245.000000,3498.000000,4.000000,82.000000,,,,0.000000,4.000000,4.000000,4.000000,4.000000,4.000000,4.000000,4.000000,4.000000,4.000000,4.000000,4.000000,4.000000,4.000000,4.000000,100.000000,,,,,,,,,,,,,,,,
1644854594.761730,226.000000,0.000000,4221.666504,4236.025879,4214.871582,4215.641113,4232.051270,4218.205078,4222.948730,4209.230957,4208.589844,4195.000000,4201.153809,4189.358887,4204.487305,4246.794922,3564.000000,4.000000,82.000000,,,,0.000000,4.000000,4.000000,4.000000,4.000000,4.000000,4.000000,4.000000,4.000000,4.000000,4.000000,4.000000,4.000000,4.000000,4.000000,100.000000,,,,,,,,,,,,,,,,
1644854594.765671,227.000000,0.000000,4226.922852,4225.897461,4216.410156,4213.333496,4221.282227,4215.641113,4223.333496,4211.538574,4208.333496,4190.769043,4215.256348,4199.230957,4198.717773,4239.102539,2313.000000,4.000000,82.000000,,,,0.000000,4.000000,4.000000,4.000000,4.000000,4.000000,4.000000,4.000000,4.000000,4.000000,4.000000,4.000000,4.000000,4.000000,4.000000,100.000000,,,,,,,,,,,,,,,,
1644854594.769611,228.000000,0.000000,4228.333496,4216.282227,4216.794922,4206.025879,4211.153809,4216.410156,4221.666504,4212.563965,4208.589844,4197.692383,4224.615234,4204.358887,4188.589844,4227.692383,3619.000000,4.000000,82.000000,,,,0.000000,4.000000,4.000000,4.000000,4.000000,4.000000,4.000000,4.000000,4.000000,4.000000,4.000000,4.000000,4.000000,4.000000,4.000000,100.000000,,,,,,,,,,,,,,,,
1644854594.773551,229.000000,0.000000,4226.922852,4212.692383,4217.563965,4198.205078,4207.820313,4220.512695,4220.256348,4212.820313,4211.538574,4214.743652,4226.025879,4204.615234,4183.205078,4220.897461,3498.000000,4.000000,82.000000,,,,0.000000,4.000000,4.000000,4.000000,4.000000,4.000000,4.000000,4.000000,4.000000,4.000000,4.000000,4.000000,4.000000,4.000000,4.000000,100.000000,,,,,,,,,,,,,,,,
1644854594.777491,230.000000,0.000000,4225.641113,4215.769043,4220.256348,4196.025879,4213.589844,4225.000000,4221.922852,4214.230957,4217.307617,4233.077148,4222.051270,4203.589844,4189.230957,4223.717773,3564.000000,4.000000,82.000000,,,,0.000000,4.000000,4.000000,4.000000,4.000000,4.000000,4.000000,4.000000,4.000000,4.000000,4.000000,4.000000,4.000000,4.000000,4.000000,100.000000,,,,,,,,,,,,,,,,
1644854594.781431,231.000000,0.000000,4226.794922,4221.794922,4224.487305,4202.563965,4224.743652,4226.922852,4226.282227,4217.692383,4223.461426,4242.563965,4217.820313,4205.000000,4205.641113,4233.205078,2313.000000,4.000000,82.000000,,,,0.000000,4.000000,4.000000,4.000000,4.000000,4.000000,4.000000,4.000000,4.000000,4.000000,4.000000,4.000000,4.000000,4.000000,4.000000,100.000000,,,,,,,,,,,,,,,,
1644854594.785371,232.000000,0.000000,4230.512695,4225.384766,4227.307617,4215.512695,4233.205078,4225.512695,4229.615234,4221.794922,4226.666504,4239.743652,4216.282227,4209.615234,4223.846191,4241.538574,3619.000000,4.000000,82.000000,,,,0.000000,4.000000,4.000000,4.000000,4.000000,4.000000,4.000000,4.000000,4.000000,4.000000,4.000000,4.000000,4.000000,4.000000,4.000000,100.000000,,,,,,,,,,,,,,,,
1644854594.789311,233.000000,0.000000,4233.717773,4222.948730,4227.179688,4228.333496,4233.461426,4222.692383,4229.102539,4224.871582,4226.666504,4229.743652,4216.025879,4215.256348,4233.333496,4242.563965,3498.000000,4.000000,82.000000,,,,0.000000,4.000000,4.000000,4.000000,4.000000,4.000000,4.000000,4.000000,4.000000,4.000000,4.000000,4.000000,4.000000,4.000000,4.000000,100.000000,,,,,,,,,,,,,,,,
1644854594.793251,234.000000,0.000000,4233.205078,4215.769043,4224.615234,4234.615234,4227.179688,4221.282227,4226.410156,4226.153809,4225.128418,4221.025879,4213.717773,4218.846191,4229.230957,4237.051270,3564.000000,4.000000,82.000000,,,,0.000000,4.000000,4.000000,4.000000,4.000000,4.000000,4.000000,4.000000,4.000000,4.000000,4.000000,4.000000,4.000000,4.000000,4.000000,100.000000,,,,,,,,,,,,,,,,
1644854594.797191,235.000000,0.000000,4228.589844,4209.102539,4222.051270,4231.410156,4221.410156,4222.563965,4225.641113,4226.282227,4224.358887,4218.717773,4208.589844,4219.102539,4214.230957,4230.000000,2313.000000,4.000000,82.000000,,,,0.000000,4.000000,4.000000,4.000000,4.000000,4.000000,4.000000,4.000000,4.000000,4.000000,4.000000,4.000000,4.000000,4.000000,4.000000,100.000000,,,,,,,,,,,,,,,,
1644854594.801132,236.000000,0.000000,4222.179688,4208.077148,4220.769043,4219.871582,4221.666504,4225.512695,4228.205078,4225.641113,4224.871582,4221.538574,4203.846191,4216.153809,4197.051270,4225.512695,3619.000000,4.000000,82.000000,,,,0.000000,4.000000,4.000000,4.000000,4.000000,4.000000,4.000000,4.000000,4.000000,4.000000,4.000000,4.000000,4.000000,4.000000,4.000000,100.000000,,,,,,,,,,,,,,,,
1644854594.805072,237.000000,0.000000,4217.436035,4213.333496,4220.256348,4204.487305,4226.794922,4227.436035,4231.025879,4223.717773,4225.128418,4224.358887,4203.461426,4210.897461,4185.897461,4222.948730,3498.000000,4.000000,82.000000,,,,0.000000,4.000000,4.000000,4.000000,4.000000,4.000000,4.000000,4.000000,4.000000,4.000000,4.000000,4.000000,4.000000,4.000000,4.000000,100.000000,,,,,,,,,,,,,,,,
1644854594.809012,238.000000,0.000000,4214.743652,4219.743652,4218.077148,4191.282227,4229.615234,4225.769043,4230.256348,4220.384766,4223.077148,4223.717773,4208.077148,4203.717773,4184.230957,4220.128418,3564.000000,4.000000,82.000000,,,,0.000000,4.000000,4.000000,4.000000,4.000000,4.000000,4.000000,4.000000,4.000000,4.000000,4.000000,4.000000,4.000000,4.000000,4.000000,100.000000,1.000000,83.333336,4.000000,4.000000,4.000000,3.000000,4.000000,4.000000,4.000000,4.000000,4.000000,4.000000,3.000000,4.000000,4.000000,4.000000
1644854594.812952,239.000000,0.000000,4211.794922,4221.025879,4213.333496,4185.512695,4223.974121,4220.769043,4226.153809,4216.538574,4217.563965,4220.256348,4214.102539,4195.000000,4189.487305,4217.436035,2313.000000,4.000000,82.000000,,,,0.000000,4.000000,4.000000,4.000000,4.000000,4.000000,4.000000,4.000000,4.000000,4.000000,4.000000,4.000000,4.000000,4.000000,4.000000,100.000000,,,,,,,,,,,,,,,,
1644854594.816892,240.000000,0.000000,4206.794922,4214.358887,4207.051270,4188.717773,4210.769043,4215.128418,4221.794922,4214.102539,4210.384766,4216.922852,4217.051270,4186.410156,4196.282227,4217.307617,3619.000000,4.000000,82.000000,,,,0.000000,4.000000,4.000000,4.000000,4.000000,4.000000,4.000000,4.000000,4.000000,4.000000,4.000000,4.000000,4.000000,4.000000,4.000000,100.000000,,,,,,,,,,,,,,,,
1644854594.820832,241.000000,0.000000,4201.153809,4203.974121,4202.692383,4198.974121,4198.717773,4211.922852,4220.256348,4214.358887,4205.897461,4216.025879,4215.641113,4180.897461,4201.153809,4220.384766,3498.000000,4.000000,82.000000,,,,0.000000,4.000000,4.000000,4.000000,4.000000,4.000000,4.000000,4.000000,4.000000,4.000000,4.000000,4.000000,4.000000,4.000000,4.000000,100.000000,,,,,,,,,,,,,,,,
1644854594.824872,242.000000,0.000000,4198.461426,4197.307617,4202.563965,4212.051270,4197.051270,4212.692383,4221.025879,4216.922852,4208.205078,4217.820313,4212.436035,4181.410156,4204.487305,4223.846191,3564.000000,4.000000,82.000000,,,,0.000000,4.000000,4.000000,4.000000,4.000000,4.000000,4.000000,4.000000,4.000000,4.000000,4.000000,4.000000,4.000000,4.000000,4.000000,100.000000,,,,,,,,,,,,,,,,
1644854594.828812,243.000000,0.000000,4200.769043,4199.487305,4206.538574,4223.205078,4208.333496,4216.282227,4222.051270,4220.769043,4216.410156,4221.153809,4210.897461,4188.333496,4207.820313,4223.589844,2313.000000,4.000000,82.000000,1,1,1,0.000000,4.000000,4.000000,4.000000,4.000000,4.000000,4.000000,4.000000,4.000000,4.000000,4.000000,4.000000,4.000000,4.000000,4.000000,100.000000,,,,,,,,,,,,,,,,
1644854594.832752,244.000000,0.000000,4206.538574,4209.487305,4212.051270,4229.102539,4225.512695,4219.615234,4222.307617,4224.102539,4225.256348,4223.974121,4212.820313,4197.948730,4211.538574,4219.102539,3619.000000,4.000000,82.000000,,,,0.000000,4.000000,4.000000,4.000000,4.000000,4.000000,4.000000,4.000000,4.000000,4.000000,4.000000,4.000000,4.000000,4.000000,4.000000,100.000000,,,,,,,,,,,,,,,,
1644854594.836692,245.000000,0.000000,4211.794922,4221.410156,4215.897461,4228.205078,4237.820313,4220.769043,4222.820313,4225.641113,4229.358887,4224.743652,4216.666504,4204.230957,4213.846191,4213.589844,3498.000000,4.000000,82.000000,,,,0.000000,4.000000,4.000000,4.000000,4.000000,4.000000,4.000000,4.000000,4.000000,4.000000,4.000000,4.000000,4.000000,4.000000,4.000000,100.000000,,,,,,,,,,,,,,,,
1644854594.840632,246.000000,0.000000,4214.615234,4230.384766,4216.153809,4222.179688,4239.230957,4219.743652,4223.717773,4224.358887,4227.436035,4222.948730,4219.743652,4203.205078,4213.461426,4210.256348,3564.000000,4.000000,82.000000,,,,0.000000,4.000000,4.000000,4.000000,4.000000,4.000000,4.000000,4.000000,4.000000,4.000000,4.000000,4.000000,4.000000,4.000000,4.000000,100.000000,,,,,,,,,,,,,,,,
1644854594.844573,247.000000,0.000000,4216.410156,4235.000000,4213.205078,4213.717773,4231.410156,4218.205078,4223.461426,4220.641113,4222.051270,4220.384766,4220.000000,4196.666504,4210.641113,4209.487305,2313.000000,4.000000,82.000000,,,,0.000000,4.000000,4.000000,4.000000,4.000000,4.000000,4.000000,4.000000,4.000000,4.000000,4.000000,4.000000,4.000000,4.000000,4.000000,100.000000,,,,,,,,,,,,,,,,
1644854594.848513,248.000000,0.000000,4219.487305,4236.666504,4209.487305,4205.897461,4221.666504,4217.307617,4220.641113,4216.410156,4217.436035,4219.358887,4215.897461,4189.615234,4207.307617,4208.846191,3619.000000,4.000000,82.000000,,,,0.000000,4.000000,4.000000,4.000000,4.000000,4.000000,4.000000,4.000000,4.000000,4.000000,4.000000,4.000000,4.000000,4.000000,4.000000,100.000000,,,,,,,,,,,,,,,,
1644854594.852453,249.000000,0.000000,4223.077148,4236.538574,4207.692383,4200.897461,4215.769043,4216.922852,4216.538574,4213.717773,4215.512695,4220.897461,4207.179688,4186.794922,4203.974121,4207.563965,3498.000000,4.000000,82.000000,,,,0.000000,4.000000,4.000000,4.000000,4.000000,4.000000,4.000000,4.000000,4.000000,4.000000,4.000000,4.000000,4.000000,4.000000,4.000000,100.000000,,,,,,,,,,,,,,,,
1644854594.856393,250.000000,0.000000,4223.077148,4234.743652,4208.717773,4199.487305,4215.256348,4216.410156,4214.743652,4213.846191,4215.512695,4223.974121,4195.128418,4188.974121,4200.128418,4207.436035,3564.000000,4.000000,82.000000,,,,0.000000,4.000000,4.000000,4.000000,4.000000,4.000000,4.000000,4.000000,4.000000,4.000000,4.000000,4.000000,4.000000,4.000000,4.000000,100.000000,,,,,,,,,,,,,,,,
1644854594.860333,251.000000,0.000000,4216.666504,4230.128418,4211.153809,4201.282227,4216.922852,4216.153809,4216.538574,4215.897461,4215.384766,4226.538574,4183.846191,4192.820313,4196.410156,4210.641113,2313.000000,4.000000,82.000000,,,,0.000000,4.000000,4.000000,4.000000,4.000000,4.000000,4.000000,4.000000,4.000000,4.000000,4.000000,4.000000,4.000000,4.000000,4.000000,100.000000,,,,,,,,,,,,,,,,
1644854594.864273,252.000000,0.000000,4205.641113,4223.717773,4212.820313,4205.641113,4218.333496,4216.538574,4219.358887,4217.692383,4214.615234,4226.922852,4179.102539,4194.871582,4195.128418,4215.384766,3619.000000,4.000000,82.000000,,,,0.000000,4.000000,4.000000,4.000000,4.000000,4.000000,4.000000,4.000000,4.000000,4.000000,4.000000,4.000000,4.000000,4.000000,4.000000,100.000000,,,,,,,,,,,,,,,,
1644854594.868213,253.000000,0.000000,4196.666504,4218.717773,4212.692383,4211.282227,4218.846191,4217.307617,4219.871582,4217.692383,4214.358887,4225.128418,4185.000000,4193.333496,4199.230957,4217.307617,3498.000000,4.000000,82.000000,,,,0.000000,4.000000,4.000000,4.000000,4.000000,4.000000,4.000000,4.000000,4.000000,4.000000,4.000000,4.000000,4.000000,4.000000,4.000000,100.000000,,,,,,,,,,,,,,,,
1644854594.872153,254.000000,0.000000,4196.153809,4218.461426,4211.410156,4215.769043,4219.615234,4218.077148,4218.205078,4215.769043,4215.897461,4223.077148,4199.743652,4190.256348,4208.717773,4213.846191,3564.000000,4.000000,82.000000,,,,0.000000,4.000000,4.000000,4.000000,4.000000,4.000000,4.000000,4.000000,4.000000,4.000000,4.000000,4.000000,4.000000,4.000000,4.000000,100.000000,,,,,,,,,,,,,,,,
1644854594.876093,255.000000,0.000000,4205.256348,4223.717773,4210.897461,4217.307617,4220.897461,4218.589844,4217.820313,4214.358887,4219.358887,4223.077148,4216.666504,4189.102539,4220.256348,4206.922852,112.000000,4.000000,82.000000,,,,0.000000,4.000000,4.000000,4.000000,4.000000,4.000000,4.000000,4.000000,4.000000,4.000000,4.000000,4.000000,4.000000,4.000000,4.000000,100.000000,,,,,,,,,,,,,,,,
1644854594.880034,0.000000,0.000000,4219.487305,4231.153809,4212.692383,4216.153809,4221.666504,4218.717773,4220.641113,4215.897461,4223.717773,4225.769043,4229.102539,4191.794922,4228.333496,4201.922852,3489.000000,4.000000,82.000000,,,,0.000000,4.000000,4.000000,4.000000,4.000000,4.000000,4.000000,4.000000,4.000000,4.000000,4.000000,4.000000,4.000000,4.000000,4.000000,100.000000,,,,,,,,,,,,,,,,
1644854594.883974,1.000000,0.000000,4231.538574,4236.666504,4216.282227,4215.128418,4221.282227,4218.461426,4224.358887,4220.641113,4227.692383,4229.871582,4234.487305,4197.692383,4229.743652,4202.948730,3302.000000,4.000000,82.000000,,,,0.000000,4.000000,4.000000,4.000000,4.000000,4.000000,4.000000,4.000000,4.000000,4.000000,4.000000,4.000000,4.000000,4.000000,4.000000,100.000000,,,,,,,,,,,,,,,,
1644854594.887914,2.000000,0.000000,4236.025879,4237.820313,4219.743652,4216.922852,4220.384766,4218.077148,4224.871582,4226.410156,4230.000000,4233.717773,4235.641113,4203.717773,4225.769043,4210.897461,3310.000000,4.000000,82.000000,,,,0.000000,4.000000,4.000000,4.000000,4.000000,4.000000,4.000000,4.000000,4.000000,4.000000,4.000000,4.000000,4.000000,4.000000,4.000000,100.000000,,,,,,,,,,,,,,,,
1644854594.891854,3.000000,0.000000,4233.077148,4236.410156,4221.025879,4222.051270,4220.897461,4218.333496,4221.794922,4230.256348,4230.256348,4235.897461,4236.025879,4207.563965,4219.871582,4223.077148,3540.000000,4.000000,82.000000,,,,0.000000,4.000000,4.000000,4.000000,4.000000,4.000000,4.000000,4.000000,4.000000,4.000000,4.000000,4.000000,4.000000,4.000000,4.000000,100.000000,,,,,,,,,,,,,,,,
1644854594.895794,4.000000,0.000000,4227.179688,4235.897461,4220.769043,4227.820313,4223.717773,4219.102539,4218.717773,4231.153809,4229.102539,4236.025879,4235.769043,4208.205078,4215.641113,4235.128418,3249.000000,4.000000,82.000000,,,,0.000000,4.000000,4.000000,4.000000,4.000000,4.000000,4.000000,4.000000,4.000000,4.000000,4.000000,4.000000,4.000000,4.000000,4.000000,100.000000,,,,,,,,,,,,,,,,
1644854594.899634,5.000000,0.000000,4223.974121,4237.948730,4220.769043,4230.000000,4227.948730,4219.487305,4219.102539,4230.128418,4228.077148,4234.102539,4231.410156,4205.897461,4215.000000,4241.025879,3460.000000,4.000000,82.000000,,,,0.000000,4.000000,4.000000,4.000000,4.000000,4.000000,4.000000,4.000000,4.000000,4.000000,4.000000,4.000000,4.000000,4.000000,4.000000,100.000000,,,,,,,,,,,,,,,,
1644854594.903574,6.000000,0.000000,4225.256348,4241.410156,4222.307617,4226.538574,4230.641113,4218.974121,4221.666504,4228.205078,4227.563965,4231.153809,4220.641113,4202.307617,4217.179688,4237.948730,2420.000000,4.000000,82.000000,,,,0.000000,4.000000,4.000000,4.000000,4.000000,4.000000,4.000000,4.000000,4.000000,4.000000,4.000000,4.000000,4.000000,4.000000,4.000000,100.000000,,,,,,,,,,,,,,,,
1644854594.907514,7.000000,0.000000,4228.205078,4242.692383,4224.615234,4219.487305,4229.487305,4217.179688,4222.692383,4226.153809,4226.666504,4228.717773,4206.153809,4199.615234,4219.743652,4227.692383,3141.000000,4.000000,82.000000,,,,0.000000,4.000000,4.000000,4.000000,4.000000,4.000000,4.000000,4.000000,4.000000,4.000000,4.000000,4.000000,4.000000,4.000000,4.000000,100.000000,,,,,,,,,,,,,,,,
1644854594.911454,8.000000,0.000000,4227.563965,4239.102539,4225.512695,4213.461426,4225.128418,4215.512695,4220.641113,4223.717773,4223.846191,4226.538574,4196.282227,4199.230957,4219.871582,4217.179688,3322.000000,4.000000,82.000000,,,,0.000000,4.000000,4.000000,4.000000,4.000000,4.000000,4.000000,4.000000,4.000000,4.000000,4.000000,4.000000,4.000000,4.000000,4.000000,100.000000,,,,,,,,,,,,,,,,
1644854594.915395,9.000000,0.000000,4221.153809,4231.410156,4224.358887,4212.051270,4220.000000,4214.615234,4218.205078,4221.410156,4219.230957,4224.230957,4198.205078,4201.538574,4216.410156,4213.077148,3609.000000,4.000000,82.000000,,,,0.000000,4.000000,4.000000,4.000000,4.000000,4.000000,4.000000,4.000000,4.000000,4.000000,4.000000,4.000000,4.000000,4.000000,4.000000,100.000000,,,,,,,,,,,,,,,,
1644854594.919335,10.000000,0.000000,4212.179688,4223.717773,4222.563965,4215.128418,4217.179688,4215.128418,4218.077148,4219.487305,4214.615234,4221.922852,4212.051270,4206.025879,4211.282227,4216.538574,3543.000000,4.000000,82.000000,,,,0.000000,4.000000,4.000000,4.000000,4.000000,4.000000,4.000000,4.000000,4.000000,4.000000,4.000000,4.000000,4.000000,4.000000,4.000000,100.000000,,,,,,,,,,,,,,,,
1644854594.923275,11.000000,0.000000,4207.820313,4220.897461,4222.307617,4218.846191,4217.820313,4216.282227,4220.128418,4218.205078,4212.692383,4221.538574,4228.589844,4211.666504,4208.974121,4222.692383,2403.000000,4.000000,82.000000,,,,0.000000,4.000000,4.000000,4.000000,4.000000,4.000000,4.000000,4.000000,4.000000,4.000000,4.000000,4.000000,4.000000,4.000000,4.000000,100.000000,,,,,,,,,,,,,,,,
1644854594.927215,12.000000,0.000000,4212.563965,4225.897461,4224.102539,4219.358887,4220.256348,4217.051270,4221.410156,4217.307617,4214.358887,4223.846191,4236.794922,4217.307617,4211.794922,4226.410156,3308.000000,4.000000,82.000000,,,,0.000000,4.000000,4.000000,4.000000,4.000000,4.000000,4.000000,4.000000,4.000000,4.000000,4.000000,4.000000,4.000000,4.000000,4.000000,100.000000,,,,,,,,,,,,,,,,
1644854594.931155,13.000000,0.000000,4224.230957,4236.282227,4227.051270,4217.051270,4220.512695,4216.666504,4220.769043,4216.410156,4218.461426,4226.922852,4232.563965,4220.769043,4218.717773,4226.922852,3490.000000,4.000000,82.000000,,,,0.000000,4.000000,4.000000,4.000000,4.000000,4.000000,4.000000,4.000000,4.000000,4.000000,4.000000,4.000000,4.000000,4.000000,4.000000,100.000000,,,,,,,,,,,,,,,,
1644854594.935095,14.000000,0.000000,4235.384766,4246.410156,4229.743652,4215.641113,4215.897461,4215.256348,4219.487305,4215.256348,4221.410156,4228.205078,4221.922852,4220.512695,4225.769043,4227.820313,3543.000000,4.000000,82.000000,,,,0.000000,4.000000,4.000000,4.000000,4.000000,4.000000,4.000000,4.000000,4.000000,4.000000,4.000000,4.000000,4.000000,4.000000,4.000000,100.000000,,,,,,,,,,,,,,,,
1644854594.939035,15.000000,0.000000,4238.846191,4249.743652,4231.282227,4219.102539,4208.077148,4213.846191,4219.871582,4214.615234,4220.769043,4226.666504,4215.256348,4216.410156,4229.743652,4231.153809,2403.000000,4.000000,82.000000,,,,0.000000,4.000000,4.000000,4.000000,4.000000,4.000000,4.000000,4.000000,4.000000,4.000000,4.000000,4.000000,4.000000,4.000000,4.000000,100.000000,,,,,,,,,,,,,,,,
1644854594.942975,16.000000,0.000000,4233.205078,4243.333496,4230.897461,4227.307617,4202.948730,4213.589844,4221.410156,4214.230957,4217.179688,4223.846191,4216.153809,4210.512695,4230.641113,4235.128418,3308.000000,4.000000,82.000000,,,,0.000000,4.000000,4.000000,4.000000,4.000000,4.000000,4.000000,4.000000,4.000000,4.000000,4.000000,4.000000,4.000000,4.000000,4.000000,100.000000,,,,,,,,,,,,,,,,
1644854594.946915,17.000000,0.000000,4222.563965,4230.000000,4228.846191,4235.897461,4206.153809,4214.871582,4221.794922,4213.846191,4213.461426,4221.282227,4219.487305,4205.641113,4230.000000,4236.025879,3490.000000,4.000000,82.000000,,,,0.000000,4.000000,4.000000,4.000000,4.000000,4.000000,4.000000,4.000000,4.000000,4.000000,4.000000,4.000000,4.000000,4.000000,4.000000,100.000000,,,,,,,,,,,,,,,,
1644854594.950856,18.000000,0.000000,4213.461426,4217.051270,4226.666504,4239.102539,4217.436035,4217.051270,4220.128418,4213.077148,4212.051270,4219.487305,4216.794922,4203.589844,4227.692383,4233.333496,3543.000000,4.000000,82.000000,,,,0.000000,4.000000,4.000000,4.000000,4.000000,4.000000,4.000000,4.000000,4.000000,4.000000,4.000000,4.000000,4.000000,4.000000,4.000000,100.000000,,,,,,,,,,,,,,,,
1644854594.954796,19.000000,0.000000,4209.230957,4210.769043,4225.897461,4233.717773,4229.871582,4218.589844,4217.820313,4212.179688,4212.692383,4217.820313,4206.538574,4203.205078,4221.794922,4230.000000,2403.000000,4.000000,82.000000,,,,0.000000,4.000000,4.000000,4.000000,4.000000,4.000000,4.000000,4.000000,4.000000,4.000000,4.000000,4.000000,4.000000,4.000000,4.000000,100.000000,,,,,,,,,,,,,,,,
1644854594.958736,20.000000,0.000000,4209.487305,4213.077148,4226.282227,4221.538574,4234.615234,4218.333496,4216.666504,4211.153809,4212.948730,4216.025879,4195.897461,4201.922852,4211.153809,4227.692383,3308.000000,4.000000,82.000000,,,,0.000000,4.000000,4.000000,4.000000,4.000000,4.000000,4.000000,4.000000,4.000000,4.000000,4.000000,4.000000,4.000000,4.000000,4.000000,100.000000,,,,,,,,,,,,,,,,
1644854594.962676,21.000000,0.000000,4211.282227,4221.153809,4225.384766,4206.410156,4228.589844,4216.538574,4216.410156,4209.615234,4211.410156,4214.102539,4194.615234,4197.563965,4199.102539,4225.000000,3490.000000,4.000000,82.000000,,,,0.000000,4.000000,4.000000,4.000000,4.000000,4.000000,4.000000,4.000000,4.000000,4.000000,4.000000,4.000000,4.000000,4.000000,4.000000,100.000000,,,,,,,,,,,,,,,,
1644854594.966516,22.000000,0.000000,4211.922852,4228.974121,4221.153809,4192.692383,4216.666504,4214.871582,4215.641113,4207.692383,4208.717773,4212.820313,4204.743652,4191.282227,4192.179688,4219.487305,3543.000000,4.000000,82.000000,,,,0.000000,4.000000,4.000000,4.000000,4.000000,4.000000,4.000000,4.000000,4.000000,4.000000,4.000000,4.000000,4.000000,4.000000,4.000000,100.000000,,,,,,,,,,,,,,,,
1644854594.970456,23.000000,0.000000,4210.769043,4231.410156,4213.974121,4183.846191,4206.794922,4214.358887,4214.487305,4207.051270,4207.051270,4213.077148,4218.717773,4186.153809,4194.871582,4212.179688,2403.000000,4.000000,82.000000,,,,0.000000,4.000000,4.000000,4.000000,4.000000,4.000000,4.000000,4.000000,4.000000,4.000000,4.000000,4.000000,4.000000,4.000000,4.000000,100.000000,,,,,,,,,,,,,,,,
1644854594.974396,24.000000,0.000000,4208.846191,4226.410156,4207.051270,4183.205078,4203.717773,4215.384766,4214.871582,4209.102539,4207.820313,4215.641113,4225.000000,4185.000000,4205.512695,4206.922852,3308.000000,4.000000,82.000000,,,,0.000000,4.000000,4.000000,4.000000,4.000000,4.000000,4.000000,4.000000,4.000000,4.000000,4.000000,4.000000,4.000000,4.000000,4.000000,100.000000,,,,,,,,,,,,,,,,
1644854594.978336,25.000000,0.000000,4206.153809,4216.538574,4202.692383,4191.282227,4205.897461,4216.794922,4217.307617,4213.205078,4210.641113,4219.871582,4217.563965,4187.948730,4217.692383,4206.538574,3490.000000,4.000000,82.000000,,,,0.000000,4.000000,4.000000,4.000000,4.000000,4.000000,4.000000,4.000000,4.000000,4.000000,4.000000,4.000000,4.000000,4.000000,4.000000,100.000000,,,,,,,,,,,,,,,,
1644854594.982276,26.000000,0.000000,4201.794922,4205.897461,4200.897461,4204.102539,4209.102539,4217.436035,4219.871582,4217.051270,4213.846191,4224.358887,4202.051270,4192.307617,4225.000000,4209.102539,3543.000000,4.000000,82.000000,,,,0.000000,4.000000,4.000000,4.000000,4.000000,4.000000,4.000000,4.000000,4.000000,4.000000,4.000000,4.000000,4.000000,4.000000,4.000000,100.000000,,,,,,,,,,,,,,,,
1644854594.986217,27.000000,0.000000,4195.384766,4198.333496,4200.000000,4215.384766,4210.641113,4217.307617,4219.615234,4218.717773,4215.769043,4227.692383,4190.384766,4194.487305,4225.641113,4210.897461,2403.000000,4.000000,82.000000,,,,0.000000,4.000000,4.000000,4.000000,4.000000,4.000000,4.000000,4.000000,4.000000,4.000000,4.000000,4.000000,4.000000,4.000000,4.000000,100.000000,,,,,,,,,,,,,,,,
1644854594.990157,28.000000,0.000000,4188.589844,4196.282227,4199.487305,4220.128418,4210.641113,4216.794922,4216.666504,4218.333496,4216.025879,4228.205078,4190.641113,4192.563965,4221.666504,4210.897461,3308.000000,4.000000,82.000000,,,,0.000000,4.000000,4.000000,4.000000,4.000000,4.000000,4.000000,4.000000,4.000000,4.000000,4.000000,4.000000,4.000000,4.000000,4.000000,100.000000,,,,,,,,,,,,,,,,
1644854594.994097,29.000000,0.000000,4183.974121,4199.230957,4200.000000,4217.820313,4210.897461,4216.282227,4214.615234,4217.307617,4215.512695,4225.000000,4200.641113,4186.922852,4216.282227,4211.025879,3490.000000,4.000000,82.000000,2,1,1,0.000000,4.000000,4.000000,4.000000,4.000000,4.000000,4.000000,4.000000,4.000000,4.000000,4.000000,4.000000,4.000000,4.000000,4.000000,100.000000,,,,,,,,,,,,,,,,
1644854594.998037,30.000000,0.000000,4183.589844,4205.512695,4201.922852,4210.769043,4212.948730,4215.512695,4216.538574,4217.179688,4215.256348,4219.358887,4209.487305,4180.897461,4210.769043,4212.436035,3543.000000,4.000000,82.000000,,,,0.000000,4.000000,4.000000,4.000000,4.000000,4.000000,4.000000,4.000000,4.000000,4.000000,4.000000,4.000000,4.000000,4.000000,4.000000,100.000000,,,,,,,,,,,,,,,,
1644854595.001977,31.000000,0.000000,4186.282227,4212.051270,4203.461426,4202.563965,4216.282227,4214.743652,4221.153809,4217.948730,4215.384766,4213.974121,4208.717773,4177.948730,4205.256348,4213.077148,2403.000000,4.000000,82.000000,,,,0.000000,4.000000,4.000000,4.000000,4.000000,4.000000,4.000000,4.000000,4.000000,4.000000,4.000000,4.000000,4.000000,4.000000,4.000000,100.000000,,,,,,,,,,,,,,,,
1644854595.005917,32.000000,0.000000,4189.487305,4217.051270,4202.436035,4195.384766,4219.487305,4215.128418,4223.974121,4218.077148,4216.025879,4211.410156,4200.512695,4178.717773,4200.897461,4210.000000,0.000000,4.000000,82.000000,,,,0.000000,4.000000,4.000000,4.000000,4.000000,4.000000,4.000000,4.000000,4.000000,4.000000,4.000000,4.000000,4.000000,4.000000,4.000000,100.000000,,,,,,,,,,,,,,,,
1644854595.009857,33.000000,0.000000,4191.282227,4220.384766,4199.358887,4191.153809,4220.641113,4216.922852,4222.307617,4216.666504,4216.922852,4211.922852,4194.871582,4181.410156,4200.256348,4204.358887,0.000000,4.000000,82.000000,,,,0.000000,4.000000,4.000000,4.000000,4.000000,4.000000,4.000000,4.000000,4.000000,4.000000,4.000000,4.000000,4.000000,4.000000,4.000000,100.000000,,,,,,,,,,,,,,,,
1644854595.013797,34.000000,0.000000,4191.794922,4222.051270,4197.179688,4191.025879,4218.846191,4219.871582,4219.102539,4214.487305,4217.307617,4213.717773,4200.000000,4183.589844,4204.615234,4202.179688,0.000000,4.000000,82.000000,,,,0.000000,4.000000,4.000000,4.000000,4.000000,4.000000,4.000000,4.000000,4.000000,4.000000,4.000000,4.000000,4.000000,4.000000,4.000000,100.000000,,,,,,,,,,,,,,,,
1644854595.017737,35.000000,0.000000,4191.922852,4221.538574,4198.974121,4194.230957,4215.769043,4223.077148,4219.230957,4214.102539,4216.410156,4213.974121,4213.077148,4184.358887,4211.282227,4207.820313,0.000000,4.000000,82.000000,,,,0.000000,4.000000,4.000000,4.000000,4.000000,4.000000,4.000000,4.000000,4.000000,4.000000,4.000000,4.000000,4.000000,4.000000,4.000000,100.000000,,,,,,,,,,,,,,,,
1644854595.021678,36.000000,0.000000,4192.436035,4217.436035,4204.358887,4198.846191,4213.974121,4225.000000,4223.589844,4215.769043,4214.871582,4211.282227,4222.820313,4184.358887,4214.358887,4218.077148,0.000000,4.000000,82.000000,,,,0.000000,4.000000,4.000000,4.000000,4.000000,4.000000,4.000000,4.000000,4.000000,4.000000,4.000000,4.000000,4.000000,4.000000,4.000000,100.000000,,,,,,,,,,,,,,,,
1644854595.025618,37.000000,0.000000,4193.589844,4210.897461,4209.871582,4202.051270,4214.871582,4224.487305,4227.563965,4217.307617,4213.846191,4206.922852,4219.230957,4184.487305,4209.102539,4224.102539,0.000000,4.000000,82.000000,,,,0.000000,4.000000,4.000000,4.000000,4.000000,4.000000,4.000000,4.000000,4.000000,4.000000,4.000000,4.000000,4.000000,4.000000,4.000000,100.000000,,,,,,,,,,,,,,,,
1644854595.029558,38.000000,0.000000,4195.641113,4204.871582,4211.794922,4202.692383,4216.410156,4221.282227,4226.410156,4215.897461,4213.589844,4204.487305,4203.205078,4184.358887,4196.410156,4220.000000,0.000000,4.000000,82.000000,,,,0.000000,4.000000,4.000000,4.000000,4.000000,4.000000,4.000000,4.000000,4.000000,4.000000,4.000000,4.000000,4.000000,4.000000,4.000000,100.000000,,,,,,,,,,,,,,,,
1644854595.033498,39.000000,0.000000,4198.717773,4202.436035,4209.102539,4200.897461,4216.410156,4216.794922,4220.641113,4210.769043,4213.205078,4205.641113,4185.512695,4183.333496,4183.333496,4209.358887,0.000000,4.000000,82.000000,,,,0.000000,4.000000,4.000000,4.000000,4.000000,4.000000,4.000000,4.000000,4.000000,4.000000,4.000000,4.000000,4.000000,4.000000,4.000000,100.000000,,,,,,,,,,,,,,,,
1644854595.037338,40.000000,0.000000,4201.794922,4204.743652,4204.487305,4198.974121,4215.384766,4213.717773,4215.000000,4204.487305,4211.538574,4209.102539,4177.820313,4181.538574,4177.692383,4201.538574,0.000000,4.000000,82.000000,,,,0.000000,4.000000,4.000000,4.000000,4.000000,4.000000,4.000000,4.000000,4.000000,4.000000,4.000000,4.000000,4.000000,4.000000,4.000000,100.000000,,,,,,,,,,,,,,,,
1644854595.041278,41.000000,0.000000,4203.077148,4210.000000,4202.307617,4199.230957,4216.794922,4214.102539,4213.846191,4201.025879,4208.974121,4211.153809,4183.846191,4181.025879,4182.563965,4202.436035,0.000000,4.000000,82.000000,,,,0.000000,4.000000,4.000000,4.000000,4.000000,4.000000,4.000000,4.000000,4.000000,4.000000,4.000000,4.000000,4.000000,4.000000,4.000000,100.000000,,,,,,,,,,,,,,,,
1644854595.045218,42.000000,0.000000,4200.512695,4215.128418,4204.615234,4202.051270,4223.333496,4217.307617,4216.153809,4202.307617,4206.538574,4209.102539,4197.307617,4183.077148,4193.846191,4209.743652,0.000000,4.000000,82.000000,,,,0.000000,4.000000,4.000000,4.000000,4.000000,4.000000,4.000000,4.000000,4.000000,4.000000,4.000000,4.000000,4.000000,4.000000,4.000000,100.000000,,,,,,,,,,,,,,,,
1644854595.049158,43.000000,0.000000,4194.615234,4217.692383,4209.230957,4205.128418,4231.794922,4220.769043,4218.717773,4207.179688,4205.256348,4203.846191,4207.948730,4186.410156,4203.589844,4216.025879,0.000000,4.000000,82.000000,,,,0.000000,4.000000,4.000000,4.000000,4.000000,4.000000,4.000000,4.000000,4.000000,4.000000,4.000000,4.000000,4.000000,4.000000,4.000000,100.000000,,,,,,,,,,,,,,,,
1644854595.053098,44.000000,0.000000,4188.717773,4218.333496,4212.307617,4205.769043,4236.282227,4221.538574,4219.743652,4212.436035,4205.512695,4198.717773,4209.102539,4188.333496,4206.282227,4216.922852,0.000000,4.000000,82.000000,,,,0.000000,4.000000,4.000000,4.000000,4.000000,4.000000,4.000000,4.000000,4.000000,4.000000,4.000000,4.000000,4.000000,4.000000,4.000000,100.000000,,,,,,,,,,,,,,,,
1644854595.057039,45.000000,0.000000,4187.820313,4219.230957,4211.922852,4203.205078,4232.948730,4219.230957,4220.384766,4215.512695,4207.563965,4197.948730,4202.051270,4187.692383,4203.974121,4214.487305,0.000000,4.000000,82.000000,,,,0.000000,4.000000,4.000000,4.000000,4.000000,4.000000,4.000000,4.000000,4.000000,4.000000,4.000000,4.000000,4.000000,4.000000,4.000000,100.000000,,,,,,,,,,,,,,,,
1644854595.060979,46.000000,0.000000,4194.102539,4222.179688,4210.000000,4200.641113,4224.615234,4216.282227,4221.666504,4216.538574,4211.794922,4203.589844,4195.256348,4186.538574,4203.461426,4213.333496,0.000000,4.000000,82.000000,,,,0.000000,4.000000,4.000000,4.000000,4.000000,4.000000,4.000000,4.000000,4.000000,4.000000,4.000000,4.000000,4.000000,4.000000,4.000000,100.000000,,,,,,,,,,,,,,,,
1644854595.064919,47.000000,0.000000,4205.384766,4227.051270,4209.230957,4201.794922,4217.692383,4215.384766,4222.820313,4217.179688,4216.794922,4213.717773,4196.794922,4187.436035,4209.102539,4215.384766,0.000000,4.000000,82.000000,,,,0.000000,4.000000,4.000000,4.000000,4.000000,4.000000,4.000000,4.000000,4.000000,4.000000,4.000000,4.000000,4.000000,4.000000,4.000000,100.000000,,,,,,,,,,,,,,,,
1644854595.068859,48.000000,0.000000,4214.743652,4231.410156,4210.641113,4207.051270,4215.769043,4216.794922,4222.436035,4218.846191,4220.769043,4222.948730,4208.077148,4191.410156,4218.589844,4219.487305,0.000000,4.000000,82.000000,,,,0.000000,4.000000,4.000000,4.000000,4.000000,4.000000,4.000000,4.000000,4.000000,4.000000,4.000000,4.000000,4.000000,4.000000,4.000000,100.000000,,,,,,,,,,,,,,,,
1644854595.072799,49.000000,0.000000,4216.153809,4231.922852,4212.307617,4212.948730,4217.307617,4218.846191,4221.025879,4220.897461,4222.051270,4225.641113,4222.051270,4196.153809,4224.615234,4223.846191,0.000000,4.000000,82.000000,,,,0.000000,4.000000,4.000000,4.000000,4.000000,4.000000,4.000000,4.000000,4.000000,4.000000,4.000000,4.000000,4.000000,4.000000,4.000000,100.000000,,,,,,,,,,,,,,,,
1644854595.076739,50.000000,0.000000,4208.333496,4227.179688,4212.051270,4214.871582,4218.077148,4219.102539,4220.000000,4221.794922,4220.000000,4220.512695,4228.717773,4198.205078,4221.794922,4226.922852,0.000000,4.000000,82.000000,,,,0.000000,4.000000,4.000000,4.000000,4.000000,4.000000,4.000000,4.000000,4.000000,4.000000,4.000000,4.000000,4.000000,4.000000,4.000000,100.000000,,,,,,,,,,,,,,,,
1644854595.080679,51.000000,0.000000,4196.922852,4219.615234,4209.102539,4211.410156,4215.769043,4217.051270,4219.871582,4220.256348,4215.384766,4212.051270,4222.820313,4195.769043,4212.051270,4227.692383,0.000000,4.000000,82.000000,,,,0.000000,4.000000,4.000000,4.000000,4.000000,4.000000,4.000000,4.000000,4.000000,4.000000,4.000000,4.000000,4.000000,4.000000,4.000000,100.000000,,,,,,,,,,,,,,,,
1644854595.084619,52.000000,0.000000,4190.384766,4215.000000,4205.000000,4205.512695,4212.948730,4214.230957,4218.974121,4216.794922,4211.666504,4208.077148,4209.230957,4190.512695,4202.563965,4225.897461,0.000000,4.000000,82.000000,,,,0.000000,4.000000,4.000000,4.000000,4.000000,4.000000,4.000000,4.000000,4.000000,4.000000,4.000000,4.000000,4.000000,4.000000,4.000000,100.000000,,,,,,,,,,,,,,,,
1644854595.088559,53.000000,0.000000,4193.333496,4217.436035,4203.333496,4202.051270,4213.974121,4212.948730,4216.794922,4213.461426,4211.794922,4211.922852,4198.205078,4186.666504,4200.128418,4223.077148,0.000000,4.000000,82.000000,,,,0.000000,4.000000,4.000000,4.000000,4.000000,4.000000,4.000000,4.000000,4.000000,4.000000,4.000000,4.000000,4.000000,4.000000,4.000000,100.000000,,,,,,,,,,,,,,,,
1644854595.092500,54.000000,0.000000,4203.589844,4225.256348,4206.282227,4203.333496,4220.384766,4214.358887,4215.897461,4213.077148,4215.769043,4219.871582,4196.538574,4187.948730,4205.256348,4221.794922,0.000000,4.000000,82.000000,,,,0.000000,4.000000,4.000000,4.000000,4.000000,4.000000,4.000000,4.000000,4.000000,4.000000,4.000000,4.000000,4.000000,4.000000,4.000000,100.000000,,,,,,,,,,,,,,,,
1644854595.096440,55.000000,0.000000,4213.717773,4232.179688,4212.436035,4208.717773,4227.179688,4217.307617,4217.948730,4215.769043,4220.384766,4223.846191,4202.820313,4194.358887,4212.179688,4223.333496,0.000000,4.000000,82.000000,,,,0.000000,4.000000,4.000000,4.000000,4.000000,4.000000,4.000000,4.000000,4.000000,4.000000,4.000000,4.000000,4.000000,4.000000,4.000000,100.000000,,,,,,,,,,,,,,,,
1644854595.100380,56.000000,0.000000,4217.692383,4232.436035,4217.307617,4214.615234,4227.820313,4218.974121,4221.538574,4218.717773,4222.307617,4219.230957,4210.128418,4201.538574,4214.743652,4226.153809,0.000000,4.000000,82.000000,,,,0.000000,4.000000,4.000000,4.000000,4.000000,4.000000,4.000000,4.000000,4.000000,4.000000,4.000000,4.000000,4.000000,4.000000,4.000000,100.000000,,,,,,,,,,,,,,,,
1644854595.104320,57.000000,0.000000,4214.487305,4225.384766,4217.307617,4217.692383,4220.512695,4217.820313,4222.692383,4218.717773,4220.128418,4209.615234,4213.333496,4204.871582,4212.692383,4227.436035,0.000000,4.000000,82.000000,,,,0.000000,4.000000,4.000000,4.000000,4.000000,4.000000,4.000000,4.000000,4.000000,4.000000,4.000000,4.000000,4.000000,4.000000,4.000000,100.000000,,,,,,,,,,,,,,,,
1644854595.108160,58.000000,0.000000,4208.589844,4215.384766,4212.692383,4217.051270,4210.897461,4215.512695,4220.000000,4215.512695,4216.153809,4203.717773,4212.307617,4202.948730,4210.769043,4226.410156,0.000000,4.000000,82.000000,,,,0.000000,4.000000,4.000000,4.000000,4.000000,4.000000,4.000000,4.000000,4.000000,4.000000,4.000000,4.000000,4.000000,4.000000,4.000000,100.000000,,,,,,,,,,,,,,,,
1644854595.112100,59.000000,0.000000,4205.769043,4209.230957,4207.948730,4215.000000,4207.563965,4215.897461,4216.794922,4211.666504,4213.333496,4206.922852,4210.512695,4198.846191,4214.871582,4224.871582,0.000000,4.000000,82.000000,3,1,1,0.000000,4.000000,4.000000,4.000000,4.000000,4.000000,4.000000,4.000000,4.000000,4.000000,4.000000,4.000000,4.000000,4.000000,4.000000,100.000000,,,,,,,,,,,,,,,,
1644854595.116040,60.000000,0.000000,4208.589844,4211.282227,4207.820313,4214.358887,4214.358887,4220.769043,4217.820313,4210.128418,4213.461426,4217.051270,4211.025879,4196.794922,4225.000000,4225.256348,0.000000,4.000000,82.000000,,,,0.000000,4.000000,4.000000,4.000000,4.000000,4.000000,4.000000,4.000000,4.000000,4.000000,4.000000,4.000000,4.000000,4.000000,4.000000,100.000000,,,,,,,,,,,,,,,,
1644854595.119980,61.000000,0.000000,4214.487305,4220.897461,4212.179688,4216.025879,4226.794922,4227.436035,4223.461426,4211.794922,4215.641113,4226.922852,4213.077148,4197.820313,4235.256348,4226.410156,0.000000,4.000000,82.000000,,,,0.000000,4.000000,4.000000,4.000000,4.000000,4.000000,4.000000,4.000000,4.000000,4.000000,4.000000,4.000000,4.000000,4.000000,4.000000,100.000000,,,,,,,,,,,,,,,,
1644854595.123920,62.000000,0.000000,4217.948730,4232.948730,4216.666504,4217.563965,4235.769043,4231.410156,4228.974121,4214.743652,4217.563965,4230.384766,4213.974121,4199.743652,4238.461426,4225.769043,0.000000,4.000000,82.000000,,,,0.000000,4.000000,4.000000,4.000000,4.000000,4.000000,4.000000,4.000000,4.000000,4.000000,4.000000,4.000000,4.000000,4.000000,4.000000,100.000000,,,,,,,,,,,,,,,,
1644854595.127861,63.000000,0.000000,4215.769043,4241.025879,4217.179688,4216.282227,4235.128418,4230.769043,4229.358887,4216.410156,4218.077148,4227.179688,4212.436035,4199.615234,4232.179688,4223.205078,0.000000,4.000000,82.000000,,,,0.000000,4.000000,4.000000,4.000000,4.000000,4.000000,4.000000,4.000000,4.000000,4.000000,4.000000,4.000000,4.000000,4.000000,4.000000,100.000000,,,,,,,,,,,,,,,,
1644854595.131801,64.000000,0.000000,4210.128418,4241.282227,4213.717773,4211.410156,4226.666504,4227.051270,4224.871582,4216.153809,4218.077148,4222.692383,4210.256348,4197.051270,4222.179688,4222.436035,0.000000,4.000000,82.000000,,,,0.000000,4.000000,4.000000,4.000000,4.000000,4.000000,4.000000,4.000000,4.000000,4.000000,4.000000,4.000000,4.000000,4.000000,4.000000,100.000000,,,,,,,,,,,,,,,,
1644854595.135741,65.000000,0.000000,4205.641113,4234.871582,4209.743652,4205.897461,4217.051270,4223.717773,4220.256348,4215.128418,4218.846191,4221.922852,4210.769043,4194.871582,4216.922852,4226.025879,0.000000,4.000000,82.000000,,,,0.000000,4.000000,4.000000,4.000000,4.000000,4.000000,4.000000,4.000000,4.000000,4.000000,4.000000,4.000000,4.000000,4.000000,4.000000,100.000000,,,,,,,,,,,,,,,,
1644854595.139681,66.000000,0.000000,4205.897461,4226.538574,4208.717773,4203.077148,4212.692383,4222.179688,4219.230957,4214.871582,4220.897461,4226.025879,4215.000000,4196.282227,4221.282227,4231.666504,0.000000,4.000000,82.000000,,,,0.000000,4.000000,4.000000,4.000000,4.000000,4.000000,4.000000,4.000000,4.000000,4.000000,4.000000,4.000000,4.000000,4.000000,4.000000,100.000000,,,,,,,,,,,,,,,,
1644854595.143621,67.000000,0.000000,4210.256348,4220.897461,4211.025879,4205.256348,4214.487305,4222.307617,4220.512695,4215.641113,4223.461426,4231.922852,4220.512695,4201.282227,4232.436035,4234.358887,0.000000,4.000000,82.000000,,,,0.000000,4.000000,4.000000,4.000000,4.000000,4.000000,4.000000,4.000000,4.000000,4.000000,4.000000,4.000000,4.000000,4.000000,4.000000,100.000000,,,,,,,,,,,,,,,,
1644854595.147561,68.000000,0.000000,4214.487305,4219.743652,4215.128418,4211.666504,4219.743652,4222.307617,4221.153809,4216.666504,4225.384766,4235.641113,4224.230957,4207.563965,4242.179688,4232.179688,0.000000,4.000000,82.000000,,,,0.000000,4.000000,4.000000,4.000000,4.000000,4.000000,4.000000,4.000000,4.000000,4.000000,4.000000,4.000000,4.000000,4.000000,4.000000,100.000000,,,,,,,,,,,,,,,,
1644854595.151501,69.000000,0.000000,4214.230957,4220.512695,4218.461426,4219.230957,4223.717773,4221.538574,4219.871582,4217.051270,4226.153809,4235.769043,4224.487305,4212.051270,4243.846191,4228.333496,0.000000,4.000000,82.000000,,,,0.000000,4.000000,4.000000,4.000000,4.000000,4.000000,4.000000,4.000000,4.000000,4.000000,4.000000,4.000000,4.000000,4.000000,4.000000,100.000000,,,,,,,,,,,,,,,,
1644854595.155441,70.000000,0.000000,4208.846191,4219.615234,4219.743652,4224.230957,4223.846191,4220.256348,4218.846191,4216.794922,4225.256348,4234.102539,4222.820313,4212.948730,4237.307617,4227.307617,0.000000,4.000000,82.000000,,,,0.000000,4.000000,4.000000,4.000000,4.000000,4.000000,4.000000,4.000000,4.000000,4.000000,4.000000,4.000000,4.000000,4.000000,4.000000,100.000000,,,,,,,,,,,,,,,,
1644854595.159381,71.000000,0.000000,4201.794922,4215.897461,4219.487305,4224.358887,4221.025879,4219.743652,4219.615234,4217.051270,4223.205078,4233.077148,4222.051270,4209.743652,4228.589844,4230.000000,0.000000,4.000000,82.000000,,,,0.000000,4.000000,4.000000,4.000000,4.000000,4.000000,4.000000,4.000000,4.000000,4.000000,4.000000,4.000000,4.000000,4.000000,4.000000,100.000000,,,,,,,,,,,,,,,,
1644854595.163322,72.000000,0.000000,4198.846191,4212.436035,4218.589844,4220.384766,4219.487305,4221.794922,4221.282227,4217.948730,4221.666504,4234.743652,4223.846191,4203.846191,4225.769043,4233.461426,0.000000,4.000000,82.000000,,,,0.000000,4.000000,4.000000,4.000000,4.000000,4.000000,4.000000,4.000000,4.000000,4.000000,4.000000,4.000000,4.000000,4.000000,4.000000,100.000000,,,,,,,,,,,,,,,,
1644854595.167262,73.000000,0.000000,4202.051270,4213.461426,4218.077148,4216.410156,4223.077148,4226.410156,4221.794922,4219.102539,4222.436035,4237.948730,4227.307617,4197.948730,4231.538574,4233.846191,0.000000,4.000000,82.000000,,,,0.000000,4.000000,4.000000,4.000000,4.000000,4.000000,4.000000,4.000000,4.000000,4.000000,4.000000,4.000000,4.000000,4.000000,4.000000,100.000000,,,,,,,,,,,,,,,,
1644854595.171202,74.000000,0.000000,4207.692383,4220.256348,4217.307617,4216.666504,4230.641113,4231.282227,4221.153809,4219.615234,4225.384766,4238.974121,4229.102539,4194.487305,4241.153809,4230.128418,0.000000,4.000000,82.000000,,,,0.000000,4.000000,4.000000,4.000000,4.000000,4.000000,4.000000,4.000000,4.000000,4.000000,4.000000,4.000000,4.000000,4.000000,4.000000,100.000000,,,,,,,,,,,,,,,,
1644854595.175142,75.000000,0.000000,4209.230957,4228.846191,4215.000000,4221.666504,4237.307617,4233.205078,4221.025879,4219.487305,4228.717773,4235.256348,4226.666504,4193.974121,4245.256348,4223.974121,0.000000,4.000000,82.000000,,,,0.000000,4.000000,4.000000,4.000000,4.000000,4.000000,4.000000,4.000000,4.000000,4.000000,4.000000,4.000000,4.000000,4.000000,4.000000,100.000000,,,,,,,,,,,,,,,,
1644854595.179182,76.000000,0.000000,4203.205078,4233.589844,4211.025879,4227.051270,4238.461426,4231.282227,4222.436035,4219.358887,4230.000000,4228.205078,4220.769043,4195.128418,4239.230957,4218.205078,0.000000,4.000000,82.000000,,,,0.000000,4.000000,4.000000,4.000000,4.000000,4.000000,4.000000,4.000000,4.000000,4.000000,4.000000,4.000000,4.000000,4.000000,4.000000,100.000000,,,,,,,,,,,,,,,,
1644854595.183122,77.000000,0.000000,4192.692383,4230.641113,4207.179688,4227.307617,4233.717773,4227.820313,4224.487305,4220.128418,4228.717773,4222.820313,4214.487305,4196.410156,4226.666504,4214.743652,0.000000,4.000000,82.000000,,,,0.000000,4.000000,4.000000,4.000000,4.000000,4.000000,4.000000,4.000000,4.000000,4.000000,4.000000,4.000000,4.000000,4.000000,4.000000,100.000000,,,,,,,,,,,,,,,,
1644854595.187062,78.000000,0.000000,4184.487305,4221.538574,4205.256348,4220.641113,4226.794922,4226.153809,4225.128418,4221.538574,4226.538574,4223.846191,4210.512695,4196.794922,4216.153809,4214.615234,0.000000,4.000000,82.000000,,,,0.000000,4.000000,4.000000,4.000000,4.000000,4.000000,4.000000,4.000000,4.000000,4.000000,4.000000,4.000000,4.000000,4.000000,4.000000,100.000000,,,,,,,,,,,,,,,,
1644854595.191002,79.000000,0.000000,4183.589844,4212.307617,4206.153809,4210.641113,4221.922852,4227.436035,4224.358887,4222.307617,4225.256348,4230.384766,4209.871582,4195.000000,4213.717773,4217.563965,0.000000,4.000000,82.000000,,,,0.000000,4.000000,4.000000,4.000000,4.000000,4.000000,4.000000,4.000000,4.000000,4.000000,4.000000,4.000000,4.000000,4.000000,4.000000,100.000000,,,,,,,,,,,,,,,,
1644854595.194942,80.000000,0.000000,4188.461426,4208.717773,4208.461426,4202.948730,4221.153809,4230.256348,4223.974121,4221.922852,4225.512695,4236.153809,4211.153809,4190.641113,4218.589844,4222.051270,0.000000,4.000000,82.000000,,,,0.000000,4.000000,4.000000,4.000000,4.000000,4.000000,4.000000,4.000000,4.000000,4.000000,4.000000,4.000000,4.000000,4.000000,4.000000,100.000000,,,,,,,,,,,,,,,,
1644854595.198882,81.000000,0.000000,4193.846191,4212.563965,4209.615234,4201.794922,4223.846191,4232.179688,4225.384766,4220.641113,4226.538574,4235.256348,4212.563965,4185.128418,4225.641113,4225.128418,0.000000,4.000000,82.000000,,,,0.000000,4.000000,4.000000,4.000000,4.000000,4.000000,4.000000,4.000000,4.000000,4.000000,4.000000,4.000000,4.000000,4.000000,4.000000,100.000000,,,,,,,,,,,,,,,,
1644854595.202822,82.000000,0.000000,4195.512695,4220.769043,4207.692383,4207.307617,4228.333496,4232.948730,4227.563965,4219.102539,4227.436035,4227.563965,4212.692383,4181.922852,4230.384766,4224.615234,0.000000,4.000000,82.000000,,,,0.000000,4.000000,4.000000,4.000000,4.000000,4.000000,4.000000,4.000000,4.000000,4.000000,4.000000,4.000000,4.000000,4.000000,4.000000,100.000000,,,,,,,,,,,,,,,,
1644854595.206763,83.000000,0.000000,4193.974121,4228.205078,4203.205078,4216.282227,4232.307617,4233.333496,4227.692383,4218.717773,4228.333496,4219.743652,4211.666504,4183.333496,4232.179688,4221.666504,0.000000,4.000000,82.000000,,,,0.000000,4.000000,4.000000,4.000000,4.000000,4.000000,4.000000,4.000000,4.000000,4.000000,4.000000,4.000000,4.000000,4.000000,4.000000,100.000000,,,,,,,,,,,,,,,,
1644854595.210703,84.000000,0.000000,4192.436035,4231.025879,4198.846191,4223.717773,4233.974121,4233.974121,4225.897461,4220.000000,4229.743652,4219.102539,4210.384766,4189.358887,4233.974121,4220.641113,0.000000,4.000000,82.000000,,,,0.000000,4.000000,4.000000,4.000000,4.000000,4.000000,4.000000,4.000000,4.000000,4.000000,4.000000,4.000000,4.000000,4.000000,4.000000,100.000000,,,,,,,,,,,,,,,,
1644854595.214643,85.000000,0.000000,4193.974121,4229.487305,4197.307617,4226.025879,4232.436035,4234.615234,4224.871582,4223.333496,4232.051270,4227.179688,4209.743652,4197.051270,4238.333496,4226.025879,0.000000,4.000000,82.000000,,,,0.000000,4.000000,4.000000,4.000000,4.000000,4.000000,4.000000,4.000000,4.000000,4.000000,4.000000,4.000000,4.000000,4.000000,4.000000,100.000000,,,,,,,,,,,,,,,,
1644854595.218583,86.000000,0.000000,4198.846191,4227.051270,4200.256348,4222.948730,4228.717773,4234.743652,4226.282227,4228.333496,4234.615234,4238.333496,4210.897461,4203.077148,4245.128418,4236.282227,0.000000,4.000000,82.000000,,,,0.000000,4.000000,4.000000,4.000000,4.000000,4.000000,4.000000,4.000000,4.000000,4.000000,4.000000,4.000000,4.000000,4.000000,4.000000,100.000000,,,,,,,,,,,,,,,,
1644854595.222523,87.000000,0.000000,4205.384766,4226.922852,4206.410156,4218.461426,4225.128418,4234.615234,4228.846191,4233.205078,4236.410156,4244.358887,4215.000000,4205.769043,4250.512695,4244.102539,0.000000,4.000000,82.000000,,,,0.000000,4.000000,4.000000,4.000000,4.000000,4.000000,4.000000,4.000000,4.000000,4.000000,4.000000,4.000000,4.000000,4.000000,4.000000,100.000000,,,,,,,,,,,,,,,,
1644854595.226463,88.000000,0.000000,4210.000000,4228.333496,4213.077148,4216.666504,4223.846191,4234.230957,4228.846191,4235.000000,4236.282227,4241.153809,4221.794922,4206.025879,4249.102539,4242.692383,0.000000,4.000000,82.000000,,,,0.000000,4.000000,4.000000,4.000000,4.000000,4.000000,4.000000,4.000000,4.000000,4.000000,4.000000,4.000000,4.000000,4.000000,4.000000,100.000000,,,,,,,,,,,,,,,,
1644854595.230403,89.000000,0.000000,4210.512695,4227.179688,4217.051270,4218.077148,4225.256348,4233.461426,4225.641113,4231.922852,4233.077148,4230.769043,4227.948730,4204.871582,4237.692383,4232.179688,0.000000,4.000000,82.000000,,,,0.000000,4.000000,4.000000,4.000000,4.000000,4.000000,4.000000,4.000000,4.000000,4.000000,4.000000,4.000000,4.000000,4.000000,4.000000,100.000000,,,,,,,,,,,,,,,,
1644854595.234343,90.000000,0.000000,4206.794922,4220.641113,4217.179688,4219.871582,4226.922852,4232.051270,4221.794922,4224.743652,4226.538574,4218.846191,4227.436035,4202.692383,4219.102539,4220.256348,0.000000,4.000000,82.000000,,,,0.000000,4.000000,4.000000,4.000000,4.000000,4.000000,4.000000,4.000000,4.000000,4.000000,4.000000,4.000000,4.000000,4.000000,4.000000,100.000000,,,,,,,,,,,,,,,,
1644854595.238283,91.000000,0.000000,4200.512695,4210.641113,4215.000000,4218.974121,4226.538574,4229.871582,4220.769043,4216.410156,4217.820313,4209.871582,4217.051270,4200.000000,4201.153809,4215.000000,0.000000,4.000000,82.000000,,,,0.000000,4.000000,4.000000,4.000000,4.000000,4.000000,4.000000,4.000000,4.000000,4.000000,4.000000,4.000000,4.000000,4.000000,4.000000,100.000000,,,,,,,,,,,,,,,,
1644854595.242224,92.000000,0.000000,4193.846191,4203.589844,4212.820313,4214.358887,4222.948730,4226.794922,4222.051270,4210.000000,4209.871582,4204.743652,4200.000000,4197.436035,4191.794922,4218.717773,0.000000,4.000000,82.000000,,,,0.000000,4.000000,4.000000,4.000000,4.000000,4.000000,4.000000,4.000000,4.000000,4.000000,4.000000,4.000000,4.000000,4.000000,4.000000,100.000000,,,,,,,,,,,,,,,,
1644854595.246164,93.000000,0.000000,4187.563965,4204.102539,4211.922852,4207.692383,4216.794922,4223.205078,4223.077148,4207.563965,4206.153809,4202.307617,4185.128418,4196.025879,4193.077148,4226.922852,0.000000,4.000000,82.000000,,,,0.000000,4.000000,4.000000,4.000000,4.000000,4.000000,4.000000,4.000000,4.000000,4.000000,4.000000,4.000000,4.000000,4.000000,4.000000,100.000000,,,,,,,,,,,,,,,,
1644854595.250104,94.000000,0.000000,4183.077148,4211.153809,4212.563965,4201.794922,4210.641113,4219.487305,4221.666504,4208.717773,4207.307617,4201.025879,4180.641113,4195.769043,4200.256348,4233.974121,0.000000,4.000000,82.000000,,,,0.000000,4.000000,4.000000,4.000000,4.000000,4.000000,4.000000,4.000000,4.000000,4.000000,4.000000,4.000000,4.000000,4.000000,4.000000,100.000000,,,,,,,,,,,,,,,,
1644854595.254144,95.000000,0.000000,4182.948730,4219.102539,4214.487305,4198.846191,4207.563965,4216.153809,4219.487305,4211.922852,4211.025879,4200.641113,4186.538574,4196.282227,4206.538574,4237.563965,0.000000,4.000000,82.000000,,,,0.000000,4.000000,4.000000,4.000000,4.000000,4.000000,4.000000,4.000000,4.000000,4.000000,4.000000,4.000000,4.000000,4.000000,4.000000,100.000000,,,,,,,,,,,,,,,,
1644854595.258084,96.000000,0.000000,4189.487305,4222.820313,4216.922852,4199.102539,4209.230957,4214.358887,4219.615234,4215.128418,4213.717773,4201.410156,4195.769043,4197.692383,4208.077148,4238.205078,0.000000,4.000000,82.000000,,,,0.000000,4.000000,4.000000,4.000000,4.000000,4.000000,4.000000,4.000000,4.000000,4.000000,4.000000,4.000000,4.000000,4.000000,4.000000,100.000000,,,,,,,,,,,,,,,,
1644854595.262024,97.000000,0.000000,4201.922852,4221.410156,4218.589844,4201.794922,4214.487305,4214.230957,4222.307617,4217.179688,4213.974121,4203.846191,4201.410156,4200.256348,4205.256348,4237.179688,0.000000,4.000000,82.000000,,,,0.000000,4.000000,4.000000,4.000000,4.000000,4.000000,4.000000,4.000000,4.000000,4.000000,4.000000,4.000000,4.000000,4.000000,4.000000,100.000000,,,,,,,,,,,,,,,,
1644854595.265964,98.000000,0.000000,4215.256348,4217.948730,4218.333496,4205.897461,4220.384766,4215.641113,4224.743652,4217.820313,4212.948730,4206.282227,4201.025879,4203.846191,4201.282227,4235.000000,0.000000,4.000000,82.000000,,,,0.000000,4.000000,4.000000,4.000000,4.000000,4.000000,4.000000,4.000000,4.000000,4.000000,4.000000,4.000000,4.000000,4.000000,4.000000,100.000000,,,,,,,,,,,,,,,,
1644854595.269904,99.000000,0.000000,4222.692383,4215.641113,4215.769043,4210.641113,4222.820313,4217.051270,4224.230957,4217.563965,4212.436035,4206.666504,4196.922852,4206.538574,4198.589844,4233.333496,0.000000,4.000000,82.000000,,,,0.000000,4.000000,4.000000,4.000000,4.000000,4.000000,4.000000,4.000000,4.000000,4.000000,4.000000,4.000000,4.000000,4.000000,4.000000,100.000000,,,,,,,,,,,,,,,,
1644854595.273844,100.000000,0.000000,4220.128418,4214.871582,4212.179688,4214.230957,4219.487305,4217.307617,4220.897461,4216.666504,4212.051270,4204.102539,4191.666504,4206.153809,4197.436035,4233.717773,0.000000,4.000000,82.000000,,,,0.000000,4.000000,4.000000,4.000000,4.000000,4.000000,4.000000,4.000000,4.000000,4.000000,4.000000,4.000000,4.000000,4.000000,4.000000,100.000000,,,,,,,,,,,,,,,,
1644854595.277784,101.000000,0.000000,4209.358887,4214.230957,4208.846191,4215.769043,4211.410156,4215.641113,4217.436035,4214.871582,4210.641113,4200.128418,4187.307617,4201.153809,4197.948730,4236.282227,0.000000,4.000000,82.000000,,,,0.000000,4.000000,4.000000,4.000000,4.000000,4.000000,4.000000,4.000000,4.000000,4.000000,4.000000,4.000000,4.000000,4.000000,4.000000,100.000000,,,,,,,,,,,,,,,,
1644854595.281725,102.000000,0.000000,4196.666504,4212.307617,4206.794922,4216.153809,4202.307617,4212.692383,4215.512695,4211.922852,4207.948730,4198.077148,4185.256348,4192.692383,4200.256348,4238.205078,0.000000,4.000000,82.000000,,,,0.000000,4.000000,4.000000,4.000000,4.000000,4.000000,4.000000,4.000000,4.000000,4.000000,4.000000,4.000000,4.000000,4.000000,4.000000,100.000000,,,,,,,,,,,,,,,,
1644854595.285665,103.000000,0.000000,4188.846191,4209.230957,4206.794922,4217.179688,4197.692383,4210.256348,4214.615234,4208.974121,4205.769043,4199.487305,4187.307617,4184.615234,4205.256348,4236.410156,0.000000,4.000000,82.000000,,,,0.000000,4.000000,4.000000,4.000000,4.000000,4.000000,4.000000,4.000000,4.000000,4.000000,4.000000,4.000000,4.000000,4.000000,4.000000,100.000000,,,,,,,,,,,,,,,,
1644854595.289605,104.000000,0.000000,4189.102539,4207.436035,4208.461426,4218.333496,4200.512695,4209.871582,4214.102539,4207.820313,4205.641113,4202.948730,4193.589844,4180.897461,4213.077148,4231.538574,0.000000,4.000000,82.000000,,,,0.000000,4.000000,4.000000,4.000000,4.000000,4.000000,4.000000,4.000000,4.000000,4.000000,4.000000,4.000000,4.000000,4.000000,4.000000,100.000000,,,,,,,,,,,,,,,,
1644854595.293545,105.000000,0.000000,4196.025879,4209.358887,4211.538574,4217.307617,4208.717773,4211.922852,4214.743652,4210.000000,4208.589844,4206.025879,4201.410156,4183.333496,4222.179688,4228.846191,0.000000,4.000000,82.000000,,,,0.000000,4.000000,4.000000,4.000000,4.000000,4.000000,4.000000,4.000000,4.000000,4.000000,4.000000,4.000000,4.000000,4.000000,4.000000,100.000000,,,,,,,,,,,,,,,,
1644854595.297485,106.000000,0.000000,4206.282227,4216.025879,4215.384766,4212.307617,4216.538574,4215.256348,4217.563965,4214.743652,4213.717773,4207.563965,4207.692383,4188.974121,4229.102539,4233.333496,0.000000,4.000000,82.000000,,,,0.000000,4.000000,4.000000,4.000000,4.000000,4.000000,4.000000,4.000000,4.000000,4.000000,4.000000,4.000000,4.000000,4.000000,4.000000,100.000000,,,,,,,,,,,,,,,,
1644854595.301425,107.000000,0.000000,4216.153809,4225.897461,4218.461426,4204.871582,4219.743652,4218.333496,4221.153809,4218.974121,4219.487305,4208.205078,4210.000000,4193.205078,4232.179688,4243.589844,0.000000,4.000000,82.000000,,,,0.000000,4.000000,4.000000,4.000000,4.000000,4.000000,4.000000,4.000000,4.000000,4.000000,4.000000,4.000000,4.000000,4.000000,4.000000,100.000000,,,,,,,,,,,,,,,,
1644854595.305365,108.000000,0.000000,4224.230957,4235.384766,4218.974121,4199.230957,4217.563965,4219.743652,4222.436035,4219.871582,4224.102539,4209.102539,4208.589844,4192.820313,4232.051270,4251.794922,0.000000,4.000000,82.000000,,,,0.000000,4.000000,4.000000,4.000000,4.000000,4.000000,4.000000,4.000000,4.000000,4.000000,4.000000,4.000000,4.000000,4.000000,4.000000,100.000000,,,,,,,,,,,,,,,,
1644854595.309305,109.000000,0.000000,4228.974121,4241.282227,4216.410156,4198.461426,4212.820313,4219.102539,4220.512695,4216.922852,4225.128418,4209.743652,4205.000000,4189.102539,4231.410156,4251.410156,0.000000,4.000000,82.000000,,,,0.000000,4.000000,4.000000,4.000000,4.000000,4.000000,4.000000,4.000000,4.000000,4.000000,4.000000,4.000000,4.000000,4.000000,4.000000,100.000000,,,,,,,,,,,,,,,,
1644854595.313245,110.000000,0.000000,4228.846191,4242.051270,4212.563965,4203.333496,4209.615234,4217.436035,4217.948730,4213.333496,4221.922852,4208.077148,4201.410156,4186.410156,4231.666504,4243.077148,0.000000,4.000000,82.000000,,,,0.000000,4.000000,4.000000,4.000000,4.000000,4.000000,4.000000,4.000000,4.000000,4.000000,4.000000,4.000000,4.000000,4.000000,4.000000,100.000000,1.000000,83.333336,4.000000,4.000000,4.000000,3.000000,4.000000,4.000000,3.000000,4.000000,4.000000,4.000000,4.000000,4.000000,4.000000,4.000000
1644854595.317185,111.000000,0.000000,4223.333496,4237.948730,4210.000000,4211.410156,4211.025879,4216.282227,4218.077148,4211.922852,4216.794922,4203.717773,4199.871582,4187.948730,4232.051270,4233.077148,0.000000,4.000000,82.000000,,,,0.000000,4.000000,4.000000,4.000000,4.000000,4.000000,4.000000,4.000000,4.000000,4.000000,4.000000,4.000000,4.000000,4.000000,4.000000,100.000000,,,,,,,,,,,,,,,,
1644854595.321126,112.000000,0.000000,4215.000000,4231.410156,4210.256348,4218.461426,4216.922852,4217.051270,4220.256348,4213.205078,4212.820313,4198.846191,4201.282227,4192.692383,4230.512695,4227.948730,0.000000,4.000000,82.000000,,,,0.000000,4.000000,4.000000,4.000000,4.000000,4.000000,4.000000,4.000000,4.000000,4.000000,4.000000,4.000000,4.000000,4.000000,4.000000,100.000000,,,,,,,,,,,,,,,,
1644854595.325066,113.000000,0.000000,4209.358887,4226.025879,4212.307617,4221.025879,4223.974121,4218.974121,4221.282227,4215.256348,4212.307617,4196.410156,4204.615234,4195.769043,4226.666504,4230.384766,0.000000,4.000000,82.000000,,,,0.000000,4.000000,4.000000,4.000000,4.000000,4.000000,4.000000,4.000000,4.000000,4.000000,4.000000,4.000000,4.000000,4.000000,4.000000,100.000000,,,,,,,,,,,,,,,,
1644854595.329106,114.000000,0.000000,4209.487305,4224.487305,4213.717773,4219.102539,4227.179688,4220.769043,4218.974121,4215.769043,4213.974121,4197.307617,4207.692383,4193.846191,4222.179688,4238.974121,0.000000,4.000000,82.000000,,,,0.000000,4.000000,4.000000,4.000000,4.000000,4.000000,4.000000,4.000000,4.000000,4.000000,4.000000,4.000000,4.000000,4.000000,4.000000,100.000000,,,,,,,,,,,,,,,,
1644854595.333046,115.000000,0.000000,4212.307617,4225.384766,4213.461426,4215.512695,4223.461426,4221.025879,4215.641113,4214.615234,4215.641113,4199.487305,4208.461426,4188.333496,4219.615234,4249.487305,0.000000,4.000000,82.000000,,,,0.000000,4.000000,4.000000,4.000000,4.000000,4.000000,4.000000,4.000000,4.000000,4.000000,4.000000,4.000000,4.000000,4.000000,4.000000,100.000000,,,,,,,,,,,,,,,,
1644854595.336986,116.000000,0.000000,4210.897461,4224.615234,4212.307617,4213.205078,4215.128418,4219.743652,4215.641113,4213.846191,4215.769043,4201.282227,4206.922852,4184.743652,4219.615234,4256.153809,0.000000,4.000000,82.000000,,,,0.000000,4.000000,4.000000,4.000000,4.000000,4.000000,4.000000,4.000000,4.000000,4.000000,4.000000,4.000000,4.000000,4.000000,4.000000,100.000000,,,,,,,,,,,,,,,,
1644854595.340926,117.000000,0.000000,4202.436035,4219.102539,4211.282227,4211.666504,4208.333496,4218.461426,4219.871582,4215.128418,4215.128418,4202.436035,4205.769043,4187.179688,4220.769043,4254.358887,0.000000,4.000000,82.000000,,,,0.000000,4.000000,4.000000,4.000000,4.000000,4.000000,4.000000,4.000000,4.000000,4.000000,4.000000,4.000000,4.000000,4.000000,4.000000,100.000000,,,,,,,,,,,,,,,,
1644854595.344866,118.000000,0.000000,4191.666504,4210.000000,4209.615234,4207.307617,4207.307617,4218.461426,4224.230957,4217.948730,4214.743652,4204.487305,4207.179688,4194.358887,4221.794922,4243.974121,0.000000,4.000000,82.000000,,,,0.000000,4.000000,4.000000,4.000000,4.000000,4.000000,4.000000,4.000000,4.000000,4.000000,4.000000,4.000000,4.000000,4.000000,4.000000,100.000000,,,,,,,,,,,,,,,,
1644854595.348806,119.000000,0.000000,4186.282227,4201.410156,4205.384766,4198.717773,4209.871582,4219.230957,4223.846191,4219.230957,4214.487305,4206.794922,4208.974121,4200.897461,4221.153809,4230.000000,0.000000,4.000000,82.000000,,,,0.000000,4.000000,4.000000,4.000000,4.000000,4.000000,4.000000,4.000000,4.000000,4.000000,4.000000,4.000000,4.000000,4.000000,4.000000,100.000000,,,,,,,,,,,,,,,,
1644854595.352746,120.000000,0.000000,4188.589844,4196.794922,4198.205078,4189.102539,4209.871582,4218.717773,4218.974121,4217.051270,4213.077148,4206.922852,4206.153809,4200.897461,4217.051270,4220.000000,0.000000,4.000000,82.000000,,,,0.000000,4.000000,4.000000,4.000000,4.000000,4.000000,4.000000,4.000000,4.000000,4.000000,4.000000,4.000000,4.000000,4.000000,4.000000,100.000000,,,,,,,,,,,,,,,,
1644854595.356686,121.000000,0.000000,4193.717773,4196.153809,4190.128418,4184.102539,4203.205078,4216.025879,4214.358887,4212.692383,4210.128418,4202.179688,4195.000000,4193.077148,4208.077148,4217.563965,0.000000,4.000000,82.000000,,,,0.000000,4.000000,4.000000,4.000000,4.000000,4.000000,4.000000,4.000000,4.000000,4.000000,4.000000,4.000000,4.000000,4.000000,4.000000,100.000000,,,,,,,,,,,,,,,,
1644854595.360627,122.000000,0.000000,4194.743652,4197.307617,4185.000000,4186.922852,4193.589844,4212.436035,4214.102539,4209.743652,4207.436035,4193.846191,4178.077148,4181.794922,4195.897461,4219.615234,0.000000,4.000000,82.000000,,,,0.000000,4.000000,4.000000,4.000000,4.000000,4.000000,4.000000,4.000000,4.000000,4.000000,4.000000,4.000000,4.000000,4.000000,4.000000,100.000000,,,,,,,,,,,,,,,,
1644854595.364567,123.000000,0.000000,4189.743652,4198.846191,4185.384766,4194.487305,4189.102539,4211.538574,4217.692383,4210.897461,4207.820313,4186.922852,4163.717773,4174.102539,4185.897461,4220.128418,0.000000,4.000000,82.000000,,,,0.000000,4.000000,4.000000,4.000000,4.000000,4.000000,4.000000,4.000000,4.000000,4.000000,4.000000,4.000000,4.000000,4.000000,4.000000,100.000000,,,,,,,,,,,,,,,,
1644854595.368507,124.000000,0.000000,4183.461426,4200.897461,4190.641113,4200.641113,4195.128418,4215.384766,4221.666504,4215.384766,4212.436035,4186.538574,4159.615234,4174.102539,4185.256348,4217.692383,0.000000,4.000000,82.000000,,,,0.000000,4.000000,4.000000,4.000000,4.000000,4.000000,4.000000,4.000000,4.000000,4.000000,4.000000,4.000000,4.000000,4.000000,4.000000,100.000000,,,,,,,,,,,,,,,,
1644854595.372447,125.000000,0.000000,4183.077148,4205.128418,4197.179688,4200.641113,4208.205078,4222.436035,4223.717773,4220.641113,4219.358887,4193.077148,4168.333496,4180.128418,4197.179688,4217.179688,0.000000,4.000000,82.000000,,,,0.000000,4.000000,4.000000,4.000000,4.000000,4.000000,4.000000,4.000000,4.000000,4.000000,4.000000,4.000000,4.000000,4.000000,4.000000,100.000000,,,,,,,,,,,,,,,,
1644854595.376387,126.000000,0.000000,4192.051270,4211.025879,4201.538574,4195.897461,4219.358887,4228.205078,4224.358887,4224.487305,4225.128418,4202.051270,4185.000000,4187.436035,4217.563965,4223.589844,0.000000,4.000000,82.000000,,,,0.000000,4.000000,4.000000,4.000000,4.000000,4.000000,4.000000,4.000000,4.000000,4.000000,4.000000,4.000000,4.000000,4.000000,4.000000,100.000000,,,,,,,,,,,,,,,,
1644854595.380327,127.000000,0.000000,4206.282227,4216.153809,4202.307617,4191.666504,4220.897461,4229.230957,4224.615234,4225.641113,4227.436035,4208.077148,4201.025879,4191.922852,4237.820313,4235.384766,0.000000,4.000000,82.000000,,,,0.000000,4.000000,4.000000,4.000000,4.000000,4.000000,4.000000,4.000000,4.000000,4.000000,4.000000,4.000000,4.000000,4.000000,4.000000,100.000000,,,,,,,,,,,,,,,,
1644854595.384267,128.000000,0.000000,4217.563965,4217.563965,4201.153809,4191.922852,4212.563965,4225.769043,4223.974121,4224.358887,4226.410156,4209.102539,4209.743652,4193.589844,4249.487305,4245.000000,3428.000000,4.000000,82.000000,,,,0.000000,4.000000,4.000000,4.000000,4.000000,4.000000,4.000000,4.000000,4.000000,4.000000,4.000000,4.000000,4.000000,4.000000,4.000000,100.000000,,,,,,,,,,,,,,,,
1644854595.388207,129.000000,0.000000,4218.717773,4214.230957,4201.282227,4195.897461,4201.153809,4221.282227,4222.307617,4221.922852,4224.487305,4207.051270,4210.256348,4194.743652,4250.512695,4248.077148,3296.000000,4.000000,82.000000,,,,0.000000,4.000000,4.000000,4.000000,4.000000,4.000000,4.000000,4.000000,4.000000,4.000000,4.000000,4.000000,4.000000,4.000000,4.000000,100.000000,,,,,,,,,,,,,,,,
1644854595.392147,130.000000,0.000000,4210.128418,4208.205078,4204.743652,4199.615234,4195.641113,4219.871582,4220.769043,4220.000000,4223.589844,4205.000000,4207.436035,4196.794922,4244.871582,4247.307617,3652.000000,4.000000,82.000000,,,,0.000000,4.000000,4.000000,4.000000,4.000000,4.000000,4.000000,4.000000,4.000000,4.000000,4.000000,4.000000,4.000000,4.000000,4.000000,100.000000,,,,,,,,,,,,,,,,
1644854595.396087,131.000000,0.000000,4200.256348,4203.846191,4211.282227,4200.384766,4200.897461,4222.820313,4221.538574,4219.743652,4224.743652,4204.871582,4206.538574,4198.589844,4240.000000,4249.487305,3531.000000,4.000000,82.000000,,,,0.000000,4.000000,4.000000,4.000000,4.000000,4.000000,4.000000,4.000000,4.000000,4.000000,4.000000,4.000000,4.000000,4.000000,4.000000,100.000000,,,,,,,,,,,,,,,,
1644854595.400028,132.000000,0.000000,4198.974121,4204.871582,4217.820313,4199.358887,4214.358887,4227.563965,4224.230957,4221.025879,4227.436035,4206.794922,4209.871582,4199.102539,4241.410156,4256.666504,3416.000000,4.000000,82.000000,,,,0.000000,4.000000,4.000000,4.000000,4.000000,4.000000,4.000000,4.000000,4.000000,4.000000,4.000000,4.000000,4.000000,4.000000,4.000000,100.000000,,,,,,,,,,,,,,,,
1644854595.403868,133.000000,0.000000,4209.102539,4210.769043,4221.410156,4199.230957,4227.820313,4230.641113,4226.153809,4223.077148,4230.384766,4211.025879,4215.384766,4199.102539,4249.615234,4264.743652,3383.000000,4.000000,82.000000,,,,0.000000,4.000000,4.000000,4.000000,4.000000,4.000000,4.000000,4.000000,4.000000,4.000000,4.000000,4.000000,4.000000,4.000000,4.000000,100.000000,,,,,,,,,,,,,,,,
1644854595.407808,134.000000,0.000000,4222.436035,4215.641113,4221.538574,4201.410156,4232.948730,4229.743652,4225.128418,4225.256348,4233.205078,4216.538574,4220.256348,4200.641113,4259.487305,4267.563965,2529.000000,4.000000,82.000000,,,,0.000000,4.000000,4.000000,4.000000,4.000000,4.000000,4.000000,4.000000,4.000000,4.000000,4.000000,4.000000,4.000000,4.000000,4.000000,100.000000,,,,,,,,,,,,,,,,
1644854595.411748,135.000000,0.000000,4227.820313,4213.846191,4220.512695,4205.769043,4227.820313,4225.897461,4222.948730,4227.436035,4235.128418,4220.641113,4223.077148,4205.384766,4264.358887,4263.974121,3312.000000,4.000000,82.000000,,,,0.000000,4.000000,4.000000,4.000000,4.000000,4.000000,4.000000,4.000000,4.000000,4.000000,4.000000,4.000000,4.000000,4.000000,4.000000,100.000000,,,,,,,,,,,,,,,,
1644854595.415688,136.000000,0.000000,4220.512695,4205.641113,4222.179688,4211.410156,4216.922852,4222.563965,4222.563965,4229.615234,4235.641113,4221.410156,4224.871582,4212.051270,4261.025879,4257.820313,3518.000000,4.000000,82.000000,,,,0.000000,4.000000,4.000000,4.000000,4.000000,4.000000,4.000000,4.000000,4.000000,4.000000,4.000000,4.000000,4.000000,4.000000,4.000000,100.000000,,,,,,,,,,,,,,,,
1644854595.419628,137.000000,0.000000,4207.436035,4197.692383,4227.692383,4217.436035,4207.563965,4222.436035,4225.000000,4231.282227,4234.743652,4218.974121,4227.179688,4217.692383,4253.333496,4254.230957,3550.000000,4.000000,82.000000,,,,0.000000,4.000000,4.000000,4.000000,4.000000,4.000000,4.000000,4.000000,4.000000,4.000000,4.000000,4.000000,4.000000,4.000000,4.000000,100.000000,,,,,,,,,,,,,,,,
1644854595.423568,138.000000,0.000000,4200.641113,4197.820313,4235.000000,4223.077148,4205.128418,4225.512695,4227.692383,4231.794922,4234.358887,4216.538574,4229.230957,4220.384766,4248.077148,4254.102539,3540.000000,4.000000,82.000000,,,,0.000000,4.000000,4.000000,4.000000,4.000000,4.000000,4.000000,4.000000,4.000000,4.000000,4.000000,4.000000,4.000000,4.000000,4.000000,100.000000,,,,,,,,,,,,,,,,
1644854595.427508,139.000000,0.000000,4207.563965,4207.563965,4239.615234,4226.794922,4210.256348,4229.871582,4228.077148,4231.538574,4235.897461,4217.179688,4228.461426,4220.641113,4249.487305,4254.871582,2413.000000,4.000000,82.000000,,,,0.000000,4.000000,4.000000,4.000000,4.000000,4.000000,4.000000,4.000000,4.000000,4.000000,4.000000,4.000000,4.000000,4.000000,4.000000,100.000000,,,,,,,,,,,,,,,,
1644854595.431449,140.000000,0.000000,4225.256348,4220.769043,4238.846191,4226.153809,4219.230957,4232.820313,4226.538574,4231.794922,4239.487305,4221.025879,4223.077148,4220.641113,4254.358887,4254.615234,3608.000000,4.000000,82.000000,,,,0.000000,4.000000,4.000000,4.000000,4.000000,4.000000,4.000000,4.000000,4.000000,4.000000,4.000000,4.000000,4.000000,4.000000,4.000000,100.000000,,,,,,,,,,,,,,,,
1644854595.435389,141.000000,0.000000,4243.077148,4229.230957,4233.589844,4219.487305,4226.410156,4233.333496,4226.282227,4233.077148,4243.461426,4226.025879,4215.128418,4221.153809,4255.641113,4253.974121,3480.000000,4.000000,82.000000,,,,0.000000,4.000000,4.000000,4.000000,4.000000,4.000000,4.000000,4.000000,4.000000,4.000000,4.000000,4.000000,4.000000,4.000000,4.000000,100.000000,,,,,,,,,,,,,,,,
1644854595.439329,142.000000,0.000000,4251.025879,4228.717773,4227.307617,4208.589844,4228.077148,4232.179688,4228.589844,4234.871582,4245.384766,4229.358887,4210.384766,4220.769043,4249.102539,4254.487305,3540.000000,4.000000,82.000000,,,,0.000000,4.000000,4.000000,4.000000,4.000000,4.000000,4.000000,4.000000,4.000000,4.000000,4.000000,4.000000,4.000000,4.000000,4.000000,100.000000,,,,,,,,,,,,,,,,
1644854595.443269,143.000000,0.000000,4246.538574,4221.666504,4222.948730,4199.615234,4225.641113,4231.153809,4231.282227,4235.000000,4244.358887,4229.358887,4212.563965,4217.307617,4238.461426,4255.897461,2413.000000,4.000000,82.000000,,,,0.000000,4.000000,4.000000,4.000000,4.000000,4.000000,4.000000,4.000000,4.000000,4.000000,4.000000,4.000000,4.000000,4.000000,4.000000,100.000000,,,,,,,,,,,,,,,,
1644854595.447209,144.000000,0.000000,4234.102539,4213.589844,4220.512695,4198.333496,4223.333496,4231.025879,4231.538574,4233.205078,4241.282227,4226.025879,4219.230957,4210.641113,4232.307617,4257.563965,3608.000000,4.000000,82.000000,,,,0.000000,4.000000,4.000000,4.000000,4.000000,4.000000,4.000000,4.000000,4.000000,4.000000,4.000000,4.000000,4.000000,4.000000,4.000000,100.000000,,,,,,,,,,,,,,,,
1644854595.451149,145.000000,0.000000,4221.025879,4208.461426,4219.230957,4204.487305,4223.589844,4231.410156,4228.974121,4230.769043,4236.666504,4220.000000,4222.948730,4203.717773,4236.410156,4259.487305,3480.000000,4.000000,82.000000,,,,0.000000,4.000000,4.000000,4.000000,4.000000,4.000000,4.000000,4.000000,4.000000,4.000000,4.000000,4.000000,4.000000,4.000000,4.000000,100.000000,,,,,,,,,,,,,,,,
1644854595.455089,146.000000,0.000000,4210.897461,4205.897461,4218.846191,4211.410156,4224.871582,4231.410156,4226.410156,4229.102539,4231.666504,4213.333496,4218.333496,4200.384766,4247.820313,4261.538574,3540.000000,4.000000,82.000000,,,,0.000000,4.000000,4.000000,4.000000,4.000000,4.000000,4.000000,4.000000,4.000000,4.000000,4.000000,4.000000,4.000000,4.000000,4.000000,100.000000,,,,,,,,,,,,,,,,
1644854595.459029,147.000000,0.000000,4203.205078,4203.717773,4220.000000,4212.179688,4223.846191,4230.512695,4226.153809,4229.102539,4228.461426,4209.230957,4207.307617,4202.563965,4256.922852,4262.051270,2413.000000,4.000000,82.000000,,,,0.000000,4.000000,4.000000,4.000000,4.000000,4.000000,4.000000,4.000000,4.000000,4.000000,4.000000,4.000000,4.000000,4.000000,4.000000,100.000000,,,,,,,,,,,,,,,,
1644854595.462969,148.000000,0.000000,4196.538574,4201.538574,4222.948730,4206.153809,4218.717773,4229.102539,4227.436035,4230.384766,4228.846191,4210.512695,4198.333496,4209.102539,4256.025879,4259.102539,3608.000000,4.000000,82.000000,,,,0.000000,4.000000,4.000000,4.000000,4.000000,4.000000,4.000000,4.000000,4.000000,4.000000,4.000000,4.000000,4.000000,4.000000,4.000000,100.000000,,,,,,,,,,,,,,,,
1644854595.466909,149.000000,0.000000,4193.205078,4201.922852,4226.538574,4198.589844,4212.436035,4228.589844,4227.692383,4232.820313,4233.461426,4216.922852,4199.102539,4216.153809,4245.769043,4253.717773,3480.000000,4.000000,82.000000,,,,0.000000,4.000000,4.000000,4.000000,4.000000,4.000000,4.000000,4.000000,4.000000,4.000000,4.000000,4.000000,4.000000,4.000000,4.000000,100.000000,,,,,,,,,,,,,,,,
1644854595.470850,150.000000,0.000000,4197.563965,4207.179688,4228.974121,4195.769043,4209.487305,4229.358887,4226.282227,4235.769043,4240.000000,4224.230957,4209.743652,4220.641113,4234.615234,4249.615234,3540.000000,4.000000,82.000000,,,,0.000000,4.000000,4.000000,4.000000,4.000000,4.000000,4.000000,4.000000,4.000000,4.000000,4.000000,4.000000,4.000000,4.000000,4.000000,100.000000,,,,,,,,,,,,,,,,
1644854595.474690,151.000000,0.000000,4211.282227,4216.282227,4228.974121,4198.974121,4212.436035,4230.384766,4225.641113,4237.436035,4244.102539,4226.794922,4223.077148,4220.769043,4231.666504,4249.871582,2413.000000,4.000000,82.000000,,,,0.000000,4.000000,4.000000,4.000000,4.000000,4.000000,4.000000,4.000000,4.000000,4.000000,4.000000,4.000000,4.000000,4.000000,4.000000,100.000000,,,,,,,,,,,,,,,,
1644854595.478630,152.000000,0.000000,4229.487305,4224.871582,4226.153809,4204.487305,4218.717773,4230.769043,4227.051270,4236.666504,4242.948730,4223.333496,4231.025879,4217.051270,4240.512695,4253.974121,3608.000000,4.000000,82.000000,,,,0.000000,4.000000,4.000000,4.000000,4.000000,4.000000,4.000000,4.000000,4.000000,4.000000,4.000000,4.000000,4.000000,4.000000,4.000000,100.000000,,,,,,,,,,,,,,,,
1644854595.482570,153.000000,0.000000,4243.589844,4228.717773,4221.666504,4207.051270,4223.205078,4230.769043,4229.358887,4233.461426,4237.436035,4217.179688,4230.769043,4211.922852,4256.410156,4258.589844,3480.000000,4.000000,82.000000,,,,0.000000,4.000000,4.000000,4.000000,4.000000,4.000000,4.000000,4.000000,4.000000,4.000000,4.000000,4.000000,4.000000,4.000000,4.000000,100.000000,,,,,,,,,,,,,,,,
1644854595.486510,154.000000,0.000000,4246.410156,4227.563965,4217.948730,4205.384766,4222.692383,4232.051270,4229.743652,4229.743652,4232.179688,4213.205078,4226.410156,4208.077148,4269.743652,4261.153809,3540.000000,4.000000,82.000000,,,,0.000000,4.000000,4.000000,4.000000,4.000000,4.000000,4.000000,4.000000,4.000000,4.000000,4.000000,4.000000,4.000000,4.000000,4.000000,100.000000,,,,,,,,,,,,,,,,
1644854595.490450,155.000000,0.000000,4238.333496,4224.615234,4217.563965,4204.358887,4219.487305,4235.384766,4228.717773,4228.077148,4231.282227,4213.974121,4223.333496,4207.051270,4272.692383,4262.436035,2413.000000,4.000000,82.000000,,,,0.000000,4.000000,4.000000,4.000000,4.000000,4.000000,4.000000,4.000000,4.000000,4.000000,4.000000,4.000000,4.000000,4.000000,4.000000,100.000000,,,,,,,,,,,,,,,,
1644854595.494390,156.000000,0.000000,4225.256348,4223.205078,4220.384766,4209.743652,4218.846191,4240.128418,4228.717773,4229.615234,4235.384766,4217.692383,4222.948730,4208.077148,4264.743652,4263.461426,3608.000000,4.000000,82.000000,,,,0.000000,4.000000,4.000000,4.000000,4.000000,4.000000,4.000000,4.000000,4.000000,4.000000,4.000000,4.000000,4.000000,4.000000,4.000000,100.000000,,,,,,,,,,,,,,,,
1644854595.498330,157.000000,0.000000,4214.358887,4223.333496,4223.589844,4221.666504,4223.846191,4243.589844,4230.769043,4233.461426,4241.025879,4221.282227,4222.692383,4210.000000,4252.692383,4263.589844,3480.000000,4.000000,82.000000,,,,0.000000,4.000000,4.000000,4.000000,4.000000,4.000000,4.000000,4.000000,4.000000,4.000000,4.000000,4.000000,4.000000,4.000000,4.000000,100.000000,,,,,,,,,,,,,,,,
1644854595.502271,158.000000,0.000000,4209.230957,4222.436035,4223.717773,4232.820313,4232.692383,4244.102539,4232.692383,4236.922852,4243.974121,4222.436035,4219.487305,4211.025879,4244.358887,4261.025879,3540.000000,4.000000,82.000000,,,,0.000000,4.000000,4.000000,4.000000,4.000000,4.000000,4.000000,4.000000,4.000000,4.000000,4.000000,4.000000,4.000000,4.000000,4.000000,100.000000,,,,,,,,,,,,,,,,
1644854595.506211,159.000000,0.000000,4209.230957,4218.589844,4219.615234,4234.102539,4239.230957,4240.769043,4231.025879,4237.563965,4242.820313,4221.410156,4214.102539,4209.871582,4244.358887,4256.666504,2413.000000,4.000000,82.000000,,,,0.000000,4.000000,4.000000,4.000000,4.000000,4.000000,4.000000,4.000000,4.000000,4.000000,4.000000,4.000000,4.000000,4.000000,4.000000,100.000000,,,,,,,,,,,,,,,,
1644854595.510151,160.000000,0.000000,4211.538574,4213.717773,4214.102539,4222.820313,4237.436035,4235.384766,4226.282227,4234.871582,4238.974121,4220.256348,4210.897461,4206.025879,4250.769043,4255.512695,3608.000000,4.000000,82.000000,,,,0.000000,4.000000,4.000000,4.000000,4.000000,4.000000,4.000000,4.000000,4.000000,4.000000,4.000000,4.000000,4.000000,4.000000,4.000000,100.000000,,,,,,,,,,,,,,,,
1644854595.514091,161.000000,0.000000,4213.205078,4211.282227,4211.153809,4204.487305,4227.563965,4230.384766,4222.307617,4231.153809,4235.897461,4220.128418,4213.333496,4200.769043,4257.563965,4260.128418,3480.000000,4.000000,82.000000,,,,0.000000,4.000000,4.000000,4.000000,4.000000,4.000000,4.000000,4.000000,4.000000,4.000000,4.000000,4.000000,4.000000,4.000000,4.000000,100.000000,,,,,,,,,,,,,,,,
1644854595.518031,162.000000,0.000000,4212.436035,4213.846191,4213.333496,4187.820313,4215.512695,4227.563965,4222.563965,4229.871582,4235.384766,4220.384766,4219.743652,4196.794922,4258.589844,4266.025879,3540.000000,4.000000,82.000000,,,,0.000000,4.000000,4.000000,4.000000,4.000000,4.000000,4.000000,4.000000,4.000000,4.000000,4.000000,4.000000,4.000000,4.000000,4.000000,100.000000,,,,,,,,,,,,,,,,
1644854595.521971,163.000000,0.000000,4209.487305,4220.000000,4218.846191,4179.102539,4208.974121,4227.307617,4225.769043,4232.563965,4236.922852,4219.487305,4224.102539,4197.051270,4251.153809,4264.358887,2413.000000,4.000000,82.000000,,,,0.000000,4.000000,4.000000,4.000000,4.000000,4.000000,4.000000,4.000000,4.000000,4.000000,4.000000,4.000000,4.000000,4.000000,4.000000,100.000000,,,,,,,,,,,,,,,,
1644854595.525911,164.000000,0.000000,4205.512695,4224.230957,4223.333496,4179.358887,4210.897461,4229.102539,4227.692383,4237.436035,4238.846191,4217.051270,4220.512695,4202.307617,4237.692383,4251.153809,3608.000000,4.000000,82.000000,,,,0.000000,4.000000,4.000000,4.000000,4.000000,4.000000,4.000000,4.000000,4.000000,4.000000,4.000000,4.000000,4.000000,4.000000,4.000000,100.000000,,,,,,,,,,,,,,,,
1644854595.529851,165.000000,0.000000,4202.563965,4221.282227,4223.589844,4185.769043,4217.820313,4231.794922,4226.538574,4240.641113,4239.358887,4214.615234,4208.846191,4209.487305,4225.000000,4233.974121,3480.000000,4.000000,82.000000,,,,0.000000,4.000000,4.000000,4.000000,4.000000,4.000000,4.000000,4.000000,4.000000,4.000000,4.000000,4.000000,4.000000,4.000000,4.000000,100.000000,,,,,,,,,,,,,,,,
1644854595.533791,166.000000,0.000000,4202.436035,4210.769043,4219.487305,4194.487305,4222.948730,4233.717773,4224.358887,4240.000000,4238.333496,4213.974121,4196.153809,4213.461426,4219.743652,4226.153809,3540.000000,4.000000,82.000000,,,,0.000000,4.000000,4.000000,4.000000,4.000000,4.000000,4.000000,4.000000,4.000000,4.000000,4.000000,4.000000,4.000000,4.000000,4.000000,100.000000,,,,,,,,,,,,,,,,
1644854595.537731,167.000000,0.000000,4206.666504,4198.461426,4212.692383,4201.794922,4221.922852,4233.461426,4224.102539,4236.922852,4237.051270,4215.000000,4191.025879,4211.282227,4225.769043,4235.769043,2413.000000,4.000000,82.000000,,,,0.000000,4.000000,4.000000,4.000000,4.000000,4.000000,4.000000,4.000000,4.000000,4.000000,4.000000,4.000000,4.000000,4.000000,4.000000,100.000000,,,,,,,,,,,,,,,,
1644854595.541672,168.000000,0.000000,4215.128418,4192.179688,4205.897461,4205.769043,4216.025879,4230.769043,4225.769043,4234.102539,4236.153809,4215.512695,4197.307617,4203.846191,4240.641113,4257.307617,3608.000000,4.000000,82.000000,,,,0.000000,4.000000,4.000000,4.000000,4.000000,4.000000,4.000000,4.000000,4.000000,4.000000,4.000000,4.000000,4.000000,4.000000,4.000000,100.000000,,,,,,,,,,,,,,,,
1644854595.545612,169.000000,0.000000,4224.230957,4195.128418,4201.025879,4206.282227,4210.128418,4226.922852,4226.794922,4232.692383,4235.641113,4213.974121,4211.025879,4195.769043,4257.051270,4276.025879,3480.000000,4.000000,82.000000,,,,0.000000,4.000000,4.000000,4.000000,4.000000,4.000000,4.000000,4.000000,4.000000,4.000000,4.000000,4.000000,4.000000,4.000000,4.000000,100.000000,,,,,,,,,,,,,,,,
1644854595.549452,170.000000,0.000000,4228.461426,4203.461426,4199.487305,4205.384766,4208.717773,4223.717773,4226.025879,4231.666504,4235.128418,4211.410156,4223.077148,4192.179688,4266.153809,4279.487305,3540.000000,4.000000,82.000000,,,,0.000000,4.000000,4.000000,4.000000,4.000000,4.000000,4.000000,4.000000,4.000000,4.000000,4.000000,4.000000,4.000000,4.000000,4.000000,100.000000,,,,,,,,,,,,,,,,
1644854595.553392,171.000000,0.000000,4224.615234,4209.871582,4202.051270,4205.512695,4211.794922,4222.436035,4225.384766,4230.000000,4234.102539,4210.256348,4226.538574,4194.358887,4263.589844,4268.205078,2413.000000,4.000000,82.000000,,,,0.000000,4.000000,4.000000,4.000000,4.000000,4.000000,4.000000,4.000000,4.000000,4.000000,4.000000,4.000000,4.000000,4.000000,4.000000,100.000000,,,,,,,,,,,,,,,,
1644854595.557332,172.000000,0.000000,4215.384766,4209.743652,4207.307617,4206.282227,4216.153809,4223.205078,4226.538574,4227.820313,4232.692383,4211.794922,4221.282227,4199.871582,4252.948730,4253.333496,3608.000000,4.000000,82.000000,,,,0.000000,4.000000,4.000000,4.000000,4.000000,4.000000,4.000000,4.000000,4.000000,4.000000,4.000000,4.000000,4.000000,4.000000,4.000000,100.000000,,,,,,,,,,,,,,,,
1644854595.561272,173.000000,0.000000,4207.307617,4204.743652,4212.307617,4203.846191,4217.307617,4224.615234,4228.333496,4225.641113,4230.512695,4213.589844,4212.051270,4204.102539,4243.077148,4246.282227,3480.000000,4.000000,82.000000,,,,0.000000,4.000000,4.000000,4.000000,4.000000,4.000000,4.000000,4.000000,4.000000,4.000000,4.000000,4.000000,4.000000,4.000000,4.000000,100.000000,,,,,,,,,,,,,,,,
1644854595.565212,174.000000,0.000000,4203.974121,4199.615234,4214.871582,4195.769043,4213.974121,4224.743652,4227.820313,4223.333496,4227.051270,4211.153809,4204.102539,4204.358887,4239.487305,4248.333496,3540.000000,4.000000,82.000000,,,,0.000000,4.000000,4.000000,4.000000,4.000000,4.000000,4.000000,4.000000,4.000000,4.000000,4.000000,4.000000,4.000000,4.000000,4.000000,100.000000,,,,,,,,,,,,,,,,
1644854595.569152,175.000000,0.000000,4203.846191,4197.948730,4214.230957,4185.000000,4207.179688,4221.666504,4223.846191,4220.512695,4222.307617,4202.436035,4199.358887,4200.897461,4239.871582,4251.794922,2413.000000,4.000000,82.000000,,,,0.000000,4.000000,4.000000,4.000000,4.000000,4.000000,4.000000,4.000000,4.000000,4.000000,4.000000,4.000000,4.000000,4.000000,4.000000,100.000000,,,,,,,,,,,,,,,,
1644854595.573093,176.000000,0.000000,4202.179688,4199.230957,4212.307617,4179.358887,4200.769043,4216.282227,4219.358887,4217.820313,4218.077148,4190.384766,4196.538574,4197.692383,4237.563965,4249.230957,3608.000000,4.000000,82.000000,,,,0.000000,4.000000,4.000000,4.000000,4.000000,4.000000,4.000000,4.000000,4.000000,4.000000,4.000000,4.000000,4.000000,4.000000,4.000000,100.000000,,,,,,,,,,,,,,,,
1644854595.577033,177.000000,0.000000,4198.461426,4200.769043,4212.820313,4185.256348,4198.846191,4211.922852,4217.948730,4217.563965,4216.922852,4181.794922,4194.487305,4198.974121,4228.717773,4240.384766,3480.000000,4.000000,82.000000,,,,0.000000,4.000000,4.000000,4.000000,4.000000,4.000000,4.000000,4.000000,4.000000,4.000000,4.000000,4.000000,4.000000,4.000000,4.000000,100.000000,,,,,,,,,,,,,,,,
1644854595.580973,178.000000,0.000000,4196.666504,4200.769043,4217.563965,4201.153809,4203.589844,4211.538574,4220.256348,4221.025879,4220.384766,4182.820313,4193.846191,4206.025879,4217.563965,4232.820313,3540.000000,4.000000,82.000000,,,,0.000000,4.000000,4.000000,4.000000,4.000000,4.000000,4.000000,4.000000,4.000000,4.000000,4.000000,4.000000,4.000000,4.000000,4.000000,100.000000,,,,,,,,,,,,,,,,
1644854595.584913,179.000000,0.000000,4202.179688,4200.000000,4224.487305,4217.563965,4213.205078,4215.000000,4222.692383,4226.538574,4226.410156,4193.846191,4196.666504,4215.641113,4213.077148,4234.230957,2413.000000,4.000000,82.000000,,,,0.000000,4.000000,4.000000,4.000000,4.000000,4.000000,4.000000,4.000000,4.000000,4.000000,4.000000,4.000000,4.000000,4.000000,4.000000,100.000000,,,,,,,,,,,,,,,,
1644854595.588853,180.000000,0.000000,4215.128418,4201.282227,4229.743652,4223.461426,4221.922852,4219.358887,4222.820313,4230.000000,4230.512695,4208.974121,4203.461426,4222.436035,4221.794922,4246.538574,3608.000000,4.000000,82.000000,,,,0.000000,4.000000,4.000000,4.000000,4.000000,4.000000,4.000000,4.000000,4.000000,4.000000,4.000000,4.000000,4.000000,4.000000,4.000000,100.000000,,,,,,,,,,,,,,,,
1644854595.592793,181.000000,0.000000,4230.128418,4207.051270,4230.641113,4215.000000,4224.102539,4221.025879,4220.769043,4229.102539,4228.333496,4219.743652,4212.179688,4223.461426,4241.153809,4265.256348,3480.000000,4.000000,82.000000,,,,0.000000,4.000000,4.000000,4.000000,4.000000,4.000000,4.000000,4.000000,4.000000,4.000000,4.000000,4.000000,4.000000,4.000000,4.000000,100.000000,,,,,,,,,,,,,,,,
1644854595.596733,182.000000,0.000000,4240.769043,4216.282227,4227.692383,4199.102539,4218.974121,4219.615234,4218.974121,4225.128418,4220.512695,4221.666504,4219.615234,4219.487305,4261.794922,4281.410156,3540.000000,4.000000,82.000000,,,,0.000000,4.000000,4.000000,4.000000,4.000000,4.000000,4.000000,4.000000,4.000000,4.000000,4.000000,4.000000,4.000000,4.000000,4.000000,100.000000,,,,,,,,,,,,,,,,
1644854595.600673,183.000000,0.000000,4244.487305,4225.128418,4224.487305,4188.846191,4212.436035,4218.205078,4218.589844,4221.538574,4212.436035,4216.794922,4223.589844,4213.717773,4274.358887,4287.563965,2413.000000,4.000000,82.000000,,,,0.000000,4.000000,4.000000,4.000000,4.000000,4.000000,4.000000,4.000000,4.000000,4.000000,4.000000,4.000000,4.000000,4.000000,4.000000,100.000000,,,,,,,,,,,,,,,,
1644854595.604613,184.000000,0.000000,4242.820313,4228.846191,4223.717773,4193.717773,4211.922852,4220.641113,4218.974121,4220.641113,4210.128418,4211.025879,4223.717773,4210.000000,4276.025879,4281.282227,3608.000000,4.000000,82.000000,,,,0.000000,4.000000,4.000000,4.000000,4.000000,4.000000,4.000000,4.000000,4.000000,4.000000,4.000000,4.000000,4.000000,4.000000,4.000000,100.000000,,,,,,,,,,,,,,,,
1644854595.608553,185.000000,0.000000,4239.102539,4225.000000,4226.153809,4210.256348,4218.974121,4226.922852,4219.102539,4222.051270,4214.615234,4208.974121,4220.512695,4209.615234,4269.102539,4266.922852,3480.000000,4.000000,82.000000,,,,0.000000,4.000000,4.000000,4.000000,4.000000,4.000000,4.000000,4.000000,4.000000,4.000000,4.000000,4.000000,4.000000,4.000000,4.000000,100.000000,,,,,,,,,,,,,,,,
1644854595.612494,186.000000,0.000000,4235.256348,4215.000000,4229.871582,4224.358887,4226.922852,4232.563965,4219.358887,4223.077148,4221.153809,4209.230957,4213.077148,4210.897461,4257.563965,4252.563965,3540.000000,4.000000,82.000000,,,,0.000000,4.000000,4.000000,4.000000,4.000000,4.000000,4.000000,4.000000,4.000000,4.000000,4.000000,4.000000,4.000000,4.000000,4.000000,100.000000,,,,,,,,,,,,,,,,
1644854595.616434,187.000000,0.000000,4231.410156,4203.589844,4231.282227,4222.563965,4227.307617,4232.820313,4220.641113,4221.666504,4222.692383,4207.436035,4201.025879,4210.897461,4244.358887,4244.102539,2413.000000,4.000000,82.000000,,,,0.000000,4.000000,4.000000,4.000000,4.000000,4.000000,4.000000,4.000000,4.000000,4.000000,4.000000,4.000000,4.000000,4.000000,4.000000,100.000000,,,,,,,,,,,,,,,,
1644854595.620474,188.000000,0.000000,4226.538574,4195.512695,4227.820313,4203.589844,4217.948730,4227.307617,4221.794922,4217.436035,4216.410156,4200.897461,4187.051270,4207.307617,4231.153809,4240.897461,3608.000000,4.000000,82.000000,,,,0.000000,4.000000,4.000000,4.000000,4.000000,4.000000,4.000000,4.000000,4.000000,4.000000,4.000000,4.000000,4.000000,4.000000,4.000000,100.000000,,,,,,,,,,,,,,,,
1644854595.624414,189.000000,0.000000,4219.487305,4191.922852,4220.512695,4178.974121,4205.641113,4220.512695,4220.897461,4211.794922,4206.282227,4190.512695,4176.666504,4200.641113,4220.128418,4237.563965,3480.000000,4.000000,82.000000,,,,0.000000,4.000000,4.000000,4.000000,4.000000,4.000000,4.000000,4.000000,4.000000,4.000000,4.000000,4.000000,4.000000,4.000000,4.000000,100.000000,,,,,,,,,,,,,,,,
1644854595.628354,190.000000,0.000000,4209.743652,4190.641113,4213.461426,4163.205078,4199.102539,4217.436035,4217.820313,4207.179688,4198.717773,4180.512695,4173.333496,4194.230957,4211.922852,4229.743652,3540.000000,4.000000,82.000000,,,,0.000000,4.000000,4.000000,4.000000,4.000000,4.000000,4.000000,4.000000,4.000000,4.000000,4.000000,4.000000,4.000000,4.000000,4.000000,100.000000,,,,,,,,,,,,,,,,
1644854595.632294,191.000000,0.000000,4198.205078,4188.205078,4210.641113,4163.333496,4202.179688,4220.000000,4215.641113,4205.769043,4197.948730,4174.358887,4174.102539,4191.282227,4204.743652,4218.974121,2413.000000,4.000000,82.000000,,,,0.000000,4.000000,4.000000,4.000000,4.000000,4.000000,4.000000,4.000000,4.000000,4.000000,4.000000,4.000000,4.000000,4.000000,4.000000,100.000000,,,,,,,,,,,,,,,,
1644854595.636234,192.000000,0.000000,4188.589844,4183.846191,4213.077148,4174.743652,4211.410156,4225.641113,4217.436035,4207.563965,4202.307617,4173.846191,4173.077148,4192.563965,4196.666504,4210.769043,3608.000000,4.000000,82.000000,,,,0.000000,4.000000,4.000000,4.000000,4.000000,4.000000,4.000000,4.000000,4.000000,4.000000,4.000000,4.000000,4.000000,4.000000,4.000000,100.000000,,,,,,,,,,,,,,,,
1644854595.640074,193.000000,0.000000,4185.256348,4180.769043,4217.563965,4186.282227,4220.128418,4229.615234,4222.436035,4209.871582,4207.436035,4177.692383,4166.666504,4195.897461,4189.358887,4209.358887,3480.000000,4.000000,82.000000,,,,0.000000,4.000000,4.000000,4.000000,4.000000,4.000000,4.000000,4.000000,4.000000,4.000000,4.000000,4.000000,4.000000,4.000000,4.000000,100.000000,,,,,,,,,,,,,,,,
1644854595.644014,194.000000,0.000000,4189.615234,4182.051270,4219.358887,4189.487305,4222.692383,4228.974121,4225.897461,4210.000000,4209.743652,4182.563965,4157.692383,4198.461426,4187.563965,4215.128418,3540.000000,4.000000,82.000000,,,,0.000000,4.000000,4.000000,4.000000,4.000000,4.000000,4.000000,4.000000,4.000000,4.000000,4.000000,4.000000,4.000000,4.000000,4.000000,100.000000,,,,,,,,,,,,,,,,
1644854595.647955,195.000000,0.000000,4199.102539,4187.179688,4216.410156,4184.487305,4217.436035,4223.717773,4224.102539,4207.179688,4208.589844,4185.256348,4153.717773,4199.358887,4195.384766,4225.128418,2413.000000,4.000000,82.000000,,,,0.000000,4.000000,4.000000,4.000000,4.000000,4.000000,4.000000,4.000000,4.000000,4.000000,4.000000,4.000000,4.000000,4.000000,4.000000,100.000000,,,,,,,,,,,,,,,,
1644854595.651895,196.000000,0.000000,4208.333496,4191.794922,4211.666504,4178.333496,4207.563965,4217.436035,4218.333496,4203.333496,4205.256348,4184.358887,4161.282227,4197.948730,4211.922852,4236.025879,3608.000000,4.000000,82.000000,,,,0.000000,4.000000,4.000000,4.000000,4.000000,4.000000,4.000000,4.000000,4.000000,4.000000,4.000000,4.000000,4.000000,4.000000,4.000000,100.000000,,,,,,,,,,,,,,,,
1644854595.655835,197.000000,0.000000,4213.846191,4191.666504,4209.487305,4177.692383,4197.948730,4213.846191,4213.974121,4201.153809,4201.282227,4181.922852,4181.282227,4192.820313,4231.282227,4245.512695,3480.000000,4.000000,82.000000,,,,0.000000,4.000000,4.000000,4.000000,4.000000,4.000000,4.000000,4.000000,4.000000,4.000000,4.000000,4.000000,4.000000,4.000000,4.000000,100.000000,,,,,,,,,,,,,,,,
1644854595.659775,198.000000,0.000000,4215.256348,4187.563965,4212.179688,4183.333496,4193.461426,4214.358887,4213.717773,4201.922852,4198.077148,4181.025879,4206.282227,4184.615234,4245.897461,4251.666504,3540.000000,4.000000,82.000000,,,,0.000000,4.000000,4.000000,4.000000,4.000000,4.000000,4.000000,4.000000,4.000000,4.000000,4.000000,4.000000,4.000000,4.000000,4.000000,100.000000,,,,,,,,,,,,,,,,
1644854595.663715,199.000000,0.000000,4213.205078,4183.461426,4217.820313,4188.974121,4196.025879,4217.436035,4215.897461,4204.871582,4197.051270,4184.487305,4222.436035,4177.692383,4249.743652,4251.538574,2413.000000,4.000000,82.000000,,,,0.000000,4.000000,4.000000,4.000000,4.000000,4.000000,4.000000,4.000000,4.000000,4.000000,4.000000,4.000000,4.000000,4.000000,4.000000,100.000000,,,,,,,,,,,,,,,,
1644854595.667655,200.000000,0.000000,4206.410156,4182.307617,4222.948730,4187.179688,4204.230957,4220.256348,4216.922852,4208.461426,4199.230957,4191.666504,4216.538574,4178.846191,4239.487305,4241.410156,3608.000000,4.000000,82.000000,,,,0.000000,4.000000,4.000000,4.000000,4.000000,4.000000,4.000000,4.000000,4.000000,4.000000,4.000000,4.000000,4.000000,4.000000,4.000000,100.000000,,,,,,,,,,,,,,,,
1644854595.671595,201.000000,0.000000,4193.589844,4182.692383,4225.000000,4176.794922,4213.461426,4220.897461,4215.769043,4211.794922,4204.615234,4199.230957,4188.205078,4191.153809,4216.922852,4220.128418,3480.000000,4.000000,82.000000,,,,0.000000,4.000000,4.000000,4.000000,4.000000,4.000000,4.000000,4.000000,4.000000,4.000000,4.000000,4.000000,4.000000,4.000000,4.000000,100.000000,,,,,,,,,,,,,,,,
1644854595.675535,202.000000,0.000000,4177.563965,4182.051270,4224.230957,4165.512695,4218.846191,4219.358887,4215.000000,4214.615234,4211.666504,4202.948730,4153.974121,4209.743652,4190.384766,4194.358887,3540.000000,4.000000,82.000000,,,,0.000000,4.000000,4.000000,4.000000,4.000000,4.000000,4.000000,4.000000,4.000000,4.000000,4.000000,4.000000,4.000000,4.000000,4.000000,100.000000,,,,,,,,,,,,,,,,
1644854595.679475,203.000000,0.000000,4165.897461,4181.025879,4222.820313,4163.717773,4217.948730,4217.051270,4216.410156,4217.563965,4218.461426,4201.538574,4137.692383,4224.230957,4174.743652,4176.922852,2413.000000,4.000000,82.000000,,,,0.000000,4.000000,4.000000,4.000000,4.000000,4.000000,4.000000,4.000000,4.000000,4.000000,4.000000,4.000000,4.000000,4.000000,4.000000,100.000000,,,,,,,,,,,,,,,,
1644854595.683415,204.000000,0.000000,4167.051270,4183.974121,4223.846191,4175.769043,4212.820313,4216.153809,4219.487305,4221.282227,4224.358887,4198.205078,4152.051270,4226.922852,4182.563965,4180.128418,3608.000000,4.000000,82.000000,,,,0.000000,4.000000,4.000000,4.000000,4.000000,4.000000,4.000000,4.000000,4.000000,4.000000,4.000000,4.000000,4.000000,4.000000,4.000000,100.000000,,,,,,,,,,,,,,,,
1644854595.687356,205.000000,0.000000,4181.794922,4193.846191,4228.589844,4194.102539,4208.333496,4217.692383,4222.179688,4226.410156,4229.615234,4197.563965,4187.820313,4218.461426,4213.333496,4204.487305,3480.000000,4.000000,82.000000,,,,0.000000,4.000000,4.000000,4.000000,4.000000,4.000000,4.000000,4.000000,4.000000,4.000000,4.000000,4.000000,4.000000,4.000000,4.000000,100.000000,,,,,,,,,,,,,,,,
1644854595.691296,206.000000,0.000000,4203.077148,4208.461426,4235.000000,4206.025879,4208.846191,4221.282227,4223.461426,4232.948730,4234.358887,4202.179688,4221.153809,4206.538574,4250.000000,4235.897461,3540.000000,4.000000,82.000000,,,,0.000000,4.000000,4.000000,4.000000,4.000000,4.000000,4.000000,4.000000,4.000000,4.000000,4.000000,4.000000,4.000000,4.000000,4.000000,100.000000,,,,,,,,,,,,,,,,
1644854595.695236,207.000000,0.000000,4222.436035,4221.922852,4238.974121,4204.615234,4215.641113,4225.256348,4224.487305,4239.743652,4238.717773,4212.436035,4232.820313,4200.512695,4271.922852,4255.000000,2413.000000,4.000000,82.000000,,,,0.000000,4.000000,4.000000,4.000000,4.000000,4.000000,4.000000,4.000000,4.000000,4.000000,4.000000,4.000000,4.000000,4.000000,4.000000,100.000000,,,,,,,,,,,,,,,,
1644854595.699176,208.000000,0.000000,4238.589844,4230.897461,4236.794922,4194.871582,4225.897461,4228.205078,4226.153809,4244.871582,4242.563965,4227.307617,4223.717773,4204.871582,4272.051270,4252.692383,3608.000000,4.000000,82.000000,,,,0.000000,4.000000,4.000000,4.000000,4.000000,4.000000,4.000000,4.000000,4.000000,4.000000,4.000000,4.000000,4.000000,4.000000,4.000000,100.000000,,,,,,,,,,,,,,,,
1644854595.703016,209.000000,0.000000,4254.487305,4235.897461,4227.692383,4188.205078,4234.358887,4229.487305,4227.307617,4246.410156,4245.641113,4243.205078,4211.153809,4214.487305,4262.307617,4236.538574,3480.000000,4.000000,82.000000,,,,0.000000,4.000000,4.000000,4.000000,4.000000,4.000000,4.000000,4.000000,4.000000,4.000000,4.000000,4.000000,4.000000,4.000000,4.000000,100.000000,,,,,,,,,,,,,,,,
1644854595.706956,210.000000,0.000000,4265.641113,4236.794922,4215.769043,4191.025879,4234.871582,4228.974121,4226.538574,4244.230957,4247.051270,4253.077148,4210.897461,4218.717773,4260.128418,4221.025879,3540.000000,4.000000,82.000000,,,,0.000000,4.000000,4.000000,4.000000,4.000000,4.000000,4.000000,4.000000,4.000000,4.000000,4.000000,4.000000,4.000000,4.000000,4.000000,100.000000,,,,,,,,,,,,,,,,
1644854595.710896,211.000000,0.000000,4256.153809,4229.615234,4208.077148,4197.179688,4224.871582,4226.922852,4224.487305,4239.743652,4244.615234,4249.615234,4220.897461,4210.641113,4269.102539,4212.820313,2413.000000,4.000000,82.000000,,,,0.000000,4.000000,4.000000,4.000000,4.000000,4.000000,4.000000,4.000000,4.000000,4.000000,4.000000,4.000000,4.000000,4.000000,4.000000,100.000000,,,,,,,,,,,,,,,,
1644854595.714836,212.000000,0.000000,4209.871582,4209.102539,4211.153809,4194.102539,4208.077148,4223.589844,4222.820313,4233.974121,4237.051270,4230.641113,4221.922852,4195.769043,4273.846191,4205.641113,3608.000000,4.000000,82.000000,,,,0.000000,4.000000,4.000000,4.000000,4.000000,4.000000,4.000000,4.000000,4.000000,4.000000,4.000000,4.000000,4.000000,4.000000,4.000000,100.000000,,,,,,,,,,,,,,,,
1644854595.718777,213.000000,0.000000,4127.692383,4176.153809,4224.871582,4174.615234,4193.333496,4219.871582,4222.307617,4227.563965,4226.538574,4202.307617,4196.666504,4189.102539,4253.974121,4188.717773,3480.000000,4.000000,82.000000,,,,0.000000,4.000000,4.000000,4.000000,4.000000,4.000000,4.000000,4.000000,4.000000,4.000000,4.000000,4.000000,4.000000,4.000000,4.000000,100.000000,,,,,,,,,,,,,,,,
1644854595.722717,214.000000,0.000000,4033.461426,4140.256348,4243.077148,4145.256348,4189.358887,4216.922852,4221.666504,4220.897461,4217.436035,4176.922852,4150.128418,4202.051270,4203.846191,4156.794922,3540.000000,4.000000,82.000000,,,,0.000000,4.000000,4.000000,4.000000,4.000000,4.000000,4.000000,4.000000,4.000000,4.000000,4.000000,4.000000,4.000000,4.000000,4.000000,100.000000,,,,,,,,,,,,,,,,
1644854595.726657,215.000000,0.000000,3965.000000,4116.282227,4257.051270,4122.563965,4197.307617,4216.025879,4220.000000,4216.025879,4214.230957,4166.666504,4111.025879,4231.538574,4140.128418,4115.128418,2413.000000,4.000000,82.000000,,,,0.000000,4.000000,4.000000,4.000000,4.000000,4.000000,4.000000,4.000000,4.000000,4.000000,4.000000,4.000000,4.000000,4.000000,4.000000,100.000000,,,,,,,,,,,,,,,,
1644854595.730597,216.000000,0.000000,3956.923096,4116.153809,4262.307617,4121.794922,4210.256348,4217.692383,4218.974121,4213.974121,4217.051270,4175.384766,4108.205078,4260.512695,4093.589844,4077.948730,3608.000000,4.000000,82.000000,,,,0.000000,4.000000,4.000000,4.000000,4.000000,4.000000,4.000000,4.000000,4.000000,4.000000,4.000000,4.000000,4.000000,4.000000,4.000000,100.000000,,,,,,,,,,,,,,,,
1644854595.734537,217.000000,0.000000,4020.256348,4142.307617,4258.846191,4145.512695,4218.461426,4220.897461,4221.025879,4214.743652,4221.922852,4195.641113,4145.128418,4270.897461,4090.128174,4060.769287,3480.000000,4.000000,82.000000,,,,0.000000,4.000000,4.000000,4.000000,4.000000,4.000000,4.000000,4.000000,4.000000,4.000000,4.000000,4.000000,4.000000,4.000000,4.000000,100.000000,,,,,,,,,,,,,,,,
1644854595.738477,218.000000,0.000000,4126.025879,4185.256348,4249.102539,4181.666504,4216.922852,4224.102539,4226.025879,4216.794922,4224.487305,4214.871582,4193.589844,4257.563965,4131.410156,4070.384521,3540.000000,4.000000,82.000000,,,,0.000000,4.000000,4.000000,4.000000,4.000000,4.000000,4.000000,4.000000,4.000000,4.000000,4.000000,4.000000,4.000000,4.000000,4.000000,100.000000,,,,,,,,,,,,,,,,
1644854595.742417,219.000000,0.000000,4208.589844,4225.897461,4238.077148,4209.487305,4207.820313,4225.128418,4229.743652,4218.461426,4223.589844,4224.230957,4216.153809,4233.589844,4188.974121,4103.333496,2413.000000,4.000000,82.000000,,,,0.000000,4.000000,4.000000,4.000000,4.000000,4.000000,4.000000,4.000000,4.000000,4.000000,4.000000,4.000000,4.000000,4.000000,4.000000,100.000000,,,,,,,,,,,,,,,,
1644854595.746357,220.000000,0.000000,4203.461426,4243.205078,4231.538574,4213.333496,4196.794922,4222.563965,4228.333496,4218.205078,4221.410156,4223.461426,4196.666504,4221.153809,4217.051270,4151.153809,3608.000000,4.000000,82.000000,,,,0.000000,4.000000,4.000000,4.000000,4.000000,4.000000,4.000000,4.000000,4.000000,4.000000,4.000000,4.000000,4.000000,4.000000,4.000000,100.000000,,,,,,,,,,,,,,,,
1644854595.750297,221.000000,0.000000,4095.128174,4226.410156,4235.512695,4191.922852,4188.077148,4216.666504,4222.307617,4215.897461,4220.384766,4217.307617,4153.589844,4235.897461,4183.205078,4209.871582,3480.000000,4.000000,82.000000,,,,0.000000,4.000000,4.000000,4.000000,4.000000,4.000000,4.000000,4.000000,4.000000,4.000000,4.000000,4.000000,4.000000,4.000000,4.000000,100.000000,,,,,,,,,,,,,,,,
1644854595.754237,222.000000,0.000000,3937.564209,4182.948730,4253.589844,4160.256348,4184.102539,4210.256348,4216.794922,4213.077148,4221.025879,4210.256348,4127.051270,4275.897461,4095.641113,4282.820313,3540.000000,4.000000,82.000000,,,,0.000000,4.000000,4.000000,4.000000,4.000000,4.000000,4.000000,4.000000,4.000000,4.000000,4.000000,4.000000,4.000000,4.000000,4.000000,100.000000,,,,,,,,,,,,,,,,
1644854595.758178,223.000000,0.000000,3827.179443,4136.922852,4282.051270,4140.256348,4186.025879,4206.666504,4216.282227,4211.538574,4221.922852,4203.461426,4146.410156,4320.641113,4006.025635,4381.025879,2413.000000,4.000000,82.000000,,,,0.000000,4.000000,4.000000,4.000000,4.000000,4.000000,4.000000,4.000000,4.000000,4.000000,4.000000,4.000000,4.000000,4.000000,4.000000,100.000000,,,,,,,,,,,,,,,,
1644854595.762118,224.000000,0.000000,3849.487061,4117.051270,4308.077148,4146.025879,4194.743652,4208.461426,4220.000000,4211.794922,4222.179688,4197.692383,4209.102539,4341.282227,3981.794922,4524.487305,3608.000000,4.000000,82.000000,,,,0.000000,4.000000,4.000000,4.000000,4.000000,4.000000,4.000000,4.000000,4.000000,4.000000,4.000000,4.000000,4.000000,4.000000,4.000000,100.000000,,,,,,,,,,,,,,,,
1644854595.766058,225.000000,0.000000,4035.512939,4139.358887,4313.333496,4173.846191,4207.820313,4214.358887,4223.846191,4212.051270,4221.794922,4194.743652,4285.256348,4316.922852,4062.307617,4742.307617,3480.000000,4.000000,82.000000,,,,0.000000,4.000000,4.000000,4.000000,4.000000,4.000000,4.000000,4.000000,4.000000,4.000000,4.000000,4.000000,4.000000,4.000000,4.000000,100.000000,,,,,,,,,,,,,,,,
1644854595.769998,226.000000,0.000000,4352.179688,4195.256348,4286.922852,4204.615234,4219.358887,4220.256348,4225.384766,4211.153809,4221.025879,4196.025879,4341.410156,4250.641113,4230.384766,5061.538574,3540.000000,4.000000,82.000000,,,,0.000000,4.000000,4.000000,4.000000,4.000000,4.000000,4.000000,4.000000,4.000000,4.000000,4.000000,4.000000,4.000000,4.000000,4.000000,100.000000,,,,,,,,,,,,,,,,
1644854595.773838,227.000000,0.000000,4725.128418,4255.256348,4237.307617,4217.563965,4222.692383,4221.538574,4225.769043,4209.358887,4220.256348,4200.000000,4364.230957,4171.410156,4418.846191,5485.000000,2413.000000,4.000000,82.000000,,,,0.000000,4.000000,4.000000,4.000000,4.000000,4.000000,4.000000,4.000000,4.000000,4.000000,4.000000,4.000000,4.000000,4.000000,4.000000,100.000000,,,,,,,,,,,,,,,,
1644854595.777778,228.000000,0.000000,5081.410156,4286.538574,4189.743652,4204.230957,4214.487305,4217.179688,4227.051270,4208.077148,4220.512695,4201.538574,4364.743652,4119.487305,4549.230957,5977.948730,3608.000000,4.000000,82.000000,,,,0.000000,4.000000,4.000000,4.000000,4.000000,4.000000,4.000000,4.000000,4.000000,4.000000,4.000000,4.000000,4.000000,4.000000,4.000000,100.000000,,,,,,,,,,,,,,,,
1644854595.781718,229.000000,0.000000,5388.846191,4275.641113,4170.769043,4172.051270,4198.589844,4210.769043,4229.871582,4208.717773,4222.820313,4195.256348,4365.512695,4121.282227,4579.358887,6477.820313,3480.000000,4.000000,82.000000,,,,0.000000,4.000000,4.000000,4.000000,4.000000,4.000000,4.000000,4.000000,4.000000,4.000000,4.000000,4.000000,4.000000,4.000000,4.000000,100.000000,,,,,,,,,,,,,,,,
1644854595.785658,230.000000,0.000000,5670.128418,4237.563965,4189.615234,4137.692383,4184.230957,4207.692383,4233.461426,4211.794922,4227.307617,4181.410156,4384.871582,4173.717773,4526.666504,6922.307617,3540.000000,4.000000,82.000000,,,,0.000000,4.000000,4.000000,4.000000,4.000000,4.000000,4.000000,4.000000,4.000000,4.000000,4.000000,4.000000,4.000000,4.000000,4.000000,100.000000,,,,,,,,,,,,,,,,
1644854595.789599,231.000000,0.000000,5982.307617,4206.025879,4232.307617,4117.436035,4180.897461,4211.410156,4238.974121,4216.666504,4233.717773,4166.538574,4430.897461,4248.846191,4454.102539,7272.051270,2413.000000,4.000000,82.000000,,,,0.000000,4.000000,4.000000,4.000000,4.000000,4.000000,4.000000,4.000000,4.000000,4.000000,4.000000,4.000000,4.000000,4.000000,4.000000,100.000000,,,,,,,,,,,,,,,,
