title:Alex-no5yRhfiPBLFjSBYEaSTUw, start timestamp:1644854526.110843, stop timestamp:1644854552.524111, headset type:EPOCPLUS, headset serial:3B9AEBFF, headset firmware:626, channels:55, sampling rate:eeg_256, samples:6705      , version:2.1, 
Timestamp,EEG.Counter,EEG.Interpolated,EEG.AF3,EEG.F7,EEG.F3,EEG.FC5,EEG.T7,EEG.P7,EEG.O1,EEG.O2,EEG.P8,EEG.T8,EEG.FC6,EEG.F4,EEG.F8,EEG.AF4,EEG.RawCq,EEG.Battery,EEG.BatteryPercent,MarkerIndex,MarkerType,MarkerValueInt,EEG.MarkerHardware,CQ.AF3,CQ.F7,CQ.F3,CQ.FC5,CQ.T7,CQ.P7,CQ.O1,CQ.O2,CQ.P8,CQ.T8,CQ.FC6,CQ.F4,CQ.F8,CQ.AF4,CQ.Overall,EQ.SampleRateQuality,EQ.OVERALL,EQ.AF3,EQ.F7,EQ.F3,EQ.FC5,EQ.T7,EQ.P7,EQ.O1,EQ.O2,EQ.P8,EQ.T8,EQ.FC6,EQ.F4,EQ.F8,EQ.AF4
1644854526.110843,210.000000,0.000000,4185.384766,4198.205078,4228.077148,4236.153809,4211.282227,4220.128418,4227.948730,4225.897461,4215.128418,4228.333496,4212.436035,4191.922852,4195.128418,4162.692383,3524.000000,4.000000,82.000000,,,,0.000000,4.000000,4.000000,4.000000,4.000000,4.000000,4.000000,4.000000,4.000000,4.000000,4.000000,4.000000,4.000000,4.000000,4.000000,100.000000,,,,,,,,,,,,,,,,
1644854526.114883,211.000000,0.000000,4192.179688,4194.102539,4223.205078,4249.230957,4206.538574,4217.179688,4224.743652,4222.820313,4213.717773,4220.769043,4221.922852,4181.922852,4194.230957,4159.230957,2410.000000,4.000000,82.000000,,,,0.000000,4.000000,4.000000,4.000000,4.000000,4.000000,4.000000,4.000000,4.000000,4.000000,4.000000,4.000000,4.000000,4.000000,4.000000,100.000000,,,,,,,,,,,,,,,,
1644854526.118823,212.000000,0.000000,4198.589844,4195.641113,4220.897461,4254.230957,4206.794922,4216.794922,4224.102539,4221.282227,4215.128418,4216.410156,4235.769043,4178.846191,4186.666504,4162.563965,3244.000000,4.000000,82.000000,,,,0.000000,4.000000,4.000000,4.000000,4.000000,4.000000,4.000000,4.000000,4.000000,4.000000,4.000000,4.000000,4.000000,4.000000,4.000000,100.000000,,,,,,,,,,,,,,,,
1644854526.122763,213.000000,0.000000,4200.641113,4202.692383,4223.974121,4252.307617,4210.512695,4220.512695,4226.922852,4221.922852,4218.205078,4217.307617,4247.692383,4183.589844,4179.358887,4171.025879,3510.000000,4.000000,82.000000,,,,0.000000,4.000000,4.000000,4.000000,4.000000,4.000000,4.000000,4.000000,4.000000,4.000000,4.000000,4.000000,4.000000,4.000000,4.000000,100.000000,,,,,,,,,,,,,,,,
1644854526.126703,214.000000,0.000000,4198.846191,4210.897461,4231.666504,4248.974121,4216.282227,4227.948730,4230.641113,4224.102539,4221.794922,4222.179688,4250.512695,4193.717773,4178.461426,4176.153809,3524.000000,4.000000,82.000000,,,,0.000000,4.000000,4.000000,4.000000,4.000000,4.000000,4.000000,4.000000,4.000000,4.000000,4.000000,4.000000,4.000000,4.000000,4.000000,100.000000,,,,,,,,,,,,,,,,
1644854526.130643,215.000000,0.000000,4197.436035,4214.743652,4240.128418,4248.589844,4222.563965,4236.025879,4232.820313,4226.922852,4225.128418,4227.948730,4241.666504,4204.615234,4184.615234,4171.025879,2410.000000,4.000000,82.000000,,,,0.000000,4.000000,4.000000,4.000000,4.000000,4.000000,4.000000,4.000000,4.000000,4.000000,4.000000,4.000000,4.000000,4.000000,4.000000,100.000000,,,,,,,,,,,,,,,,
1644854526.134583,216.000000,0.000000,4199.615234,4212.051270,4245.384766,4249.743652,4227.179688,4240.512695,4233.205078,4229.615234,4227.179688,4231.282227,4226.153809,4212.307617,4192.563965,4157.948730,3244.000000,4.000000,82.000000,,,,0.000000,4.000000,4.000000,4.000000,4.000000,4.000000,4.000000,4.000000,4.000000,4.000000,4.000000,4.000000,4.000000,4.000000,4.000000,100.000000,,,,,,,,,,,,,,,,
1644854526.138523,217.000000,0.000000,4204.487305,4206.025879,4245.256348,4247.948730,4229.230957,4239.102539,4233.589844,4231.922852,4227.692383,4230.641113,4213.589844,4214.871582,4196.153809,4146.538574,3510.000000,4.000000,82.000000,,,,0.000000,4.000000,4.000000,4.000000,4.000000,4.000000,4.000000,4.000000,4.000000,4.000000,4.000000,4.000000,4.000000,4.000000,4.000000,100.000000,,,,,,,,,,,,,,,,
1644854526.142463,218.000000,0.000000,4208.461426,4201.922852,4240.897461,4241.282227,4229.102539,4233.461426,4234.230957,4233.333496,4227.179688,4226.922852,4210.256348,4213.077148,4193.846191,4145.384766,3524.000000,4.000000,82.000000,,,,0.000000,4.000000,4.000000,4.000000,4.000000,4.000000,4.000000,4.000000,4.000000,4.000000,4.000000,4.000000,4.000000,4.000000,4.000000,100.000000,,,,,,,,,,,,,,,,
1644854526.146403,219.000000,0.000000,4207.563965,4203.077148,4235.000000,4233.717773,4228.461426,4227.563965,4233.077148,4233.205078,4226.922852,4223.205078,4215.384766,4209.230957,4189.102539,4155.000000,2410.000000,4.000000,82.000000,,,,0.000000,4.000000,4.000000,4.000000,4.000000,4.000000,4.000000,4.000000,4.000000,4.000000,4.000000,4.000000,4.000000,4.000000,4.000000,100.000000,,,,,,,,,,,,,,,,
1644854526.150343,220.000000,0.000000,4201.410156,4206.922852,4230.641113,4231.922852,4228.205078,4225.256348,4229.487305,4231.153809,4226.794922,4222.563965,4222.179688,4205.641113,4186.538574,4167.948730,3244.000000,4.000000,82.000000,,,,0.000000,4.000000,4.000000,4.000000,4.000000,4.000000,4.000000,4.000000,4.000000,4.000000,4.000000,4.000000,4.000000,4.000000,4.000000,100.000000,,,,,,,,,,,,,,,,
1644854526.154284,221.000000,0.000000,4191.794922,4207.179688,4229.487305,4237.948730,4228.205078,4226.922852,4226.282227,4227.692383,4225.641113,4224.487305,4224.487305,4202.948730,4187.436035,4175.769043,3510.000000,4.000000,82.000000,,,,0.000000,4.000000,4.000000,4.000000,4.000000,4.000000,4.000000,4.000000,4.000000,4.000000,4.000000,4.000000,4.000000,4.000000,4.000000,100.000000,,,,,,,,,,,,,,,,
1644854526.158224,222.000000,0.000000,4182.051270,4200.000000,4230.384766,4246.666504,4227.820313,4230.384766,4226.282227,4224.358887,4223.205078,4226.025879,4221.666504,4200.641113,4189.487305,4174.358887,3524.000000,4.000000,82.000000,,,,0.000000,4.000000,4.000000,4.000000,4.000000,4.000000,4.000000,4.000000,4.000000,4.000000,4.000000,4.000000,4.000000,4.000000,4.000000,100.000000,,,,,,,,,,,,,,,,
1644854526.162164,223.000000,0.000000,4175.256348,4188.333496,4231.282227,4250.641113,4226.282227,4233.077148,4229.487305,4223.461426,4221.410156,4225.384766,4219.230957,4199.102539,4189.743652,4165.897461,2410.000000,4.000000,82.000000,,,,0.000000,4.000000,4.000000,4.000000,4.000000,4.000000,4.000000,4.000000,4.000000,4.000000,4.000000,4.000000,4.000000,4.000000,4.000000,100.000000,,,,,,,,,,,,,,,,
1644854526.166104,224.000000,0.000000,4173.974121,4180.512695,4230.897461,4246.410156,4223.077148,4233.846191,4232.436035,4225.769043,4222.948730,4225.256348,4222.307617,4199.358887,4188.974121,4156.410156,3244.000000,4.000000,82.000000,,,,0.000000,4.000000,4.000000,4.000000,4.000000,4.000000,4.000000,4.000000,4.000000,4.000000,4.000000,4.000000,4.000000,4.000000,4.000000,100.000000,,,,,,,,,,,,,,,,
1644854526.170044,225.000000,0.000000,4180.000000,4182.948730,4230.512695,4237.692383,4218.717773,4233.077148,4232.436035,4230.769043,4228.333496,4229.743652,4231.538574,4202.692383,4191.282227,4152.948730,3510.000000,4.000000,82.000000,,,,0.000000,4.000000,4.000000,4.000000,4.000000,4.000000,4.000000,4.000000,4.000000,4.000000,4.000000,4.000000,4.000000,4.000000,4.000000,100.000000,,,,,,,,,,,,,,,,
1644854526.173984,226.000000,0.000000,4191.282227,4194.487305,4232.436035,4231.410156,4214.615234,4232.307617,4230.769043,4237.179688,4235.128418,4239.871582,4241.153809,4208.846191,4198.846191,4158.077148,3524.000000,4.000000,82.000000,,,,0.000000,4.000000,4.000000,4.000000,4.000000,4.000000,4.000000,4.000000,4.000000,4.000000,4.000000,4.000000,4.000000,4.000000,4.000000,100.000000,,,,,,,,,,,,,,,,
1644854526.177924,227.000000,0.000000,4202.051270,4207.179688,4236.153809,4231.794922,4213.333496,4232.307617,4230.769043,4242.948730,4239.615234,4250.384766,4244.487305,4214.615234,4207.948730,4166.794922,2410.000000,4.000000,82.000000,,,,0.000000,4.000000,4.000000,4.000000,4.000000,4.000000,4.000000,4.000000,4.000000,4.000000,4.000000,4.000000,4.000000,4.000000,4.000000,100.000000,,,,,,,,,,,,,,,,
1644854526.181864,228.000000,0.000000,4203.974121,4212.563965,4238.077148,4237.179688,4216.410156,4232.563965,4232.820313,4245.256348,4239.102539,4253.077148,4239.487305,4216.025879,4210.128418,4168.077148,3244.000000,4.000000,82.000000,,,,0.000000,4.000000,4.000000,4.000000,4.000000,4.000000,4.000000,4.000000,4.000000,4.000000,4.000000,4.000000,4.000000,4.000000,4.000000,100.000000,,,,,,,,,,,,,,,,
1644854526.185804,229.000000,0.000000,4192.820313,4208.077148,4234.358887,4241.794922,4223.333496,4232.692383,4233.974121,4242.179688,4234.102539,4243.974121,4230.384766,4210.512695,4200.512695,4154.743652,3510.000000,4.000000,82.000000,,,,0.000000,4.000000,4.000000,4.000000,4.000000,4.000000,4.000000,4.000000,4.000000,4.000000,4.000000,4.000000,4.000000,4.000000,4.000000,100.000000,,,,,,,,,,,,,,,,
1644854526.189745,230.000000,0.000000,4172.563965,4197.820313,4225.512695,4240.897461,4231.666504,4232.051270,4231.538574,4234.743652,4226.666504,4227.051270,4223.333496,4199.743652,4182.820313,4131.410156,3524.000000,4.000000,82.000000,,,,0.000000,4.000000,4.000000,4.000000,4.000000,4.000000,4.000000,4.000000,4.000000,4.000000,4.000000,4.000000,4.000000,4.000000,4.000000,100.000000,,,,,,,,,,,,,,,,
1644854526.193585,231.000000,0.000000,4153.589844,4188.717773,4215.512695,4234.743652,4237.563965,4230.769043,4226.794922,4226.538574,4219.615234,4211.153809,4219.487305,4188.717773,4167.179688,4111.282227,2410.000000,4.000000,82.000000,,,,0.000000,4.000000,4.000000,4.000000,4.000000,4.000000,4.000000,4.000000,4.000000,4.000000,4.000000,4.000000,4.000000,4.000000,4.000000,100.000000,,,,,,,,,,,,,,,,
1644854526.197525,232.000000,0.000000,4145.512695,4185.128418,4210.000000,4228.589844,4238.077148,4228.974121,4223.717773,4221.794922,4215.000000,4203.717773,4215.384766,4183.077148,4161.025879,4106.025879,3244.000000,4.000000,82.000000,,,,0.000000,4.000000,4.000000,4.000000,4.000000,4.000000,4.000000,4.000000,4.000000,4.000000,4.000000,4.000000,4.000000,4.000000,4.000000,100.000000,,,,,,,,,,,,,,,,
1644854526.201465,233.000000,0.000000,4151.025879,4186.666504,4210.769043,4227.563965,4232.436035,4227.179688,4223.974121,4222.051270,4214.230957,4207.051270,4207.692383,4185.256348,4164.871582,4115.769043,3510.000000,4.000000,82.000000,,,,0.000000,4.000000,4.000000,4.000000,4.000000,4.000000,4.000000,4.000000,4.000000,4.000000,4.000000,4.000000,4.000000,4.000000,4.000000,100.000000,,,,,,,,,,,,,,,,
1644854526.205405,234.000000,0.000000,4164.487305,4189.487305,4215.641113,4230.641113,4223.461426,4225.769043,4225.641113,4225.384766,4216.666504,4217.820313,4199.615234,4192.948730,4172.563965,4130.512695,3524.000000,4.000000,82.000000,,,,0.000000,4.000000,4.000000,4.000000,4.000000,4.000000,4.000000,4.000000,4.000000,4.000000,4.000000,4.000000,4.000000,4.000000,4.000000,100.000000,,,,,,,,,,,,,,,,
1644854526.209345,235.000000,0.000000,4176.410156,4190.769043,4219.358887,4232.692383,4216.538574,4224.230957,4225.256348,4227.948730,4219.743652,4229.487305,4198.461426,4200.000000,4178.205078,4140.000000,2410.000000,4.000000,82.000000,,,,0.000000,4.000000,4.000000,4.000000,4.000000,4.000000,4.000000,4.000000,4.000000,4.000000,4.000000,4.000000,4.000000,4.000000,4.000000,100.000000,,,,,,,,,,,,,,,,
1644854526.213285,236.000000,0.000000,4180.769043,4191.153809,4218.846191,4230.641113,4215.128418,4222.179688,4222.307617,4227.179688,4220.641113,4235.769043,4207.051270,4200.769043,4180.512695,4142.563965,3244.000000,4.000000,82.000000,,,,0.000000,4.000000,4.000000,4.000000,4.000000,4.000000,4.000000,4.000000,4.000000,4.000000,4.000000,4.000000,4.000000,4.000000,4.000000,100.000000,,,,,,,,,,,,,,,,
1644854526.217225,237.000000,0.000000,4178.205078,4193.461426,4215.256348,4226.538574,4218.717773,4219.871582,4219.230957,4223.589844,4218.589844,4233.846191,4219.358887,4193.974121,4182.436035,4142.563965,3510.000000,4.000000,82.000000,,,,0.000000,4.000000,4.000000,4.000000,4.000000,4.000000,4.000000,4.000000,4.000000,4.000000,4.000000,4.000000,4.000000,4.000000,4.000000,100.000000,,,,,,,,,,,,,,,,
1644854526.221165,238.000000,0.000000,4173.589844,4198.717773,4213.333496,4225.384766,4222.948730,4217.948730,4218.333496,4219.743652,4214.743652,4225.128418,4226.025879,4184.358887,4186.666504,4143.974121,3524.000000,4.000000,82.000000,,,,0.000000,4.000000,4.000000,4.000000,4.000000,4.000000,4.000000,4.000000,4.000000,4.000000,4.000000,4.000000,4.000000,4.000000,4.000000,100.000000,,,,,,,,,,,,,,,,
1644854526.225106,239.000000,0.000000,4171.666504,4205.000000,4216.410156,4228.717773,4223.077148,4217.307617,4219.358887,4217.948730,4211.794922,4214.102539,4223.077148,4178.461426,4192.307617,4145.897461,2410.000000,4.000000,82.000000,,,,0.000000,4.000000,4.000000,4.000000,4.000000,4.000000,4.000000,4.000000,4.000000,4.000000,4.000000,4.000000,4.000000,4.000000,4.000000,100.000000,,,,,,,,,,,,,,,,
1644854526.229046,240.000000,0.000000,4173.974121,4208.589844,4223.333496,4232.692383,4218.333496,4217.820313,4220.256348,4218.717773,4211.794922,4206.025879,4216.153809,4180.769043,4195.897461,4145.512695,3244.000000,4.000000,82.000000,,,,0.000000,4.000000,4.000000,4.000000,4.000000,4.000000,4.000000,4.000000,4.000000,4.000000,4.000000,4.000000,4.000000,4.000000,4.000000,100.000000,,,,,,,,,,,,,,,,
1644854526.232986,241.000000,0.000000,4179.102539,4207.692383,4229.871582,4231.538574,4212.820313,4218.461426,4220.641113,4221.410156,4214.358887,4204.743652,4214.615234,4189.743652,4194.102539,4142.307617,3510.000000,4.000000,82.000000,,,,0.000000,4.000000,4.000000,4.000000,4.000000,4.000000,4.000000,4.000000,4.000000,4.000000,4.000000,4.000000,4.000000,4.000000,4.000000,100.000000,,,,,,,,,,,,,,,,
1644854526.236926,242.000000,0.000000,4184.487305,4204.230957,4231.922852,4224.487305,4212.051270,4217.948730,4221.666504,4223.846191,4217.051270,4210.769043,4222.563965,4200.000000,4187.436035,4138.717773,3524.000000,4.000000,82.000000,,,,0.000000,4.000000,4.000000,4.000000,4.000000,4.000000,4.000000,4.000000,4.000000,4.000000,4.000000,4.000000,4.000000,4.000000,4.000000,100.000000,,,,,,,,,,,,,,,,
1644854526.240866,243.000000,0.000000,4188.461426,4201.922852,4228.974121,4216.410156,4217.692383,4216.282227,4223.461426,4224.487305,4218.077148,4220.256348,4234.871582,4205.000000,4179.871582,4136.794922,2410.000000,4.000000,82.000000,,,,0.000000,4.000000,4.000000,4.000000,4.000000,4.000000,4.000000,4.000000,4.000000,4.000000,4.000000,4.000000,4.000000,4.000000,4.000000,100.000000,,,,,,,,,,,,,,,,
1644854526.244806,244.000000,0.000000,4191.410156,4202.948730,4224.102539,4213.717773,4226.153809,4214.487305,4224.102539,4222.692383,4216.410156,4227.820313,4241.794922,4202.179688,4177.051270,4136.410156,3244.000000,4.000000,82.000000,,,,0.000000,4.000000,4.000000,4.000000,4.000000,4.000000,4.000000,4.000000,4.000000,4.000000,4.000000,4.000000,4.000000,4.000000,4.000000,100.000000,,,,,,,,,,,,,,,,
1644854526.248746,245.000000,0.000000,4193.974121,4205.897461,4220.512695,4218.589844,4231.666504,4214.487305,4221.922852,4219.487305,4213.077148,4230.000000,4237.307617,4194.102539,4181.538574,4136.922852,3510.000000,4.000000,82.000000,,,,0.000000,4.000000,4.000000,4.000000,4.000000,4.000000,4.000000,4.000000,4.000000,4.000000,4.000000,4.000000,4.000000,4.000000,4.000000,100.000000,,,,,,,,,,,,,,,,
1644854526.252686,246.000000,0.000000,4195.769043,4207.692383,4219.615234,4226.666504,4231.153809,4216.282227,4218.589844,4217.051270,4210.512695,4226.922852,4225.000000,4186.666504,4190.384766,4138.205078,3524.000000,4.000000,82.000000,,,,0.000000,4.000000,4.000000,4.000000,4.000000,4.000000,4.000000,4.000000,4.000000,4.000000,4.000000,4.000000,4.000000,4.000000,4.000000,100.000000,,,,,,,,,,,,,,,,
1644854526.256626,247.000000,0.000000,4194.871582,4206.538574,4220.641113,4231.025879,4225.897461,4218.205078,4217.051270,4217.179688,4210.000000,4221.666504,4214.230957,4184.358887,4197.563965,4141.025879,2410.000000,4.000000,82.000000,,,,0.000000,4.000000,4.000000,4.000000,4.000000,4.000000,4.000000,4.000000,4.000000,4.000000,4.000000,4.000000,4.000000,4.000000,4.000000,100.000000,,,,,,,,,,,,,,,,
1644854526.260666,248.000000,0.000000,4190.128418,4203.077148,4222.307617,4228.461426,4219.230957,4218.333496,4218.717773,4219.743652,4211.666504,4216.922852,4212.948730,4187.051270,4198.974121,4145.000000,3244.000000,4.000000,82.000000,,,,0.000000,4.000000,4.000000,4.000000,4.000000,4.000000,4.000000,4.000000,4.000000,4.000000,4.000000,4.000000,4.000000,4.000000,4.000000,100.000000,,,,,,,,,,,,,,,,
1644854526.264607,249.000000,0.000000,4183.461426,4200.128418,4223.846191,4221.538574,4214.102539,4216.666504,4221.025879,4222.179688,4213.846191,4215.256348,4220.000000,4192.051270,4195.000000,4147.692383,3510.000000,4.000000,82.000000,,,,0.000000,4.000000,4.000000,4.000000,4.000000,4.000000,4.000000,4.000000,4.000000,4.000000,4.000000,4.000000,4.000000,4.000000,4.000000,100.000000,,,,,,,,,,,,,,,,
1644854526.268547,250.000000,0.000000,4177.692383,4199.487305,4225.384766,4216.922852,4210.512695,4215.256348,4220.641113,4222.692383,4215.256348,4218.077148,4226.153809,4197.179688,4188.205078,4146.922852,3524.000000,4.000000,82.000000,,,,0.000000,4.000000,4.000000,4.000000,4.000000,4.000000,4.000000,4.000000,4.000000,4.000000,4.000000,4.000000,4.000000,4.000000,4.000000,100.000000,,,,,,,,,,,,,,,,
1644854526.272487,251.000000,0.000000,4175.000000,4200.512695,4227.436035,4220.000000,4207.051270,4216.410156,4218.077148,4221.794922,4215.641113,4224.487305,4223.077148,4201.410156,4180.384766,4142.948730,2410.000000,4.000000,82.000000,,,,0.000000,4.000000,4.000000,4.000000,4.000000,4.000000,4.000000,4.000000,4.000000,4.000000,4.000000,4.000000,4.000000,4.000000,4.000000,100.000000,,,,,,,,,,,,,,,,
1644854526.276427,252.000000,0.000000,4175.256348,4200.641113,4230.512695,4228.846191,4204.743652,4220.256348,4216.922852,4221.538574,4216.153809,4230.897461,4211.794922,4205.769043,4172.563965,4138.717773,3244.000000,4.000000,82.000000,,,,0.000000,4.000000,4.000000,4.000000,4.000000,4.000000,4.000000,4.000000,4.000000,4.000000,4.000000,4.000000,4.000000,4.000000,4.000000,100.000000,,,,,,,,,,,,,,,,
1644854526.280367,253.000000,0.000000,4177.179688,4199.102539,4234.358887,4235.256348,4207.179688,4225.000000,4219.871582,4223.974121,4217.692383,4233.589844,4203.846191,4210.512695,4167.563965,4137.179688,3510.000000,4.000000,82.000000,,,,0.000000,4.000000,4.000000,4.000000,4.000000,4.000000,4.000000,4.000000,4.000000,4.000000,4.000000,4.000000,4.000000,4.000000,4.000000,100.000000,,,,,,,,,,,,,,,,
1644854526.284307,254.000000,0.000000,4180.769043,4198.077148,4236.922852,4232.051270,4217.563965,4228.077148,4225.256348,4228.589844,4220.512695,4230.897461,4209.615234,4214.743652,4168.974121,4139.615234,3524.000000,4.000000,82.000000,,,,0.000000,4.000000,4.000000,4.000000,4.000000,4.000000,4.000000,4.000000,4.000000,4.000000,4.000000,4.000000,4.000000,4.000000,4.000000,100.000000,,,,,,,,,,,,,,,,
1644854526.288247,255.000000,0.000000,4185.641113,4199.615234,4235.769043,4220.512695,4233.077148,4227.563965,4228.589844,4232.820313,4223.333496,4225.128418,4228.589844,4215.256348,4177.948730,4144.230957,112.000000,4.000000,82.000000,,,,0.000000,4.000000,4.000000,4.000000,4.000000,4.000000,4.000000,4.000000,4.000000,4.000000,4.000000,4.000000,4.000000,4.000000,4.000000,100.000000,,,,,,,,,,,,,,,,
1644854526.292187,0.000000,0.000000,4190.641113,4203.589844,4230.641113,4210.000000,4244.615234,4223.461426,4227.820313,4233.717773,4224.487305,4219.487305,4248.717773,4209.358887,4191.025879,4149.230957,3421.000000,4.000000,82.000000,,,,0.000000,4.000000,4.000000,4.000000,4.000000,4.000000,4.000000,4.000000,4.000000,4.000000,4.000000,4.000000,4.000000,4.000000,4.000000,100.000000,,,,,,,,,,,,,,,,
1644854526.296127,1.000000,0.000000,4192.692383,4207.563965,4224.487305,4208.461426,4243.846191,4218.461426,4225.641113,4230.641113,4222.563965,4216.282227,4257.051270,4198.077148,4201.538574,4153.589844,3444.000000,4.000000,82.000000,,,,0.000000,4.000000,4.000000,4.000000,4.000000,4.000000,4.000000,4.000000,4.000000,4.000000,4.000000,4.000000,4.000000,4.000000,4.000000,100.000000,,,,,,,,,,,,,,,,
1644854526.300067,2.000000,0.000000,4189.743652,4209.487305,4221.538574,4215.000000,4230.897461,4215.897461,4225.641113,4225.512695,4217.820313,4216.153809,4249.358887,4186.666504,4205.512695,4157.179688,3536.000000,4.000000,82.000000,,,,0.000000,4.000000,4.000000,4.000000,4.000000,4.000000,4.000000,4.000000,4.000000,4.000000,4.000000,4.000000,4.000000,4.000000,4.000000,100.000000,,,,,,,,,,,,,,,,
1644854526.304008,3.000000,0.000000,4182.948730,4209.102539,4223.205078,4221.794922,4215.769043,4217.179688,4227.692383,4221.282227,4212.436035,4219.358887,4233.205078,4181.153809,4203.717773,4158.846191,3521.000000,4.000000,82.000000,,,,0.000000,4.000000,4.000000,4.000000,4.000000,4.000000,4.000000,4.000000,4.000000,4.000000,4.000000,4.000000,4.000000,4.000000,4.000000,100.000000,,,,,,,,,,,,,,,,
1644854526.307948,4.000000,0.000000,4175.769043,4207.563965,4227.179688,4221.922852,4209.358887,4220.512695,4228.846191,4219.615234,4209.743652,4224.358887,4219.871582,4183.205078,4200.512695,4158.205078,3673.000000,4.000000,82.000000,,,,0.000000,4.000000,4.000000,4.000000,4.000000,4.000000,4.000000,4.000000,4.000000,4.000000,4.000000,4.000000,4.000000,4.000000,4.000000,100.000000,,,,,,,,,,,,,,,,
1644854526.311888,5.000000,0.000000,4171.794922,4205.128418,4229.102539,4217.179688,4213.974121,4222.436035,4226.666504,4220.256348,4210.512695,4228.589844,4215.256348,4189.102539,4197.948730,4155.641113,3371.000000,4.000000,82.000000,,,,0.000000,4.000000,4.000000,4.000000,4.000000,4.000000,4.000000,4.000000,4.000000,4.000000,4.000000,4.000000,4.000000,4.000000,4.000000,100.000000,,,,,,,,,,,,,,,,
1644854526.315828,6.000000,0.000000,4171.410156,4201.282227,4226.282227,4214.615234,4221.538574,4220.641113,4222.948730,4221.794922,4212.179688,4228.846191,4216.153809,4192.692383,4194.358887,4151.922852,2787.000000,4.000000,82.000000,,,,0.000000,4.000000,4.000000,4.000000,4.000000,4.000000,4.000000,4.000000,4.000000,4.000000,4.000000,4.000000,4.000000,4.000000,4.000000,100.000000,,,,,,,,,,,,,,,,
1644854526.319768,7.000000,0.000000,4173.461426,4195.384766,4219.358887,4219.358887,4222.179688,4215.897461,4220.384766,4222.563965,4212.563965,4224.871582,4216.153809,4191.538574,4187.436035,4146.922852,3025.000000,4.000000,82.000000,,,,0.000000,4.000000,4.000000,4.000000,4.000000,4.000000,4.000000,4.000000,4.000000,4.000000,4.000000,4.000000,4.000000,4.000000,4.000000,100.000000,,,,,,,,,,,,,,,,
1644854526.323708,8.000000,0.000000,4177.051270,4188.589844,4212.051270,4228.846191,4213.461426,4211.922852,4219.743652,4221.794922,4211.666504,4219.358887,4213.205078,4188.333496,4178.333496,4140.128418,3306.000000,4.000000,82.000000,,,,0.000000,4.000000,4.000000,4.000000,4.000000,4.000000,4.000000,4.000000,4.000000,4.000000,4.000000,4.000000,4.000000,4.000000,4.000000,100.000000,,,,,,,,,,,,,,,,
1644854526.327648,9.000000,0.000000,4181.538574,4183.974121,4208.077148,4235.256348,4202.692383,4211.794922,4219.230957,4219.743652,4211.153809,4216.410156,4211.282227,4187.179688,4171.922852,4132.436035,3501.000000,4.000000,82.000000,,,,0.000000,4.000000,4.000000,4.000000,4.000000,4.000000,4.000000,4.000000,4.000000,4.000000,4.000000,4.000000,4.000000,4.000000,4.000000,100.000000,,,,,,,,,,,,,,,,
1644854526.331588,10.000000,0.000000,4185.512695,4184.102539,4208.846191,4232.820313,4199.487305,4214.871582,4217.820313,4217.179688,4212.051270,4216.922852,4215.000000,4188.333496,4171.794922,4127.692383,3528.000000,4.000000,82.000000,,,,0.000000,4.000000,4.000000,4.000000,4.000000,4.000000,4.000000,4.000000,4.000000,4.000000,4.000000,4.000000,4.000000,4.000000,4.000000,100.000000,,,,,,,,,,,,,,,,
1644854526.335528,11.000000,0.000000,4186.666504,4188.974121,4212.051270,4223.077148,4206.666504,4217.051270,4216.153809,4214.743652,4212.948730,4217.820313,4223.333496,4188.077148,4176.666504,4128.589844,2409.000000,4.000000,82.000000,,,,0.000000,4.000000,4.000000,4.000000,4.000000,4.000000,4.000000,4.000000,4.000000,4.000000,4.000000,4.000000,4.000000,4.000000,4.000000,100.000000,,,,,,,,,,,,,,,,
1644854526.339469,12.000000,0.000000,4183.717773,4195.641113,4213.461426,4213.846191,4218.333496,4214.615234,4215.128418,4212.820313,4211.410156,4216.410156,4228.846191,4183.461426,4181.666504,4133.333496,3561.000000,4.000000,82.000000,,,,0.000000,4.000000,4.000000,4.000000,4.000000,4.000000,4.000000,4.000000,4.000000,4.000000,4.000000,4.000000,4.000000,4.000000,4.000000,100.000000,,,,,,,,,,,,,,,,
1644854526.343409,13.000000,0.000000,4178.077148,4201.410156,4210.384766,4211.666504,4224.871582,4208.461426,4214.102539,4211.794922,4207.307617,4214.230957,4225.384766,4176.922852,4182.692383,4136.538574,3487.000000,4.000000,82.000000,,,,0.000000,4.000000,4.000000,4.000000,4.000000,4.000000,4.000000,4.000000,4.000000,4.000000,4.000000,4.000000,4.000000,4.000000,4.000000,100.000000,,,,,,,,,,,,,,,,
1644854526.347349,14.000000,0.000000,4172.051270,4204.487305,4204.102539,4214.871582,4221.410156,4202.948730,4212.179688,4211.794922,4203.077148,4214.102539,4214.358887,4173.974121,4180.128418,4134.358887,3528.000000,4.000000,82.000000,,,,0.000000,4.000000,4.000000,4.000000,4.000000,4.000000,4.000000,4.000000,4.000000,4.000000,4.000000,4.000000,4.000000,4.000000,4.000000,100.000000,,,,,,,,,,,,,,,,
1644854526.351289,15.000000,0.000000,4166.153809,4204.615234,4198.974121,4216.153809,4211.538574,4201.666504,4209.871582,4212.307617,4201.282227,4216.153809,4203.846191,4177.051270,4176.794922,4129.102539,2409.000000,4.000000,82.000000,,,,0.000000,4.000000,4.000000,4.000000,4.000000,4.000000,4.000000,4.000000,4.000000,4.000000,4.000000,4.000000,4.000000,4.000000,4.000000,100.000000,,,,,,,,,,,,,,,,
1644854526.355229,16.000000,0.000000,4159.615234,4201.666504,4198.333496,4209.871582,4203.589844,4204.230957,4209.871582,4212.563965,4201.794922,4216.538574,4201.153809,4183.461426,4176.025879,4126.153809,3561.000000,4.000000,82.000000,,,,0.000000,4.000000,4.000000,4.000000,4.000000,4.000000,4.000000,4.000000,4.000000,4.000000,4.000000,4.000000,4.000000,4.000000,4.000000,100.000000,1.000000,83.333336,3.000000,4.000000,4.000000,4.000000,4.000000,4.000000,4.000000,4.000000,4.000000,4.000000,4.000000,4.000000,4.000000,3.000000
1644854526.359169,17.000000,0.000000,4152.051270,4196.666504,4201.794922,4198.846191,4202.820313,4207.436035,4212.692383,4212.179688,4202.051270,4212.179688,4206.282227,4186.538574,4177.692383,4128.333496,3487.000000,4.000000,82.000000,,,,0.000000,4.000000,4.000000,4.000000,4.000000,4.000000,4.000000,4.000000,4.000000,4.000000,4.000000,4.000000,4.000000,4.000000,4.000000,100.000000,,,,,,,,,,,,,,,,
1644854526.363109,18.000000,0.000000,4146.282227,4192.307617,4205.128418,4192.563965,4208.077148,4208.974121,4216.025879,4210.897461,4200.641113,4204.871582,4212.948730,4181.794922,4180.128418,4132.820313,3528.000000,4.000000,82.000000,,,,0.000000,4.000000,4.000000,4.000000,4.000000,4.000000,4.000000,4.000000,4.000000,4.000000,4.000000,4.000000,4.000000,4.000000,4.000000,100.000000,,,,,,,,,,,,,,,,
1644854526.367049,19.000000,0.000000,4146.153809,4190.769043,4204.743652,4198.589844,4213.333496,4208.589844,4216.410156,4208.846191,4198.077148,4199.615234,4214.487305,4170.256348,4180.769043,4135.641113,2409.000000,4.000000,82.000000,,,,0.000000,4.000000,4.000000,4.000000,4.000000,4.000000,4.000000,4.000000,4.000000,4.000000,4.000000,4.000000,4.000000,4.000000,4.000000,100.000000,,,,,,,,,,,,,,,,
1644854526.370989,20.000000,0.000000,4152.179688,4192.307617,4200.897461,4214.615234,4214.358887,4207.948730,4213.077148,4206.410156,4196.153809,4199.743652,4209.615234,4158.333496,4178.333496,4135.897461,3561.000000,4.000000,82.000000,,,,0.000000,4.000000,4.000000,4.000000,4.000000,4.000000,4.000000,4.000000,4.000000,4.000000,4.000000,4.000000,4.000000,4.000000,4.000000,100.000000,,,,,,,,,,,,,,,,
1644854526.374929,21.000000,0.000000,4159.615234,4195.512695,4197.692383,4229.743652,4211.922852,4208.461426,4209.230957,4204.871582,4196.025879,4203.974121,4202.179688,4152.692383,4173.333496,4136.025879,3487.000000,4.000000,82.000000,,,,0.000000,4.000000,4.000000,4.000000,4.000000,4.000000,4.000000,4.000000,4.000000,4.000000,4.000000,4.000000,4.000000,4.000000,4.000000,100.000000,,,,,,,,,,,,,,,,
1644854526.378870,22.000000,0.000000,4162.948730,4198.077148,4198.846191,4233.717773,4210.641113,4209.871582,4208.461426,4204.615234,4196.922852,4208.205078,4197.436035,4155.512695,4167.692383,4137.436035,3528.000000,4.000000,82.000000,,,,0.000000,4.000000,4.000000,4.000000,4.000000,4.000000,4.000000,4.000000,4.000000,4.000000,4.000000,4.000000,4.000000,4.000000,4.000000,100.000000,,,,,,,,,,,,,,,,
1644854526.382810,23.000000,0.000000,4160.641113,4198.589844,4204.743652,4225.256348,4214.230957,4211.666504,4210.641113,4205.769043,4198.717773,4209.487305,4198.461426,4163.846191,4163.846191,4137.563965,2409.000000,4.000000,82.000000,,,,0.000000,4.000000,4.000000,4.000000,4.000000,4.000000,4.000000,4.000000,4.000000,4.000000,4.000000,4.000000,4.000000,4.000000,4.000000,100.000000,,,,,,,,,,,,,,,,
1644854526.386750,24.000000,0.000000,4157.307617,4198.077148,4212.179688,4213.461426,4222.563965,4212.948730,4212.692383,4207.948730,4201.282227,4207.692383,4203.717773,4171.666504,4163.589844,4134.487305,3561.000000,4.000000,82.000000,,,,0.000000,4.000000,4.000000,4.000000,4.000000,4.000000,4.000000,4.000000,4.000000,4.000000,4.000000,4.000000,4.000000,4.000000,4.000000,100.000000,,,,,,,,,,,,,,,,
1644854526.390690,25.000000,0.000000,4158.589844,4198.077148,4217.820313,4208.461426,4230.256348,4214.102539,4212.563965,4210.769043,4204.871582,4204.743652,4208.461426,4175.000000,4166.282227,4129.871582,3487.000000,4.000000,82.000000,,,,0.000000,4.000000,4.000000,4.000000,4.000000,4.000000,4.000000,4.000000,4.000000,4.000000,4.000000,4.000000,4.000000,4.000000,4.000000,100.000000,,,,,,,,,,,,,,,,
1644854526.394630,26.000000,0.000000,4166.025879,4199.487305,4219.871582,4213.589844,4231.025879,4215.256348,4212.051270,4213.461426,4208.205078,4202.948730,4207.948730,4173.589844,4169.230957,4128.589844,3528.000000,4.000000,82.000000,,,,0.000000,4.000000,4.000000,4.000000,4.000000,4.000000,4.000000,4.000000,4.000000,4.000000,4.000000,4.000000,4.000000,4.000000,4.000000,100.000000,,,,,,,,,,,,,,,,
1644854526.398570,27.000000,0.000000,4175.384766,4201.153809,4218.846191,4223.589844,4223.333496,4215.641113,4213.205078,4214.871582,4209.102539,4203.461426,4202.436035,4170.128418,4169.358887,4133.333496,2409.000000,4.000000,82.000000,,,,0.000000,4.000000,4.000000,4.000000,4.000000,4.000000,4.000000,4.000000,4.000000,4.000000,4.000000,4.000000,4.000000,4.000000,4.000000,100.000000,,,,,,,,,,,,,,,,
1644854526.402410,28.000000,0.000000,4179.615234,4201.410156,4216.282227,4231.922852,4212.051270,4213.846191,4215.256348,4213.974121,4207.179688,4206.410156,4196.538574,4167.692383,4166.282227,4141.025879,3561.000000,4.000000,82.000000,,,,0.000000,4.000000,4.000000,4.000000,4.000000,4.000000,4.000000,4.000000,4.000000,4.000000,4.000000,4.000000,4.000000,4.000000,4.000000,100.000000,,,,,,,,,,,,,,,,
1644854526.406350,29.000000,0.000000,4175.641113,4199.743652,4214.487305,4235.128418,4205.769043,4209.743652,4215.512695,4211.153809,4203.717773,4210.897461,4196.666504,4167.692383,4162.436035,4146.666504,3487.000000,4.000000,82.000000,,,,0.000000,4.000000,4.000000,4.000000,4.000000,4.000000,4.000000,4.000000,4.000000,4.000000,4.000000,4.000000,4.000000,4.000000,4.000000,100.000000,,,,,,,,,,,,,,,,
1644854526.410291,30.000000,0.000000,4166.666504,4197.051270,4214.871582,4234.487305,4208.846191,4205.512695,4212.948730,4208.846191,4201.922852,4215.512695,4204.230957,4169.615234,4160.897461,4147.948730,3528.000000,4.000000,82.000000,,,,0.000000,4.000000,4.000000,4.000000,4.000000,4.000000,4.000000,4.000000,4.000000,4.000000,4.000000,4.000000,4.000000,4.000000,4.000000,100.000000,,,,,,,,,,,,,,,,
1644854526.414231,31.000000,0.000000,4159.615234,4194.871582,4217.436035,4232.307617,4218.589844,4204.102539,4210.256348,4209.102539,4203.333496,4218.461426,4215.897461,4172.948730,4163.589844,4147.436035,2409.000000,4.000000,82.000000,,,,0.000000,4.000000,4.000000,4.000000,4.000000,4.000000,4.000000,4.000000,4.000000,4.000000,4.000000,4.000000,4.000000,4.000000,4.000000,100.000000,,,,,,,,,,,,,,,,
1644854526.418171,32.000000,0.000000,4160.384766,4194.487305,4220.384766,4229.871582,4227.820313,4206.794922,4210.512695,4212.179688,4206.794922,4218.717773,4225.512695,4177.820313,4169.615234,4148.589844,0.000000,4.000000,82.000000,,,,0.000000,4.000000,4.000000,4.000000,4.000000,4.000000,4.000000,4.000000,4.000000,4.000000,4.000000,4.000000,4.000000,4.000000,4.000000,100.000000,,,,,,,,,,,,,,,,
1644854526.422111,33.000000,0.000000,4168.974121,4196.282227,4221.538574,4226.538574,4231.153809,4212.307617,4213.589844,4216.025879,4209.743652,4216.922852,4230.000000,4183.077148,4176.282227,4151.153809,0.000000,4.000000,82.000000,,,,0.000000,4.000000,4.000000,4.000000,4.000000,4.000000,4.000000,4.000000,4.000000,4.000000,4.000000,4.000000,4.000000,4.000000,4.000000,100.000000,,,,,,,,,,,,,,,,
1644854526.426051,34.000000,0.000000,4180.128418,4199.743652,4220.256348,4221.025879,4228.717773,4217.436035,4215.897461,4217.820313,4210.384766,4215.641113,4229.358887,4187.051270,4180.128418,4151.410156,0.000000,4.000000,82.000000,,,,0.000000,4.000000,4.000000,4.000000,4.000000,4.000000,4.000000,4.000000,4.000000,4.000000,4.000000,4.000000,4.000000,4.000000,4.000000,100.000000,,,,,,,,,,,,,,,,
1644854526.429991,35.000000,0.000000,4187.307617,4203.077148,4217.948730,4213.974121,4224.743652,4219.102539,4214.743652,4216.538574,4209.487305,4217.179688,4225.128418,4188.461426,4179.102539,4147.179688,0.000000,4.000000,82.000000,,,,0.000000,4.000000,4.000000,4.000000,4.000000,4.000000,4.000000,4.000000,4.000000,4.000000,4.000000,4.000000,4.000000,4.000000,4.000000,100.000000,,,,,,,,,,,,,,,,
1644854526.433931,36.000000,0.000000,4186.153809,4204.871582,4216.153809,4207.948730,4222.436035,4216.922852,4211.282227,4214.102539,4208.589844,4221.282227,4218.589844,4187.436035,4173.461426,4141.794922,0.000000,4.000000,82.000000,,,,0.000000,4.000000,4.000000,4.000000,4.000000,4.000000,4.000000,4.000000,4.000000,4.000000,4.000000,4.000000,4.000000,4.000000,4.000000,100.000000,,,,,,,,,,,,,,,,
1644854526.437871,37.000000,0.000000,4177.948730,4204.615234,4215.641113,4206.025879,4222.051270,4213.589844,4209.230957,4213.077148,4208.974121,4225.000000,4211.538574,4185.641113,4166.282227,4140.897461,0.000000,4.000000,82.000000,,,,0.000000,4.000000,4.000000,4.000000,4.000000,4.000000,4.000000,4.000000,4.000000,4.000000,4.000000,4.000000,4.000000,4.000000,4.000000,100.000000,,,,,,,,,,,,,,,,
1644854526.441811,38.000000,0.000000,4167.436035,4202.307617,4215.897461,4209.102539,4221.410156,4211.666504,4210.128418,4213.974121,4210.128418,4225.641113,4205.641113,4184.487305,4161.153809,4145.641113,0.000000,4.000000,82.000000,,,,0.000000,4.000000,4.000000,4.000000,4.000000,4.000000,4.000000,4.000000,4.000000,4.000000,4.000000,4.000000,4.000000,4.000000,4.000000,100.000000,,,,,,,,,,,,,,,,
1644854526.445751,39.000000,0.000000,4159.871582,4197.948730,4215.897461,4215.000000,4218.846191,4211.282227,4211.538574,4215.256348,4210.769043,4222.563965,4201.153809,4184.358887,4160.512695,4150.384766,0.000000,4.000000,82.000000,,,,0.000000,4.000000,4.000000,4.000000,4.000000,4.000000,4.000000,4.000000,4.000000,4.000000,4.000000,4.000000,4.000000,4.000000,4.000000,100.000000,,,,,,,,,,,,,,,,
1644854526.449692,40.000000,0.000000,4157.948730,4192.051270,4214.871582,4220.384766,4214.358887,4210.128418,4210.897461,4215.384766,4210.000000,4216.410156,4196.794922,4184.743652,4163.717773,4149.230957,0.000000,4.000000,82.000000,,,,0.000000,4.000000,4.000000,4.000000,4.000000,4.000000,4.000000,4.000000,4.000000,4.000000,4.000000,4.000000,4.000000,4.000000,4.000000,100.000000,,,,,,,,,,,,,,,,
1644854526.453632,41.000000,0.000000,4161.922852,4185.897461,4213.333496,4223.589844,4208.717773,4206.666504,4208.846191,4214.487305,4208.461426,4208.974121,4191.794922,4185.256348,4167.948730,4142.051270,0.000000,4.000000,82.000000,,,,0.000000,4.000000,4.000000,4.000000,4.000000,4.000000,4.000000,4.000000,4.000000,4.000000,4.000000,4.000000,4.000000,4.000000,4.000000,100.000000,,,,,,,,,,,,,,,,
1644854526.457572,42.000000,0.000000,4169.871582,4181.666504,4212.436035,4224.102539,4202.563965,4202.179688,4208.589844,4214.230957,4208.077148,4202.436035,4188.717773,4186.153809,4170.384766,4135.000000,0.000000,4.000000,82.000000,1,1,3,0.000000,4.000000,4.000000,4.000000,4.000000,4.000000,4.000000,4.000000,4.000000,4.000000,4.000000,4.000000,4.000000,4.000000,4.000000,100.000000,,,,,,,,,,,,,,,,
1644854526.461512,43.000000,0.000000,4177.948730,4180.641113,4213.333496,4221.282227,4197.051270,4199.743652,4211.282227,4215.512695,4210.512695,4199.615234,4191.538574,4187.307617,4169.487305,4133.205078,0.000000,4.000000,82.000000,,,,0.000000,4.000000,4.000000,4.000000,4.000000,4.000000,4.000000,4.000000,4.000000,4.000000,4.000000,4.000000,4.000000,4.000000,4.000000,100.000000,,,,,,,,,,,,,,,,
1644854526.465452,44.000000,0.000000,4180.256348,4182.692383,4215.128418,4214.487305,4194.230957,4200.769043,4213.974121,4217.179688,4214.743652,4202.692383,4201.794922,4187.820313,4165.897461,4136.538574,0.000000,4.000000,82.000000,,,,0.000000,4.000000,4.000000,4.000000,4.000000,4.000000,4.000000,4.000000,4.000000,4.000000,4.000000,4.000000,4.000000,4.000000,4.000000,100.000000,,,,,,,,,,,,,,,,
1644854526.469392,45.000000,0.000000,4173.205078,4186.282227,4215.256348,4204.615234,4195.512695,4203.717773,4213.846191,4217.563965,4217.820313,4210.897461,4214.743652,4186.410156,4161.666504,4141.025879,0.000000,4.000000,82.000000,,,,0.000000,4.000000,4.000000,4.000000,4.000000,4.000000,4.000000,4.000000,4.000000,4.000000,4.000000,4.000000,4.000000,4.000000,4.000000,100.000000,,,,,,,,,,,,,,,,
1644854526.473232,46.000000,0.000000,4159.230957,4190.000000,4212.179688,4195.000000,4201.538574,4205.256348,4211.538574,4216.025879,4217.179688,4220.128418,4223.205078,4181.922852,4158.974121,4143.589844,0.000000,4.000000,82.000000,,,,0.000000,4.000000,4.000000,4.000000,4.000000,4.000000,4.000000,4.000000,4.000000,4.000000,4.000000,4.000000,4.000000,4.000000,4.000000,100.000000,,,,,,,,,,,,,,,,
1644854526.477172,47.000000,0.000000,4146.922852,4193.205078,4207.563965,4190.256348,4211.025879,4203.461426,4210.000000,4214.102539,4213.589844,4226.153809,4221.794922,4175.384766,4159.615234,4145.256348,0.000000,4.000000,82.000000,,,,0.000000,4.000000,4.000000,4.000000,4.000000,4.000000,4.000000,4.000000,4.000000,4.000000,4.000000,4.000000,4.000000,4.000000,4.000000,100.000000,,,,,,,,,,,,,,,,
1644854526.481113,48.000000,0.000000,4145.256348,4196.153809,4204.743652,4193.589844,4221.025879,4199.871582,4210.641113,4213.974121,4210.512695,4227.563965,4212.051270,4169.487305,4162.948730,4148.077148,0.000000,4.000000,82.000000,,,,0.000000,4.000000,4.000000,4.000000,4.000000,4.000000,4.000000,4.000000,4.000000,4.000000,4.000000,4.000000,4.000000,4.000000,4.000000,100.000000,,,,,,,,,,,,,,,,
1644854526.485053,49.000000,0.000000,4156.922852,4198.974121,4205.512695,4204.871582,4227.179688,4198.205078,4212.436035,4216.666504,4211.538574,4225.512695,4200.769043,4166.794922,4167.051270,4152.563965,0.000000,4.000000,82.000000,,,,0.000000,4.000000,4.000000,4.000000,4.000000,4.000000,4.000000,4.000000,4.000000,4.000000,4.000000,4.000000,4.000000,4.000000,4.000000,100.000000,,,,,,,,,,,,,,,,
1644854526.488993,50.000000,0.000000,4175.769043,4202.051270,4207.948730,4220.512695,4226.282227,4201.410156,4213.846191,4221.153809,4216.538574,4223.846191,4194.871582,4168.589844,4170.000000,4157.179688,0.000000,4.000000,82.000000,,,,0.000000,4.000000,4.000000,4.000000,4.000000,4.000000,4.000000,4.000000,4.000000,4.000000,4.000000,4.000000,4.000000,4.000000,4.000000,100.000000,,,,,,,,,,,,,,,,
1644854526.492933,51.000000,0.000000,4191.666504,4205.384766,4209.487305,4234.487305,4219.871582,4208.589844,4215.256348,4225.128418,4221.794922,4225.512695,4196.666504,4174.230957,4171.794922,4160.384766,0.000000,4.000000,82.000000,,,,0.000000,4.000000,4.000000,4.000000,4.000000,4.000000,4.000000,4.000000,4.000000,4.000000,4.000000,4.000000,4.000000,4.000000,4.000000,100.000000,,,,,,,,,,,,,,,,
1644854526.496873,52.000000,0.000000,4197.948730,4208.717773,4209.358887,4240.897461,4213.461426,4215.256348,4217.692383,4226.410156,4223.077148,4230.128418,4202.563965,4181.538574,4173.846191,4161.153809,0.000000,4.000000,82.000000,,,,0.000000,4.000000,4.000000,4.000000,4.000000,4.000000,4.000000,4.000000,4.000000,4.000000,4.000000,4.000000,4.000000,4.000000,4.000000,100.000000,,,,,,,,,,,,,,,,
1644854526.500813,53.000000,0.000000,4193.974121,4210.641113,4208.974121,4237.436035,4211.410156,4217.179688,4220.128418,4225.000000,4219.743652,4233.461426,4206.922852,4187.307617,4176.922852,4158.589844,0.000000,4.000000,82.000000,,,,0.000000,4.000000,4.000000,4.000000,4.000000,4.000000,4.000000,4.000000,4.000000,4.000000,4.000000,4.000000,4.000000,4.000000,4.000000,100.000000,,,,,,,,,,,,,,,,
1644854526.504753,54.000000,0.000000,4183.461426,4208.589844,4209.358887,4227.051270,4212.948730,4213.974121,4220.128418,4221.410156,4214.230957,4230.256348,4207.307617,4189.358887,4179.487305,4152.179688,0.000000,4.000000,82.000000,,,,0.000000,4.000000,4.000000,4.000000,4.000000,4.000000,4.000000,4.000000,4.000000,4.000000,4.000000,4.000000,4.000000,4.000000,4.000000,100.000000,,,,,,,,,,,,,,,,
1644854526.508693,55.000000,0.000000,4169.871582,4201.410156,4209.871582,4216.153809,4213.461426,4208.589844,4216.410156,4217.179688,4209.743652,4218.333496,4205.128418,4187.436035,4177.948730,4143.717773,0.000000,4.000000,82.000000,,,,0.000000,4.000000,4.000000,4.000000,4.000000,4.000000,4.000000,4.000000,4.000000,4.000000,4.000000,4.000000,4.000000,4.000000,4.000000,100.000000,,,,,,,,,,,,,,,,
1644854526.512633,56.000000,0.000000,4156.410156,4190.641113,4208.717773,4211.282227,4209.487305,4204.743652,4211.410156,4214.102539,4207.692383,4201.666504,4202.820313,4182.948730,4170.384766,4137.436035,0.000000,4.000000,82.000000,,,,0.000000,4.000000,4.000000,4.000000,4.000000,4.000000,4.000000,4.000000,4.000000,4.000000,4.000000,4.000000,4.000000,4.000000,4.000000,100.000000,,,,,,,,,,,,,,,,
1644854526.516573,57.000000,0.000000,4146.666504,4181.538574,4206.153809,4214.102539,4203.589844,4204.615234,4209.871582,4213.589844,4208.077148,4189.358887,4202.436035,4178.461426,4159.743652,4136.538574,0.000000,4.000000,82.000000,,,,0.000000,4.000000,4.000000,4.000000,4.000000,4.000000,4.000000,4.000000,4.000000,4.000000,4.000000,4.000000,4.000000,4.000000,4.000000,100.000000,,,,,,,,,,,,,,,,
1644854526.520514,58.000000,0.000000,4145.128418,4179.871582,4204.358887,4220.000000,4201.666504,4207.563965,4213.205078,4216.153809,4210.128418,4189.358887,4204.615234,4175.641113,4153.205078,4141.153809,0.000000,4.000000,82.000000,,,,0.000000,4.000000,4.000000,4.000000,4.000000,4.000000,4.000000,4.000000,4.000000,4.000000,4.000000,4.000000,4.000000,4.000000,4.000000,100.000000,,,,,,,,,,,,,,,,
1644854526.524454,59.000000,0.000000,4154.615234,4187.948730,4205.000000,4222.948730,4207.820313,4211.410156,4218.333496,4220.384766,4213.461426,4202.051270,4209.358887,4174.615234,4157.436035,4148.846191,0.000000,4.000000,82.000000,,,,0.000000,4.000000,4.000000,4.000000,4.000000,4.000000,4.000000,4.000000,4.000000,4.000000,4.000000,4.000000,4.000000,4.000000,4.000000,100.000000,,,,,,,,,,,,,,,,
1644854526.528394,60.000000,0.000000,4171.922852,4201.538574,4207.820313,4220.641113,4218.717773,4213.589844,4220.769043,4223.846191,4217.051270,4218.846191,4216.153809,4175.384766,4172.051270,4157.051270,0.000000,4.000000,82.000000,,,,0.000000,4.000000,4.000000,4.000000,4.000000,4.000000,4.000000,4.000000,4.000000,4.000000,4.000000,4.000000,4.000000,4.000000,4.000000,100.000000,,,,,,,,,,,,,,,,
1644854526.532334,61.000000,0.000000,4188.333496,4212.307617,4211.282227,4217.051270,4226.282227,4213.461426,4219.230957,4224.230957,4218.974121,4228.846191,4221.666504,4176.666504,4188.974121,4163.974121,0.000000,4.000000,82.000000,,,,0.000000,4.000000,4.000000,4.000000,4.000000,4.000000,4.000000,4.000000,4.000000,4.000000,4.000000,4.000000,4.000000,4.000000,4.000000,100.000000,,,,,,,,,,,,,,,,
1644854526.536274,62.000000,0.000000,4194.358887,4212.948730,4213.333496,4216.410156,4224.230957,4212.179688,4216.410156,4221.922852,4217.436035,4227.179688,4220.769043,4177.051270,4197.307617,4167.563965,0.000000,4.000000,82.000000,,,,0.000000,4.000000,4.000000,4.000000,4.000000,4.000000,4.000000,4.000000,4.000000,4.000000,4.000000,4.000000,4.000000,4.000000,4.000000,100.000000,,,,,,,,,,,,,,,,
1644854526.540314,63.000000,0.000000,4187.051270,4203.717773,4212.948730,4218.974121,4215.128418,4211.410156,4214.871582,4218.461426,4213.461426,4217.948730,4210.256348,4176.282227,4192.692383,4165.000000,0.000000,4.000000,82.000000,,,,0.000000,4.000000,4.000000,4.000000,4.000000,4.000000,4.000000,4.000000,4.000000,4.000000,4.000000,4.000000,4.000000,4.000000,4.000000,100.000000,,,,,,,,,,,,,,,,
1644854526.544254,64.000000,0.000000,4172.307617,4192.563965,4210.641113,4220.000000,4208.205078,4212.563965,4215.128418,4216.794922,4210.256348,4209.743652,4194.230957,4176.282227,4179.358887,4155.512695,0.000000,4.000000,82.000000,,,,0.000000,4.000000,4.000000,4.000000,4.000000,4.000000,4.000000,4.000000,4.000000,4.000000,4.000000,4.000000,4.000000,4.000000,4.000000,100.000000,,,,,,,,,,,,,,,,
1644854526.548194,65.000000,0.000000,4161.025879,4189.102539,4208.717773,4215.512695,4211.025879,4215.897461,4216.282227,4218.974121,4211.538574,4209.230957,4183.205078,4179.615234,4167.307617,4143.333496,0.000000,4.000000,82.000000,,,,0.000000,4.000000,4.000000,4.000000,4.000000,4.000000,4.000000,4.000000,4.000000,4.000000,4.000000,4.000000,4.000000,4.000000,4.000000,100.000000,,,,,,,,,,,,,,,,
1644854526.552134,66.000000,0.000000,4161.025879,4196.794922,4210.641113,4207.051270,4222.436035,4220.384766,4218.589844,4224.743652,4217.820313,4216.794922,4187.051270,4187.436035,4164.230957,4136.794922,0.000000,4.000000,82.000000,,,,0.000000,4.000000,4.000000,4.000000,4.000000,4.000000,4.000000,4.000000,4.000000,4.000000,4.000000,4.000000,4.000000,4.000000,4.000000,100.000000,,,,,,,,,,,,,,,,
1644854526.556074,67.000000,0.000000,4170.897461,4210.641113,4218.077148,4201.538574,4233.077148,4224.615234,4223.333496,4232.179688,4226.410156,4227.307617,4206.282227,4197.436035,4171.153809,4141.410156,0.000000,4.000000,82.000000,,,,0.000000,4.000000,4.000000,4.000000,4.000000,4.000000,4.000000,4.000000,4.000000,4.000000,4.000000,4.000000,4.000000,4.000000,4.000000,100.000000,,,,,,,,,,,,,,,,
1644854526.560015,68.000000,0.000000,4183.461426,4221.282227,4228.589844,4206.410156,4233.589844,4227.436035,4229.358887,4237.948730,4233.077148,4234.743652,4229.743652,4205.512695,4182.820313,4155.256348,0.000000,4.000000,82.000000,2,1,3,0.000000,4.000000,4.000000,4.000000,4.000000,4.000000,4.000000,4.000000,4.000000,4.000000,4.000000,4.000000,4.000000,4.000000,4.000000,100.000000,,,,,,,,,,,,,,,,
1644854526.563955,69.000000,0.000000,4191.666504,4222.051270,4237.307617,4222.051270,4224.102539,4228.717773,4233.205078,4239.871582,4236.025879,4235.256348,4242.563965,4208.846191,4193.205078,4169.743652,0.000000,4.000000,82.000000,,,,0.000000,4.000000,4.000000,4.000000,4.000000,4.000000,4.000000,4.000000,4.000000,4.000000,4.000000,4.000000,4.000000,4.000000,4.000000,100.000000,,,,,,,,,,,,,,,,
1644854526.567895,70.000000,0.000000,4193.333496,4213.974121,4240.384766,4240.512695,4213.589844,4229.358887,4231.282227,4237.948730,4236.282227,4230.256348,4237.307617,4207.307617,4198.077148,4176.538574,0.000000,4.000000,82.000000,,,,0.000000,4.000000,4.000000,4.000000,4.000000,4.000000,4.000000,4.000000,4.000000,4.000000,4.000000,4.000000,4.000000,4.000000,4.000000,100.000000,,,,,,,,,,,,,,,,
1644854526.571835,71.000000,0.000000,4191.025879,4203.717773,4237.692383,4251.025879,4212.307617,4229.358887,4224.871582,4234.102539,4235.000000,4223.461426,4218.717773,4203.461426,4196.025879,4174.358887,0.000000,4.000000,82.000000,,,,0.000000,4.000000,4.000000,4.000000,4.000000,4.000000,4.000000,4.000000,4.000000,4.000000,4.000000,4.000000,4.000000,4.000000,4.000000,100.000000,,,,,,,,,,,,,,,,
1644854526.575775,72.000000,0.000000,4187.820313,4198.717773,4232.820313,4248.077148,4221.922852,4228.846191,4219.230957,4230.000000,4232.436035,4218.333496,4199.871582,4199.743652,4188.589844,4168.077148,0.000000,4.000000,82.000000,,,,0.000000,4.000000,4.000000,4.000000,4.000000,4.000000,4.000000,4.000000,4.000000,4.000000,4.000000,4.000000,4.000000,4.000000,4.000000,100.000000,,,,,,,,,,,,,,,,
1644854526.579715,73.000000,0.000000,4185.512695,4201.282227,4228.717773,4236.410156,4235.897461,4227.563965,4218.461426,4226.282227,4228.589844,4216.410156,4193.205078,4197.307617,4179.743652,4163.589844,0.000000,4.000000,82.000000,,,,0.000000,4.000000,4.000000,4.000000,4.000000,4.000000,4.000000,4.000000,4.000000,4.000000,4.000000,4.000000,4.000000,4.000000,4.000000,100.000000,,,,,,,,,,,,,,,,
1644854526.583655,74.000000,0.000000,4185.384766,4208.974121,4226.922852,4226.666504,4245.256348,4226.153809,4221.538574,4222.820313,4223.461426,4217.436035,4201.666504,4195.256348,4174.871582,4163.077148,0.000000,4.000000,82.000000,,,,0.000000,4.000000,4.000000,4.000000,4.000000,4.000000,4.000000,4.000000,4.000000,4.000000,4.000000,4.000000,4.000000,4.000000,4.000000,100.000000,,,,,,,,,,,,,,,,
1644854526.587595,75.000000,0.000000,4188.461426,4217.051270,4227.307617,4226.153809,4246.410156,4224.358887,4223.461426,4219.358887,4217.948730,4220.384766,4217.692383,4192.436035,4177.051270,4166.153809,0.000000,4.000000,82.000000,,,,0.000000,4.000000,4.000000,4.000000,4.000000,4.000000,4.000000,4.000000,4.000000,4.000000,4.000000,4.000000,4.000000,4.000000,4.000000,100.000000,,,,,,,,,,,,,,,,
1644854526.591535,76.000000,0.000000,4194.358887,4222.051270,4228.846191,4232.563965,4240.512695,4221.794922,4221.794922,4216.410156,4213.589844,4222.563965,4228.846191,4188.461426,4184.615234,4171.410156,0.000000,4.000000,82.000000,,,,0.000000,4.000000,4.000000,4.000000,4.000000,4.000000,4.000000,4.000000,4.000000,4.000000,4.000000,4.000000,4.000000,4.000000,4.000000,100.000000,,,,,,,,,,,,,,,,
1644854526.595475,77.000000,0.000000,4200.384766,4222.948730,4230.769043,4236.538574,4230.769043,4219.102539,4218.589844,4214.743652,4211.282227,4221.410156,4227.563965,4184.487305,4192.692383,4176.922852,0.000000,4.000000,82.000000,,,,0.000000,4.000000,4.000000,4.000000,4.000000,4.000000,4.000000,4.000000,4.000000,4.000000,4.000000,4.000000,4.000000,4.000000,4.000000,100.000000,,,,,,,,,,,,,,,,
1644854526.599416,78.000000,0.000000,4202.692383,4220.000000,4232.051270,4231.410156,4220.128418,4218.205078,4217.563965,4215.128418,4210.897461,4216.794922,4216.538574,4182.820313,4197.179688,4180.000000,0.000000,4.000000,82.000000,,,,0.000000,4.000000,4.000000,4.000000,4.000000,4.000000,4.000000,4.000000,4.000000,4.000000,4.000000,4.000000,4.000000,4.000000,4.000000,100.000000,,,,,,,,,,,,,,,,
1644854526.603356,79.000000,0.000000,4199.487305,4214.743652,4232.692383,4220.128418,4212.307617,4220.256348,4219.230957,4217.436035,4212.307617,4212.692383,4205.256348,4185.641113,4197.051270,4177.948730,0.000000,4.000000,82.000000,,,,0.000000,4.000000,4.000000,4.000000,4.000000,4.000000,4.000000,4.000000,4.000000,4.000000,4.000000,4.000000,4.000000,4.000000,4.000000,100.000000,,,,,,,,,,,,,,,,
1644854526.607296,80.000000,0.000000,4192.179688,4208.846191,4232.820313,4212.051270,4211.282227,4224.102539,4221.025879,4220.769043,4215.256348,4214.358887,4201.153809,4192.307617,4193.846191,4171.410156,0.000000,4.000000,82.000000,,,,0.000000,4.000000,4.000000,4.000000,4.000000,4.000000,4.000000,4.000000,4.000000,4.000000,4.000000,4.000000,4.000000,4.000000,4.000000,100.000000,,,,,,,,,,,,,,,,
1644854526.611336,81.000000,0.000000,4185.128418,4204.230957,4232.563965,4213.589844,4218.205078,4227.051270,4221.025879,4224.615234,4218.717773,4223.077148,4203.846191,4199.358887,4189.871582,4164.871582,0.000000,4.000000,82.000000,,,,0.000000,4.000000,4.000000,4.000000,4.000000,4.000000,4.000000,4.000000,4.000000,4.000000,4.000000,4.000000,4.000000,4.000000,4.000000,100.000000,,,,,,,,,,,,,,,,
1644854526.615276,82.000000,0.000000,4182.307617,4202.948730,4231.794922,4221.794922,4229.230957,4226.410156,4220.000000,4228.333496,4222.051270,4234.230957,4208.589844,4203.205078,4186.538574,4162.692383,0.000000,4.000000,82.000000,,,,0.000000,4.000000,4.000000,4.000000,4.000000,4.000000,4.000000,4.000000,4.000000,4.000000,4.000000,4.000000,4.000000,4.000000,4.000000,100.000000,,,,,,,,,,,,,,,,
1644854526.619216,83.000000,0.000000,4185.897461,4206.538574,4230.897461,4227.820313,4237.692383,4222.563965,4219.871582,4231.282227,4224.743652,4241.153809,4211.922852,4202.948730,4184.615234,4165.384766,0.000000,4.000000,82.000000,,,,0.000000,4.000000,4.000000,4.000000,4.000000,4.000000,4.000000,4.000000,4.000000,4.000000,4.000000,4.000000,4.000000,4.000000,4.000000,100.000000,,,,,,,,,,,,,,,,
1644854526.623156,84.000000,0.000000,4193.717773,4213.974121,4230.128418,4226.282227,4238.205078,4218.205078,4219.871582,4233.333496,4227.179688,4240.512695,4214.230957,4201.025879,4184.102539,4168.077148,0.000000,4.000000,82.000000,,,,0.000000,4.000000,4.000000,4.000000,4.000000,4.000000,4.000000,4.000000,4.000000,4.000000,4.000000,4.000000,4.000000,4.000000,4.000000,100.000000,,,,,,,,,,,,,,,,
1644854526.627196,85.000000,0.000000,4201.153809,4221.410156,4229.230957,4220.384766,4231.153809,4216.153809,4218.589844,4233.846191,4229.615234,4235.641113,4217.820313,4200.256348,4185.256348,4166.666504,0.000000,4.000000,82.000000,,,,0.000000,4.000000,4.000000,4.000000,4.000000,4.000000,4.000000,4.000000,4.000000,4.000000,4.000000,4.000000,4.000000,4.000000,4.000000,100.000000,,,,,,,,,,,,,,,,
1644854526.631136,86.000000,0.000000,4204.230957,4223.846191,4227.948730,4219.102539,4221.794922,4216.922852,4215.384766,4232.692383,4231.153809,4232.051270,4223.077148,4201.538574,4188.333496,4162.692383,0.000000,4.000000,82.000000,,,,0.000000,4.000000,4.000000,4.000000,4.000000,4.000000,4.000000,4.000000,4.000000,4.000000,4.000000,4.000000,4.000000,4.000000,4.000000,100.000000,,,,,,,,,,,,,,,,
1644854526.635076,87.000000,0.000000,4202.563965,4219.487305,4225.897461,4227.307617,4216.410156,4218.461426,4212.692383,4230.641113,4231.025879,4233.461426,4228.461426,4203.461426,4193.461426,4162.179688,0.000000,4.000000,82.000000,,,,0.000000,4.000000,4.000000,4.000000,4.000000,4.000000,4.000000,4.000000,4.000000,4.000000,4.000000,4.000000,4.000000,4.000000,4.000000,100.000000,,,,,,,,,,,,,,,,
1644854526.639016,88.000000,0.000000,4198.846191,4211.922852,4223.846191,4240.512695,4218.077148,4218.589844,4212.692383,4229.487305,4229.871582,4238.589844,4231.282227,4204.871582,4199.230957,4169.615234,0.000000,4.000000,82.000000,,,,0.000000,4.000000,4.000000,4.000000,4.000000,4.000000,4.000000,4.000000,4.000000,4.000000,4.000000,4.000000,4.000000,4.000000,4.000000,100.000000,,,,,,,,,,,,,,,,
1644854526.642957,89.000000,0.000000,4196.794922,4208.077148,4222.563965,4248.205078,4224.615234,4217.692383,4215.128418,4230.384766,4229.102539,4243.333496,4230.512695,4205.000000,4202.820313,4181.922852,0.000000,4.000000,82.000000,,,,0.000000,4.000000,4.000000,4.000000,4.000000,4.000000,4.000000,4.000000,4.000000,4.000000,4.000000,4.000000,4.000000,4.000000,4.000000,100.000000,,,,,,,,,,,,,,,,
1644854526.646897,90.000000,0.000000,4197.563965,4212.948730,4222.307617,4243.589844,4230.384766,4216.794922,4217.436035,4232.563965,4230.384766,4244.743652,4226.666504,4204.487305,4202.820313,4191.282227,0.000000,4.000000,82.000000,,,,0.000000,4.000000,4.000000,4.000000,4.000000,4.000000,4.000000,4.000000,4.000000,4.000000,4.000000,4.000000,4.000000,4.000000,4.000000,100.000000,,,,,,,,,,,,,,,,
1644854526.650837,91.000000,0.000000,4199.230957,4225.128418,4222.820313,4228.974121,4230.256348,4216.666504,4218.205078,4234.230957,4233.461426,4242.179688,4221.410156,4203.717773,4199.743652,4192.436035,0.000000,4.000000,82.000000,,,,0.000000,4.000000,4.000000,4.000000,4.000000,4.000000,4.000000,4.000000,4.000000,4.000000,4.000000,4.000000,4.000000,4.000000,4.000000,100.000000,,,,,,,,,,,,,,,,
1644854526.654777,92.000000,0.000000,4198.974121,4236.666504,4223.205078,4214.230957,4224.230957,4217.051270,4217.948730,4233.846191,4236.538574,4237.563965,4216.666504,4202.692383,4195.512695,4186.410156,0.000000,4.000000,82.000000,,,,0.000000,4.000000,4.000000,4.000000,4.000000,4.000000,4.000000,4.000000,4.000000,4.000000,4.000000,4.000000,4.000000,4.000000,4.000000,100.000000,,,,,,,,,,,,,,,,
1644854526.658717,93.000000,0.000000,4196.410156,4239.743652,4222.307617,4209.230957,4216.282227,4216.922852,4218.205078,4231.282227,4236.410156,4233.077148,4213.205078,4201.025879,4192.563965,4178.205078,0.000000,4.000000,82.000000,,,,0.000000,4.000000,4.000000,4.000000,4.000000,4.000000,4.000000,4.000000,4.000000,4.000000,4.000000,4.000000,4.000000,4.000000,4.000000,100.000000,,,,,,,,,,,,,,,,
1644854526.662657,94.000000,0.000000,4194.102539,4232.948730,4220.256348,4216.538574,4211.922852,4215.512695,4218.205078,4227.436035,4231.410156,4230.384766,4212.051270,4198.205078,4191.922852,4172.179688,0.000000,4.000000,82.000000,,,,0.000000,4.000000,4.000000,4.000000,4.000000,4.000000,4.000000,4.000000,4.000000,4.000000,4.000000,4.000000,4.000000,4.000000,4.000000,100.000000,,,,,,,,,,,,,,,,
1644854526.666597,95.000000,0.000000,4195.512695,4223.461426,4218.077148,4230.128418,4212.948730,4213.333496,4216.282227,4222.948730,4223.589844,4229.487305,4213.205078,4194.871582,4193.717773,4170.000000,0.000000,4.000000,82.000000,,,,0.000000,4.000000,4.000000,4.000000,4.000000,4.000000,4.000000,4.000000,4.000000,4.000000,4.000000,4.000000,4.000000,4.000000,4.000000,100.000000,,,,,,,,,,,,,,,,
1644854526.670537,96.000000,0.000000,4200.641113,4220.000000,4217.436035,4240.128418,4217.563965,4211.794922,4212.820313,4218.974121,4217.692383,4229.487305,4216.666504,4192.692383,4197.179688,4172.051270,0.000000,4.000000,82.000000,,,,0.000000,4.000000,4.000000,4.000000,4.000000,4.000000,4.000000,4.000000,4.000000,4.000000,4.000000,4.000000,4.000000,4.000000,4.000000,100.000000,,,,,,,,,,,,,,,,
1644854526.674477,97.000000,0.000000,4205.512695,4224.358887,4219.487305,4240.512695,4221.666504,4211.922852,4210.897461,4217.051270,4217.307617,4229.487305,4222.179688,4192.820313,4200.384766,4177.948730,0.000000,4.000000,82.000000,,,,0.000000,4.000000,4.000000,4.000000,4.000000,4.000000,4.000000,4.000000,4.000000,4.000000,4.000000,4.000000,4.000000,4.000000,4.000000,100.000000,,,,,,,,,,,,,,,,
1644854526.678417,98.000000,0.000000,4204.615234,4230.512695,4223.717773,4232.051270,4222.820313,4213.333496,4212.948730,4217.948730,4221.153809,4229.487305,4228.077148,4195.512695,4201.282227,4185.256348,0.000000,4.000000,82.000000,,,,0.000000,4.000000,4.000000,4.000000,4.000000,4.000000,4.000000,4.000000,4.000000,4.000000,4.000000,4.000000,4.000000,4.000000,4.000000,100.000000,,,,,,,,,,,,,,,,
1644854526.682457,99.000000,0.000000,4195.641113,4230.128418,4227.436035,4219.871582,4220.769043,4215.000000,4216.922852,4220.000000,4224.743652,4230.256348,4231.025879,4199.230957,4199.358887,4189.230957,0.000000,4.000000,82.000000,,,,0.000000,4.000000,4.000000,4.000000,4.000000,4.000000,4.000000,4.000000,4.000000,4.000000,4.000000,4.000000,4.000000,4.000000,4.000000,100.000000,,,,,,,,,,,,,,,,
1644854526.686398,100.000000,0.000000,4182.563965,4219.871582,4226.922852,4208.333496,4216.410156,4216.025879,4218.205078,4220.000000,4223.846191,4230.384766,4227.820313,4201.922852,4196.025879,4186.025879,0.000000,4.000000,82.000000,,,,0.000000,4.000000,4.000000,4.000000,4.000000,4.000000,4.000000,4.000000,4.000000,4.000000,4.000000,4.000000,4.000000,4.000000,4.000000,100.000000,,,,,,,,,,,,,,,,
1644854526.690338,101.000000,0.000000,4172.692383,4204.358887,4221.282227,4199.230957,4210.512695,4216.282227,4214.487305,4216.282227,4218.205078,4226.410156,4219.487305,4202.051270,4193.461426,4176.538574,0.000000,4.000000,82.000000,3,1,3,0.000000,4.000000,4.000000,4.000000,4.000000,4.000000,4.000000,4.000000,4.000000,4.000000,4.000000,4.000000,4.000000,4.000000,4.000000,100.000000,,,,,,,,,,,,,,,,
1644854526.694278,102.000000,0.000000,4171.666504,4192.179688,4214.230957,4194.487305,4205.128418,4215.512695,4208.589844,4210.256348,4211.153809,4216.153809,4212.051270,4200.000000,4191.153809,4166.282227,0.000000,4.000000,82.000000,,,,0.000000,4.000000,4.000000,4.000000,4.000000,4.000000,4.000000,4.000000,4.000000,4.000000,4.000000,4.000000,4.000000,4.000000,4.000000,100.000000,,,,,,,,,,,,,,,,
1644854526.698218,103.000000,0.000000,4178.461426,4188.974121,4210.512695,4196.538574,4203.461426,4213.461426,4205.897461,4205.897461,4206.538574,4202.692383,4210.512695,4197.179688,4186.025879,4161.410156,0.000000,4.000000,82.000000,,,,0.000000,4.000000,4.000000,4.000000,4.000000,4.000000,4.000000,4.000000,4.000000,4.000000,4.000000,4.000000,4.000000,4.000000,4.000000,100.000000,,,,,,,,,,,,,,,,
1644854526.702158,104.000000,0.000000,4185.897461,4194.230957,4211.666504,4205.384766,4207.307617,4210.384766,4207.563965,4205.128418,4205.897461,4192.820313,4213.846191,4194.230957,4176.794922,4162.436035,0.000000,4.000000,82.000000,,,,0.000000,4.000000,4.000000,4.000000,4.000000,4.000000,4.000000,4.000000,4.000000,4.000000,4.000000,4.000000,4.000000,4.000000,4.000000,100.000000,,,,,,,,,,,,,,,,
1644854526.706098,105.000000,0.000000,4186.025879,4202.563965,4214.230957,4216.153809,4214.615234,4207.051270,4210.384766,4206.922852,4207.692383,4191.794922,4214.871582,4190.641113,4166.538574,4165.512695,0.000000,4.000000,82.000000,,,,0.000000,4.000000,4.000000,4.000000,4.000000,4.000000,4.000000,4.000000,4.000000,4.000000,4.000000,4.000000,4.000000,4.000000,4.000000,100.000000,,,,,,,,,,,,,,,,
1644854526.710038,106.000000,0.000000,4176.025879,4208.205078,4214.102539,4221.794922,4220.384766,4205.000000,4211.025879,4208.717773,4208.461426,4199.230957,4207.563965,4186.282227,4161.282227,4166.922852,0.000000,4.000000,82.000000,,,,0.000000,4.000000,4.000000,4.000000,4.000000,4.000000,4.000000,4.000000,4.000000,4.000000,4.000000,4.000000,4.000000,4.000000,4.000000,100.000000,,,,,,,,,,,,,,,,
1644854526.713978,107.000000,0.000000,4160.897461,4209.230957,4210.384766,4218.205078,4221.153809,4205.384766,4209.871582,4209.615234,4206.538574,4209.230957,4193.846191,4182.563965,4163.974121,4166.666504,0.000000,4.000000,82.000000,,,,0.000000,4.000000,4.000000,4.000000,4.000000,4.000000,4.000000,4.000000,4.000000,4.000000,4.000000,4.000000,4.000000,4.000000,4.000000,100.000000,,,,,,,,,,,,,,,,
1644854526.717918,108.000000,0.000000,4150.256348,4207.179688,4206.538574,4207.948730,4217.948730,4208.589844,4210.000000,4210.641113,4204.230957,4216.025879,4182.948730,4182.179688,4171.538574,4167.051270,0.000000,4.000000,82.000000,,,,0.000000,4.000000,4.000000,4.000000,4.000000,4.000000,4.000000,4.000000,4.000000,4.000000,4.000000,4.000000,4.000000,4.000000,4.000000,100.000000,,,,,,,,,,,,,,,,
1644854526.721859,109.000000,0.000000,4151.410156,4204.871582,4206.282227,4197.948730,4214.615234,4212.948730,4212.563965,4213.333496,4204.743652,4217.820313,4183.974121,4186.666504,4177.563965,4168.974121,0.000000,4.000000,82.000000,,,,0.000000,4.000000,4.000000,4.000000,4.000000,4.000000,4.000000,4.000000,4.000000,4.000000,4.000000,4.000000,4.000000,4.000000,4.000000,100.000000,,,,,,,,,,,,,,,,
1644854526.725799,110.000000,0.000000,4163.974121,4204.230957,4209.487305,4193.333496,4214.230957,4216.410156,4215.512695,4217.436035,4209.871582,4217.179688,4197.436035,4194.487305,4178.333496,4170.897461,0.000000,4.000000,82.000000,,,,0.000000,4.000000,4.000000,4.000000,4.000000,4.000000,4.000000,4.000000,4.000000,4.000000,4.000000,4.000000,4.000000,4.000000,4.000000,100.000000,,,,,,,,,,,,,,,,
1644854526.729739,111.000000,0.000000,4180.256348,4205.000000,4213.077148,4194.615234,4216.410156,4217.692383,4216.410156,4221.153809,4217.436035,4217.307617,4214.871582,4201.282227,4174.743652,4171.666504,0.000000,4.000000,82.000000,,,,0.000000,4.000000,4.000000,4.000000,4.000000,4.000000,4.000000,4.000000,4.000000,4.000000,4.000000,4.000000,4.000000,4.000000,4.000000,100.000000,,,,,,,,,,,,,,,,
1644854526.733679,112.000000,0.000000,4191.153809,4205.384766,4214.102539,4198.717773,4218.333496,4216.922852,4215.897461,4223.077148,4222.820313,4218.846191,4225.256348,4202.948730,4171.538574,4171.794922,0.000000,4.000000,82.000000,,,,0.000000,4.000000,4.000000,4.000000,4.000000,4.000000,4.000000,4.000000,4.000000,4.000000,4.000000,4.000000,4.000000,4.000000,4.000000,100.000000,,,,,,,,,,,,,,,,
1644854526.737619,113.000000,0.000000,4191.922852,4205.641113,4212.436035,4203.461426,4217.820313,4215.641113,4216.410156,4222.820313,4222.051270,4219.615234,4224.230957,4198.333496,4173.846191,4172.307617,0.000000,4.000000,82.000000,,,,0.000000,4.000000,4.000000,4.000000,4.000000,4.000000,4.000000,4.000000,4.000000,4.000000,4.000000,4.000000,4.000000,4.000000,4.000000,100.000000,,,,,,,,,,,,,,,,
1644854526.741559,114.000000,0.000000,4183.717773,4206.794922,4209.871582,4207.179688,4215.256348,4214.871582,4218.205078,4220.641113,4215.512695,4217.692383,4216.922852,4190.128418,4183.589844,4172.820313,0.000000,4.000000,82.000000,,,,0.000000,4.000000,4.000000,4.000000,4.000000,4.000000,4.000000,4.000000,4.000000,4.000000,4.000000,4.000000,4.000000,4.000000,4.000000,100.000000,,,,,,,,,,,,,,,,
1644854526.745499,115.000000,0.000000,4172.179688,4209.358887,4208.205078,4207.820313,4213.077148,4214.487305,4218.974121,4217.948730,4207.948730,4213.205078,4212.307617,4182.436035,4196.666504,4172.436035,0.000000,4.000000,82.000000,,,,0.000000,4.000000,4.000000,4.000000,4.000000,4.000000,4.000000,4.000000,4.000000,4.000000,4.000000,4.000000,4.000000,4.000000,4.000000,100.000000,,,,,,,,,,,,,,,,
1644854526.749439,116.000000,0.000000,4163.717773,4211.282227,4207.820313,4204.358887,4213.846191,4214.102539,4217.051270,4216.282227,4204.102539,4208.205078,4214.615234,4179.230957,4204.871582,4172.179688,0.000000,4.000000,82.000000,,,,0.000000,4.000000,4.000000,4.000000,4.000000,4.000000,4.000000,4.000000,4.000000,4.000000,4.000000,4.000000,4.000000,4.000000,4.000000,100.000000,,,,,,,,,,,,,,,,
1644854526.753379,117.000000,0.000000,4163.205078,4210.512695,4208.589844,4198.333496,4216.666504,4213.461426,4213.846191,4216.410156,4205.384766,4205.256348,4219.102539,4182.051270,4201.666504,4174.358887,0.000000,4.000000,82.000000,,,,0.000000,4.000000,4.000000,4.000000,4.000000,4.000000,4.000000,4.000000,4.000000,4.000000,4.000000,4.000000,4.000000,4.000000,4.000000,100.000000,,,,,,,,,,,,,,,,
1644854526.757220,118.000000,0.000000,4171.282227,4207.563965,4209.743652,4194.487305,4218.974121,4213.077148,4212.436035,4217.692383,4208.846191,4205.256348,4217.436035,4189.615234,4188.333496,4180.256348,0.000000,4.000000,82.000000,,,,0.000000,4.000000,4.000000,4.000000,4.000000,4.000000,4.000000,4.000000,4.000000,4.000000,4.000000,4.000000,4.000000,4.000000,4.000000,100.000000,,,,,,,,,,,,,,,,
1644854526.761160,119.000000,0.000000,4184.358887,4204.487305,4211.153809,4197.051270,4218.461426,4213.205078,4213.461426,4218.333496,4211.538574,4208.077148,4207.436035,4198.077148,4173.846191,4187.179688,0.000000,4.000000,82.000000,,,,0.000000,4.000000,4.000000,4.000000,4.000000,4.000000,4.000000,4.000000,4.000000,4.000000,4.000000,4.000000,4.000000,4.000000,4.000000,100.000000,,,,,,,,,,,,,,,,
1644854526.765100,120.000000,0.000000,4195.897461,4203.077148,4212.563965,4205.769043,4214.743652,4213.717773,4214.487305,4217.179688,4212.307617,4212.307617,4196.410156,4203.846191,4167.948730,4191.410156,0.000000,4.000000,82.000000,,,,0.000000,4.000000,4.000000,4.000000,4.000000,4.000000,4.000000,4.000000,4.000000,4.000000,4.000000,4.000000,4.000000,4.000000,4.000000,100.000000,,,,,,,,,,,,,,,,
1644854526.769040,121.000000,0.000000,4199.871582,4202.307617,4214.102539,4215.641113,4208.846191,4213.717773,4213.333496,4215.128418,4211.410156,4216.282227,4196.153809,4205.641113,4173.461426,4191.282227,0.000000,4.000000,82.000000,,,,0.000000,4.000000,4.000000,4.000000,4.000000,4.000000,4.000000,4.000000,4.000000,4.000000,4.000000,4.000000,4.000000,4.000000,4.000000,100.000000,,,,,,,,,,,,,,,,
1644854526.772980,122.000000,0.000000,4193.333496,4199.743652,4215.384766,4219.102539,4202.820313,4213.205078,4211.153809,4213.717773,4209.743652,4217.307617,4210.000000,4204.358887,4184.358887,4189.230957,0.000000,4.000000,82.000000,,,,0.000000,4.000000,4.000000,4.000000,4.000000,4.000000,4.000000,4.000000,4.000000,4.000000,4.000000,4.000000,4.000000,4.000000,4.000000,100.000000,,,,,,,,,,,,,,,,
1644854526.776920,123.000000,0.000000,4179.102539,4194.487305,4215.128418,4210.512695,4198.717773,4212.948730,4210.897461,4214.102539,4208.077148,4213.589844,4228.333496,4202.179688,4190.512695,4187.692383,0.000000,4.000000,82.000000,,,,0.000000,4.000000,4.000000,4.000000,4.000000,4.000000,4.000000,4.000000,4.000000,4.000000,4.000000,4.000000,4.000000,4.000000,4.000000,100.000000,,,,,,,,,,,,,,,,
1644854526.780860,124.000000,0.000000,4163.974121,4188.077148,4212.179688,4191.025879,4198.846191,4214.230957,4213.461426,4215.512695,4207.692383,4205.769043,4235.641113,4200.000000,4186.153809,4186.153809,0.000000,4.000000,82.000000,,,,0.000000,4.000000,4.000000,4.000000,4.000000,4.000000,4.000000,4.000000,4.000000,4.000000,4.000000,4.000000,4.000000,4.000000,4.000000,100.000000,,,,,,,,,,,,,,,,
1644854526.784800,125.000000,0.000000,4155.769043,4183.589844,4207.436035,4170.128418,4204.358887,4216.538574,4216.538574,4217.051270,4209.358887,4196.666504,4224.487305,4198.077148,4173.077148,4181.922852,0.000000,4.000000,82.000000,,,,0.000000,4.000000,4.000000,4.000000,4.000000,4.000000,4.000000,4.000000,4.000000,4.000000,4.000000,4.000000,4.000000,4.000000,4.000000,100.000000,,,,,,,,,,,,,,,,
1644854526.788740,126.000000,0.000000,4157.563965,4182.436035,4203.205078,4160.256348,4213.461426,4217.948730,4217.051270,4217.563965,4212.563965,4191.153809,4202.051270,4195.512695,4158.333496,4174.743652,0.000000,4.000000,82.000000,,,,0.000000,4.000000,4.000000,4.000000,4.000000,4.000000,4.000000,4.000000,4.000000,4.000000,4.000000,4.000000,4.000000,4.000000,4.000000,100.000000,,,,,,,,,,,,,,,,
1644854526.792681,127.000000,0.000000,4167.563965,4183.974121,4201.794922,4167.307617,4221.282227,4216.922852,4214.615234,4216.538574,4215.256348,4193.077148,4183.974121,4191.922852,4150.512695,4169.358887,0.000000,4.000000,82.000000,,,,0.000000,4.000000,4.000000,4.000000,4.000000,4.000000,4.000000,4.000000,4.000000,4.000000,4.000000,4.000000,4.000000,4.000000,4.000000,100.000000,,,,,,,,,,,,,,,,
1644854526.796621,128.000000,0.000000,4179.743652,4186.794922,4203.461426,4185.897461,4222.179688,4214.102539,4212.051270,4214.871582,4215.641113,4203.717773,4181.410156,4187.307617,4155.000000,4171.025879,3416.000000,4.000000,82.000000,,,,0.000000,4.000000,4.000000,4.000000,4.000000,4.000000,4.000000,4.000000,4.000000,4.000000,4.000000,4.000000,4.000000,4.000000,4.000000,100.000000,,,,,,,,,,,,,,,,
1644854526.800561,129.000000,0.000000,4189.358887,4190.897461,4206.666504,4205.256348,4214.743652,4211.794922,4211.282227,4213.717773,4213.717773,4219.487305,4194.358887,4182.820313,4171.922852,4180.256348,3346.000000,4.000000,82.000000,,,,0.000000,4.000000,4.000000,4.000000,4.000000,4.000000,4.000000,4.000000,4.000000,4.000000,4.000000,4.000000,4.000000,4.000000,4.000000,100.000000,,,,,,,,,,,,,,,,
1644854526.804501,130.000000,0.000000,4194.615234,4196.922852,4209.102539,4217.820313,4205.256348,4212.307617,4212.436035,4214.743652,4212.563965,4233.461426,4213.461426,4180.512695,4195.512695,4191.538574,3392.000000,4.000000,82.000000,,,,0.000000,4.000000,4.000000,4.000000,4.000000,4.000000,4.000000,4.000000,4.000000,4.000000,4.000000,4.000000,4.000000,4.000000,4.000000,100.000000,,,,,,,,,,,,,,,,
1644854526.808441,131.000000,0.000000,4196.922852,4204.743652,4210.384766,4222.179688,4202.051270,4216.282227,4214.230957,4218.333496,4214.743652,4240.000000,4228.846191,4181.922852,4215.897461,4197.948730,3517.000000,4.000000,82.000000,,,,0.000000,4.000000,4.000000,4.000000,4.000000,4.000000,4.000000,4.000000,4.000000,4.000000,4.000000,4.000000,4.000000,4.000000,4.000000,100.000000,,,,,,,,,,,,,,,,
1644854526.812381,132.000000,0.000000,4196.794922,4211.025879,4211.410156,4220.512695,4207.563965,4220.897461,4216.025879,4223.205078,4220.512695,4236.922852,4234.871582,4186.666504,4223.974121,4196.794922,3523.000000,4.000000,82.000000,,,,0.000000,4.000000,4.000000,4.000000,4.000000,4.000000,4.000000,4.000000,4.000000,4.000000,4.000000,4.000000,4.000000,4.000000,4.000000,100.000000,,,,,,,,,,,,,,,,
1644854526.816321,133.000000,0.000000,4193.205078,4212.820313,4213.333496,4215.384766,4216.153809,4222.820313,4217.948730,4226.538574,4226.153809,4227.051270,4232.692383,4192.563965,4216.153809,4189.743652,3366.000000,4.000000,82.000000,,,,0.000000,4.000000,4.000000,4.000000,4.000000,4.000000,4.000000,4.000000,4.000000,4.000000,4.000000,4.000000,4.000000,4.000000,4.000000,100.000000,,,,,,,,,,,,,,,,
1644854526.820261,134.000000,0.000000,4185.256348,4209.230957,4215.897461,4208.461426,4218.717773,4221.153809,4219.230957,4226.282227,4228.205078,4216.410156,4226.794922,4197.436035,4197.179688,4180.256348,2652.000000,4.000000,82.000000,,,,0.000000,4.000000,4.000000,4.000000,4.000000,4.000000,4.000000,4.000000,4.000000,4.000000,4.000000,4.000000,4.000000,4.000000,4.000000,100.000000,,,,,,,,,,,,,,,,
1644854526.824301,135.000000,0.000000,4175.641113,4202.948730,4217.820313,4200.512695,4212.820313,4217.820313,4218.333496,4222.692383,4226.025879,4210.384766,4221.410156,4200.384766,4176.794922,4170.641113,2886.000000,4.000000,82.000000,,,,0.000000,4.000000,4.000000,4.000000,4.000000,4.000000,4.000000,4.000000,4.000000,4.000000,4.000000,4.000000,4.000000,4.000000,4.000000,100.000000,,,,,,,,,,,,,,,,
1644854526.828241,136.000000,0.000000,4169.230957,4198.717773,4217.820313,4193.461426,4203.846191,4215.384766,4215.128418,4217.948730,4221.794922,4211.410156,4217.436035,4201.538574,4164.743652,4162.820313,3296.000000,4.000000,82.000000,,,,0.000000,4.000000,4.000000,4.000000,4.000000,4.000000,4.000000,4.000000,4.000000,4.000000,4.000000,4.000000,4.000000,4.000000,4.000000,100.000000,,,,,,,,,,,,,,,,
1644854526.832182,137.000000,0.000000,4168.846191,4199.102539,4215.384766,4190.000000,4200.512695,4215.512695,4212.307617,4214.871582,4218.846191,4217.692383,4213.846191,4200.512695,4165.384766,4159.871582,3520.000000,4.000000,82.000000,,,,0.000000,4.000000,4.000000,4.000000,4.000000,4.000000,4.000000,4.000000,4.000000,4.000000,4.000000,4.000000,4.000000,4.000000,4.000000,100.000000,,,,,,,,,,,,,,,,
1644854526.836122,138.000000,0.000000,4174.102539,4203.333496,4211.025879,4191.794922,4207.051270,4217.179688,4213.077148,4214.615234,4217.692383,4224.358887,4210.384766,4196.538574,4175.897461,4164.230957,3559.000000,4.000000,82.000000,,,,0.000000,4.000000,4.000000,4.000000,4.000000,4.000000,4.000000,4.000000,4.000000,4.000000,4.000000,4.000000,4.000000,4.000000,4.000000,100.000000,,,,,,,,,,,,,,,,
1644854526.840062,139.000000,0.000000,4181.153809,4207.820313,4206.153809,4197.436035,4219.358887,4218.589844,4217.307617,4216.025879,4217.307617,4227.436035,4209.102539,4189.743652,4189.615234,4175.000000,2402.000000,4.000000,82.000000,,,,0.000000,4.000000,4.000000,4.000000,4.000000,4.000000,4.000000,4.000000,4.000000,4.000000,4.000000,4.000000,4.000000,4.000000,4.000000,100.000000,,,,,,,,,,,,,,,,
1644854526.844002,140.000000,0.000000,4186.538574,4209.743652,4202.692383,4204.230957,4228.717773,4218.333496,4221.025879,4217.179688,4216.538574,4226.153809,4211.666504,4182.692383,4200.256348,4186.922852,3338.000000,4.000000,82.000000,,,,0.000000,4.000000,4.000000,4.000000,4.000000,4.000000,4.000000,4.000000,4.000000,4.000000,4.000000,4.000000,4.000000,4.000000,4.000000,100.000000,,,,,,,,,,,,,,,,
1644854526.847942,141.000000,0.000000,4188.461426,4208.974121,4202.563965,4209.358887,4228.589844,4216.666504,4220.641113,4217.179688,4215.384766,4223.077148,4217.051270,4179.230957,4204.871582,4194.102539,3480.000000,4.000000,82.000000,,,,0.000000,4.000000,4.000000,4.000000,4.000000,4.000000,4.000000,4.000000,4.000000,4.000000,4.000000,4.000000,4.000000,4.000000,4.000000,100.000000,,,,,,,,,,,,,,,,
1644854526.851882,142.000000,0.000000,4186.922852,4206.794922,4206.025879,4211.410156,4220.000000,4215.256348,4217.179688,4216.153809,4214.487305,4220.128418,4220.641113,4180.512695,4203.717773,4194.230957,3559.000000,4.000000,82.000000,,,,0.000000,4.000000,4.000000,4.000000,4.000000,4.000000,4.000000,4.000000,4.000000,4.000000,4.000000,4.000000,4.000000,4.000000,4.000000,100.000000,,,,,,,,,,,,,,,,
1644854526.855822,143.000000,0.000000,4183.205078,4204.102539,4211.794922,4210.512695,4209.871582,4215.512695,4215.384766,4215.641113,4214.102539,4217.692383,4218.461426,4184.230957,4198.589844,4188.974121,2402.000000,4.000000,82.000000,,,,0.000000,4.000000,4.000000,4.000000,4.000000,4.000000,4.000000,4.000000,4.000000,4.000000,4.000000,4.000000,4.000000,4.000000,4.000000,100.000000,,,,,,,,,,,,,,,,
1644854526.859762,144.000000,0.000000,4179.487305,4201.025879,4216.794922,4209.871582,4205.897461,4216.794922,4217.563965,4216.410156,4213.974121,4215.000000,4210.641113,4187.436035,4191.025879,4181.794922,3338.000000,4.000000,82.000000,,,,0.000000,4.000000,4.000000,4.000000,4.000000,4.000000,4.000000,4.000000,4.000000,4.000000,4.000000,4.000000,4.000000,4.000000,4.000000,100.000000,1.000000,75.000000,3.000000,4.000000,4.000000,4.000000,4.000000,4.000000,4.000000,4.000000,4.000000,4.000000,4.000000,4.000000,3.000000,3.000000
1644854526.863702,145.000000,0.000000,4178.333496,4197.692383,4218.589844,4213.077148,4210.128418,4217.692383,4221.153809,4217.179688,4213.205078,4212.051270,4201.410156,4188.461426,4183.205078,4175.641113,3480.000000,4.000000,82.000000,,,,0.000000,4.000000,4.000000,4.000000,4.000000,4.000000,4.000000,4.000000,4.000000,4.000000,4.000000,4.000000,4.000000,4.000000,4.000000,100.000000,,,,,,,,,,,,,,,,
1644854526.867642,146.000000,0.000000,4180.897461,4194.615234,4216.922852,4220.769043,4217.307617,4217.307617,4221.282227,4216.025879,4211.410156,4209.743652,4196.153809,4187.948730,4177.692383,4172.563965,3559.000000,4.000000,82.000000,,,,0.000000,4.000000,4.000000,4.000000,4.000000,4.000000,4.000000,4.000000,4.000000,4.000000,4.000000,4.000000,4.000000,4.000000,4.000000,100.000000,,,,,,,,,,,,,,,,
1644854526.871583,147.000000,0.000000,4186.794922,4193.333496,4213.974121,4227.820313,4220.000000,4216.153809,4217.820313,4212.692383,4208.846191,4209.871582,4196.794922,4187.179688,4176.025879,4173.974121,2402.000000,4.000000,82.000000,,,,0.000000,4.000000,4.000000,4.000000,4.000000,4.000000,4.000000,4.000000,4.000000,4.000000,4.000000,4.000000,4.000000,4.000000,4.000000,100.000000,,,,,,,,,,,,,,,,
1644854526.875523,148.000000,0.000000,4193.717773,4195.000000,4213.077148,4227.179688,4215.512695,4215.384766,4215.384766,4209.615234,4207.563965,4212.179688,4202.179688,4187.563965,4177.820313,4179.358887,3338.000000,4.000000,82.000000,,,,0.000000,4.000000,4.000000,4.000000,4.000000,4.000000,4.000000,4.000000,4.000000,4.000000,4.000000,4.000000,4.000000,4.000000,4.000000,100.000000,,,,,,,,,,,,,,,,
1644854526.879463,149.000000,0.000000,4198.333496,4199.487305,4215.512695,4215.384766,4208.077148,4216.282227,4217.692383,4210.000000,4209.358887,4214.102539,4209.615234,4189.230957,4181.410156,4185.000000,3480.000000,4.000000,82.000000,,,,0.000000,4.000000,4.000000,4.000000,4.000000,4.000000,4.000000,4.000000,4.000000,4.000000,4.000000,4.000000,4.000000,4.000000,4.000000,100.000000,,,,,,,,,,,,,,,,
1644854526.883403,150.000000,0.000000,4197.436035,4204.743652,4218.974121,4196.666504,4205.256348,4219.358887,4223.461426,4214.487305,4214.743652,4214.487305,4216.538574,4191.538574,4184.230957,4186.666504,3559.000000,4.000000,82.000000,,,,0.000000,4.000000,4.000000,4.000000,4.000000,4.000000,4.000000,4.000000,4.000000,4.000000,4.000000,4.000000,4.000000,4.000000,4.000000,100.000000,,,,,,,,,,,,,,,,
1644854526.887343,151.000000,0.000000,4190.512695,4208.333496,4220.256348,4180.512695,4210.256348,4222.948730,4227.179688,4220.512695,4221.666504,4214.230957,4220.384766,4193.077148,4184.871582,4182.820313,2402.000000,4.000000,82.000000,,,,0.000000,4.000000,4.000000,4.000000,4.000000,4.000000,4.000000,4.000000,4.000000,4.000000,4.000000,4.000000,4.000000,4.000000,4.000000,100.000000,,,,,,,,,,,,,,,,
1644854526.891283,152.000000,0.000000,4180.128418,4208.205078,4217.820313,4176.410156,4219.358887,4224.615234,4225.897461,4224.743652,4226.153809,4215.897461,4219.615234,4193.333496,4183.205078,4177.179688,3338.000000,4.000000,82.000000,,,,0.000000,4.000000,4.000000,4.000000,4.000000,4.000000,4.000000,4.000000,4.000000,4.000000,4.000000,4.000000,4.000000,4.000000,4.000000,100.000000,,,,,,,,,,,,,,,,
1644854526.895223,153.000000,0.000000,4171.538574,4204.358887,4212.948730,4188.589844,4225.256348,4222.692383,4221.538574,4225.256348,4225.512695,4219.743652,4215.384766,4192.179688,4180.769043,4175.128418,3480.000000,4.000000,82.000000,,,,0.000000,4.000000,4.000000,4.000000,4.000000,4.000000,4.000000,4.000000,4.000000,4.000000,4.000000,4.000000,4.000000,4.000000,4.000000,100.000000,,,,,,,,,,,,,,,,
1644854526.899163,154.000000,0.000000,4169.615234,4199.230957,4207.948730,4212.051270,4223.846191,4217.563965,4217.820313,4222.436035,4220.000000,4222.563965,4211.410156,4189.102539,4180.000000,4177.820313,3559.000000,4.000000,82.000000,,,,0.000000,4.000000,4.000000,4.000000,4.000000,4.000000,4.000000,4.000000,4.000000,4.000000,4.000000,4.000000,4.000000,4.000000,4.000000,100.000000,,,,,,,,,,,,,,,,
1644854526.903103,155.000000,0.000000,4175.128418,4196.538574,4203.589844,4233.205078,4216.794922,4211.922852,4215.769043,4218.205078,4212.948730,4220.641113,4210.384766,4184.102539,4181.282227,4180.769043,2402.000000,4.000000,82.000000,,,,0.000000,4.000000,4.000000,4.000000,4.000000,4.000000,4.000000,4.000000,4.000000,4.000000,4.000000,4.000000,4.000000,4.000000,4.000000,100.000000,,,,,,,,,,,,,,,,
1644854526.907044,156.000000,0.000000,4183.846191,4198.846191,4200.000000,4237.948730,4208.974121,4208.461426,4214.102539,4214.487305,4208.589844,4214.358887,4210.384766,4178.717773,4182.436035,4179.102539,3338.000000,4.000000,82.000000,,,,0.000000,4.000000,4.000000,4.000000,4.000000,4.000000,4.000000,4.000000,4.000000,4.000000,4.000000,4.000000,4.000000,4.000000,4.000000,100.000000,,,,,,,,,,,,,,,,
1644854526.910984,157.000000,0.000000,4190.000000,4205.256348,4197.692383,4222.436035,4205.000000,4208.974121,4213.077148,4212.563965,4209.102539,4208.717773,4207.948730,4176.410156,4180.128418,4172.820313,3480.000000,4.000000,82.000000,,,,0.000000,4.000000,4.000000,4.000000,4.000000,4.000000,4.000000,4.000000,4.000000,4.000000,4.000000,4.000000,4.000000,4.000000,4.000000,100.000000,,,,,,,,,,,,,,,,
1644854526.914924,158.000000,0.000000,4190.256348,4212.051270,4198.205078,4197.051270,4205.769043,4212.563965,4214.615234,4213.461426,4213.333496,4208.974121,4202.179688,4179.487305,4173.846191,4167.051270,3559.000000,4.000000,82.000000,,,,0.000000,4.000000,4.000000,4.000000,4.000000,4.000000,4.000000,4.000000,4.000000,4.000000,4.000000,4.000000,4.000000,4.000000,4.000000,100.000000,,,,,,,,,,,,,,,,
1644854526.918864,159.000000,0.000000,4185.769043,4214.615234,4202.307617,4178.589844,4209.230957,4216.794922,4219.102539,4217.692383,4218.589844,4215.769043,4196.794922,4186.922852,4166.282227,4166.538574,2402.000000,4.000000,82.000000,,,,0.000000,4.000000,4.000000,4.000000,4.000000,4.000000,4.000000,4.000000,4.000000,4.000000,4.000000,4.000000,4.000000,4.000000,4.000000,100.000000,,,,,,,,,,,,,,,,
1644854526.922804,160.000000,0.000000,4180.769043,4210.897461,4208.589844,4178.461426,4212.051270,4219.743652,4223.974121,4223.717773,4222.820313,4224.230957,4197.179688,4194.743652,4162.820313,4170.512695,3338.000000,4.000000,82.000000,,,,0.000000,4.000000,4.000000,4.000000,4.000000,4.000000,4.000000,4.000000,4.000000,4.000000,4.000000,4.000000,4.000000,4.000000,4.000000,100.000000,,,,,,,,,,,,,,,,
1644854526.926744,161.000000,0.000000,4179.230957,4203.205078,4213.846191,4195.512695,4213.717773,4220.897461,4225.256348,4228.333496,4225.769043,4228.461426,4204.871582,4199.102539,4167.051270,4174.743652,3480.000000,4.000000,82.000000,,,,0.000000,4.000000,4.000000,4.000000,4.000000,4.000000,4.000000,4.000000,4.000000,4.000000,4.000000,4.000000,4.000000,4.000000,4.000000,100.000000,,,,,,,,,,,,,,,,
1644854526.930684,162.000000,0.000000,4181.922852,4197.051270,4215.897461,4218.333496,4215.769043,4221.153809,4222.948730,4229.487305,4227.307617,4225.897461,4216.794922,4198.974121,4178.846191,4177.307617,3559.000000,4.000000,82.000000,,,,0.000000,4.000000,4.000000,4.000000,4.000000,4.000000,4.000000,4.000000,4.000000,4.000000,4.000000,4.000000,4.000000,4.000000,4.000000,100.000000,,,,,,,,,,,,,,,,
1644854526.934624,163.000000,0.000000,4186.538574,4197.820313,4215.256348,4233.974121,4220.128418,4221.410156,4220.897461,4227.692383,4227.436035,4219.358887,4227.179688,4196.025879,4193.846191,4180.641113,2402.000000,4.000000,82.000000,,,,0.000000,4.000000,4.000000,4.000000,4.000000,4.000000,4.000000,4.000000,4.000000,4.000000,4.000000,4.000000,4.000000,4.000000,4.000000,100.000000,,,,,,,,,,,,,,,,
1644854526.938564,164.000000,0.000000,4189.230957,4206.153809,4214.230957,4235.384766,4226.025879,4221.538574,4221.922852,4225.641113,4226.666504,4215.128418,4232.563965,4192.948730,4206.794922,4187.307617,3338.000000,4.000000,82.000000,,,,0.000000,4.000000,4.000000,4.000000,4.000000,4.000000,4.000000,4.000000,4.000000,4.000000,4.000000,4.000000,4.000000,4.000000,4.000000,100.000000,,,,,,,,,,,,,,,,
1644854526.942504,165.000000,0.000000,4188.461426,4217.436035,4215.256348,4223.589844,4230.384766,4221.538574,4225.000000,4225.384766,4225.897461,4216.794922,4233.974121,4192.436035,4213.333496,4196.538574,3480.000000,4.000000,82.000000,,,,0.000000,4.000000,4.000000,4.000000,4.000000,4.000000,4.000000,4.000000,4.000000,4.000000,4.000000,4.000000,4.000000,4.000000,4.000000,100.000000,,,,,,,,,,,,,,,,
1644854526.946445,166.000000,0.000000,4186.153809,4224.102539,4218.461426,4207.051270,4230.256348,4221.282227,4226.538574,4226.666504,4224.743652,4222.692383,4234.230957,4195.000000,4211.410156,4202.948730,3559.000000,4.000000,82.000000,,,,0.000000,4.000000,4.000000,4.000000,4.000000,4.000000,4.000000,4.000000,4.000000,4.000000,4.000000,4.000000,4.000000,4.000000,4.000000,100.000000,,,,,,,,,,,,,,,,
1644854526.950385,167.000000,0.000000,4185.384766,4221.538574,4221.538574,4195.512695,4225.256348,4220.769043,4224.871582,4226.922852,4222.563965,4227.179688,4234.358887,4199.871582,4202.051270,4201.666504,2402.000000,4.000000,82.000000,,,,0.000000,4.000000,4.000000,4.000000,4.000000,4.000000,4.000000,4.000000,4.000000,4.000000,4.000000,4.000000,4.000000,4.000000,4.000000,100.000000,,,,,,,,,,,,,,,,
1644854526.954325,168.000000,0.000000,4187.820313,4211.153809,4222.563965,4195.384766,4218.205078,4219.230957,4221.922852,4224.487305,4218.846191,4225.641113,4231.025879,4204.743652,4188.717773,4192.307617,3338.000000,4.000000,82.000000,,,,0.000000,4.000000,4.000000,4.000000,4.000000,4.000000,4.000000,4.000000,4.000000,4.000000,4.000000,4.000000,4.000000,4.000000,4.000000,100.000000,,,,,,,,,,,,,,,,
1644854526.958265,169.000000,0.000000,4192.179688,4199.358887,4221.538574,4206.153809,4212.820313,4216.666504,4220.897461,4220.256348,4214.615234,4218.077148,4220.384766,4207.307617,4177.436035,4179.358887,3480.000000,4.000000,82.000000,,,,0.000000,4.000000,4.000000,4.000000,4.000000,4.000000,4.000000,4.000000,4.000000,4.000000,4.000000,4.000000,4.000000,4.000000,4.000000,100.000000,,,,,,,,,,,,,,,,
1644854526.962205,170.000000,0.000000,4195.384766,4193.589844,4219.871582,4221.410156,4211.794922,4214.487305,4222.307617,4216.794922,4211.666504,4209.743652,4204.102539,4206.538574,4173.333496,4168.974121,3559.000000,4.000000,82.000000,,,,0.000000,4.000000,4.000000,4.000000,4.000000,4.000000,4.000000,4.000000,4.000000,4.000000,4.000000,4.000000,4.000000,4.000000,4.000000,100.000000,,,,,,,,,,,,,,,,
1644854526.966045,171.000000,0.000000,4195.641113,4196.538574,4219.102539,4232.436035,4214.743652,4214.871582,4224.487305,4216.922852,4211.666504,4207.051270,4190.641113,4203.333496,4177.563965,4165.512695,2402.000000,4.000000,82.000000,,,,0.000000,4.000000,4.000000,4.000000,4.000000,4.000000,4.000000,4.000000,4.000000,4.000000,4.000000,4.000000,4.000000,4.000000,4.000000,100.000000,,,,,,,,,,,,,,,,
1644854526.969985,172.000000,0.000000,4193.846191,4205.897461,4219.487305,4233.333496,4219.358887,4218.974121,4227.051270,4220.384766,4215.000000,4211.922852,4189.358887,4200.000000,4185.897461,4170.256348,3338.000000,4.000000,82.000000,,,,0.000000,4.000000,4.000000,4.000000,4.000000,4.000000,4.000000,4.000000,4.000000,4.000000,4.000000,4.000000,4.000000,4.000000,4.000000,100.000000,,,,,,,,,,,,,,,,
1644854526.973925,173.000000,0.000000,4191.922852,4215.512695,4220.384766,4224.871582,4223.461426,4225.384766,4230.641113,4225.512695,4219.871582,4220.512695,4202.948730,4198.717773,4192.179688,4180.384766,3480.000000,4.000000,82.000000,,,,0.000000,4.000000,4.000000,4.000000,4.000000,4.000000,4.000000,4.000000,4.000000,4.000000,4.000000,4.000000,4.000000,4.000000,4.000000,100.000000,,,,,,,,,,,,,,,,
1644854526.977866,174.000000,0.000000,4191.666504,4220.897461,4221.153809,4213.589844,4226.410156,4230.897461,4235.384766,4230.000000,4223.846191,4226.282227,4224.615234,4199.743652,4192.307617,4190.128418,3559.000000,4.000000,82.000000,,,,0.000000,4.000000,4.000000,4.000000,4.000000,4.000000,4.000000,4.000000,4.000000,4.000000,4.000000,4.000000,4.000000,4.000000,4.000000,100.000000,,,,,,,,,,,,,,,,
1644854526.981806,175.000000,0.000000,4193.333496,4221.666504,4221.538574,4207.436035,4229.615234,4232.692383,4239.358887,4232.692383,4226.282227,4226.282227,4242.307617,4202.307617,4187.436035,4193.205078,2402.000000,4.000000,82.000000,,,,0.000000,4.000000,4.000000,4.000000,4.000000,4.000000,4.000000,4.000000,4.000000,4.000000,4.000000,4.000000,4.000000,4.000000,4.000000,100.000000,,,,,,,,,,,,,,,,
1644854526.985646,176.000000,0.000000,4196.794922,4220.897461,4222.563965,4209.358887,4234.487305,4230.384766,4239.487305,4233.589844,4228.461426,4222.692383,4248.205078,4205.512695,4182.820313,4188.717773,3338.000000,4.000000,82.000000,,,,0.000000,4.000000,4.000000,4.000000,4.000000,4.000000,4.000000,4.000000,4.000000,4.000000,4.000000,4.000000,4.000000,4.000000,4.000000,100.000000,,,,,,,,,,,,,,,,
1644854526.989586,177.000000,0.000000,4200.897461,4221.794922,4224.743652,4215.769043,4239.871582,4226.410156,4236.025879,4233.846191,4231.538574,4220.641113,4243.205078,4208.077148,4183.333496,4182.436035,3480.000000,4.000000,82.000000,,,,0.000000,4.000000,4.000000,4.000000,4.000000,4.000000,4.000000,4.000000,4.000000,4.000000,4.000000,4.000000,4.000000,4.000000,4.000000,100.000000,,,,,,,,,,,,,,,,
1644854526.993526,178.000000,0.000000,4204.102539,4223.846191,4228.077148,4220.128418,4241.410156,4223.974121,4232.051270,4234.615234,4235.128418,4223.333496,4234.102539,4208.846191,4189.102539,4181.922852,3559.000000,4.000000,82.000000,,,,0.000000,4.000000,4.000000,4.000000,4.000000,4.000000,4.000000,4.000000,4.000000,4.000000,4.000000,4.000000,4.000000,4.000000,4.000000,100.000000,,,,,,,,,,,,,,,,
1644854526.997466,179.000000,0.000000,4203.974121,4223.974121,4231.410156,4218.974121,4235.897461,4224.615234,4231.025879,4236.922852,4237.436035,4229.487305,4226.666504,4208.461426,4195.769043,4188.846191,2402.000000,4.000000,82.000000,,,,0.000000,4.000000,4.000000,4.000000,4.000000,4.000000,4.000000,4.000000,4.000000,4.000000,4.000000,4.000000,4.000000,4.000000,4.000000,100.000000,,,,,,,,,,,,,,,,
1644854527.001406,180.000000,0.000000,4199.871582,4219.487305,4233.333496,4214.358887,4225.769043,4227.692383,4233.205078,4239.871582,4237.563965,4236.282227,4222.436035,4209.102539,4199.102539,4195.128418,3338.000000,4.000000,82.000000,,,,0.000000,4.000000,4.000000,4.000000,4.000000,4.000000,4.000000,4.000000,4.000000,4.000000,4.000000,4.000000,4.000000,4.000000,4.000000,100.000000,,,,,,,,,,,,,,,,
1644854527.005346,181.000000,0.000000,4193.717773,4211.282227,4233.461426,4212.179688,4217.563965,4230.769043,4235.384766,4242.179688,4236.538574,4241.666504,4220.256348,4212.307617,4198.846191,4191.922852,3480.000000,4.000000,82.000000,,,,0.000000,4.000000,4.000000,4.000000,4.000000,4.000000,4.000000,4.000000,4.000000,4.000000,4.000000,4.000000,4.000000,4.000000,4.000000,100.000000,,,,,,,,,,,,,,,,
1644854527.009286,182.000000,0.000000,4188.974121,4204.230957,4231.794922,4217.051270,4216.794922,4232.179688,4235.000000,4242.820313,4236.153809,4245.128418,4219.102539,4216.794922,4198.461426,4178.333496,3559.000000,4.000000,82.000000,,,,0.000000,4.000000,4.000000,4.000000,4.000000,4.000000,4.000000,4.000000,4.000000,4.000000,4.000000,4.000000,4.000000,4.000000,4.000000,100.000000,,,,,,,,,,,,,,,,
1644854527.013227,183.000000,0.000000,4188.461426,4203.461426,4229.871582,4227.436035,4223.077148,4231.794922,4233.205078,4242.692383,4238.077148,4246.794922,4219.487305,4219.102539,4200.256348,4163.974121,2402.000000,4.000000,82.000000,,,,0.000000,4.000000,4.000000,4.000000,4.000000,4.000000,4.000000,4.000000,4.000000,4.000000,4.000000,4.000000,4.000000,4.000000,4.000000,100.000000,,,,,,,,,,,,,,,,
1644854527.017167,184.000000,0.000000,4193.461426,4210.512695,4229.102539,4236.666504,4231.025879,4230.769043,4232.692383,4242.692383,4242.051270,4246.538574,4221.153809,4217.563965,4203.589844,4159.743652,3338.000000,4.000000,82.000000,,,,0.000000,4.000000,4.000000,4.000000,4.000000,4.000000,4.000000,4.000000,4.000000,4.000000,4.000000,4.000000,4.000000,4.000000,4.000000,100.000000,,,,,,,,,,,,,,,,
1644854527.021107,185.000000,0.000000,4202.436035,4222.692383,4230.128418,4238.589844,4236.025879,4230.769043,4234.615234,4243.205078,4246.794922,4244.102539,4223.717773,4214.358887,4206.666504,4167.820313,3480.000000,4.000000,82.000000,,,,0.000000,4.000000,4.000000,4.000000,4.000000,4.000000,4.000000,4.000000,4.000000,4.000000,4.000000,4.000000,4.000000,4.000000,4.000000,100.000000,,,,,,,,,,,,,,,,
1644854527.025047,186.000000,0.000000,4211.922852,4234.487305,4231.794922,4232.563965,4237.051270,4231.922852,4236.538574,4243.589844,4249.743652,4240.256348,4226.666504,4212.948730,4208.846191,4181.153809,3559.000000,4.000000,82.000000,,,,0.000000,4.000000,4.000000,4.000000,4.000000,4.000000,4.000000,4.000000,4.000000,4.000000,4.000000,4.000000,4.000000,4.000000,4.000000,100.000000,,,,,,,,,,,,,,,,
1644854527.028987,187.000000,0.000000,4217.051270,4240.512695,4232.179688,4223.333496,4236.794922,4233.461426,4236.153809,4243.077148,4249.743652,4236.794922,4230.128418,4214.743652,4210.897461,4190.512695,2402.000000,4.000000,82.000000,,,,0.000000,4.000000,4.000000,4.000000,4.000000,4.000000,4.000000,4.000000,4.000000,4.000000,4.000000,4.000000,4.000000,4.000000,4.000000,100.000000,,,,,,,,,,,,,,,,
1644854527.033027,188.000000,0.000000,4214.487305,4238.077148,4230.641113,4216.153809,4237.051270,4233.846191,4233.974121,4241.153809,4246.538574,4236.025879,4233.974121,4216.922852,4212.948730,4191.922852,3338.000000,4.000000,82.000000,,,,0.000000,4.000000,4.000000,4.000000,4.000000,4.000000,4.000000,4.000000,4.000000,4.000000,4.000000,4.000000,4.000000,4.000000,4.000000,100.000000,,,,,,,,,,,,,,,,
1644854527.036967,189.000000,0.000000,4204.487305,4228.717773,4228.461426,4214.871582,4238.205078,4232.563965,4232.436035,4238.333496,4241.538574,4238.846191,4238.205078,4215.897461,4213.077148,4187.051270,3480.000000,4.000000,82.000000,,,,0.000000,4.000000,4.000000,4.000000,4.000000,4.000000,4.000000,4.000000,4.000000,4.000000,4.000000,4.000000,4.000000,4.000000,4.000000,100.000000,,,,,,,,,,,,,,,,
1644854527.040907,190.000000,0.000000,4191.666504,4218.461426,4227.692383,4220.641113,4239.102539,4231.025879,4233.205078,4235.897461,4237.307617,4244.358887,4242.436035,4210.897461,4209.358887,4179.743652,3559.000000,4.000000,82.000000,,,,0.000000,4.000000,4.000000,4.000000,4.000000,4.000000,4.000000,4.000000,4.000000,4.000000,4.000000,4.000000,4.000000,4.000000,4.000000,100.000000,,,,,,,,,,,,,,,,
1644854527.044847,191.000000,0.000000,4182.179688,4213.589844,4227.948730,4231.153809,4239.487305,4230.641113,4234.230957,4234.102539,4236.153809,4250.384766,4246.025879,4205.000000,4203.589844,4173.077148,2402.000000,4.000000,82.000000,,,,0.000000,4.000000,4.000000,4.000000,4.000000,4.000000,4.000000,4.000000,4.000000,4.000000,4.000000,4.000000,4.000000,4.000000,4.000000,100.000000,,,,,,,,,,,,,,,,
1644854527.048787,192.000000,0.000000,4180.256348,4217.179688,4228.077148,4241.410156,4238.974121,4231.538574,4233.461426,4232.307617,4237.436035,4253.846191,4247.179688,4202.820313,4199.743652,4169.743652,3338.000000,4.000000,82.000000,,,,0.000000,4.000000,4.000000,4.000000,4.000000,4.000000,4.000000,4.000000,4.000000,4.000000,4.000000,4.000000,4.000000,4.000000,4.000000,100.000000,,,,,,,,,,,,,,,,
1644854527.052728,193.000000,0.000000,4186.153809,4225.769043,4227.051270,4245.769043,4236.922852,4232.563965,4230.769043,4230.000000,4238.077148,4251.538574,4243.589844,4205.641113,4200.512695,4170.897461,3480.000000,4.000000,82.000000,,,,0.000000,4.000000,4.000000,4.000000,4.000000,4.000000,4.000000,4.000000,4.000000,4.000000,4.000000,4.000000,4.000000,4.000000,4.000000,100.000000,,,,,,,,,,,,,,,,
1644854527.056668,194.000000,0.000000,4196.282227,4232.692383,4225.641113,4242.179688,4232.307617,4231.922852,4228.589844,4226.922852,4234.615234,4242.179688,4235.128418,4210.384766,4204.102539,4175.128418,3559.000000,4.000000,82.000000,,,,0.000000,4.000000,4.000000,4.000000,4.000000,4.000000,4.000000,4.000000,4.000000,4.000000,4.000000,4.000000,4.000000,4.000000,4.000000,100.000000,,,,,,,,,,,,,,,,
1644854527.060608,195.000000,0.000000,4204.230957,4232.436035,4225.000000,4233.077148,4225.769043,4229.230957,4227.820313,4223.974121,4226.538574,4228.846191,4225.128418,4212.436035,4205.769043,4177.948730,2402.000000,4.000000,82.000000,,,,0.000000,4.000000,4.000000,4.000000,4.000000,4.000000,4.000000,4.000000,4.000000,4.000000,4.000000,4.000000,4.000000,4.000000,4.000000,100.000000,,,,,,,,,,,,,,,,
1644854527.064548,196.000000,0.000000,4204.358887,4224.230957,4225.769043,4222.692383,4219.487305,4225.384766,4227.436035,4221.666504,4217.820313,4217.563965,4218.205078,4209.743652,4201.922852,4175.000000,3338.000000,4.000000,82.000000,,,,0.000000,4.000000,4.000000,4.000000,4.000000,4.000000,4.000000,4.000000,4.000000,4.000000,4.000000,4.000000,4.000000,4.000000,4.000000,100.000000,,,,,,,,,,,,,,,,
1644854527.068488,197.000000,0.000000,4195.128418,4212.179688,4227.179688,4214.615234,4216.922852,4221.666504,4226.025879,4221.025879,4213.717773,4213.205078,4216.410156,4205.256348,4193.205078,4166.538574,3480.000000,4.000000,82.000000,,,,0.000000,4.000000,4.000000,4.000000,4.000000,4.000000,4.000000,4.000000,4.000000,4.000000,4.000000,4.000000,4.000000,4.000000,4.000000,100.000000,,,,,,,,,,,,,,,,
1644854527.072428,198.000000,0.000000,4181.025879,4202.307617,4227.563965,4210.256348,4219.487305,4219.230957,4224.871582,4222.179688,4216.538574,4216.282227,4217.820313,4203.717773,4184.487305,4157.563965,3559.000000,4.000000,82.000000,,,,0.000000,4.000000,4.000000,4.000000,4.000000,4.000000,4.000000,4.000000,4.000000,4.000000,4.000000,4.000000,4.000000,4.000000,4.000000,100.000000,,,,,,,,,,,,,,,,
1644854527.076368,199.000000,0.000000,4169.743652,4198.974121,4225.128418,4208.846191,4225.769043,4217.948730,4225.769043,4224.487305,4223.461426,4223.077148,4218.717773,4207.307617,4180.384766,4153.846191,2402.000000,4.000000,82.000000,,,,0.000000,4.000000,4.000000,4.000000,4.000000,4.000000,4.000000,4.000000,4.000000,4.000000,4.000000,4.000000,4.000000,4.000000,4.000000,100.000000,,,,,,,,,,,,,,,,
1644854527.080308,200.000000,0.000000,4168.333496,4203.077148,4220.256348,4208.974121,4231.538574,4216.794922,4227.820313,4226.282227,4228.974121,4229.615234,4218.333496,4212.948730,4183.333496,4157.051270,3338.000000,4.000000,82.000000,,,,0.000000,4.000000,4.000000,4.000000,4.000000,4.000000,4.000000,4.000000,4.000000,4.000000,4.000000,4.000000,4.000000,4.000000,4.000000,100.000000,,,,,,,,,,,,,,,,
1644854527.084248,201.000000,0.000000,4178.461426,4211.922852,4215.769043,4210.000000,4232.563965,4215.641113,4227.179688,4225.769043,4229.230957,4233.717773,4219.230957,4214.743652,4192.051270,4164.743652,3480.000000,4.000000,82.000000,,,,0.000000,4.000000,4.000000,4.000000,4.000000,4.000000,4.000000,4.000000,4.000000,4.000000,4.000000,4.000000,4.000000,4.000000,4.000000,100.000000,,,,,,,,,,,,,,,,
1644854527.088188,202.000000,0.000000,4194.743652,4220.641113,4215.512695,4212.820313,4229.102539,4215.897461,4222.563965,4222.820313,4225.256348,4235.256348,4224.487305,4210.000000,4202.692383,4173.461426,3559.000000,4.000000,82.000000,,,,0.000000,4.000000,4.000000,4.000000,4.000000,4.000000,4.000000,4.000000,4.000000,4.000000,4.000000,4.000000,4.000000,4.000000,4.000000,100.000000,,,,,,,,,,,,,,,,
1644854527.092129,203.000000,0.000000,4208.589844,4224.743652,4221.282227,4218.717773,4224.230957,4218.589844,4217.307617,4219.487305,4220.384766,4235.384766,4232.948730,4202.307617,4210.897461,4181.666504,2402.000000,4.000000,82.000000,,,,0.000000,4.000000,4.000000,4.000000,4.000000,4.000000,4.000000,4.000000,4.000000,4.000000,4.000000,4.000000,4.000000,4.000000,4.000000,100.000000,,,,,,,,,,,,,,,,
1644854527.096069,204.000000,0.000000,4213.205078,4222.692383,4231.025879,4226.538574,4221.153809,4222.692383,4216.666504,4217.563965,4218.333496,4235.000000,4238.205078,4197.692383,4213.333496,4187.436035,3338.000000,4.000000,82.000000,,,,0.000000,4.000000,4.000000,4.000000,4.000000,4.000000,4.000000,4.000000,4.000000,4.000000,4.000000,4.000000,4.000000,4.000000,4.000000,100.000000,,,,,,,,,,,,,,,,
1644854527.100009,205.000000,0.000000,4208.461426,4217.051270,4239.102539,4232.563965,4220.641113,4226.025879,4221.538574,4217.307617,4219.615234,4234.615234,4234.487305,4200.384766,4209.743652,4188.974121,3480.000000,4.000000,82.000000,,,,0.000000,4.000000,4.000000,4.000000,4.000000,4.000000,4.000000,4.000000,4.000000,4.000000,4.000000,4.000000,4.000000,4.000000,4.000000,100.000000,,,,,,,,,,,,,,,,
1644854527.103949,206.000000,0.000000,4199.743652,4212.436035,4240.641113,4233.077148,4221.282227,4227.179688,4227.436035,4217.820313,4222.692383,4234.871582,4222.563965,4208.205078,4202.436035,4184.871582,3559.000000,4.000000,82.000000,,,,0.000000,4.000000,4.000000,4.000000,4.000000,4.000000,4.000000,4.000000,4.000000,4.000000,4.000000,4.000000,4.000000,4.000000,4.000000,100.000000,,,,,,,,,,,,,,,,
1644854527.107789,207.000000,0.000000,4193.333496,4212.179688,4235.512695,4227.436035,4221.538574,4226.282227,4228.846191,4218.461426,4224.487305,4235.128418,4210.897461,4215.256348,4195.000000,4177.179688,2402.000000,4.000000,82.000000,,,,0.000000,4.000000,4.000000,4.000000,4.000000,4.000000,4.000000,4.000000,4.000000,4.000000,4.000000,4.000000,4.000000,4.000000,4.000000,100.000000,,,,,,,,,,,,,,,,
1644854527.111729,208.000000,0.000000,4192.436035,4216.282227,4228.589844,4219.102539,4222.179688,4224.615234,4226.025879,4219.615234,4224.102539,4233.974121,4208.974121,4216.666504,4190.256348,4170.769043,3338.000000,4.000000,82.000000,,,,0.000000,4.000000,4.000000,4.000000,4.000000,4.000000,4.000000,4.000000,4.000000,4.000000,4.000000,4.000000,4.000000,4.000000,4.000000,100.000000,,,,,,,,,,,,,,,,
1644854527.115669,209.000000,0.000000,4195.769043,4222.948730,4225.769043,4214.102539,4225.641113,4223.461426,4223.461426,4221.922852,4222.179688,4231.153809,4220.256348,4213.333496,4191.025879,4169.102539,3480.000000,4.000000,82.000000,,,,0.000000,4.000000,4.000000,4.000000,4.000000,4.000000,4.000000,4.000000,4.000000,4.000000,4.000000,4.000000,4.000000,4.000000,4.000000,100.000000,,,,,,,,,,,,,,,,
1644854527.119609,210.000000,0.000000,4200.000000,4229.487305,4228.974121,4215.128418,4232.948730,4224.102539,4224.615234,4225.128418,4221.794922,4227.820313,4238.333496,4210.256348,4198.461426,4171.666504,3559.000000,4.000000,82.000000,,,,0.000000,4.000000,4.000000,4.000000,4.000000,4.000000,4.000000,4.000000,4.000000,4.000000,4.000000,4.000000,4.000000,4.000000,4.000000,100.000000,,,,,,,,,,,,,,,,
1644854527.123550,211.000000,0.000000,4203.077148,4234.102539,4235.128418,4219.871582,4241.538574,4226.153809,4228.333496,4228.333496,4224.871582,4226.666504,4251.153809,4211.282227,4210.256348,4175.256348,2402.000000,4.000000,82.000000,,,,0.000000,4.000000,4.000000,4.000000,4.000000,4.000000,4.000000,4.000000,4.000000,4.000000,4.000000,4.000000,4.000000,4.000000,4.000000,100.000000,,,,,,,,,,,,,,,,
1644854527.127490,212.000000,0.000000,4205.128418,4235.128418,4239.230957,4222.563965,4245.897461,4228.461426,4230.897461,4230.512695,4230.897461,4228.846191,4249.358887,4216.410156,4219.871582,4177.307617,3338.000000,4.000000,82.000000,,,,0.000000,4.000000,4.000000,4.000000,4.000000,4.000000,4.000000,4.000000,4.000000,4.000000,4.000000,4.000000,4.000000,4.000000,4.000000,100.000000,,,,,,,,,,,,,,,,
1644854527.131430,213.000000,0.000000,4206.410156,4231.538574,4239.358887,4221.025879,4242.307617,4229.358887,4230.384766,4232.051270,4236.538574,4233.846191,4233.589844,4221.282227,4219.487305,4177.563965,3480.000000,4.000000,82.000000,,,,0.000000,4.000000,4.000000,4.000000,4.000000,4.000000,4.000000,4.000000,4.000000,4.000000,4.000000,4.000000,4.000000,4.000000,4.000000,100.000000,,,,,,,,,,,,,,,,
1644854527.135370,214.000000,0.000000,4205.897461,4224.358887,4236.282227,4217.948730,4232.820313,4228.974121,4228.974121,4233.461426,4239.102539,4239.358887,4215.256348,4222.436035,4206.922852,4177.563965,3559.000000,4.000000,82.000000,,,,0.000000,4.000000,4.000000,4.000000,4.000000,4.000000,4.000000,4.000000,4.000000,4.000000,4.000000,4.000000,4.000000,4.000000,4.000000,100.000000,,,,,,,,,,,,,,,,
1644854527.139310,215.000000,0.000000,4202.051270,4216.538574,4232.563965,4217.051270,4223.846191,4228.461426,4228.846191,4234.743652,4238.205078,4243.846191,4208.077148,4219.743652,4188.717773,4178.077148,2402.000000,4.000000,82.000000,,,,0.000000,4.000000,4.000000,4.000000,4.000000,4.000000,4.000000,4.000000,4.000000,4.000000,4.000000,4.000000,4.000000,4.000000,4.000000,100.000000,,,,,,,,,,,,,,,,
1644854527.143250,216.000000,0.000000,4195.769043,4212.820313,4230.256348,4219.230957,4220.384766,4228.717773,4229.871582,4234.871582,4235.897461,4246.922852,4217.820313,4216.922852,4176.538574,4177.820313,3338.000000,4.000000,82.000000,,,,0.000000,4.000000,4.000000,4.000000,4.000000,4.000000,4.000000,4.000000,4.000000,4.000000,4.000000,4.000000,4.000000,4.000000,4.000000,100.000000,,,,,,,,,,,,,,,,
1644854527.147190,217.000000,0.000000,4190.000000,4215.256348,4229.871582,4222.820313,4221.922852,4229.871582,4229.871582,4232.948730,4233.846191,4247.692383,4237.948730,4216.666504,4177.820313,4176.410156,3480.000000,4.000000,82.000000,,,,0.000000,4.000000,4.000000,4.000000,4.000000,4.000000,4.000000,4.000000,4.000000,4.000000,4.000000,4.000000,4.000000,4.000000,4.000000,100.000000,,,,,,,,,,,,,,,,
1644854527.151130,218.000000,0.000000,4188.333496,4221.025879,4231.282227,4226.025879,4224.230957,4230.897461,4228.717773,4230.256348,4232.436035,4245.256348,4255.512695,4218.846191,4191.538574,4175.512695,3559.000000,4.000000,82.000000,,,,0.000000,4.000000,4.000000,4.000000,4.000000,4.000000,4.000000,4.000000,4.000000,4.000000,4.000000,4.000000,4.000000,4.000000,4.000000,100.000000,,,,,,,,,,,,,,,,
1644854527.155070,219.000000,0.000000,4191.025879,4224.615234,4233.717773,4228.333496,4223.846191,4231.025879,4228.333496,4228.846191,4231.282227,4240.000000,4260.897461,4220.128418,4209.358887,4177.051270,2402.000000,4.000000,82.000000,,,,0.000000,4.000000,4.000000,4.000000,4.000000,4.000000,4.000000,4.000000,4.000000,4.000000,4.000000,4.000000,4.000000,4.000000,4.000000,100.000000,,,,,,,,,,,,,,,,
1644854527.159010,220.000000,0.000000,4195.641113,4223.205078,4235.769043,4229.358887,4222.436035,4230.641113,4230.000000,4229.615234,4230.128418,4235.384766,4254.230957,4218.205078,4221.538574,4180.128418,3338.000000,4.000000,82.000000,,,,0.000000,4.000000,4.000000,4.000000,4.000000,4.000000,4.000000,4.000000,4.000000,4.000000,4.000000,4.000000,4.000000,4.000000,4.000000,100.000000,,,,,,,,,,,,,,,,
1644854527.162951,221.000000,0.000000,4198.846191,4219.230957,4236.153809,4228.333496,4225.256348,4231.025879,4232.436035,4231.666504,4230.512695,4235.769043,4243.333496,4213.205078,4223.717773,4180.769043,3480.000000,4.000000,82.000000,,,,0.000000,4.000000,4.000000,4.000000,4.000000,4.000000,4.000000,4.000000,4.000000,4.000000,4.000000,4.000000,4.000000,4.000000,4.000000,100.000000,,,,,,,,,,,,,,,,
1644854527.166891,222.000000,0.000000,4199.487305,4218.077148,4233.717773,4224.871582,4235.000000,4232.563965,4232.948730,4232.692383,4233.077148,4242.820313,4236.282227,4207.692383,4218.333496,4176.922852,3559.000000,4.000000,82.000000,,,,0.000000,4.000000,4.000000,4.000000,4.000000,4.000000,4.000000,4.000000,4.000000,4.000000,4.000000,4.000000,4.000000,4.000000,4.000000,100.000000,,,,,,,,,,,,,,,,
1644854527.170831,223.000000,0.000000,4197.820313,4221.794922,4228.846191,4220.256348,4247.820313,4233.974121,4231.025879,4231.282227,4236.025879,4251.922852,4234.487305,4203.333496,4210.897461,4171.410156,2402.000000,4.000000,82.000000,,,,0.000000,4.000000,4.000000,4.000000,4.000000,4.000000,4.000000,4.000000,4.000000,4.000000,4.000000,4.000000,4.000000,4.000000,4.000000,100.000000,,,,,,,,,,,,,,,,
1644854527.174771,224.000000,0.000000,4194.743652,4228.077148,4222.948730,4217.436035,4255.000000,4233.974121,4229.102539,4227.436035,4235.897461,4255.512695,4234.743652,4200.128418,4205.384766,4170.128418,3338.000000,4.000000,82.000000,,,,0.000000,4.000000,4.000000,4.000000,4.000000,4.000000,4.000000,4.000000,4.000000,4.000000,4.000000,4.000000,4.000000,4.000000,4.000000,100.000000,,,,,,,,,,,,,,,,
1644854527.178611,225.000000,0.000000,4191.153809,4231.410156,4218.589844,4218.333496,4250.641113,4232.436035,4228.974121,4223.077148,4231.153809,4249.230957,4233.205078,4197.692383,4202.436035,4174.615234,3480.000000,4.000000,82.000000,,,,0.000000,4.000000,4.000000,4.000000,4.000000,4.000000,4.000000,4.000000,4.000000,4.000000,4.000000,4.000000,4.000000,4.000000,4.000000,100.000000,,,,,,,,,,,,,,,,
1644854527.182551,226.000000,0.000000,4187.179688,4229.102539,4216.794922,4221.666504,4236.922852,4230.641113,4229.615234,4219.615234,4224.102539,4236.025879,4230.256348,4196.410156,4201.153809,4180.641113,3559.000000,4.000000,82.000000,,,,0.000000,4.000000,4.000000,4.000000,4.000000,4.000000,4.000000,4.000000,4.000000,4.000000,4.000000,4.000000,4.000000,4.000000,4.000000,100.000000,,,,,,,,,,,,,,,,
1644854527.186491,227.000000,0.000000,4183.205078,4222.436035,4216.282227,4222.948730,4222.307617,4229.230957,4228.205078,4217.563965,4218.846191,4223.846191,4227.948730,4196.666504,4199.871582,4182.179688,2402.000000,4.000000,82.000000,,,,0.000000,4.000000,4.000000,4.000000,4.000000,4.000000,4.000000,4.000000,4.000000,4.000000,4.000000,4.000000,4.000000,4.000000,4.000000,100.000000,,,,,,,,,,,,,,,,
1644854527.190431,228.000000,0.000000,4180.128418,4215.897461,4215.256348,4218.974121,4215.384766,4227.179688,4224.230957,4216.538574,4218.077148,4220.000000,4226.922852,4197.563965,4198.077148,4177.179688,3338.000000,4.000000,82.000000,,,,0.000000,4.000000,4.000000,4.000000,4.000000,4.000000,4.000000,4.000000,4.000000,4.000000,4.000000,4.000000,4.000000,4.000000,4.000000,100.000000,,,,,,,,,,,,,,,,
1644854527.194372,229.000000,0.000000,4178.846191,4212.820313,4213.077148,4210.897461,4218.077148,4223.846191,4220.128418,4216.153809,4221.153809,4224.871582,4226.153809,4198.077148,4196.794922,4169.871582,3480.000000,4.000000,82.000000,,,,0.000000,4.000000,4.000000,4.000000,4.000000,4.000000,4.000000,4.000000,4.000000,4.000000,4.000000,4.000000,4.000000,4.000000,4.000000,100.000000,,,,,,,,,,,,,,,,
1644854527.198312,230.000000,0.000000,4180.384766,4213.333496,4211.025879,4204.358887,4226.025879,4220.128418,4218.589844,4217.051270,4224.743652,4232.563965,4225.769043,4198.205078,4197.820313,4166.538574,3559.000000,4.000000,82.000000,,,,0.000000,4.000000,4.000000,4.000000,4.000000,4.000000,4.000000,4.000000,4.000000,4.000000,4.000000,4.000000,4.000000,4.000000,4.000000,100.000000,,,,,,,,,,,,,,,,
1644854527.202252,231.000000,0.000000,4184.871582,4215.000000,4211.153809,4204.743652,4231.922852,4218.077148,4219.615234,4219.743652,4226.153809,4236.794922,4227.051270,4198.717773,4202.307617,4169.615234,2402.000000,4.000000,82.000000,,,,0.000000,4.000000,4.000000,4.000000,4.000000,4.000000,4.000000,4.000000,4.000000,4.000000,4.000000,4.000000,4.000000,4.000000,4.000000,100.000000,,,,,,,,,,,,,,,,
1644854527.206192,232.000000,0.000000,4191.666504,4216.025879,4214.487305,4213.205078,4231.538574,4218.333496,4221.410156,4223.461426,4225.384766,4236.794922,4231.410156,4200.769043,4208.974121,4177.436035,3338.000000,4.000000,82.000000,,,,0.000000,4.000000,4.000000,4.000000,4.000000,4.000000,4.000000,4.000000,4.000000,4.000000,4.000000,4.000000,4.000000,4.000000,4.000000,100.000000,,,,,,,,,,,,,,,,
1644854527.210132,233.000000,0.000000,4199.743652,4217.051270,4220.641113,4225.384766,4226.025879,4220.000000,4222.563965,4226.282227,4224.102539,4236.153809,4237.563965,4204.743652,4215.256348,4185.897461,3480.000000,4.000000,82.000000,,,,0.000000,4.000000,4.000000,4.000000,4.000000,4.000000,4.000000,4.000000,4.000000,4.000000,4.000000,4.000000,4.000000,4.000000,4.000000,100.000000,,,,,,,,,,,,,,,,
1644854527.214072,234.000000,0.000000,4207.820313,4220.384766,4227.820313,4234.743652,4219.743652,4220.641113,4223.333496,4227.179688,4224.102539,4238.333496,4242.436035,4210.000000,4218.077148,4192.179688,3559.000000,4.000000,82.000000,,,,0.000000,4.000000,4.000000,4.000000,4.000000,4.000000,4.000000,4.000000,4.000000,4.000000,4.000000,4.000000,4.000000,4.000000,4.000000,100.000000,,,,,,,,,,,,,,,,
1644854527.218012,235.000000,0.000000,4213.589844,4226.794922,4234.102539,4236.538574,4217.307617,4219.102539,4224.102539,4226.153809,4225.641113,4242.563965,4243.333496,4215.384766,4216.282227,4195.000000,2402.000000,4.000000,82.000000,,,,0.000000,4.000000,4.000000,4.000000,4.000000,4.000000,4.000000,4.000000,4.000000,4.000000,4.000000,4.000000,4.000000,4.000000,4.000000,100.000000,,,,,,,,,,,,,,,,
1644854527.221952,236.000000,0.000000,4215.128418,4233.461426,4237.563965,4230.641113,4220.128418,4216.410156,4223.717773,4224.358887,4227.820313,4245.256348,4240.128418,4219.487305,4210.769043,4193.717773,3338.000000,4.000000,82.000000,,,,0.000000,4.000000,4.000000,4.000000,4.000000,4.000000,4.000000,4.000000,4.000000,4.000000,4.000000,4.000000,4.000000,4.000000,4.000000,100.000000,,,,,,,,,,,,,,,,
1644854527.225892,237.000000,0.000000,4211.025879,4234.871582,4236.794922,4221.410156,4225.641113,4214.487305,4220.897461,4222.820313,4228.589844,4243.589844,4235.384766,4220.769043,4204.358887,4188.717773,3480.000000,4.000000,82.000000,,,,0.000000,4.000000,4.000000,4.000000,4.000000,4.000000,4.000000,4.000000,4.000000,4.000000,4.000000,4.000000,4.000000,4.000000,4.000000,100.000000,,,,,,,,,,,,,,,,
1644854527.229832,238.000000,0.000000,4202.051270,4227.563965,4232.436035,4213.333496,4228.846191,4214.615234,4217.179688,4221.794922,4227.436035,4237.563965,4232.051270,4218.333496,4199.487305,4182.692383,3559.000000,4.000000,82.000000,,,,0.000000,4.000000,4.000000,4.000000,4.000000,4.000000,4.000000,4.000000,4.000000,4.000000,4.000000,4.000000,4.000000,4.000000,4.000000,100.000000,,,,,,,,,,,,,,,,
1644854527.233773,239.000000,0.000000,4191.025879,4214.743652,4227.179688,4208.974121,4226.922852,4215.769043,4215.641113,4221.153809,4224.358887,4229.615234,4231.282227,4212.307617,4197.179688,4179.487305,2402.000000,4.000000,82.000000,,,,0.000000,4.000000,4.000000,4.000000,4.000000,4.000000,4.000000,4.000000,4.000000,4.000000,4.000000,4.000000,4.000000,4.000000,4.000000,100.000000,,,,,,,,,,,,,,,,
1644854527.237713,240.000000,0.000000,4182.436035,4204.871582,4224.615234,4207.692383,4221.538574,4216.666504,4217.820313,4220.769043,4220.769043,4222.948730,4231.922852,4205.128418,4197.563965,4181.153809,3338.000000,4.000000,82.000000,,,,0.000000,4.000000,4.000000,4.000000,4.000000,4.000000,4.000000,4.000000,4.000000,4.000000,4.000000,4.000000,4.000000,4.000000,4.000000,100.000000,,,,,,,,,,,,,,,,
1644854527.241653,241.000000,0.000000,4180.769043,4205.000000,4226.282227,4208.077148,4217.948730,4216.922852,4221.282227,4219.871582,4218.461426,4219.487305,4231.922852,4200.128418,4200.769043,4185.384766,3480.000000,4.000000,82.000000,,,,0.000000,4.000000,4.000000,4.000000,4.000000,4.000000,4.000000,4.000000,4.000000,4.000000,4.000000,4.000000,4.000000,4.000000,4.000000,100.000000,,,,,,,,,,,,,,,,
1644854527.245693,242.000000,0.000000,4187.436035,4215.256348,4230.897461,4210.000000,4220.000000,4217.692383,4222.051270,4217.948730,4218.717773,4218.717773,4230.000000,4199.102539,4205.897461,4188.589844,3559.000000,4.000000,82.000000,,,,0.000000,4.000000,4.000000,4.000000,4.000000,4.000000,4.000000,4.000000,4.000000,4.000000,4.000000,4.000000,4.000000,4.000000,4.000000,100.000000,,,,,,,,,,,,,,,,
1644854527.249633,243.000000,0.000000,4200.128418,4227.948730,4235.512695,4215.384766,4226.666504,4220.256348,4219.743652,4215.384766,4220.512695,4219.487305,4226.794922,4200.897461,4211.153809,4189.743652,2402.000000,4.000000,82.000000,,,,0.000000,4.000000,4.000000,4.000000,4.000000,4.000000,4.000000,4.000000,4.000000,4.000000,4.000000,4.000000,4.000000,4.000000,4.000000,100.000000,,,,,,,,,,,,,,,,
1644854527.253573,244.000000,0.000000,4212.692383,4235.384766,4237.436035,4225.128418,4232.692383,4224.487305,4218.077148,4213.589844,4221.282227,4220.512695,4224.871582,4202.820313,4213.717773,4190.384766,3338.000000,4.000000,82.000000,,,,0.000000,4.000000,4.000000,4.000000,4.000000,4.000000,4.000000,4.000000,4.000000,4.000000,4.000000,4.000000,4.000000,4.000000,4.000000,100.000000,,,,,,,,,,,,,,,,
1644854527.257513,245.000000,0.000000,4219.743652,4235.256348,4236.410156,4237.436035,4234.358887,4228.846191,4220.256348,4214.615234,4220.128418,4221.794922,4225.769043,4203.333496,4212.436035,4192.436035,3480.000000,4.000000,82.000000,,,,0.000000,4.000000,4.000000,4.000000,4.000000,4.000000,4.000000,4.000000,4.000000,4.000000,4.000000,4.000000,4.000000,4.000000,4.000000,100.000000,,,,,,,,,,,,,,,,
1644854527.261453,246.000000,0.000000,4219.871582,4232.179688,4234.102539,4248.205078,4232.948730,4232.051270,4225.128418,4218.974121,4218.589844,4224.102539,4229.230957,4202.820313,4209.102539,4195.384766,3559.000000,4.000000,82.000000,,,,0.000000,4.000000,4.000000,4.000000,4.000000,4.000000,4.000000,4.000000,4.000000,4.000000,4.000000,4.000000,4.000000,4.000000,4.000000,100.000000,,,,,,,,,,,,,,,,
1644854527.265393,247.000000,0.000000,4216.666504,4232.563965,4232.820313,4253.333496,4232.948730,4233.717773,4228.589844,4224.487305,4219.615234,4228.333496,4233.461426,4202.820313,4206.794922,4197.563965,2402.000000,4.000000,82.000000,,,,0.000000,4.000000,4.000000,4.000000,4.000000,4.000000,4.000000,4.000000,4.000000,4.000000,4.000000,4.000000,4.000000,4.000000,4.000000,100.000000,,,,,,,,,,,,,,,,
1644854527.269333,248.000000,0.000000,4214.615234,4237.563965,4233.974121,4251.794922,4237.051270,4234.487305,4228.974121,4228.333496,4223.717773,4233.846191,4236.282227,4204.871582,4207.436035,4199.487305,3338.000000,4.000000,82.000000,,,,0.000000,4.000000,4.000000,4.000000,4.000000,4.000000,4.000000,4.000000,4.000000,4.000000,4.000000,4.000000,4.000000,4.000000,4.000000,100.000000,,,,,,,,,,,,,,,,
1644854527.273274,249.000000,0.000000,4215.000000,4242.820313,4236.282227,4245.256348,4243.461426,4234.871582,4228.205078,4228.846191,4228.974121,4238.333496,4236.538574,4207.948730,4210.000000,4202.051270,3480.000000,4.000000,82.000000,,,,0.000000,4.000000,4.000000,4.000000,4.000000,4.000000,4.000000,4.000000,4.000000,4.000000,4.000000,4.000000,4.000000,4.000000,4.000000,100.000000,,,,,,,,,,,,,,,,
1644854527.277214,250.000000,0.000000,4214.743652,4242.436035,4237.307617,4236.282227,4247.820313,4234.487305,4228.717773,4227.307617,4231.666504,4239.358887,4234.358887,4209.487305,4211.538574,4203.717773,3559.000000,4.000000,82.000000,,,,0.000000,4.000000,4.000000,4.000000,4.000000,4.000000,4.000000,4.000000,4.000000,4.000000,4.000000,4.000000,4.000000,4.000000,4.000000,100.000000,,,,,,,,,,,,,,,,
