title:Alex-X02eKKBItmJXOrSsFCQ0sQ, start timestamp:1644853614.421071, stop timestamp:1644853641.335232, headset type:EPOCPLUS, headset serial:3B9AEBFF, headset firmware:626, channels:55, sampling rate:eeg_256, samples:6832      , version:2.1, 
Timestamp,EEG.Counter,EEG.Interpolated,EEG.AF3,EEG.F7,EEG.F3,EEG.FC5,EEG.T7,EEG.P7,EEG.O1,EEG.O2,EEG.P8,EEG.T8,EEG.FC6,EEG.F4,EEG.F8,EEG.AF4,EEG.RawCq,EEG.Battery,EEG.BatteryPercent,MarkerIndex,MarkerType,MarkerValueInt,EEG.MarkerHardware,CQ.AF3,CQ.F7,CQ.F3,CQ.FC5,CQ.T7,CQ.P7,CQ.O1,CQ.O2,CQ.P8,CQ.T8,CQ.FC6,CQ.F4,CQ.F8,CQ.AF4,CQ.Overall,EQ.SampleRateQuality,EQ.OVERALL,EQ.AF3,EQ.F7,EQ.F3,EQ.FC5,EQ.T7,EQ.P7,EQ.O1,EQ.O2,EQ.P8,EQ.T8,EQ.FC6,EQ.F4,EQ.F8,EQ.AF4
1644853614.421071,249.000000,0.000000,4215.641113,4204.358887,4218.461426,4213.846191,4218.461426,4214.358887,4216.538574,4224.102539,4219.743652,4208.846191,4220.256348,4198.717773,4166.025879,4192.051270,3608.000000,4.000000,86.000000,,,,0.000000,4.000000,4.000000,4.000000,4.000000,4.000000,4.000000,4.000000,4.000000,4.000000,4.000000,4.000000,4.000000,4.000000,4.000000,100.000000,,,,,,,,,,,,,,,,
1644853614.424912,250.000000,0.000000,4218.205078,4202.051270,4218.461426,4216.922852,4212.692383,4214.743652,4216.922852,4226.025879,4222.179688,4210.512695,4214.871582,4199.615234,4164.230957,4195.256348,3535.000000,4.000000,86.000000,,,,0.000000,4.000000,4.000000,4.000000,4.000000,4.000000,4.000000,4.000000,4.000000,4.000000,4.000000,4.000000,4.000000,4.000000,4.000000,100.000000,,,,,,,,,,,,,,,,
1644853614.428852,251.000000,0.000000,4217.948730,4201.666504,4217.307617,4226.666504,4210.384766,4216.153809,4219.102539,4228.846191,4229.230957,4222.692383,4210.128418,4200.641113,4160.128418,4201.025879,3116.000000,4.000000,86.000000,,,,0.000000,4.000000,4.000000,4.000000,4.000000,4.000000,4.000000,4.000000,4.000000,4.000000,4.000000,4.000000,4.000000,4.000000,4.000000,100.000000,,,,,,,,,,,,,,,,
1644853614.432792,252.000000,0.000000,4217.051270,4203.974121,4215.256348,4239.743652,4213.589844,4217.820313,4220.769043,4229.871582,4236.538574,4238.077148,4208.077148,4202.436035,4158.077148,4205.128418,3454.000000,4.000000,86.000000,,,,0.000000,4.000000,4.000000,4.000000,4.000000,4.000000,4.000000,4.000000,4.000000,4.000000,4.000000,4.000000,4.000000,4.000000,4.000000,100.000000,,,,,,,,,,,,,,,,
1644853614.436732,253.000000,0.000000,4216.410156,4207.436035,4213.846191,4248.846191,4219.230957,4218.717773,4221.282227,4228.077148,4239.743652,4247.179688,4208.717773,4205.000000,4158.461426,4204.358887,3608.000000,4.000000,86.000000,,,,0.000000,4.000000,4.000000,4.000000,4.000000,4.000000,4.000000,4.000000,4.000000,4.000000,4.000000,4.000000,4.000000,4.000000,4.000000,100.000000,,,,,,,,,,,,,,,,
1644853614.440672,254.000000,0.000000,4215.769043,4209.230957,4215.512695,4247.692383,4221.666504,4218.717773,4221.666504,4225.641113,4237.436035,4245.128418,4210.256348,4207.948730,4158.333496,4200.128418,3535.000000,4.000000,86.000000,,,,0.000000,4.000000,4.000000,4.000000,4.000000,4.000000,4.000000,4.000000,4.000000,4.000000,4.000000,4.000000,4.000000,4.000000,4.000000,100.000000,,,,,,,,,,,,,,,,
1644853614.444612,255.000000,0.000000,4214.487305,4208.333496,4221.025879,4235.897461,4218.461426,4218.461426,4222.820313,4224.743652,4232.307617,4235.256348,4210.769043,4210.897461,4155.000000,4195.384766,113.000000,4.000000,86.000000,,,,0.000000,4.000000,4.000000,4.000000,4.000000,4.000000,4.000000,4.000000,4.000000,4.000000,4.000000,4.000000,4.000000,4.000000,4.000000,100.000000,,,,,,,,,,,,,,,,
1644853614.448552,0.000000,0.000000,4212.563965,4206.410156,4228.333496,4219.743652,4213.077148,4218.717773,4223.717773,4225.897461,4228.717773,4225.769043,4210.000000,4213.589844,4148.974121,4192.307617,3399.000000,4.000000,86.000000,,,,0.000000,4.000000,4.000000,4.000000,4.000000,4.000000,4.000000,4.000000,4.000000,4.000000,4.000000,4.000000,4.000000,4.000000,4.000000,100.000000,,,,,,,,,,,,,,,,
1644853614.452492,1.000000,0.000000,4211.538574,4205.384766,4233.717773,4209.230957,4211.153809,4219.743652,4223.333496,4227.436035,4228.717773,4222.820313,4210.000000,4216.025879,4143.205078,4191.538574,3349.000000,4.000000,86.000000,,,,0.000000,4.000000,4.000000,4.000000,4.000000,4.000000,4.000000,4.000000,4.000000,4.000000,4.000000,4.000000,4.000000,4.000000,4.000000,100.000000,,,,,,,,,,,,,,,,
1644853614.456432,2.000000,0.000000,4213.589844,4206.410156,4235.000000,4209.743652,4215.256348,4220.256348,4222.051270,4227.307617,4230.512695,4226.153809,4213.461426,4217.436035,4141.282227,4193.205078,3315.000000,4.000000,86.000000,,,,0.000000,4.000000,4.000000,4.000000,4.000000,4.000000,4.000000,4.000000,4.000000,4.000000,4.000000,4.000000,4.000000,4.000000,4.000000,100.000000,,,,,,,,,,,,,,,,
1644853614.460372,3.000000,0.000000,4220.256348,4209.230957,4232.563965,4218.846191,4222.948730,4219.358887,4221.282227,4225.128418,4230.897461,4230.128418,4220.384766,4216.922852,4144.358887,4196.410156,3518.000000,4.000000,86.000000,,,,0.000000,4.000000,4.000000,4.000000,4.000000,4.000000,4.000000,4.000000,4.000000,4.000000,4.000000,4.000000,4.000000,4.000000,4.000000,100.000000,,,,,,,,,,,,,,,,
1644853614.464313,4.000000,0.000000,4230.000000,4212.436035,4229.102539,4228.717773,4229.230957,4217.307617,4221.410156,4222.051270,4228.205078,4230.512695,4228.461426,4214.230957,4150.769043,4199.102539,3310.000000,4.000000,86.000000,,,,0.000000,4.000000,4.000000,4.000000,4.000000,4.000000,4.000000,4.000000,4.000000,4.000000,4.000000,4.000000,4.000000,4.000000,4.000000,100.000000,,,,,,,,,,,,,,,,
1644853614.468253,5.000000,0.000000,4238.589844,4213.846191,4227.563965,4232.179688,4230.641113,4215.512695,4221.410156,4219.487305,4223.974121,4227.307617,4233.077148,4211.282227,4156.410156,4199.487305,3334.000000,4.000000,86.000000,,,,0.000000,4.000000,4.000000,4.000000,4.000000,4.000000,4.000000,4.000000,4.000000,4.000000,4.000000,4.000000,4.000000,4.000000,4.000000,100.000000,,,,,,,,,,,,,,,,
1644853614.472193,6.000000,0.000000,4240.897461,4212.436035,4228.717773,4227.436035,4227.820313,4215.128418,4219.871582,4218.717773,4220.769043,4223.333496,4231.153809,4210.256348,4157.692383,4196.794922,2394.000000,4.000000,86.000000,,,,0.000000,4.000000,4.000000,4.000000,4.000000,4.000000,4.000000,4.000000,4.000000,4.000000,4.000000,4.000000,4.000000,4.000000,4.000000,100.000000,,,,,,,,,,,,,,,,
1644853614.476133,7.000000,0.000000,4235.769043,4207.820313,4230.128418,4217.692383,4223.205078,4216.153809,4217.948730,4219.871582,4219.102539,4220.256348,4222.179688,4211.538574,4152.820313,4192.563965,3056.000000,4.000000,86.000000,,,,0.000000,4.000000,4.000000,4.000000,4.000000,4.000000,4.000000,4.000000,4.000000,4.000000,4.000000,4.000000,4.000000,4.000000,4.000000,100.000000,,,,,,,,,,,,,,,,
1644853614.480073,8.000000,0.000000,4226.922852,4202.436035,4228.717773,4209.615234,4219.230957,4217.051270,4217.436035,4221.538574,4217.436035,4217.051270,4209.871582,4213.205078,4143.333496,4188.717773,3281.000000,4.000000,86.000000,,,,0.000000,4.000000,4.000000,4.000000,4.000000,4.000000,4.000000,4.000000,4.000000,4.000000,4.000000,4.000000,4.000000,4.000000,4.000000,100.000000,,,,,,,,,,,,,,,,
1644853614.484013,9.000000,0.000000,4220.128418,4198.717773,4223.717773,4209.487305,4216.794922,4216.538574,4218.846191,4221.794922,4214.358887,4211.794922,4200.641113,4212.307617,4133.461426,4187.436035,3540.000000,4.000000,86.000000,,,,0.000000,4.000000,4.000000,4.000000,4.000000,4.000000,4.000000,4.000000,4.000000,4.000000,4.000000,4.000000,4.000000,4.000000,4.000000,100.000000,,,,,,,,,,,,,,,,
1644853614.487953,10.000000,0.000000,4218.333496,4197.820313,4217.692383,4218.461426,4215.641113,4214.871582,4220.256348,4219.487305,4209.743652,4205.384766,4198.846191,4207.948730,4128.205078,4189.615234,3529.000000,4.000000,86.000000,,,,0.000000,4.000000,4.000000,4.000000,4.000000,4.000000,4.000000,4.000000,4.000000,4.000000,4.000000,4.000000,4.000000,4.000000,4.000000,100.000000,,,,,,,,,,,,,,,,
1644853614.491893,11.000000,0.000000,4219.230957,4198.589844,4213.717773,4230.641113,4215.512695,4213.205078,4219.871582,4215.512695,4206.025879,4200.769043,4202.948730,4202.692383,4129.743652,4193.077148,3096.000000,4.000000,86.000000,,,,0.000000,4.000000,4.000000,4.000000,4.000000,4.000000,4.000000,4.000000,4.000000,4.000000,4.000000,4.000000,4.000000,4.000000,4.000000,100.000000,,,,,,,,,,,,,,,,
1644853614.495933,12.000000,0.000000,4217.436035,4198.461426,4213.974121,4236.794922,4216.538574,4213.077148,4218.333496,4212.820313,4205.384766,4200.769043,4206.282227,4200.384766,4134.743652,4194.871582,3294.000000,4.000000,86.000000,,,,0.000000,4.000000,4.000000,4.000000,4.000000,4.000000,4.000000,4.000000,4.000000,4.000000,4.000000,4.000000,4.000000,4.000000,4.000000,100.000000,,,,,,,,,,,,,,,,
1644853614.499873,13.000000,0.000000,4210.512695,4196.538574,4217.563965,4230.512695,4217.820313,4214.743652,4217.692383,4213.205078,4207.948730,4205.384766,4203.333496,4203.205078,4137.820313,4192.307617,3509.000000,4.000000,86.000000,,,,0.000000,4.000000,4.000000,4.000000,4.000000,4.000000,4.000000,4.000000,4.000000,4.000000,4.000000,4.000000,4.000000,4.000000,4.000000,100.000000,,,,,,,,,,,,,,,,
1644853614.503814,14.000000,0.000000,4201.666504,4194.358887,4221.794922,4214.230957,4217.948730,4217.179688,4219.230957,4216.410156,4212.051270,4211.922852,4195.128418,4209.743652,4136.282227,4185.256348,3529.000000,4.000000,86.000000,,,,0.000000,4.000000,4.000000,4.000000,4.000000,4.000000,4.000000,4.000000,4.000000,4.000000,4.000000,4.000000,4.000000,4.000000,4.000000,100.000000,,,,,,,,,,,,,,,,
1644853614.507754,15.000000,0.000000,4198.333496,4194.615234,4224.230957,4198.077148,4216.666504,4218.846191,4221.282227,4220.128418,4215.641113,4218.077148,4190.256348,4216.025879,4132.436035,4175.897461,3096.000000,4.000000,86.000000,,,,0.000000,4.000000,4.000000,4.000000,4.000000,4.000000,4.000000,4.000000,4.000000,4.000000,4.000000,4.000000,4.000000,4.000000,4.000000,100.000000,,,,,,,,,,,,,,,,
1644853614.511694,16.000000,0.000000,4205.384766,4198.717773,4224.743652,4193.717773,4215.256348,4218.974121,4220.897461,4221.922852,4218.461426,4222.563965,4195.769043,4218.461426,4130.512695,4167.948730,3294.000000,4.000000,86.000000,,,,0.000000,4.000000,4.000000,4.000000,4.000000,4.000000,4.000000,4.000000,4.000000,4.000000,4.000000,4.000000,4.000000,4.000000,4.000000,100.000000,,,,,,,,,,,,,,,,
1644853614.515634,17.000000,0.000000,4220.769043,4205.000000,4224.358887,4205.000000,4215.897461,4217.692383,4218.077148,4221.538574,4220.769043,4225.512695,4210.897461,4215.769043,4132.436035,4165.256348,3509.000000,4.000000,86.000000,,,,0.000000,4.000000,4.000000,4.000000,4.000000,4.000000,4.000000,4.000000,4.000000,4.000000,4.000000,4.000000,4.000000,4.000000,4.000000,100.000000,,,,,,,,,,,,,,,,
1644853614.519574,18.000000,0.000000,4235.256348,4210.256348,4223.846191,4224.615234,4218.974121,4215.641113,4215.512695,4219.871582,4222.436035,4226.410156,4226.794922,4209.230957,4136.538574,4169.230957,3529.000000,4.000000,86.000000,,,,0.000000,4.000000,4.000000,4.000000,4.000000,4.000000,4.000000,4.000000,4.000000,4.000000,4.000000,4.000000,4.000000,4.000000,4.000000,100.000000,,,,,,,,,,,,,,,,
1644853614.523514,19.000000,0.000000,4239.487305,4212.307617,4222.948730,4239.871582,4222.692383,4213.846191,4215.128418,4217.948730,4222.436035,4224.230957,4234.102539,4201.282227,4139.358887,4178.205078,3096.000000,4.000000,86.000000,,,,0.000000,4.000000,4.000000,4.000000,4.000000,4.000000,4.000000,4.000000,4.000000,4.000000,4.000000,4.000000,4.000000,4.000000,4.000000,100.000000,,,,,,,,,,,,,,,,
1644853614.527354,20.000000,0.000000,4230.897461,4211.538574,4221.153809,4243.205078,4224.102539,4213.077148,4216.025879,4216.410156,4220.641113,4219.230957,4229.487305,4194.871582,4139.230957,4188.333496,3294.000000,4.000000,86.000000,,,,0.000000,4.000000,4.000000,4.000000,4.000000,4.000000,4.000000,4.000000,4.000000,4.000000,4.000000,4.000000,4.000000,4.000000,4.000000,100.000000,1.000000,66.666664,4.000000,4.000000,4.000000,4.000000,4.000000,4.000000,4.000000,4.000000,4.000000,4.000000,4.000000,4.000000,1.000000,3.000000
1644853614.531294,21.000000,0.000000,4215.641113,4210.256348,4218.461426,4236.025879,4221.410156,4213.846191,4215.256348,4215.897461,4218.333496,4213.974121,4218.077148,4192.692383,4138.461426,4196.666504,3509.000000,4.000000,86.000000,,,,0.000000,4.000000,4.000000,4.000000,4.000000,4.000000,4.000000,4.000000,4.000000,4.000000,4.000000,4.000000,4.000000,4.000000,4.000000,100.000000,,,,,,,,,,,,,,,,
1644853614.535235,22.000000,0.000000,4204.230957,4210.384766,4216.153809,4225.128418,4216.025879,4216.025879,4212.948730,4217.307617,4217.692383,4212.051270,4208.077148,4195.769043,4140.641113,4201.794922,3529.000000,4.000000,86.000000,,,,0.000000,4.000000,4.000000,4.000000,4.000000,4.000000,4.000000,4.000000,4.000000,4.000000,4.000000,4.000000,4.000000,4.000000,4.000000,100.000000,,,,,,,,,,,,,,,,
1644853614.539175,23.000000,0.000000,4203.461426,4211.666504,4215.641113,4216.794922,4210.897461,4218.205078,4211.666504,4220.769043,4220.128418,4216.282227,4205.000000,4202.436035,4146.794922,4203.589844,3096.000000,4.000000,86.000000,,,,0.000000,4.000000,4.000000,4.000000,4.000000,4.000000,4.000000,4.000000,4.000000,4.000000,4.000000,4.000000,4.000000,4.000000,4.000000,100.000000,,,,,,,,,,,,,,,,
1644853614.543115,24.000000,0.000000,4211.282227,4212.179688,4217.436035,4212.436035,4208.846191,4219.102539,4214.358887,4225.512695,4225.128418,4226.153809,4208.589844,4208.846191,4154.102539,4201.410156,3294.000000,4.000000,86.000000,,,,0.000000,4.000000,4.000000,4.000000,4.000000,4.000000,4.000000,4.000000,4.000000,4.000000,4.000000,4.000000,4.000000,4.000000,4.000000,100.000000,,,,,,,,,,,,,,,,
1644853614.547055,25.000000,0.000000,4220.384766,4210.128418,4220.769043,4210.000000,4210.769043,4218.589844,4219.358887,4229.487305,4231.282227,4238.205078,4215.256348,4211.410156,4157.436035,4195.256348,3509.000000,4.000000,86.000000,,,,0.000000,4.000000,4.000000,4.000000,4.000000,4.000000,4.000000,4.000000,4.000000,4.000000,4.000000,4.000000,4.000000,4.000000,4.000000,100.000000,,,,,,,,,,,,,,,,
1644853614.550995,26.000000,0.000000,4223.846191,4205.641113,4223.846191,4207.692383,4215.000000,4217.692383,4223.077148,4231.538574,4236.538574,4247.436035,4221.025879,4209.230957,4154.743652,4186.153809,3529.000000,4.000000,86.000000,,,,0.000000,4.000000,4.000000,4.000000,4.000000,4.000000,4.000000,4.000000,4.000000,4.000000,4.000000,4.000000,4.000000,4.000000,4.000000,100.000000,,,,,,,,,,,,,,,,
1644853614.554935,27.000000,0.000000,4220.769043,4200.256348,4225.000000,4206.794922,4218.846191,4217.948730,4223.333496,4231.666504,4238.974121,4249.615234,4223.717773,4203.974121,4147.820313,4177.307617,3096.000000,4.000000,86.000000,,,,0.000000,4.000000,4.000000,4.000000,4.000000,4.000000,4.000000,4.000000,4.000000,4.000000,4.000000,4.000000,4.000000,4.000000,4.000000,100.000000,,,,,,,,,,,,,,,,
1644853614.558875,28.000000,0.000000,4215.512695,4196.922852,4224.487305,4210.128418,4220.897461,4220.256348,4221.922852,4230.769043,4237.948730,4243.974121,4223.077148,4199.487305,4141.666504,4172.563965,3294.000000,4.000000,86.000000,,,,0.000000,4.000000,4.000000,4.000000,4.000000,4.000000,4.000000,4.000000,4.000000,4.000000,4.000000,4.000000,4.000000,4.000000,4.000000,100.000000,,,,,,,,,,,,,,,,
1644853614.562815,29.000000,0.000000,4214.358887,4198.333496,4224.102539,4218.333496,4222.436035,4224.487305,4221.922852,4230.512695,4234.487305,4234.743652,4220.128418,4199.358887,4140.769043,4174.743652,3509.000000,4.000000,86.000000,,,,0.000000,4.000000,4.000000,4.000000,4.000000,4.000000,4.000000,4.000000,4.000000,4.000000,4.000000,4.000000,4.000000,4.000000,4.000000,100.000000,,,,,,,,,,,,,,,,
1644853614.566755,30.000000,0.000000,4221.153809,4205.384766,4225.384766,4227.820313,4225.641113,4229.230957,4224.487305,4231.410156,4232.051270,4228.717773,4216.922852,4204.615234,4147.307617,4183.077148,3529.000000,4.000000,86.000000,,,,0.000000,4.000000,4.000000,4.000000,4.000000,4.000000,4.000000,4.000000,4.000000,4.000000,4.000000,4.000000,4.000000,4.000000,4.000000,100.000000,,,,,,,,,,,,,,,,
1644853614.570695,31.000000,0.000000,4233.846191,4215.641113,4228.077148,4233.077148,4231.282227,4233.333496,4227.692383,4233.205078,4233.589844,4230.769043,4215.897461,4213.205078,4158.717773,4192.948730,3096.000000,4.000000,86.000000,,,,0.000000,4.000000,4.000000,4.000000,4.000000,4.000000,4.000000,4.000000,4.000000,4.000000,4.000000,4.000000,4.000000,4.000000,4.000000,100.000000,,,,,,,,,,,,,,,,
1644853614.574636,32.000000,0.000000,4246.153809,4224.102539,4230.512695,4232.051270,4236.666504,4235.128418,4229.358887,4235.128418,4239.230957,4239.230957,4219.230957,4220.769043,4168.846191,4199.230957,0.000000,4.000000,86.000000,,,,0.000000,4.000000,4.000000,4.000000,4.000000,4.000000,4.000000,4.000000,4.000000,4.000000,4.000000,4.000000,4.000000,4.000000,4.000000,100.000000,,,,,,,,,,,,,,,,
1644853614.578576,33.000000,0.000000,4251.282227,4226.538574,4231.538574,4227.563965,4237.820313,4234.230957,4229.615234,4236.794922,4245.641113,4247.307617,4226.282227,4223.846191,4171.922852,4199.102539,0.000000,4.000000,86.000000,,,,0.000000,4.000000,4.000000,4.000000,4.000000,4.000000,4.000000,4.000000,4.000000,4.000000,4.000000,4.000000,4.000000,4.000000,4.000000,100.000000,,,,,,,,,,,,,,,,
1644853614.582516,34.000000,0.000000,4247.179688,4223.333496,4231.538574,4224.615234,4233.205078,4231.410156,4229.102539,4237.692383,4248.589844,4249.102539,4232.820313,4222.307617,4166.538574,4194.487305,0.000000,4.000000,86.000000,,,,0.000000,4.000000,4.000000,4.000000,4.000000,4.000000,4.000000,4.000000,4.000000,4.000000,4.000000,4.000000,4.000000,4.000000,4.000000,100.000000,,,,,,,,,,,,,,,,
1644853614.586456,35.000000,0.000000,4237.692383,4218.589844,4230.897461,4225.769043,4225.512695,4228.974121,4227.820313,4237.563965,4246.025879,4243.589844,4233.846191,4218.333496,4157.051270,4188.974121,0.000000,4.000000,86.000000,,,,0.000000,4.000000,4.000000,4.000000,4.000000,4.000000,4.000000,4.000000,4.000000,4.000000,4.000000,4.000000,4.000000,4.000000,4.000000,100.000000,,,,,,,,,,,,,,,,
1644853614.590396,36.000000,0.000000,4228.461426,4216.153809,4229.871582,4228.077148,4219.743652,4228.846191,4225.256348,4235.769043,4239.487305,4234.230957,4228.077148,4215.000000,4148.846191,4185.128418,0.000000,4.000000,86.000000,,,,0.000000,4.000000,4.000000,4.000000,4.000000,4.000000,4.000000,4.000000,4.000000,4.000000,4.000000,4.000000,4.000000,4.000000,4.000000,100.000000,,,,,,,,,,,,,,,,
1644853614.594336,37.000000,0.000000,4221.538574,4216.282227,4227.820313,4225.384766,4218.077148,4230.641113,4221.282227,4231.794922,4231.794922,4226.153809,4219.230957,4213.589844,4144.615234,4182.948730,0.000000,4.000000,86.000000,,,,0.000000,4.000000,4.000000,4.000000,4.000000,4.000000,4.000000,4.000000,4.000000,4.000000,4.000000,4.000000,4.000000,4.000000,4.000000,100.000000,,,,,,,,,,,,,,,,
1644853614.598376,38.000000,0.000000,4216.025879,4215.256348,4224.743652,4214.871582,4219.102539,4231.410156,4218.205078,4226.538574,4225.000000,4222.179688,4213.717773,4213.717773,4142.179688,4179.743652,0.000000,4.000000,86.000000,,,,0.000000,4.000000,4.000000,4.000000,4.000000,4.000000,4.000000,4.000000,4.000000,4.000000,4.000000,4.000000,4.000000,4.000000,4.000000,100.000000,,,,,,,,,,,,,,,,
1644853614.602316,39.000000,0.000000,4211.538574,4210.641113,4221.922852,4200.384766,4219.743652,4229.102539,4217.563965,4221.666504,4220.256348,4222.563965,4214.487305,4215.000000,4137.948730,4173.974121,0.000000,4.000000,86.000000,,,,0.000000,4.000000,4.000000,4.000000,4.000000,4.000000,4.000000,4.000000,4.000000,4.000000,4.000000,4.000000,4.000000,4.000000,4.000000,100.000000,,,,,,,,,,,,,,,,
1644853614.606256,40.000000,0.000000,4210.512695,4203.589844,4221.153809,4191.410156,4218.846191,4224.358887,4218.717773,4218.974121,4218.077148,4225.512695,4218.589844,4216.794922,4131.538574,4167.307617,0.000000,4.000000,86.000000,,,,0.000000,4.000000,4.000000,4.000000,4.000000,4.000000,4.000000,4.000000,4.000000,4.000000,4.000000,4.000000,4.000000,4.000000,4.000000,100.000000,,,,,,,,,,,,,,,,
1644853614.610196,41.000000,0.000000,4215.641113,4198.974121,4223.333496,4194.487305,4218.205078,4220.256348,4219.615234,4219.358887,4219.102539,4228.974121,4220.641113,4218.461426,4127.563965,4164.871582,0.000000,4.000000,86.000000,,,,0.000000,4.000000,4.000000,4.000000,4.000000,4.000000,4.000000,4.000000,4.000000,4.000000,4.000000,4.000000,4.000000,4.000000,4.000000,100.000000,,,,,,,,,,,,,,,,
1644853614.614137,42.000000,0.000000,4225.897461,4200.256348,4227.179688,4207.948730,4219.615234,4219.358887,4218.846191,4222.436035,4222.436035,4231.538574,4217.820313,4218.461426,4130.769043,4169.871582,0.000000,4.000000,86.000000,,,,0.000000,4.000000,4.000000,4.000000,4.000000,4.000000,4.000000,4.000000,4.000000,4.000000,4.000000,4.000000,4.000000,4.000000,4.000000,100.000000,,,,,,,,,,,,,,,,
1644853614.617977,43.000000,0.000000,4236.153809,4207.436035,4230.769043,4222.948730,4222.436035,4221.410156,4218.205078,4226.666504,4226.666504,4232.948730,4212.692383,4216.538574,4140.384766,4180.641113,0.000000,4.000000,86.000000,,,,0.000000,4.000000,4.000000,4.000000,4.000000,4.000000,4.000000,4.000000,4.000000,4.000000,4.000000,4.000000,4.000000,4.000000,4.000000,100.000000,,,,,,,,,,,,,,,,
1644853614.621917,44.000000,0.000000,4241.025879,4216.538574,4232.563965,4231.282227,4224.615234,4224.102539,4219.358887,4230.641113,4230.769043,4233.589844,4210.897461,4214.102539,4150.256348,4190.256348,0.000000,4.000000,86.000000,,,,0.000000,4.000000,4.000000,4.000000,4.000000,4.000000,4.000000,4.000000,4.000000,4.000000,4.000000,4.000000,4.000000,4.000000,4.000000,100.000000,,,,,,,,,,,,,,,,
1644853614.625857,45.000000,0.000000,4239.358887,4223.205078,4232.563965,4230.000000,4224.871582,4225.000000,4222.179688,4233.717773,4234.230957,4234.230957,4216.410156,4214.102539,4154.230957,4192.563965,0.000000,4.000000,86.000000,,,,0.000000,4.000000,4.000000,4.000000,4.000000,4.000000,4.000000,4.000000,4.000000,4.000000,4.000000,4.000000,4.000000,4.000000,4.000000,100.000000,,,,,,,,,,,,,,,,
1644853614.629897,46.000000,0.000000,4234.487305,4225.897461,4231.410156,4222.436035,4223.717773,4223.461426,4224.102539,4235.256348,4236.666504,4235.256348,4228.077148,4217.436035,4151.538574,4186.922852,0.000000,4.000000,86.000000,,,,0.000000,4.000000,4.000000,4.000000,4.000000,4.000000,4.000000,4.000000,4.000000,4.000000,4.000000,4.000000,4.000000,4.000000,4.000000,100.000000,,,,,,,,,,,,,,,,
1644853614.633837,47.000000,0.000000,4230.384766,4225.256348,4230.256348,4215.000000,4221.794922,4220.128418,4223.333496,4234.743652,4237.179688,4236.410156,4238.461426,4222.307617,4146.794922,4178.717773,0.000000,4.000000,86.000000,,,,0.000000,4.000000,4.000000,4.000000,4.000000,4.000000,4.000000,4.000000,4.000000,4.000000,4.000000,4.000000,4.000000,4.000000,4.000000,100.000000,,,,,,,,,,,,,,,,
1644853614.637777,48.000000,0.000000,4229.230957,4222.436035,4229.615234,4212.692383,4220.512695,4216.922852,4221.282227,4232.307617,4235.000000,4237.563965,4240.256348,4224.743652,4145.512695,4175.128418,0.000000,4.000000,86.000000,,,,0.000000,4.000000,4.000000,4.000000,4.000000,4.000000,4.000000,4.000000,4.000000,4.000000,4.000000,4.000000,4.000000,4.000000,4.000000,100.000000,,,,,,,,,,,,,,,,
1644853614.641717,49.000000,0.000000,4231.153809,4219.230957,4229.487305,4215.769043,4221.025879,4215.256348,4220.384766,4228.589844,4231.153809,4238.205078,4231.538574,4222.692383,4149.871582,4178.077148,0.000000,4.000000,86.000000,,,,0.000000,4.000000,4.000000,4.000000,4.000000,4.000000,4.000000,4.000000,4.000000,4.000000,4.000000,4.000000,4.000000,4.000000,4.000000,100.000000,,,,,,,,,,,,,,,,
1644853614.645657,50.000000,0.000000,4234.871582,4216.666504,4229.615234,4220.384766,4223.589844,4215.641113,4221.794922,4225.000000,4227.692383,4237.563965,4219.358887,4217.436035,4157.051270,4183.333496,0.000000,4.000000,86.000000,,,,0.000000,4.000000,4.000000,4.000000,4.000000,4.000000,4.000000,4.000000,4.000000,4.000000,4.000000,4.000000,4.000000,4.000000,4.000000,100.000000,,,,,,,,,,,,,,,,
1644853614.649597,51.000000,0.000000,4237.692383,4214.871582,4229.102539,4222.692383,4226.410156,4217.436035,4223.589844,4222.692383,4226.794922,4234.871582,4213.461426,4212.948730,4161.025879,4184.102539,0.000000,4.000000,86.000000,,,,0.000000,4.000000,4.000000,4.000000,4.000000,4.000000,4.000000,4.000000,4.000000,4.000000,4.000000,4.000000,4.000000,4.000000,4.000000,100.000000,,,,,,,,,,,,,,,,
1644853614.653538,52.000000,0.000000,4236.282227,4212.563965,4227.563965,4222.307617,4226.153809,4219.615234,4223.717773,4222.948730,4228.461426,4231.153809,4218.461426,4211.922852,4157.179688,4176.410156,0.000000,4.000000,86.000000,,,,0.000000,4.000000,4.000000,4.000000,4.000000,4.000000,4.000000,4.000000,4.000000,4.000000,4.000000,4.000000,4.000000,4.000000,4.000000,100.000000,,,,,,,,,,,,,,,,
1644853614.657478,53.000000,0.000000,4230.128418,4209.487305,4225.769043,4221.282227,4221.025879,4221.922852,4222.820313,4225.897461,4231.666504,4229.230957,4228.974121,4214.615234,4146.410156,4163.077148,0.000000,4.000000,86.000000,1,1,3,0.000000,4.000000,4.000000,4.000000,4.000000,4.000000,4.000000,4.000000,4.000000,4.000000,4.000000,4.000000,4.000000,4.000000,4.000000,100.000000,,,,,,,,,,,,,,,,
1644853614.661418,54.000000,0.000000,4221.410156,4206.666504,4225.000000,4220.384766,4213.077148,4224.615234,4222.820313,4230.512695,4234.743652,4231.922852,4234.615234,4218.717773,4134.871582,4151.538574,0.000000,4.000000,86.000000,,,,0.000000,4.000000,4.000000,4.000000,4.000000,4.000000,4.000000,4.000000,4.000000,4.000000,4.000000,4.000000,4.000000,4.000000,4.000000,100.000000,,,,,,,,,,,,,,,,
1644853614.665358,55.000000,0.000000,4214.230957,4205.897461,4225.641113,4217.436035,4207.948730,4227.692383,4224.487305,4234.743652,4236.410156,4238.717773,4229.102539,4220.897461,4129.871582,4147.436035,0.000000,4.000000,86.000000,,,,0.000000,4.000000,4.000000,4.000000,4.000000,4.000000,4.000000,4.000000,4.000000,4.000000,4.000000,4.000000,4.000000,4.000000,4.000000,100.000000,,,,,,,,,,,,,,,,
1644853614.669298,56.000000,0.000000,4211.538574,4207.948730,4226.153809,4210.641113,4209.487305,4229.871582,4225.641113,4235.769043,4236.153809,4245.000000,4215.897461,4219.871582,4133.077148,4150.897461,0.000000,4.000000,86.000000,,,,0.000000,4.000000,4.000000,4.000000,4.000000,4.000000,4.000000,4.000000,4.000000,4.000000,4.000000,4.000000,4.000000,4.000000,4.000000,100.000000,,,,,,,,,,,,,,,,
1644853614.673238,57.000000,0.000000,4213.205078,4211.922852,4225.128418,4201.922852,4215.769043,4229.230957,4224.743652,4232.563965,4234.487305,4245.256348,4204.743652,4217.179688,4139.871582,4157.436035,0.000000,4.000000,86.000000,,,,0.000000,4.000000,4.000000,4.000000,4.000000,4.000000,4.000000,4.000000,4.000000,4.000000,4.000000,4.000000,4.000000,4.000000,4.000000,100.000000,,,,,,,,,,,,,,,,
1644853614.677178,58.000000,0.000000,4216.410156,4215.128418,4222.051270,4197.307617,4221.153809,4225.256348,4223.461426,4227.820313,4232.692383,4238.333496,4203.461426,4215.128418,4143.589844,4161.794922,0.000000,4.000000,86.000000,,,,0.000000,4.000000,4.000000,4.000000,4.000000,4.000000,4.000000,4.000000,4.000000,4.000000,4.000000,4.000000,4.000000,4.000000,4.000000,100.000000,,,,,,,,,,,,,,,,
1644853614.681118,59.000000,0.000000,4217.820313,4214.871582,4218.461426,4202.307617,4220.769043,4220.000000,4224.358887,4225.128418,4232.563965,4228.846191,4212.563965,4214.615234,4141.538574,4162.179688,0.000000,4.000000,86.000000,,,,0.000000,4.000000,4.000000,4.000000,4.000000,4.000000,4.000000,4.000000,4.000000,4.000000,4.000000,4.000000,4.000000,4.000000,4.000000,100.000000,,,,,,,,,,,,,,,,
1644853614.685058,60.000000,0.000000,4215.384766,4211.794922,4216.410156,4215.512695,4215.384766,4216.538574,4227.563965,4227.051270,4234.743652,4223.717773,4225.897461,4213.974121,4137.820313,4160.384766,0.000000,4.000000,86.000000,,,,0.000000,4.000000,4.000000,4.000000,4.000000,4.000000,4.000000,4.000000,4.000000,4.000000,4.000000,4.000000,4.000000,4.000000,4.000000,100.000000,,,,,,,,,,,,,,,,
1644853614.688999,61.000000,0.000000,4210.769043,4209.230957,4216.794922,4228.974121,4210.128418,4216.538574,4230.256348,4231.922852,4238.717773,4227.179688,4236.794922,4212.692383,4139.230957,4159.358887,0.000000,4.000000,86.000000,,,,0.000000,4.000000,4.000000,4.000000,4.000000,4.000000,4.000000,4.000000,4.000000,4.000000,4.000000,4.000000,4.000000,4.000000,4.000000,100.000000,,,,,,,,,,,,,,,,
1644853614.692939,62.000000,0.000000,4209.102539,4211.410156,4219.102539,4233.589844,4210.641113,4219.615234,4229.230957,4236.538574,4242.563965,4237.692383,4241.538574,4212.436035,4148.846191,4161.538574,0.000000,4.000000,86.000000,,,,0.000000,4.000000,4.000000,4.000000,4.000000,4.000000,4.000000,4.000000,4.000000,4.000000,4.000000,4.000000,4.000000,4.000000,4.000000,100.000000,,,,,,,,,,,,,,,,
1644853614.696879,63.000000,0.000000,4214.743652,4218.846191,4221.666504,4227.436035,4218.077148,4224.230957,4225.641113,4238.333496,4244.871582,4249.615234,4240.512695,4215.769043,4163.205078,4168.333496,0.000000,4.000000,86.000000,,,,0.000000,4.000000,4.000000,4.000000,4.000000,4.000000,4.000000,4.000000,4.000000,4.000000,4.000000,4.000000,4.000000,4.000000,4.000000,100.000000,,,,,,,,,,,,,,,,
1644853614.700819,64.000000,0.000000,4227.307617,4227.948730,4223.974121,4216.666504,4227.948730,4228.589844,4222.820313,4237.692383,4245.641113,4257.820313,4236.922852,4221.538574,4176.153809,4179.871582,0.000000,4.000000,86.000000,,,,0.000000,4.000000,4.000000,4.000000,4.000000,4.000000,4.000000,4.000000,4.000000,4.000000,4.000000,4.000000,4.000000,4.000000,4.000000,100.000000,,,,,,,,,,,,,,,,
1644853614.704759,65.000000,0.000000,4241.025879,4233.461426,4225.384766,4209.358887,4234.487305,4231.025879,4222.820313,4237.051270,4245.769043,4260.384766,4234.743652,4225.897461,4182.692383,4192.820313,0.000000,4.000000,86.000000,,,,0.000000,4.000000,4.000000,4.000000,4.000000,4.000000,4.000000,4.000000,4.000000,4.000000,4.000000,4.000000,4.000000,4.000000,4.000000,100.000000,,,,,,,,,,,,,,,,
1644853614.708699,66.000000,0.000000,4248.461426,4232.692383,4225.512695,4209.487305,4234.487305,4231.410156,4224.358887,4237.820313,4246.282227,4258.461426,4236.153809,4225.897461,4182.179688,4200.769043,0.000000,4.000000,86.000000,,,,0.000000,4.000000,4.000000,4.000000,4.000000,4.000000,4.000000,4.000000,4.000000,4.000000,4.000000,4.000000,4.000000,4.000000,4.000000,100.000000,,,,,,,,,,,,,,,,
1644853614.712639,67.000000,0.000000,4246.666504,4227.051270,4224.743652,4214.230957,4229.871582,4230.384766,4224.871582,4239.358887,4247.436035,4254.743652,4239.487305,4222.692383,4177.563965,4198.846191,0.000000,4.000000,86.000000,,,,0.000000,4.000000,4.000000,4.000000,4.000000,4.000000,4.000000,4.000000,4.000000,4.000000,4.000000,4.000000,4.000000,4.000000,4.000000,100.000000,,,,,,,,,,,,,,,,
1644853614.716579,68.000000,0.000000,4238.333496,4220.256348,4224.358887,4217.692383,4225.641113,4229.102539,4224.230957,4240.256348,4248.077148,4250.128418,4241.153809,4219.743652,4172.820313,4187.563965,0.000000,4.000000,86.000000,,,,0.000000,4.000000,4.000000,4.000000,4.000000,4.000000,4.000000,4.000000,4.000000,4.000000,4.000000,4.000000,4.000000,4.000000,4.000000,100.000000,,,,,,,,,,,,,,,,
1644853614.720519,69.000000,0.000000,4229.230957,4215.641113,4226.025879,4216.025879,4225.128418,4228.717773,4224.358887,4239.871582,4246.794922,4245.256348,4239.358887,4219.871582,4169.743652,4173.717773,0.000000,4.000000,86.000000,,,,0.000000,4.000000,4.000000,4.000000,4.000000,4.000000,4.000000,4.000000,4.000000,4.000000,4.000000,4.000000,4.000000,4.000000,4.000000,100.000000,,,,,,,,,,,,,,,,
1644853614.724459,70.000000,0.000000,4223.589844,4213.717773,4229.871582,4210.897461,4227.436035,4229.102539,4226.282227,4238.461426,4243.846191,4241.153809,4236.282227,4223.077148,4167.307617,4164.871582,0.000000,4.000000,86.000000,,,,0.000000,4.000000,4.000000,4.000000,4.000000,4.000000,4.000000,4.000000,4.000000,4.000000,4.000000,4.000000,4.000000,4.000000,4.000000,100.000000,,,,,,,,,,,,,,,,
1644853614.728400,71.000000,0.000000,4222.179688,4213.333496,4233.589844,4207.307617,4228.846191,4229.743652,4228.077148,4237.307617,4241.025879,4240.128418,4235.769043,4226.922852,4163.205078,4164.743652,0.000000,4.000000,86.000000,,,,0.000000,4.000000,4.000000,4.000000,4.000000,4.000000,4.000000,4.000000,4.000000,4.000000,4.000000,4.000000,4.000000,4.000000,4.000000,100.000000,,,,,,,,,,,,,,,,
1644853614.732340,72.000000,0.000000,4223.974121,4212.820313,4234.615234,4208.717773,4227.051270,4230.384766,4227.563965,4237.051270,4240.256348,4244.358887,4240.641113,4229.487305,4157.692383,4171.794922,0.000000,4.000000,86.000000,,,,0.000000,4.000000,4.000000,4.000000,4.000000,4.000000,4.000000,4.000000,4.000000,4.000000,4.000000,4.000000,4.000000,4.000000,4.000000,100.000000,,,,,,,,,,,,,,,,
1644853614.736280,73.000000,0.000000,4228.461426,4212.948730,4231.794922,4213.846191,4223.333496,4230.897461,4225.384766,4237.948730,4242.563965,4252.692383,4249.743652,4229.871582,4153.717773,4182.051270,0.000000,4.000000,86.000000,,,,0.000000,4.000000,4.000000,4.000000,4.000000,4.000000,4.000000,4.000000,4.000000,4.000000,4.000000,4.000000,4.000000,4.000000,4.000000,100.000000,,,,,,,,,,,,,,,,
1644853614.740220,74.000000,0.000000,4234.358887,4215.128418,4226.922852,4219.102539,4221.282227,4231.025879,4223.974121,4239.615234,4246.410156,4260.128418,4259.102539,4228.846191,4154.743652,4190.897461,0.000000,4.000000,86.000000,,,,0.000000,4.000000,4.000000,4.000000,4.000000,4.000000,4.000000,4.000000,4.000000,4.000000,4.000000,4.000000,4.000000,4.000000,4.000000,100.000000,,,,,,,,,,,,,,,,
1644853614.744160,75.000000,0.000000,4239.230957,4218.846191,4222.948730,4221.153809,4222.692383,4229.743652,4224.743652,4240.769043,4249.230957,4261.410156,4264.487305,4227.692383,4161.282227,4195.000000,0.000000,4.000000,86.000000,,,,0.000000,4.000000,4.000000,4.000000,4.000000,4.000000,4.000000,4.000000,4.000000,4.000000,4.000000,4.000000,4.000000,4.000000,4.000000,100.000000,,,,,,,,,,,,,,,,
1644853614.748100,76.000000,0.000000,4239.358887,4221.666504,4221.794922,4220.000000,4227.179688,4227.436035,4226.282227,4239.871582,4248.846191,4255.641113,4262.820313,4227.563965,4170.000000,4193.461426,0.000000,4.000000,86.000000,,,,0.000000,4.000000,4.000000,4.000000,4.000000,4.000000,4.000000,4.000000,4.000000,4.000000,4.000000,4.000000,4.000000,4.000000,4.000000,100.000000,,,,,,,,,,,,,,,,
1644853614.752040,77.000000,0.000000,4233.717773,4221.410156,4222.948730,4217.820313,4232.179688,4225.384766,4226.282227,4236.410156,4245.128418,4246.666504,4253.974121,4228.717773,4176.282227,4188.077148,0.000000,4.000000,86.000000,,,,0.000000,4.000000,4.000000,4.000000,4.000000,4.000000,4.000000,4.000000,4.000000,4.000000,4.000000,4.000000,4.000000,4.000000,4.000000,100.000000,,,,,,,,,,,,,,,,
1644853614.755980,78.000000,0.000000,4224.487305,4218.846191,4224.487305,4215.512695,4235.000000,4224.743652,4224.743652,4231.410156,4239.102539,4239.358887,4241.025879,4230.256348,4177.307617,4182.948730,0.000000,4.000000,86.000000,,,,0.000000,4.000000,4.000000,4.000000,4.000000,4.000000,4.000000,4.000000,4.000000,4.000000,4.000000,4.000000,4.000000,4.000000,4.000000,100.000000,,,,,,,,,,,,,,,,
1644853614.759920,79.000000,0.000000,4215.897461,4216.025879,4225.256348,4212.948730,4234.358887,4225.256348,4223.974121,4227.436035,4232.948730,4235.769043,4228.846191,4230.384766,4173.461426,4180.512695,0.000000,4.000000,86.000000,,,,0.000000,4.000000,4.000000,4.000000,4.000000,4.000000,4.000000,4.000000,4.000000,4.000000,4.000000,4.000000,4.000000,4.000000,4.000000,100.000000,,,,,,,,,,,,,,,,
1644853614.763761,80.000000,0.000000,4212.307617,4215.000000,4224.743652,4210.128418,4231.025879,4225.512695,4224.871582,4226.282227,4228.974121,4235.256348,4222.307617,4228.717773,4167.820313,4180.384766,0.000000,4.000000,86.000000,,,,0.000000,4.000000,4.000000,4.000000,4.000000,4.000000,4.000000,4.000000,4.000000,4.000000,4.000000,4.000000,4.000000,4.000000,4.000000,100.000000,,,,,,,,,,,,,,,,
1644853614.767701,81.000000,0.000000,4214.871582,4215.128418,4222.692383,4208.589844,4227.563965,4224.871582,4226.025879,4228.205078,4228.974121,4236.666504,4223.333496,4226.922852,4163.846191,4179.871582,0.000000,4.000000,86.000000,,,,0.000000,4.000000,4.000000,4.000000,4.000000,4.000000,4.000000,4.000000,4.000000,4.000000,4.000000,4.000000,4.000000,4.000000,4.000000,100.000000,,,,,,,,,,,,,,,,
1644853614.771641,82.000000,0.000000,4220.641113,4214.615234,4220.128418,4210.641113,4225.769043,4223.205078,4225.128418,4231.538574,4232.563965,4239.615234,4231.025879,4227.179688,4162.820313,4178.461426,0.000000,4.000000,86.000000,,,,0.000000,4.000000,4.000000,4.000000,4.000000,4.000000,4.000000,4.000000,4.000000,4.000000,4.000000,4.000000,4.000000,4.000000,4.000000,100.000000,,,,,,,,,,,,,,,,
1644853614.775581,83.000000,0.000000,4225.128418,4211.922852,4218.461426,4216.922852,4225.897461,4221.538574,4222.563965,4234.487305,4237.179688,4243.589844,4242.563965,4230.000000,4163.077148,4177.692383,0.000000,4.000000,86.000000,,,,0.000000,4.000000,4.000000,4.000000,4.000000,4.000000,4.000000,4.000000,4.000000,4.000000,4.000000,4.000000,4.000000,4.000000,4.000000,100.000000,,,,,,,,,,,,,,,,
1644853614.779521,84.000000,0.000000,4225.769043,4207.692383,4219.102539,4225.128418,4226.794922,4220.384766,4220.641113,4235.769043,4239.487305,4247.948730,4253.846191,4233.974121,4162.307617,4179.487305,0.000000,4.000000,86.000000,,,,0.000000,4.000000,4.000000,4.000000,4.000000,4.000000,4.000000,4.000000,4.000000,4.000000,4.000000,4.000000,4.000000,4.000000,4.000000,100.000000,,,,,,,,,,,,,,,,
1644853614.783461,85.000000,0.000000,4223.461426,4204.743652,4221.922852,4231.282227,4227.948730,4221.153809,4221.410156,4235.641113,4238.205078,4251.666504,4261.410156,4237.051270,4159.615234,4183.333496,0.000000,4.000000,86.000000,2,1,3,0.000000,4.000000,4.000000,4.000000,4.000000,4.000000,4.000000,4.000000,4.000000,4.000000,4.000000,4.000000,4.000000,4.000000,4.000000,100.000000,,,,,,,,,,,,,,,,
1644853614.787401,86.000000,0.000000,4220.769043,4205.641113,4225.256348,4232.179688,4230.128418,4223.974121,4223.974121,4235.128418,4234.871582,4253.333496,4263.077148,4237.948730,4156.794922,4186.153809,0.000000,4.000000,86.000000,,,,0.000000,4.000000,4.000000,4.000000,4.000000,4.000000,4.000000,4.000000,4.000000,4.000000,4.000000,4.000000,4.000000,4.000000,4.000000,100.000000,,,,,,,,,,,,,,,,
1644853614.791341,87.000000,0.000000,4218.846191,4210.128418,4227.051270,4227.436035,4233.846191,4227.948730,4226.153809,4234.358887,4232.692383,4252.307617,4258.461426,4236.410156,4157.307617,4185.512695,0.000000,4.000000,86.000000,,,,0.000000,4.000000,4.000000,4.000000,4.000000,4.000000,4.000000,4.000000,4.000000,4.000000,4.000000,4.000000,4.000000,4.000000,4.000000,100.000000,,,,,,,,,,,,,,,,
1644853614.795281,88.000000,0.000000,4217.563965,4215.128418,4226.538574,4219.102539,4237.179688,4230.384766,4226.666504,4233.717773,4233.333496,4247.948730,4249.615234,4233.589844,4161.794922,4181.794922,0.000000,4.000000,86.000000,,,,0.000000,4.000000,4.000000,4.000000,4.000000,4.000000,4.000000,4.000000,4.000000,4.000000,4.000000,4.000000,4.000000,4.000000,4.000000,100.000000,,,,,,,,,,,,,,,,
1644853614.799222,89.000000,0.000000,4216.282227,4216.922852,4225.128418,4210.897461,4236.922852,4229.487305,4226.410156,4233.205078,4235.256348,4241.153809,4239.871582,4230.769043,4167.436035,4177.179688,0.000000,4.000000,86.000000,,,,0.000000,4.000000,4.000000,4.000000,4.000000,4.000000,4.000000,4.000000,4.000000,4.000000,4.000000,4.000000,4.000000,4.000000,4.000000,100.000000,,,,,,,,,,,,,,,,
1644853614.803162,90.000000,0.000000,4215.256348,4214.358887,4224.358887,4206.153809,4231.282227,4225.897461,4226.666504,4232.307617,4235.384766,4233.717773,4232.051270,4228.846191,4170.000000,4175.000000,0.000000,4.000000,86.000000,,,,0.000000,4.000000,4.000000,4.000000,4.000000,4.000000,4.000000,4.000000,4.000000,4.000000,4.000000,4.000000,4.000000,4.000000,4.000000,100.000000,,,,,,,,,,,,,,,,
1644853614.807102,91.000000,0.000000,4215.128418,4210.000000,4224.487305,4205.641113,4222.563965,4222.436035,4226.794922,4230.641113,4231.538574,4228.717773,4226.922852,4227.436035,4167.307617,4177.051270,0.000000,4.000000,86.000000,,,,0.000000,4.000000,4.000000,4.000000,4.000000,4.000000,4.000000,4.000000,4.000000,4.000000,4.000000,4.000000,4.000000,4.000000,4.000000,100.000000,,,,,,,,,,,,,,,,
1644853614.811042,92.000000,0.000000,4216.538574,4207.179688,4224.487305,4207.692383,4215.641113,4221.538574,4225.256348,4227.820313,4224.871582,4228.077148,4224.102539,4225.256348,4162.307617,4182.820313,0.000000,4.000000,86.000000,,,,0.000000,4.000000,4.000000,4.000000,4.000000,4.000000,4.000000,4.000000,4.000000,4.000000,4.000000,4.000000,4.000000,4.000000,4.000000,100.000000,,,,,,,,,,,,,,,,
1644853614.814982,93.000000,0.000000,4218.461426,4208.205078,4223.461426,4209.358887,4214.358887,4223.717773,4222.436035,4225.000000,4219.615234,4232.179688,4222.179688,4222.179688,4159.230957,4188.717773,0.000000,4.000000,86.000000,,,,0.000000,4.000000,4.000000,4.000000,4.000000,4.000000,4.000000,4.000000,4.000000,4.000000,4.000000,4.000000,4.000000,4.000000,4.000000,100.000000,,,,,,,,,,,,,,,,
1644853614.818922,94.000000,0.000000,4219.230957,4212.563965,4222.179688,4210.384766,4218.205078,4227.307617,4221.153809,4223.974121,4219.230957,4239.102539,4221.025879,4219.743652,4159.743652,4190.256348,0.000000,4.000000,86.000000,,,,0.000000,4.000000,4.000000,4.000000,4.000000,4.000000,4.000000,4.000000,4.000000,4.000000,4.000000,4.000000,4.000000,4.000000,4.000000,100.000000,,,,,,,,,,,,,,,,
1644853614.822862,95.000000,0.000000,4218.333496,4217.179688,4221.538574,4212.436035,4223.717773,4230.256348,4222.948730,4225.512695,4224.230957,4245.769043,4221.794922,4220.512695,4161.282227,4185.897461,0.000000,4.000000,86.000000,,,,0.000000,4.000000,4.000000,4.000000,4.000000,4.000000,4.000000,4.000000,4.000000,4.000000,4.000000,4.000000,4.000000,4.000000,4.000000,100.000000,,,,,,,,,,,,,,,,
1644853614.826802,96.000000,0.000000,4216.410156,4218.717773,4222.051270,4217.179688,4227.436035,4231.666504,4225.641113,4228.717773,4232.307617,4249.102539,4226.666504,4225.128418,4160.128418,4179.102539,0.000000,4.000000,86.000000,,,,0.000000,4.000000,4.000000,4.000000,4.000000,4.000000,4.000000,4.000000,4.000000,4.000000,4.000000,4.000000,4.000000,4.000000,4.000000,100.000000,,,,,,,,,,,,,,,,
1644853614.830643,97.000000,0.000000,4215.128418,4215.512695,4223.205078,4224.102539,4228.077148,4231.666504,4225.641113,4231.282227,4239.358887,4247.307617,4235.641113,4231.922852,4155.512695,4175.641113,0.000000,4.000000,86.000000,,,,0.000000,4.000000,4.000000,4.000000,4.000000,4.000000,4.000000,4.000000,4.000000,4.000000,4.000000,4.000000,4.000000,4.000000,4.000000,100.000000,,,,,,,,,,,,,,,,
1644853614.834583,98.000000,0.000000,4215.000000,4209.102539,4224.358887,4230.384766,4226.666504,4230.769043,4221.794922,4231.410156,4241.922852,4241.538574,4245.256348,4237.051270,4150.256348,4179.230957,0.000000,4.000000,86.000000,,,,0.000000,4.000000,4.000000,4.000000,4.000000,4.000000,4.000000,4.000000,4.000000,4.000000,4.000000,4.000000,4.000000,4.000000,4.000000,100.000000,,,,,,,,,,,,,,,,
1644853614.838523,99.000000,0.000000,4215.000000,4202.820313,4224.871582,4233.205078,4224.615234,4229.358887,4216.922852,4228.846191,4239.102539,4235.641113,4251.282227,4237.692383,4148.077148,4188.205078,0.000000,4.000000,86.000000,,,,0.000000,4.000000,4.000000,4.000000,4.000000,4.000000,4.000000,4.000000,4.000000,4.000000,4.000000,4.000000,4.000000,4.000000,4.000000,100.000000,,,,,,,,,,,,,,,,
1644853614.842463,100.000000,0.000000,4214.230957,4199.743652,4223.846191,4230.000000,4223.589844,4227.948730,4214.871582,4225.128418,4232.307617,4232.948730,4251.538574,4234.102539,4150.641113,4196.410156,0.000000,4.000000,86.000000,,,,0.000000,4.000000,4.000000,4.000000,4.000000,4.000000,4.000000,4.000000,4.000000,4.000000,4.000000,4.000000,4.000000,4.000000,4.000000,100.000000,,,,,,,,,,,,,,,,
1644853614.846403,101.000000,0.000000,4212.563965,4200.256348,4220.897461,4220.512695,4224.102539,4226.922852,4215.769043,4221.410156,4225.000000,4233.461426,4246.025879,4228.461426,4155.769043,4198.461426,0.000000,4.000000,86.000000,,,,0.000000,4.000000,4.000000,4.000000,4.000000,4.000000,4.000000,4.000000,4.000000,4.000000,4.000000,4.000000,4.000000,4.000000,4.000000,100.000000,,,,,,,,,,,,,,,,
1644853614.850343,102.000000,0.000000,4210.256348,4201.282227,4217.051270,4206.025879,4225.641113,4226.153809,4216.922852,4218.205078,4220.512695,4234.102539,4235.512695,4222.820313,4159.487305,4193.717773,0.000000,4.000000,86.000000,,,,0.000000,4.000000,4.000000,4.000000,4.000000,4.000000,4.000000,4.000000,4.000000,4.000000,4.000000,4.000000,4.000000,4.000000,4.000000,100.000000,,,,,,,,,,,,,,,,
1644853614.854283,103.000000,0.000000,4208.077148,4199.871582,4214.487305,4191.153809,4226.538574,4224.743652,4216.153809,4216.025879,4220.000000,4232.051270,4222.051270,4217.820313,4159.871582,4186.410156,0.000000,4.000000,86.000000,,,,0.000000,4.000000,4.000000,4.000000,4.000000,4.000000,4.000000,4.000000,4.000000,4.000000,4.000000,4.000000,4.000000,4.000000,4.000000,100.000000,,,,,,,,,,,,,,,,
1644853614.858223,104.000000,0.000000,4207.692383,4196.153809,4214.358887,4182.051270,4225.512695,4222.179688,4214.358887,4215.897461,4222.436035,4227.563965,4209.487305,4214.230957,4158.589844,4182.179688,0.000000,4.000000,86.000000,,,,0.000000,4.000000,4.000000,4.000000,4.000000,4.000000,4.000000,4.000000,4.000000,4.000000,4.000000,4.000000,4.000000,4.000000,4.000000,100.000000,,,,,,,,,,,,,,,,
1644853614.862163,105.000000,0.000000,4211.153809,4193.717773,4216.282227,4183.333496,4222.692383,4219.487305,4214.102539,4217.820313,4225.769043,4224.102539,4204.102539,4213.717773,4158.717773,4184.230957,0.000000,4.000000,86.000000,,,,0.000000,4.000000,4.000000,4.000000,4.000000,4.000000,4.000000,4.000000,4.000000,4.000000,4.000000,4.000000,4.000000,4.000000,4.000000,100.000000,,,,,,,,,,,,,,,,
1644853614.866103,106.000000,0.000000,4218.974121,4196.410156,4218.333496,4194.358887,4219.358887,4218.333496,4215.897461,4221.282227,4228.846191,4225.512695,4209.358887,4217.563965,4161.153809,4191.025879,0.000000,4.000000,86.000000,,,,0.000000,4.000000,4.000000,4.000000,4.000000,4.000000,4.000000,4.000000,4.000000,4.000000,4.000000,4.000000,4.000000,4.000000,4.000000,100.000000,,,,,,,,,,,,,,,,
1644853614.870044,107.000000,0.000000,4228.717773,4204.615234,4218.846191,4208.846191,4217.307617,4219.615234,4217.948730,4225.256348,4232.051270,4232.820313,4223.077148,4224.615234,4163.717773,4197.563965,0.000000,4.000000,86.000000,,,,0.000000,4.000000,4.000000,4.000000,4.000000,4.000000,4.000000,4.000000,4.000000,4.000000,4.000000,4.000000,4.000000,4.000000,4.000000,100.000000,,,,,,,,,,,,,,,,
1644853614.873984,108.000000,0.000000,4236.025879,4214.487305,4217.820313,4219.230957,4218.205078,4222.820313,4219.358887,4228.974121,4235.641113,4242.948730,4237.051270,4231.153809,4163.333496,4200.256348,0.000000,4.000000,86.000000,,,,0.000000,4.000000,4.000000,4.000000,4.000000,4.000000,4.000000,4.000000,4.000000,4.000000,4.000000,4.000000,4.000000,4.000000,4.000000,100.000000,,,,,,,,,,,,,,,,
1644853614.877924,109.000000,0.000000,4236.794922,4221.153809,4216.922852,4221.410156,4221.922852,4226.666504,4220.897461,4232.436035,4238.846191,4250.512695,4243.333496,4232.692383,4160.384766,4198.974121,0.000000,4.000000,86.000000,,,,0.000000,4.000000,4.000000,4.000000,4.000000,4.000000,4.000000,4.000000,4.000000,4.000000,4.000000,4.000000,4.000000,4.000000,4.000000,100.000000,,,,,,,,,,,,,,,,
1644853614.881864,110.000000,0.000000,4230.256348,4222.179688,4217.820313,4217.563965,4226.922852,4230.000000,4224.102539,4235.256348,4240.384766,4251.025879,4239.102539,4227.820313,4157.692383,4196.025879,0.000000,4.000000,86.000000,,,,0.000000,4.000000,4.000000,4.000000,4.000000,4.000000,4.000000,4.000000,4.000000,4.000000,4.000000,4.000000,4.000000,4.000000,4.000000,100.000000,,,,,,,,,,,,,,,,
1644853614.885804,111.000000,0.000000,4220.384766,4219.102539,4220.256348,4213.077148,4230.769043,4232.436035,4227.563965,4236.538574,4239.358887,4244.743652,4229.615234,4219.102539,4158.461426,4192.820313,0.000000,4.000000,86.000000,,,,0.000000,4.000000,4.000000,4.000000,4.000000,4.000000,4.000000,4.000000,4.000000,4.000000,4.000000,4.000000,4.000000,4.000000,4.000000,100.000000,,,,,,,,,,,,,,,,
1644853614.889744,112.000000,0.000000,4213.333496,4215.512695,4222.307617,4212.563965,4231.794922,4233.846191,4228.205078,4235.641113,4236.538574,4236.538574,4223.589844,4211.794922,4162.179688,4188.717773,0.000000,4.000000,86.000000,,,,0.000000,4.000000,4.000000,4.000000,4.000000,4.000000,4.000000,4.000000,4.000000,4.000000,4.000000,4.000000,4.000000,4.000000,4.000000,100.000000,,,,,,,,,,,,,,,,
1644853614.893684,113.000000,0.000000,4212.948730,4214.743652,4222.179688,4217.436035,4230.000000,4234.230957,4225.128418,4232.820313,4233.333496,4232.436035,4225.897461,4210.000000,4164.615234,4183.333496,0.000000,4.000000,86.000000,,,,0.000000,4.000000,4.000000,4.000000,4.000000,4.000000,4.000000,4.000000,4.000000,4.000000,4.000000,4.000000,4.000000,4.000000,4.000000,100.000000,,,,,,,,,,,,,,,,
1644853614.897724,114.000000,0.000000,4217.436035,4216.282227,4219.615234,4225.641113,4226.025879,4233.205078,4221.153809,4229.487305,4231.282227,4233.589844,4233.333496,4213.717773,4160.512695,4177.692383,0.000000,4.000000,86.000000,,,,0.000000,4.000000,4.000000,4.000000,4.000000,4.000000,4.000000,4.000000,4.000000,4.000000,4.000000,4.000000,4.000000,4.000000,4.000000,100.000000,,,,,,,,,,,,,,,,
1644853614.901664,115.000000,0.000000,4220.769043,4217.051270,4216.153809,4231.794922,4222.307617,4230.512695,4219.615234,4227.179688,4230.512695,4236.666504,4237.563965,4218.974121,4149.487305,4173.717773,0.000000,4.000000,86.000000,,,,0.000000,4.000000,4.000000,4.000000,4.000000,4.000000,4.000000,4.000000,4.000000,4.000000,4.000000,4.000000,4.000000,4.000000,4.000000,100.000000,,,,,,,,,,,,,,,,
1644853614.905604,116.000000,0.000000,4217.692383,4214.743652,4213.589844,4231.025879,4221.025879,4226.666504,4221.153809,4226.666504,4230.384766,4237.820313,4232.563965,4221.282227,4137.307617,4172.820313,0.000000,4.000000,86.000000,,,,0.000000,4.000000,4.000000,4.000000,4.000000,4.000000,4.000000,4.000000,4.000000,4.000000,4.000000,4.000000,4.000000,4.000000,4.000000,100.000000,,,,,,,,,,,,,,,,
1644853614.909545,117.000000,0.000000,4208.846191,4210.000000,4212.948730,4222.051270,4223.461426,4223.589844,4223.205078,4226.922852,4230.641113,4236.282227,4220.769043,4218.846191,4131.922852,4174.743652,0.000000,4.000000,86.000000,,,,0.000000,4.000000,4.000000,4.000000,4.000000,4.000000,4.000000,4.000000,4.000000,4.000000,4.000000,4.000000,4.000000,4.000000,4.000000,100.000000,,,,,,,,,,,,,,,,
1644853614.913485,118.000000,0.000000,4200.128418,4206.538574,4213.461426,4208.846191,4228.717773,4222.948730,4223.717773,4227.051270,4230.897461,4233.717773,4211.410156,4212.948730,4136.153809,4178.461426,0.000000,4.000000,86.000000,,,,0.000000,4.000000,4.000000,4.000000,4.000000,4.000000,4.000000,4.000000,4.000000,4.000000,4.000000,4.000000,4.000000,4.000000,4.000000,100.000000,,,,,,,,,,,,,,,,
1644853614.917425,119.000000,0.000000,4198.205078,4206.794922,4213.461426,4198.974121,4233.974121,4225.128418,4223.333496,4226.538574,4230.256348,4230.769043,4212.692383,4206.922852,4146.538574,4182.820313,0.000000,4.000000,86.000000,,,,0.000000,4.000000,4.000000,4.000000,4.000000,4.000000,4.000000,4.000000,4.000000,4.000000,4.000000,4.000000,4.000000,4.000000,4.000000,100.000000,,,,,,,,,,,,,,,,
1644853614.921265,120.000000,0.000000,4204.615234,4210.512695,4212.563965,4197.948730,4236.666504,4227.820313,4223.205078,4225.384766,4228.205078,4227.436035,4224.230957,4202.820313,4155.897461,4186.666504,0.000000,4.000000,86.000000,,,,0.000000,4.000000,4.000000,4.000000,4.000000,4.000000,4.000000,4.000000,4.000000,4.000000,4.000000,4.000000,4.000000,4.000000,4.000000,100.000000,,,,,,,,,,,,,,,,
1644853614.925205,121.000000,0.000000,4214.743652,4214.743652,4211.282227,4205.384766,4235.000000,4227.436035,4222.307617,4223.333496,4224.358887,4224.487305,4236.922852,4201.153809,4160.128418,4188.333496,0.000000,4.000000,86.000000,,,,0.000000,4.000000,4.000000,4.000000,4.000000,4.000000,4.000000,4.000000,4.000000,4.000000,4.000000,4.000000,4.000000,4.000000,4.000000,100.000000,,,,,,,,,,,,,,,,
1644853614.929245,122.000000,0.000000,4221.410156,4217.563965,4210.384766,4214.487305,4229.102539,4222.179688,4218.589844,4219.871582,4219.358887,4223.589844,4239.615234,4201.025879,4159.615234,4186.666504,0.000000,4.000000,86.000000,3,1,3,0.000000,4.000000,4.000000,4.000000,4.000000,4.000000,4.000000,4.000000,4.000000,4.000000,4.000000,4.000000,4.000000,4.000000,4.000000,100.000000,,,,,,,,,,,,,,,,
1644853614.933185,123.000000,0.000000,4220.641113,4218.589844,4209.743652,4216.794922,4220.256348,4213.461426,4211.410156,4214.743652,4214.102539,4224.102539,4229.358887,4201.282227,4156.794922,4182.051270,0.000000,4.000000,86.000000,,,,0.000000,4.000000,4.000000,4.000000,4.000000,4.000000,4.000000,4.000000,4.000000,4.000000,4.000000,4.000000,4.000000,4.000000,4.000000,100.000000,,,,,,,,,,,,,,,,
1644853614.937125,124.000000,0.000000,4213.205078,4218.461426,4208.974121,4208.205078,4211.410156,4205.512695,4204.102539,4208.846191,4209.615234,4222.563965,4213.077148,4201.410156,4151.922852,4175.000000,0.000000,4.000000,86.000000,,,,0.000000,4.000000,4.000000,4.000000,4.000000,4.000000,4.000000,4.000000,4.000000,4.000000,4.000000,4.000000,4.000000,4.000000,4.000000,100.000000,,,,,,,,,,,,,,,,
1644853614.941065,125.000000,0.000000,4203.333496,4216.282227,4208.077148,4192.948730,4205.641113,4202.307617,4200.769043,4203.974121,4206.410156,4215.897461,4201.922852,4201.025879,4143.589844,4166.666504,0.000000,4.000000,86.000000,,,,0.000000,4.000000,4.000000,4.000000,4.000000,4.000000,4.000000,4.000000,4.000000,4.000000,4.000000,4.000000,4.000000,4.000000,4.000000,100.000000,,,,,,,,,,,,,,,,
1644853614.945005,126.000000,0.000000,4195.769043,4211.922852,4207.563965,4181.025879,4204.743652,4205.000000,4202.820313,4201.538574,4205.384766,4206.025879,4201.538574,4200.000000,4132.179688,4158.333496,0.000000,4.000000,86.000000,,,,0.000000,4.000000,4.000000,4.000000,4.000000,4.000000,4.000000,4.000000,4.000000,4.000000,4.000000,4.000000,4.000000,4.000000,4.000000,100.000000,,,,,,,,,,,,,,,,
1644853614.948946,127.000000,0.000000,4193.846191,4206.538574,4207.692383,4181.410156,4208.333496,4211.410156,4207.179688,4202.692383,4206.794922,4199.358887,4208.974121,4198.589844,4121.922852,4151.538574,0.000000,4.000000,86.000000,4,1,3,0.000000,4.000000,4.000000,4.000000,4.000000,4.000000,4.000000,4.000000,4.000000,4.000000,4.000000,4.000000,4.000000,4.000000,4.000000,100.000000,,,,,,,,,,,,,,,,
1644853614.952886,128.000000,0.000000,4197.948730,4203.333496,4208.589844,4195.000000,4214.615234,4217.692383,4210.128418,4206.025879,4209.743652,4200.641113,4215.128418,4197.820313,4119.615234,4148.589844,3411.000000,4.000000,86.000000,,,,0.000000,4.000000,4.000000,4.000000,4.000000,4.000000,4.000000,4.000000,4.000000,4.000000,4.000000,4.000000,4.000000,4.000000,4.000000,100.000000,,,,,,,,,,,,,,,,
1644853614.956826,129.000000,0.000000,4204.615234,4204.358887,4209.615234,4213.589844,4220.000000,4221.794922,4210.769043,4209.230957,4212.692383,4209.358887,4212.436035,4198.333496,4127.692383,4151.410156,3329.000000,4.000000,86.000000,,,,0.000000,4.000000,4.000000,4.000000,4.000000,4.000000,4.000000,4.000000,4.000000,4.000000,4.000000,4.000000,4.000000,4.000000,4.000000,100.000000,,,,,,,,,,,,,,,,
1644853614.960766,130.000000,0.000000,4209.487305,4209.230957,4210.769043,4225.769043,4222.179688,4223.717773,4211.153809,4211.153809,4215.384766,4219.743652,4201.666504,4199.743652,4142.307617,4159.615234,3504.000000,4.000000,86.000000,,,,0.000000,4.000000,4.000000,4.000000,4.000000,4.000000,4.000000,4.000000,4.000000,4.000000,4.000000,4.000000,4.000000,4.000000,4.000000,100.000000,,,,,,,,,,,,,,,,
1644853614.964706,131.000000,0.000000,4210.256348,4214.358887,4211.538574,4225.897461,4221.538574,4225.128418,4213.205078,4213.205078,4218.589844,4226.794922,4191.922852,4201.666504,4154.743652,4170.000000,3651.000000,4.000000,86.000000,,,,0.000000,4.000000,4.000000,4.000000,4.000000,4.000000,4.000000,4.000000,4.000000,4.000000,4.000000,4.000000,4.000000,4.000000,4.000000,100.000000,,,,,,,,,,,,,,,,
1644853614.968646,132.000000,0.000000,4208.205078,4217.179688,4211.922852,4218.077148,4220.384766,4227.563965,4216.538574,4216.538574,4223.461426,4230.256348,4193.974121,4204.743652,4157.948730,4177.692383,3479.000000,4.000000,86.000000,,,,0.000000,4.000000,4.000000,4.000000,4.000000,4.000000,4.000000,4.000000,4.000000,4.000000,4.000000,4.000000,4.000000,4.000000,4.000000,100.000000,,,,,,,,,,,,,,,,
1644853614.972586,133.000000,0.000000,4206.153809,4216.538574,4211.794922,4212.692383,4221.666504,4230.897461,4219.102539,4221.282227,4230.000000,4232.692383,4210.769043,4210.384766,4152.051270,4180.256348,3341.000000,4.000000,86.000000,,,,0.000000,4.000000,4.000000,4.000000,4.000000,4.000000,4.000000,4.000000,4.000000,4.000000,4.000000,4.000000,4.000000,4.000000,4.000000,100.000000,,,,,,,,,,,,,,,,
1644853614.976426,134.000000,0.000000,4206.025879,4213.846191,4211.666504,4215.641113,4226.025879,4233.846191,4220.256348,4225.897461,4236.025879,4236.666504,4233.461426,4217.563965,4143.589844,4179.230957,2571.000000,4.000000,86.000000,,,,0.000000,4.000000,4.000000,4.000000,4.000000,4.000000,4.000000,4.000000,4.000000,4.000000,4.000000,4.000000,4.000000,4.000000,4.000000,100.000000,,,,,,,,,,,,,,,,
1644853614.980367,135.000000,0.000000,4207.948730,4212.051270,4211.666504,4223.333496,4231.538574,4235.000000,4220.897461,4228.589844,4238.333496,4241.922852,4248.974121,4222.436035,4140.384766,4179.743652,3170.000000,4.000000,86.000000,,,,0.000000,4.000000,4.000000,4.000000,4.000000,4.000000,4.000000,4.000000,4.000000,4.000000,4.000000,4.000000,4.000000,4.000000,4.000000,100.000000,,,,,,,,,,,,,,,,
1644853614.984307,136.000000,0.000000,4211.282227,4213.205078,4210.897461,4226.282227,4235.000000,4233.717773,4221.153809,4228.333496,4236.025879,4245.769043,4249.487305,4221.153809,4146.538574,4185.384766,3282.000000,4.000000,86.000000,,,,0.000000,4.000000,4.000000,4.000000,4.000000,4.000000,4.000000,4.000000,4.000000,4.000000,4.000000,4.000000,4.000000,4.000000,4.000000,100.000000,,,,,,,,,,,,,,,,
1644853614.988247,137.000000,0.000000,4215.256348,4216.666504,4209.102539,4219.743652,4234.871582,4230.256348,4220.000000,4225.512695,4230.897461,4245.000000,4238.333496,4214.102539,4159.487305,4194.358887,3537.000000,4.000000,86.000000,,,,0.000000,4.000000,4.000000,4.000000,4.000000,4.000000,4.000000,4.000000,4.000000,4.000000,4.000000,4.000000,4.000000,4.000000,4.000000,100.000000,,,,,,,,,,,,,,,,
1644853614.992187,138.000000,0.000000,4219.487305,4220.000000,4207.692383,4207.563965,4231.153809,4226.025879,4216.538574,4221.666504,4226.025879,4238.717773,4225.256348,4206.153809,4171.922852,4200.384766,3528.000000,4.000000,86.000000,,,,0.000000,4.000000,4.000000,4.000000,4.000000,4.000000,4.000000,4.000000,4.000000,4.000000,4.000000,4.000000,4.000000,4.000000,4.000000,100.000000,,,,,,,,,,,,,,,,
1644853614.996127,139.000000,0.000000,4222.179688,4221.153809,4208.846191,4198.589844,4226.410156,4222.436035,4212.307617,4219.102539,4223.589844,4230.256348,4217.948730,4202.563965,4176.666504,4198.974121,3107.000000,4.000000,86.000000,,,,0.000000,4.000000,4.000000,4.000000,4.000000,4.000000,4.000000,4.000000,4.000000,4.000000,4.000000,4.000000,4.000000,4.000000,4.000000,100.000000,,,,,,,,,,,,,,,,
1644853615.000067,140.000000,0.000000,4221.538574,4220.000000,4213.077148,4198.205078,4223.333496,4220.256348,4210.256348,4218.974121,4223.589844,4224.743652,4217.948730,4205.384766,4170.641113,4190.128418,3559.000000,4.000000,86.000000,,,,0.000000,4.000000,4.000000,4.000000,4.000000,4.000000,4.000000,4.000000,4.000000,4.000000,4.000000,4.000000,4.000000,4.000000,4.000000,100.000000,,,,,,,,,,,,,,,,
1644853615.004007,141.000000,0.000000,4216.282227,4217.436035,4218.846191,4204.615234,4222.948730,4219.358887,4211.794922,4220.512695,4225.128418,4225.512695,4220.384766,4211.794922,4156.025879,4178.461426,3484.000000,4.000000,86.000000,,,,0.000000,4.000000,4.000000,4.000000,4.000000,4.000000,4.000000,4.000000,4.000000,4.000000,4.000000,4.000000,4.000000,4.000000,4.000000,100.000000,,,,,,,,,,,,,,,,
1644853615.007947,142.000000,0.000000,4207.820313,4214.358887,4222.436035,4211.153809,4224.102539,4219.102539,4214.615234,4221.538574,4226.153809,4230.128418,4219.615234,4216.410156,4140.128418,4169.358887,3528.000000,4.000000,86.000000,5,1,3,0.000000,4.000000,4.000000,4.000000,4.000000,4.000000,4.000000,4.000000,4.000000,4.000000,4.000000,4.000000,4.000000,4.000000,4.000000,100.000000,,,,,,,,,,,,,,,,
1644853615.011987,143.000000,0.000000,4200.256348,4211.025879,4221.538574,4213.077148,4224.230957,4218.974121,4215.256348,4219.615234,4225.000000,4232.692383,4214.230957,4215.256348,4129.743652,4166.153809,3107.000000,4.000000,86.000000,,,,0.000000,4.000000,4.000000,4.000000,4.000000,4.000000,4.000000,4.000000,4.000000,4.000000,4.000000,4.000000,4.000000,4.000000,4.000000,100.000000,,,,,,,,,,,,,,,,
1644853615.015927,144.000000,0.000000,4197.051270,4207.307617,4216.538574,4210.897461,4221.922852,4217.692383,4212.820313,4214.487305,4220.769043,4229.615234,4206.922852,4208.205078,4128.205078,4169.102539,3559.000000,4.000000,86.000000,,,,0.000000,4.000000,4.000000,4.000000,4.000000,4.000000,4.000000,4.000000,4.000000,4.000000,4.000000,4.000000,4.000000,4.000000,4.000000,100.000000,,,,,,,,,,,,,,,,
1644853615.019867,145.000000,0.000000,4199.230957,4203.717773,4210.512695,4209.230957,4217.563965,4214.743652,4209.230957,4208.589844,4215.256348,4222.051270,4201.282227,4199.487305,4133.077148,4175.897461,3484.000000,4.000000,86.000000,,,,0.000000,4.000000,4.000000,4.000000,4.000000,4.000000,4.000000,4.000000,4.000000,4.000000,4.000000,4.000000,4.000000,4.000000,4.000000,100.000000,,,,,,,,,,,,,,,,
1644853615.023808,146.000000,0.000000,4205.000000,4201.666504,4206.153809,4211.025879,4213.077148,4211.025879,4207.692383,4205.128418,4211.666504,4214.358887,4199.358887,4194.743652,4137.820313,4181.538574,3528.000000,4.000000,86.000000,,,,0.000000,4.000000,4.000000,4.000000,4.000000,4.000000,4.000000,4.000000,4.000000,4.000000,4.000000,4.000000,4.000000,4.000000,4.000000,100.000000,,,,,,,,,,,,,,,,
1644853615.027748,147.000000,0.000000,4211.538574,4202.820313,4204.615234,4214.871582,4211.282227,4209.230957,4208.717773,4206.025879,4212.307617,4210.769043,4201.282227,4196.922852,4136.282227,4181.153809,3107.000000,4.000000,86.000000,,,,0.000000,4.000000,4.000000,4.000000,4.000000,4.000000,4.000000,4.000000,4.000000,4.000000,4.000000,4.000000,4.000000,4.000000,4.000000,100.000000,,,,,,,,,,,,,,,,
1644853615.031688,148.000000,0.000000,4216.410156,4207.051270,4204.487305,4216.538574,4213.205078,4211.410156,4210.897461,4209.615234,4216.282227,4212.051270,4205.897461,4204.102539,4126.153809,4172.948730,3559.000000,4.000000,86.000000,,,,0.000000,4.000000,4.000000,4.000000,4.000000,4.000000,4.000000,4.000000,4.000000,4.000000,4.000000,4.000000,4.000000,4.000000,4.000000,100.000000,1.000000,83.333336,4.000000,4.000000,4.000000,4.000000,4.000000,4.000000,4.000000,4.000000,4.000000,4.000000,3.000000,4.000000,3.000000,4.000000
1644853615.035628,149.000000,0.000000,4218.077148,4212.051270,4203.974121,4213.461426,4218.333496,4216.922852,4212.436035,4212.948730,4219.743652,4216.025879,4211.410156,4211.025879,4110.769043,4161.025879,3484.000000,4.000000,86.000000,,,,0.000000,4.000000,4.000000,4.000000,4.000000,4.000000,4.000000,4.000000,4.000000,4.000000,4.000000,4.000000,4.000000,4.000000,4.000000,100.000000,,,,,,,,,,,,,,,,
1644853615.039568,150.000000,0.000000,4215.384766,4214.102539,4202.948730,4207.948730,4224.487305,4223.077148,4213.461426,4213.717773,4219.487305,4219.358887,4214.871582,4212.051270,4097.051270,4152.179688,3528.000000,4.000000,86.000000,,,,0.000000,4.000000,4.000000,4.000000,4.000000,4.000000,4.000000,4.000000,4.000000,4.000000,4.000000,4.000000,4.000000,4.000000,4.000000,100.000000,,,,,,,,,,,,,,,,
1644853615.043508,151.000000,0.000000,4209.102539,4211.922852,4202.179688,4204.615234,4229.230957,4226.282227,4214.230957,4212.179688,4215.256348,4219.871582,4212.563965,4206.538574,4091.923096,4152.436035,3107.000000,4.000000,86.000000,,,,0.000000,4.000000,4.000000,4.000000,4.000000,4.000000,4.000000,4.000000,4.000000,4.000000,4.000000,4.000000,4.000000,4.000000,4.000000,100.000000,,,,,,,,,,,,,,,,
1644853615.047448,152.000000,0.000000,4200.256348,4207.692383,4202.948730,4205.897461,4231.153809,4225.256348,4214.102539,4209.487305,4210.512695,4218.589844,4204.102539,4198.333496,4097.563965,4161.922852,3559.000000,4.000000,86.000000,,,,0.000000,4.000000,4.000000,4.000000,4.000000,4.000000,4.000000,4.000000,4.000000,4.000000,4.000000,4.000000,4.000000,4.000000,4.000000,100.000000,,,,,,,,,,,,,,,,
1644853615.051388,153.000000,0.000000,4191.666504,4205.384766,4205.512695,4209.487305,4230.769043,4221.922852,4212.436035,4207.948730,4209.487305,4217.948730,4193.461426,4193.205078,4109.102539,4175.256348,3484.000000,4.000000,86.000000,,,,0.000000,4.000000,4.000000,4.000000,4.000000,4.000000,4.000000,4.000000,4.000000,4.000000,4.000000,4.000000,4.000000,4.000000,4.000000,100.000000,,,,,,,,,,,,,,,,
1644853615.055328,154.000000,0.000000,4186.410156,4206.922852,4209.102539,4210.256348,4229.102539,4219.358887,4210.897461,4208.717773,4214.102539,4219.743652,4188.077148,4194.358887,4117.307617,4185.512695,3528.000000,4.000000,86.000000,,,,0.000000,4.000000,4.000000,4.000000,4.000000,4.000000,4.000000,4.000000,4.000000,4.000000,4.000000,4.000000,4.000000,4.000000,4.000000,100.000000,,,,,,,,,,,,,,,,
1644853615.059269,155.000000,0.000000,4187.307617,4210.769043,4212.563965,4206.282227,4227.179688,4219.871582,4212.179688,4212.692383,4221.410156,4223.846191,4193.205078,4200.641113,4115.641113,4188.077148,3107.000000,4.000000,86.000000,,,,0.000000,4.000000,4.000000,4.000000,4.000000,4.000000,4.000000,4.000000,4.000000,4.000000,4.000000,4.000000,4.000000,4.000000,4.000000,100.000000,,,,,,,,,,,,,,,,
1644853615.063209,156.000000,0.000000,4194.230957,4213.589844,4214.743652,4201.153809,4225.128418,4222.948730,4217.051270,4218.846191,4227.307617,4228.717773,4207.692383,4208.846191,4106.282227,4182.820313,3559.000000,4.000000,86.000000,,,,0.000000,4.000000,4.000000,4.000000,4.000000,4.000000,4.000000,4.000000,4.000000,4.000000,4.000000,4.000000,4.000000,4.000000,4.000000,100.000000,,,,,,,,,,,,,,,,
1644853615.067149,157.000000,0.000000,4204.358887,4213.717773,4215.641113,4199.871582,4223.974121,4226.153809,4222.307617,4224.871582,4229.615234,4232.948730,4224.102539,4214.743652,4098.717773,4174.358887,3484.000000,4.000000,86.000000,,,,0.000000,4.000000,4.000000,4.000000,4.000000,4.000000,4.000000,4.000000,4.000000,4.000000,4.000000,4.000000,4.000000,4.000000,4.000000,100.000000,,,,,,,,,,,,,,,,
1644853615.071089,158.000000,0.000000,4213.974121,4211.410156,4215.384766,4203.717773,4223.974121,4226.538574,4223.717773,4229.102539,4230.128418,4236.025879,4233.589844,4215.128418,4101.410156,4169.743652,3528.000000,4.000000,86.000000,,,,0.000000,4.000000,4.000000,4.000000,4.000000,4.000000,4.000000,4.000000,4.000000,4.000000,4.000000,4.000000,4.000000,4.000000,4.000000,100.000000,,,,,,,,,,,,,,,,
1644853615.075029,159.000000,0.000000,4221.153809,4208.974121,4214.230957,4209.230957,4224.743652,4223.461426,4221.153809,4231.282227,4231.922852,4237.692383,4232.179688,4210.000000,4113.589844,4173.077148,3107.000000,4.000000,86.000000,,,,0.000000,4.000000,4.000000,4.000000,4.000000,4.000000,4.000000,4.000000,4.000000,4.000000,4.000000,4.000000,4.000000,4.000000,4.000000,100.000000,,,,,,,,,,,,,,,,
1644853615.078969,160.000000,0.000000,4225.128418,4207.436035,4212.436035,4212.307617,4225.128418,4218.974121,4218.205078,4232.692383,4235.897461,4237.436035,4223.846191,4202.820313,4125.897461,4183.461426,3559.000000,4.000000,86.000000,,,,0.000000,4.000000,4.000000,4.000000,4.000000,4.000000,4.000000,4.000000,4.000000,4.000000,4.000000,4.000000,4.000000,4.000000,4.000000,100.000000,,,,,,,,,,,,,,,,
1644853615.082909,161.000000,0.000000,4225.000000,4206.282227,4210.256348,4210.897461,4223.846191,4216.282227,4218.589844,4233.333496,4239.871582,4234.230957,4216.282227,4198.974121,4128.717773,4194.358887,3484.000000,4.000000,86.000000,,,,0.000000,4.000000,4.000000,4.000000,4.000000,4.000000,4.000000,4.000000,4.000000,4.000000,4.000000,4.000000,4.000000,4.000000,4.000000,100.000000,,,,,,,,,,,,,,,,
1644853615.086749,162.000000,0.000000,4219.871582,4204.615234,4208.461426,4206.025879,4221.025879,4216.922852,4221.025879,4232.179688,4239.871582,4229.615234,4214.871582,4200.897461,4118.974121,4198.846191,3528.000000,4.000000,86.000000,,,,0.000000,4.000000,4.000000,4.000000,4.000000,4.000000,4.000000,4.000000,4.000000,4.000000,4.000000,4.000000,4.000000,4.000000,4.000000,100.000000,,,,,,,,,,,,,,,,
1644853615.090689,163.000000,0.000000,4210.256348,4202.563965,4206.666504,4200.256348,4217.436035,4219.615234,4221.282227,4227.692383,4235.128418,4226.666504,4217.436035,4206.025879,4101.794922,4194.230957,3107.000000,4.000000,86.000000,,,,0.000000,4.000000,4.000000,4.000000,4.000000,4.000000,4.000000,4.000000,4.000000,4.000000,4.000000,4.000000,4.000000,4.000000,4.000000,100.000000,,,,,,,,,,,,,,,,
1644853615.094630,164.000000,0.000000,4199.487305,4201.025879,4205.128418,4196.282227,4214.871582,4221.410156,4217.307617,4220.769043,4228.205078,4228.717773,4216.922852,4209.615234,4086.281982,4183.717773,3559.000000,4.000000,86.000000,,,,0.000000,4.000000,4.000000,4.000000,4.000000,4.000000,4.000000,4.000000,4.000000,4.000000,4.000000,4.000000,4.000000,4.000000,4.000000,100.000000,,,,,,,,,,,,,,,,
1644853615.098570,165.000000,0.000000,4191.922852,4201.025879,4204.102539,4194.743652,4215.000000,4220.512695,4211.794922,4214.230957,4223.205078,4234.230957,4208.974121,4209.102539,4078.589844,4172.563965,3484.000000,4.000000,86.000000,,,,0.000000,4.000000,4.000000,4.000000,4.000000,4.000000,4.000000,4.000000,4.000000,4.000000,4.000000,4.000000,4.000000,4.000000,4.000000,100.000000,,,,,,,,,,,,,,,,
1644853615.102510,166.000000,0.000000,4191.025879,4204.487305,4204.230957,4194.230957,4217.563965,4218.077148,4209.358887,4211.025879,4221.794922,4238.077148,4197.563965,4205.641113,4079.358887,4165.256348,3528.000000,4.000000,86.000000,,,,0.000000,4.000000,4.000000,4.000000,4.000000,4.000000,4.000000,4.000000,4.000000,4.000000,4.000000,4.000000,4.000000,4.000000,4.000000,100.000000,,,,,,,,,,,,,,,,
1644853615.106450,167.000000,0.000000,4196.282227,4211.922852,4205.384766,4193.717773,4221.410156,4216.410156,4211.410156,4211.922852,4223.461426,4236.025879,4191.794922,4202.563965,4084.615479,4163.205078,3107.000000,4.000000,86.000000,,,,0.000000,4.000000,4.000000,4.000000,4.000000,4.000000,4.000000,4.000000,4.000000,4.000000,4.000000,4.000000,4.000000,4.000000,4.000000,100.000000,,,,,,,,,,,,,,,,
1644853615.110390,168.000000,0.000000,4203.846191,4220.769043,4206.666504,4194.102539,4224.358887,4216.666504,4215.256348,4215.128418,4226.153809,4228.846191,4196.666504,4201.666504,4089.743652,4165.512695,3559.000000,4.000000,86.000000,,,,0.000000,4.000000,4.000000,4.000000,4.000000,4.000000,4.000000,4.000000,4.000000,4.000000,4.000000,4.000000,4.000000,4.000000,4.000000,100.000000,,,,,,,,,,,,,,,,
1644853615.114330,169.000000,0.000000,4208.205078,4225.641113,4207.307617,4198.333496,4224.230957,4218.205078,4217.692383,4217.563965,4227.563965,4221.794922,4208.461426,4202.307617,4092.564209,4170.128418,3484.000000,4.000000,86.000000,,,,0.000000,4.000000,4.000000,4.000000,4.000000,4.000000,4.000000,4.000000,4.000000,4.000000,4.000000,4.000000,4.000000,4.000000,4.000000,100.000000,,,,,,,,,,,,,,,,
1644853615.118270,170.000000,0.000000,4208.205078,4222.436035,4207.307617,4207.563965,4221.538574,4219.230957,4218.333496,4217.948730,4225.897461,4219.230957,4218.589844,4202.948730,4094.230713,4174.358887,3528.000000,4.000000,86.000000,,,,0.000000,4.000000,4.000000,4.000000,4.000000,4.000000,4.000000,4.000000,4.000000,4.000000,4.000000,4.000000,4.000000,4.000000,4.000000,100.000000,,,,,,,,,,,,,,,,
1644853615.122210,171.000000,0.000000,4207.051270,4212.563965,4207.563965,4219.102539,4218.974121,4219.358887,4218.461426,4217.179688,4221.922852,4221.410156,4221.794922,4202.948730,4096.538574,4176.025879,3107.000000,4.000000,86.000000,,,,0.000000,4.000000,4.000000,4.000000,4.000000,4.000000,4.000000,4.000000,4.000000,4.000000,4.000000,4.000000,4.000000,4.000000,4.000000,100.000000,,,,,,,,,,,,,,,,
1644853615.126150,172.000000,0.000000,4208.717773,4202.563965,4208.717773,4226.410156,4220.256348,4219.358887,4218.717773,4217.563965,4218.077148,4224.230957,4219.487305,4203.461426,4098.333496,4173.717773,3559.000000,4.000000,86.000000,,,,0.000000,4.000000,4.000000,4.000000,4.000000,4.000000,4.000000,4.000000,4.000000,4.000000,4.000000,4.000000,4.000000,4.000000,4.000000,100.000000,,,,,,,,,,,,,,,,
1644853615.130190,173.000000,0.000000,4212.179688,4198.205078,4209.871582,4224.487305,4225.897461,4219.615234,4218.077148,4219.871582,4217.436035,4223.846191,4216.282227,4204.487305,4095.384521,4168.077148,3484.000000,4.000000,86.000000,,,,0.000000,4.000000,4.000000,4.000000,4.000000,4.000000,4.000000,4.000000,4.000000,4.000000,4.000000,4.000000,4.000000,4.000000,4.000000,100.000000,,,,,,,,,,,,,,,,
1644853615.134131,174.000000,0.000000,4212.948730,4200.000000,4209.615234,4215.000000,4231.153809,4219.487305,4216.410156,4222.692383,4221.153809,4219.871582,4214.743652,4204.487305,4084.615479,4162.563965,3528.000000,4.000000,86.000000,,,,0.000000,4.000000,4.000000,4.000000,4.000000,4.000000,4.000000,4.000000,4.000000,4.000000,4.000000,4.000000,4.000000,4.000000,4.000000,100.000000,,,,,,,,,,,,,,,,
1644853615.138071,175.000000,0.000000,4208.333496,4203.333496,4207.563965,4204.871582,4230.384766,4218.461426,4215.128418,4224.230957,4226.538574,4216.025879,4213.974121,4202.436035,4067.692383,4161.153809,3107.000000,4.000000,86.000000,,,,0.000000,4.000000,4.000000,4.000000,4.000000,4.000000,4.000000,4.000000,4.000000,4.000000,4.000000,4.000000,4.000000,4.000000,4.000000,100.000000,,,,,,,,,,,,,,,,
1644853615.142011,176.000000,0.000000,4200.897461,4203.461426,4204.871582,4201.282227,4222.307617,4216.922852,4216.025879,4223.846191,4229.743652,4216.538574,4212.051270,4199.102539,4052.820557,4166.025879,3559.000000,4.000000,86.000000,,,,0.000000,4.000000,4.000000,4.000000,4.000000,4.000000,4.000000,4.000000,4.000000,4.000000,4.000000,4.000000,4.000000,4.000000,4.000000,100.000000,,,,,,,,,,,,,,,,
1644853615.145951,177.000000,0.000000,4196.282227,4200.128418,4203.589844,4205.641113,4212.692383,4216.538574,4218.461426,4222.436035,4228.717773,4222.051270,4208.077148,4197.179688,4048.205078,4175.641113,3484.000000,4.000000,86.000000,,,,0.000000,4.000000,4.000000,4.000000,4.000000,4.000000,4.000000,4.000000,4.000000,4.000000,4.000000,4.000000,4.000000,4.000000,4.000000,100.000000,,,,,,,,,,,,,,,,
1644853615.149891,178.000000,0.000000,4198.205078,4197.307617,4203.974121,4213.589844,4208.846191,4218.717773,4220.641113,4221.666504,4224.871582,4228.717773,4203.589844,4199.102539,4057.179443,4186.025879,3528.000000,4.000000,86.000000,,,,0.000000,4.000000,4.000000,4.000000,4.000000,4.000000,4.000000,4.000000,4.000000,4.000000,4.000000,4.000000,4.000000,4.000000,4.000000,100.000000,,,,,,,,,,,,,,,,
1644853615.153831,179.000000,0.000000,4204.743652,4199.358887,4206.025879,4218.846191,4214.230957,4223.333496,4221.794922,4222.307617,4220.897461,4232.051270,4200.769043,4204.615234,4074.871826,4193.461426,3107.000000,4.000000,86.000000,,,,0.000000,4.000000,4.000000,4.000000,4.000000,4.000000,4.000000,4.000000,4.000000,4.000000,4.000000,4.000000,4.000000,4.000000,4.000000,100.000000,,,,,,,,,,,,,,,,
1644853615.157771,180.000000,0.000000,4210.641113,4206.410156,4208.846191,4218.333496,4225.128418,4228.717773,4222.692383,4224.358887,4219.615234,4230.128418,4200.641113,4210.256348,4091.794922,4195.897461,3559.000000,4.000000,86.000000,,,,0.000000,4.000000,4.000000,4.000000,4.000000,4.000000,4.000000,4.000000,4.000000,4.000000,4.000000,4.000000,4.000000,4.000000,4.000000,100.000000,,,,,,,,,,,,,,,,
1644853615.161711,181.000000,0.000000,4211.025879,4213.846191,4211.538574,4212.563965,4233.717773,4232.051270,4223.846191,4227.051270,4221.666504,4226.282227,4202.948730,4211.922852,4099.743652,4192.436035,3484.000000,4.000000,86.000000,,,,0.000000,4.000000,4.000000,4.000000,4.000000,4.000000,4.000000,4.000000,4.000000,4.000000,4.000000,4.000000,4.000000,4.000000,4.000000,100.000000,,,,,,,,,,,,,,,,
1644853615.165651,182.000000,0.000000,4205.641113,4215.769043,4212.820313,4204.743652,4233.974121,4232.051270,4224.358887,4228.974121,4225.769043,4224.871582,4206.922852,4208.461426,4096.666504,4184.230957,3528.000000,4.000000,86.000000,,,,0.000000,4.000000,4.000000,4.000000,4.000000,4.000000,4.000000,4.000000,4.000000,4.000000,4.000000,4.000000,4.000000,4.000000,4.000000,100.000000,,,,,,,,,,,,,,,,
1644853615.169591,183.000000,0.000000,4198.077148,4210.769043,4212.051270,4198.589844,4226.282227,4229.871582,4222.436035,4229.230957,4230.128418,4227.051270,4212.436035,4202.692383,4086.923096,4173.461426,3107.000000,4.000000,86.000000,,,,0.000000,4.000000,4.000000,4.000000,4.000000,4.000000,4.000000,4.000000,4.000000,4.000000,4.000000,4.000000,4.000000,4.000000,4.000000,100.000000,,,,,,,,,,,,,,,,
1644853615.173532,184.000000,0.000000,4192.820313,4202.436035,4210.000000,4195.769043,4216.538574,4227.948730,4219.102539,4227.692383,4233.077148,4230.384766,4219.102539,4199.743652,4077.435791,4164.102539,3559.000000,4.000000,86.000000,,,,0.000000,4.000000,4.000000,4.000000,4.000000,4.000000,4.000000,4.000000,4.000000,4.000000,4.000000,4.000000,4.000000,4.000000,4.000000,100.000000,,,,,,,,,,,,,,,,
1644853615.177472,185.000000,0.000000,4192.436035,4197.051270,4208.589844,4196.538574,4212.436035,4228.461426,4217.563965,4226.282227,4233.974121,4231.153809,4224.358887,4203.205078,4072.564209,4160.641113,3484.000000,4.000000,86.000000,,,,0.000000,4.000000,4.000000,4.000000,4.000000,4.000000,4.000000,4.000000,4.000000,4.000000,4.000000,4.000000,4.000000,4.000000,4.000000,100.000000,,,,,,,,,,,,,,,,
1644853615.181412,186.000000,0.000000,4196.538574,4197.820313,4209.743652,4200.769043,4216.794922,4230.641113,4220.256348,4225.897461,4233.333496,4228.461426,4224.487305,4211.282227,4072.179443,4166.410156,3528.000000,4.000000,86.000000,,,,0.000000,4.000000,4.000000,4.000000,4.000000,4.000000,4.000000,4.000000,4.000000,4.000000,4.000000,4.000000,4.000000,4.000000,4.000000,100.000000,,,,,,,,,,,,,,,,
1644853615.185352,187.000000,0.000000,4202.948730,4203.333496,4212.948730,4208.846191,4226.410156,4232.179688,4225.384766,4226.282227,4231.666504,4225.384766,4217.948730,4218.846191,4073.589844,4180.384766,3107.000000,4.000000,86.000000,,,,0.000000,4.000000,4.000000,4.000000,4.000000,4.000000,4.000000,4.000000,4.000000,4.000000,4.000000,4.000000,4.000000,4.000000,4.000000,100.000000,,,,,,,,,,,,,,,,
1644853615.189292,188.000000,0.000000,4209.615234,4208.717773,4216.153809,4219.743652,4234.230957,4230.641113,4227.820313,4225.641113,4229.615234,4226.025879,4207.436035,4220.769043,4073.846191,4195.769043,3559.000000,4.000000,86.000000,,,,0.000000,4.000000,4.000000,4.000000,4.000000,4.000000,4.000000,4.000000,4.000000,4.000000,4.000000,4.000000,4.000000,4.000000,4.000000,100.000000,,,,,,,,,,,,,,,,
1644853615.193232,189.000000,0.000000,4215.769043,4210.641113,4216.666504,4229.358887,4234.358887,4226.153809,4224.358887,4222.820313,4227.307617,4230.641113,4199.102539,4216.794922,4072.435791,4203.205078,3484.000000,4.000000,86.000000,,,,0.000000,4.000000,4.000000,4.000000,4.000000,4.000000,4.000000,4.000000,4.000000,4.000000,4.000000,4.000000,4.000000,4.000000,4.000000,100.000000,,,,,,,,,,,,,,,,
1644853615.197072,190.000000,0.000000,4221.153809,4209.615234,4214.358887,4231.922852,4226.153809,4221.153809,4217.179688,4219.102539,4224.615234,4235.384766,4197.820313,4209.871582,4070.512939,4197.820313,3528.000000,4.000000,86.000000,,,,0.000000,4.000000,4.000000,4.000000,4.000000,4.000000,4.000000,4.000000,4.000000,4.000000,4.000000,4.000000,4.000000,4.000000,4.000000,100.000000,,,,,,,,,,,,,,,,
1644853615.201012,191.000000,0.000000,4224.743652,4208.333496,4210.897461,4224.230957,4214.615234,4218.461426,4211.666504,4216.153809,4222.051270,4235.769043,4203.205078,4203.589844,4069.743652,4182.948730,3107.000000,4.000000,86.000000,,,,0.000000,4.000000,4.000000,4.000000,4.000000,4.000000,4.000000,4.000000,4.000000,4.000000,4.000000,4.000000,4.000000,4.000000,4.000000,100.000000,,,,,,,,,,,,,,,,
1644853615.204953,192.000000,0.000000,4224.358887,4209.230957,4208.589844,4210.000000,4206.153809,4219.615234,4211.153809,4214.615234,4220.641113,4231.025879,4209.743652,4200.000000,4071.281982,4168.589844,3559.000000,4.000000,86.000000,,,,0.000000,4.000000,4.000000,4.000000,4.000000,4.000000,4.000000,4.000000,4.000000,4.000000,4.000000,4.000000,4.000000,4.000000,4.000000,100.000000,,,,,,,,,,,,,,,,
1644853615.208893,193.000000,0.000000,4219.102539,4212.051270,4207.948730,4198.205078,4205.769043,4223.589844,4213.974121,4213.846191,4221.282227,4225.128418,4211.410156,4199.230957,4074.487061,4163.461426,3484.000000,4.000000,86.000000,,,,0.000000,4.000000,4.000000,4.000000,4.000000,4.000000,4.000000,4.000000,4.000000,4.000000,4.000000,4.000000,4.000000,4.000000,4.000000,100.000000,,,,,,,,,,,,,,,,
1644853615.212833,194.000000,0.000000,4211.666504,4215.128418,4208.205078,4196.666504,4213.589844,4227.820313,4216.538574,4213.461426,4223.461426,4222.692383,4207.307617,4200.769043,4077.820557,4169.615234,3528.000000,4.000000,86.000000,,,,0.000000,4.000000,4.000000,4.000000,4.000000,4.000000,4.000000,4.000000,4.000000,4.000000,4.000000,4.000000,4.000000,4.000000,4.000000,100.000000,,,,,,,,,,,,,,,,
1644853615.216773,195.000000,0.000000,4206.153809,4217.051270,4208.461426,4206.153809,4225.256348,4230.384766,4217.051270,4213.974121,4226.153809,4225.512695,4201.410156,4203.717773,4079.230713,4181.410156,3107.000000,4.000000,86.000000,,,,0.000000,4.000000,4.000000,4.000000,4.000000,4.000000,4.000000,4.000000,4.000000,4.000000,4.000000,4.000000,4.000000,4.000000,4.000000,100.000000,,,,,,,,,,,,,,,,
1644853615.220713,196.000000,0.000000,4205.384766,4217.820313,4208.974121,4220.000000,4234.358887,4230.641113,4216.410156,4216.025879,4227.820313,4231.666504,4198.846191,4206.410156,4077.435791,4191.282227,3559.000000,4.000000,86.000000,,,,0.000000,4.000000,4.000000,4.000000,4.000000,4.000000,4.000000,4.000000,4.000000,4.000000,4.000000,4.000000,4.000000,4.000000,4.000000,100.000000,,,,,,,,,,,,,,,,
1644853615.224653,197.000000,0.000000,4208.717773,4218.974121,4210.000000,4229.871582,4236.282227,4229.358887,4216.153809,4218.333496,4227.948730,4237.563965,4202.051270,4207.948730,4073.333252,4195.128418,3484.000000,4.000000,86.000000,,,,0.000000,4.000000,4.000000,4.000000,4.000000,4.000000,4.000000,4.000000,4.000000,4.000000,4.000000,4.000000,4.000000,4.000000,4.000000,100.000000,,,,,,,,,,,,,,,,
1644853615.228593,198.000000,0.000000,4213.589844,4220.769043,4211.025879,4231.025879,4231.282227,4228.077148,4216.025879,4219.102539,4226.410156,4239.871582,4209.487305,4207.948730,4069.358887,4193.077148,3528.000000,4.000000,86.000000,,,,0.000000,4.000000,4.000000,4.000000,4.000000,4.000000,4.000000,4.000000,4.000000,4.000000,4.000000,4.000000,4.000000,4.000000,4.000000,100.000000,,,,,,,,,,,,,,,,
1644853615.232533,199.000000,0.000000,4218.461426,4222.051270,4211.410156,4224.615234,4223.846191,4227.948730,4215.128418,4217.436035,4223.717773,4237.563965,4217.179688,4207.051270,4067.564209,4188.333496,3107.000000,4.000000,86.000000,,,,0.000000,4.000000,4.000000,4.000000,4.000000,4.000000,4.000000,4.000000,4.000000,4.000000,4.000000,4.000000,4.000000,4.000000,4.000000,100.000000,,,,,,,,,,,,,,,,
1644853615.236473,200.000000,0.000000,4221.794922,4220.897461,4210.641113,4215.897461,4219.358887,4228.846191,4213.974121,4215.000000,4221.282227,4231.922852,4220.769043,4205.256348,4067.307617,4184.102539,3559.000000,4.000000,86.000000,,,,0.000000,4.000000,4.000000,4.000000,4.000000,4.000000,4.000000,4.000000,4.000000,4.000000,4.000000,4.000000,4.000000,4.000000,4.000000,100.000000,,,,,,,,,,,,,,,,
1644853615.240413,201.000000,0.000000,4221.794922,4216.922852,4208.717773,4209.743652,4220.512695,4229.743652,4214.102539,4214.743652,4219.871582,4225.769043,4218.205078,4202.436035,4066.153809,4181.922852,3484.000000,4.000000,86.000000,,,,0.000000,4.000000,4.000000,4.000000,4.000000,4.000000,4.000000,4.000000,4.000000,4.000000,4.000000,4.000000,4.000000,4.000000,4.000000,100.000000,,,,,,,,,,,,,,,,
1644853615.244354,202.000000,0.000000,4217.692383,4212.436035,4206.794922,4208.205078,4225.256348,4229.358887,4215.641113,4217.692383,4220.641113,4222.307617,4211.153809,4199.487305,4063.333252,4181.153809,3528.000000,4.000000,86.000000,,,,0.000000,4.000000,4.000000,4.000000,4.000000,4.000000,4.000000,4.000000,4.000000,4.000000,4.000000,4.000000,4.000000,4.000000,4.000000,100.000000,,,,,,,,,,,,,,,,
1644853615.248294,203.000000,0.000000,4211.282227,4210.641113,4206.153809,4210.384766,4229.230957,4227.179688,4216.922852,4222.436035,4224.615234,4224.230957,4204.487305,4199.358887,4061.410156,4180.384766,3107.000000,4.000000,86.000000,,,,0.000000,4.000000,4.000000,4.000000,4.000000,4.000000,4.000000,4.000000,4.000000,4.000000,4.000000,4.000000,4.000000,4.000000,4.000000,100.000000,,,,,,,,,,,,,,,,
1644853615.252234,204.000000,0.000000,4206.922852,4212.563965,4207.436035,4213.461426,4228.461426,4223.974121,4216.538574,4226.666504,4231.025879,4231.282227,4201.410156,4203.333496,4064.230713,4178.974121,3559.000000,4.000000,86.000000,,,,0.000000,4.000000,4.000000,4.000000,4.000000,4.000000,4.000000,4.000000,4.000000,4.000000,4.000000,4.000000,4.000000,4.000000,4.000000,100.000000,,,,,,,,,,,,,,,,
1644853615.256174,205.000000,0.000000,4206.666504,4215.256348,4209.743652,4214.487305,4222.692383,4220.641113,4215.256348,4228.717773,4237.436035,4239.487305,4202.051270,4209.871582,4071.538574,4177.563965,3484.000000,4.000000,86.000000,,,,0.000000,4.000000,4.000000,4.000000,4.000000,4.000000,4.000000,4.000000,4.000000,4.000000,4.000000,4.000000,4.000000,4.000000,4.000000,100.000000,,,,,,,,,,,,,,,,
1644853615.260114,206.000000,0.000000,4209.358887,4214.743652,4211.410156,4212.563965,4214.230957,4218.077148,4215.256348,4228.589844,4240.000000,4243.077148,4203.717773,4214.487305,4079.102539,4177.563965,3528.000000,4.000000,86.000000,,,,0.000000,4.000000,4.000000,4.000000,4.000000,4.000000,4.000000,4.000000,4.000000,4.000000,4.000000,4.000000,4.000000,4.000000,4.000000,100.000000,,,,,,,,,,,,,,,,
1644853615.264054,207.000000,0.000000,4212.563965,4210.769043,4211.153809,4209.358887,4207.820313,4216.666504,4217.179688,4227.179688,4237.692383,4239.358887,4204.615234,4213.846191,4082.179443,4179.102539,3107.000000,4.000000,86.000000,,,,0.000000,4.000000,4.000000,4.000000,4.000000,4.000000,4.000000,4.000000,4.000000,4.000000,4.000000,4.000000,4.000000,4.000000,4.000000,100.000000,,,,,,,,,,,,,,,,
1644853615.267994,208.000000,0.000000,4215.641113,4207.307617,4209.615234,4208.589844,4207.563965,4216.538574,4219.358887,4226.153809,4233.333496,4232.179688,4205.512695,4209.230957,4080.384521,4181.410156,3559.000000,4.000000,86.000000,,,,0.000000,4.000000,4.000000,4.000000,4.000000,4.000000,4.000000,4.000000,4.000000,4.000000,4.000000,4.000000,4.000000,4.000000,4.000000,100.000000,,,,,,,,,,,,,,,,
1644853615.271834,209.000000,0.000000,4219.871582,4209.230957,4209.358887,4212.436035,4214.615234,4217.948730,4220.128418,4226.922852,4232.051270,4229.102539,4208.717773,4205.000000,4078.846191,4185.512695,3484.000000,4.000000,86.000000,,,,0.000000,4.000000,4.000000,4.000000,4.000000,4.000000,4.000000,4.000000,4.000000,4.000000,4.000000,4.000000,4.000000,4.000000,4.000000,100.000000,,,,,,,,,,,,,,,,
1644853615.275775,210.000000,0.000000,4225.769043,4217.436035,4212.563965,4220.256348,4225.384766,4220.384766,4220.256348,4229.743652,4235.512695,4234.743652,4215.641113,4205.256348,4083.589844,4192.948730,3528.000000,4.000000,86.000000,,,,0.000000,4.000000,4.000000,4.000000,4.000000,4.000000,4.000000,4.000000,4.000000,4.000000,4.000000,4.000000,4.000000,4.000000,4.000000,100.000000,,,,,,,,,,,,,,,,
1644853615.279715,211.000000,0.000000,4231.922852,4228.077148,4218.717773,4228.077148,4233.717773,4221.922852,4221.410156,4233.461426,4240.769043,4245.641113,4224.230957,4210.128418,4095.000000,4202.436035,3107.000000,4.000000,86.000000,,,,0.000000,4.000000,4.000000,4.000000,4.000000,4.000000,4.000000,4.000000,4.000000,4.000000,4.000000,4.000000,4.000000,4.000000,4.000000,100.000000,,,,,,,,,,,,,,,,
1644853615.283655,212.000000,0.000000,4236.282227,4234.871582,4224.358887,4231.025879,4234.615234,4221.538574,4224.102539,4236.153809,4242.692383,4253.333496,4230.512695,4216.410156,4106.666504,4208.846191,3559.000000,4.000000,86.000000,,,,0.000000,4.000000,4.000000,4.000000,4.000000,4.000000,4.000000,4.000000,4.000000,4.000000,4.000000,4.000000,4.000000,4.000000,4.000000,100.000000,,,,,,,,,,,,,,,,
1644853615.287595,213.000000,0.000000,4237.563965,4234.358887,4225.384766,4227.307617,4228.205078,4219.358887,4225.256348,4235.769043,4238.717773,4250.769043,4230.897461,4220.769043,4110.384766,4208.205078,3484.000000,4.000000,86.000000,,,,0.000000,4.000000,4.000000,4.000000,4.000000,4.000000,4.000000,4.000000,4.000000,4.000000,4.000000,4.000000,4.000000,4.000000,4.000000,100.000000,,,,,,,,,,,,,,,,
1644853615.291635,214.000000,0.000000,4235.512695,4228.077148,4221.282227,4219.102539,4219.743652,4217.436035,4222.948730,4232.307617,4230.641113,4238.846191,4226.025879,4221.538574,4103.717773,4201.410156,3528.000000,4.000000,86.000000,,,,0.000000,4.000000,4.000000,4.000000,4.000000,4.000000,4.000000,4.000000,4.000000,4.000000,4.000000,4.000000,4.000000,4.000000,4.000000,100.000000,,,,,,,,,,,,,,,,
1644853615.295575,215.000000,0.000000,4229.743652,4220.384766,4216.025879,4212.051270,4215.512695,4217.948730,4218.846191,4227.692383,4223.717773,4225.128418,4219.487305,4219.358887,4090.897461,4194.230957,3107.000000,4.000000,86.000000,,,,0.000000,4.000000,4.000000,4.000000,4.000000,4.000000,4.000000,4.000000,4.000000,4.000000,4.000000,4.000000,4.000000,4.000000,4.000000,100.000000,,,,,,,,,,,,,,,,
1644853615.299515,216.000000,0.000000,4220.000000,4214.615234,4214.358887,4211.666504,4218.205078,4221.153809,4217.051270,4224.358887,4221.794922,4217.948730,4215.000000,4216.666504,4078.846191,4191.410156,3559.000000,4.000000,86.000000,,,,0.000000,4.000000,4.000000,4.000000,4.000000,4.000000,4.000000,4.000000,4.000000,4.000000,4.000000,4.000000,4.000000,4.000000,4.000000,100.000000,,,,,,,,,,,,,,,,
1644853615.303455,217.000000,0.000000,4208.333496,4210.512695,4217.051270,4217.692383,4225.128418,4225.384766,4219.615234,4223.461426,4225.000000,4220.000000,4214.102539,4214.743652,4072.051270,4192.563965,3484.000000,4.000000,86.000000,,,,0.000000,4.000000,4.000000,4.000000,4.000000,4.000000,4.000000,4.000000,4.000000,4.000000,4.000000,4.000000,4.000000,4.000000,4.000000,100.000000,,,,,,,,,,,,,,,,
1644853615.307395,218.000000,0.000000,4199.358887,4205.897461,4220.769043,4224.358887,4229.743652,4227.692383,4223.717773,4224.102539,4229.743652,4226.538574,4215.256348,4212.820313,4070.512939,4193.205078,3528.000000,4.000000,86.000000,,,,0.000000,4.000000,4.000000,4.000000,4.000000,4.000000,4.000000,4.000000,4.000000,4.000000,4.000000,4.000000,4.000000,4.000000,4.000000,100.000000,,,,,,,,,,,,,,,,
1644853615.311335,219.000000,0.000000,4196.922852,4199.743652,4220.897461,4223.974121,4227.051270,4226.410156,4225.000000,4224.230957,4231.153809,4230.512695,4215.256348,4209.487305,4071.538574,4189.871582,3107.000000,4.000000,86.000000,,,,0.000000,4.000000,4.000000,4.000000,4.000000,4.000000,4.000000,4.000000,4.000000,4.000000,4.000000,4.000000,4.000000,4.000000,4.000000,100.000000,,,,,,,,,,,,,,,,
1644853615.315275,220.000000,0.000000,4201.666504,4194.102539,4216.538574,4213.974121,4216.922852,4222.179688,4221.922852,4222.563965,4227.692383,4228.077148,4211.794922,4203.974121,4071.666748,4183.974121,3559.000000,4.000000,86.000000,,,,0.000000,4.000000,4.000000,4.000000,4.000000,4.000000,4.000000,4.000000,4.000000,4.000000,4.000000,4.000000,4.000000,4.000000,4.000000,100.000000,,,,,,,,,,,,,,,,
1644853615.319216,221.000000,0.000000,4210.256348,4192.179688,4210.769043,4199.102539,4204.358887,4217.563965,4217.563965,4219.871582,4221.538574,4220.641113,4204.743652,4198.333496,4069.487061,4179.743652,3484.000000,4.000000,86.000000,,,,0.000000,4.000000,4.000000,4.000000,4.000000,4.000000,4.000000,4.000000,4.000000,4.000000,4.000000,4.000000,4.000000,4.000000,4.000000,100.000000,,,,,,,,,,,,,,,,
1644853615.323156,222.000000,0.000000,4217.948730,4195.256348,4208.077148,4189.102539,4196.666504,4215.512695,4216.153809,4217.692383,4217.692383,4213.846191,4197.820313,4195.384766,4066.153809,4180.769043,3528.000000,4.000000,86.000000,,,,0.000000,4.000000,4.000000,4.000000,4.000000,4.000000,4.000000,4.000000,4.000000,4.000000,4.000000,4.000000,4.000000,4.000000,4.000000,100.000000,,,,,,,,,,,,,,,,
1644853615.327096,223.000000,0.000000,4221.794922,4201.410156,4210.128418,4191.025879,4198.717773,4217.563965,4218.461426,4217.307617,4219.487305,4212.692383,4196.282227,4196.922852,4064.487061,4186.666504,3107.000000,4.000000,86.000000,,,,0.000000,4.000000,4.000000,4.000000,4.000000,4.000000,4.000000,4.000000,4.000000,4.000000,4.000000,4.000000,4.000000,4.000000,4.000000,100.000000,,,,,,,,,,,,,,,,
1644853615.331036,224.000000,0.000000,4221.282227,4206.538574,4214.358887,4203.461426,4209.230957,4222.436035,4221.538574,4218.717773,4226.153809,4218.846191,4202.051270,4201.282227,4066.025635,4194.358887,3559.000000,4.000000,86.000000,,,,0.000000,4.000000,4.000000,4.000000,4.000000,4.000000,4.000000,4.000000,4.000000,4.000000,4.000000,4.000000,4.000000,4.000000,4.000000,100.000000,,,,,,,,,,,,,,,,
1644853615.334976,225.000000,0.000000,4218.205078,4207.563965,4216.538574,4218.077148,4222.051270,4226.922852,4222.820313,4220.641113,4233.205078,4228.974121,4211.794922,4204.102539,4069.743652,4198.974121,3484.000000,4.000000,86.000000,,,,0.000000,4.000000,4.000000,4.000000,4.000000,4.000000,4.000000,4.000000,4.000000,4.000000,4.000000,4.000000,4.000000,4.000000,4.000000,100.000000,,,,,,,,,,,,,,,,
1644853615.339016,226.000000,0.000000,4214.743652,4204.615234,4214.102539,4225.641113,4230.128418,4228.846191,4222.307617,4221.794922,4236.410156,4237.051270,4218.205078,4202.307617,4072.692383,4197.692383,3528.000000,4.000000,86.000000,,,,0.000000,4.000000,4.000000,4.000000,4.000000,4.000000,4.000000,4.000000,4.000000,4.000000,4.000000,4.000000,4.000000,4.000000,4.000000,100.000000,,,,,,,,,,,,,,,,
1644853615.342956,227.000000,0.000000,4211.922852,4200.512695,4208.589844,4222.436035,4230.512695,4227.820313,4221.538574,4221.282227,4234.102539,4238.717773,4216.153809,4196.794922,4072.692383,4191.666504,3107.000000,4.000000,86.000000,,,,0.000000,4.000000,4.000000,4.000000,4.000000,4.000000,4.000000,4.000000,4.000000,4.000000,4.000000,4.000000,4.000000,4.000000,4.000000,100.000000,,,,,,,,,,,,,,,,
1644853615.346896,228.000000,0.000000,4209.615234,4198.333496,4203.589844,4212.051270,4226.538574,4226.282227,4221.282227,4219.615234,4229.102539,4233.717773,4207.051270,4190.897461,4070.384521,4185.641113,3559.000000,4.000000,86.000000,,,,0.000000,4.000000,4.000000,4.000000,4.000000,4.000000,4.000000,4.000000,4.000000,4.000000,4.000000,4.000000,4.000000,4.000000,4.000000,100.000000,,,,,,,,,,,,,,,,
1644853615.350836,229.000000,0.000000,4207.051270,4200.128418,4202.820313,4202.051270,4224.487305,4226.538574,4220.897461,4217.563965,4225.512695,4226.538574,4198.333496,4188.846191,4068.974365,4184.230957,3484.000000,4.000000,86.000000,,,,0.000000,4.000000,4.000000,4.000000,4.000000,4.000000,4.000000,4.000000,4.000000,4.000000,4.000000,4.000000,4.000000,4.000000,4.000000,100.000000,,,,,,,,,,,,,,,,
1644853615.354776,230.000000,0.000000,4204.487305,4205.128418,4206.282227,4198.717773,4227.820313,4228.974121,4220.256348,4216.025879,4225.897461,4222.436035,4197.307617,4191.922852,4070.897461,4189.102539,3528.000000,4.000000,86.000000,,,,0.000000,4.000000,4.000000,4.000000,4.000000,4.000000,4.000000,4.000000,4.000000,4.000000,4.000000,4.000000,4.000000,4.000000,4.000000,100.000000,,,,,,,,,,,,,,,,
1644853615.358717,231.000000,0.000000,4202.948730,4211.153809,4211.153809,4203.717773,4234.487305,4231.922852,4220.256348,4216.153809,4229.743652,4222.820313,4205.128418,4197.436035,4076.410156,4196.794922,3107.000000,4.000000,86.000000,,,,0.000000,4.000000,4.000000,4.000000,4.000000,4.000000,4.000000,4.000000,4.000000,4.000000,4.000000,4.000000,4.000000,4.000000,4.000000,100.000000,,,,,,,,,,,,,,,,
1644853615.362657,232.000000,0.000000,4203.589844,4215.000000,4213.974121,4212.820313,4238.717773,4233.589844,4221.666504,4218.461426,4234.230957,4224.743652,4215.512695,4200.897461,4082.179443,4201.666504,3559.000000,4.000000,86.000000,,,,0.000000,4.000000,4.000000,4.000000,4.000000,4.000000,4.000000,4.000000,4.000000,4.000000,4.000000,4.000000,4.000000,4.000000,4.000000,100.000000,,,,,,,,,,,,,,,,
1644853615.366597,233.000000,0.000000,4206.153809,4215.128418,4212.948730,4219.615234,4236.922852,4233.974121,4223.461426,4222.051270,4237.051270,4225.128418,4219.487305,4200.256348,4084.871826,4199.743652,3484.000000,4.000000,86.000000,,,,0.000000,4.000000,4.000000,4.000000,4.000000,4.000000,4.000000,4.000000,4.000000,4.000000,4.000000,4.000000,4.000000,4.000000,4.000000,100.000000,,,,,,,,,,,,,,,,
1644853615.370537,234.000000,0.000000,4209.230957,4212.179688,4209.615234,4220.512695,4229.743652,4234.102539,4223.846191,4225.256348,4237.436035,4223.589844,4213.846191,4197.436035,4082.435791,4191.922852,3528.000000,4.000000,86.000000,,,,0.000000,4.000000,4.000000,4.000000,4.000000,4.000000,4.000000,4.000000,4.000000,4.000000,4.000000,4.000000,4.000000,4.000000,4.000000,100.000000,,,,,,,,,,,,,,,,
1644853615.374477,235.000000,0.000000,4211.794922,4208.205078,4207.436035,4216.282227,4222.051270,4234.871582,4222.692383,4226.666504,4236.666504,4223.077148,4203.717773,4196.922852,4076.410156,4183.717773,3107.000000,4.000000,86.000000,,,,0.000000,4.000000,4.000000,4.000000,4.000000,4.000000,4.000000,4.000000,4.000000,4.000000,4.000000,4.000000,4.000000,4.000000,4.000000,100.000000,,,,,,,,,,,,,,,,
1644853615.378417,236.000000,0.000000,4214.615234,4205.897461,4208.846191,4210.384766,4218.717773,4236.410156,4221.922852,4226.410156,4235.769043,4226.282227,4199.487305,4201.282227,4071.153809,4182.051270,3559.000000,4.000000,86.000000,,,,0.000000,4.000000,4.000000,4.000000,4.000000,4.000000,4.000000,4.000000,4.000000,4.000000,4.000000,4.000000,4.000000,4.000000,4.000000,100.000000,,,,,,,,,,,,,,,,
1644853615.382357,237.000000,0.000000,4218.717773,4207.051270,4213.717773,4206.666504,4221.794922,4238.077148,4223.461426,4225.512695,4235.512695,4233.461426,4206.794922,4208.589844,4071.281982,4189.615234,3484.000000,4.000000,86.000000,,,,0.000000,4.000000,4.000000,4.000000,4.000000,4.000000,4.000000,4.000000,4.000000,4.000000,4.000000,4.000000,4.000000,4.000000,4.000000,100.000000,,,,,,,,,,,,,,,,
1644853615.386297,238.000000,0.000000,4224.358887,4211.410156,4219.230957,4206.922852,4229.487305,4239.102539,4226.153809,4224.871582,4235.897461,4241.410156,4222.179688,4214.102539,4078.333252,4201.922852,3528.000000,4.000000,86.000000,,,,0.000000,4.000000,4.000000,4.000000,4.000000,4.000000,4.000000,4.000000,4.000000,4.000000,4.000000,4.000000,4.000000,4.000000,4.000000,100.000000,,,,,,,,,,,,,,,,
1644853615.390237,239.000000,0.000000,4229.487305,4217.563965,4221.410156,4210.897461,4237.563965,4238.205078,4226.794922,4224.487305,4236.282227,4246.410156,4235.384766,4213.717773,4088.589844,4209.358887,3107.000000,4.000000,86.000000,,,,0.000000,4.000000,4.000000,4.000000,4.000000,4.000000,4.000000,4.000000,4.000000,4.000000,4.000000,4.000000,4.000000,4.000000,4.000000,100.000000,,,,,,,,,,,,,,,,
1644853615.394177,240.000000,0.000000,4231.025879,4222.692383,4218.717773,4216.922852,4241.666504,4235.256348,4224.230957,4223.589844,4236.153809,4246.153809,4237.436035,4207.820313,4096.025879,4205.000000,3559.000000,4.000000,86.000000,,,,0.000000,4.000000,4.000000,4.000000,4.000000,4.000000,4.000000,4.000000,4.000000,4.000000,4.000000,4.000000,4.000000,4.000000,4.000000,100.000000,,,,,,,,,,,,,,,,
1644853615.398118,241.000000,0.000000,4227.820313,4225.512695,4213.333496,4222.820313,4239.871582,4231.410156,4220.897461,4222.307617,4235.000000,4242.051270,4228.461426,4201.025879,4097.692383,4191.025879,3484.000000,4.000000,86.000000,,,,0.000000,4.000000,4.000000,4.000000,4.000000,4.000000,4.000000,4.000000,4.000000,4.000000,4.000000,4.000000,4.000000,4.000000,4.000000,100.000000,,,,,,,,,,,,,,,,
1644853615.402058,242.000000,0.000000,4222.051270,4227.307617,4209.743652,4227.051270,4235.000000,4229.102539,4220.384766,4221.538574,4233.461426,4238.205078,4217.051270,4198.974121,4096.410156,4178.205078,3528.000000,4.000000,86.000000,,,,0.000000,4.000000,4.000000,4.000000,4.000000,4.000000,4.000000,4.000000,4.000000,4.000000,4.000000,4.000000,4.000000,4.000000,4.000000,100.000000,,,,,,,,,,,,,,,,
1644853615.405998,243.000000,0.000000,4217.563965,4229.230957,4211.410156,4229.743652,4231.410156,4229.871582,4223.205078,4222.307617,4233.077148,4238.846191,4213.589844,4203.461426,4098.077148,4176.922852,3107.000000,4.000000,86.000000,,,,0.000000,4.000000,4.000000,4.000000,4.000000,4.000000,4.000000,4.000000,4.000000,4.000000,4.000000,4.000000,4.000000,4.000000,4.000000,100.000000,,,,,,,,,,,,,,,,
1644853615.410038,244.000000,0.000000,4216.282227,4231.025879,4217.692383,4231.410156,4231.666504,4232.820313,4226.025879,4224.743652,4234.615234,4245.256348,4221.666504,4212.179688,4104.871582,4188.333496,3559.000000,4.000000,86.000000,,,,0.000000,4.000000,4.000000,4.000000,4.000000,4.000000,4.000000,4.000000,4.000000,4.000000,4.000000,4.000000,4.000000,4.000000,4.000000,100.000000,,,,,,,,,,,,,,,,
1644853615.413978,245.000000,0.000000,4217.307617,4230.256348,4224.871582,4232.436035,4234.102539,4235.512695,4225.769043,4227.307617,4237.692383,4253.717773,4235.512695,4219.615234,4113.205078,4203.717773,3484.000000,4.000000,86.000000,,,,0.000000,4.000000,4.000000,4.000000,4.000000,4.000000,4.000000,4.000000,4.000000,4.000000,4.000000,4.000000,4.000000,4.000000,4.000000,100.000000,,,,,,,,,,,,,,,,
1644853615.417918,246.000000,0.000000,4218.333496,4225.641113,4229.230957,4232.436035,4235.000000,4236.025879,4222.820313,4229.358887,4240.769043,4258.589844,4245.384766,4223.205078,4116.922852,4212.307617,3528.000000,4.000000,86.000000,,,,0.000000,4.000000,4.000000,4.000000,4.000000,4.000000,4.000000,4.000000,4.000000,4.000000,4.000000,4.000000,4.000000,4.000000,4.000000,100.000000,,,,,,,,,,,,,,,,
1644853615.421858,247.000000,0.000000,4219.230957,4218.717773,4230.384766,4230.512695,4232.307617,4233.717773,4221.025879,4231.153809,4242.692383,4256.922852,4245.641113,4223.846191,4112.948730,4210.384766,3107.000000,4.000000,86.000000,,,,0.000000,4.000000,4.000000,4.000000,4.000000,4.000000,4.000000,4.000000,4.000000,4.000000,4.000000,4.000000,4.000000,4.000000,4.000000,100.000000,,,,,,,,,,,,,,,,
1644853615.425798,248.000000,0.000000,4222.307617,4213.717773,4229.871582,4226.794922,4227.948730,4230.769043,4222.179688,4233.461426,4243.589844,4251.666504,4238.589844,4224.615234,4104.615234,4202.436035,3559.000000,4.000000,86.000000,,,,0.000000,4.000000,4.000000,4.000000,4.000000,4.000000,4.000000,4.000000,4.000000,4.000000,4.000000,4.000000,4.000000,4.000000,4.000000,100.000000,,,,,,,,,,,,,,,,
1644853615.429738,249.000000,0.000000,4228.717773,4213.205078,4230.000000,4221.922852,4225.384766,4229.871582,4225.256348,4236.538574,4245.000000,4249.230957,4230.769043,4227.179688,4097.948730,4195.384766,3484.000000,4.000000,86.000000,,,,0.000000,4.000000,4.000000,4.000000,4.000000,4.000000,4.000000,4.000000,4.000000,4.000000,4.000000,4.000000,4.000000,4.000000,4.000000,100.000000,,,,,,,,,,,,,,,,
1644853615.433678,250.000000,0.000000,4236.410156,4216.666504,4231.538574,4217.179688,4226.410156,4231.922852,4227.948730,4239.743652,4248.205078,4252.820313,4228.717773,4230.641113,4096.410156,4192.436035,3528.000000,4.000000,86.000000,,,,0.000000,4.000000,4.000000,4.000000,4.000000,4.000000,4.000000,4.000000,4.000000,4.000000,4.000000,4.000000,4.000000,4.000000,4.000000,100.000000,,,,,,,,,,,,,,,,
1644853615.437619,251.000000,0.000000,4240.256348,4220.641113,4234.615234,4213.461426,4229.615234,4235.512695,4228.974121,4242.692383,4252.436035,4259.230957,4233.589844,4233.205078,4098.461426,4192.563965,3107.000000,4.000000,86.000000,,,,0.000000,4.000000,4.000000,4.000000,4.000000,4.000000,4.000000,4.000000,4.000000,4.000000,4.000000,4.000000,4.000000,4.000000,4.000000,100.000000,,,,,,,,,,,,,,,,
1644853615.441559,252.000000,0.000000,4236.922852,4222.179688,4238.205078,4211.538574,4232.051270,4238.333496,4229.487305,4244.487305,4255.256348,4262.563965,4242.179688,4233.461426,4100.000000,4192.307617,3559.000000,4.000000,86.000000,,,,0.000000,4.000000,4.000000,4.000000,4.000000,4.000000,4.000000,4.000000,4.000000,4.000000,4.000000,4.000000,4.000000,4.000000,4.000000,100.000000,,,,,,,,,,,,,,,,
1644853615.445499,253.000000,0.000000,4228.846191,4221.538574,4240.641113,4212.692383,4232.051270,4238.846191,4229.871582,4244.102539,4255.000000,4259.871582,4249.487305,4232.563965,4099.358887,4190.384766,3484.000000,4.000000,86.000000,,,,0.000000,4.000000,4.000000,4.000000,4.000000,4.000000,4.000000,4.000000,4.000000,4.000000,4.000000,4.000000,4.000000,4.000000,4.000000,100.000000,,,,,,,,,,,,,,,,
1644853615.449439,254.000000,0.000000,4222.820313,4221.922852,4241.282227,4217.563965,4230.769043,4237.179688,4229.871582,4240.897461,4251.794922,4253.461426,4252.307617,4231.538574,4098.846191,4189.743652,3528.000000,4.000000,86.000000,,,,0.000000,4.000000,4.000000,4.000000,4.000000,4.000000,4.000000,4.000000,4.000000,4.000000,4.000000,4.000000,4.000000,4.000000,4.000000,100.000000,,,,,,,,,,,,,,,,
1644853615.453379,255.000000,0.000000,4225.000000,4225.641113,4239.871582,4224.743652,4230.256348,4234.743652,4228.974121,4236.025879,4247.179688,4248.205078,4250.256348,4231.282227,4102.563965,4193.974121,113.000000,4.000000,86.000000,,,,0.000000,4.000000,4.000000,4.000000,4.000000,4.000000,4.000000,4.000000,4.000000,4.000000,4.000000,4.000000,4.000000,4.000000,4.000000,100.000000,,,,,,,,,,,,,,,,
1644853615.457319,0.000000,0.000000,4234.487305,4231.922852,4237.692383,4230.256348,4231.794922,4233.333496,4227.948730,4232.179688,4243.077148,4247.307617,4245.384766,4231.410156,4111.538574,4203.333496,3419.000000,4.000000,86.000000,,,,0.000000,4.000000,4.000000,4.000000,4.000000,4.000000,4.000000,4.000000,4.000000,4.000000,4.000000,4.000000,4.000000,4.000000,4.000000,100.000000,,,,,,,,,,,,,,,,
1644853615.461259,1.000000,0.000000,4243.974121,4236.666504,4235.897461,4230.769043,4233.974121,4233.333496,4228.333496,4231.282227,4240.384766,4250.000000,4240.000000,4231.153809,4121.794922,4213.077148,3342.000000,4.000000,86.000000,,,,0.000000,4.000000,4.000000,4.000000,4.000000,4.000000,4.000000,4.000000,4.000000,4.000000,4.000000,4.000000,4.000000,4.000000,4.000000,100.000000,,,,,,,,,,,,,,,,
1644853615.465199,2.000000,0.000000,4245.256348,4236.153809,4234.871582,4225.897461,4234.615234,4234.358887,4229.615234,4232.948730,4239.102539,4252.820313,4235.256348,4229.487305,4126.794922,4216.538574,3546.000000,4.000000,86.000000,,,,0.000000,4.000000,4.000000,4.000000,4.000000,4.000000,4.000000,4.000000,4.000000,4.000000,4.000000,4.000000,4.000000,4.000000,4.000000,100.000000,,,,,,,,,,,,,,,,
1644853615.469139,3.000000,0.000000,4235.897461,4230.128418,4233.717773,4218.846191,4232.820313,4234.743652,4229.615234,4234.615234,4238.974121,4252.563965,4231.153809,4226.153809,4123.077148,4210.641113,3557.000000,4.000000,86.000000,,,,0.000000,4.000000,4.000000,4.000000,4.000000,4.000000,4.000000,4.000000,4.000000,4.000000,4.000000,4.000000,4.000000,4.000000,4.000000,100.000000,,,,,,,,,,,,,,,,
1644853615.473079,4.000000,0.000000,4221.922852,4222.436035,4230.897461,4214.102539,4229.615234,4234.487305,4227.307617,4233.974121,4239.102539,4248.461426,4226.922852,4221.282227,4112.692383,4199.230957,3433.000000,4.000000,86.000000,,,,0.000000,4.000000,4.000000,4.000000,4.000000,4.000000,4.000000,4.000000,4.000000,4.000000,4.000000,4.000000,4.000000,4.000000,4.000000,100.000000,,,,,,,,,,,,,,,,
1644853615.477020,5.000000,0.000000,4213.461426,4217.948730,4226.538574,4215.128418,4227.307617,4233.717773,4224.358887,4230.897461,4238.461426,4241.922852,4222.051270,4215.641113,4101.922852,4190.641113,3350.000000,4.000000,86.000000,,,,0.000000,4.000000,4.000000,4.000000,4.000000,4.000000,4.000000,4.000000,4.000000,4.000000,4.000000,4.000000,4.000000,4.000000,4.000000,100.000000,,,,,,,,,,,,,,,,
1644853615.481060,6.000000,0.000000,4217.436035,4218.846191,4222.436035,4221.282227,4227.051270,4233.205078,4223.333496,4227.436035,4236.794922,4235.897461,4218.205078,4211.153809,4096.922852,4190.897461,2449.000000,4.000000,86.000000,,,,0.000000,4.000000,4.000000,4.000000,4.000000,4.000000,4.000000,4.000000,4.000000,4.000000,4.000000,4.000000,4.000000,4.000000,4.000000,100.000000,,,,,,,,,,,,,,,,
1644853615.485000,7.000000,0.000000,4231.794922,4224.230957,4220.769043,4229.102539,4228.717773,4232.948730,4224.743652,4225.256348,4234.487305,4232.948730,4217.692383,4209.615234,4099.871582,4199.487305,3052.000000,4.000000,86.000000,,,,0.000000,4.000000,4.000000,4.000000,4.000000,4.000000,4.000000,4.000000,4.000000,4.000000,4.000000,4.000000,4.000000,4.000000,4.000000,100.000000,,,,,,,,,,,,,,,,
1644853615.488940,8.000000,0.000000,4247.436035,4230.897461,4222.179688,4234.615234,4231.153809,4232.820313,4225.897461,4225.384766,4233.077148,4233.974121,4222.563965,4211.410156,4109.358887,4210.256348,3143.000000,4.000000,86.000000,,,,0.000000,4.000000,4.000000,4.000000,4.000000,4.000000,4.000000,4.000000,4.000000,4.000000,4.000000,4.000000,4.000000,4.000000,4.000000,100.000000,,,,,,,,,,,,,,,,
1644853615.492880,9.000000,0.000000,4254.871582,4236.025879,4225.128418,4236.025879,4233.717773,4233.205078,4225.256348,4227.436035,4233.717773,4237.948730,4230.897461,4215.000000,4120.897461,4216.153809,3539.000000,4.000000,86.000000,,,,0.000000,4.000000,4.000000,4.000000,4.000000,4.000000,4.000000,4.000000,4.000000,4.000000,4.000000,4.000000,4.000000,4.000000,4.000000,100.000000,,,,,,,,,,,,,,,,
1644853615.496820,10.000000,0.000000,4250.512695,4238.077148,4227.436035,4234.102539,4235.256348,4234.102539,4223.717773,4230.000000,4236.153809,4242.179688,4237.563965,4217.948730,4128.717773,4213.974121,3406.000000,4.000000,86.000000,,,,0.000000,4.000000,4.000000,4.000000,4.000000,4.000000,4.000000,4.000000,4.000000,4.000000,4.000000,4.000000,4.000000,4.000000,4.000000,100.000000,,,,,,,,,,,,,,,,
1644853615.500760,11.000000,0.000000,4238.717773,4237.307617,4227.436035,4231.922852,4234.487305,4234.615234,4223.846191,4231.666504,4238.461426,4244.487305,4237.948730,4218.077148,4128.974121,4206.282227,3102.000000,4.000000,86.000000,,,,0.000000,4.000000,4.000000,4.000000,4.000000,4.000000,4.000000,4.000000,4.000000,4.000000,4.000000,4.000000,4.000000,4.000000,4.000000,100.000000,,,,,,,,,,,,,,,,
1644853615.504700,12.000000,0.000000,4227.948730,4235.384766,4225.256348,4231.025879,4231.025879,4234.102539,4225.897461,4231.666504,4238.974121,4244.615234,4231.794922,4215.512695,4123.205078,4198.974121,3473.000000,4.000000,86.000000,,,,0.000000,4.000000,4.000000,4.000000,4.000000,4.000000,4.000000,4.000000,4.000000,4.000000,4.000000,4.000000,4.000000,4.000000,4.000000,100.000000,,,,,,,,,,,,,,,,
1644853615.508640,13.000000,0.000000,4225.128418,4235.128418,4222.563965,4231.794922,4226.282227,4232.307617,4227.436035,4230.256348,4237.436035,4244.487305,4225.128418,4212.051270,4118.589844,4198.077148,3586.000000,4.000000,86.000000,,,,0.000000,4.000000,4.000000,4.000000,4.000000,4.000000,4.000000,4.000000,4.000000,4.000000,4.000000,4.000000,4.000000,4.000000,4.000000,100.000000,,,,,,,,,,,,,,,,
1644853615.512580,14.000000,0.000000,4231.922852,4238.461426,4221.922852,4233.461426,4222.820313,4230.000000,4226.410156,4228.717773,4235.384766,4245.769043,4225.641113,4211.282227,4124.102539,4207.179688,3406.000000,4.000000,86.000000,,,,0.000000,4.000000,4.000000,4.000000,4.000000,4.000000,4.000000,4.000000,4.000000,4.000000,4.000000,4.000000,4.000000,4.000000,4.000000,100.000000,,,,,,,,,,,,,,,,
1644853615.516521,15.000000,0.000000,4244.743652,4244.358887,4225.512695,4235.897461,4222.820313,4228.333496,4223.077148,4228.846191,4234.871582,4248.974121,4236.538574,4215.384766,4143.974121,4225.000000,3102.000000,4.000000,86.000000,,,,0.000000,4.000000,4.000000,4.000000,4.000000,4.000000,4.000000,4.000000,4.000000,4.000000,4.000000,4.000000,4.000000,4.000000,4.000000,100.000000,,,,,,,,,,,,,,,,
1644853615.520461,16.000000,0.000000,4258.077148,4250.384766,4232.948730,4239.487305,4226.282227,4227.692383,4220.641113,4230.384766,4236.410156,4253.205078,4253.717773,4224.102539,4174.230957,4246.282227,3473.000000,4.000000,86.000000,,,,0.000000,4.000000,4.000000,4.000000,4.000000,4.000000,4.000000,4.000000,4.000000,4.000000,4.000000,4.000000,4.000000,4.000000,4.000000,100.000000,,,,,,,,,,,,,,,,
1644853615.524401,17.000000,0.000000,4268.333496,4254.615234,4241.794922,4243.846191,4231.025879,4227.563965,4220.641113,4232.051270,4238.846191,4256.794922,4268.974121,4234.743652,4205.256348,4263.846191,3586.000000,4.000000,86.000000,,,,0.000000,4.000000,4.000000,4.000000,4.000000,4.000000,4.000000,4.000000,4.000000,4.000000,4.000000,4.000000,4.000000,4.000000,4.000000,100.000000,,,,,,,,,,,,,,,,
1644853615.528341,18.000000,0.000000,4275.897461,4257.820313,4249.358887,4247.948730,4234.230957,4227.179688,4221.794922,4231.922852,4239.487305,4257.692383,4276.153809,4243.333496,4228.205078,4273.974121,3406.000000,4.000000,86.000000,,,,0.000000,4.000000,4.000000,4.000000,4.000000,4.000000,4.000000,4.000000,4.000000,4.000000,4.000000,4.000000,4.000000,4.000000,4.000000,100.000000,,,,,,,,,,,,,,,,
1644853615.532281,19.000000,0.000000,4283.717773,4261.538574,4253.974121,4250.256348,4233.077148,4225.128418,4220.897461,4229.102539,4236.666504,4255.256348,4275.769043,4247.948730,4242.051270,4278.461426,3102.000000,4.000000,86.000000,,,,0.000000,4.000000,4.000000,4.000000,4.000000,4.000000,4.000000,4.000000,4.000000,4.000000,4.000000,4.000000,4.000000,4.000000,4.000000,100.000000,,,,,,,,,,,,,,,,
1644853615.536321,20.000000,0.000000,4293.589844,4266.153809,4256.153809,4250.128418,4226.666504,4221.410156,4217.563965,4224.102539,4230.512695,4249.358887,4272.948730,4249.230957,4252.948730,4282.307617,3473.000000,4.000000,86.000000,,,,0.000000,4.000000,4.000000,4.000000,4.000000,4.000000,4.000000,4.000000,4.000000,4.000000,4.000000,4.000000,4.000000,4.000000,4.000000,100.000000,1.000000,91.666664,4.000000,4.000000,4.000000,4.000000,4.000000,4.000000,4.000000,4.000000,4.000000,4.000000,4.000000,4.000000,3.000000,4.000000
1644853615.540261,21.000000,0.000000,4305.128418,4270.256348,4257.436035,4248.333496,4216.666504,4216.922852,4214.102539,4219.358887,4223.333496,4242.179688,4272.820313,4249.871582,4268.846191,4288.974121,3586.000000,4.000000,86.000000,,,,0.000000,4.000000,4.000000,4.000000,4.000000,4.000000,4.000000,4.000000,4.000000,4.000000,4.000000,4.000000,4.000000,4.000000,4.000000,100.000000,,,,,,,,,,,,,,,,
1644853615.544201,22.000000,0.000000,4316.922852,4273.333496,4259.102539,4246.794922,4208.461426,4213.333496,4212.563965,4217.051270,4218.077148,4236.538574,4277.692383,4251.922852,4292.948730,4297.563965,3406.000000,4.000000,86.000000,,,,0.000000,4.000000,4.000000,4.000000,4.000000,4.000000,4.000000,4.000000,4.000000,4.000000,4.000000,4.000000,4.000000,4.000000,4.000000,100.000000,,,,,,,,,,,,,,,,
1644853615.548141,23.000000,0.000000,4328.205078,4275.897461,4261.538574,4247.179688,4206.922852,4211.922852,4212.692383,4217.948730,4216.666504,4235.384766,4286.922852,4255.641113,4322.692383,4304.230957,3102.000000,4.000000,86.000000,,,,0.000000,4.000000,4.000000,4.000000,4.000000,4.000000,4.000000,4.000000,4.000000,4.000000,4.000000,4.000000,4.000000,4.000000,4.000000,100.000000,,,,,,,,,,,,,,,,
1644853615.552081,24.000000,0.000000,4338.589844,4278.974121,4264.743652,4250.128418,4213.205078,4212.692383,4212.948730,4220.641113,4218.589844,4239.230957,4298.205078,4260.000000,4353.333496,4307.563965,3473.000000,4.000000,86.000000,,,,0.000000,4.000000,4.000000,4.000000,4.000000,4.000000,4.000000,4.000000,4.000000,4.000000,4.000000,4.000000,4.000000,4.000000,4.000000,100.000000,,,,,,,,,,,,,,,,
1644853615.556022,25.000000,0.000000,4346.153809,4282.051270,4269.102539,4254.487305,4223.589844,4214.743652,4213.589844,4222.436035,4222.307617,4245.769043,4309.358887,4264.487305,4382.563965,4310.769043,3586.000000,4.000000,86.000000,,,,0.000000,4.000000,4.000000,4.000000,4.000000,4.000000,4.000000,4.000000,4.000000,4.000000,4.000000,4.000000,4.000000,4.000000,4.000000,100.000000,,,,,,,,,,,,,,,,
1644853615.559962,26.000000,0.000000,4348.846191,4282.948730,4274.871582,4258.077148,4232.051270,4216.794922,4216.282227,4221.282227,4225.897461,4252.179688,4318.846191,4268.717773,4412.179688,4318.717773,3406.000000,4.000000,86.000000,,,,0.000000,4.000000,4.000000,4.000000,4.000000,4.000000,4.000000,4.000000,4.000000,4.000000,4.000000,4.000000,4.000000,4.000000,4.000000,100.000000,,,,,,,,,,,,,,,,
1644853615.563902,27.000000,0.000000,4346.922852,4279.743652,4281.153809,4258.589844,4234.615234,4217.563965,4221.538574,4217.051270,4228.717773,4257.307617,4327.307617,4271.922852,4446.410156,4333.974121,3102.000000,4.000000,86.000000,,,,0.000000,4.000000,4.000000,4.000000,4.000000,4.000000,4.000000,4.000000,4.000000,4.000000,4.000000,4.000000,4.000000,4.000000,4.000000,100.000000,,,,,,,,,,,,,,,,
1644853615.567842,28.000000,0.000000,4343.846191,4274.230957,4285.512695,4255.512695,4231.153809,4217.692383,4226.282227,4211.153809,4230.512695,4261.153809,4336.025879,4272.563965,4488.461426,4355.256348,3473.000000,4.000000,86.000000,,,,0.000000,4.000000,4.000000,4.000000,4.000000,4.000000,4.000000,4.000000,4.000000,4.000000,4.000000,4.000000,4.000000,4.000000,4.000000,100.000000,,,,,,,,,,,,,,,,
1644853615.571782,29.000000,0.000000,4343.461426,4270.256348,4285.512695,4250.128418,4224.615234,4217.948730,4227.179688,4205.512695,4231.410156,4264.102539,4343.717773,4270.128418,4536.153809,4379.615234,3586.000000,4.000000,86.000000,,,,0.000000,4.000000,4.000000,4.000000,4.000000,4.000000,4.000000,4.000000,4.000000,4.000000,4.000000,4.000000,4.000000,4.000000,4.000000,100.000000,,,,,,,,,,,,,,,,
1644853615.575722,30.000000,0.000000,4345.512695,4270.384766,4281.282227,4244.743652,4218.846191,4218.589844,4223.846191,4200.641113,4230.769043,4264.871582,4345.897461,4266.282227,4583.333496,4405.897461,3406.000000,4.000000,86.000000,,,,0.000000,4.000000,4.000000,4.000000,4.000000,4.000000,4.000000,4.000000,4.000000,4.000000,4.000000,4.000000,4.000000,4.000000,4.000000,100.000000,,,,,,,,,,,,,,,,
1644853615.579662,31.000000,0.000000,4344.615234,4273.205078,4275.512695,4241.794922,4215.897461,4217.948730,4219.487305,4196.153809,4227.820313,4261.153809,4338.589844,4264.230957,4625.000000,4435.000000,3102.000000,4.000000,86.000000,,,,0.000000,4.000000,4.000000,4.000000,4.000000,4.000000,4.000000,4.000000,4.000000,4.000000,4.000000,4.000000,4.000000,4.000000,4.000000,100.000000,,,,,,,,,,,,,,,,
1644853615.583602,32.000000,0.000000,4336.282227,4274.743652,4271.282227,4242.179688,4215.256348,4214.615234,4217.051270,4192.051270,4223.077148,4252.179688,4323.333496,4266.153809,4661.922852,4468.205078,0.000000,4.000000,86.000000,,,,0.000000,4.000000,4.000000,4.000000,4.000000,4.000000,4.000000,4.000000,4.000000,4.000000,4.000000,4.000000,4.000000,4.000000,4.000000,100.000000,,,,,,,,,,,,,,,,
