title:Alex-DvytgDquDCWJxTAB99BFSg, start timestamp:1644852939.535179, stop timestamp:1644852966.106151, headset type:EPOCPLUS, headset serial:3B9AEBFF, headset firmware:626, channels:55, sampling rate:eeg_256, samples:6745      , version:2.1, 
Timestamp,EEG.Counter,EEG.Interpolated,EEG.AF3,EEG.F7,EEG.F3,EEG.FC5,EEG.T7,EEG.P7,EEG.O1,EEG.O2,EEG.P8,EEG.T8,EEG.FC6,EEG.F4,EEG.F8,EEG.AF4,EEG.RawCq,EEG.Battery,EEG.BatteryPercent,MarkerIndex,MarkerType,MarkerValueInt,EEG.MarkerHardware,CQ.AF3,CQ.F7,CQ.F3,CQ.FC5,CQ.T7,CQ.P7,CQ.O1,CQ.O2,CQ.P8,CQ.T8,CQ.FC6,CQ.F4,CQ.F8,CQ.AF4,CQ.Overall,EQ.SampleRateQuality,EQ.OVERALL,EQ.AF3,EQ.F7,EQ.F3,EQ.FC5,EQ.T7,EQ.P7,EQ.O1,EQ.O2,EQ.P8,EQ.T8,EQ.FC6,EQ.F4,EQ.F8,EQ.AF4
1644852939.535179,26.000000,0.000000,4212.436035,4223.846191,4206.410156,4225.512695,4217.948730,4209.615234,4215.384766,4218.205078,4212.692383,4209.358887,4215.384766,4202.948730,4204.358887,4196.666504,3535.000000,4.000000,91.000000,,,,0.000000,4.000000,4.000000,4.000000,4.000000,4.000000,4.000000,4.000000,4.000000,4.000000,4.000000,4.000000,4.000000,4.000000,4.000000,100.000000,,,,,,,,,,,,,,,,
1644852939.539019,27.000000,0.000000,4217.692383,4222.692383,4205.641113,4231.282227,4215.512695,4208.077148,4213.205078,4216.538574,4213.205078,4208.205078,4209.871582,4206.410156,4215.384766,4201.794922,3441.000000,4.000000,91.000000,,,,0.000000,4.000000,4.000000,4.000000,4.000000,4.000000,4.000000,4.000000,4.000000,4.000000,4.000000,4.000000,4.000000,4.000000,4.000000,100.000000,,,,,,,,,,,,,,,,
1644852939.542959,28.000000,0.000000,4222.948730,4218.333496,4204.487305,4229.487305,4214.102539,4209.230957,4211.410156,4214.487305,4213.974121,4210.000000,4210.128418,4207.436035,4219.358887,4201.410156,3496.000000,4.000000,91.000000,,,,0.000000,4.000000,4.000000,4.000000,4.000000,4.000000,4.000000,4.000000,4.000000,4.000000,4.000000,4.000000,4.000000,4.000000,4.000000,100.000000,,,,,,,,,,,,,,,,
1644852939.546899,29.000000,0.000000,4222.436035,4214.487305,4201.666504,4219.743652,4210.256348,4211.666504,4211.794922,4213.461426,4213.461426,4212.436035,4212.692383,4203.333496,4214.487305,4194.615234,3707.000000,4.000000,91.000000,,,,0.000000,4.000000,4.000000,4.000000,4.000000,4.000000,4.000000,4.000000,4.000000,4.000000,4.000000,4.000000,4.000000,4.000000,4.000000,100.000000,,,,,,,,,,,,,,,,
1644852939.550839,30.000000,0.000000,4214.487305,4212.820313,4196.153809,4208.846191,4201.410156,4213.077148,4213.461426,4213.333496,4211.153809,4213.717773,4212.948730,4194.615234,4204.102539,4183.846191,3535.000000,4.000000,91.000000,,,,0.000000,4.000000,4.000000,4.000000,4.000000,4.000000,4.000000,4.000000,4.000000,4.000000,4.000000,4.000000,4.000000,4.000000,4.000000,100.000000,,,,,,,,,,,,,,,,
1644852939.554779,31.000000,0.000000,4202.436035,4211.794922,4189.487305,4204.615234,4190.641113,4212.820313,4213.461426,4212.563965,4208.333496,4212.948730,4209.871582,4184.743652,4193.974121,4173.333496,3441.000000,4.000000,91.000000,,,,0.000000,4.000000,4.000000,4.000000,4.000000,4.000000,4.000000,4.000000,4.000000,4.000000,4.000000,4.000000,4.000000,4.000000,4.000000,100.000000,,,,,,,,,,,,,,,,
1644852939.558719,32.000000,0.000000,4192.820313,4208.846191,4185.384766,4208.589844,4185.769043,4211.538574,4210.897461,4210.512695,4206.922852,4210.384766,4207.563965,4177.948730,4188.846191,4166.282227,0.000000,4.000000,91.000000,,,,0.000000,4.000000,4.000000,4.000000,4.000000,4.000000,4.000000,4.000000,4.000000,4.000000,4.000000,4.000000,4.000000,4.000000,4.000000,100.000000,,,,,,,,,,,,,,,,
1644852939.562660,33.000000,0.000000,4189.230957,4203.589844,4186.282227,4214.615234,4192.051270,4210.512695,4208.077148,4207.820313,4207.179688,4206.666504,4210.128418,4176.410156,4189.102539,4164.102539,0.000000,4.000000,91.000000,,,,0.000000,4.000000,4.000000,4.000000,4.000000,4.000000,4.000000,4.000000,4.000000,4.000000,4.000000,4.000000,4.000000,4.000000,4.000000,100.000000,,,,,,,,,,,,,,,,
1644852939.566600,34.000000,0.000000,4191.025879,4198.077148,4191.666504,4215.384766,4208.077148,4210.384766,4207.563965,4205.897461,4208.205078,4203.205078,4218.077148,4178.846191,4191.666504,4165.641113,0.000000,4.000000,91.000000,,,,0.000000,4.000000,4.000000,4.000000,4.000000,4.000000,4.000000,4.000000,4.000000,4.000000,4.000000,4.000000,4.000000,4.000000,4.000000,100.000000,,,,,,,,,,,,,,,,
1644852939.570540,35.000000,0.000000,4193.717773,4195.512695,4197.820313,4208.589844,4225.256348,4210.769043,4208.846191,4205.384766,4208.461426,4201.666504,4226.025879,4182.179688,4192.692383,4168.846191,0.000000,4.000000,91.000000,,,,0.000000,4.000000,4.000000,4.000000,4.000000,4.000000,4.000000,4.000000,4.000000,4.000000,4.000000,4.000000,4.000000,4.000000,4.000000,100.000000,,,,,,,,,,,,,,,,
1644852939.574480,36.000000,0.000000,4193.974121,4196.538574,4201.025879,4198.333496,4233.333496,4210.384766,4209.615234,4205.769043,4208.333496,4202.692383,4227.051270,4184.102539,4191.025879,4171.666504,0.000000,4.000000,91.000000,,,,0.000000,4.000000,4.000000,4.000000,4.000000,4.000000,4.000000,4.000000,4.000000,4.000000,4.000000,4.000000,4.000000,4.000000,4.000000,100.000000,,,,,,,,,,,,,,,,
1644852939.578420,37.000000,0.000000,4191.794922,4199.487305,4200.512695,4192.179688,4227.948730,4209.358887,4208.717773,4206.282227,4208.205078,4203.846191,4218.333496,4184.615234,4188.461426,4173.333496,0.000000,4.000000,91.000000,,,,0.000000,4.000000,4.000000,4.000000,4.000000,4.000000,4.000000,4.000000,4.000000,4.000000,4.000000,4.000000,4.000000,4.000000,4.000000,100.000000,,,,,,,,,,,,,,,,
1644852939.582360,38.000000,0.000000,4190.384766,4202.179688,4198.461426,4195.384766,4213.461426,4208.333496,4207.820313,4206.410156,4208.333496,4202.307617,4204.230957,4184.615234,4187.307617,4173.846191,0.000000,4.000000,91.000000,,,,0.000000,4.000000,4.000000,4.000000,4.000000,4.000000,4.000000,4.000000,4.000000,4.000000,4.000000,4.000000,4.000000,4.000000,4.000000,100.000000,,,,,,,,,,,,,,,,
1644852939.586300,39.000000,0.000000,4193.077148,4203.461426,4197.820313,4206.794922,4199.102539,4208.461426,4209.487305,4206.153809,4208.077148,4197.179688,4192.948730,4185.641113,4188.077148,4172.820313,0.000000,4.000000,91.000000,,,,0.000000,4.000000,4.000000,4.000000,4.000000,4.000000,4.000000,4.000000,4.000000,4.000000,4.000000,4.000000,4.000000,4.000000,4.000000,100.000000,,,,,,,,,,,,,,,,
1644852939.590240,40.000000,0.000000,4199.743652,4203.846191,4199.358887,4220.384766,4191.922852,4210.128418,4212.948730,4205.512695,4206.410156,4191.282227,4190.512695,4187.307617,4189.230957,4170.128418,0.000000,4.000000,91.000000,,,,0.000000,4.000000,4.000000,4.000000,4.000000,4.000000,4.000000,4.000000,4.000000,4.000000,4.000000,4.000000,4.000000,4.000000,4.000000,100.000000,,,,,,,,,,,,,,,,
1644852939.594180,41.000000,0.000000,4207.179688,4204.487305,4200.769043,4230.512695,4193.461426,4213.077148,4215.000000,4204.230957,4203.717773,4187.820313,4194.871582,4188.717773,4188.846191,4166.794922,0.000000,4.000000,91.000000,,,,0.000000,4.000000,4.000000,4.000000,4.000000,4.000000,4.000000,4.000000,4.000000,4.000000,4.000000,4.000000,4.000000,4.000000,4.000000,100.000000,,,,,,,,,,,,,,,,
1644852939.598120,42.000000,0.000000,4211.410156,4206.538574,4200.256348,4235.128418,4200.769043,4216.153809,4214.102539,4202.820313,4201.025879,4188.974121,4199.358887,4189.615234,4185.000000,4166.410156,0.000000,4.000000,91.000000,,,,0.000000,4.000000,4.000000,4.000000,4.000000,4.000000,4.000000,4.000000,4.000000,4.000000,4.000000,4.000000,4.000000,4.000000,4.000000,100.000000,1.000000,66.666664,4.000000,4.000000,4.000000,4.000000,3.000000,4.000000,1.000000,4.000000,4.000000,4.000000,4.000000,4.000000,4.000000,4.000000
1644852939.602061,43.000000,0.000000,4211.025879,4210.256348,4198.717773,4236.025879,4209.358887,4218.205078,4212.179688,4202.051270,4199.487305,4194.230957,4199.102539,4190.641113,4178.205078,4170.769043,0.000000,4.000000,91.000000,,,,0.000000,4.000000,4.000000,4.000000,4.000000,4.000000,4.000000,4.000000,4.000000,4.000000,4.000000,4.000000,4.000000,4.000000,4.000000,100.000000,,,,,,,,,,,,,,,,
1644852939.606001,44.000000,0.000000,4208.717773,4214.487305,4198.717773,4234.743652,4215.769043,4218.589844,4212.563965,4202.820313,4199.615234,4200.769043,4196.282227,4193.205078,4171.153809,4178.077148,0.000000,4.000000,91.000000,,,,0.000000,4.000000,4.000000,4.000000,4.000000,4.000000,4.000000,4.000000,4.000000,4.000000,4.000000,4.000000,4.000000,4.000000,4.000000,100.000000,,,,,,,,,,,,,,,,
1644852939.609941,45.000000,0.000000,4207.820313,4217.692383,4201.922852,4230.641113,4219.358887,4218.077148,4215.000000,4205.384766,4201.025879,4205.512695,4197.436035,4197.179688,4168.589844,4184.230957,0.000000,4.000000,91.000000,,,,0.000000,4.000000,4.000000,4.000000,4.000000,4.000000,4.000000,4.000000,4.000000,4.000000,4.000000,4.000000,4.000000,4.000000,4.000000,100.000000,,,,,,,,,,,,,,,,
1644852939.613781,46.000000,0.000000,4209.358887,4218.077148,4206.922852,4222.692383,4220.256348,4217.948730,4215.641113,4208.205078,4202.692383,4206.666504,4205.641113,4201.282227,4173.077148,4187.307617,0.000000,4.000000,91.000000,,,,0.000000,4.000000,4.000000,4.000000,4.000000,4.000000,4.000000,4.000000,4.000000,4.000000,4.000000,4.000000,4.000000,4.000000,4.000000,100.000000,,,,,,,,,,,,,,,,
1644852939.617721,47.000000,0.000000,4210.641113,4215.769043,4210.000000,4213.589844,4218.846191,4218.077148,4212.179688,4209.102539,4203.461426,4204.871582,4217.307617,4202.436035,4183.077148,4188.974121,0.000000,4.000000,91.000000,,,,0.000000,4.000000,4.000000,4.000000,4.000000,4.000000,4.000000,4.000000,4.000000,4.000000,4.000000,4.000000,4.000000,4.000000,4.000000,100.000000,,,,,,,,,,,,,,,,
1644852939.621661,48.000000,0.000000,4208.589844,4212.051270,4209.487305,4209.487305,4216.410156,4217.436035,4206.922852,4208.333496,4203.589844,4202.436035,4224.487305,4199.358887,4193.846191,4190.769043,0.000000,4.000000,91.000000,,,,0.000000,4.000000,4.000000,4.000000,4.000000,4.000000,4.000000,4.000000,4.000000,4.000000,4.000000,4.000000,4.000000,4.000000,4.000000,100.000000,,,,,,,,,,,,,,,,
1644852939.625601,49.000000,0.000000,4203.333496,4209.102539,4206.922852,4215.769043,4215.641113,4215.128418,4204.615234,4207.820313,4203.974121,4202.051270,4223.589844,4194.487305,4200.128418,4192.436035,0.000000,4.000000,91.000000,,,,0.000000,4.000000,4.000000,4.000000,4.000000,4.000000,4.000000,4.000000,4.000000,4.000000,4.000000,4.000000,4.000000,4.000000,4.000000,100.000000,,,,,,,,,,,,,,,,
1644852939.629442,50.000000,0.000000,4199.743652,4209.230957,4206.025879,4229.743652,4218.974121,4212.179688,4207.051270,4209.487305,4205.897461,4205.256348,4217.436035,4192.179688,4200.641113,4192.563965,0.000000,4.000000,91.000000,,,,0.000000,4.000000,4.000000,4.000000,4.000000,4.000000,4.000000,4.000000,4.000000,4.000000,4.000000,4.000000,4.000000,4.000000,4.000000,100.000000,,,,,,,,,,,,,,,,
1644852939.633382,51.000000,0.000000,4202.948730,4213.205078,4208.589844,4241.153809,4224.487305,4211.282227,4211.794922,4213.205078,4209.487305,4210.769043,4211.794922,4194.487305,4198.333496,4191.794922,0.000000,4.000000,91.000000,,,,0.000000,4.000000,4.000000,4.000000,4.000000,4.000000,4.000000,4.000000,4.000000,4.000000,4.000000,4.000000,4.000000,4.000000,4.000000,100.000000,,,,,,,,,,,,,,,,
1644852939.637322,52.000000,0.000000,4213.077148,4219.743652,4213.205078,4240.512695,4226.794922,4213.077148,4214.615234,4216.922852,4212.820313,4215.384766,4209.358887,4199.358887,4196.922852,4193.077148,0.000000,4.000000,91.000000,,,,0.000000,4.000000,4.000000,4.000000,4.000000,4.000000,4.000000,4.000000,4.000000,4.000000,4.000000,4.000000,4.000000,4.000000,4.000000,100.000000,,,,,,,,,,,,,,,,
1644852939.641262,53.000000,0.000000,4224.230957,4224.871582,4216.538574,4228.974121,4221.410156,4215.512695,4214.230957,4218.461426,4214.102539,4215.512695,4208.205078,4203.077148,4197.820313,4197.692383,0.000000,4.000000,91.000000,,,,0.000000,4.000000,4.000000,4.000000,4.000000,4.000000,4.000000,4.000000,4.000000,4.000000,4.000000,4.000000,4.000000,4.000000,4.000000,100.000000,,,,,,,,,,,,,,,,
1644852939.645202,54.000000,0.000000,4229.102539,4223.974121,4216.282227,4216.538574,4209.358887,4215.512695,4212.179688,4217.307617,4212.563965,4210.512695,4204.871582,4204.102539,4198.717773,4202.820313,0.000000,4.000000,91.000000,,,,0.000000,4.000000,4.000000,4.000000,4.000000,4.000000,4.000000,4.000000,4.000000,4.000000,4.000000,4.000000,4.000000,4.000000,4.000000,100.000000,,,,,,,,,,,,,,,,
1644852939.649142,55.000000,0.000000,4225.128418,4216.410156,4212.692383,4212.563965,4197.563965,4212.436035,4210.256348,4214.743652,4209.871582,4202.948730,4198.974121,4203.717773,4196.410156,4202.948730,0.000000,4.000000,91.000000,,,,0.000000,4.000000,4.000000,4.000000,4.000000,4.000000,4.000000,4.000000,4.000000,4.000000,4.000000,4.000000,4.000000,4.000000,4.000000,100.000000,,,,,,,,,,,,,,,,
1644852939.653082,56.000000,0.000000,4216.922852,4206.153809,4208.333496,4216.282227,4193.974121,4207.692383,4208.974121,4212.179688,4208.205078,4197.692383,4194.102539,4204.358887,4190.128418,4195.512695,0.000000,4.000000,91.000000,,,,0.000000,4.000000,4.000000,4.000000,4.000000,4.000000,4.000000,4.000000,4.000000,4.000000,4.000000,4.000000,4.000000,4.000000,4.000000,100.000000,,,,,,,,,,,,,,,,
1644852939.657022,57.000000,0.000000,4211.153809,4199.358887,4205.512695,4219.743652,4200.897461,4203.717773,4207.820313,4210.384766,4208.333496,4197.307617,4194.743652,4206.282227,4183.205078,4184.358887,0.000000,4.000000,91.000000,,,,0.000000,4.000000,4.000000,4.000000,4.000000,4.000000,4.000000,4.000000,4.000000,4.000000,4.000000,4.000000,4.000000,4.000000,4.000000,100.000000,,,,,,,,,,,,,,,,
1644852939.660962,58.000000,0.000000,4211.538574,4199.358887,4205.000000,4215.897461,4212.692383,4202.051270,4207.307617,4209.487305,4209.102539,4201.282227,4201.538574,4206.025879,4179.615234,4177.563965,0.000000,4.000000,91.000000,,,,0.000000,4.000000,4.000000,4.000000,4.000000,4.000000,4.000000,4.000000,4.000000,4.000000,4.000000,4.000000,4.000000,4.000000,4.000000,100.000000,,,,,,,,,,,,,,,,
1644852939.664902,59.000000,0.000000,4215.384766,4204.743652,4205.256348,4205.128418,4219.615234,4202.692383,4207.948730,4209.743652,4209.230957,4205.769043,4210.512695,4201.282227,4180.128418,4180.512695,0.000000,4.000000,91.000000,,,,0.000000,4.000000,4.000000,4.000000,4.000000,4.000000,4.000000,4.000000,4.000000,4.000000,4.000000,4.000000,4.000000,4.000000,4.000000,100.000000,,,,,,,,,,,,,,,,
1644852939.668843,60.000000,0.000000,4217.051270,4210.641113,4204.487305,4194.871582,4217.051270,4204.487305,4209.358887,4210.256348,4208.333496,4207.307617,4215.641113,4193.077148,4182.051270,4191.153809,0.000000,4.000000,91.000000,,,,0.000000,4.000000,4.000000,4.000000,4.000000,4.000000,4.000000,4.000000,4.000000,4.000000,4.000000,4.000000,4.000000,4.000000,4.000000,100.000000,,,,,,,,,,,,,,,,
1644852939.672783,61.000000,0.000000,4213.077148,4212.692383,4201.794922,4193.205078,4208.717773,4205.769043,4209.871582,4210.128418,4207.563965,4205.128418,4214.230957,4185.256348,4181.794922,4201.282227,0.000000,4.000000,91.000000,,,,0.000000,4.000000,4.000000,4.000000,4.000000,4.000000,4.000000,4.000000,4.000000,4.000000,4.000000,4.000000,4.000000,4.000000,4.000000,100.000000,,,,,,,,,,,,,,,,
1644852939.676723,62.000000,0.000000,4206.025879,4209.487305,4198.589844,4202.563965,4201.922852,4205.641113,4208.589844,4209.102539,4207.436035,4201.922852,4207.692383,4181.794922,4179.615234,4203.846191,0.000000,4.000000,91.000000,,,,0.000000,4.000000,4.000000,4.000000,4.000000,4.000000,4.000000,4.000000,4.000000,4.000000,4.000000,4.000000,4.000000,4.000000,4.000000,100.000000,,,,,,,,,,,,,,,,
1644852939.680663,63.000000,0.000000,4201.666504,4202.692383,4196.538574,4218.205078,4199.102539,4203.974121,4206.922852,4207.307617,4207.051270,4200.641113,4199.358887,4182.436035,4178.846191,4198.333496,0.000000,4.000000,91.000000,,,,0.000000,4.000000,4.000000,4.000000,4.000000,4.000000,4.000000,4.000000,4.000000,4.000000,4.000000,4.000000,4.000000,4.000000,4.000000,100.000000,,,,,,,,,,,,,,,,
1644852939.684603,64.000000,0.000000,4203.461426,4196.153809,4195.641113,4231.153809,4197.307617,4202.051270,4206.794922,4205.641113,4205.128418,4201.922852,4192.563965,4184.230957,4182.436035,4190.000000,0.000000,4.000000,91.000000,,,,0.000000,4.000000,4.000000,4.000000,4.000000,4.000000,4.000000,4.000000,4.000000,4.000000,4.000000,4.000000,4.000000,4.000000,4.000000,100.000000,,,,,,,,,,,,,,,,
1644852939.688543,65.000000,0.000000,4209.102539,4193.333496,4194.358887,4234.871582,4193.333496,4200.769043,4207.692383,4204.230957,4201.794922,4203.717773,4189.615234,4184.230957,4189.230957,4184.102539,0.000000,4.000000,91.000000,,,,0.000000,4.000000,4.000000,4.000000,4.000000,4.000000,4.000000,4.000000,4.000000,4.000000,4.000000,4.000000,4.000000,4.000000,4.000000,100.000000,,,,,,,,,,,,,,,,
1644852939.692483,66.000000,0.000000,4212.436035,4195.384766,4191.666504,4228.461426,4188.846191,4200.384766,4207.563965,4203.205078,4199.358887,4203.589844,4192.051270,4182.307617,4193.974121,4181.410156,0.000000,4.000000,91.000000,,,,0.000000,4.000000,4.000000,4.000000,4.000000,4.000000,4.000000,4.000000,4.000000,4.000000,4.000000,4.000000,4.000000,4.000000,4.000000,100.000000,,,,,,,,,,,,,,,,
1644852939.696423,67.000000,0.000000,4208.974121,4200.512695,4189.230957,4216.410156,4188.589844,4200.384766,4205.384766,4203.205078,4200.256348,4201.922852,4199.358887,4180.128418,4191.666504,4179.230957,0.000000,4.000000,91.000000,,,,0.000000,4.000000,4.000000,4.000000,4.000000,4.000000,4.000000,4.000000,4.000000,4.000000,4.000000,4.000000,4.000000,4.000000,4.000000,100.000000,,,,,,,,,,,,,,,,
1644852939.700363,68.000000,0.000000,4200.128418,4204.871582,4190.128418,4204.615234,4195.128418,4200.000000,4203.205078,4204.487305,4204.615234,4201.794922,4207.820313,4179.615234,4182.948730,4175.384766,0.000000,4.000000,91.000000,,,,0.000000,4.000000,4.000000,4.000000,4.000000,4.000000,4.000000,4.000000,4.000000,4.000000,4.000000,4.000000,4.000000,4.000000,4.000000,100.000000,,,,,,,,,,,,,,,,
1644852939.704304,69.000000,0.000000,4191.922852,4205.641113,4195.897461,4197.179688,4206.282227,4199.871582,4204.358887,4207.307617,4209.743652,4205.769043,4211.794922,4181.410156,4174.487305,4171.922852,0.000000,4.000000,91.000000,,,,0.000000,4.000000,4.000000,4.000000,4.000000,4.000000,4.000000,4.000000,4.000000,4.000000,4.000000,4.000000,4.000000,4.000000,4.000000,100.000000,,,,,,,,,,,,,,,,
1644852939.708244,70.000000,0.000000,4190.512695,4203.205078,4204.358887,4194.487305,4215.897461,4200.897461,4209.230957,4210.384766,4212.307617,4213.333496,4208.974121,4184.358887,4174.871582,4173.461426,0.000000,4.000000,91.000000,,,,0.000000,4.000000,4.000000,4.000000,4.000000,4.000000,4.000000,4.000000,4.000000,4.000000,4.000000,4.000000,4.000000,4.000000,4.000000,100.000000,,,,,,,,,,,,,,,,
1644852939.712184,71.000000,0.000000,4197.051270,4200.641113,4210.128418,4196.538574,4218.846191,4202.692383,4214.102539,4211.666504,4210.897461,4220.000000,4202.051270,4187.051270,4186.922852,4181.153809,0.000000,4.000000,91.000000,,,,0.000000,4.000000,4.000000,4.000000,4.000000,4.000000,4.000000,4.000000,4.000000,4.000000,4.000000,4.000000,4.000000,4.000000,4.000000,100.000000,,,,,,,,,,,,,,,,
1644852939.716124,72.000000,0.000000,4206.282227,4200.128418,4208.974121,4204.102539,4214.358887,4203.974121,4214.487305,4209.487305,4206.794922,4220.256348,4197.436035,4188.589844,4203.461426,4189.358887,0.000000,4.000000,91.000000,,,,0.000000,4.000000,4.000000,4.000000,4.000000,4.000000,4.000000,4.000000,4.000000,4.000000,4.000000,4.000000,4.000000,4.000000,4.000000,100.000000,,,,,,,,,,,,,,,,
1644852939.720064,73.000000,0.000000,4210.384766,4201.538574,4201.025879,4217.820313,4206.666504,4203.205078,4209.487305,4204.871582,4202.436035,4211.538574,4199.358887,4188.717773,4212.051270,4190.512695,0.000000,4.000000,91.000000,,,,0.000000,4.000000,4.000000,4.000000,4.000000,4.000000,4.000000,4.000000,4.000000,4.000000,4.000000,4.000000,4.000000,4.000000,4.000000,100.000000,,,,,,,,,,,,,,,,
1644852939.724004,74.000000,0.000000,4205.769043,4202.948730,4190.897461,4233.333496,4201.794922,4201.153809,4203.717773,4200.769043,4200.256348,4197.436035,4206.410156,4187.563965,4205.256348,4183.077148,0.000000,4.000000,91.000000,,,,0.000000,4.000000,4.000000,4.000000,4.000000,4.000000,4.000000,4.000000,4.000000,4.000000,4.000000,4.000000,4.000000,4.000000,4.000000,100.000000,,,,,,,,,,,,,,,,
1644852939.727944,75.000000,0.000000,4196.794922,4203.333496,4184.487305,4242.179688,4201.922852,4199.743652,4202.307617,4200.384766,4201.410156,4186.153809,4213.077148,4185.769043,4188.077148,4174.358887,0.000000,4.000000,91.000000,,,,0.000000,4.000000,4.000000,4.000000,4.000000,4.000000,4.000000,4.000000,4.000000,4.000000,4.000000,4.000000,4.000000,4.000000,4.000000,100.000000,,,,,,,,,,,,,,,,
1644852939.731884,76.000000,0.000000,4191.538574,4203.589844,4185.256348,4238.461426,4204.358887,4200.512695,4206.025879,4204.102539,4205.384766,4185.512695,4214.615234,4184.615234,4173.717773,4174.230957,0.000000,4.000000,91.000000,,,,0.000000,4.000000,4.000000,4.000000,4.000000,4.000000,4.000000,4.000000,4.000000,4.000000,4.000000,4.000000,4.000000,4.000000,4.000000,100.000000,,,,,,,,,,,,,,,,
1644852939.735824,77.000000,0.000000,4194.743652,4204.743652,4192.051270,4224.102539,4203.717773,4203.461426,4210.769043,4209.102539,4209.871582,4195.769043,4211.153809,4185.128418,4173.077148,4186.153809,0.000000,4.000000,91.000000,,,,0.000000,4.000000,4.000000,4.000000,4.000000,4.000000,4.000000,4.000000,4.000000,4.000000,4.000000,4.000000,4.000000,4.000000,4.000000,100.000000,,,,,,,,,,,,,,,,
1644852939.739765,78.000000,0.000000,4203.461426,4206.282227,4200.128418,4207.820313,4197.307617,4206.410156,4212.820313,4211.922852,4211.025879,4209.487305,4206.794922,4187.563965,4185.256348,4202.692383,0.000000,4.000000,91.000000,,,,0.000000,4.000000,4.000000,4.000000,4.000000,4.000000,4.000000,4.000000,4.000000,4.000000,4.000000,4.000000,4.000000,4.000000,4.000000,100.000000,,,,,,,,,,,,,,,,
1644852939.743705,79.000000,0.000000,4209.743652,4206.153809,4204.487305,4199.102539,4188.846191,4207.179688,4211.666504,4211.153809,4207.563965,4217.692383,4205.384766,4191.153809,4199.358887,4212.051270,0.000000,4.000000,91.000000,,,,0.000000,4.000000,4.000000,4.000000,4.000000,4.000000,4.000000,4.000000,4.000000,4.000000,4.000000,4.000000,4.000000,4.000000,4.000000,100.000000,,,,,,,,,,,,,,,,
1644852939.747645,80.000000,0.000000,4207.436035,4203.077148,4203.846191,4201.794922,4185.769043,4204.615234,4209.743652,4207.948730,4201.666504,4216.922852,4207.051270,4194.358887,4204.358887,4207.820313,0.000000,4.000000,91.000000,,,,0.000000,4.000000,4.000000,4.000000,4.000000,4.000000,4.000000,4.000000,4.000000,4.000000,4.000000,4.000000,4.000000,4.000000,4.000000,100.000000,,,,,,,,,,,,,,,,
1644852939.751585,81.000000,0.000000,4197.307617,4198.205078,4200.256348,4211.666504,4191.538574,4200.000000,4208.589844,4204.743652,4197.948730,4211.282227,4208.846191,4196.025879,4198.717773,4193.846191,0.000000,4.000000,91.000000,,,,0.000000,4.000000,4.000000,4.000000,4.000000,4.000000,4.000000,4.000000,4.000000,4.000000,4.000000,4.000000,4.000000,4.000000,4.000000,100.000000,,,,,,,,,,,,,,,,
1644852939.755525,82.000000,0.000000,4186.282227,4193.461426,4196.922852,4219.487305,4200.769043,4195.641113,4207.692383,4203.077148,4199.615234,4206.922852,4207.307617,4195.256348,4189.358887,4180.256348,0.000000,4.000000,91.000000,,,,0.000000,4.000000,4.000000,4.000000,4.000000,4.000000,4.000000,4.000000,4.000000,4.000000,4.000000,4.000000,4.000000,4.000000,4.000000,100.000000,,,,,,,,,,,,,,,,
1644852939.759465,83.000000,0.000000,4181.282227,4190.769043,4195.769043,4217.436035,4203.974121,4193.333496,4206.666504,4203.333496,4204.871582,4206.282227,4203.077148,4192.051270,4184.487305,4174.743652,0.000000,4.000000,91.000000,,,,0.000000,4.000000,4.000000,4.000000,4.000000,4.000000,4.000000,4.000000,4.000000,4.000000,4.000000,4.000000,4.000000,4.000000,4.000000,100.000000,,,,,,,,,,,,,,,,
1644852939.763405,84.000000,0.000000,4184.358887,4190.897461,4196.794922,4206.153809,4196.794922,4193.333496,4206.538574,4204.487305,4209.230957,4206.922852,4201.025879,4186.922852,4186.282227,4177.820313,0.000000,4.000000,91.000000,,,,0.000000,4.000000,4.000000,4.000000,4.000000,4.000000,4.000000,4.000000,4.000000,4.000000,4.000000,4.000000,4.000000,4.000000,4.000000,100.000000,,,,,,,,,,,,,,,,
1644852939.767245,85.000000,0.000000,4192.179688,4193.077148,4198.846191,4194.102539,4184.487305,4194.358887,4207.692383,4205.897461,4209.102539,4205.128418,4206.025879,4182.051270,4190.897461,4184.102539,0.000000,4.000000,91.000000,,,,0.000000,4.000000,4.000000,4.000000,4.000000,4.000000,4.000000,4.000000,4.000000,4.000000,4.000000,4.000000,4.000000,4.000000,4.000000,100.000000,,,,,,,,,,,,,,,,
1644852939.771185,86.000000,0.000000,4199.615234,4197.051270,4201.666504,4191.153809,4177.948730,4196.025879,4209.615234,4207.051270,4205.000000,4200.641113,4216.666504,4180.512695,4193.461426,4188.205078,0.000000,4.000000,91.000000,,,,0.000000,4.000000,4.000000,4.000000,4.000000,4.000000,4.000000,4.000000,4.000000,4.000000,4.000000,4.000000,4.000000,4.000000,4.000000,100.000000,,,,,,,,,,,,,,,,
1644852939.775126,87.000000,0.000000,4204.230957,4202.692383,4205.128418,4201.410156,4183.589844,4198.846191,4210.897461,4207.563965,4200.897461,4197.051270,4225.641113,4184.871582,4192.692383,4188.589844,0.000000,4.000000,91.000000,,,,0.000000,4.000000,4.000000,4.000000,4.000000,4.000000,4.000000,4.000000,4.000000,4.000000,4.000000,4.000000,4.000000,4.000000,4.000000,100.000000,,,,,,,,,,,,,,,,
1644852939.779066,88.000000,0.000000,4207.563965,4209.743652,4209.487305,4219.871582,4199.102539,4203.717773,4211.794922,4208.461426,4200.641113,4198.461426,4225.512695,4195.000000,4191.282227,4188.461426,0.000000,4.000000,91.000000,,,,0.000000,4.000000,4.000000,4.000000,4.000000,4.000000,4.000000,4.000000,4.000000,4.000000,4.000000,4.000000,4.000000,4.000000,4.000000,100.000000,,,,,,,,,,,,,,,,
1644852939.783006,89.000000,0.000000,4212.563965,4216.794922,4214.358887,4236.666504,4215.256348,4210.384766,4214.102539,4211.025879,4205.256348,4205.128418,4216.666504,4207.179688,4193.077148,4191.025879,0.000000,4.000000,91.000000,,,,0.000000,4.000000,4.000000,4.000000,4.000000,4.000000,4.000000,4.000000,4.000000,4.000000,4.000000,4.000000,4.000000,4.000000,4.000000,100.000000,,,,,,,,,,,,,,,,
1644852939.786946,90.000000,0.000000,4220.384766,4221.153809,4218.589844,4243.717773,4223.077148,4216.153809,4218.589844,4215.000000,4212.307617,4212.820313,4206.153809,4214.615234,4199.102539,4196.666504,0.000000,4.000000,91.000000,,,,0.000000,4.000000,4.000000,4.000000,4.000000,4.000000,4.000000,4.000000,4.000000,4.000000,4.000000,4.000000,4.000000,4.000000,4.000000,100.000000,,,,,,,,,,,,,,,,
1644852939.790886,91.000000,0.000000,4228.461426,4221.025879,4220.256348,4239.743652,4220.512695,4217.948730,4221.794922,4218.461426,4217.436035,4216.153809,4202.307617,4212.948730,4206.666504,4202.436035,0.000000,4.000000,91.000000,,,,0.000000,4.000000,4.000000,4.000000,4.000000,4.000000,4.000000,4.000000,4.000000,4.000000,4.000000,4.000000,4.000000,4.000000,4.000000,100.000000,,,,,,,,,,,,,,,,
1644852939.794826,92.000000,0.000000,4231.922852,4216.025879,4217.948730,4229.871582,4211.666504,4214.358887,4219.487305,4218.333496,4216.922852,4212.948730,4207.820313,4202.820313,4211.794922,4205.000000,0.000000,4.000000,91.000000,,,,0.000000,4.000000,4.000000,4.000000,4.000000,4.000000,4.000000,4.000000,4.000000,4.000000,4.000000,4.000000,4.000000,4.000000,4.000000,100.000000,,,,,,,,,,,,,,,,
1644852939.798766,93.000000,0.000000,4227.692383,4208.077148,4211.794922,4219.871582,4202.820313,4206.410156,4211.153809,4213.974121,4210.512695,4206.025879,4217.820313,4190.641113,4212.051270,4203.717773,0.000000,4.000000,91.000000,,,,0.000000,4.000000,4.000000,4.000000,4.000000,4.000000,4.000000,4.000000,4.000000,4.000000,4.000000,4.000000,4.000000,4.000000,4.000000,100.000000,,,,,,,,,,,,,,,,
1644852939.802706,94.000000,0.000000,4216.922852,4200.128418,4205.000000,4212.436035,4197.563965,4197.436035,4202.563965,4208.333496,4201.666504,4200.897461,4224.871582,4183.974121,4208.589844,4200.897461,0.000000,4.000000,91.000000,,,,0.000000,4.000000,4.000000,4.000000,4.000000,4.000000,4.000000,4.000000,4.000000,4.000000,4.000000,4.000000,4.000000,4.000000,4.000000,100.000000,,,,,,,,,,,,,,,,
1644852939.806646,95.000000,0.000000,4205.256348,4195.000000,4201.538574,4208.077148,4195.384766,4191.153809,4199.615234,4204.871582,4195.897461,4201.922852,4225.256348,4185.769043,4204.615234,4198.846191,0.000000,4.000000,91.000000,,,,0.000000,4.000000,4.000000,4.000000,4.000000,4.000000,4.000000,4.000000,4.000000,4.000000,4.000000,4.000000,4.000000,4.000000,4.000000,100.000000,,,,,,,,,,,,,,,,
1644852939.810587,96.000000,0.000000,4198.333496,4193.846191,4203.461426,4206.794922,4194.230957,4189.230957,4203.077148,4205.256348,4196.153809,4207.820313,4220.641113,4192.820313,4201.410156,4197.563965,0.000000,4.000000,91.000000,,,,0.000000,4.000000,4.000000,4.000000,4.000000,4.000000,4.000000,4.000000,4.000000,4.000000,4.000000,4.000000,4.000000,4.000000,4.000000,100.000000,,,,,,,,,,,,,,,,
1644852939.814527,97.000000,0.000000,4198.077148,4195.769043,4208.333496,4207.051270,4192.820313,4190.128418,4207.820313,4207.563965,4201.282227,4213.077148,4215.000000,4197.948730,4197.563965,4195.000000,0.000000,4.000000,91.000000,,,,0.000000,4.000000,4.000000,4.000000,4.000000,4.000000,4.000000,4.000000,4.000000,4.000000,4.000000,4.000000,4.000000,4.000000,4.000000,100.000000,,,,,,,,,,,,,,,,
1644852939.818467,98.000000,0.000000,4201.410156,4198.333496,4211.282227,4205.769043,4191.538574,4190.641113,4208.717773,4208.846191,4206.666504,4211.538574,4210.641113,4197.307617,4190.512695,4189.743652,0.000000,4.000000,91.000000,,,,0.000000,4.000000,4.000000,4.000000,4.000000,4.000000,4.000000,4.000000,4.000000,4.000000,4.000000,4.000000,4.000000,4.000000,4.000000,100.000000,,,,,,,,,,,,,,,,
1644852939.822407,99.000000,0.000000,4203.589844,4198.846191,4208.333496,4201.153809,4190.256348,4189.102539,4205.641113,4207.436035,4207.692383,4202.436035,4207.051270,4191.922852,4180.256348,4183.205078,0.000000,4.000000,91.000000,,,,0.000000,4.000000,4.000000,4.000000,4.000000,4.000000,4.000000,4.000000,4.000000,4.000000,4.000000,4.000000,4.000000,4.000000,4.000000,100.000000,,,,,,,,,,,,,,,,
1644852939.826347,100.000000,0.000000,4202.179688,4196.282227,4200.384766,4195.897461,4187.948730,4187.179688,4202.307617,4204.230957,4203.589844,4190.769043,4202.692383,4186.153809,4171.410156,4179.487305,0.000000,4.000000,91.000000,,,,0.000000,4.000000,4.000000,4.000000,4.000000,4.000000,4.000000,4.000000,4.000000,4.000000,4.000000,4.000000,4.000000,4.000000,4.000000,100.000000,,,,,,,,,,,,,,,,
1644852939.830287,101.000000,0.000000,4198.333496,4192.179688,4191.794922,4194.358887,4184.358887,4187.820313,4201.025879,4200.769043,4197.692383,4183.974121,4197.820313,4182.179688,4169.358887,4181.922852,0.000000,4.000000,91.000000,,,,0.000000,4.000000,4.000000,4.000000,4.000000,4.000000,4.000000,4.000000,4.000000,4.000000,4.000000,4.000000,4.000000,4.000000,4.000000,100.000000,,,,,,,,,,,,,,,,
1644852939.834227,102.000000,0.000000,4195.384766,4189.102539,4186.666504,4198.205078,4181.410156,4192.051270,4201.282227,4198.589844,4194.615234,4185.897461,4194.615234,4179.743652,4176.025879,4189.487305,0.000000,4.000000,91.000000,,,,0.000000,4.000000,4.000000,4.000000,4.000000,4.000000,4.000000,4.000000,4.000000,4.000000,4.000000,4.000000,4.000000,4.000000,4.000000,100.000000,,,,,,,,,,,,,,,,
1644852939.838267,103.000000,0.000000,4195.128418,4188.974121,4186.666504,4205.256348,4182.948730,4197.563965,4202.051270,4198.589844,4196.922852,4194.358887,4195.512695,4177.692383,4187.307617,4196.666504,0.000000,4.000000,91.000000,,,,0.000000,4.000000,4.000000,4.000000,4.000000,4.000000,4.000000,4.000000,4.000000,4.000000,4.000000,4.000000,4.000000,4.000000,4.000000,100.000000,,,,,,,,,,,,,,,,
1644852939.842207,104.000000,0.000000,4196.922852,4192.307617,4190.512695,4211.922852,4190.641113,4201.410156,4203.717773,4200.769043,4202.692383,4202.692383,4199.487305,4176.538574,4195.641113,4197.307617,0.000000,4.000000,91.000000,,,,0.000000,4.000000,4.000000,4.000000,4.000000,4.000000,4.000000,4.000000,4.000000,4.000000,4.000000,4.000000,4.000000,4.000000,4.000000,100.000000,,,,,,,,,,,,,,,,
1644852939.846147,105.000000,0.000000,4199.102539,4196.666504,4195.512695,4215.384766,4201.794922,4202.179688,4207.051270,4203.333496,4208.077148,4205.128418,4202.563965,4178.077148,4195.512695,4189.615234,0.000000,4.000000,91.000000,,,,0.000000,4.000000,4.000000,4.000000,4.000000,4.000000,4.000000,4.000000,4.000000,4.000000,4.000000,4.000000,4.000000,4.000000,4.000000,100.000000,,,,,,,,,,,,,,,,
1644852939.850087,106.000000,0.000000,4200.897461,4198.717773,4198.461426,4215.000000,4210.512695,4201.153809,4210.769043,4203.974121,4209.743652,4200.641113,4200.769043,4181.794922,4187.436035,4176.922852,0.000000,4.000000,91.000000,,,,0.000000,4.000000,4.000000,4.000000,4.000000,4.000000,4.000000,4.000000,4.000000,4.000000,4.000000,4.000000,4.000000,4.000000,4.000000,100.000000,,,,,,,,,,,,,,,,
1644852939.854028,107.000000,0.000000,4201.922852,4196.410156,4197.307617,4210.641113,4212.179688,4200.769043,4212.179688,4202.051270,4207.051270,4193.333496,4194.743652,4185.000000,4177.051270,4166.538574,0.000000,4.000000,91.000000,,,,0.000000,4.000000,4.000000,4.000000,4.000000,4.000000,4.000000,4.000000,4.000000,4.000000,4.000000,4.000000,4.000000,4.000000,4.000000,100.000000,,,,,,,,,,,,,,,,
1644852939.857968,108.000000,0.000000,4201.794922,4191.282227,4193.077148,4203.717773,4206.666504,4201.410156,4210.512695,4198.846191,4202.307617,4188.717773,4188.974121,4184.230957,4171.025879,4163.846191,0.000000,4.000000,91.000000,,,,0.000000,4.000000,4.000000,4.000000,4.000000,4.000000,4.000000,4.000000,4.000000,4.000000,4.000000,4.000000,4.000000,4.000000,4.000000,100.000000,,,,,,,,,,,,,,,,
1644852939.861908,109.000000,0.000000,4199.743652,4186.538574,4188.333496,4198.077148,4198.205078,4201.922852,4208.077148,4197.179688,4198.846191,4189.230957,4188.717773,4179.358887,4172.051270,4168.717773,0.000000,4.000000,91.000000,,,,0.000000,4.000000,4.000000,4.000000,4.000000,4.000000,4.000000,4.000000,4.000000,4.000000,4.000000,4.000000,4.000000,4.000000,4.000000,100.000000,,,,,,,,,,,,,,,,
1644852939.865848,110.000000,0.000000,4196.410156,4185.384766,4186.153809,4197.948730,4191.538574,4201.025879,4208.205078,4198.461426,4198.077148,4192.692383,4194.358887,4173.333496,4177.563965,4174.871582,0.000000,4.000000,91.000000,,,,0.000000,4.000000,4.000000,4.000000,4.000000,4.000000,4.000000,4.000000,4.000000,4.000000,4.000000,4.000000,4.000000,4.000000,4.000000,100.000000,,,,,,,,,,,,,,,,
1644852939.869788,111.000000,0.000000,4194.743652,4188.077148,4186.666504,4203.717773,4189.358887,4199.358887,4211.666504,4201.794922,4199.615234,4195.128418,4201.282227,4170.641113,4182.692383,4176.282227,0.000000,4.000000,91.000000,,,,0.000000,4.000000,4.000000,4.000000,4.000000,4.000000,4.000000,4.000000,4.000000,4.000000,4.000000,4.000000,4.000000,4.000000,4.000000,100.000000,,,,,,,,,,,,,,,,
1644852939.873728,112.000000,0.000000,4197.563965,4193.205078,4188.717773,4211.410156,4192.563965,4199.615234,4215.384766,4205.000000,4201.922852,4194.743652,4204.871582,4173.589844,4184.487305,4172.820313,0.000000,4.000000,91.000000,,,,0.000000,4.000000,4.000000,4.000000,4.000000,4.000000,4.000000,4.000000,4.000000,4.000000,4.000000,4.000000,4.000000,4.000000,4.000000,100.000000,,,,,,,,,,,,,,,,
1644852939.877668,113.000000,0.000000,4204.102539,4198.717773,4190.641113,4215.256348,4199.871582,4203.589844,4216.666504,4206.282227,4204.230957,4193.846191,4203.974121,4180.256348,4183.333496,4170.000000,0.000000,4.000000,91.000000,,,,0.000000,4.000000,4.000000,4.000000,4.000000,4.000000,4.000000,4.000000,4.000000,4.000000,4.000000,4.000000,4.000000,4.000000,4.000000,100.000000,,,,,,,,,,,,,,,,
1644852939.881608,114.000000,0.000000,4208.333496,4202.563965,4191.666504,4211.794922,4206.666504,4209.871582,4215.384766,4205.128418,4206.025879,4194.487305,4199.743652,4185.512695,4180.256348,4172.307617,0.000000,4.000000,91.000000,,,,0.000000,4.000000,4.000000,4.000000,4.000000,4.000000,4.000000,4.000000,4.000000,4.000000,4.000000,4.000000,4.000000,4.000000,4.000000,100.000000,,,,,,,,,,,,,,,,
1644852939.885548,115.000000,0.000000,4202.948730,4202.563965,4191.025879,4202.436035,4206.922852,4213.589844,4212.820313,4201.794922,4205.641113,4195.897461,4192.563965,4184.102539,4175.769043,4178.205078,0.000000,4.000000,91.000000,,,,0.000000,4.000000,4.000000,4.000000,4.000000,4.000000,4.000000,4.000000,4.000000,4.000000,4.000000,4.000000,4.000000,4.000000,4.000000,100.000000,,,,,,,,,,,,,,,,
1644852939.889489,116.000000,0.000000,4187.307617,4197.948730,4188.589844,4192.948730,4199.230957,4211.025879,4209.487305,4196.538574,4201.538574,4195.512695,4182.563965,4175.384766,4170.128418,4182.179688,0.000000,4.000000,91.000000,,,,0.000000,4.000000,4.000000,4.000000,4.000000,4.000000,4.000000,4.000000,4.000000,4.000000,4.000000,4.000000,4.000000,4.000000,4.000000,100.000000,,,,,,,,,,,,,,,,
1644852939.893429,117.000000,0.000000,4169.871582,4190.256348,4185.512695,4189.871582,4188.461426,4202.820313,4205.128418,4191.282227,4195.128418,4192.692383,4173.205078,4164.358887,4165.000000,4181.025879,0.000000,4.000000,91.000000,,,,0.000000,4.000000,4.000000,4.000000,4.000000,4.000000,4.000000,4.000000,4.000000,4.000000,4.000000,4.000000,4.000000,4.000000,4.000000,100.000000,,,,,,,,,,,,,,,,
1644852939.897369,118.000000,0.000000,4161.922852,4183.974121,4184.871582,4195.512695,4183.461426,4194.358887,4201.025879,4189.102539,4190.000000,4190.512695,4170.128418,4159.487305,4164.487305,4177.051270,0.000000,4.000000,91.000000,1,1,0,0.000000,4.000000,4.000000,4.000000,4.000000,4.000000,4.000000,4.000000,4.000000,4.000000,4.000000,4.000000,4.000000,4.000000,4.000000,100.000000,,,,,,,,,,,,,,,,
1644852939.901309,119.000000,0.000000,4169.743652,4183.333496,4189.102539,4205.769043,4188.589844,4191.153809,4199.743652,4191.922852,4190.128418,4192.692383,4176.922852,4164.615234,4171.025879,4175.897461,0.000000,4.000000,91.000000,,,,0.000000,4.000000,4.000000,4.000000,4.000000,4.000000,4.000000,4.000000,4.000000,4.000000,4.000000,4.000000,4.000000,4.000000,4.000000,100.000000,,,,,,,,,,,,,,,,
1644852939.905249,120.000000,0.000000,4189.102539,4189.358887,4197.563965,4212.436035,4200.641113,4194.487305,4203.077148,4198.974121,4195.128418,4199.102539,4190.384766,4177.307617,4182.820313,4181.025879,0.000000,4.000000,91.000000,,,,0.000000,4.000000,4.000000,4.000000,4.000000,4.000000,4.000000,4.000000,4.000000,4.000000,4.000000,4.000000,4.000000,4.000000,4.000000,100.000000,,,,,,,,,,,,,,,,
1644852939.909189,121.000000,0.000000,4208.333496,4198.461426,4205.897461,4209.102539,4211.794922,4200.256348,4209.230957,4205.641113,4201.025879,4205.769043,4202.307617,4190.000000,4194.487305,4190.000000,0.000000,4.000000,91.000000,,,,0.000000,4.000000,4.000000,4.000000,4.000000,4.000000,4.000000,4.000000,4.000000,4.000000,4.000000,4.000000,4.000000,4.000000,4.000000,100.000000,,,,,,,,,,,,,,,,
1644852939.913129,122.000000,0.000000,4217.820313,4205.641113,4209.743652,4196.794922,4216.282227,4203.205078,4213.333496,4207.307617,4203.077148,4208.205078,4205.384766,4196.922852,4200.384766,4196.410156,0.000000,4.000000,91.000000,,,,0.000000,4.000000,4.000000,4.000000,4.000000,4.000000,4.000000,4.000000,4.000000,4.000000,4.000000,4.000000,4.000000,4.000000,4.000000,100.000000,,,,,,,,,,,,,,,,
1644852939.917069,123.000000,0.000000,4216.794922,4208.333496,4207.820313,4183.717773,4213.461426,4201.410156,4211.922852,4203.205078,4200.384766,4204.743652,4199.615234,4197.307617,4198.974121,4195.000000,0.000000,4.000000,91.000000,,,,0.000000,4.000000,4.000000,4.000000,4.000000,4.000000,4.000000,4.000000,4.000000,4.000000,4.000000,4.000000,4.000000,4.000000,4.000000,100.000000,,,,,,,,,,,,,,,,
1644852939.921009,124.000000,0.000000,4212.436035,4207.948730,4202.563965,4179.358887,4207.692383,4197.051270,4206.794922,4197.307617,4195.897461,4197.436035,4191.538574,4194.230957,4192.692383,4187.692383,0.000000,4.000000,91.000000,,,,0.000000,4.000000,4.000000,4.000000,4.000000,4.000000,4.000000,4.000000,4.000000,4.000000,4.000000,4.000000,4.000000,4.000000,4.000000,100.000000,,,,,,,,,,,,,,,,
1644852939.924949,125.000000,0.000000,4211.922852,4207.820313,4198.077148,4186.922852,4204.230957,4194.615234,4202.948730,4195.128418,4193.717773,4191.025879,4189.871582,4192.307617,4186.025879,4181.153809,0.000000,4.000000,91.000000,,,,0.000000,4.000000,4.000000,4.000000,4.000000,4.000000,4.000000,4.000000,4.000000,4.000000,4.000000,4.000000,4.000000,4.000000,4.000000,100.000000,,,,,,,,,,,,,,,,
1644852939.928890,126.000000,0.000000,4215.769043,4209.487305,4196.538574,4202.563965,4204.871582,4195.897461,4203.333496,4199.230957,4195.769043,4189.358887,4198.589844,4194.102539,4182.436035,4181.282227,0.000000,4.000000,91.000000,,,,0.000000,4.000000,4.000000,4.000000,4.000000,4.000000,4.000000,4.000000,4.000000,4.000000,4.000000,4.000000,4.000000,4.000000,4.000000,100.000000,,,,,,,,,,,,,,,,
1644852939.932830,127.000000,0.000000,4219.358887,4211.153809,4199.102539,4219.487305,4207.692383,4199.743652,4206.538574,4207.051270,4201.153809,4193.846191,4214.487305,4199.487305,4183.205078,4188.333496,0.000000,4.000000,91.000000,,,,0.000000,4.000000,4.000000,4.000000,4.000000,4.000000,4.000000,4.000000,4.000000,4.000000,4.000000,4.000000,4.000000,4.000000,4.000000,100.000000,,,,,,,,,,,,,,,,
1644852939.936770,128.000000,0.000000,4218.846191,4209.871582,4204.871582,4231.410156,4209.871582,4202.563965,4209.102539,4213.077148,4206.538574,4202.436035,4229.102539,4206.153809,4187.179688,4197.692383,3401.000000,4.000000,91.000000,,,,0.000000,4.000000,4.000000,4.000000,4.000000,4.000000,4.000000,4.000000,4.000000,4.000000,4.000000,4.000000,4.000000,4.000000,4.000000,100.000000,,,,,,,,,,,,,,,,
1644852939.940710,129.000000,0.000000,4214.102539,4204.871582,4212.179688,4233.205078,4208.717773,4202.436035,4208.974121,4213.846191,4209.615234,4210.384766,4233.974121,4211.025879,4191.666504,4204.358887,3134.000000,4.000000,91.000000,,,,0.000000,4.000000,4.000000,4.000000,4.000000,4.000000,4.000000,4.000000,4.000000,4.000000,4.000000,4.000000,4.000000,4.000000,4.000000,100.000000,,,,,,,,,,,,,,,,
1644852939.944650,130.000000,0.000000,4208.717773,4198.077148,4217.692383,4221.794922,4203.717773,4199.743652,4207.692383,4210.256348,4209.487305,4212.563965,4226.410156,4210.897461,4193.717773,4206.282227,3531.000000,4.000000,91.000000,,,,0.000000,4.000000,4.000000,4.000000,4.000000,4.000000,4.000000,4.000000,4.000000,4.000000,4.000000,4.000000,4.000000,4.000000,4.000000,100.000000,,,,,,,,,,,,,,,,
1644852939.948590,131.000000,0.000000,4205.256348,4192.948730,4218.717773,4198.846191,4197.179688,4196.794922,4206.922852,4206.410156,4207.179688,4208.333496,4211.666504,4205.128418,4192.692383,4205.769043,3577.000000,4.000000,91.000000,,,,0.000000,4.000000,4.000000,4.000000,4.000000,4.000000,4.000000,4.000000,4.000000,4.000000,4.000000,4.000000,4.000000,4.000000,4.000000,100.000000,,,,,,,,,,,,,,,,
1644852939.952530,132.000000,0.000000,4203.846191,4192.051270,4214.358887,4173.974121,4192.563965,4195.769043,4206.538574,4204.871582,4204.743652,4202.307617,4199.487305,4196.794922,4189.871582,4204.615234,3533.000000,4.000000,91.000000,,,,0.000000,4.000000,4.000000,4.000000,4.000000,4.000000,4.000000,4.000000,4.000000,4.000000,4.000000,4.000000,4.000000,4.000000,4.000000,100.000000,,,,,,,,,,,,,,,,
1644852939.956470,133.000000,0.000000,4203.461426,4195.000000,4206.666504,4161.153809,4192.563965,4197.179688,4205.641113,4205.384766,4203.717773,4200.897461,4197.051270,4191.410156,4188.077148,4202.436035,3370.000000,4.000000,91.000000,,,,0.000000,4.000000,4.000000,4.000000,4.000000,4.000000,4.000000,4.000000,4.000000,4.000000,4.000000,4.000000,4.000000,4.000000,4.000000,100.000000,,,,,,,,,,,,,,,,
1644852939.960410,134.000000,0.000000,4203.846191,4199.871582,4199.487305,4169.615234,4196.922852,4199.871582,4205.000000,4206.153809,4204.102539,4205.641113,4203.846191,4191.666504,4188.846191,4196.410156,2520.000000,4.000000,91.000000,,,,0.000000,4.000000,4.000000,4.000000,4.000000,4.000000,4.000000,4.000000,4.000000,4.000000,4.000000,4.000000,4.000000,4.000000,4.000000,100.000000,,,,,,,,,,,,,,,,
1644852939.964351,135.000000,0.000000,4205.897461,4203.974121,4196.666504,4195.641113,4203.077148,4202.307617,4206.153809,4205.769043,4204.487305,4210.641113,4212.820313,4195.769043,4192.692383,4186.666504,2686.000000,4.000000,91.000000,,,,0.000000,4.000000,4.000000,4.000000,4.000000,4.000000,4.000000,4.000000,4.000000,4.000000,4.000000,4.000000,4.000000,4.000000,4.000000,100.000000,,,,,,,,,,,,,,,,
1644852939.968291,136.000000,0.000000,4209.743652,4206.282227,4199.102539,4224.487305,4208.077148,4203.333496,4209.102539,4204.743652,4203.717773,4209.230957,4217.563965,4199.230957,4198.846191,4178.077148,3258.000000,4.000000,91.000000,,,,0.000000,4.000000,4.000000,4.000000,4.000000,4.000000,4.000000,4.000000,4.000000,4.000000,4.000000,4.000000,4.000000,4.000000,4.000000,100.000000,,,,,,,,,,,,,,,,
1644852939.972231,137.000000,0.000000,4213.846191,4207.051270,4204.102539,4240.128418,4209.615234,4202.948730,4211.538574,4204.487305,4202.820313,4200.641113,4217.436035,4198.205078,4204.358887,4177.179688,3298.000000,4.000000,91.000000,,,,0.000000,4.000000,4.000000,4.000000,4.000000,4.000000,4.000000,4.000000,4.000000,4.000000,4.000000,4.000000,4.000000,4.000000,4.000000,100.000000,,,,,,,,,,,,,,,,
1644852939.976171,138.000000,0.000000,4215.384766,4206.410156,4206.538574,4235.384766,4206.282227,4201.666504,4210.769043,4205.384766,4203.077148,4190.897461,4215.000000,4192.179688,4205.128418,4184.615234,3526.000000,4.000000,91.000000,,,,0.000000,4.000000,4.000000,4.000000,4.000000,4.000000,4.000000,4.000000,4.000000,4.000000,4.000000,4.000000,4.000000,4.000000,4.000000,100.000000,,,,,,,,,,,,,,,,
1644852939.980011,139.000000,0.000000,4212.436035,4203.974121,4203.205078,4215.384766,4200.384766,4200.641113,4207.179688,4206.282227,4204.871582,4187.179688,4212.051270,4183.333496,4198.717773,4193.717773,3415.000000,4.000000,91.000000,,,,0.000000,4.000000,4.000000,4.000000,4.000000,4.000000,4.000000,4.000000,4.000000,4.000000,4.000000,4.000000,4.000000,4.000000,4.000000,100.000000,,,,,,,,,,,,,,,,
1644852939.983951,140.000000,0.000000,4206.153809,4199.743652,4195.128418,4193.589844,4196.666504,4200.641113,4204.487305,4206.410156,4206.282227,4192.051270,4208.717773,4176.153809,4187.948730,4196.794922,3462.000000,4.000000,91.000000,,,,0.000000,4.000000,4.000000,4.000000,4.000000,4.000000,4.000000,4.000000,4.000000,4.000000,4.000000,4.000000,4.000000,4.000000,4.000000,100.000000,,,,,,,,,,,,,,,,
1644852939.987891,141.000000,0.000000,4200.000000,4196.025879,4187.692383,4183.589844,4199.743652,4202.436035,4205.641113,4206.153809,4206.282227,4202.692383,4205.128418,4175.000000,4179.487305,4190.769043,3284.000000,4.000000,91.000000,,,,0.000000,4.000000,4.000000,4.000000,4.000000,4.000000,4.000000,4.000000,4.000000,4.000000,4.000000,4.000000,4.000000,4.000000,4.000000,100.000000,,,,,,,,,,,,,,,,
1644852939.991831,142.000000,0.000000,4197.563965,4196.794922,4186.282227,4189.230957,4210.128418,4206.025879,4209.615234,4206.794922,4206.153809,4212.948730,4203.717773,4181.025879,4179.743652,4180.384766,3526.000000,4.000000,91.000000,,,,0.000000,4.000000,4.000000,4.000000,4.000000,4.000000,4.000000,4.000000,4.000000,4.000000,4.000000,4.000000,4.000000,4.000000,4.000000,100.000000,,,,,,,,,,,,,,,,
1644852939.995871,143.000000,0.000000,4200.256348,4203.461426,4191.922852,4202.692383,4222.307617,4210.641113,4212.948730,4209.358887,4207.948730,4218.589844,4207.179688,4190.897461,4189.487305,4173.333496,3415.000000,4.000000,91.000000,,,,0.000000,4.000000,4.000000,4.000000,4.000000,4.000000,4.000000,4.000000,4.000000,4.000000,4.000000,4.000000,4.000000,4.000000,4.000000,100.000000,,,,,,,,,,,,,,,,
1644852939.999811,144.000000,0.000000,4205.769043,4213.333496,4200.256348,4211.410156,4227.179688,4214.102539,4213.205078,4212.948730,4212.179688,4218.974121,4215.128418,4198.461426,4202.948730,4173.974121,3462.000000,4.000000,91.000000,,,,0.000000,4.000000,4.000000,4.000000,4.000000,4.000000,4.000000,4.000000,4.000000,4.000000,4.000000,4.000000,4.000000,4.000000,4.000000,100.000000,,,,,,,,,,,,,,,,
1644852940.003752,145.000000,0.000000,4209.871582,4219.743652,4205.000000,4208.717773,4219.230957,4214.871582,4211.538574,4215.384766,4216.282227,4216.666504,4222.436035,4198.589844,4211.282227,4180.769043,3284.000000,4.000000,91.000000,,,,0.000000,4.000000,4.000000,4.000000,4.000000,4.000000,4.000000,4.000000,4.000000,4.000000,4.000000,4.000000,4.000000,4.000000,4.000000,100.000000,,,,,,,,,,,,,,,,
1644852940.007692,146.000000,0.000000,4208.461426,4217.563965,4202.820313,4197.948730,4201.666504,4213.077148,4210.000000,4214.358887,4216.922852,4214.230957,4222.948730,4191.025879,4210.128418,4187.820313,3526.000000,4.000000,91.000000,,,,0.000000,4.000000,4.000000,4.000000,4.000000,4.000000,4.000000,4.000000,4.000000,4.000000,4.000000,4.000000,4.000000,4.000000,4.000000,100.000000,,,,,,,,,,,,,,,,
1644852940.011632,147.000000,0.000000,4201.538574,4206.282227,4194.871582,4188.333496,4185.512695,4209.615234,4208.974121,4210.000000,4213.461426,4211.282227,4213.846191,4180.641113,4201.922852,4189.615234,3415.000000,4.000000,91.000000,,,,0.000000,4.000000,4.000000,4.000000,4.000000,4.000000,4.000000,4.000000,4.000000,4.000000,4.000000,4.000000,4.000000,4.000000,4.000000,100.000000,,,,,,,,,,,,,,,,
1644852940.015472,148.000000,0.000000,4193.205078,4192.051270,4186.025879,4185.641113,4180.769043,4206.410156,4207.307617,4204.743652,4208.077148,4205.512695,4200.256348,4173.589844,4193.589844,4185.000000,3462.000000,4.000000,91.000000,,,,0.000000,4.000000,4.000000,4.000000,4.000000,4.000000,4.000000,4.000000,4.000000,4.000000,4.000000,4.000000,4.000000,4.000000,4.000000,100.000000,,,,,,,,,,,,,,,,
1644852940.019412,149.000000,0.000000,4188.589844,4182.436035,4181.922852,4189.615234,4188.846191,4204.102539,4205.000000,4202.051270,4203.717773,4196.153809,4191.153809,4173.461426,4190.512695,4177.179688,3284.000000,4.000000,91.000000,2,1,0,0.000000,4.000000,4.000000,4.000000,4.000000,4.000000,4.000000,4.000000,4.000000,4.000000,4.000000,4.000000,4.000000,4.000000,4.000000,100.000000,,,,,,,,,,,,,,,,
1644852940.023352,150.000000,0.000000,4189.615234,4182.307617,4185.384766,4197.051270,4201.794922,4202.436035,4203.974121,4202.820313,4202.051270,4185.897461,4193.461426,4178.974121,4192.692383,4171.282227,3526.000000,4.000000,91.000000,,,,0.000000,4.000000,4.000000,4.000000,4.000000,4.000000,4.000000,4.000000,4.000000,4.000000,4.000000,4.000000,4.000000,4.000000,4.000000,100.000000,,,,,,,,,,,,,,,,
1644852940.027292,151.000000,0.000000,4193.846191,4189.871582,4193.717773,4204.871582,4210.000000,4200.641113,4205.256348,4205.256348,4202.563965,4180.128418,4206.153809,4186.153809,4195.769043,4169.743652,3415.000000,4.000000,91.000000,,,,0.000000,4.000000,4.000000,4.000000,4.000000,4.000000,4.000000,4.000000,4.000000,4.000000,4.000000,4.000000,4.000000,4.000000,4.000000,100.000000,,,,,,,,,,,,,,,,
1644852940.031232,152.000000,0.000000,4196.922852,4198.974121,4200.512695,4211.282227,4208.717773,4198.461426,4207.436035,4206.025879,4203.846191,4183.333496,4220.384766,4190.769043,4195.641113,4171.153809,3462.000000,4.000000,91.000000,,,,0.000000,4.000000,4.000000,4.000000,4.000000,4.000000,4.000000,4.000000,4.000000,4.000000,4.000000,4.000000,4.000000,4.000000,4.000000,100.000000,,,,,,,,,,,,,,,,
1644852940.035173,153.000000,0.000000,4196.794922,4203.333496,4200.256348,4213.717773,4201.025879,4197.307617,4207.948730,4203.717773,4205.128418,4195.128418,4226.794922,4190.769043,4192.179688,4172.051270,3284.000000,4.000000,91.000000,,,,0.000000,4.000000,4.000000,4.000000,4.000000,4.000000,4.000000,4.000000,4.000000,4.000000,4.000000,4.000000,4.000000,4.000000,4.000000,100.000000,,,,,,,,,,,,,,,,
1644852940.039013,154.000000,0.000000,4194.487305,4200.256348,4193.205078,4209.487305,4193.974121,4198.205078,4206.410156,4199.615234,4205.384766,4209.358887,4221.410156,4187.563965,4188.589844,4171.282227,3526.000000,4.000000,91.000000,,,,0.000000,4.000000,4.000000,4.000000,4.000000,4.000000,4.000000,4.000000,4.000000,4.000000,4.000000,4.000000,4.000000,4.000000,4.000000,100.000000,,,,,,,,,,,,,,,,
1644852940.042953,155.000000,0.000000,4192.436035,4192.307617,4184.871582,4198.846191,4193.333496,4200.769043,4205.384766,4196.922852,4204.743652,4217.692383,4208.333496,4183.974121,4188.589844,4170.384766,3415.000000,4.000000,91.000000,,,,0.000000,4.000000,4.000000,4.000000,4.000000,4.000000,4.000000,4.000000,4.000000,4.000000,4.000000,4.000000,4.000000,4.000000,4.000000,100.000000,,,,,,,,,,,,,,,,
1644852940.046893,156.000000,0.000000,4192.820313,4185.641113,4181.410156,4186.794922,4199.487305,4203.717773,4207.179688,4197.563965,4203.974121,4216.282227,4195.897461,4183.205078,4192.563965,4171.538574,3462.000000,4.000000,91.000000,,,,0.000000,4.000000,4.000000,4.000000,4.000000,4.000000,4.000000,4.000000,4.000000,4.000000,4.000000,4.000000,4.000000,4.000000,4.000000,100.000000,,,,,,,,,,,,,,,,
1644852940.050833,157.000000,0.000000,4196.794922,4185.512695,4185.128418,4180.512695,4207.436035,4206.153809,4210.769043,4200.641113,4203.974121,4207.692383,4191.282227,4186.153809,4197.692383,4175.512695,3284.000000,4.000000,91.000000,,,,0.000000,4.000000,4.000000,4.000000,4.000000,4.000000,4.000000,4.000000,4.000000,4.000000,4.000000,4.000000,4.000000,4.000000,4.000000,100.000000,,,,,,,,,,,,,,,,
1644852940.054773,158.000000,0.000000,4202.820313,4193.077148,4193.589844,4184.358887,4211.282227,4207.820313,4212.820313,4203.333496,4204.743652,4198.461426,4195.512695,4192.179688,4200.512695,4180.384766,3526.000000,4.000000,91.000000,,,,0.000000,4.000000,4.000000,4.000000,4.000000,4.000000,4.000000,4.000000,4.000000,4.000000,4.000000,4.000000,4.000000,4.000000,4.000000,100.000000,,,,,,,,,,,,,,,,
1644852940.058713,159.000000,0.000000,4208.205078,4203.589844,4202.051270,4196.282227,4209.230957,4208.717773,4211.410156,4202.948730,4204.871582,4194.487305,4203.974121,4199.102539,4199.743652,4183.461426,3415.000000,4.000000,91.000000,,,,0.000000,4.000000,4.000000,4.000000,4.000000,4.000000,4.000000,4.000000,4.000000,4.000000,4.000000,4.000000,4.000000,4.000000,4.000000,100.000000,,,,,,,,,,,,,,,,
1644852940.062653,160.000000,0.000000,4210.128418,4209.871582,4206.666504,4209.230957,4204.487305,4208.589844,4208.333496,4199.487305,4202.820313,4197.051270,4210.641113,4204.230957,4196.410156,4183.333496,3462.000000,4.000000,91.000000,,,,0.000000,4.000000,4.000000,4.000000,4.000000,4.000000,4.000000,4.000000,4.000000,4.000000,4.000000,4.000000,4.000000,4.000000,4.000000,100.000000,,,,,,,,,,,,,,,,
1644852940.066593,161.000000,0.000000,4208.333496,4207.948730,4206.153809,4216.282227,4202.051270,4207.179688,4206.538574,4195.128418,4199.358887,4203.717773,4212.563965,4205.384766,4192.948730,4180.384766,3284.000000,4.000000,91.000000,,,,0.000000,4.000000,4.000000,4.000000,4.000000,4.000000,4.000000,4.000000,4.000000,4.000000,4.000000,4.000000,4.000000,4.000000,4.000000,100.000000,,,,,,,,,,,,,,,,
1644852940.070534,162.000000,0.000000,4206.153809,4200.000000,4202.307617,4214.743652,4203.974121,4204.615234,4206.538574,4192.179688,4196.666504,4209.871582,4210.641113,4201.538574,4192.563965,4177.820313,3526.000000,4.000000,91.000000,,,,0.000000,4.000000,4.000000,4.000000,4.000000,4.000000,4.000000,4.000000,4.000000,4.000000,4.000000,4.000000,4.000000,4.000000,4.000000,100.000000,,,,,,,,,,,,,,,,
1644852940.074474,163.000000,0.000000,4207.179688,4192.948730,4198.205078,4207.179688,4207.692383,4201.922852,4206.153809,4191.794922,4197.051270,4212.179688,4207.820313,4194.615234,4196.666504,4178.717773,3415.000000,4.000000,91.000000,,,,0.000000,4.000000,4.000000,4.000000,4.000000,4.000000,4.000000,4.000000,4.000000,4.000000,4.000000,4.000000,4.000000,4.000000,4.000000,100.000000,,,,,,,,,,,,,,,,
1644852940.078414,164.000000,0.000000,4212.436035,4192.948730,4196.538574,4199.871582,4208.077148,4200.256348,4204.102539,4193.333496,4200.384766,4210.000000,4206.153809,4188.205078,4203.717773,4184.102539,3462.000000,4.000000,91.000000,,,,0.000000,4.000000,4.000000,4.000000,4.000000,4.000000,4.000000,4.000000,4.000000,4.000000,4.000000,4.000000,4.000000,4.000000,4.000000,100.000000,,,,,,,,,,,,,,,,
1644852940.082354,165.000000,0.000000,4218.717773,4201.153809,4198.205078,4198.077148,4203.846191,4200.384766,4202.436035,4195.769043,4204.487305,4206.922852,4206.666504,4185.641113,4209.615234,4192.051270,3284.000000,4.000000,91.000000,,,,0.000000,4.000000,4.000000,4.000000,4.000000,4.000000,4.000000,4.000000,4.000000,4.000000,4.000000,4.000000,4.000000,4.000000,4.000000,100.000000,,,,,,,,,,,,,,,,
1644852940.086294,166.000000,0.000000,4221.794922,4213.461426,4201.922852,4202.436035,4200.128418,4202.436035,4203.589844,4198.717773,4207.820313,4206.794922,4209.487305,4187.948730,4211.153809,4198.974121,3526.000000,4.000000,91.000000,,,,0.000000,4.000000,4.000000,4.000000,4.000000,4.000000,4.000000,4.000000,4.000000,4.000000,4.000000,4.000000,4.000000,4.000000,4.000000,100.000000,,,,,,,,,,,,,,,,
1644852940.090234,167.000000,0.000000,4218.717773,4223.974121,4205.128418,4207.307617,4203.205078,4205.897461,4207.179688,4202.692383,4210.512695,4211.666504,4214.102539,4193.461426,4209.230957,4201.666504,3415.000000,4.000000,91.000000,,,,0.000000,4.000000,4.000000,4.000000,4.000000,4.000000,4.000000,4.000000,4.000000,4.000000,4.000000,4.000000,4.000000,4.000000,4.000000,100.000000,,,,,,,,,,,,,,,,
1644852940.094174,168.000000,0.000000,4210.128418,4228.077148,4205.641113,4207.051270,4214.102539,4210.000000,4209.743652,4207.307617,4213.333496,4219.102539,4217.692383,4198.717773,4207.307617,4199.230957,3462.000000,4.000000,91.000000,,,,0.000000,4.000000,4.000000,4.000000,4.000000,4.000000,4.000000,4.000000,4.000000,4.000000,4.000000,4.000000,4.000000,4.000000,4.000000,100.000000,,,,,,,,,,,,,,,,
1644852940.098114,169.000000,0.000000,4200.000000,4224.743652,4203.205078,4202.179688,4226.025879,4213.846191,4209.358887,4211.410156,4216.794922,4223.717773,4217.563965,4200.897461,4207.436035,4193.461426,3284.000000,4.000000,91.000000,,,,0.000000,4.000000,4.000000,4.000000,4.000000,4.000000,4.000000,4.000000,4.000000,4.000000,4.000000,4.000000,4.000000,4.000000,4.000000,100.000000,,,,,,,,,,,,,,,,
1644852940.102054,170.000000,0.000000,4192.948730,4215.769043,4199.743652,4199.743652,4230.384766,4216.666504,4207.563965,4213.974121,4220.000000,4221.666504,4212.948730,4199.230957,4207.820313,4186.794922,3526.000000,4.000000,91.000000,,,,0.000000,4.000000,4.000000,4.000000,4.000000,4.000000,4.000000,4.000000,4.000000,4.000000,4.000000,4.000000,4.000000,4.000000,4.000000,100.000000,1.000000,58.333332,4.000000,4.000000,4.000000,4.000000,3.000000,4.000000,1.000000,4.000000,4.000000,4.000000,4.000000,4.000000,4.000000,3.000000
1644852940.105895,171.000000,0.000000,4192.179688,4205.512695,4197.692383,4206.153809,4222.820313,4217.820313,4207.692383,4215.256348,4221.922852,4214.487305,4207.307617,4195.256348,4204.871582,4180.897461,3415.000000,4.000000,91.000000,,,,0.000000,4.000000,4.000000,4.000000,4.000000,4.000000,4.000000,4.000000,4.000000,4.000000,4.000000,4.000000,4.000000,4.000000,4.000000,100.000000,,,,,,,,,,,,,,,,
1644852940.109835,172.000000,0.000000,4197.179688,4197.948730,4198.205078,4219.487305,4207.179688,4217.051270,4209.871582,4215.512695,4221.538574,4207.820313,4204.871582,4191.025879,4197.563965,4175.897461,3462.000000,4.000000,91.000000,,,,0.000000,4.000000,4.000000,4.000000,4.000000,4.000000,4.000000,4.000000,4.000000,4.000000,4.000000,4.000000,4.000000,4.000000,4.000000,100.000000,,,,,,,,,,,,,,,,
1644852940.113775,173.000000,0.000000,4203.077148,4195.512695,4199.743652,4228.589844,4192.692383,4214.230957,4210.512695,4214.230957,4219.230957,4206.666504,4206.538574,4187.948730,4188.974121,4171.922852,3284.000000,4.000000,91.000000,,,,0.000000,4.000000,4.000000,4.000000,4.000000,4.000000,4.000000,4.000000,4.000000,4.000000,4.000000,4.000000,4.000000,4.000000,4.000000,100.000000,,,,,,,,,,,,,,,,
1644852940.117715,174.000000,0.000000,4203.846191,4196.794922,4199.743652,4223.077148,4187.948730,4210.000000,4207.051270,4210.000000,4215.128418,4210.256348,4208.974121,4186.666504,4184.358887,4168.974121,3526.000000,4.000000,91.000000,3,1,0,0.000000,4.000000,4.000000,4.000000,4.000000,4.000000,4.000000,4.000000,4.000000,4.000000,4.000000,4.000000,4.000000,4.000000,4.000000,100.000000,,,,,,,,,,,,,,,,
1644852940.121655,175.000000,0.000000,4197.563965,4198.589844,4196.794922,4202.692383,4194.487305,4205.128418,4201.153809,4203.461426,4209.358887,4213.333496,4207.948730,4186.153809,4187.179688,4167.436035,3415.000000,4.000000,91.000000,,,,0.000000,4.000000,4.000000,4.000000,4.000000,4.000000,4.000000,4.000000,4.000000,4.000000,4.000000,4.000000,4.000000,4.000000,4.000000,100.000000,,,,,,,,,,,,,,,,
1644852940.125595,176.000000,0.000000,4188.589844,4198.589844,4191.666504,4179.871582,4205.512695,4201.282227,4197.563965,4196.282227,4202.820313,4210.897461,4203.205078,4184.871582,4195.512695,4166.410156,3462.000000,4.000000,91.000000,,,,0.000000,4.000000,4.000000,4.000000,4.000000,4.000000,4.000000,4.000000,4.000000,4.000000,4.000000,4.000000,4.000000,4.000000,4.000000,100.000000,,,,,,,,,,,,,,,,
1644852940.129535,177.000000,0.000000,4183.974121,4198.333496,4187.051270,4170.512695,4213.077148,4200.000000,4198.333496,4190.641113,4196.794922,4203.077148,4199.102539,4182.563965,4203.717773,4165.897461,3284.000000,4.000000,91.000000,,,,0.000000,4.000000,4.000000,4.000000,4.000000,4.000000,4.000000,4.000000,4.000000,4.000000,4.000000,4.000000,4.000000,4.000000,4.000000,100.000000,,,,,,,,,,,,,,,,
1644852940.133475,178.000000,0.000000,4186.922852,4201.153809,4185.128418,4181.282227,4213.205078,4201.282227,4201.282227,4187.948730,4193.333496,4195.384766,4200.128418,4180.769043,4206.666504,4166.538574,3526.000000,4.000000,91.000000,,,,0.000000,4.000000,4.000000,4.000000,4.000000,4.000000,4.000000,4.000000,4.000000,4.000000,4.000000,4.000000,4.000000,4.000000,4.000000,100.000000,,,,,,,,,,,,,,,,
1644852940.137415,179.000000,0.000000,4195.512695,4208.205078,4186.922852,4204.487305,4208.717773,4203.974121,4203.333496,4188.846191,4194.102539,4193.846191,4206.922852,4182.051270,4203.589844,4169.230957,3415.000000,4.000000,91.000000,,,,0.000000,4.000000,4.000000,4.000000,4.000000,4.000000,4.000000,4.000000,4.000000,4.000000,4.000000,4.000000,4.000000,4.000000,4.000000,100.000000,,,,,,,,,,,,,,,,
1644852940.141356,180.000000,0.000000,4204.102539,4216.794922,4191.794922,4223.974121,4204.871582,4207.307617,4203.974121,4193.205078,4199.358887,4199.487305,4215.897461,4187.820313,4197.563965,4173.717773,3462.000000,4.000000,91.000000,,,,0.000000,4.000000,4.000000,4.000000,4.000000,4.000000,4.000000,4.000000,4.000000,4.000000,4.000000,4.000000,4.000000,4.000000,4.000000,100.000000,,,,,,,,,,,,,,,,
1644852940.145296,181.000000,0.000000,4208.589844,4221.922852,4198.077148,4227.307617,4204.358887,4211.025879,4205.384766,4199.615234,4206.922852,4207.820313,4222.436035,4195.897461,4192.820313,4178.846191,3284.000000,4.000000,91.000000,,,,0.000000,4.000000,4.000000,4.000000,4.000000,4.000000,4.000000,4.000000,4.000000,4.000000,4.000000,4.000000,4.000000,4.000000,4.000000,100.000000,,,,,,,,,,,,,,,,
1644852940.149236,182.000000,0.000000,4207.436035,4220.384766,4203.205078,4214.230957,4206.153809,4214.615234,4207.948730,4205.000000,4212.692383,4212.692383,4223.974121,4201.794922,4191.666504,4182.307617,3526.000000,4.000000,91.000000,,,,0.000000,4.000000,4.000000,4.000000,4.000000,4.000000,4.000000,4.000000,4.000000,4.000000,4.000000,4.000000,4.000000,4.000000,4.000000,100.000000,,,,,,,,,,,,,,,,
1644852940.153176,183.000000,0.000000,4201.922852,4213.333496,4204.743652,4196.282227,4208.333496,4216.794922,4209.615234,4206.282227,4213.461426,4211.666504,4221.025879,4200.897461,4193.077148,4183.333496,3415.000000,4.000000,91.000000,,,,0.000000,4.000000,4.000000,4.000000,4.000000,4.000000,4.000000,4.000000,4.000000,4.000000,4.000000,4.000000,4.000000,4.000000,4.000000,100.000000,,,,,,,,,,,,,,,,
1644852940.157116,184.000000,0.000000,4194.743652,4205.000000,4201.794922,4186.794922,4209.743652,4215.769043,4208.461426,4202.948730,4209.487305,4207.051270,4215.256348,4192.692383,4194.358887,4182.179688,3462.000000,4.000000,91.000000,,,,0.000000,4.000000,4.000000,4.000000,4.000000,4.000000,4.000000,4.000000,4.000000,4.000000,4.000000,4.000000,4.000000,4.000000,4.000000,100.000000,,,,,,,,,,,,,,,,
1644852940.161056,185.000000,0.000000,4189.358887,4200.641113,4196.538574,4191.666504,4210.512695,4211.410156,4205.769043,4197.563965,4204.102539,4202.948730,4208.461426,4182.307617,4194.615234,4180.128418,3284.000000,4.000000,91.000000,,,,0.000000,4.000000,4.000000,4.000000,4.000000,4.000000,4.000000,4.000000,4.000000,4.000000,4.000000,4.000000,4.000000,4.000000,4.000000,100.000000,,,,,,,,,,,,,,,,
1644852940.164996,186.000000,0.000000,4188.461426,4202.436035,4192.948730,4206.666504,4210.128418,4205.641113,4204.615234,4195.000000,4201.538574,4202.179688,4202.563965,4176.794922,4195.897461,4178.974121,3526.000000,4.000000,91.000000,,,,0.000000,4.000000,4.000000,4.000000,4.000000,4.000000,4.000000,4.000000,4.000000,4.000000,4.000000,4.000000,4.000000,4.000000,4.000000,100.000000,,,,,,,,,,,,,,,,
1644852940.168936,187.000000,0.000000,4193.205078,4208.461426,4193.717773,4222.307617,4207.051270,4201.794922,4206.025879,4198.333496,4204.230957,4204.871582,4200.769043,4180.512695,4200.641113,4179.487305,3415.000000,4.000000,91.000000,,,,0.000000,4.000000,4.000000,4.000000,4.000000,4.000000,4.000000,4.000000,4.000000,4.000000,4.000000,4.000000,4.000000,4.000000,4.000000,100.000000,,,,,,,,,,,,,,,,
1644852940.172876,188.000000,0.000000,4202.563965,4214.615234,4198.077148,4230.128418,4201.410156,4202.307617,4208.333496,4205.897461,4210.897461,4209.871582,4206.025879,4191.282227,4209.102539,4181.538574,3462.000000,4.000000,91.000000,,,,0.000000,4.000000,4.000000,4.000000,4.000000,4.000000,4.000000,4.000000,4.000000,4.000000,4.000000,4.000000,4.000000,4.000000,4.000000,100.000000,,,,,,,,,,,,,,,,
1644852940.176817,189.000000,0.000000,4213.205078,4216.794922,4202.563965,4226.410156,4196.025879,4206.538574,4209.230957,4213.205078,4217.820313,4215.769043,4217.563965,4200.897461,4218.205078,4185.256348,3284.000000,4.000000,91.000000,,,,0.000000,4.000000,4.000000,4.000000,4.000000,4.000000,4.000000,4.000000,4.000000,4.000000,4.000000,4.000000,4.000000,4.000000,4.000000,100.000000,,,,,,,,,,,,,,,,
1644852940.180657,190.000000,0.000000,4221.025879,4213.461426,4204.102539,4214.487305,4194.487305,4211.282227,4208.717773,4216.282227,4221.153809,4220.384766,4229.102539,4202.436035,4223.589844,4190.384766,3526.000000,4.000000,91.000000,,,,0.000000,4.000000,4.000000,4.000000,4.000000,4.000000,4.000000,4.000000,4.000000,4.000000,4.000000,4.000000,4.000000,4.000000,4.000000,100.000000,,,,,,,,,,,,,,,,
1644852940.184597,191.000000,0.000000,4221.794922,4207.051270,4202.436035,4202.179688,4198.205078,4213.333496,4209.102539,4214.871582,4219.871582,4220.897461,4233.077148,4195.512695,4222.307617,4195.128418,3415.000000,4.000000,91.000000,,,,0.000000,4.000000,4.000000,4.000000,4.000000,4.000000,4.000000,4.000000,4.000000,4.000000,4.000000,4.000000,4.000000,4.000000,4.000000,100.000000,,,,,,,,,,,,,,,,
1644852940.188537,192.000000,0.000000,4215.384766,4202.307617,4200.256348,4197.563965,4205.256348,4212.307617,4211.282227,4211.666504,4215.897461,4216.025879,4226.794922,4187.179688,4215.384766,4196.538574,3462.000000,4.000000,91.000000,,,,0.000000,4.000000,4.000000,4.000000,4.000000,4.000000,4.000000,4.000000,4.000000,4.000000,4.000000,4.000000,4.000000,4.000000,4.000000,100.000000,,,,,,,,,,,,,,,,
1644852940.192477,193.000000,0.000000,4206.410156,4202.563965,4199.871582,4202.948730,4210.769043,4210.000000,4213.205078,4209.487305,4212.692383,4208.205078,4215.384766,4185.256348,4207.307617,4192.179688,3284.000000,4.000000,91.000000,,,,0.000000,4.000000,4.000000,4.000000,4.000000,4.000000,4.000000,4.000000,4.000000,4.000000,4.000000,4.000000,4.000000,4.000000,4.000000,100.000000,,,,,,,,,,,,,,,,
1644852940.196417,194.000000,0.000000,4201.153809,4206.410156,4201.666504,4212.948730,4210.000000,4208.717773,4212.820313,4208.974121,4212.436035,4202.948730,4207.179688,4191.922852,4202.563965,4183.205078,3526.000000,4.000000,91.000000,,,,0.000000,4.000000,4.000000,4.000000,4.000000,4.000000,4.000000,4.000000,4.000000,4.000000,4.000000,4.000000,4.000000,4.000000,4.000000,100.000000,,,,,,,,,,,,,,,,
1644852940.200257,195.000000,0.000000,4203.077148,4209.615234,4203.717773,4219.358887,4201.666504,4209.230957,4210.256348,4209.102539,4214.102539,4204.358887,4207.307617,4201.538574,4202.307617,4174.358887,3415.000000,4.000000,91.000000,,,,0.000000,4.000000,4.000000,4.000000,4.000000,4.000000,4.000000,4.000000,4.000000,4.000000,4.000000,4.000000,4.000000,4.000000,4.000000,100.000000,,,,,,,,,,,,,,,,
1644852940.204197,196.000000,0.000000,4208.717773,4208.589844,4203.974121,4217.436035,4190.256348,4210.769043,4208.205078,4208.717773,4215.128418,4211.538574,4213.717773,4206.538574,4204.102539,4171.538574,3462.000000,4.000000,91.000000,,,,0.000000,4.000000,4.000000,4.000000,4.000000,4.000000,4.000000,4.000000,4.000000,4.000000,4.000000,4.000000,4.000000,4.000000,4.000000,100.000000,,,,,,,,,,,,,,,,
1644852940.208138,197.000000,0.000000,4212.051270,4203.846191,4202.692383,4209.487305,4184.358887,4212.436035,4208.589844,4207.179688,4214.102539,4218.846191,4220.128418,4203.589844,4205.128418,4178.461426,3284.000000,4.000000,91.000000,,,,0.000000,4.000000,4.000000,4.000000,4.000000,4.000000,4.000000,4.000000,4.000000,4.000000,4.000000,4.000000,4.000000,4.000000,4.000000,100.000000,,,,,,,,,,,,,,,,
1644852940.212078,198.000000,0.000000,4210.256348,4200.384766,4202.179688,4202.563965,4189.743652,4213.974121,4210.641113,4205.384766,4212.307617,4221.282227,4222.436035,4197.179688,4205.128418,4193.205078,3526.000000,4.000000,91.000000,,,,0.000000,4.000000,4.000000,4.000000,4.000000,4.000000,4.000000,4.000000,4.000000,4.000000,4.000000,4.000000,4.000000,4.000000,4.000000,100.000000,,,,,,,,,,,,,,,,
1644852940.216018,199.000000,0.000000,4206.538574,4202.563965,4204.743652,4201.666504,4204.871582,4215.384766,4211.794922,4203.846191,4211.922852,4218.077148,4221.922852,4193.717773,4205.512695,4209.743652,3415.000000,4.000000,91.000000,,,,0.000000,4.000000,4.000000,4.000000,4.000000,4.000000,4.000000,4.000000,4.000000,4.000000,4.000000,4.000000,4.000000,4.000000,4.000000,100.000000,,,,,,,,,,,,,,,,
1644852940.219958,200.000000,0.000000,4205.897461,4211.025879,4209.487305,4206.538574,4220.769043,4216.282227,4211.538574,4202.563965,4213.461426,4212.563965,4223.333496,4195.512695,4207.179688,4221.025879,3462.000000,4.000000,91.000000,,,,0.000000,4.000000,4.000000,4.000000,4.000000,4.000000,4.000000,4.000000,4.000000,4.000000,4.000000,4.000000,4.000000,4.000000,4.000000,100.000000,,,,,,,,,,,,,,,,
1644852940.223898,201.000000,0.000000,4209.230957,4221.025879,4213.333496,4212.692383,4228.077148,4215.897461,4210.769043,4201.025879,4215.000000,4208.333496,4228.846191,4199.615234,4210.256348,4223.589844,3284.000000,4.000000,91.000000,,,,0.000000,4.000000,4.000000,4.000000,4.000000,4.000000,4.000000,4.000000,4.000000,4.000000,4.000000,4.000000,4.000000,4.000000,4.000000,100.000000,,,,,,,,,,,,,,,,
1644852940.227838,202.000000,0.000000,4213.333496,4226.025879,4212.948730,4215.641113,4223.461426,4214.487305,4210.512695,4199.230957,4214.615234,4207.051270,4236.025879,4201.410156,4213.333496,4219.230957,3526.000000,4.000000,91.000000,,,,0.000000,4.000000,4.000000,4.000000,4.000000,4.000000,4.000000,4.000000,4.000000,4.000000,4.000000,4.000000,4.000000,4.000000,4.000000,100.000000,,,,,,,,,,,,,,,,
1644852940.231778,203.000000,0.000000,4214.871582,4222.692383,4208.846191,4214.615234,4211.153809,4213.461426,4210.512695,4197.820313,4212.051270,4208.205078,4239.487305,4199.743652,4215.128418,4212.563965,3415.000000,4.000000,91.000000,,,,0.000000,4.000000,4.000000,4.000000,4.000000,4.000000,4.000000,4.000000,4.000000,4.000000,4.000000,4.000000,4.000000,4.000000,4.000000,100.000000,,,,,,,,,,,,,,,,
1644852940.235718,204.000000,0.000000,4213.205078,4213.077148,4203.717773,4212.307617,4198.205078,4213.717773,4209.615234,4196.922852,4208.461426,4210.128418,4234.871582,4196.666504,4213.717773,4206.410156,3462.000000,4.000000,91.000000,,,,0.000000,4.000000,4.000000,4.000000,4.000000,4.000000,4.000000,4.000000,4.000000,4.000000,4.000000,4.000000,4.000000,4.000000,4.000000,100.000000,,,,,,,,,,,,,,,,
1644852940.239658,205.000000,0.000000,4210.000000,4202.692383,4200.641113,4212.179688,4189.358887,4214.615234,4207.820313,4196.153809,4204.871582,4210.641113,4222.307617,4194.871582,4208.846191,4200.641113,3284.000000,4.000000,91.000000,,,,0.000000,4.000000,4.000000,4.000000,4.000000,4.000000,4.000000,4.000000,4.000000,4.000000,4.000000,4.000000,4.000000,4.000000,4.000000,100.000000,,,,,,,,,,,,,,,,
1644852940.243599,206.000000,0.000000,4206.922852,4195.512695,4200.512695,4214.615234,4186.025879,4213.846191,4206.666504,4195.384766,4201.538574,4208.461426,4207.436035,4194.615234,4201.922852,4193.846191,3526.000000,4.000000,91.000000,,,,0.000000,4.000000,4.000000,4.000000,4.000000,4.000000,4.000000,4.000000,4.000000,4.000000,4.000000,4.000000,4.000000,4.000000,4.000000,100.000000,,,,,,,,,,,,,,,,
1644852940.247539,207.000000,0.000000,4206.025879,4193.077148,4201.922852,4216.666504,4187.179688,4210.256348,4206.538574,4194.743652,4198.846191,4203.589844,4197.436035,4195.000000,4196.025879,4187.563965,3415.000000,4.000000,91.000000,,,,0.000000,4.000000,4.000000,4.000000,4.000000,4.000000,4.000000,4.000000,4.000000,4.000000,4.000000,4.000000,4.000000,4.000000,4.000000,100.000000,,,,,,,,,,,,,,,,
1644852940.251479,208.000000,0.000000,4208.205078,4194.487305,4202.692383,4215.128418,4192.051270,4205.384766,4206.666504,4194.743652,4197.820313,4198.333496,4197.307617,4196.153809,4194.230957,4184.615234,3462.000000,4.000000,91.000000,,,,0.000000,4.000000,4.000000,4.000000,4.000000,4.000000,4.000000,4.000000,4.000000,4.000000,4.000000,4.000000,4.000000,4.000000,4.000000,100.000000,,,,,,,,,,,,,,,,
1644852940.255319,209.000000,0.000000,4212.820313,4198.846191,4202.051270,4209.358887,4199.871582,4201.538574,4205.512695,4195.769043,4199.358887,4195.384766,4206.282227,4198.717773,4196.922852,4186.922852,3284.000000,4.000000,91.000000,,,,0.000000,4.000000,4.000000,4.000000,4.000000,4.000000,4.000000,4.000000,4.000000,4.000000,4.000000,4.000000,4.000000,4.000000,4.000000,100.000000,,,,,,,,,,,,,,,,
1644852940.259259,210.000000,0.000000,4216.794922,4205.128418,4200.897461,4201.922852,4207.179688,4200.384766,4203.205078,4197.692383,4203.077148,4196.410156,4218.589844,4202.436035,4202.051270,4193.589844,3526.000000,4.000000,91.000000,,,,0.000000,4.000000,4.000000,4.000000,4.000000,4.000000,4.000000,4.000000,4.000000,4.000000,4.000000,4.000000,4.000000,4.000000,4.000000,100.000000,,,,,,,,,,,,,,,,
1644852940.263199,211.000000,0.000000,4217.051270,4211.410156,4200.384766,4196.538574,4209.230957,4201.153809,4201.666504,4200.384766,4207.179688,4201.153809,4227.563965,4204.743652,4205.769043,4200.897461,3415.000000,4.000000,91.000000,,,,0.000000,4.000000,4.000000,4.000000,4.000000,4.000000,4.000000,4.000000,4.000000,4.000000,4.000000,4.000000,4.000000,4.000000,4.000000,100.000000,,,,,,,,,,,,,,,,
1644852940.267139,212.000000,0.000000,4212.820313,4215.897461,4200.897461,4195.000000,4204.358887,4202.307617,4202.179688,4202.820313,4209.487305,4208.077148,4230.000000,4203.205078,4206.922852,4205.897461,3462.000000,4.000000,91.000000,,,,0.000000,4.000000,4.000000,4.000000,4.000000,4.000000,4.000000,4.000000,4.000000,4.000000,4.000000,4.000000,4.000000,4.000000,4.000000,100.000000,,,,,,,,,,,,,,,,
1644852940.271079,213.000000,0.000000,4207.307617,4216.538574,4202.051270,4197.436035,4195.512695,4202.436035,4204.102539,4204.358887,4210.641113,4215.384766,4228.077148,4198.461426,4207.051270,4207.307617,3284.000000,4.000000,91.000000,,,,0.000000,4.000000,4.000000,4.000000,4.000000,4.000000,4.000000,4.000000,4.000000,4.000000,4.000000,4.000000,4.000000,4.000000,4.000000,100.000000,,,,,,,,,,,,,,,,
1644852940.275019,214.000000,0.000000,4203.846191,4213.077148,4202.948730,4204.102539,4188.974121,4202.563965,4206.025879,4205.384766,4213.077148,4221.666504,4226.410156,4194.230957,4209.102539,4205.769043,3526.000000,4.000000,91.000000,,,,0.000000,4.000000,4.000000,4.000000,4.000000,4.000000,4.000000,4.000000,4.000000,4.000000,4.000000,4.000000,4.000000,4.000000,4.000000,100.000000,,,,,,,,,,,,,,,,
1644852940.278960,215.000000,0.000000,4203.205078,4207.692383,4203.589844,4216.410156,4189.102539,4204.871582,4207.436035,4207.051270,4218.205078,4225.512695,4227.692383,4194.102539,4214.487305,4203.333496,3415.000000,4.000000,91.000000,,,,0.000000,4.000000,4.000000,4.000000,4.000000,4.000000,4.000000,4.000000,4.000000,4.000000,4.000000,4.000000,4.000000,4.000000,4.000000,100.000000,,,,,,,,,,,,,,,,
1644852940.282900,216.000000,0.000000,4203.461426,4203.589844,4204.871582,4233.589844,4195.256348,4210.128418,4209.102539,4210.000000,4224.615234,4225.641113,4230.384766,4198.333496,4221.153809,4201.666504,3462.000000,4.000000,91.000000,,,,0.000000,4.000000,4.000000,4.000000,4.000000,4.000000,4.000000,4.000000,4.000000,4.000000,4.000000,4.000000,4.000000,4.000000,4.000000,100.000000,,,,,,,,,,,,,,,,
1644852940.286840,217.000000,0.000000,4202.563965,4202.436035,4206.922852,4248.846191,4201.922852,4215.641113,4210.897461,4212.436035,4228.461426,4222.948730,4230.769043,4203.461426,4225.128418,4201.153809,3284.000000,4.000000,91.000000,,,,0.000000,4.000000,4.000000,4.000000,4.000000,4.000000,4.000000,4.000000,4.000000,4.000000,4.000000,4.000000,4.000000,4.000000,4.000000,100.000000,,,,,,,,,,,,,,,,
1644852940.290780,218.000000,0.000000,4200.769043,4203.205078,4208.077148,4253.077148,4203.846191,4217.563965,4211.153809,4211.666504,4226.922852,4219.743652,4226.794922,4205.128418,4223.205078,4200.641113,3526.000000,4.000000,91.000000,,,,0.000000,4.000000,4.000000,4.000000,4.000000,4.000000,4.000000,4.000000,4.000000,4.000000,4.000000,4.000000,4.000000,4.000000,4.000000,100.000000,,,,,,,,,,,,,,,,
1644852940.294720,219.000000,0.000000,4199.230957,4203.846191,4206.153809,4241.794922,4200.384766,4213.846191,4208.333496,4206.922852,4220.512695,4218.333496,4219.615234,4202.307617,4215.512695,4198.974121,3415.000000,4.000000,91.000000,,,,0.000000,4.000000,4.000000,4.000000,4.000000,4.000000,4.000000,4.000000,4.000000,4.000000,4.000000,4.000000,4.000000,4.000000,4.000000,100.000000,,,,,,,,,,,,,,,,
1644852940.298660,220.000000,0.000000,4199.358887,4203.205078,4201.794922,4221.025879,4195.897461,4206.666504,4203.717773,4200.512695,4213.205078,4218.717773,4212.820313,4197.563965,4205.769043,4196.922852,3462.000000,4.000000,91.000000,,,,0.000000,4.000000,4.000000,4.000000,4.000000,4.000000,4.000000,4.000000,4.000000,4.000000,4.000000,4.000000,4.000000,4.000000,4.000000,100.000000,,,,,,,,,,,,,,,,
1644852940.302600,221.000000,0.000000,4202.179688,4202.436035,4197.563965,4203.205078,4195.128418,4201.025879,4201.410156,4196.922852,4208.846191,4218.717773,4208.205078,4195.000000,4198.846191,4196.794922,3284.000000,4.000000,91.000000,,,,0.000000,4.000000,4.000000,4.000000,4.000000,4.000000,4.000000,4.000000,4.000000,4.000000,4.000000,4.000000,4.000000,4.000000,4.000000,100.000000,,,,,,,,,,,,,,,,
1644852940.306640,222.000000,0.000000,4207.563965,4203.846191,4196.025879,4197.563965,4199.358887,4200.256348,4203.846191,4198.077148,4208.717773,4216.410156,4204.871582,4195.128418,4197.820313,4199.487305,3526.000000,4.000000,91.000000,,,,0.000000,4.000000,4.000000,4.000000,4.000000,4.000000,4.000000,4.000000,4.000000,4.000000,4.000000,4.000000,4.000000,4.000000,4.000000,100.000000,,,,,,,,,,,,,,,,
1644852940.310580,223.000000,0.000000,4214.615234,4208.846191,4197.051270,4204.102539,4206.410156,4204.358887,4209.102539,4202.179688,4210.769043,4212.051270,4201.666504,4195.000000,4202.051270,4203.205078,3415.000000,4.000000,91.000000,,,,0.000000,4.000000,4.000000,4.000000,4.000000,4.000000,4.000000,4.000000,4.000000,4.000000,4.000000,4.000000,4.000000,4.000000,4.000000,100.000000,,,,,,,,,,,,,,,,
1644852940.314520,224.000000,0.000000,4220.897461,4216.538574,4198.717773,4215.128418,4212.948730,4210.512695,4212.563965,4205.384766,4212.179688,4208.333496,4199.358887,4192.179688,4208.205078,4204.615234,3462.000000,4.000000,91.000000,,,,0.000000,4.000000,4.000000,4.000000,4.000000,4.000000,4.000000,4.000000,4.000000,4.000000,4.000000,4.000000,4.000000,4.000000,4.000000,100.000000,,,,,,,,,,,,,,,,
1644852940.318461,225.000000,0.000000,4223.077148,4223.077148,4199.871582,4221.922852,4216.025879,4215.512695,4212.307617,4205.769043,4211.666504,4207.563965,4200.641113,4187.820313,4211.922852,4202.051270,3284.000000,4.000000,91.000000,,,,0.000000,4.000000,4.000000,4.000000,4.000000,4.000000,4.000000,4.000000,4.000000,4.000000,4.000000,4.000000,4.000000,4.000000,4.000000,100.000000,,,,,,,,,,,,,,,,
1644852940.322401,226.000000,0.000000,4218.333496,4224.487305,4201.282227,4221.538574,4213.205078,4217.692383,4210.897461,4204.358887,4210.000000,4208.717773,4207.179688,4185.897461,4210.384766,4195.769043,3526.000000,4.000000,91.000000,,,,0.000000,4.000000,4.000000,4.000000,4.000000,4.000000,4.000000,4.000000,4.000000,4.000000,4.000000,4.000000,4.000000,4.000000,4.000000,100.000000,,,,,,,,,,,,,,,,
1644852940.326341,227.000000,0.000000,4207.563965,4219.230957,4203.205078,4216.666504,4203.846191,4217.563965,4211.922852,4202.948730,4208.589844,4209.615234,4216.794922,4189.102539,4202.692383,4187.948730,3415.000000,4.000000,91.000000,,,,0.000000,4.000000,4.000000,4.000000,4.000000,4.000000,4.000000,4.000000,4.000000,4.000000,4.000000,4.000000,4.000000,4.000000,4.000000,100.000000,,,,,,,,,,,,,,,,
1644852940.330281,228.000000,0.000000,4195.641113,4210.128418,4204.487305,4212.563965,4192.051270,4216.153809,4214.871582,4202.563965,4207.563965,4208.846191,4223.974121,4195.128418,4191.153809,4181.666504,3462.000000,4.000000,91.000000,,,,0.000000,4.000000,4.000000,4.000000,4.000000,4.000000,4.000000,4.000000,4.000000,4.000000,4.000000,4.000000,4.000000,4.000000,4.000000,100.000000,,,,,,,,,,,,,,,,
1644852940.334221,229.000000,0.000000,4188.846191,4202.948730,4203.077148,4212.692383,4184.102539,4214.230957,4216.538574,4202.179688,4206.410156,4206.794922,4224.743652,4198.717773,4181.666504,4179.871582,3284.000000,4.000000,91.000000,,,,0.000000,4.000000,4.000000,4.000000,4.000000,4.000000,4.000000,4.000000,4.000000,4.000000,4.000000,4.000000,4.000000,4.000000,4.000000,100.000000,,,,,,,,,,,,,,,,
1644852940.338161,230.000000,0.000000,4190.769043,4202.179688,4198.846191,4216.666504,4184.743652,4212.820313,4214.871582,4200.897461,4204.743652,4204.230957,4220.128418,4195.384766,4179.615234,4183.461426,3526.000000,4.000000,91.000000,,,,0.000000,4.000000,4.000000,4.000000,4.000000,4.000000,4.000000,4.000000,4.000000,4.000000,4.000000,4.000000,4.000000,4.000000,4.000000,100.000000,,,,,,,,,,,,,,,,
1644852940.342101,231.000000,0.000000,4199.871582,4207.179688,4194.358887,4221.410156,4193.461426,4211.794922,4212.051270,4199.102539,4203.077148,4200.769043,4214.615234,4185.769043,4187.179688,4189.615234,3415.000000,4.000000,91.000000,,,,0.000000,4.000000,4.000000,4.000000,4.000000,4.000000,4.000000,4.000000,4.000000,4.000000,4.000000,4.000000,4.000000,4.000000,4.000000,100.000000,,,,,,,,,,,,,,,,
1644852940.346041,232.000000,0.000000,4209.743652,4213.589844,4192.692383,4222.820313,4204.230957,4211.410156,4211.666504,4198.846191,4202.948730,4196.794922,4212.307617,4176.282227,4200.512695,4194.102539,3462.000000,4.000000,91.000000,,,,0.000000,4.000000,4.000000,4.000000,4.000000,4.000000,4.000000,4.000000,4.000000,4.000000,4.000000,4.000000,4.000000,4.000000,4.000000,100.000000,,,,,,,,,,,,,,,,
1644852940.349981,233.000000,0.000000,4213.717773,4215.897461,4194.230957,4218.589844,4210.641113,4211.666504,4213.846191,4201.025879,4205.128418,4194.230957,4213.974121,4173.589844,4213.333496,4194.615234,3284.000000,4.000000,91.000000,,,,0.000000,4.000000,4.000000,4.000000,4.000000,4.000000,4.000000,4.000000,4.000000,4.000000,4.000000,4.000000,4.000000,4.000000,4.000000,100.000000,,,,,,,,,,,,,,,,
1644852940.353921,234.000000,0.000000,4210.128418,4212.563965,4197.179688,4210.769043,4210.128418,4213.077148,4215.641113,4204.871582,4209.743652,4196.410156,4217.051270,4179.358887,4221.153809,4193.205078,3526.000000,4.000000,91.000000,,,,0.000000,4.000000,4.000000,4.000000,4.000000,4.000000,4.000000,4.000000,4.000000,4.000000,4.000000,4.000000,4.000000,4.000000,4.000000,100.000000,,,,,,,,,,,,,,,,
1644852940.357862,235.000000,0.000000,4203.717773,4206.666504,4199.743652,4205.384766,4206.153809,4215.641113,4214.615234,4208.589844,4215.512695,4204.358887,4218.589844,4188.974121,4223.205078,4193.974121,3415.000000,4.000000,91.000000,,,,0.000000,4.000000,4.000000,4.000000,4.000000,4.000000,4.000000,4.000000,4.000000,4.000000,4.000000,4.000000,4.000000,4.000000,4.000000,100.000000,,,,,,,,,,,,,,,,
1644852940.361802,236.000000,0.000000,4201.282227,4203.846191,4201.794922,4207.820313,4204.230957,4218.589844,4212.307617,4211.153809,4220.384766,4215.128418,4217.179688,4194.615234,4220.897461,4199.102539,3462.000000,4.000000,91.000000,,,,0.000000,4.000000,4.000000,4.000000,4.000000,4.000000,4.000000,4.000000,4.000000,4.000000,4.000000,4.000000,4.000000,4.000000,4.000000,100.000000,,,,,,,,,,,,,,,,
1644852940.365742,237.000000,0.000000,4204.615234,4206.666504,4204.358887,4217.436035,4207.051270,4221.025879,4212.179688,4213.205078,4223.077148,4223.974121,4213.717773,4192.692383,4215.128418,4205.641113,3284.000000,4.000000,91.000000,,,,0.000000,4.000000,4.000000,4.000000,4.000000,4.000000,4.000000,4.000000,4.000000,4.000000,4.000000,4.000000,4.000000,4.000000,4.000000,100.000000,,,,,,,,,,,,,,,,
1644852940.369682,238.000000,0.000000,4209.102539,4213.846191,4207.436035,4227.692383,4212.051270,4222.179688,4214.871582,4215.000000,4223.974121,4228.205078,4210.256348,4186.153809,4207.179688,4208.974121,3526.000000,4.000000,91.000000,,,,0.000000,4.000000,4.000000,4.000000,4.000000,4.000000,4.000000,4.000000,4.000000,4.000000,4.000000,4.000000,4.000000,4.000000,4.000000,100.000000,,,,,,,,,,,,,,,,
1644852940.373622,239.000000,0.000000,4207.820313,4221.282227,4208.974121,4230.384766,4213.717773,4221.666504,4217.051270,4216.153809,4223.589844,4228.461426,4208.461426,4181.794922,4200.769043,4207.179688,3415.000000,4.000000,91.000000,,,,0.000000,4.000000,4.000000,4.000000,4.000000,4.000000,4.000000,4.000000,4.000000,4.000000,4.000000,4.000000,4.000000,4.000000,4.000000,100.000000,,,,,,,,,,,,,,,,
1644852940.377562,240.000000,0.000000,4199.230957,4224.743652,4207.051270,4222.820313,4208.461426,4219.358887,4215.384766,4215.512695,4221.922852,4225.897461,4208.846191,4184.102539,4198.974121,4203.077148,3462.000000,4.000000,91.000000,,,,0.000000,4.000000,4.000000,4.000000,4.000000,4.000000,4.000000,4.000000,4.000000,4.000000,4.000000,4.000000,4.000000,4.000000,4.000000,100.000000,,,,,,,,,,,,,,,,
1644852940.381402,241.000000,0.000000,4188.717773,4222.051270,4202.179688,4210.384766,4198.205078,4215.897461,4210.641113,4212.179688,4217.948730,4221.025879,4209.615234,4192.179688,4201.538574,4200.384766,3284.000000,4.000000,91.000000,,,,0.000000,4.000000,4.000000,4.000000,4.000000,4.000000,4.000000,4.000000,4.000000,4.000000,4.000000,4.000000,4.000000,4.000000,4.000000,100.000000,,,,,,,,,,,,,,,,
1644852940.385342,242.000000,0.000000,4184.230957,4213.589844,4197.692383,4203.205078,4189.615234,4212.820313,4206.794922,4207.307617,4211.666504,4213.589844,4208.846191,4200.512695,4203.974121,4199.487305,3526.000000,4.000000,91.000000,,,,0.000000,4.000000,4.000000,4.000000,4.000000,4.000000,4.000000,4.000000,4.000000,4.000000,4.000000,4.000000,4.000000,4.000000,4.000000,100.000000,,,,,,,,,,,,,,,,
1644852940.389283,243.000000,0.000000,4190.384766,4203.461426,4198.077148,4208.717773,4189.487305,4211.794922,4207.179688,4203.589844,4206.025879,4205.512695,4207.051270,4204.230957,4202.436035,4198.846191,3415.000000,4.000000,91.000000,,,,0.000000,4.000000,4.000000,4.000000,4.000000,4.000000,4.000000,4.000000,4.000000,4.000000,4.000000,4.000000,4.000000,4.000000,4.000000,100.000000,,,,,,,,,,,,,,,,
1644852940.393223,244.000000,0.000000,4204.743652,4197.820313,4205.128418,4225.512695,4199.358887,4213.717773,4210.897461,4203.589844,4205.256348,4200.641113,4206.794922,4203.205078,4198.589844,4198.589844,3462.000000,4.000000,91.000000,,,,0.000000,4.000000,4.000000,4.000000,4.000000,4.000000,4.000000,4.000000,4.000000,4.000000,4.000000,4.000000,4.000000,4.000000,4.000000,100.000000,,,,,,,,,,,,,,,,
1644852940.397063,245.000000,0.000000,4219.615234,4200.512695,4215.512695,4242.692383,4213.077148,4217.436035,4215.128418,4207.563965,4210.769043,4203.077148,4211.538574,4201.538574,4198.974121,4201.153809,3284.000000,4.000000,91.000000,,,,0.000000,4.000000,4.000000,4.000000,4.000000,4.000000,4.000000,4.000000,4.000000,4.000000,4.000000,4.000000,4.000000,4.000000,4.000000,100.000000,,,,,,,,,,,,,,,,
1644852940.401003,246.000000,0.000000,4227.563965,4210.512695,4223.333496,4248.333496,4222.179688,4220.128418,4217.563965,4213.205078,4219.487305,4212.948730,4221.282227,4202.563965,4208.846191,4208.077148,3526.000000,4.000000,91.000000,,,,0.000000,4.000000,4.000000,4.000000,4.000000,4.000000,4.000000,4.000000,4.000000,4.000000,4.000000,4.000000,4.000000,4.000000,4.000000,100.000000,,,,,,,,,,,,,,,,
1644852940.404943,247.000000,0.000000,4227.179688,4222.563965,4224.615234,4238.461426,4221.794922,4219.615234,4218.205078,4217.563965,4226.153809,4226.794922,4233.589844,4206.922852,4227.436035,4217.820313,3415.000000,4.000000,91.000000,,,,0.000000,4.000000,4.000000,4.000000,4.000000,4.000000,4.000000,4.000000,4.000000,4.000000,4.000000,4.000000,4.000000,4.000000,4.000000,100.000000,,,,,,,,,,,,,,,,
1644852940.408883,248.000000,0.000000,4224.102539,4231.025879,4221.153809,4221.025879,4213.717773,4216.538574,4218.077148,4219.487305,4227.948730,4239.230957,4244.615234,4212.692383,4248.333496,4227.563965,3462.000000,4.000000,91.000000,,,,0.000000,4.000000,4.000000,4.000000,4.000000,4.000000,4.000000,4.000000,4.000000,4.000000,4.000000,4.000000,4.000000,4.000000,4.000000,100.000000,,,,,,,,,,,,,,,,
1644852940.412823,249.000000,0.000000,4224.615234,4232.948730,4218.205078,4210.000000,4203.077148,4213.974121,4217.436035,4219.230957,4226.666504,4246.922852,4252.692383,4217.436035,4263.717773,4235.641113,3284.000000,4.000000,91.000000,,,,0.000000,4.000000,4.000000,4.000000,4.000000,4.000000,4.000000,4.000000,4.000000,4.000000,4.000000,4.000000,4.000000,4.000000,4.000000,100.000000,,,,,,,,,,,,,,,,
1644852940.416763,250.000000,0.000000,4229.871582,4228.846191,4219.871582,4213.077148,4195.000000,4214.743652,4216.666504,4218.205078,4226.666504,4249.615234,4256.794922,4220.256348,4269.487305,4240.512695,3526.000000,4.000000,91.000000,,,,0.000000,4.000000,4.000000,4.000000,4.000000,4.000000,4.000000,4.000000,4.000000,4.000000,4.000000,4.000000,4.000000,4.000000,4.000000,100.000000,,,,,,,,,,,,,,,,
1644852940.420703,251.000000,0.000000,4235.512695,4221.794922,4225.384766,4224.871582,4192.179688,4219.102539,4217.179688,4218.077148,4230.128418,4249.615234,4256.538574,4221.282227,4266.794922,4242.179688,3415.000000,4.000000,91.000000,,,,0.000000,4.000000,4.000000,4.000000,4.000000,4.000000,4.000000,4.000000,4.000000,4.000000,4.000000,4.000000,4.000000,4.000000,4.000000,100.000000,,,,,,,,,,,,,,,,
1644852940.424644,252.000000,0.000000,4235.769043,4215.256348,4230.769043,4232.179688,4196.282227,4224.743652,4219.615234,4220.256348,4235.641113,4249.743652,4252.692383,4221.794922,4261.666504,4241.410156,3462.000000,4.000000,91.000000,,,,0.000000,4.000000,4.000000,4.000000,4.000000,4.000000,4.000000,4.000000,4.000000,4.000000,4.000000,4.000000,4.000000,4.000000,4.000000,100.000000,,,,,,,,,,,,,,,,
1644852940.428584,253.000000,0.000000,4228.205078,4212.307617,4232.051270,4226.153809,4206.153809,4228.589844,4222.307617,4223.974121,4239.743652,4251.282227,4249.358887,4222.051270,4259.487305,4240.384766,3284.000000,4.000000,91.000000,,,,0.000000,4.000000,4.000000,4.000000,4.000000,4.000000,4.000000,4.000000,4.000000,4.000000,4.000000,4.000000,4.000000,4.000000,4.000000,100.000000,,,,,,,,,,,,,,,,
1644852940.432524,254.000000,0.000000,4215.897461,4213.717773,4228.589844,4210.641113,4217.948730,4228.717773,4221.794922,4227.051270,4240.641113,4253.333496,4250.641113,4221.282227,4262.051270,4239.487305,3526.000000,4.000000,91.000000,,,,0.000000,4.000000,4.000000,4.000000,4.000000,4.000000,4.000000,4.000000,4.000000,4.000000,4.000000,4.000000,4.000000,4.000000,4.000000,100.000000,,,,,,,,,,,,,,,,
1644852940.436464,255.000000,0.000000,4204.615234,4217.692383,4223.077148,4199.102539,4226.025879,4225.256348,4216.666504,4227.692383,4239.358887,4255.128418,4256.922852,4218.974121,4265.512695,4237.692383,114.000000,4.000000,91.000000,,,,0.000000,4.000000,4.000000,4.000000,4.000000,4.000000,4.000000,4.000000,4.000000,4.000000,4.000000,4.000000,4.000000,4.000000,4.000000,100.000000,,,,,,,,,,,,,,,,
1644852940.440404,0.000000,0.000000,4198.974121,4221.025879,4219.358887,4201.922852,4227.436035,4220.897461,4210.384766,4226.794922,4238.589844,4256.538574,4263.589844,4216.025879,4265.384766,4233.846191,3418.000000,4.000000,91.000000,,,,0.000000,4.000000,4.000000,4.000000,4.000000,4.000000,4.000000,4.000000,4.000000,4.000000,4.000000,4.000000,4.000000,4.000000,4.000000,100.000000,,,,,,,,,,,,,,,,
1644852940.444344,1.000000,0.000000,4199.358887,4220.897461,4220.000000,4217.051270,4222.948730,4218.589844,4208.205078,4226.410156,4240.256348,4256.666504,4265.000000,4214.743652,4259.743652,4228.589844,3254.000000,4.000000,91.000000,,,,0.000000,4.000000,4.000000,4.000000,4.000000,4.000000,4.000000,4.000000,4.000000,4.000000,4.000000,4.000000,4.000000,4.000000,4.000000,100.000000,,,,,,,,,,,,,,,,
1644852940.448284,2.000000,0.000000,4202.948730,4216.794922,4223.205078,4231.666504,4215.769043,4218.717773,4211.153809,4227.307617,4243.589844,4254.615234,4260.128418,4215.897461,4251.025879,4222.820313,3549.000000,4.000000,91.000000,,,,0.000000,4.000000,4.000000,4.000000,4.000000,4.000000,4.000000,4.000000,4.000000,4.000000,4.000000,4.000000,4.000000,4.000000,4.000000,100.000000,,,,,,,,,,,,,,,,
1644852940.452224,3.000000,0.000000,4206.410156,4210.769043,4224.871582,4233.205078,4207.692383,4219.230957,4214.871582,4228.077148,4246.025879,4249.615234,4252.692383,4217.436035,4243.205078,4217.179688,3544.000000,4.000000,91.000000,,,,0.000000,4.000000,4.000000,4.000000,4.000000,4.000000,4.000000,4.000000,4.000000,4.000000,4.000000,4.000000,4.000000,4.000000,4.000000,100.000000,,,,,,,,,,,,,,,,
1644852940.456164,4.000000,0.000000,4208.333496,4205.384766,4221.666504,4220.000000,4198.717773,4218.077148,4214.102539,4226.922852,4244.743652,4242.179688,4247.436035,4216.538574,4238.461426,4210.769043,3685.000000,4.000000,91.000000,,,,0.000000,4.000000,4.000000,4.000000,4.000000,4.000000,4.000000,4.000000,4.000000,4.000000,4.000000,4.000000,4.000000,4.000000,4.000000,100.000000,,,,,,,,,,,,,,,,
1644852940.460105,5.000000,0.000000,4208.846191,4201.922852,4213.846191,4203.205078,4189.487305,4215.256348,4208.333496,4223.461426,4239.230957,4234.615234,4246.025879,4212.051270,4236.153809,4203.846191,3341.000000,4.000000,91.000000,,,,0.000000,4.000000,4.000000,4.000000,4.000000,4.000000,4.000000,4.000000,4.000000,4.000000,4.000000,4.000000,4.000000,4.000000,4.000000,100.000000,,,,,,,,,,,,,,,,
1644852940.464045,6.000000,0.000000,4208.974121,4200.769043,4205.769043,4196.025879,4183.333496,4212.436035,4202.692383,4219.487305,4232.051270,4230.128418,4246.922852,4205.512695,4235.256348,4199.230957,2740.000000,4.000000,91.000000,,,,0.000000,4.000000,4.000000,4.000000,4.000000,4.000000,4.000000,4.000000,4.000000,4.000000,4.000000,4.000000,4.000000,4.000000,4.000000,100.000000,,,,,,,,,,,,,,,,
1644852940.467885,7.000000,0.000000,4209.487305,4201.666504,4201.794922,4202.692383,4185.000000,4211.282227,4202.051270,4217.051270,4227.051270,4230.000000,4247.820313,4199.743652,4235.512695,4200.512695,2918.000000,4.000000,91.000000,,,,0.000000,4.000000,4.000000,4.000000,4.000000,4.000000,4.000000,4.000000,4.000000,4.000000,4.000000,4.000000,4.000000,4.000000,4.000000,100.000000,,,,,,,,,,,,,,,,
1644852940.471825,8.000000,0.000000,4209.615234,4203.974121,4203.717773,4215.769043,4195.256348,4211.410156,4206.794922,4216.922852,4226.025879,4232.820313,4246.025879,4197.179688,4237.563965,4209.102539,3277.000000,4.000000,91.000000,,,,0.000000,4.000000,4.000000,4.000000,4.000000,4.000000,4.000000,4.000000,4.000000,4.000000,4.000000,4.000000,4.000000,4.000000,4.000000,100.000000,,,,,,,,,,,,,,,,
1644852940.475765,9.000000,0.000000,4207.051270,4206.538574,4208.846191,4223.846191,4208.974121,4211.538574,4212.692383,4217.436035,4227.820313,4234.487305,4239.487305,4197.436035,4240.000000,4221.794922,3481.000000,4.000000,91.000000,,,,0.000000,4.000000,4.000000,4.000000,4.000000,4.000000,4.000000,4.000000,4.000000,4.000000,4.000000,4.000000,4.000000,4.000000,4.000000,100.000000,,,,,,,,,,,,,,,,
1644852940.479705,10.000000,0.000000,4200.256348,4207.563965,4212.948730,4221.282227,4217.692383,4210.641113,4215.641113,4216.922852,4228.974121,4232.307617,4227.948730,4198.461426,4238.974121,4231.153809,3532.000000,4.000000,91.000000,,,,0.000000,4.000000,4.000000,4.000000,4.000000,4.000000,4.000000,4.000000,4.000000,4.000000,4.000000,4.000000,4.000000,4.000000,4.000000,100.000000,,,,,,,,,,,,,,,,
1644852940.483645,11.000000,0.000000,4190.641113,4205.769043,4212.948730,4211.153809,4215.512695,4208.589844,4215.128418,4215.256348,4227.051270,4227.179688,4215.128418,4198.589844,4232.051270,4231.666504,3585.000000,4.000000,91.000000,,,,0.000000,4.000000,4.000000,4.000000,4.000000,4.000000,4.000000,4.000000,4.000000,4.000000,4.000000,4.000000,4.000000,4.000000,4.000000,100.000000,,,,,,,,,,,,,,,,
1644852940.487585,12.000000,0.000000,4182.051270,4201.153809,4208.717773,4200.256348,4203.333496,4206.282227,4212.948730,4213.717773,4221.282227,4223.205078,4206.794922,4197.692383,4220.256348,4222.307617,3451.000000,4.000000,91.000000,,,,0.000000,4.000000,4.000000,4.000000,4.000000,4.000000,4.000000,4.000000,4.000000,4.000000,4.000000,4.000000,4.000000,4.000000,4.000000,100.000000,,,,,,,,,,,,,,,,
1644852940.491525,13.000000,0.000000,4177.436035,4194.871582,4202.820313,4192.692383,4188.974121,4204.487305,4210.384766,4212.692383,4213.717773,4223.846191,4206.794922,4197.179688,4208.846191,4206.922852,3462.000000,4.000000,91.000000,,,,0.000000,4.000000,4.000000,4.000000,4.000000,4.000000,4.000000,4.000000,4.000000,4.000000,4.000000,4.000000,4.000000,4.000000,4.000000,100.000000,,,,,,,,,,,,,,,,
1644852940.495466,14.000000,0.000000,4176.794922,4188.589844,4198.461426,4187.436035,4180.769043,4203.974121,4207.692383,4211.666504,4207.563965,4226.922852,4214.487305,4198.461426,4203.205078,4191.666504,3532.000000,4.000000,91.000000,,,,0.000000,4.000000,4.000000,4.000000,4.000000,4.000000,4.000000,4.000000,4.000000,4.000000,4.000000,4.000000,4.000000,4.000000,4.000000,100.000000,,,,,,,,,,,,,,,,
1644852940.499406,15.000000,0.000000,4177.820313,4183.846191,4197.820313,4182.563965,4181.922852,4205.000000,4205.897461,4210.256348,4204.487305,4227.051270,4225.128418,4201.025879,4204.743652,4181.538574,3585.000000,4.000000,91.000000,,,,0.000000,4.000000,4.000000,4.000000,4.000000,4.000000,4.000000,4.000000,4.000000,4.000000,4.000000,4.000000,4.000000,4.000000,4.000000,100.000000,,,,,,,,,,,,,,,,
1644852940.503346,16.000000,0.000000,4178.717773,4182.179688,4200.000000,4180.000000,4188.846191,4207.307617,4206.410156,4208.717773,4204.230957,4220.897461,4233.461426,4203.461426,4211.153809,4180.128418,3451.000000,4.000000,91.000000,,,,0.000000,4.000000,4.000000,4.000000,4.000000,4.000000,4.000000,4.000000,4.000000,4.000000,4.000000,4.000000,4.000000,4.000000,4.000000,100.000000,,,,,,,,,,,,,,,,
1644852940.507286,17.000000,0.000000,4180.384766,4184.487305,4202.307617,4183.974121,4194.871582,4210.000000,4209.230957,4207.563965,4205.641113,4211.794922,4236.538574,4203.974121,4218.974121,4186.922852,3462.000000,4.000000,91.000000,,,,0.000000,4.000000,4.000000,4.000000,4.000000,4.000000,4.000000,4.000000,4.000000,4.000000,4.000000,4.000000,4.000000,4.000000,4.000000,100.000000,,,,,,,,,,,,,,,,
1644852940.511226,18.000000,0.000000,4184.615234,4190.641113,4202.820313,4194.743652,4195.384766,4211.410156,4211.666504,4207.563965,4208.077148,4206.410156,4233.846191,4202.051270,4226.025879,4198.589844,3532.000000,4.000000,91.000000,,,,0.000000,4.000000,4.000000,4.000000,4.000000,4.000000,4.000000,4.000000,4.000000,4.000000,4.000000,4.000000,4.000000,4.000000,4.000000,100.000000,,,,,,,,,,,,,,,,
1644852940.515166,19.000000,0.000000,4191.410156,4198.846191,4201.410156,4205.256348,4191.025879,4210.512695,4211.410156,4208.461426,4210.769043,4208.717773,4228.077148,4198.717773,4230.641113,4210.897461,3585.000000,4.000000,91.000000,,,,0.000000,4.000000,4.000000,4.000000,4.000000,4.000000,4.000000,4.000000,4.000000,4.000000,4.000000,4.000000,4.000000,4.000000,4.000000,100.000000,,,,,,,,,,,,,,,,
1644852940.519106,20.000000,0.000000,4197.051270,4204.487305,4200.000000,4207.051270,4185.384766,4207.436035,4208.974121,4209.743652,4212.820313,4215.897461,4223.846191,4194.615234,4231.922852,4220.000000,3451.000000,4.000000,91.000000,,,,0.000000,4.000000,4.000000,4.000000,4.000000,4.000000,4.000000,4.000000,4.000000,4.000000,4.000000,4.000000,4.000000,4.000000,4.000000,100.000000,,,,,,,,,,,,,,,,
1644852940.523046,21.000000,0.000000,4197.051270,4203.461426,4200.000000,4198.717773,4182.563965,4203.846191,4207.436035,4210.000000,4212.948730,4221.282227,4223.717773,4190.769043,4229.358887,4223.846191,3462.000000,4.000000,91.000000,,,,0.000000,4.000000,4.000000,4.000000,4.000000,4.000000,4.000000,4.000000,4.000000,4.000000,4.000000,4.000000,4.000000,4.000000,4.000000,100.000000,,,,,,,,,,,,,,,,
1644852940.526986,22.000000,0.000000,4190.769043,4195.256348,4201.025879,4188.077148,4184.102539,4202.307617,4208.333496,4208.461426,4210.641113,4220.641113,4226.153809,4187.563965,4223.974121,4221.666504,3532.000000,4.000000,91.000000,,,,0.000000,4.000000,4.000000,4.000000,4.000000,4.000000,4.000000,4.000000,4.000000,4.000000,4.000000,4.000000,4.000000,4.000000,4.000000,100.000000,,,,,,,,,,,,,,,,
1644852940.530927,23.000000,0.000000,4182.820313,4185.128418,4201.666504,4184.615234,4189.743652,4204.615234,4210.000000,4206.153809,4207.563965,4215.769043,4226.666504,4185.769043,4218.461426,4214.615234,3585.000000,4.000000,91.000000,,,,0.000000,4.000000,4.000000,4.000000,4.000000,4.000000,4.000000,4.000000,4.000000,4.000000,4.000000,4.000000,4.000000,4.000000,4.000000,100.000000,,,,,,,,,,,,,,,,
1644852940.534867,24.000000,0.000000,4179.230957,4179.871582,4201.153809,4191.153809,4198.589844,4209.871582,4209.487305,4204.743652,4206.666504,4211.922852,4223.589844,4185.256348,4215.897461,4207.179688,3451.000000,4.000000,91.000000,,,,0.000000,4.000000,4.000000,4.000000,4.000000,4.000000,4.000000,4.000000,4.000000,4.000000,4.000000,4.000000,4.000000,4.000000,4.000000,100.000000,,,,,,,,,,,,,,,,
1644852940.538907,25.000000,0.000000,4182.307617,4182.563965,4199.615234,4201.282227,4207.692383,4214.743652,4206.666504,4205.897461,4209.871582,4212.436035,4219.487305,4185.512695,4217.051270,4203.846191,3462.000000,4.000000,91.000000,,,,0.000000,4.000000,4.000000,4.000000,4.000000,4.000000,4.000000,4.000000,4.000000,4.000000,4.000000,4.000000,4.000000,4.000000,4.000000,100.000000,,,,,,,,,,,,,,,,
1644852940.542847,26.000000,0.000000,4188.974121,4190.256348,4198.461426,4205.256348,4212.051270,4216.666504,4204.615234,4209.230957,4215.384766,4216.666504,4218.846191,4185.641113,4219.871582,4205.769043,3532.000000,4.000000,91.000000,,,,0.000000,4.000000,4.000000,4.000000,4.000000,4.000000,4.000000,4.000000,4.000000,4.000000,4.000000,4.000000,4.000000,4.000000,4.000000,100.000000,,,,,,,,,,,,,,,,
1644852940.546787,27.000000,0.000000,4193.717773,4197.436035,4198.461426,4199.615234,4208.589844,4216.025879,4206.282227,4213.461426,4219.871582,4221.666504,4222.436035,4185.769043,4220.641113,4208.846191,3585.000000,4.000000,91.000000,,,,0.000000,4.000000,4.000000,4.000000,4.000000,4.000000,4.000000,4.000000,4.000000,4.000000,4.000000,4.000000,4.000000,4.000000,4.000000,100.000000,,,,,,,,,,,,,,,,
1644852940.550727,28.000000,0.000000,4192.948730,4200.000000,4199.487305,4190.897461,4199.358887,4215.641113,4211.025879,4216.410156,4220.769043,4224.487305,4226.666504,4186.794922,4217.948730,4207.307617,3451.000000,4.000000,91.000000,,,,0.000000,4.000000,4.000000,4.000000,4.000000,4.000000,4.000000,4.000000,4.000000,4.000000,4.000000,4.000000,4.000000,4.000000,4.000000,100.000000,,,,,,,,,,,,,,,,
1644852940.554667,29.000000,0.000000,4187.051270,4197.307617,4199.743652,4188.589844,4190.769043,4217.051270,4214.743652,4216.538574,4218.077148,4224.358887,4226.922852,4189.358887,4212.820313,4199.358887,3462.000000,4.000000,91.000000,,,,0.000000,4.000000,4.000000,4.000000,4.000000,4.000000,4.000000,4.000000,4.000000,4.000000,4.000000,4.000000,4.000000,4.000000,4.000000,100.000000,,,,,,,,,,,,,,,,
1644852940.558607,30.000000,0.000000,4178.846191,4191.025879,4197.436035,4194.615234,4188.077148,4218.717773,4214.743652,4214.102539,4213.461426,4221.794922,4221.794922,4192.051270,4207.179688,4188.589844,3532.000000,4.000000,91.000000,,,,0.000000,4.000000,4.000000,4.000000,4.000000,4.000000,4.000000,4.000000,4.000000,4.000000,4.000000,4.000000,4.000000,4.000000,4.000000,100.000000,,,,,,,,,,,,,,,,
1644852940.562547,31.000000,0.000000,4171.153809,4183.461426,4192.948730,4201.025879,4191.666504,4217.436035,4212.307617,4210.512695,4208.589844,4216.922852,4213.333496,4192.820313,4203.461426,4180.641113,3585.000000,4.000000,91.000000,,,,0.000000,4.000000,4.000000,4.000000,4.000000,4.000000,4.000000,4.000000,4.000000,4.000000,4.000000,4.000000,4.000000,4.000000,4.000000,100.000000,,,,,,,,,,,,,,,,
1644852940.566487,32.000000,0.000000,4166.410156,4177.436035,4188.589844,4198.974121,4197.948730,4211.794922,4210.512695,4207.563965,4204.871582,4209.743652,4205.384766,4191.025879,4202.820313,4179.871582,0.000000,4.000000,91.000000,,,,0.000000,4.000000,4.000000,4.000000,4.000000,4.000000,4.000000,4.000000,4.000000,4.000000,4.000000,4.000000,4.000000,4.000000,4.000000,100.000000,,,,,,,,,,,,,,,,
1644852940.570427,33.000000,0.000000,4165.512695,4174.230957,4187.307617,4188.589844,4201.794922,4204.102539,4210.512695,4206.025879,4202.563965,4200.769043,4200.512695,4187.820313,4205.128418,4186.922852,0.000000,4.000000,91.000000,,,,0.000000,4.000000,4.000000,4.000000,4.000000,4.000000,4.000000,4.000000,4.000000,4.000000,4.000000,4.000000,4.000000,4.000000,4.000000,100.000000,,,,,,,,,,,,,,,,
1644852940.574268,34.000000,0.000000,4167.307617,4173.717773,4189.487305,4178.461426,4198.974121,4198.077148,4210.256348,4204.871582,4201.153809,4191.666504,4200.000000,4184.743652,4207.820313,4198.077148,0.000000,4.000000,91.000000,,,,0.000000,4.000000,4.000000,4.000000,4.000000,4.000000,4.000000,4.000000,4.000000,4.000000,4.000000,4.000000,4.000000,4.000000,4.000000,100.000000,,,,,,,,,,,,,,,,
1644852940.578208,35.000000,0.000000,4170.128418,4173.717773,4192.436035,4176.794922,4188.846191,4195.897461,4208.717773,4203.589844,4200.000000,4185.128418,4203.333496,4182.563965,4206.282227,4206.538574,0.000000,4.000000,91.000000,,,,0.000000,4.000000,4.000000,4.000000,4.000000,4.000000,4.000000,4.000000,4.000000,4.000000,4.000000,4.000000,4.000000,4.000000,4.000000,100.000000,,,,,,,,,,,,,,,,
1644852940.582148,36.000000,0.000000,4171.282227,4171.922852,4193.205078,4184.230957,4174.871582,4196.794922,4207.179688,4202.436035,4198.333496,4183.717773,4208.077148,4180.897461,4197.820313,4206.410156,0.000000,4.000000,91.000000,,,,0.000000,4.000000,4.000000,4.000000,4.000000,4.000000,4.000000,4.000000,4.000000,4.000000,4.000000,4.000000,4.000000,4.000000,4.000000,100.000000,,,,,,,,,,,,,,,,
1644852940.586088,37.000000,0.000000,4170.000000,4167.820313,4191.410156,4193.717773,4163.333496,4198.333496,4207.563965,4202.692383,4196.794922,4187.436035,4210.641113,4179.743652,4185.000000,4196.794922,0.000000,4.000000,91.000000,,,,0.000000,4.000000,4.000000,4.000000,4.000000,4.000000,4.000000,4.000000,4.000000,4.000000,4.000000,4.000000,4.000000,4.000000,4.000000,100.000000,,,,,,,,,,,,,,,,
1644852940.590028,38.000000,0.000000,4167.436035,4163.974121,4188.846191,4197.307617,4159.487305,4198.846191,4209.871582,4205.000000,4196.794922,4194.487305,4210.256348,4180.128418,4174.871582,4183.974121,0.000000,4.000000,91.000000,,,,0.000000,4.000000,4.000000,4.000000,4.000000,4.000000,4.000000,4.000000,4.000000,4.000000,4.000000,4.000000,4.000000,4.000000,4.000000,100.000000,,,,,,,,,,,,,,,,
1644852940.593968,39.000000,0.000000,4166.922852,4163.589844,4187.436035,4193.846191,4165.769043,4198.846191,4211.922852,4207.820313,4199.102539,4202.820313,4209.102539,4182.307617,4174.615234,4177.307617,0.000000,4.000000,91.000000,,,,0.000000,4.000000,4.000000,4.000000,4.000000,4.000000,4.000000,4.000000,4.000000,4.000000,4.000000,4.000000,4.000000,4.000000,4.000000,100.000000,,,,,,,,,,,,,,,,
1644852940.597908,40.000000,0.000000,4171.410156,4168.846191,4187.436035,4189.102539,4180.384766,4199.615234,4211.794922,4209.102539,4202.563965,4210.128418,4209.615234,4185.000000,4185.512695,4182.692383,0.000000,4.000000,91.000000,,,,0.000000,4.000000,4.000000,4.000000,4.000000,4.000000,4.000000,4.000000,4.000000,4.000000,4.000000,4.000000,4.000000,4.000000,4.000000,100.000000,,,,,,,,,,,,,,,,
1644852940.601948,41.000000,0.000000,4180.128418,4178.205078,4187.692383,4189.487305,4197.179688,4201.538574,4210.384766,4208.077148,4205.000000,4214.230957,4211.153809,4185.897461,4201.794922,4197.307617,0.000000,4.000000,91.000000,,,,0.000000,4.000000,4.000000,4.000000,4.000000,4.000000,4.000000,4.000000,4.000000,4.000000,4.000000,4.000000,4.000000,4.000000,4.000000,100.000000,,,,,,,,,,,,,,,,
1644852940.605888,42.000000,0.000000,4188.333496,4187.436035,4188.461426,4195.512695,4209.230957,4203.333496,4209.743652,4206.282227,4205.256348,4213.974121,4211.153809,4183.846191,4214.358887,4211.153809,0.000000,4.000000,91.000000,,,,0.000000,4.000000,4.000000,4.000000,4.000000,4.000000,4.000000,4.000000,4.000000,4.000000,4.000000,4.000000,4.000000,4.000000,4.000000,100.000000,1.000000,58.333332,4.000000,4.000000,3.000000,4.000000,3.000000,4.000000,1.000000,4.000000,4.000000,3.000000,4.000000,4.000000,4.000000,4.000000
1644852940.609829,43.000000,0.000000,4191.153809,4192.179688,4190.769043,4201.538574,4212.051270,4204.102539,4210.256348,4205.512695,4204.487305,4210.000000,4208.589844,4179.615234,4217.051270,4214.102539,0.000000,4.000000,91.000000,,,,0.000000,4.000000,4.000000,4.000000,4.000000,4.000000,4.000000,4.000000,4.000000,4.000000,4.000000,4.000000,4.000000,4.000000,4.000000,100.000000,,,,,,,,,,,,,,,,
1644852940.613769,44.000000,0.000000,4188.717773,4191.922852,4195.512695,4201.153809,4206.538574,4204.102539,4210.769043,4206.794922,4204.487305,4206.025879,4206.025879,4177.051270,4210.897461,4204.487305,0.000000,4.000000,91.000000,,,,0.000000,4.000000,4.000000,4.000000,4.000000,4.000000,4.000000,4.000000,4.000000,4.000000,4.000000,4.000000,4.000000,4.000000,4.000000,100.000000,,,,,,,,,,,,,,,,
1644852940.617709,45.000000,0.000000,4186.666504,4190.000000,4202.563965,4194.102539,4198.589844,4204.743652,4210.512695,4209.743652,4206.794922,4205.256348,4206.666504,4180.128418,4203.461426,4190.512695,0.000000,4.000000,91.000000,,,,0.000000,4.000000,4.000000,4.000000,4.000000,4.000000,4.000000,4.000000,4.000000,4.000000,4.000000,4.000000,4.000000,4.000000,4.000000,100.000000,,,,,,,,,,,,,,,,
1644852940.621649,46.000000,0.000000,4190.256348,4191.282227,4210.128418,4186.794922,4194.358887,4207.307617,4210.256348,4213.077148,4210.769043,4208.077148,4211.410156,4189.230957,4202.179688,4184.615234,0.000000,4.000000,91.000000,,,,0.000000,4.000000,4.000000,4.000000,4.000000,4.000000,4.000000,4.000000,4.000000,4.000000,4.000000,4.000000,4.000000,4.000000,4.000000,100.000000,,,,,,,,,,,,,,,,
1644852940.625589,47.000000,0.000000,4198.461426,4196.666504,4215.384766,4186.410156,4195.769043,4210.256348,4211.410156,4215.769043,4214.487305,4211.666504,4218.077148,4199.230957,4208.333496,4193.717773,0.000000,4.000000,91.000000,,,,0.000000,4.000000,4.000000,4.000000,4.000000,4.000000,4.000000,4.000000,4.000000,4.000000,4.000000,4.000000,4.000000,4.000000,4.000000,100.000000,,,,,,,,,,,,,,,,
1644852940.629529,48.000000,0.000000,4204.487305,4202.051270,4215.256348,4193.974121,4199.487305,4210.641113,4212.820313,4216.410156,4215.769043,4213.205078,4224.102539,4204.102539,4216.410156,4213.974121,0.000000,4.000000,91.000000,,,,0.000000,4.000000,4.000000,4.000000,4.000000,4.000000,4.000000,4.000000,4.000000,4.000000,4.000000,4.000000,4.000000,4.000000,4.000000,100.000000,,,,,,,,,,,,,,,,
1644852940.633469,49.000000,0.000000,4202.563965,4201.794922,4208.974121,4202.563965,4199.487305,4207.436035,4212.179688,4214.487305,4213.461426,4212.563965,4227.692383,4201.410156,4219.743652,4232.948730,0.000000,4.000000,91.000000,,,,0.000000,4.000000,4.000000,4.000000,4.000000,4.000000,4.000000,4.000000,4.000000,4.000000,4.000000,4.000000,4.000000,4.000000,4.000000,100.000000,,,,,,,,,,,,,,,,
1644852940.637409,50.000000,0.000000,4193.205078,4194.743652,4199.358887,4203.717773,4193.077148,4202.820313,4208.589844,4210.384766,4208.205078,4210.897461,4227.820313,4193.589844,4215.384766,4239.102539,0.000000,4.000000,91.000000,,,,0.000000,4.000000,4.000000,4.000000,4.000000,4.000000,4.000000,4.000000,4.000000,4.000000,4.000000,4.000000,4.000000,4.000000,4.000000,100.000000,,,,,,,,,,,,,,,,
1644852940.641349,51.000000,0.000000,4183.974121,4185.769043,4192.051270,4195.641113,4184.615234,4200.769043,4205.256348,4205.769043,4202.179688,4209.487305,4223.974121,4186.410156,4207.051270,4230.512695,0.000000,4.000000,91.000000,,,,0.000000,4.000000,4.000000,4.000000,4.000000,4.000000,4.000000,4.000000,4.000000,4.000000,4.000000,4.000000,4.000000,4.000000,4.000000,100.000000,,,,,,,,,,,,,,,,
1644852940.645289,52.000000,0.000000,4182.948730,4182.179688,4191.025879,4185.512695,4182.692383,4203.205078,4205.769043,4202.436035,4197.563965,4208.333496,4217.307617,4184.102539,4201.410156,4215.897461,0.000000,4.000000,91.000000,,,,0.000000,4.000000,4.000000,4.000000,4.000000,4.000000,4.000000,4.000000,4.000000,4.000000,4.000000,4.000000,4.000000,4.000000,4.000000,100.000000,,,,,,,,,,,,,,,,
1644852940.649230,53.000000,0.000000,4192.820313,4187.820313,4196.282227,4182.692383,4192.563965,4208.846191,4210.769043,4201.025879,4195.897461,4207.563965,4210.769043,4187.948730,4203.333496,4207.179688,0.000000,4.000000,91.000000,,,,0.000000,4.000000,4.000000,4.000000,4.000000,4.000000,4.000000,4.000000,4.000000,4.000000,4.000000,4.000000,4.000000,4.000000,4.000000,100.000000,,,,,,,,,,,,,,,,
1644852940.653170,54.000000,0.000000,4207.179688,4200.000000,4203.333496,4189.487305,4210.769043,4213.717773,4216.153809,4200.641113,4197.051270,4206.922852,4207.692383,4194.487305,4211.666504,4208.974121,0.000000,4.000000,91.000000,,,,0.000000,4.000000,4.000000,4.000000,4.000000,4.000000,4.000000,4.000000,4.000000,4.000000,4.000000,4.000000,4.000000,4.000000,4.000000,100.000000,,,,,,,,,,,,,,,,
1644852940.657110,55.000000,0.000000,4215.512695,4211.538574,4207.051270,4199.743652,4226.794922,4215.000000,4217.820313,4199.871582,4199.230957,4205.128418,4208.589844,4198.461426,4220.128418,4215.384766,0.000000,4.000000,91.000000,,,,0.000000,4.000000,4.000000,4.000000,4.000000,4.000000,4.000000,4.000000,4.000000,4.000000,4.000000,4.000000,4.000000,4.000000,4.000000,100.000000,,,,,,,,,,,,,,,,
1644852940.661050,56.000000,0.000000,4210.512695,4216.282227,4205.769043,4204.871582,4230.512695,4212.179688,4215.641113,4197.820313,4200.000000,4199.871582,4210.769043,4195.641113,4221.025879,4217.051270,0.000000,4.000000,91.000000,,,,0.000000,4.000000,4.000000,4.000000,4.000000,4.000000,4.000000,4.000000,4.000000,4.000000,4.000000,4.000000,4.000000,4.000000,4.000000,100.000000,,,,,,,,,,,,,,,,
1644852940.664990,57.000000,0.000000,4194.487305,4212.179688,4201.153809,4202.692383,4218.974121,4207.563965,4212.436035,4195.256348,4197.307617,4190.256348,4211.410156,4186.410156,4211.794922,4210.256348,0.000000,4.000000,91.000000,,,,0.000000,4.000000,4.000000,4.000000,4.000000,4.000000,4.000000,4.000000,4.000000,4.000000,4.000000,4.000000,4.000000,4.000000,4.000000,100.000000,,,,,,,,,,,,,,,,
1644852940.668930,58.000000,0.000000,4178.077148,4203.461426,4197.179688,4197.820313,4200.256348,4204.230957,4210.512695,4193.461426,4192.307617,4179.615234,4210.256348,4174.871582,4197.179688,4200.128418,0.000000,4.000000,91.000000,,,,0.000000,4.000000,4.000000,4.000000,4.000000,4.000000,4.000000,4.000000,4.000000,4.000000,4.000000,4.000000,4.000000,4.000000,4.000000,100.000000,,,,,,,,,,,,,,,,
1644852940.672870,59.000000,0.000000,4172.179688,4196.794922,4196.410156,4196.666504,4188.205078,4204.615234,4209.871582,4193.717773,4189.102539,4174.358887,4208.589844,4166.794922,4185.769043,4196.025879,0.000000,4.000000,91.000000,,,,0.000000,4.000000,4.000000,4.000000,4.000000,4.000000,4.000000,4.000000,4.000000,4.000000,4.000000,4.000000,4.000000,4.000000,4.000000,100.000000,,,,,,,,,,,,,,,,
1644852940.676810,60.000000,0.000000,4180.384766,4196.410156,4198.717773,4201.282227,4191.410156,4209.230957,4209.615234,4196.794922,4191.538574,4179.615234,4208.077148,4166.538574,4184.743652,4203.205078,0.000000,4.000000,91.000000,,,,0.000000,4.000000,4.000000,4.000000,4.000000,4.000000,4.000000,4.000000,4.000000,4.000000,4.000000,4.000000,4.000000,4.000000,4.000000,100.000000,,,,,,,,,,,,,,,,
1644852940.680651,61.000000,0.000000,4196.538574,4201.666504,4202.948730,4207.820313,4206.666504,4215.512695,4210.512695,4202.307617,4199.102539,4194.358887,4208.974121,4174.102539,4194.358887,4217.692383,0.000000,4.000000,91.000000,,,,0.000000,4.000000,4.000000,4.000000,4.000000,4.000000,4.000000,4.000000,4.000000,4.000000,4.000000,4.000000,4.000000,4.000000,4.000000,100.000000,,,,,,,,,,,,,,,,
1644852940.684591,62.000000,0.000000,4209.871582,4207.692383,4207.307617,4210.256348,4221.153809,4220.128418,4213.461426,4208.717773,4207.307617,4211.282227,4211.025879,4185.256348,4208.333496,4229.230957,0.000000,4.000000,91.000000,,,,0.000000,4.000000,4.000000,4.000000,4.000000,4.000000,4.000000,4.000000,4.000000,4.000000,4.000000,4.000000,4.000000,4.000000,4.000000,100.000000,,,,,,,,,,,,,,,,
1644852940.688531,63.000000,0.000000,4212.563965,4209.743652,4210.000000,4204.358887,4222.563965,4220.897461,4217.179688,4213.205078,4211.922852,4221.794922,4213.717773,4193.589844,4218.205078,4229.487305,0.000000,4.000000,91.000000,,,,0.000000,4.000000,4.000000,4.000000,4.000000,4.000000,4.000000,4.000000,4.000000,4.000000,4.000000,4.000000,4.000000,4.000000,4.000000,100.000000,,,,,,,,,,,,,,,,
1644852940.692471,64.000000,0.000000,4204.230957,4206.153809,4210.256348,4192.051270,4210.000000,4217.820313,4218.205078,4213.974121,4211.794922,4222.051270,4216.153809,4194.230957,4218.974121,4218.461426,0.000000,4.000000,91.000000,,,,0.000000,4.000000,4.000000,4.000000,4.000000,4.000000,4.000000,4.000000,4.000000,4.000000,4.000000,4.000000,4.000000,4.000000,4.000000,100.000000,,,,,,,,,,,,,,,,
1644852940.696411,65.000000,0.000000,4191.153809,4199.487305,4208.589844,4181.410156,4194.230957,4213.077148,4215.256348,4211.794922,4208.974121,4214.487305,4217.692383,4188.077148,4211.794922,4203.461426,0.000000,4.000000,91.000000,,,,0.000000,4.000000,4.000000,4.000000,4.000000,4.000000,4.000000,4.000000,4.000000,4.000000,4.000000,4.000000,4.000000,4.000000,4.000000,100.000000,,,,,,,,,,,,,,,,
1644852940.700351,66.000000,0.000000,4180.769043,4194.102539,4207.051270,4181.282227,4188.333496,4208.974121,4210.769043,4210.000000,4206.922852,4206.025879,4218.461426,4180.897461,4203.205078,4193.846191,0.000000,4.000000,91.000000,,,,0.000000,4.000000,4.000000,4.000000,4.000000,4.000000,4.000000,4.000000,4.000000,4.000000,4.000000,4.000000,4.000000,4.000000,4.000000,100.000000,,,,,,,,,,,,,,,,
