title:Alex-JCYZnW-8c4tGrkH2rofgpQ, start timestamp:1644854485.446060, stop timestamp:1644854511.745465, headset type:EPOCPLUS, headset serial:3B9AEBFF, headset firmware:626, channels:55, sampling rate:eeg_256, samples:6676      , version:2.1, 
Timestamp,EEG.Counter,EEG.Interpolated,EEG.AF3,EEG.F7,EEG.F3,EEG.FC5,EEG.T7,EEG.P7,EEG.O1,EEG.O2,EEG.P8,EEG.T8,EEG.FC6,EEG.F4,EEG.F8,EEG.AF4,EEG.RawCq,EEG.Battery,EEG.BatteryPercent,MarkerIndex,MarkerType,MarkerValueInt,EEG.MarkerHardware,CQ.AF3,CQ.F7,CQ.F3,CQ.FC5,CQ.T7,CQ.P7,CQ.O1,CQ.O2,CQ.P8,CQ.T8,CQ.FC6,CQ.F4,CQ.F8,CQ.AF4,CQ.Overall,EQ.SampleRateQuality,EQ.OVERALL,EQ.AF3,EQ.F7,EQ.F3,EQ.FC5,EQ.T7,EQ.P7,EQ.O1,EQ.O2,EQ.P8,EQ.T8,EQ.FC6,EQ.F4,EQ.F8,EQ.AF4
1644854485.446060,131.000000,0.000000,4136.666504,3951.410156,4191.666504,3667.435791,4047.435791,4216.794922,4216.794922,4208.461426,4216.794922,4162.179688,3968.974365,4200.000000,3982.692383,3908.076904,3564.000000,4.000000,82.000000,,,,0.000000,4.000000,4.000000,4.000000,4.000000,4.000000,4.000000,4.000000,4.000000,4.000000,4.000000,4.000000,4.000000,4.000000,4.000000,100.000000,,,,,,,,,,,,,,,,
1644854485.449900,132.000000,0.000000,4140.769043,3956.538574,4193.717773,3667.820557,4052.051270,4215.897461,4218.205078,4209.615234,4217.948730,4160.256348,3964.358887,4202.563965,3977.948730,3905.128174,3269.000000,4.000000,82.000000,,,,0.000000,4.000000,4.000000,4.000000,4.000000,4.000000,4.000000,4.000000,4.000000,4.000000,4.000000,4.000000,4.000000,4.000000,4.000000,100.000000,,,,,,,,,,,,,,,,
1644854485.453840,133.000000,0.000000,4144.358887,3960.897461,4192.563965,3672.051270,4054.871826,4215.769043,4217.692383,4210.000000,4220.641113,4166.794922,3967.307617,4204.102539,3972.820557,3899.102539,3372.000000,4.000000,82.000000,,,,0.000000,4.000000,4.000000,4.000000,4.000000,4.000000,4.000000,4.000000,4.000000,4.000000,4.000000,4.000000,4.000000,4.000000,4.000000,100.000000,,,,,,,,,,,,,,,,
1644854485.457780,134.000000,0.000000,4147.948730,3962.564209,4190.256348,3678.718018,4056.153809,4217.948730,4218.205078,4209.871582,4223.717773,4177.563965,3978.333252,4202.820313,3972.692383,3897.692383,2385.000000,4.000000,82.000000,,,,0.000000,4.000000,4.000000,4.000000,4.000000,4.000000,4.000000,4.000000,4.000000,4.000000,4.000000,4.000000,4.000000,4.000000,4.000000,100.000000,,,,,,,,,,,,,,,,
1644854485.461721,135.000000,0.000000,4151.538574,3961.923096,4188.461426,3683.974365,4056.538574,4222.563965,4220.897461,4209.230957,4224.615234,4184.102539,3990.769287,4197.948730,3977.948730,3904.230713,3134.000000,4.000000,82.000000,,,,0.000000,4.000000,4.000000,4.000000,4.000000,4.000000,4.000000,4.000000,4.000000,4.000000,4.000000,4.000000,4.000000,4.000000,4.000000,100.000000,,,,,,,,,,,,,,,,
1644854485.465661,136.000000,0.000000,4153.846191,3960.897461,4186.794922,3684.743652,4057.051270,4227.692383,4223.589844,4208.461426,4222.179688,4181.282227,3995.897461,4190.512695,3983.461426,3913.974365,3321.000000,4.000000,82.000000,,,,0.000000,4.000000,4.000000,4.000000,4.000000,4.000000,4.000000,4.000000,4.000000,4.000000,4.000000,4.000000,4.000000,4.000000,4.000000,100.000000,,,,,,,,,,,,,,,,
1644854485.469601,137.000000,0.000000,4153.846191,3960.897461,4184.358887,3681.410156,4058.589844,4231.538574,4222.820313,4207.820313,4218.077148,4171.666504,3990.384521,4184.230957,3982.948730,3919.230713,3629.000000,4.000000,82.000000,,,,0.000000,4.000000,4.000000,4.000000,4.000000,4.000000,4.000000,4.000000,4.000000,4.000000,4.000000,4.000000,4.000000,4.000000,4.000000,100.000000,,,,,,,,,,,,,,,,
1644854485.473541,138.000000,0.000000,4151.025879,3961.794922,4181.410156,3676.538574,4060.384521,4233.205078,4219.102539,4207.948730,4215.384766,4162.692383,3978.718018,4182.692383,3974.358887,3916.538574,3561.000000,4.000000,82.000000,,,,0.000000,4.000000,4.000000,4.000000,4.000000,4.000000,4.000000,4.000000,4.000000,4.000000,4.000000,4.000000,4.000000,4.000000,4.000000,100.000000,,,,,,,,,,,,,,,,
1644854485.477481,139.000000,0.000000,4146.666504,3962.564209,4179.615234,3673.333252,4060.641113,4233.589844,4216.794922,4209.358887,4216.025879,4160.256348,3968.846191,4186.410156,3962.179443,3910.512939,2434.000000,4.000000,82.000000,,,,0.000000,4.000000,4.000000,4.000000,4.000000,4.000000,4.000000,4.000000,4.000000,4.000000,4.000000,4.000000,4.000000,4.000000,4.000000,100.000000,,,,,,,,,,,,,,,,
1644854485.481421,140.000000,0.000000,4144.230957,3962.948730,4181.025879,3673.205078,4058.718018,4233.589844,4219.102539,4211.794922,4219.102539,4165.384766,3966.281982,4192.436035,3953.974365,3908.333252,3253.000000,4.000000,82.000000,,,,0.000000,4.000000,4.000000,4.000000,4.000000,4.000000,4.000000,4.000000,4.000000,4.000000,4.000000,4.000000,4.000000,4.000000,4.000000,100.000000,,,,,,,,,,,,,,,,
1644854485.485361,141.000000,0.000000,4146.666504,3963.589844,4185.384766,3675.256348,4055.897461,4233.589844,4224.358887,4213.717773,4222.051270,4173.974121,3970.384521,4196.282227,3955.384521,3912.948730,3574.000000,4.000000,82.000000,,,,0.000000,4.000000,4.000000,4.000000,4.000000,4.000000,4.000000,4.000000,4.000000,4.000000,4.000000,4.000000,4.000000,4.000000,4.000000,100.000000,,,,,,,,,,,,,,,,
1644854485.489301,142.000000,0.000000,4153.589844,3964.358887,4189.615234,3677.564209,4054.487061,4233.717773,4226.666504,4213.717773,4223.333496,4180.384766,3976.794922,4195.769043,3965.641113,3920.000000,3561.000000,4.000000,82.000000,,,,0.000000,4.000000,4.000000,4.000000,4.000000,4.000000,4.000000,4.000000,4.000000,4.000000,4.000000,4.000000,4.000000,4.000000,4.000000,100.000000,,,,,,,,,,,,,,,,
1644854485.493241,143.000000,0.000000,4160.512695,3964.230713,4190.641113,3679.102539,4055.512939,4233.589844,4223.205078,4212.179688,4223.333496,4181.666504,3981.281982,4191.794922,3978.205078,3923.461426,2434.000000,4.000000,82.000000,,,,0.000000,4.000000,4.000000,4.000000,4.000000,4.000000,4.000000,4.000000,4.000000,4.000000,4.000000,4.000000,4.000000,4.000000,4.000000,100.000000,,,,,,,,,,,,,,,,
1644854485.497181,144.000000,0.000000,4161.538574,3962.179443,4187.820313,3680.641113,4058.205078,4232.563965,4216.922852,4210.641113,4223.205078,4179.102539,3982.564209,4188.077148,3986.281982,3921.281982,3253.000000,4.000000,82.000000,,,,0.000000,4.000000,4.000000,4.000000,4.000000,4.000000,4.000000,4.000000,4.000000,4.000000,4.000000,4.000000,4.000000,4.000000,4.000000,100.000000,,,,,,,,,,,,,,,,
1644854485.501122,145.000000,0.000000,4154.871582,3958.461426,4183.589844,3682.307617,4061.666748,4230.512695,4213.717773,4211.282227,4224.230957,4175.512695,3982.307617,4187.563965,3986.410156,3916.281982,3574.000000,4.000000,82.000000,,,,0.000000,4.000000,4.000000,4.000000,4.000000,4.000000,4.000000,4.000000,4.000000,4.000000,4.000000,4.000000,4.000000,4.000000,4.000000,100.000000,,,,,,,,,,,,,,,,
1644854485.505062,146.000000,0.000000,4144.743652,3954.743652,4181.282227,3682.948730,4065.897461,4228.077148,4215.769043,4213.717773,4226.666504,4174.230957,3983.076904,4191.025879,3980.769287,3911.794922,3561.000000,4.000000,82.000000,,,,0.000000,4.000000,4.000000,4.000000,4.000000,4.000000,4.000000,4.000000,4.000000,4.000000,4.000000,4.000000,4.000000,4.000000,4.000000,100.000000,,,,,,,,,,,,,,,,
1644854485.509002,147.000000,0.000000,4138.333496,3953.589844,4181.538574,3680.769287,4070.384521,4227.307617,4220.128418,4216.153809,4229.743652,4176.794922,3985.641113,4196.666504,3975.000000,3910.128174,2434.000000,4.000000,82.000000,,,,0.000000,4.000000,4.000000,4.000000,4.000000,4.000000,4.000000,4.000000,4.000000,4.000000,4.000000,4.000000,4.000000,4.000000,4.000000,100.000000,,,,,,,,,,,,,,,,
1644854485.512942,148.000000,0.000000,4140.256348,3955.769287,4182.436035,3676.153809,4072.564209,4228.589844,4222.948730,4217.307617,4232.563965,4183.205078,3988.718018,4201.410156,3973.461426,3912.820557,3253.000000,4.000000,82.000000,,,,0.000000,4.000000,4.000000,4.000000,4.000000,4.000000,4.000000,4.000000,4.000000,4.000000,4.000000,4.000000,4.000000,4.000000,4.000000,100.000000,,,,,,,,,,,,,,,,
1644854485.516882,149.000000,0.000000,4148.589844,3959.615479,4181.410156,3672.179443,4069.871826,4229.871582,4222.692383,4217.179688,4233.461426,4191.410156,3990.384521,4203.205078,3975.897461,3920.897461,3574.000000,4.000000,82.000000,,,,0.000000,4.000000,4.000000,4.000000,4.000000,4.000000,4.000000,4.000000,4.000000,4.000000,4.000000,4.000000,4.000000,4.000000,4.000000,100.000000,,,,,,,,,,,,,,,,
1644854485.520722,150.000000,0.000000,4157.307617,3962.179443,4177.820313,3672.051270,4062.435791,4228.717773,4221.282227,4216.153809,4231.666504,4197.692383,3989.487061,4201.282227,3977.435791,3932.051270,3561.000000,4.000000,82.000000,,,,0.000000,4.000000,4.000000,4.000000,4.000000,4.000000,4.000000,4.000000,4.000000,4.000000,4.000000,4.000000,4.000000,4.000000,4.000000,100.000000,,,,,,,,,,,,,,,,
1644854485.524662,151.000000,0.000000,4161.025879,3961.794922,4173.461426,3674.615479,4054.487061,4225.128418,4220.000000,4214.743652,4228.077148,4198.589844,3986.923096,4196.410156,3974.230713,3940.384521,2434.000000,4.000000,82.000000,,,,0.000000,4.000000,4.000000,4.000000,4.000000,4.000000,4.000000,4.000000,4.000000,4.000000,4.000000,4.000000,4.000000,4.000000,4.000000,100.000000,,,,,,,,,,,,,,,,
1644854485.528602,152.000000,0.000000,4159.102539,3959.743652,4171.666504,3675.897461,4050.769287,4221.025879,4218.717773,4212.692383,4223.974121,4192.948730,3985.769287,4191.153809,3967.692383,3941.025635,3253.000000,4.000000,82.000000,,,,0.000000,4.000000,4.000000,4.000000,4.000000,4.000000,4.000000,4.000000,4.000000,4.000000,4.000000,4.000000,4.000000,4.000000,4.000000,100.000000,,,,,,,,,,,,,,,,
1644854485.532543,153.000000,0.000000,4155.128418,3959.102539,4173.461426,3673.974365,4052.948730,4219.487305,4217.051270,4210.128418,4221.025879,4183.974121,3987.692383,4187.948730,3963.333252,3934.615479,3574.000000,4.000000,82.000000,,,,0.000000,4.000000,4.000000,4.000000,4.000000,4.000000,4.000000,4.000000,4.000000,4.000000,4.000000,4.000000,4.000000,4.000000,4.000000,100.000000,,,,,,,,,,,,,,,,
1644854485.536483,154.000000,0.000000,4153.205078,3961.153809,4177.179688,3671.794922,4058.076904,4221.025879,4216.153809,4207.820313,4219.358887,4177.051270,3992.051270,4188.589844,3965.512939,3928.076904,3561.000000,4.000000,82.000000,,,,0.000000,4.000000,4.000000,4.000000,4.000000,4.000000,4.000000,4.000000,4.000000,4.000000,4.000000,4.000000,4.000000,4.000000,4.000000,100.000000,,,,,,,,,,,,,,,,
1644854485.540423,155.000000,0.000000,4155.769043,3964.871826,4180.128418,3674.230713,4061.410156,4224.102539,4216.794922,4206.153809,4218.333496,4175.897461,3996.025635,4192.820313,3974.487061,3928.333252,2434.000000,4.000000,82.000000,,,,0.000000,4.000000,4.000000,4.000000,4.000000,4.000000,4.000000,4.000000,4.000000,4.000000,4.000000,4.000000,4.000000,4.000000,4.000000,100.000000,,,,,,,,,,,,,,,,
1644854485.544363,156.000000,0.000000,4162.051270,3968.205078,4180.384766,3682.051270,4060.384521,4226.025879,4218.205078,4204.743652,4216.922852,4180.384766,3997.948730,4198.205078,3986.794922,3936.538574,3253.000000,4.000000,82.000000,,,,0.000000,4.000000,4.000000,4.000000,4.000000,4.000000,4.000000,4.000000,4.000000,4.000000,4.000000,4.000000,4.000000,4.000000,4.000000,100.000000,,,,,,,,,,,,,,,,
1644854485.548303,157.000000,0.000000,4169.102539,3969.871826,4178.333496,3690.897461,4056.794922,4224.871582,4217.948730,4202.820313,4215.384766,4186.282227,3997.820557,4202.179688,3997.692383,3947.307617,3574.000000,4.000000,82.000000,,,,0.000000,4.000000,4.000000,4.000000,4.000000,4.000000,4.000000,4.000000,4.000000,4.000000,4.000000,4.000000,4.000000,4.000000,4.000000,100.000000,,,,,,,,,,,,,,,,
1644854485.552243,158.000000,0.000000,4173.077148,3970.512939,4176.666504,3694.743652,4054.871826,4221.410156,4215.128418,4201.282227,4214.743652,4188.974121,3996.794922,4203.333496,4004.102539,3954.230713,3561.000000,4.000000,82.000000,,,,0.000000,4.000000,4.000000,4.000000,4.000000,4.000000,4.000000,4.000000,4.000000,4.000000,4.000000,4.000000,4.000000,4.000000,4.000000,100.000000,,,,,,,,,,,,,,,,
1644854485.556183,159.000000,0.000000,4172.307617,3971.794922,4178.205078,3691.794922,4057.051270,4217.307617,4211.666504,4201.153809,4215.128418,4186.922852,3995.384521,4201.794922,4005.128174,3954.871826,2434.000000,4.000000,82.000000,,,,0.000000,4.000000,4.000000,4.000000,4.000000,4.000000,4.000000,4.000000,4.000000,4.000000,4.000000,4.000000,4.000000,4.000000,4.000000,100.000000,,,,,,,,,,,,,,,,
1644854485.560123,160.000000,0.000000,4168.589844,3974.102539,4183.205078,3685.384521,4061.794922,4214.102539,4210.897461,4203.461426,4216.153809,4183.205078,3993.589844,4198.974121,4002.948730,3951.923096,3253.000000,4.000000,82.000000,,,,0.000000,4.000000,4.000000,4.000000,4.000000,4.000000,4.000000,4.000000,4.000000,4.000000,4.000000,4.000000,4.000000,4.000000,4.000000,100.000000,,,,,,,,,,,,,,,,
1644854485.564063,161.000000,0.000000,4165.000000,3976.281982,4188.974121,3682.051270,4065.128174,4212.307617,4213.589844,4207.307617,4217.692383,4182.692383,3990.897461,4197.051270,4000.897461,3949.230713,3574.000000,4.000000,82.000000,,,,0.000000,4.000000,4.000000,4.000000,4.000000,4.000000,4.000000,4.000000,4.000000,4.000000,4.000000,4.000000,4.000000,4.000000,4.000000,100.000000,,,,,,,,,,,,,,,,
1644854485.568003,162.000000,0.000000,4164.487305,3976.794922,4192.563965,3685.897461,4065.000000,4212.692383,4217.051270,4211.410156,4220.256348,4188.077148,3988.718018,4197.436035,4001.923096,3948.974365,3561.000000,4.000000,82.000000,,,,0.000000,4.000000,4.000000,4.000000,4.000000,4.000000,4.000000,4.000000,4.000000,4.000000,4.000000,4.000000,4.000000,4.000000,4.000000,100.000000,,,,,,,,,,,,,,,,
1644854485.571944,163.000000,0.000000,4167.307617,3974.871826,4193.333496,3695.000000,4063.205078,4215.897461,4218.717773,4214.487305,4224.230957,4197.692383,3990.000000,4200.512695,4006.025635,3951.281982,2434.000000,4.000000,82.000000,,,,0.000000,4.000000,4.000000,4.000000,4.000000,4.000000,4.000000,4.000000,4.000000,4.000000,4.000000,4.000000,4.000000,4.000000,4.000000,100.000000,,,,,,,,,,,,,,,,
1644854485.575884,164.000000,0.000000,4172.436035,3970.897461,4193.333496,3702.564209,4063.076904,4220.897461,4218.717773,4216.666504,4229.102539,4205.897461,3997.307617,4205.256348,4009.358887,3955.641113,3253.000000,4.000000,82.000000,,,,0.000000,4.000000,4.000000,4.000000,4.000000,4.000000,4.000000,4.000000,4.000000,4.000000,4.000000,4.000000,4.000000,4.000000,4.000000,100.000000,,,,,,,,,,,,,,,,
1644854485.579824,165.000000,0.000000,4176.666504,3966.025635,4193.461426,3701.538574,4065.897461,4226.025879,4218.974121,4218.846191,4233.333496,4207.948730,4009.230713,4210.000000,4008.205078,3960.512939,3574.000000,4.000000,82.000000,,,,0.000000,4.000000,4.000000,4.000000,4.000000,4.000000,4.000000,4.000000,4.000000,4.000000,4.000000,4.000000,4.000000,4.000000,4.000000,100.000000,,,,,,,,,,,,,,,,
1644854485.583764,166.000000,0.000000,4176.538574,3961.923096,4192.692383,3691.153809,4068.718018,4229.102539,4220.769043,4220.897461,4235.256348,4203.077148,4020.256348,4212.307617,4001.281982,3963.205078,3561.000000,4.000000,82.000000,,,,0.000000,4.000000,4.000000,4.000000,4.000000,4.000000,4.000000,4.000000,4.000000,4.000000,4.000000,4.000000,4.000000,4.000000,4.000000,100.000000,,,,,,,,,,,,,,,,
1644854485.587704,167.000000,0.000000,4170.897461,3960.384521,4188.846191,3676.281982,4067.564209,4229.102539,4222.307617,4222.051270,4234.871582,4195.641113,4023.718018,4210.641113,3991.794922,3960.256348,2434.000000,4.000000,82.000000,,,,0.000000,4.000000,4.000000,4.000000,4.000000,4.000000,4.000000,4.000000,4.000000,4.000000,4.000000,4.000000,4.000000,4.000000,4.000000,100.000000,,,,,,,,,,,,,,,,
1644854485.591644,168.000000,0.000000,4161.794922,3961.281982,4181.410156,3664.358887,4061.025635,4226.282227,4221.794922,4220.897461,4232.692383,4191.153809,4016.410156,4203.974121,3984.358887,3952.435791,3253.000000,4.000000,82.000000,,,,0.000000,4.000000,4.000000,4.000000,4.000000,4.000000,4.000000,4.000000,4.000000,4.000000,4.000000,4.000000,4.000000,4.000000,4.000000,100.000000,,,,,,,,,,,,,,,,
1644854485.595484,169.000000,0.000000,4153.846191,3962.307617,4172.436035,3659.487061,4052.307617,4222.179688,4219.743652,4216.666504,4229.615234,4191.410156,4001.666748,4193.846191,3981.538574,3944.230713,3574.000000,4.000000,82.000000,,,,0.000000,4.000000,4.000000,4.000000,4.000000,4.000000,4.000000,4.000000,4.000000,4.000000,4.000000,4.000000,4.000000,4.000000,4.000000,100.000000,,,,,,,,,,,,,,,,
1644854485.599424,170.000000,0.000000,4151.282227,3961.025635,4165.384766,3661.153809,4046.538574,4218.461426,4218.333496,4211.153809,4225.641113,4193.333496,3986.538574,4183.717773,3982.692383,3941.281982,3561.000000,4.000000,82.000000,,,,0.000000,4.000000,4.000000,4.000000,4.000000,4.000000,4.000000,4.000000,4.000000,4.000000,4.000000,4.000000,4.000000,4.000000,4.000000,100.000000,,,,,,,,,,,,,,,,
1644854485.603365,171.000000,0.000000,4155.641113,3957.435791,4163.333496,3665.512939,4047.564209,4216.538574,4218.461426,4206.410156,4221.282227,4192.820313,3978.461426,4177.820313,3986.538574,3945.512939,2434.000000,4.000000,82.000000,,,,0.000000,4.000000,4.000000,4.000000,4.000000,4.000000,4.000000,4.000000,4.000000,4.000000,4.000000,4.000000,4.000000,4.000000,4.000000,100.000000,,,,,,,,,,,,,,,,
1644854485.607305,172.000000,0.000000,4164.743652,3954.871826,4166.282227,3668.846191,4054.230713,4216.410156,4218.846191,4204.358887,4217.692383,4189.102539,3980.128174,4178.717773,3991.410156,3953.974365,3253.000000,4.000000,82.000000,,,,0.000000,4.000000,4.000000,4.000000,4.000000,4.000000,4.000000,4.000000,4.000000,4.000000,4.000000,4.000000,4.000000,4.000000,4.000000,100.000000,,,,,,,,,,,,,,,,
1644854485.611245,173.000000,0.000000,4173.205078,3956.666748,4171.794922,3670.641113,4062.435791,4216.666504,4217.948730,4204.871582,4216.282227,4185.256348,3988.718018,4185.641113,3996.281982,3961.923096,3574.000000,4.000000,82.000000,,,,0.000000,4.000000,4.000000,4.000000,4.000000,4.000000,4.000000,4.000000,4.000000,4.000000,4.000000,4.000000,4.000000,4.000000,4.000000,100.000000,,,,,,,,,,,,,,,,
1644854485.615185,174.000000,0.000000,4176.922852,3963.205078,4177.436035,3671.923096,4067.820557,4216.666504,4217.307617,4206.666504,4217.307617,4185.000000,3997.564209,4194.871582,3999.615479,3966.538574,3561.000000,4.000000,82.000000,,,,0.000000,4.000000,4.000000,4.000000,4.000000,4.000000,4.000000,4.000000,4.000000,4.000000,4.000000,4.000000,4.000000,4.000000,4.000000,100.000000,,,,,,,,,,,,,,,,
1644854485.619125,175.000000,0.000000,4175.128418,3971.025635,4181.153809,3673.974365,4068.205078,4217.051270,4218.974121,4209.358887,4219.743652,4188.846191,4001.410156,4202.436035,4000.769287,3968.333252,2434.000000,4.000000,82.000000,,,,0.000000,4.000000,4.000000,4.000000,4.000000,4.000000,4.000000,4.000000,4.000000,4.000000,4.000000,4.000000,4.000000,4.000000,4.000000,100.000000,,,,,,,,,,,,,,,,
1644854485.623065,176.000000,0.000000,4170.641113,3975.000000,4182.948730,3677.179443,4065.128174,4218.333496,4222.820313,4211.922852,4221.922852,4193.205078,4000.128174,4205.512695,4000.641113,3968.461426,3253.000000,4.000000,82.000000,,,,0.000000,4.000000,4.000000,4.000000,4.000000,4.000000,4.000000,4.000000,4.000000,4.000000,4.000000,4.000000,4.000000,4.000000,4.000000,100.000000,,,,,,,,,,,,,,,,
1644854485.626905,177.000000,0.000000,4167.436035,3972.692383,4182.307617,3680.384521,4061.923096,4219.871582,4225.128418,4213.589844,4221.922852,4193.974121,3997.051270,4203.974121,4000.000000,3967.564209,3574.000000,4.000000,82.000000,,,,0.000000,4.000000,4.000000,4.000000,4.000000,4.000000,4.000000,4.000000,4.000000,4.000000,4.000000,4.000000,4.000000,4.000000,4.000000,100.000000,,,,,,,,,,,,,,,,
1644854485.630845,178.000000,0.000000,4166.922852,3965.256348,4178.846191,3681.153809,4060.512939,4220.000000,4222.820313,4212.820313,4218.461426,4189.102539,3995.000000,4198.974121,3998.589844,3966.153809,3561.000000,4.000000,82.000000,,,,0.000000,4.000000,4.000000,4.000000,4.000000,4.000000,4.000000,4.000000,4.000000,4.000000,4.000000,4.000000,4.000000,4.000000,4.000000,100.000000,,,,,,,,,,,,,,,,
1644854485.634785,179.000000,0.000000,4168.077148,3957.179443,4173.589844,3677.307617,4059.358887,4218.077148,4217.436035,4209.230957,4212.179688,4180.128418,3994.871826,4192.948730,3995.128174,3965.641113,2434.000000,4.000000,82.000000,,,,0.000000,4.000000,4.000000,4.000000,4.000000,4.000000,4.000000,4.000000,4.000000,4.000000,4.000000,4.000000,4.000000,4.000000,4.000000,100.000000,,,,,,,,,,,,,,,,
1644854485.638726,180.000000,0.000000,4168.333496,3953.589844,4169.358887,3669.358887,4056.923096,4215.128418,4213.717773,4204.230957,4205.512695,4171.153809,3996.538574,4188.205078,3990.384521,3967.179443,3253.000000,4.000000,82.000000,,,,0.000000,4.000000,4.000000,4.000000,4.000000,4.000000,4.000000,4.000000,4.000000,4.000000,4.000000,4.000000,4.000000,4.000000,4.000000,100.000000,,,,,,,,,,,,,,,,
1644854485.642666,181.000000,0.000000,4167.179688,3957.179443,4169.487305,3662.435791,4054.102539,4213.846191,4215.128418,4201.282227,4202.692383,4166.922852,3999.615479,4187.051270,3987.179443,3969.743652,3574.000000,4.000000,82.000000,,,,0.000000,4.000000,4.000000,4.000000,4.000000,4.000000,4.000000,4.000000,4.000000,4.000000,4.000000,4.000000,4.000000,4.000000,4.000000,100.000000,,,,,,,,,,,,,,,,
1644854485.646606,182.000000,0.000000,4167.307617,3966.538574,4175.256348,3662.564209,4054.871826,4216.410156,4220.000000,4203.461426,4206.282227,4170.512695,4003.974365,4190.769043,3989.871826,3970.769287,3561.000000,4.000000,82.000000,,,,0.000000,4.000000,4.000000,4.000000,4.000000,4.000000,4.000000,4.000000,4.000000,4.000000,4.000000,4.000000,4.000000,4.000000,4.000000,100.000000,,,,,,,,,,,,,,,,
1644854485.650546,183.000000,0.000000,4172.179688,3976.538574,4184.615234,3672.051270,4061.538574,4222.307617,4223.974121,4211.282227,4215.384766,4181.666504,4008.589844,4198.846191,4000.384521,3969.615479,2434.000000,4.000000,82.000000,,,,0.000000,4.000000,4.000000,4.000000,4.000000,4.000000,4.000000,4.000000,4.000000,4.000000,4.000000,4.000000,4.000000,4.000000,4.000000,100.000000,,,,,,,,,,,,,,,,
1644854485.654486,184.000000,0.000000,4183.077148,3981.794922,4193.333496,3686.153809,4072.307617,4228.589844,4225.512695,4222.179688,4225.897461,4196.153809,4012.435791,4208.461426,4015.897461,3970.128174,3253.000000,4.000000,82.000000,,,,0.000000,4.000000,4.000000,4.000000,4.000000,4.000000,4.000000,4.000000,4.000000,4.000000,4.000000,4.000000,4.000000,4.000000,4.000000,100.000000,,,,,,,,,,,,,,,,
1644854485.658426,185.000000,0.000000,4196.410156,3981.153809,4198.077148,3697.307617,4081.538574,4232.051270,4226.538574,4232.436035,4233.461426,4208.589844,4014.615479,4215.512695,4029.871826,3976.025635,3574.000000,4.000000,82.000000,,,,0.000000,4.000000,4.000000,4.000000,4.000000,4.000000,4.000000,4.000000,4.000000,4.000000,4.000000,4.000000,4.000000,4.000000,4.000000,100.000000,,,,,,,,,,,,,,,,
1644854485.662366,186.000000,0.000000,4205.769043,3977.692383,4198.077148,3699.743652,4084.487061,4231.922852,4228.717773,4238.974121,4236.025879,4215.000000,4015.897461,4217.692383,4035.897461,3985.641113,3561.000000,4.000000,82.000000,,,,0.000000,4.000000,4.000000,4.000000,4.000000,4.000000,4.000000,4.000000,4.000000,4.000000,4.000000,4.000000,4.000000,4.000000,4.000000,100.000000,,,,,,,,,,,,,,,,
1644854485.666306,187.000000,0.000000,4205.641113,3974.743652,4194.615234,3692.948730,4080.384521,4229.230957,4230.128418,4240.000000,4234.871582,4215.384766,4016.794922,4215.256348,4032.307617,3991.538574,2434.000000,4.000000,82.000000,,,,0.000000,4.000000,4.000000,4.000000,4.000000,4.000000,4.000000,4.000000,4.000000,4.000000,4.000000,4.000000,4.000000,4.000000,4.000000,100.000000,,,,,,,,,,,,,,,,
1644854485.670246,188.000000,0.000000,4195.256348,3972.820557,4188.461426,3681.538574,4072.179443,4225.641113,4227.820313,4236.282227,4232.307617,4211.922852,4017.564209,4210.384766,4022.820557,3986.923096,3253.000000,4.000000,82.000000,,,,0.000000,4.000000,4.000000,4.000000,4.000000,4.000000,4.000000,4.000000,4.000000,4.000000,4.000000,4.000000,4.000000,4.000000,4.000000,100.000000,,,,,,,,,,,,,,,,
1644854485.674187,189.000000,0.000000,4178.461426,3969.230713,4179.743652,3672.051270,4063.846191,4221.538574,4221.794922,4229.230957,4229.102539,4206.025879,4015.897461,4204.358887,4013.205078,3972.948730,3574.000000,4.000000,82.000000,,,,0.000000,4.000000,4.000000,4.000000,4.000000,4.000000,4.000000,4.000000,4.000000,4.000000,4.000000,4.000000,4.000000,4.000000,4.000000,100.000000,,,,,,,,,,,,,,,,
1644854485.678127,190.000000,0.000000,4161.153809,3961.794922,4169.358887,3668.461426,4057.307617,4216.538574,4215.384766,4220.512695,4223.974121,4197.307617,4008.461426,4196.666504,4006.794922,3956.923096,3561.000000,4.000000,82.000000,,,,0.000000,4.000000,4.000000,4.000000,4.000000,4.000000,4.000000,4.000000,4.000000,4.000000,4.000000,4.000000,4.000000,4.000000,4.000000,100.000000,,,,,,,,,,,,,,,,
1644854485.682067,191.000000,0.000000,4148.333496,3951.410156,4158.974121,3668.718018,4052.435791,4210.128418,4211.282227,4210.641113,4215.128418,4185.512695,3994.230713,4186.153809,4003.589844,3945.769287,2434.000000,4.000000,82.000000,,,,0.000000,4.000000,4.000000,4.000000,4.000000,4.000000,4.000000,4.000000,4.000000,4.000000,4.000000,4.000000,4.000000,4.000000,4.000000,100.000000,,,,,,,,,,,,,,,,
1644854485.686007,192.000000,0.000000,4142.307617,3942.307617,4150.128418,3667.564209,4048.205078,4203.333496,4208.717773,4199.871582,4203.846191,4172.307617,3977.564209,4173.333496,4001.666748,3940.769287,3253.000000,4.000000,82.000000,,,,0.000000,4.000000,4.000000,4.000000,4.000000,4.000000,4.000000,4.000000,4.000000,4.000000,4.000000,4.000000,4.000000,4.000000,4.000000,100.000000,,,,,,,,,,,,,,,,
1644854485.689947,193.000000,0.000000,4142.563965,3938.205078,4144.487305,3661.666748,4043.589844,4198.333496,4205.256348,4189.615234,4193.589844,4161.794922,3965.384521,4161.282227,4000.000000,3939.615479,3574.000000,4.000000,82.000000,,,,0.000000,4.000000,4.000000,4.000000,4.000000,4.000000,4.000000,4.000000,4.000000,4.000000,4.000000,4.000000,4.000000,4.000000,4.000000,100.000000,,,,,,,,,,,,,,,,
1644854485.693787,194.000000,0.000000,4145.641113,3939.743652,4143.205078,3653.589844,4039.102539,4197.307617,4200.897461,4182.436035,4187.948730,4157.307617,3962.307617,4153.846191,3999.102539,3939.871826,3561.000000,4.000000,82.000000,,,,0.000000,4.000000,4.000000,4.000000,4.000000,4.000000,4.000000,4.000000,4.000000,4.000000,4.000000,4.000000,4.000000,4.000000,4.000000,100.000000,,,,,,,,,,,,,,,,
1644854485.697727,195.000000,0.000000,4146.410156,3942.692383,4145.384766,3649.743652,4035.641113,4199.871582,4198.205078,4180.512695,4187.307617,4158.846191,3966.281982,4152.436035,3999.487061,3940.769287,2434.000000,4.000000,82.000000,,,,0.000000,4.000000,4.000000,4.000000,4.000000,4.000000,4.000000,4.000000,4.000000,4.000000,4.000000,4.000000,4.000000,4.000000,4.000000,100.000000,,,,,,,,,,,,,,,,
1644854485.701667,196.000000,0.000000,4140.897461,3941.538574,4147.436035,3653.846191,4034.743652,4202.563965,4198.333496,4182.563965,4189.102539,4161.794922,3971.025635,4155.384766,3999.358887,3941.410156,3253.000000,4.000000,82.000000,,,,0.000000,4.000000,4.000000,4.000000,4.000000,4.000000,4.000000,4.000000,4.000000,4.000000,4.000000,4.000000,4.000000,4.000000,4.000000,100.000000,,,,,,,,,,,,,,,,
1644854485.705607,197.000000,0.000000,4130.512695,3935.384521,4145.512695,3663.205078,4036.923096,4201.922852,4199.102539,4185.769043,4190.128418,4161.794922,3972.307617,4159.615234,3997.051270,3939.487061,3574.000000,4.000000,82.000000,,,,0.000000,4.000000,4.000000,4.000000,4.000000,4.000000,4.000000,4.000000,4.000000,4.000000,4.000000,4.000000,4.000000,4.000000,4.000000,100.000000,,,,,,,,,,,,,,,,
1644854485.709548,198.000000,0.000000,4122.820313,3929.615479,4139.487305,3669.487061,4041.794922,4197.051270,4197.179688,4187.948730,4190.000000,4158.717773,3971.410156,4163.461426,3992.948730,3934.615479,3561.000000,4.000000,82.000000,,,,0.000000,4.000000,4.000000,4.000000,4.000000,4.000000,4.000000,4.000000,4.000000,4.000000,4.000000,4.000000,4.000000,4.000000,4.000000,100.000000,,,,,,,,,,,,,,,,
1644854485.713488,199.000000,0.000000,4125.128418,3931.281982,4133.589844,3666.153809,4048.205078,4191.025879,4192.948730,4189.487305,4190.769043,4156.666504,3973.718018,4166.410156,3990.384521,3930.000000,2434.000000,4.000000,82.000000,,,,0.000000,4.000000,4.000000,4.000000,4.000000,4.000000,4.000000,4.000000,4.000000,4.000000,4.000000,4.000000,4.000000,4.000000,4.000000,100.000000,,,,,,,,,,,,,,,,
1644854485.717428,200.000000,0.000000,4138.205078,3943.333252,4133.077148,3654.487061,4054.487061,4187.692383,4190.256348,4192.563965,4195.128418,4160.000000,3982.948730,4169.230957,3993.461426,3930.256348,3253.000000,4.000000,82.000000,,,,0.000000,4.000000,4.000000,4.000000,4.000000,4.000000,4.000000,4.000000,4.000000,4.000000,4.000000,4.000000,4.000000,4.000000,4.000000,100.000000,,,,,,,,,,,,,,,,
1644854485.721368,201.000000,0.000000,4154.615234,3960.897461,4139.102539,3643.205078,4058.461426,4189.102539,4191.922852,4197.820313,4203.333496,4169.871582,3996.410156,4172.436035,4003.205078,3936.153809,3574.000000,4.000000,82.000000,,,,0.000000,4.000000,4.000000,4.000000,4.000000,4.000000,4.000000,4.000000,4.000000,4.000000,4.000000,4.000000,4.000000,4.000000,4.000000,100.000000,,,,,,,,,,,,,,,,
1644854485.725308,202.000000,0.000000,4164.487305,3974.358887,4147.692383,3641.794922,4059.358887,4194.102539,4196.538574,4203.589844,4212.692383,4182.563965,4006.025635,4175.128418,4015.641113,3943.076904,3561.000000,4.000000,82.000000,,,,0.000000,4.000000,4.000000,4.000000,4.000000,4.000000,4.000000,4.000000,4.000000,4.000000,4.000000,4.000000,4.000000,4.000000,4.000000,100.000000,,,,,,,,,,,,,,,,
1644854485.729248,203.000000,0.000000,4162.692383,3976.538574,4153.589844,3653.076904,4057.948730,4199.615234,4199.615234,4206.410156,4218.589844,4192.051270,4005.769287,4175.641113,4024.871826,3946.153809,2434.000000,4.000000,82.000000,,,,0.000000,4.000000,4.000000,4.000000,4.000000,4.000000,4.000000,4.000000,4.000000,4.000000,4.000000,4.000000,4.000000,4.000000,4.000000,100.000000,,,,,,,,,,,,,,,,
1644854485.733188,204.000000,0.000000,4152.436035,3967.820557,4154.358887,3671.538574,4056.538574,4202.436035,4199.102539,4204.615234,4217.692383,4193.846191,3996.794922,4173.333496,4027.435791,3945.641113,3253.000000,4.000000,82.000000,,,,0.000000,4.000000,4.000000,4.000000,4.000000,4.000000,4.000000,4.000000,4.000000,4.000000,4.000000,4.000000,4.000000,4.000000,4.000000,100.000000,,,,,,,,,,,,,,,,
1644854485.737128,205.000000,0.000000,4141.922852,3955.641113,4152.307617,3686.666748,4056.410156,4201.538574,4196.794922,4199.615234,4210.256348,4187.692383,3985.769287,4169.743652,4024.615479,3945.512939,3574.000000,4.000000,82.000000,,,,0.000000,4.000000,4.000000,4.000000,4.000000,4.000000,4.000000,4.000000,4.000000,4.000000,4.000000,4.000000,4.000000,4.000000,4.000000,100.000000,,,,,,,,,,,,,,,,
1644854485.741068,206.000000,0.000000,4138.846191,3948.974365,4151.282227,3691.666748,4056.923096,4198.974121,4195.641113,4194.487305,4200.512695,4178.077148,3980.512939,4167.948730,4020.897461,3948.461426,3561.000000,4.000000,82.000000,,,,0.000000,4.000000,4.000000,4.000000,4.000000,4.000000,4.000000,4.000000,4.000000,4.000000,4.000000,4.000000,4.000000,4.000000,4.000000,100.000000,,,,,,,,,,,,,,,,
1644854485.745009,207.000000,0.000000,4144.871582,3952.179443,4153.205078,3687.435791,4056.153809,4197.436035,4196.025879,4191.538574,4194.615234,4171.153809,3983.974365,4170.384766,4019.358887,3953.333252,2434.000000,4.000000,82.000000,,,,0.000000,4.000000,4.000000,4.000000,4.000000,4.000000,4.000000,4.000000,4.000000,4.000000,4.000000,4.000000,4.000000,4.000000,4.000000,100.000000,,,,,,,,,,,,,,,,
1644854485.748949,208.000000,0.000000,4155.512695,3962.564209,4156.666504,3681.281982,4053.205078,4198.333496,4196.538574,4190.897461,4195.769043,4170.256348,3993.205078,4176.538574,4019.487061,3956.538574,3253.000000,4.000000,82.000000,,,,0.000000,4.000000,4.000000,4.000000,4.000000,4.000000,4.000000,4.000000,4.000000,4.000000,4.000000,4.000000,4.000000,4.000000,4.000000,100.000000,,,,,,,,,,,,,,,,
1644854485.752889,209.000000,0.000000,4163.846191,3973.333252,4158.846191,3680.384521,4048.461426,4200.769043,4196.410156,4191.922852,4202.051270,4174.230957,4001.538574,4183.461426,4018.718018,3957.435791,3574.000000,4.000000,82.000000,,,,0.000000,4.000000,4.000000,4.000000,4.000000,4.000000,4.000000,4.000000,4.000000,4.000000,4.000000,4.000000,4.000000,4.000000,4.000000,100.000000,,,,,,,,,,,,,,,,
1644854485.756829,210.000000,0.000000,4165.769043,3977.564209,4157.948730,3686.153809,4043.718018,4202.179688,4197.051270,4192.948730,4207.563965,4178.077148,4003.846191,4187.307617,4015.384521,3958.461426,3561.000000,4.000000,82.000000,,,,0.000000,4.000000,4.000000,4.000000,4.000000,4.000000,4.000000,4.000000,4.000000,4.000000,4.000000,4.000000,4.000000,4.000000,4.000000,100.000000,,,,,,,,,,,,,,,,
1644854485.760769,211.000000,0.000000,4162.563965,3973.974365,4155.256348,3694.358887,4042.179443,4201.282227,4199.487305,4193.333496,4207.820313,4178.589844,3999.743652,4186.282227,4012.820557,3961.923096,2434.000000,4.000000,82.000000,,,,0.000000,4.000000,4.000000,4.000000,4.000000,4.000000,4.000000,4.000000,4.000000,4.000000,4.000000,4.000000,4.000000,4.000000,4.000000,100.000000,,,,,,,,,,,,,,,,
1644854485.764709,212.000000,0.000000,4159.487305,3967.307617,4153.846191,3700.512939,4046.153809,4199.358887,4202.820313,4193.205078,4203.589844,4176.538574,3993.846191,4181.922852,4016.410156,3967.179443,3253.000000,4.000000,82.000000,,,,0.000000,4.000000,4.000000,4.000000,4.000000,4.000000,4.000000,4.000000,4.000000,4.000000,4.000000,4.000000,4.000000,4.000000,4.000000,100.000000,,,,,,,,,,,,,,,,
1644854485.768549,213.000000,0.000000,4161.153809,3965.128174,4156.282227,3703.076904,4055.769287,4198.846191,4205.000000,4193.717773,4199.871582,4175.000000,3991.538574,4178.205078,4027.692383,3971.666748,3574.000000,4.000000,82.000000,,,,0.000000,4.000000,4.000000,4.000000,4.000000,4.000000,4.000000,4.000000,4.000000,4.000000,4.000000,4.000000,4.000000,4.000000,4.000000,100.000000,,,,,,,,,,,,,,,,
1644854485.772489,214.000000,0.000000,4168.077148,3971.538574,4162.563965,3703.589844,4067.179443,4201.153809,4205.512695,4195.769043,4200.769043,4176.538574,3995.384521,4178.846191,4040.897461,3973.974365,3561.000000,4.000000,82.000000,,,,0.000000,4.000000,4.000000,4.000000,4.000000,4.000000,4.000000,4.000000,4.000000,4.000000,4.000000,4.000000,4.000000,4.000000,4.000000,100.000000,,,,,,,,,,,,,,,,
1644854485.776429,215.000000,0.000000,4175.256348,3983.718018,4169.615234,3703.205078,4075.000000,4204.487305,4205.897461,4199.102539,4205.769043,4180.000000,4003.974365,4185.384766,4047.179443,3975.256348,2434.000000,4.000000,82.000000,,,,0.000000,4.000000,4.000000,4.000000,4.000000,4.000000,4.000000,4.000000,4.000000,4.000000,4.000000,4.000000,4.000000,4.000000,4.000000,100.000000,,,,,,,,,,,,,,,,
1644854485.780370,216.000000,0.000000,4177.179688,3994.230713,4173.717773,3701.794922,4076.794922,4206.025879,4207.436035,4202.307617,4211.025879,4182.307617,4013.076904,4194.871582,4041.794922,3977.307617,3253.000000,4.000000,82.000000,1,1,1,0.000000,4.000000,4.000000,4.000000,4.000000,4.000000,4.000000,4.000000,4.000000,4.000000,4.000000,4.000000,4.000000,4.000000,4.000000,100.000000,,,,,,,,,,,,,,,,
1644854485.784310,217.000000,0.000000,4172.307617,3996.794922,4173.205078,3699.487061,4074.615479,4205.000000,4209.487305,4203.461426,4212.692383,4181.410156,4017.948730,4202.692383,4028.974365,3979.615479,3574.000000,4.000000,82.000000,,,,0.000000,4.000000,4.000000,4.000000,4.000000,4.000000,4.000000,4.000000,4.000000,4.000000,4.000000,4.000000,4.000000,4.000000,4.000000,100.000000,,,,,,,,,,,,,,,,
1644854485.788250,218.000000,0.000000,4164.487305,3991.153809,4169.871582,3697.692383,4071.794922,4202.948730,4209.743652,4201.538574,4210.000000,4177.820313,4017.179443,4205.000000,4018.461426,3980.384521,3561.000000,4.000000,82.000000,,,,0.000000,4.000000,4.000000,4.000000,4.000000,4.000000,4.000000,4.000000,4.000000,4.000000,4.000000,4.000000,4.000000,4.000000,4.000000,100.000000,,,,,,,,,,,,,,,,
1644854485.792190,219.000000,0.000000,4159.230957,3982.307617,4166.794922,3698.333252,4069.487061,4201.794922,4207.820313,4197.563965,4205.512695,4173.589844,4012.820557,4201.282227,4017.179443,3979.230713,2434.000000,4.000000,82.000000,,,,0.000000,4.000000,4.000000,4.000000,4.000000,4.000000,4.000000,4.000000,4.000000,4.000000,4.000000,4.000000,4.000000,4.000000,4.000000,100.000000,,,,,,,,,,,,,,,,
1644854485.796130,220.000000,0.000000,4160.512695,3976.923096,4166.282227,3701.794922,4066.538574,4202.307617,4206.153809,4194.230957,4202.436035,4171.410156,4009.487061,4195.000000,4023.718018,3978.205078,3253.000000,4.000000,82.000000,,,,0.000000,4.000000,4.000000,4.000000,4.000000,4.000000,4.000000,4.000000,4.000000,4.000000,4.000000,4.000000,4.000000,4.000000,4.000000,100.000000,,,,,,,,,,,,,,,,
1644854485.800070,221.000000,0.000000,4168.717773,3977.820557,4168.333496,3705.256348,4062.692383,4204.102539,4206.922852,4194.358887,4202.820313,4173.205078,4010.641113,4190.512695,4031.281982,3979.615479,3574.000000,4.000000,82.000000,,,,0.000000,4.000000,4.000000,4.000000,4.000000,4.000000,4.000000,4.000000,4.000000,4.000000,4.000000,4.000000,4.000000,4.000000,4.000000,100.000000,,,,,,,,,,,,,,,,
1644854485.804010,222.000000,0.000000,4180.128418,3983.718018,4171.153809,3705.897461,4060.256348,4206.025879,4209.487305,4198.205078,4205.897461,4179.230957,4016.153809,4190.512695,4034.102539,3983.333252,3561.000000,4.000000,82.000000,,,,0.000000,4.000000,4.000000,4.000000,4.000000,4.000000,4.000000,4.000000,4.000000,4.000000,4.000000,4.000000,4.000000,4.000000,4.000000,100.000000,,,,,,,,,,,,,,,,
1644854485.807950,223.000000,0.000000,4189.615234,3990.897461,4172.692383,3702.820557,4062.307617,4207.051270,4210.512695,4203.333496,4210.000000,4187.307617,4022.692383,4194.230957,4032.435791,3987.564209,2434.000000,4.000000,82.000000,,,,0.000000,4.000000,4.000000,4.000000,4.000000,4.000000,4.000000,4.000000,4.000000,4.000000,4.000000,4.000000,4.000000,4.000000,4.000000,100.000000,,,,,,,,,,,,,,,,
1644854485.811890,224.000000,0.000000,4193.205078,3996.153809,4172.563965,3698.333252,4069.102539,4206.538574,4208.461426,4207.307617,4213.717773,4194.230957,4026.923096,4199.230957,4031.153809,3990.897461,3253.000000,4.000000,82.000000,,,,0.000000,4.000000,4.000000,4.000000,4.000000,4.000000,4.000000,4.000000,4.000000,4.000000,4.000000,4.000000,4.000000,4.000000,4.000000,100.000000,1.000000,0.000000,1.000000,1.000000,4.000000,0.000000,0.000000,3.000000,3.000000,4.000000,4.000000,4.000000,0.000000,4.000000,3.000000,1.000000
1644854485.815831,225.000000,0.000000,4190.512695,3998.333252,4171.282227,3695.512939,4076.410156,4204.487305,4205.512695,4210.128418,4217.051270,4197.563965,4027.948730,4202.948730,4035.000000,3993.333252,3574.000000,4.000000,82.000000,,,,0.000000,4.000000,4.000000,4.000000,4.000000,4.000000,4.000000,4.000000,4.000000,4.000000,4.000000,4.000000,4.000000,4.000000,4.000000,100.000000,,,,,,,,,,,,,,,,
1644854485.819771,226.000000,0.000000,4184.487305,3997.564209,4170.641113,3696.538574,4079.871826,4202.179688,4205.384766,4212.563965,4220.000000,4197.692383,4027.307617,4204.230957,4043.974365,3995.128174,3561.000000,4.000000,82.000000,,,,0.000000,4.000000,4.000000,4.000000,4.000000,4.000000,4.000000,4.000000,4.000000,4.000000,4.000000,4.000000,4.000000,4.000000,4.000000,100.000000,,,,,,,,,,,,,,,,
1644854485.823711,227.000000,0.000000,4179.871582,3993.974365,4171.410156,3701.410156,4078.076904,4201.410156,4208.717773,4215.128418,4222.051270,4196.282227,4027.435791,4203.077148,4053.974365,3995.897461,2434.000000,4.000000,82.000000,,,,0.000000,4.000000,4.000000,4.000000,4.000000,4.000000,4.000000,4.000000,4.000000,4.000000,4.000000,4.000000,4.000000,4.000000,4.000000,100.000000,,,,,,,,,,,,,,,,
1644854485.827651,228.000000,0.000000,4178.974121,3988.333252,4172.563965,3708.718018,4073.589844,4203.077148,4211.794922,4216.025879,4222.436035,4195.128418,4028.718018,4200.641113,4060.128174,3995.000000,3253.000000,4.000000,82.000000,,,,0.000000,4.000000,4.000000,4.000000,4.000000,4.000000,4.000000,4.000000,4.000000,4.000000,4.000000,4.000000,4.000000,4.000000,4.000000,100.000000,,,,,,,,,,,,,,,,
1644854485.831591,229.000000,0.000000,4181.410156,3982.051270,4172.307617,3715.641113,4070.769287,4205.512695,4211.153809,4213.846191,4220.512695,4195.000000,4028.974365,4197.692383,4060.769287,3994.102539,3574.000000,4.000000,82.000000,,,,0.000000,4.000000,4.000000,4.000000,4.000000,4.000000,4.000000,4.000000,4.000000,4.000000,4.000000,4.000000,4.000000,4.000000,4.000000,100.000000,,,,,,,,,,,,,,,,
1644854485.835531,230.000000,0.000000,4184.487305,3977.820557,4170.384766,3720.000000,4071.923096,4206.666504,4207.820313,4208.846191,4216.538574,4195.256348,4025.897461,4195.128418,4057.051270,3996.025635,3561.000000,4.000000,82.000000,,,,0.000000,4.000000,4.000000,4.000000,4.000000,4.000000,4.000000,4.000000,4.000000,4.000000,4.000000,4.000000,4.000000,4.000000,4.000000,100.000000,,,,,,,,,,,,,,,,
1644854485.839471,231.000000,0.000000,4185.641113,3978.076904,4168.333496,3720.128174,4075.641113,4205.128418,4205.897461,4203.717773,4212.179688,4195.128418,4020.256348,4193.589844,4052.179443,4002.179443,2434.000000,4.000000,82.000000,,,,0.000000,4.000000,4.000000,4.000000,4.000000,4.000000,4.000000,4.000000,4.000000,4.000000,4.000000,4.000000,4.000000,4.000000,4.000000,100.000000,,,,,,,,,,,,,,,,
1644854485.843311,232.000000,0.000000,4183.974121,3983.589844,4168.461426,3715.512939,4078.333252,4202.948730,4207.820313,4202.307617,4209.871582,4195.000000,4016.410156,4193.974121,4048.846191,4009.487061,3253.000000,4.000000,82.000000,,,,0.000000,4.000000,4.000000,4.000000,4.000000,4.000000,4.000000,4.000000,4.000000,4.000000,4.000000,4.000000,4.000000,4.000000,4.000000,100.000000,,,,,,,,,,,,,,,,
1644854485.847251,233.000000,0.000000,4181.153809,3991.666748,4171.153809,3707.820557,4076.923096,4202.692383,4211.666504,4205.256348,4210.897461,4195.897461,4019.102539,4197.179688,4048.076904,4012.948730,3574.000000,4.000000,82.000000,,,,0.000000,4.000000,4.000000,4.000000,4.000000,4.000000,4.000000,4.000000,4.000000,4.000000,4.000000,4.000000,4.000000,4.000000,4.000000,100.000000,,,,,,,,,,,,,,,,
1644854485.851192,234.000000,0.000000,4178.589844,3997.820557,4174.358887,3700.769287,4071.410156,4205.128418,4214.230957,4209.743652,4214.230957,4197.307617,4029.230713,4202.692383,4048.589844,4010.512939,3561.000000,4.000000,82.000000,,,,0.000000,4.000000,4.000000,4.000000,4.000000,4.000000,4.000000,4.000000,4.000000,4.000000,4.000000,4.000000,4.000000,4.000000,4.000000,100.000000,,,,,,,,,,,,,,,,
1644854485.855132,235.000000,0.000000,4177.051270,3998.461426,4175.897461,3697.564209,4065.256348,4208.205078,4214.230957,4211.794922,4217.051270,4197.563965,4040.641113,4208.461426,4048.076904,4005.384521,2434.000000,4.000000,82.000000,,,,0.000000,4.000000,4.000000,4.000000,4.000000,4.000000,4.000000,4.000000,4.000000,4.000000,4.000000,4.000000,4.000000,4.000000,4.000000,100.000000,,,,,,,,,,,,,,,,
1644854485.859072,236.000000,0.000000,4176.922852,3994.102539,4175.256348,3698.718018,4062.820557,4209.102539,4213.205078,4210.128418,4216.410156,4194.871582,4045.256348,4211.794922,4045.128174,4002.307617,3253.000000,4.000000,82.000000,,,,0.000000,4.000000,4.000000,4.000000,4.000000,4.000000,4.000000,4.000000,4.000000,4.000000,4.000000,4.000000,4.000000,4.000000,4.000000,100.000000,,,,,,,,,,,,,,,,
1644854485.863012,237.000000,0.000000,4178.589844,3988.718018,4173.717773,3700.769287,4066.153809,4206.794922,4212.307617,4206.410156,4212.051270,4189.358887,4040.000000,4211.410156,4039.358887,4002.564209,3574.000000,4.000000,82.000000,,,,0.000000,4.000000,4.000000,4.000000,4.000000,4.000000,4.000000,4.000000,4.000000,4.000000,4.000000,4.000000,4.000000,4.000000,4.000000,100.000000,,,,,,,,,,,,,,,,
1644854485.866952,238.000000,0.000000,4182.179688,3986.281982,4172.820313,3700.641113,4073.589844,4202.820313,4211.410156,4203.205078,4207.051270,4183.717773,4030.128174,4208.717773,4031.538574,4003.333252,3561.000000,4.000000,82.000000,,,,0.000000,4.000000,4.000000,4.000000,4.000000,4.000000,4.000000,4.000000,4.000000,4.000000,4.000000,4.000000,4.000000,4.000000,4.000000,100.000000,,,,,,,,,,,,,,,,
1644854485.870892,239.000000,0.000000,4186.282227,3988.076904,4173.333496,3698.718018,4080.512939,4199.615234,4209.871582,4202.179688,4204.871582,4181.025879,4024.102539,4206.153809,4024.615479,4003.333252,2434.000000,4.000000,82.000000,,,,0.000000,4.000000,4.000000,4.000000,4.000000,4.000000,4.000000,4.000000,4.000000,4.000000,4.000000,4.000000,4.000000,4.000000,4.000000,100.000000,,,,,,,,,,,,,,,,
1644854485.874832,240.000000,0.000000,4188.717773,3992.307617,4175.128418,3698.974365,4083.333252,4199.358887,4209.230957,4203.717773,4207.436035,4182.692383,4026.538574,4204.871582,4022.564209,4004.615479,3253.000000,4.000000,82.000000,,,,0.000000,4.000000,4.000000,4.000000,4.000000,4.000000,4.000000,4.000000,4.000000,4.000000,4.000000,4.000000,4.000000,4.000000,4.000000,100.000000,,,,,,,,,,,,,,,,
1644854485.878772,241.000000,0.000000,4188.846191,3995.897461,4177.051270,3704.743652,4081.153809,4201.538574,4210.769043,4207.051270,4213.077148,4187.307617,4034.230713,4203.974121,4027.692383,4009.743652,3574.000000,4.000000,82.000000,,,,0.000000,4.000000,4.000000,4.000000,4.000000,4.000000,4.000000,4.000000,4.000000,4.000000,4.000000,4.000000,4.000000,4.000000,4.000000,100.000000,,,,,,,,,,,,,,,,
1644854485.882712,242.000000,0.000000,4187.436035,3997.564209,4177.307617,3715.128174,4077.051270,4203.717773,4213.333496,4209.743652,4218.333496,4192.820313,4039.871826,4202.179688,4038.205078,4017.051270,3561.000000,4.000000,82.000000,,,,0.000000,4.000000,4.000000,4.000000,4.000000,4.000000,4.000000,4.000000,4.000000,4.000000,4.000000,4.000000,4.000000,4.000000,4.000000,100.000000,,,,,,,,,,,,,,,,
1644854485.886653,243.000000,0.000000,4186.282227,3999.102539,4174.230957,3724.230713,4075.256348,4203.846191,4213.717773,4210.128418,4220.512695,4197.820313,4038.718018,4198.974121,4048.333252,4021.281982,2434.000000,4.000000,82.000000,,,,0.000000,4.000000,4.000000,4.000000,4.000000,4.000000,4.000000,4.000000,4.000000,4.000000,4.000000,4.000000,4.000000,4.000000,4.000000,100.000000,,,,,,,,,,,,,,,,
1644854485.890593,244.000000,0.000000,4186.282227,4002.435791,4168.205078,3725.128174,4078.205078,4202.179688,4210.641113,4208.717773,4219.743652,4201.794922,4032.564209,4195.512695,4052.820557,4020.128174,3253.000000,4.000000,82.000000,,,,0.000000,4.000000,4.000000,4.000000,4.000000,4.000000,4.000000,4.000000,4.000000,4.000000,4.000000,4.000000,4.000000,4.000000,4.000000,100.000000,,,,,,,,,,,,,,,,
1644854485.894533,245.000000,0.000000,4186.666504,4006.794922,4162.051270,3717.564209,4084.102539,4201.410156,4206.794922,4207.692383,4217.820313,4205.000000,4026.410156,4193.717773,4050.256348,4016.923096,3574.000000,4.000000,82.000000,,,,0.000000,4.000000,4.000000,4.000000,4.000000,4.000000,4.000000,4.000000,4.000000,4.000000,4.000000,4.000000,4.000000,4.000000,4.000000,100.000000,,,,,,,,,,,,,,,,
1644854485.898473,246.000000,0.000000,4186.153809,4010.000000,4159.871582,3708.461426,4088.846191,4203.846191,4206.282227,4208.974121,4217.563965,4207.179688,4024.871826,4194.615234,4043.846191,4017.307617,3561.000000,4.000000,82.000000,,,,0.000000,4.000000,4.000000,4.000000,4.000000,4.000000,4.000000,4.000000,4.000000,4.000000,4.000000,4.000000,4.000000,4.000000,4.000000,100.000000,,,,,,,,,,,,,,,,
1644854485.902413,247.000000,0.000000,4184.871582,4010.769287,4163.461426,3707.051270,4089.358887,4209.487305,4210.000000,4212.307617,4219.743652,4207.436035,4028.333252,4197.563965,4039.743652,4022.564209,2434.000000,4.000000,82.000000,,,,0.000000,4.000000,4.000000,4.000000,4.000000,4.000000,4.000000,4.000000,4.000000,4.000000,4.000000,4.000000,4.000000,4.000000,4.000000,100.000000,,,,,,,,,,,,,,,,
1644854485.906353,248.000000,0.000000,4184.102539,4009.743652,4170.641113,3714.615479,4086.923096,4215.512695,4214.102539,4215.512695,4223.589844,4205.256348,4034.487061,4200.769043,4042.051270,4029.102539,3253.000000,4.000000,82.000000,,,,0.000000,4.000000,4.000000,4.000000,4.000000,4.000000,4.000000,4.000000,4.000000,4.000000,4.000000,4.000000,4.000000,4.000000,4.000000,100.000000,,,,,,,,,,,,,,,,
1644854485.910293,249.000000,0.000000,4185.000000,4008.846191,4176.794922,3723.461426,4084.871826,4218.846191,4214.743652,4216.922852,4226.922852,4200.769043,4040.000000,4202.307617,4049.743652,4032.692383,3574.000000,4.000000,82.000000,,,,0.000000,4.000000,4.000000,4.000000,4.000000,4.000000,4.000000,4.000000,4.000000,4.000000,4.000000,4.000000,4.000000,4.000000,4.000000,100.000000,,,,,,,,,,,,,,,,
1644854485.914133,250.000000,0.000000,4187.179688,4008.205078,4178.461426,3723.718018,4086.025635,4218.205078,4212.436035,4216.025879,4227.307617,4194.487305,4042.435791,4201.666504,4056.794922,4032.692383,3561.000000,4.000000,82.000000,,,,0.000000,4.000000,4.000000,4.000000,4.000000,4.000000,4.000000,4.000000,4.000000,4.000000,4.000000,4.000000,4.000000,4.000000,4.000000,100.000000,,,,,,,,,,,,,,,,
1644854485.918073,251.000000,0.000000,4189.487305,4007.564209,4176.410156,3713.718018,4089.743652,4215.000000,4210.256348,4214.102539,4224.358887,4187.948730,4041.281982,4200.256348,4057.692383,4031.410156,2434.000000,4.000000,82.000000,,,,0.000000,4.000000,4.000000,4.000000,4.000000,4.000000,4.000000,4.000000,4.000000,4.000000,4.000000,4.000000,4.000000,4.000000,4.000000,100.000000,,,,,,,,,,,,,,,,
1644854485.922014,252.000000,0.000000,4191.153809,4007.307617,4173.461426,3701.025635,4093.333252,4212.179688,4210.641113,4212.179688,4220.000000,4183.717773,4038.205078,4200.384766,4052.692383,4030.769287,3253.000000,4.000000,82.000000,,,,0.000000,4.000000,4.000000,4.000000,4.000000,4.000000,4.000000,4.000000,4.000000,4.000000,4.000000,4.000000,4.000000,4.000000,4.000000,100.000000,,,,,,,,,,,,,,,,
1644854485.925954,253.000000,0.000000,4192.563965,4009.102539,4172.307617,3696.923096,4094.487061,4211.538574,4212.563965,4211.410156,4217.820313,4183.846191,4036.025635,4203.333496,4047.307617,4030.384521,3574.000000,4.000000,82.000000,,,,0.000000,4.000000,4.000000,4.000000,4.000000,4.000000,4.000000,4.000000,4.000000,4.000000,4.000000,4.000000,4.000000,4.000000,4.000000,100.000000,,,,,,,,,,,,,,,,
1644854485.929894,254.000000,0.000000,4195.128418,4012.948730,4173.974121,3706.538574,4092.307617,4212.563965,4213.589844,4212.307617,4219.358887,4188.333496,4037.051270,4208.077148,4046.281982,4029.615479,3561.000000,4.000000,82.000000,,,,0.000000,4.000000,4.000000,4.000000,4.000000,4.000000,4.000000,4.000000,4.000000,4.000000,4.000000,4.000000,4.000000,4.000000,4.000000,100.000000,,,,,,,,,,,,,,,,
1644854485.933834,255.000000,0.000000,4199.358887,4017.435791,4178.461426,3724.871826,4088.461426,4213.717773,4213.333496,4215.000000,4223.077148,4195.256348,4040.897461,4211.282227,4050.000000,4029.871826,112.000000,4.000000,82.000000,2,1,1,0.000000,4.000000,4.000000,4.000000,4.000000,4.000000,4.000000,4.000000,4.000000,4.000000,4.000000,4.000000,4.000000,4.000000,4.000000,100.000000,,,,,,,,,,,,,,,,
1644854485.937774,0.000000,0.000000,4204.102539,4020.897461,4183.717773,3740.256348,4086.281982,4214.102539,4213.974121,4218.717773,4226.410156,4201.922852,4045.641113,4210.512695,4055.384521,4033.205078,3440.000000,4.000000,82.000000,,,,0.000000,4.000000,4.000000,4.000000,4.000000,4.000000,4.000000,4.000000,4.000000,4.000000,4.000000,4.000000,4.000000,4.000000,4.000000,100.000000,,,,,,,,,,,,,,,,
1644854485.941714,1.000000,0.000000,4207.179688,4023.333252,4187.563965,3743.205078,4088.076904,4213.589844,4216.025879,4221.666504,4227.563965,4207.051270,4050.000000,4206.410156,4058.718018,4039.871826,3378.000000,4.000000,82.000000,,,,0.000000,4.000000,4.000000,4.000000,4.000000,4.000000,4.000000,4.000000,4.000000,4.000000,4.000000,4.000000,4.000000,4.000000,4.000000,100.000000,,,,,,,,,,,,,,,,
1644854485.945654,2.000000,0.000000,4206.410156,4025.384521,4187.948730,3732.820557,4092.948730,4213.077148,4217.692383,4221.794922,4226.922852,4210.641113,4052.948730,4202.051270,4059.358887,4046.666748,3675.000000,4.000000,82.000000,,,,0.000000,4.000000,4.000000,4.000000,4.000000,4.000000,4.000000,4.000000,4.000000,4.000000,4.000000,4.000000,4.000000,4.000000,4.000000,100.000000,,,,,,,,,,,,,,,,
1644854485.949594,3.000000,0.000000,4201.666504,4026.794922,4184.102539,3717.179443,4097.307617,4213.846191,4216.538574,4219.102539,4225.384766,4212.563965,4053.333252,4199.871582,4058.718018,4049.230713,3563.000000,4.000000,82.000000,,,,0.000000,4.000000,4.000000,4.000000,4.000000,4.000000,4.000000,4.000000,4.000000,4.000000,4.000000,4.000000,4.000000,4.000000,4.000000,100.000000,,,,,,,,,,,,,,,,
1644854485.953534,4.000000,0.000000,4195.000000,4026.153809,4177.436035,3706.794922,4097.179688,4215.769043,4213.205078,4215.128418,4222.948730,4212.307617,4050.256348,4200.256348,4057.820557,4045.769287,3444.000000,4.000000,82.000000,,,,0.000000,4.000000,4.000000,4.000000,4.000000,4.000000,4.000000,4.000000,4.000000,4.000000,4.000000,4.000000,4.000000,4.000000,4.000000,100.000000,,,,,,,,,,,,,,,,
1644854485.957475,5.000000,0.000000,4189.743652,4022.435791,4171.025879,3707.307617,4092.179443,4217.179688,4211.025879,4212.051270,4218.974121,4209.615234,4045.128174,4201.538574,4056.538574,4038.333252,3380.000000,4.000000,82.000000,,,,0.000000,4.000000,4.000000,4.000000,4.000000,4.000000,4.000000,4.000000,4.000000,4.000000,4.000000,4.000000,4.000000,4.000000,4.000000,100.000000,,,,,,,,,,,,,,,,
1644854485.961415,6.000000,0.000000,4188.717773,4016.666748,4168.461426,3715.000000,4085.641113,4216.153809,4212.436035,4211.410156,4214.487305,4205.128418,4041.410156,4202.179688,4055.128174,4031.410156,2546.000000,4.000000,82.000000,,,,0.000000,4.000000,4.000000,4.000000,4.000000,4.000000,4.000000,4.000000,4.000000,4.000000,4.000000,4.000000,4.000000,4.000000,4.000000,100.000000,,,,,,,,,,,,,,,,
1644854485.965355,7.000000,0.000000,4192.307617,4012.051270,4170.384766,3721.153809,4082.307617,4213.077148,4216.153809,4213.077148,4212.307617,4200.512695,4041.794922,4201.410156,4055.256348,4028.461426,3317.000000,4.000000,82.000000,,,,0.000000,4.000000,4.000000,4.000000,4.000000,4.000000,4.000000,4.000000,4.000000,4.000000,4.000000,4.000000,4.000000,4.000000,4.000000,100.000000,,,,,,,,,,,,,,,,
1644854485.969295,8.000000,0.000000,4197.820313,4010.897461,4174.871582,3720.000000,4084.871826,4210.128418,4218.717773,4215.769043,4214.487305,4197.307617,4045.128174,4199.358887,4057.820557,4031.410156,3520.000000,4.000000,82.000000,,,,0.000000,4.000000,4.000000,4.000000,4.000000,4.000000,4.000000,4.000000,4.000000,4.000000,4.000000,4.000000,4.000000,4.000000,4.000000,100.000000,,,,,,,,,,,,,,,,
1644854485.973235,9.000000,0.000000,4201.153809,4012.820557,4178.846191,3713.589844,4091.794922,4209.102539,4218.846191,4217.307617,4220.128418,4195.769043,4047.051270,4197.307617,4060.384521,4038.589844,3565.000000,4.000000,82.000000,,,,0.000000,4.000000,4.000000,4.000000,4.000000,4.000000,4.000000,4.000000,4.000000,4.000000,4.000000,4.000000,4.000000,4.000000,4.000000,100.000000,,,,,,,,,,,,,,,,
1644854485.977175,10.000000,0.000000,4199.487305,4015.256348,4180.512695,3709.487061,4098.717773,4210.000000,4218.205078,4216.410156,4225.256348,4195.000000,4044.743652,4197.563965,4058.076904,4046.025635,3564.000000,4.000000,82.000000,,,,0.000000,4.000000,4.000000,4.000000,4.000000,4.000000,4.000000,4.000000,4.000000,4.000000,4.000000,4.000000,4.000000,4.000000,4.000000,100.000000,,,,,,,,,,,,,,,,
1644854485.981115,11.000000,0.000000,4193.333496,4016.025635,4179.743652,3712.307617,4101.666504,4211.282227,4218.846191,4213.589844,4226.282227,4194.358887,4040.769287,4200.384766,4049.487061,4048.846191,2422.000000,4.000000,82.000000,,,,0.000000,4.000000,4.000000,4.000000,4.000000,4.000000,4.000000,4.000000,4.000000,4.000000,4.000000,4.000000,4.000000,4.000000,4.000000,100.000000,,,,,,,,,,,,,,,,
1644854485.985155,12.000000,0.000000,4186.153809,4015.128174,4177.307617,3720.000000,4099.615234,4211.410156,4219.871582,4210.256348,4223.461426,4194.230957,4040.000000,4203.974121,4039.102539,4044.871826,3638.000000,4.000000,82.000000,,,,0.000000,4.000000,4.000000,4.000000,4.000000,4.000000,4.000000,4.000000,4.000000,4.000000,4.000000,4.000000,4.000000,4.000000,4.000000,100.000000,,,,,,,,,,,,,,,,
1644854485.989095,13.000000,0.000000,4181.922852,4013.589844,4174.743652,3726.281982,4095.384521,4210.256348,4219.230957,4208.333496,4220.000000,4195.384766,4044.743652,4205.769043,4034.102539,4036.923096,3516.000000,4.000000,82.000000,,,,0.000000,4.000000,4.000000,4.000000,4.000000,4.000000,4.000000,4.000000,4.000000,4.000000,4.000000,4.000000,4.000000,4.000000,4.000000,100.000000,,,,,,,,,,,,,,,,
1644854485.993035,14.000000,0.000000,4182.179688,4012.307617,4172.820313,3726.666748,4092.179443,4208.333496,4216.794922,4208.974121,4218.461426,4196.794922,4051.153809,4203.717773,4037.307617,4031.538574,3564.000000,4.000000,82.000000,,,,0.000000,4.000000,4.000000,4.000000,4.000000,4.000000,4.000000,4.000000,4.000000,4.000000,4.000000,4.000000,4.000000,4.000000,4.000000,100.000000,,,,,,,,,,,,,,,,
1644854485.996975,15.000000,0.000000,4185.512695,4011.923096,4172.051270,3721.410156,4090.769287,4207.307617,4214.743652,4211.282227,4218.717773,4195.641113,4052.435791,4198.333496,4045.000000,4033.461426,2422.000000,4.000000,82.000000,,,,0.000000,4.000000,4.000000,4.000000,4.000000,4.000000,4.000000,4.000000,4.000000,4.000000,4.000000,4.000000,4.000000,4.000000,4.000000,100.000000,,,,,,,,,,,,,,,,
1644854486.000916,16.000000,0.000000,4189.615234,4012.948730,4171.922852,3714.358887,4089.743652,4208.461426,4215.512695,4213.589844,4218.846191,4190.641113,4046.281982,4192.436035,4051.666748,4041.923096,3638.000000,4.000000,82.000000,,,,0.000000,4.000000,4.000000,4.000000,4.000000,4.000000,4.000000,4.000000,4.000000,4.000000,4.000000,4.000000,4.000000,4.000000,4.000000,100.000000,,,,,,,,,,,,,,,,
1644854486.004856,17.000000,0.000000,4194.102539,4017.051270,4172.563965,3709.743652,4087.820557,4211.538574,4217.948730,4214.487305,4218.333496,4184.487305,4037.435791,4189.358887,4054.871826,4051.410156,3516.000000,4.000000,82.000000,,,,0.000000,4.000000,4.000000,4.000000,4.000000,4.000000,4.000000,4.000000,4.000000,4.000000,4.000000,4.000000,4.000000,4.000000,4.000000,100.000000,,,,,,,,,,,,,,,,
1644854486.008796,18.000000,0.000000,4199.871582,4024.358887,4174.487305,3709.743652,4086.410156,4215.000000,4219.230957,4214.358887,4218.846191,4183.077148,4034.871826,4191.538574,4057.564209,4056.410156,3564.000000,4.000000,82.000000,,,,0.000000,4.000000,4.000000,4.000000,4.000000,4.000000,4.000000,4.000000,4.000000,4.000000,4.000000,4.000000,4.000000,4.000000,4.000000,100.000000,,,,,,,,,,,,,,,,
1644854486.012736,19.000000,0.000000,4207.307617,4033.718018,4178.077148,3714.230713,4087.948730,4216.922852,4218.333496,4214.230957,4222.051270,4190.512695,4044.358887,4198.333496,4064.358887,4056.923096,2422.000000,4.000000,82.000000,,,,0.000000,4.000000,4.000000,4.000000,4.000000,4.000000,4.000000,4.000000,4.000000,4.000000,4.000000,4.000000,4.000000,4.000000,4.000000,100.000000,,,,,,,,,,,,,,,,
1644854486.016676,20.000000,0.000000,4214.487305,4041.794922,4183.205078,3721.410156,4093.589844,4216.666504,4217.179688,4215.641113,4227.436035,4204.615234,4063.589844,4206.794922,4076.281982,4057.307617,3638.000000,4.000000,82.000000,,,,0.000000,4.000000,4.000000,4.000000,4.000000,4.000000,4.000000,4.000000,4.000000,4.000000,4.000000,4.000000,4.000000,4.000000,4.000000,100.000000,,,,,,,,,,,,,,,,
1644854486.020616,21.000000,0.000000,4219.230957,4045.384521,4188.077148,3729.230713,4101.410156,4215.128418,4218.205078,4218.205078,4232.563965,4218.461426,4082.435791,4213.717773,4088.076904,4060.512939,3516.000000,4.000000,82.000000,,,,0.000000,4.000000,4.000000,4.000000,4.000000,4.000000,4.000000,4.000000,4.000000,4.000000,4.000000,4.000000,4.000000,4.000000,4.000000,100.000000,,,,,,,,,,,,,,,,
1644854486.024556,22.000000,0.000000,4220.256348,4043.076904,4190.641113,3736.025635,4108.205078,4213.974121,4220.512695,4220.512695,4234.487305,4225.128418,4090.641113,4217.436035,4092.307617,4064.358887,3564.000000,4.000000,82.000000,,,,0.000000,4.000000,4.000000,4.000000,4.000000,4.000000,4.000000,4.000000,4.000000,4.000000,4.000000,4.000000,4.000000,4.000000,4.000000,100.000000,,,,,,,,,,,,,,,,
1644854486.028496,23.000000,0.000000,4218.589844,4037.692383,4189.871582,3740.897461,4111.282227,4214.102539,4221.153809,4221.025879,4233.077148,4222.307617,4084.102539,4218.589844,4085.256348,4064.743652,2422.000000,4.000000,82.000000,,,,0.000000,4.000000,4.000000,4.000000,4.000000,4.000000,4.000000,4.000000,4.000000,4.000000,4.000000,4.000000,4.000000,4.000000,4.000000,100.000000,,,,,,,,,,,,,,,,
1644854486.032436,24.000000,0.000000,4215.641113,4033.718018,4186.666504,3742.051270,4109.871582,4214.743652,4219.487305,4219.871582,4229.743652,4213.717773,4068.589844,4218.846191,4071.153809,4061.666748,3638.000000,4.000000,82.000000,,,,0.000000,4.000000,4.000000,4.000000,4.000000,4.000000,4.000000,4.000000,4.000000,4.000000,4.000000,4.000000,4.000000,4.000000,4.000000,100.000000,,,,,,,,,,,,,,,,
1644854486.036377,25.000000,0.000000,4212.179688,4033.718018,4183.589844,3738.718018,4105.000000,4214.871582,4217.563965,4217.820313,4226.538574,4204.358887,4054.487061,4218.717773,4059.487061,4059.615479,3516.000000,4.000000,82.000000,,,,0.000000,4.000000,4.000000,4.000000,4.000000,4.000000,4.000000,4.000000,4.000000,4.000000,4.000000,4.000000,4.000000,4.000000,4.000000,100.000000,,,,,,,,,,,,,,,,
1644854486.040317,26.000000,0.000000,4209.102539,4037.051270,4182.179688,3732.051270,4099.615234,4214.102539,4217.307617,4216.025879,4224.102539,4197.436035,4048.974365,4217.563965,4057.307617,4062.051270,3564.000000,4.000000,82.000000,,,,0.000000,4.000000,4.000000,4.000000,4.000000,4.000000,4.000000,4.000000,4.000000,4.000000,4.000000,4.000000,4.000000,4.000000,4.000000,100.000000,,,,,,,,,,,,,,,,
1644854486.044257,27.000000,0.000000,4206.922852,4041.153809,4181.794922,3725.897461,4096.922852,4213.205078,4218.077148,4214.743652,4222.179688,4193.974121,4051.281982,4214.102539,4064.102539,4067.564209,2422.000000,4.000000,82.000000,,,,0.000000,4.000000,4.000000,4.000000,4.000000,4.000000,4.000000,4.000000,4.000000,4.000000,4.000000,4.000000,4.000000,4.000000,4.000000,100.000000,,,,,,,,,,,,,,,,
1644854486.048197,28.000000,0.000000,4206.025879,4044.230713,4181.282227,3724.230713,4098.589844,4212.692383,4217.948730,4213.974121,4220.897461,4193.974121,4057.051270,4208.846191,4073.333252,4071.281982,3638.000000,4.000000,82.000000,,,,0.000000,4.000000,4.000000,4.000000,4.000000,4.000000,4.000000,4.000000,4.000000,4.000000,4.000000,4.000000,4.000000,4.000000,4.000000,100.000000,,,,,,,,,,,,,,,,
1644854486.052137,29.000000,0.000000,4206.410156,4045.897461,4180.769043,3727.820557,4102.563965,4213.205078,4216.666504,4213.846191,4220.769043,4196.153809,4062.564209,4204.230957,4077.692383,4070.512939,3516.000000,4.000000,82.000000,,,,0.000000,4.000000,4.000000,4.000000,4.000000,4.000000,4.000000,4.000000,4.000000,4.000000,4.000000,4.000000,4.000000,4.000000,4.000000,100.000000,,,,,,,,,,,,,,,,
1644854486.056077,30.000000,0.000000,4206.538574,4046.410156,4181.410156,3733.846191,4105.256348,4214.743652,4216.794922,4214.871582,4222.051270,4198.205078,4066.666748,4202.051270,4074.230713,4067.179443,3564.000000,4.000000,82.000000,,,,0.000000,4.000000,4.000000,4.000000,4.000000,4.000000,4.000000,4.000000,4.000000,4.000000,4.000000,4.000000,4.000000,4.000000,4.000000,100.000000,,,,,,,,,,,,,,,,
1644854486.060117,31.000000,0.000000,4204.615234,4045.641113,4183.589844,3738.974365,4105.256348,4217.179688,4219.871582,4216.538574,4224.102539,4197.692383,4069.743652,4202.179688,4065.641113,4064.743652,2422.000000,4.000000,82.000000,,,,0.000000,4.000000,4.000000,4.000000,4.000000,4.000000,4.000000,4.000000,4.000000,4.000000,4.000000,4.000000,4.000000,4.000000,4.000000,100.000000,,,,,,,,,,,,,,,,
1644854486.064057,32.000000,0.000000,4200.256348,4043.589844,4186.538574,3741.923096,4103.461426,4219.743652,4223.461426,4217.820313,4225.769043,4195.000000,4071.025635,4202.820313,4057.179443,4063.846191,0.000000,4.000000,82.000000,,,,0.000000,4.000000,4.000000,4.000000,4.000000,4.000000,4.000000,4.000000,4.000000,4.000000,4.000000,4.000000,4.000000,4.000000,4.000000,100.000000,,,,,,,,,,,,,,,,
1644854486.067997,33.000000,0.000000,4195.769043,4041.153809,4188.077148,3743.333252,4102.563965,4221.153809,4223.333496,4217.820313,4226.538574,4193.077148,4070.000000,4202.563965,4052.435791,4063.718018,0.000000,4.000000,82.000000,,,,0.000000,4.000000,4.000000,4.000000,4.000000,4.000000,4.000000,4.000000,4.000000,4.000000,4.000000,4.000000,4.000000,4.000000,4.000000,100.000000,,,,,,,,,,,,,,,,
1644854486.071937,34.000000,0.000000,4194.358887,4039.615479,4186.666504,3743.718018,4103.205078,4220.256348,4218.589844,4216.153809,4226.025879,4194.487305,4066.666748,4201.410156,4052.948730,4063.461426,0.000000,4.000000,82.000000,,,,0.000000,4.000000,4.000000,4.000000,4.000000,4.000000,4.000000,4.000000,4.000000,4.000000,4.000000,4.000000,4.000000,4.000000,4.000000,100.000000,,,,,,,,,,,,,,,,
1644854486.075877,35.000000,0.000000,4198.333496,4040.000000,4182.179688,3743.205078,4104.743652,4217.307617,4213.077148,4213.974121,4224.230957,4198.846191,4062.179443,4199.871582,4057.307617,4063.589844,0.000000,4.000000,82.000000,,,,0.000000,4.000000,4.000000,4.000000,4.000000,4.000000,4.000000,4.000000,4.000000,4.000000,4.000000,4.000000,4.000000,4.000000,4.000000,100.000000,,,,,,,,,,,,,,,,
1644854486.079818,36.000000,0.000000,4207.051270,4042.179443,4176.922852,3741.923096,4105.769043,4213.589844,4211.282227,4212.948730,4222.820313,4203.974121,4058.718018,4198.077148,4063.846191,4064.871826,0.000000,4.000000,82.000000,,,,0.000000,4.000000,4.000000,4.000000,4.000000,4.000000,4.000000,4.000000,4.000000,4.000000,4.000000,4.000000,4.000000,4.000000,4.000000,100.000000,,,,,,,,,,,,,,,,
1644854486.083758,37.000000,0.000000,4216.282227,4045.897461,4173.333496,3740.384521,4106.794922,4211.282227,4213.589844,4214.487305,4223.717773,4207.563965,4058.076904,4196.922852,4070.128174,4066.794922,0.000000,4.000000,82.000000,,,,0.000000,4.000000,4.000000,4.000000,4.000000,4.000000,4.000000,4.000000,4.000000,4.000000,4.000000,4.000000,4.000000,4.000000,4.000000,100.000000,,,,,,,,,,,,,,,,
1644854486.087698,38.000000,0.000000,4221.153809,4049.871826,4173.205078,3739.358887,4108.077148,4211.922852,4216.794922,4218.461426,4228.077148,4209.230957,4060.256348,4196.794922,4074.102539,4068.461426,0.000000,4.000000,82.000000,,,,0.000000,4.000000,4.000000,4.000000,4.000000,4.000000,4.000000,4.000000,4.000000,4.000000,4.000000,4.000000,4.000000,4.000000,4.000000,100.000000,,,,,,,,,,,,,,,,
1644854486.091638,39.000000,0.000000,4219.487305,4052.692383,4176.025879,3739.615479,4109.358887,4215.384766,4217.948730,4223.589844,4234.615234,4209.743652,4063.205078,4197.820313,4074.615479,4070.000000,0.000000,4.000000,82.000000,,,,0.000000,4.000000,4.000000,4.000000,4.000000,4.000000,4.000000,4.000000,4.000000,4.000000,4.000000,4.000000,4.000000,4.000000,4.000000,100.000000,,,,,,,,,,,,,,,,
1644854486.095578,40.000000,0.000000,4213.461426,4052.692383,4179.358887,3742.051270,4109.358887,4220.000000,4217.820313,4228.205078,4240.512695,4210.256348,4065.128174,4199.743652,4072.051270,4071.923096,0.000000,4.000000,82.000000,,,,0.000000,4.000000,4.000000,4.000000,4.000000,4.000000,4.000000,4.000000,4.000000,4.000000,4.000000,4.000000,4.000000,4.000000,4.000000,100.000000,,,,,,,,,,,,,,,,
1644854486.099518,41.000000,0.000000,4207.948730,4049.615479,4181.153809,3745.769287,4108.205078,4223.333496,4218.589844,4231.538574,4243.077148,4211.153809,4065.897461,4201.538574,4067.692383,4073.589844,0.000000,4.000000,82.000000,,,,0.000000,4.000000,4.000000,4.000000,4.000000,4.000000,4.000000,4.000000,4.000000,4.000000,4.000000,4.000000,4.000000,4.000000,4.000000,100.000000,,,,,,,,,,,,,,,,
1644854486.103458,42.000000,0.000000,4206.538574,4045.256348,4180.512695,3748.718018,4106.922852,4224.230957,4221.025879,4233.717773,4242.436035,4211.922852,4067.820557,4203.077148,4063.846191,4072.692383,0.000000,4.000000,82.000000,,,,0.000000,4.000000,4.000000,4.000000,4.000000,4.000000,4.000000,4.000000,4.000000,4.000000,4.000000,4.000000,4.000000,4.000000,4.000000,100.000000,,,,,,,,,,,,,,,,
1644854486.107398,43.000000,0.000000,4208.846191,4042.564209,4179.230957,3748.461426,4106.538574,4224.230957,4222.948730,4233.974121,4240.512695,4211.794922,4073.076904,4204.102539,4062.820557,4068.974365,0.000000,4.000000,82.000000,,,,0.000000,4.000000,4.000000,4.000000,4.000000,4.000000,4.000000,4.000000,4.000000,4.000000,4.000000,4.000000,4.000000,4.000000,4.000000,100.000000,,,,,,,,,,,,,,,,
1644854486.111338,44.000000,0.000000,4211.025879,4042.948730,4179.358887,3745.000000,4106.922852,4225.512695,4223.333496,4231.666504,4238.717773,4209.871582,4080.128174,4204.102539,4064.358887,4066.666748,0.000000,4.000000,82.000000,,,,0.000000,4.000000,4.000000,4.000000,4.000000,4.000000,4.000000,4.000000,4.000000,4.000000,4.000000,4.000000,4.000000,4.000000,4.000000,100.000000,,,,,,,,,,,,,,,,
1644854486.115279,45.000000,0.000000,4209.487305,4045.641113,4181.922852,3741.281982,4106.794922,4228.974121,4223.077148,4227.051270,4236.794922,4206.025879,4084.487061,4202.948730,4065.897461,4070.769287,0.000000,4.000000,82.000000,,,,0.000000,4.000000,4.000000,4.000000,4.000000,4.000000,4.000000,4.000000,4.000000,4.000000,4.000000,4.000000,4.000000,4.000000,4.000000,100.000000,,,,,,,,,,,,,,,,
1644854486.119219,46.000000,0.000000,4203.846191,4048.076904,4185.256348,3741.281982,4105.769043,4232.563965,4223.974121,4222.307617,4233.589844,4201.410156,4082.564209,4200.897461,4064.102539,4081.153809,0.000000,4.000000,82.000000,,,,0.000000,4.000000,4.000000,4.000000,4.000000,4.000000,4.000000,4.000000,4.000000,4.000000,4.000000,4.000000,4.000000,4.000000,4.000000,100.000000,,,,,,,,,,,,,,,,
1644854486.123159,47.000000,0.000000,4197.436035,4048.205078,4186.410156,3745.769287,4104.102539,4233.333496,4225.641113,4219.358887,4229.230957,4198.077148,4075.641113,4199.230957,4058.846191,4091.025635,0.000000,4.000000,82.000000,,,,0.000000,4.000000,4.000000,4.000000,4.000000,4.000000,4.000000,4.000000,4.000000,4.000000,4.000000,4.000000,4.000000,4.000000,4.000000,100.000000,,,,,,,,,,,,,,,,
1644854486.127099,48.000000,0.000000,4194.615234,4046.025635,4183.846191,3751.538574,4103.205078,4230.384766,4226.153809,4219.102539,4225.128418,4197.436035,4069.102539,4198.974121,4054.230713,4092.564209,0.000000,4.000000,82.000000,,,,0.000000,4.000000,4.000000,4.000000,4.000000,4.000000,4.000000,4.000000,4.000000,4.000000,4.000000,4.000000,4.000000,4.000000,4.000000,100.000000,,,,,,,,,,,,,,,,
1644854486.131139,49.000000,0.000000,4197.436035,4043.076904,4178.974121,3753.333252,4104.615234,4225.512695,4224.487305,4220.512695,4222.948730,4198.846191,4067.564209,4199.871582,4054.615479,4085.769287,0.000000,4.000000,82.000000,,,,0.000000,4.000000,4.000000,4.000000,4.000000,4.000000,4.000000,4.000000,4.000000,4.000000,4.000000,4.000000,4.000000,4.000000,4.000000,100.000000,,,,,,,,,,,,,,,,
1644854486.135079,50.000000,0.000000,4204.230957,4040.897461,4174.871582,3749.743652,4108.974121,4221.922852,4222.051270,4222.179688,4223.205078,4199.615234,4070.000000,4200.512695,4060.000000,4078.461426,0.000000,4.000000,82.000000,,,,0.000000,4.000000,4.000000,4.000000,4.000000,4.000000,4.000000,4.000000,4.000000,4.000000,4.000000,4.000000,4.000000,4.000000,4.000000,100.000000,,,,,,,,,,,,,,,,
1644854486.139019,51.000000,0.000000,4210.769043,4040.641113,4174.615234,3744.358887,4115.000000,4221.538574,4221.794922,4223.077148,4224.487305,4197.692383,4072.564209,4199.871582,4066.666748,4078.718018,0.000000,4.000000,82.000000,,,,0.000000,4.000000,4.000000,4.000000,4.000000,4.000000,4.000000,4.000000,4.000000,4.000000,4.000000,4.000000,4.000000,4.000000,4.000000,100.000000,,,,,,,,,,,,,,,,
1644854486.142959,52.000000,0.000000,4214.487305,4042.820557,4178.461426,3742.051270,4119.615234,4223.717773,4224.230957,4223.333496,4225.769043,4194.358887,4072.564209,4198.077148,4070.000000,4087.179443,0.000000,4.000000,82.000000,,,,0.000000,4.000000,4.000000,4.000000,4.000000,4.000000,4.000000,4.000000,4.000000,4.000000,4.000000,4.000000,4.000000,4.000000,4.000000,100.000000,,,,,,,,,,,,,,,,
1644854486.146899,53.000000,0.000000,4215.000000,4048.076904,4185.000000,3745.897461,4120.128418,4226.538574,4227.436035,4223.333496,4226.922852,4192.820313,4071.794922,4197.179688,4068.974365,4097.307617,0.000000,4.000000,82.000000,,,,0.000000,4.000000,4.000000,4.000000,4.000000,4.000000,4.000000,4.000000,4.000000,4.000000,4.000000,4.000000,4.000000,4.000000,4.000000,100.000000,,,,,,,,,,,,,,,,
1644854486.150839,54.000000,0.000000,4215.000000,4055.897461,4192.307617,3755.256348,4117.179688,4229.487305,4229.102539,4223.589844,4228.461426,4195.641113,4073.718018,4199.871582,4066.538574,4102.563965,0.000000,4.000000,82.000000,,,,0.000000,4.000000,4.000000,4.000000,4.000000,4.000000,4.000000,4.000000,4.000000,4.000000,4.000000,4.000000,4.000000,4.000000,4.000000,100.000000,,,,,,,,,,,,,,,,
1644854486.154779,55.000000,0.000000,4216.538574,4064.230713,4198.461426,3766.538574,4114.487305,4232.692383,4229.615234,4224.871582,4230.769043,4202.692383,4079.358887,4206.282227,4066.794922,4102.051270,0.000000,4.000000,82.000000,,,,0.000000,4.000000,4.000000,4.000000,4.000000,4.000000,4.000000,4.000000,4.000000,4.000000,4.000000,4.000000,4.000000,4.000000,4.000000,100.000000,,,,,,,,,,,,,,,,
1644854486.158720,56.000000,0.000000,4219.743652,4069.358887,4202.436035,3775.128174,4115.000000,4235.641113,4230.256348,4227.563965,4233.589844,4210.256348,4086.025635,4213.717773,4070.384521,4100.256348,0.000000,4.000000,82.000000,,,,0.000000,4.000000,4.000000,4.000000,4.000000,4.000000,4.000000,4.000000,4.000000,4.000000,4.000000,4.000000,4.000000,4.000000,4.000000,100.000000,,,,,,,,,,,,,,,,
1644854486.162660,57.000000,0.000000,4222.563965,4068.461426,4203.205078,3777.179443,4118.846191,4236.666504,4231.410156,4230.769043,4236.410156,4214.102539,4089.871826,4218.461426,4074.615479,4100.256348,0.000000,4.000000,82.000000,,,,0.000000,4.000000,4.000000,4.000000,4.000000,4.000000,4.000000,4.000000,4.000000,4.000000,4.000000,4.000000,4.000000,4.000000,4.000000,100.000000,,,,,,,,,,,,,,,,
1644854486.166600,58.000000,0.000000,4222.692383,4061.153809,4200.769043,3772.307617,4122.563965,4234.615234,4231.282227,4232.563965,4238.205078,4213.333496,4089.358887,4218.077148,4075.769287,4100.897461,0.000000,4.000000,82.000000,,,,0.000000,4.000000,4.000000,4.000000,4.000000,4.000000,4.000000,4.000000,4.000000,4.000000,4.000000,4.000000,4.000000,4.000000,4.000000,100.000000,,,,,,,,,,,,,,,,
1644854486.170540,59.000000,0.000000,4219.743652,4050.641113,4197.051270,3764.358887,4122.820313,4230.000000,4228.846191,4231.538574,4238.333496,4210.641113,4085.769287,4213.589844,4072.307617,4099.743652,0.000000,4.000000,82.000000,,,,0.000000,4.000000,4.000000,4.000000,4.000000,4.000000,4.000000,4.000000,4.000000,4.000000,4.000000,4.000000,4.000000,4.000000,4.000000,100.000000,,,,,,,,,,,,,,,,
1644854486.174480,60.000000,0.000000,4215.897461,4042.692383,4194.743652,3759.487061,4119.487305,4225.128418,4226.025879,4228.205078,4236.410156,4210.128418,4081.794922,4208.717773,4066.666748,4097.436035,0.000000,4.000000,82.000000,,,,0.000000,4.000000,4.000000,4.000000,4.000000,4.000000,4.000000,4.000000,4.000000,4.000000,4.000000,4.000000,4.000000,4.000000,4.000000,100.000000,,,,,,,,,,,,,,,,
1644854486.178420,61.000000,0.000000,4214.615234,4042.692383,4195.256348,3760.897461,4115.512695,4222.563965,4225.512695,4224.615234,4233.077148,4212.820313,4080.256348,4206.410156,4063.205078,4097.436035,0.000000,4.000000,82.000000,,,,0.000000,4.000000,4.000000,4.000000,4.000000,4.000000,4.000000,4.000000,4.000000,4.000000,4.000000,4.000000,4.000000,4.000000,4.000000,100.000000,,,,,,,,,,,,,,,,
1644854486.182360,62.000000,0.000000,4217.692383,4052.051270,4198.333496,3767.179443,4114.487305,4223.205078,4227.692383,4222.692383,4229.615234,4216.410156,4081.794922,4207.436035,4066.410156,4102.820313,0.000000,4.000000,82.000000,,,,0.000000,4.000000,4.000000,4.000000,4.000000,4.000000,4.000000,4.000000,4.000000,4.000000,4.000000,4.000000,4.000000,4.000000,4.000000,100.000000,,,,,,,,,,,,,,,,
1644854486.186300,63.000000,0.000000,4225.128418,4067.435791,4201.666504,3772.692383,4117.820313,4225.769043,4229.871582,4222.948730,4228.205078,4217.820313,4085.897461,4210.897461,4077.948730,4112.307617,0.000000,4.000000,82.000000,,,,0.000000,4.000000,4.000000,4.000000,4.000000,4.000000,4.000000,4.000000,4.000000,4.000000,4.000000,4.000000,4.000000,4.000000,4.000000,100.000000,,,,,,,,,,,,,,,,
1644854486.190240,64.000000,0.000000,4234.743652,4081.666748,4203.717773,3772.948730,4123.717773,4228.589844,4229.871582,4225.128418,4230.641113,4216.794922,4092.179443,4215.897461,4093.846191,4122.436035,0.000000,4.000000,82.000000,,,,0.000000,4.000000,4.000000,4.000000,4.000000,4.000000,4.000000,4.000000,4.000000,4.000000,4.000000,4.000000,4.000000,4.000000,4.000000,100.000000,,,,,,,,,,,,,,,,
1644854486.194181,65.000000,0.000000,4242.563965,4088.333252,4203.589844,3767.692383,4128.077148,4230.000000,4229.102539,4229.230957,4236.410156,4215.384766,4100.512695,4221.666504,4107.179688,4129.102539,0.000000,4.000000,82.000000,,,,0.000000,4.000000,4.000000,4.000000,4.000000,4.000000,4.000000,4.000000,4.000000,4.000000,4.000000,4.000000,4.000000,4.000000,4.000000,100.000000,,,,,,,,,,,,,,,,
1644854486.198121,66.000000,0.000000,4245.256348,4085.641113,4201.922852,3761.410156,4127.436035,4230.000000,4230.384766,4234.487305,4242.948730,4215.769043,4110.256348,4227.179688,4112.307617,4130.512695,0.000000,4.000000,82.000000,,,,0.000000,4.000000,4.000000,4.000000,4.000000,4.000000,4.000000,4.000000,4.000000,4.000000,4.000000,4.000000,4.000000,4.000000,4.000000,100.000000,,,,,,,,,,,,,,,,
1644854486.202061,67.000000,0.000000,4241.282227,4076.923096,4199.358887,3760.128174,4122.307617,4229.487305,4233.846191,4239.102539,4247.307617,4218.717773,4118.717773,4230.897461,4108.333496,4126.025879,0.000000,4.000000,82.000000,,,,0.000000,4.000000,4.000000,4.000000,4.000000,4.000000,4.000000,4.000000,4.000000,4.000000,4.000000,4.000000,4.000000,4.000000,4.000000,100.000000,,,,,,,,,,,,,,,,
1644854486.205901,68.000000,0.000000,4232.051270,4067.435791,4195.769043,3766.538574,4116.025879,4229.230957,4236.153809,4241.153809,4248.333496,4222.948730,4121.282227,4231.282227,4098.077148,4117.051270,0.000000,4.000000,82.000000,,,,0.000000,4.000000,4.000000,4.000000,4.000000,4.000000,4.000000,4.000000,4.000000,4.000000,4.000000,4.000000,4.000000,4.000000,4.000000,100.000000,,,,,,,,,,,,,,,,
1644854486.209841,69.000000,0.000000,4220.769043,4060.384521,4191.282227,3777.179443,4112.948730,4228.333496,4234.230957,4240.000000,4246.282227,4226.025879,4114.230957,4227.436035,4086.025635,4107.307617,0.000000,4.000000,82.000000,,,,0.000000,4.000000,4.000000,4.000000,4.000000,4.000000,4.000000,4.000000,4.000000,4.000000,4.000000,4.000000,4.000000,4.000000,4.000000,100.000000,,,,,,,,,,,,,,,,
1644854486.213781,70.000000,0.000000,4211.666504,4056.538574,4186.922852,3785.256348,4115.000000,4225.897461,4229.487305,4237.051270,4243.461426,4226.025879,4098.717773,4220.384766,4075.128174,4101.794922,0.000000,4.000000,82.000000,,,,0.000000,4.000000,4.000000,4.000000,4.000000,4.000000,4.000000,4.000000,4.000000,4.000000,4.000000,4.000000,4.000000,4.000000,4.000000,100.000000,,,,,,,,,,,,,,,,
1644854486.217721,71.000000,0.000000,4208.205078,4055.769287,4184.102539,3785.128174,4120.384766,4221.666504,4226.153809,4234.487305,4241.538574,4222.563965,4081.923096,4212.179688,4067.692383,4103.205078,0.000000,4.000000,82.000000,,,,0.000000,4.000000,4.000000,4.000000,4.000000,4.000000,4.000000,4.000000,4.000000,4.000000,4.000000,4.000000,4.000000,4.000000,4.000000,100.000000,,,,,,,,,,,,,,,,
1644854486.221661,72.000000,0.000000,4210.641113,4057.820557,4183.717773,3777.307617,4124.743652,4217.179688,4226.794922,4233.846191,4241.410156,4217.563965,4073.846191,4205.512695,4066.153809,4109.743652,0.000000,4.000000,82.000000,,,,0.000000,4.000000,4.000000,4.000000,4.000000,4.000000,4.000000,4.000000,4.000000,4.000000,4.000000,4.000000,4.000000,4.000000,4.000000,100.000000,,,,,,,,,,,,,,,,
1644854486.225601,73.000000,0.000000,4215.897461,4061.153809,4185.384766,3766.538574,4124.358887,4214.743652,4229.230957,4234.230957,4241.922852,4213.333496,4080.384521,4202.051270,4070.897461,4116.666504,0.000000,4.000000,82.000000,,,,0.000000,4.000000,4.000000,4.000000,4.000000,4.000000,4.000000,4.000000,4.000000,4.000000,4.000000,4.000000,4.000000,4.000000,4.000000,100.000000,,,,,,,,,,,,,,,,
1644854486.229542,74.000000,0.000000,4219.487305,4063.076904,4187.051270,3757.435791,4118.974121,4215.641113,4229.487305,4233.717773,4241.282227,4210.000000,4097.563965,4201.666504,4079.358887,4120.256348,0.000000,4.000000,82.000000,,,,0.000000,4.000000,4.000000,4.000000,4.000000,4.000000,4.000000,4.000000,4.000000,4.000000,4.000000,4.000000,4.000000,4.000000,4.000000,100.000000,,,,,,,,,,,,,,,,
1644854486.233482,75.000000,0.000000,4218.205078,4061.794922,4187.436035,3750.512939,4111.538574,4218.717773,4227.563965,4231.410156,4238.205078,4206.025879,4114.230957,4202.692383,4086.153809,4120.897461,0.000000,4.000000,82.000000,,,,0.000000,4.000000,4.000000,4.000000,4.000000,4.000000,4.000000,4.000000,4.000000,4.000000,4.000000,4.000000,4.000000,4.000000,4.000000,100.000000,,,,,,,,,,,,,,,,
1644854486.237422,76.000000,0.000000,4212.051270,4058.333252,4186.410156,3743.589844,4106.282227,4221.282227,4226.410156,4228.333496,4233.461426,4200.000000,4118.974121,4203.077148,4087.435791,4121.153809,0.000000,4.000000,82.000000,,,,0.000000,4.000000,4.000000,4.000000,4.000000,4.000000,4.000000,4.000000,4.000000,4.000000,4.000000,4.000000,4.000000,4.000000,4.000000,100.000000,,,,,,,,,,,,,,,,
1644854486.241362,77.000000,0.000000,4205.384766,4056.794922,4185.000000,3737.307617,4105.897461,4222.692383,4228.333496,4225.897461,4229.230957,4193.589844,4108.589844,4201.410156,4083.461426,4121.922852,0.000000,4.000000,82.000000,,,,0.000000,4.000000,4.000000,4.000000,4.000000,4.000000,4.000000,4.000000,4.000000,4.000000,4.000000,4.000000,4.000000,4.000000,4.000000,100.000000,,,,,,,,,,,,,,,,
1644854486.245302,78.000000,0.000000,4203.846191,4060.512939,4184.487305,3736.923096,4111.282227,4224.743652,4231.410156,4224.615234,4227.307617,4191.282227,4090.384521,4198.077148,4078.461426,4122.051270,0.000000,4.000000,82.000000,,,,0.000000,4.000000,4.000000,4.000000,4.000000,4.000000,4.000000,4.000000,4.000000,4.000000,4.000000,4.000000,4.000000,4.000000,4.000000,100.000000,,,,,,,,,,,,,,,,
1644854486.249242,79.000000,0.000000,4209.871582,4069.358887,4184.871582,3747.692383,4120.512695,4228.974121,4232.179688,4223.461426,4228.205078,4195.256348,4075.512939,4194.743652,4076.794922,4120.128418,0.000000,4.000000,82.000000,,,,0.000000,4.000000,4.000000,4.000000,4.000000,4.000000,4.000000,4.000000,4.000000,4.000000,4.000000,4.000000,4.000000,4.000000,4.000000,100.000000,,,,,,,,,,,,,,,,
1644854486.253182,80.000000,0.000000,4220.769043,4079.358887,4185.256348,3767.435791,4130.256348,4233.461426,4230.000000,4221.538574,4230.000000,4202.692383,4071.666748,4192.307617,4078.333252,4117.051270,0.000000,4.000000,82.000000,,,,0.000000,4.000000,4.000000,4.000000,4.000000,4.000000,4.000000,4.000000,4.000000,4.000000,4.000000,4.000000,4.000000,4.000000,4.000000,100.000000,,,,,,,,,,,,,,,,
1644854486.257122,81.000000,0.000000,4230.128418,4085.384521,4185.128418,3786.410156,4136.410156,4234.871582,4227.179688,4218.846191,4230.000000,4206.794922,4077.435791,4190.769043,4079.487061,4114.487305,0.000000,4.000000,82.000000,,,,0.000000,4.000000,4.000000,4.000000,4.000000,4.000000,4.000000,4.000000,4.000000,4.000000,4.000000,4.000000,4.000000,4.000000,4.000000,100.000000,,,,,,,,,,,,,,,,
1644854486.261062,82.000000,0.000000,4232.179688,4084.487061,4185.128418,3794.358887,4136.666504,4231.538574,4226.282227,4216.282227,4227.179688,4203.846191,4085.641113,4189.615234,4076.923096,4113.077148,0.000000,4.000000,82.000000,,,,0.000000,4.000000,4.000000,4.000000,4.000000,4.000000,4.000000,4.000000,4.000000,4.000000,4.000000,4.000000,4.000000,4.000000,4.000000,100.000000,,,,,,,,,,,,,,,,
1644854486.265003,83.000000,0.000000,4226.666504,4078.076904,4185.641113,3789.102539,4132.692383,4226.025879,4226.538574,4214.487305,4222.948730,4196.538574,4089.358887,4189.102539,4071.025635,4111.153809,0.000000,4.000000,82.000000,,,,0.000000,4.000000,4.000000,4.000000,4.000000,4.000000,4.000000,4.000000,4.000000,4.000000,4.000000,4.000000,4.000000,4.000000,4.000000,100.000000,,,,,,,,,,,,,,,,
1644854486.268943,84.000000,0.000000,4218.333496,4071.410156,4186.153809,3778.205078,4128.974121,4221.922852,4225.512695,4213.974121,4220.000000,4191.538574,4087.692383,4189.743652,4065.000000,4108.077148,0.000000,4.000000,82.000000,,,,0.000000,4.000000,4.000000,4.000000,4.000000,4.000000,4.000000,4.000000,4.000000,4.000000,4.000000,4.000000,4.000000,4.000000,4.000000,100.000000,,,,,,,,,,,,,,,,
1644854486.272883,85.000000,0.000000,4213.461426,4069.230713,4185.897461,3772.179443,4127.948730,4221.282227,4222.692383,4214.615234,4220.000000,4192.692383,4083.974365,4191.153809,4062.564209,4105.897461,0.000000,4.000000,82.000000,,,,0.000000,4.000000,4.000000,4.000000,4.000000,4.000000,4.000000,4.000000,4.000000,4.000000,4.000000,4.000000,4.000000,4.000000,4.000000,100.000000,,,,,,,,,,,,,,,,
1644854486.276923,86.000000,0.000000,4215.128418,4072.820557,4185.512695,3775.512939,4129.487305,4223.461426,4220.000000,4216.025879,4222.179688,4198.846191,4081.923096,4192.563965,4065.000000,4107.563965,0.000000,4.000000,82.000000,,,,0.000000,4.000000,4.000000,4.000000,4.000000,4.000000,4.000000,4.000000,4.000000,4.000000,4.000000,4.000000,4.000000,4.000000,4.000000,100.000000,,,,,,,,,,,,,,,,
1644854486.280863,87.000000,0.000000,4221.922852,4080.000000,4185.897461,3784.743652,4131.410156,4226.410156,4219.871582,4218.205078,4225.000000,4205.384766,4082.692383,4193.589844,4070.512939,4112.820313,0.000000,4.000000,82.000000,,,,0.000000,4.000000,4.000000,4.000000,4.000000,4.000000,4.000000,4.000000,4.000000,4.000000,4.000000,4.000000,4.000000,4.000000,4.000000,100.000000,,,,,,,,,,,,,,,,
1644854486.284803,88.000000,0.000000,4229.230957,4086.794922,4188.077148,3792.307617,4132.307617,4228.846191,4222.051270,4220.897461,4227.692383,4209.102539,4085.256348,4195.384766,4076.025635,4117.179688,0.000000,4.000000,82.000000,,,,0.000000,4.000000,4.000000,4.000000,4.000000,4.000000,4.000000,4.000000,4.000000,4.000000,4.000000,4.000000,4.000000,4.000000,4.000000,100.000000,,,,,,,,,,,,,,,,
1644854486.288743,89.000000,0.000000,4232.563965,4090.256348,4191.153809,3793.461426,4133.205078,4230.128418,4224.102539,4223.717773,4230.000000,4210.128418,4088.846191,4198.974121,4079.871826,4116.410156,0.000000,4.000000,82.000000,,,,0.000000,4.000000,4.000000,4.000000,4.000000,4.000000,4.000000,4.000000,4.000000,4.000000,4.000000,4.000000,4.000000,4.000000,4.000000,100.000000,,,,,,,,,,,,,,,,
1644854486.292683,90.000000,0.000000,4230.128418,4089.743652,4193.461426,3789.743652,4135.000000,4230.128418,4224.743652,4225.641113,4231.794922,4210.512695,4093.974365,4204.487305,4081.794922,4111.153809,0.000000,4.000000,82.000000,,,,0.000000,4.000000,4.000000,4.000000,4.000000,4.000000,4.000000,4.000000,4.000000,4.000000,4.000000,4.000000,4.000000,4.000000,4.000000,100.000000,,,,,,,,,,,,,,,,
1644854486.296623,91.000000,0.000000,4223.333496,4085.769287,4194.230957,3787.435791,4136.922852,4228.589844,4224.743652,4226.025879,4232.051270,4211.410156,4100.641113,4210.128418,4082.307617,4105.000000,0.000000,4.000000,82.000000,,,,0.000000,4.000000,4.000000,4.000000,4.000000,4.000000,4.000000,4.000000,4.000000,4.000000,4.000000,4.000000,4.000000,4.000000,4.000000,100.000000,,,,,,,,,,,,,,,,
1644854486.300563,92.000000,0.000000,4215.897461,4078.461426,4193.333496,3791.410156,4136.666504,4226.025879,4225.128418,4223.974121,4230.256348,4212.563965,4106.025879,4213.846191,4081.025635,4100.769043,0.000000,4.000000,82.000000,,,,0.000000,4.000000,4.000000,4.000000,4.000000,4.000000,4.000000,4.000000,4.000000,4.000000,4.000000,4.000000,4.000000,4.000000,4.000000,100.000000,,,,,,,,,,,,,,,,
1644854486.304503,93.000000,0.000000,4211.282227,4069.487061,4191.538574,3800.256348,4133.333496,4223.205078,4225.000000,4220.256348,4226.794922,4211.794922,4106.794922,4214.230957,4077.564209,4098.461426,0.000000,4.000000,82.000000,,,,0.000000,4.000000,4.000000,4.000000,4.000000,4.000000,4.000000,4.000000,4.000000,4.000000,4.000000,4.000000,4.000000,4.000000,4.000000,100.000000,,,,,,,,,,,,,,,,
1644854486.308444,94.000000,0.000000,4211.666504,4061.923096,4188.589844,3806.923096,4129.102539,4220.769043,4223.077148,4216.282227,4222.948730,4207.948730,4101.282227,4210.641113,4072.820557,4096.410156,0.000000,4.000000,82.000000,,,,0.000000,4.000000,4.000000,4.000000,4.000000,4.000000,4.000000,4.000000,4.000000,4.000000,4.000000,4.000000,4.000000,4.000000,4.000000,100.000000,,,,,,,,,,,,,,,,
1644854486.312384,95.000000,0.000000,4215.512695,4059.871826,4184.358887,3805.384521,4126.666504,4218.717773,4220.000000,4214.230957,4219.871582,4201.666504,4091.153809,4203.974121,4068.846191,4094.743652,0.000000,4.000000,82.000000,,,,0.000000,4.000000,4.000000,4.000000,4.000000,4.000000,4.000000,4.000000,4.000000,4.000000,4.000000,4.000000,4.000000,4.000000,4.000000,100.000000,,,,,,,,,,,,,,,,
1644854486.316324,96.000000,0.000000,4218.846191,4064.102539,4180.641113,3796.410156,4127.179688,4216.922852,4218.333496,4214.615234,4218.077148,4195.641113,4080.897461,4196.410156,4068.076904,4095.128174,0.000000,4.000000,82.000000,,,,0.000000,4.000000,4.000000,4.000000,4.000000,4.000000,4.000000,4.000000,4.000000,4.000000,4.000000,4.000000,4.000000,4.000000,4.000000,100.000000,1.000000,8.333333,1.000000,1.000000,4.000000,0.000000,0.000000,4.000000,4.000000,4.000000,4.000000,4.000000,1.000000,4.000000,4.000000,1.000000
1644854486.320264,97.000000,0.000000,4218.077148,4071.666748,4179.871582,3786.666748,4128.717773,4215.769043,4219.615234,4216.282227,4217.179688,4192.692383,4074.871826,4191.153809,4070.897461,4097.307617,0.000000,4.000000,82.000000,,,,0.000000,4.000000,4.000000,4.000000,4.000000,4.000000,4.000000,4.000000,4.000000,4.000000,4.000000,4.000000,4.000000,4.000000,4.000000,100.000000,,,,,,,,,,,,,,,,
1644854486.324204,98.000000,0.000000,4213.589844,4077.564209,4183.333496,3783.461426,4128.589844,4215.897461,4222.051270,4217.563965,4217.436035,4193.461426,4075.000000,4190.641113,4075.897461,4098.717773,0.000000,4.000000,82.000000,,,,0.000000,4.000000,4.000000,4.000000,4.000000,4.000000,4.000000,4.000000,4.000000,4.000000,4.000000,4.000000,4.000000,4.000000,4.000000,100.000000,,,,,,,,,,,,,,,,
1644854486.328144,99.000000,0.000000,4208.461426,4078.333252,4189.230957,3788.718018,4125.897461,4216.922852,4222.692383,4217.307617,4218.589844,4196.153809,4079.487061,4195.000000,4081.666748,4096.794922,0.000000,4.000000,82.000000,,,,0.000000,4.000000,4.000000,4.000000,4.000000,4.000000,4.000000,4.000000,4.000000,4.000000,4.000000,4.000000,4.000000,4.000000,4.000000,100.000000,,,,,,,,,,,,,,,,
1644854486.332084,100.000000,0.000000,4206.410156,4074.358887,4194.487305,3797.692383,4121.282227,4217.436035,4220.641113,4215.641113,4219.871582,4198.077148,4084.615479,4200.769043,4087.307617,4092.692383,0.000000,4.000000,82.000000,,,,0.000000,4.000000,4.000000,4.000000,4.000000,4.000000,4.000000,4.000000,4.000000,4.000000,4.000000,4.000000,4.000000,4.000000,4.000000,100.000000,,,,,,,,,,,,,,,,
1644854486.336024,101.000000,0.000000,4208.205078,4068.589844,4196.153809,3803.846191,4116.410156,4216.666504,4217.948730,4213.846191,4219.743652,4197.307617,4087.051270,4203.974121,4091.923096,4090.000000,0.000000,4.000000,82.000000,,,,0.000000,4.000000,4.000000,4.000000,4.000000,4.000000,4.000000,4.000000,4.000000,4.000000,4.000000,4.000000,4.000000,4.000000,4.000000,100.000000,,,,,,,,,,,,,,,,
1644854486.339964,102.000000,0.000000,4211.282227,4064.615479,4194.230957,3803.461426,4113.974121,4214.743652,4217.436035,4213.589844,4217.948730,4194.615234,4086.153809,4202.948730,4093.974365,4090.769287,0.000000,4.000000,82.000000,,,,0.000000,4.000000,4.000000,4.000000,4.000000,4.000000,4.000000,4.000000,4.000000,4.000000,4.000000,4.000000,4.000000,4.000000,4.000000,100.000000,,,,,,,,,,,,,,,,
1644854486.343905,103.000000,0.000000,4212.436035,4064.487061,4190.128418,3798.718018,4116.025879,4212.948730,4218.846191,4215.512695,4215.769043,4192.948730,4084.871826,4199.358887,4092.820557,4092.307617,0.000000,4.000000,82.000000,,,,0.000000,4.000000,4.000000,4.000000,4.000000,4.000000,4.000000,4.000000,4.000000,4.000000,4.000000,4.000000,4.000000,4.000000,4.000000,100.000000,,,,,,,,,,,,,,,,
1644854486.347845,104.000000,0.000000,4210.128418,4067.564209,4185.897461,3795.128174,4122.692383,4212.307617,4219.871582,4218.461426,4215.256348,4195.128418,4086.153809,4196.153809,4089.615479,4090.769287,0.000000,4.000000,82.000000,,,,0.000000,4.000000,4.000000,4.000000,4.000000,4.000000,4.000000,4.000000,4.000000,4.000000,4.000000,4.000000,4.000000,4.000000,4.000000,100.000000,,,,,,,,,,,,,,,,
1644854486.351885,105.000000,0.000000,4205.769043,4070.897461,4183.205078,3796.281982,4130.128418,4213.205078,4219.102539,4220.897461,4217.307617,4201.282227,4091.025635,4195.128418,4086.923096,4085.897461,0.000000,4.000000,82.000000,,,,0.000000,4.000000,4.000000,4.000000,4.000000,4.000000,4.000000,4.000000,4.000000,4.000000,4.000000,4.000000,4.000000,4.000000,4.000000,100.000000,,,,,,,,,,,,,,,,
1644854486.355825,106.000000,0.000000,4202.307617,4072.179443,4183.333496,3800.128174,4133.333496,4214.358887,4218.461426,4222.436035,4221.025879,4208.846191,4097.051270,4196.282227,4087.435791,4081.666748,0.000000,4.000000,82.000000,,,,0.000000,4.000000,4.000000,4.000000,4.000000,4.000000,4.000000,4.000000,4.000000,4.000000,4.000000,4.000000,4.000000,4.000000,4.000000,100.000000,,,,,,,,,,,,,,,,
1644854486.359765,107.000000,0.000000,4202.179688,4071.666748,4186.153809,3801.666748,4130.641113,4215.000000,4220.000000,4223.333496,4224.743652,4213.717773,4100.641113,4198.461426,4091.666748,4082.307617,0.000000,4.000000,82.000000,,,,0.000000,4.000000,4.000000,4.000000,4.000000,4.000000,4.000000,4.000000,4.000000,4.000000,4.000000,4.000000,4.000000,4.000000,4.000000,100.000000,,,,,,,,,,,,,,,,
1644854486.363705,108.000000,0.000000,4205.384766,4071.410156,4189.487305,3797.820557,4125.000000,4215.128418,4223.461426,4225.000000,4228.077148,4213.846191,4101.025879,4200.897461,4098.077148,4087.179443,0.000000,4.000000,82.000000,,,,0.000000,4.000000,4.000000,4.000000,4.000000,4.000000,4.000000,4.000000,4.000000,4.000000,4.000000,4.000000,4.000000,4.000000,4.000000,100.000000,,,,,,,,,,,,,,,,
1644854486.367645,109.000000,0.000000,4210.000000,4073.205078,4191.153809,3790.897461,4122.051270,4215.769043,4225.512695,4227.692383,4231.153809,4210.769043,4100.000000,4202.563965,4104.102539,4091.666748,0.000000,4.000000,82.000000,,,,0.000000,4.000000,4.000000,4.000000,4.000000,4.000000,4.000000,4.000000,4.000000,4.000000,4.000000,4.000000,4.000000,4.000000,4.000000,100.000000,,,,,,,,,,,,,,,,
1644854486.371585,110.000000,0.000000,4213.717773,4076.538574,4190.897461,3787.692383,4124.615234,4217.820313,4224.230957,4230.897461,4234.230957,4207.820313,4100.000000,4203.333496,4107.179688,4092.179443,0.000000,4.000000,82.000000,,,,0.000000,4.000000,4.000000,4.000000,4.000000,4.000000,4.000000,4.000000,4.000000,4.000000,4.000000,4.000000,4.000000,4.000000,4.000000,100.000000,,,,,,,,,,,,,,,,
1644854486.375525,111.000000,0.000000,4215.512695,4080.256348,4190.897461,3793.461426,4131.410156,4221.410156,4221.922852,4233.717773,4236.922852,4208.333496,4101.153809,4203.717773,4106.282227,4088.974365,0.000000,4.000000,82.000000,,,,0.000000,4.000000,4.000000,4.000000,4.000000,4.000000,4.000000,4.000000,4.000000,4.000000,4.000000,4.000000,4.000000,4.000000,4.000000,100.000000,,,,,,,,,,,,,,,,
1644854486.379465,112.000000,0.000000,4216.282227,4084.102539,4193.333496,3807.564209,4138.205078,4225.000000,4222.307617,4235.384766,4238.846191,4212.820313,4101.538574,4204.230957,4102.563965,4086.410156,0.000000,4.000000,82.000000,,,,0.000000,4.000000,4.000000,4.000000,4.000000,4.000000,4.000000,4.000000,4.000000,4.000000,4.000000,4.000000,4.000000,4.000000,4.000000,100.000000,,,,,,,,,,,,,,,,
1644854486.383405,113.000000,0.000000,4216.282227,4088.461426,4197.692383,3822.435791,4142.179688,4226.922852,4225.641113,4235.512695,4239.743652,4218.846191,4100.128418,4205.384766,4099.102539,4087.435791,0.000000,4.000000,82.000000,,,,0.000000,4.000000,4.000000,4.000000,4.000000,4.000000,4.000000,4.000000,4.000000,4.000000,4.000000,4.000000,4.000000,4.000000,4.000000,100.000000,,,,,,,,,,,,,,,,
1644854486.387346,114.000000,0.000000,4215.000000,4092.948730,4201.025879,3828.974365,4143.461426,4226.025879,4228.589844,4234.358887,4238.589844,4223.589844,4097.948730,4205.897461,4098.974121,4091.666748,0.000000,4.000000,82.000000,,,,0.000000,4.000000,4.000000,4.000000,4.000000,4.000000,4.000000,4.000000,4.000000,4.000000,4.000000,4.000000,4.000000,4.000000,4.000000,100.000000,,,,,,,,,,,,,,,,
1644854486.391286,115.000000,0.000000,4211.538574,4095.641113,4200.384766,3823.718018,4143.974121,4222.948730,4228.077148,4232.436035,4234.358887,4224.487305,4097.051270,4204.743652,4102.820313,4095.256348,0.000000,4.000000,82.000000,,,,0.000000,4.000000,4.000000,4.000000,4.000000,4.000000,4.000000,4.000000,4.000000,4.000000,4.000000,4.000000,4.000000,4.000000,4.000000,100.000000,,,,,,,,,,,,,,,,
1644854486.395226,116.000000,0.000000,4205.641113,4093.333252,4195.897461,3812.820557,4145.256348,4219.358887,4225.000000,4229.871582,4227.307617,4220.897461,4097.948730,4201.025879,4108.333496,4095.128174,0.000000,4.000000,82.000000,,,,0.000000,4.000000,4.000000,4.000000,4.000000,4.000000,4.000000,4.000000,4.000000,4.000000,4.000000,4.000000,4.000000,4.000000,4.000000,100.000000,,,,,,,,,,,,,,,,
1644854486.399166,117.000000,0.000000,4199.743652,4085.769287,4189.743652,3806.281982,4146.666504,4217.307617,4222.436035,4226.922852,4219.487305,4214.230957,4099.358887,4196.025879,4112.051270,4090.256348,0.000000,4.000000,82.000000,,,,0.000000,4.000000,4.000000,4.000000,4.000000,4.000000,4.000000,4.000000,4.000000,4.000000,4.000000,4.000000,4.000000,4.000000,4.000000,100.000000,,,,,,,,,,,,,,,,
1644854486.403106,118.000000,0.000000,4196.794922,4076.794922,4184.871582,3809.358887,4145.769043,4217.307617,4222.051270,4223.205078,4213.717773,4207.307617,4099.615234,4191.538574,4111.794922,4082.307617,0.000000,4.000000,82.000000,,,,0.000000,4.000000,4.000000,4.000000,4.000000,4.000000,4.000000,4.000000,4.000000,4.000000,4.000000,4.000000,4.000000,4.000000,4.000000,100.000000,,,,,,,,,,,,,,,,
1644854486.407046,119.000000,0.000000,4198.461426,4071.923096,4182.563965,3817.435791,4140.641113,4218.333496,4222.051270,4218.846191,4212.436035,4202.820313,4098.589844,4189.358887,4107.179688,4075.256348,0.000000,4.000000,82.000000,,,,0.000000,4.000000,4.000000,4.000000,4.000000,4.000000,4.000000,4.000000,4.000000,4.000000,4.000000,4.000000,4.000000,4.000000,4.000000,100.000000,,,,,,,,,,,,,,,,
1644854486.410986,120.000000,0.000000,4203.077148,4073.461426,4182.436035,3821.281982,4132.179688,4218.846191,4220.641113,4214.487305,4215.384766,4201.794922,4097.563965,4189.230957,4100.128418,4074.102539,0.000000,4.000000,82.000000,,,,0.000000,4.000000,4.000000,4.000000,4.000000,4.000000,4.000000,4.000000,4.000000,4.000000,4.000000,4.000000,4.000000,4.000000,4.000000,100.000000,,,,,,,,,,,,,,,,
1644854486.414926,121.000000,0.000000,4207.563965,4079.358887,4183.589844,3816.410156,4124.615234,4217.948730,4218.589844,4211.794922,4218.589844,4202.948730,4097.692383,4189.487305,4093.205078,4081.666748,0.000000,4.000000,82.000000,,,,0.000000,4.000000,4.000000,4.000000,4.000000,4.000000,4.000000,4.000000,4.000000,4.000000,4.000000,4.000000,4.000000,4.000000,4.000000,100.000000,,,,,,,,,,,,,,,,
1644854486.418866,122.000000,0.000000,4209.487305,4084.871826,4185.384766,3806.666748,4122.692383,4216.153809,4218.077148,4211.794922,4218.333496,4203.846191,4098.077148,4188.333496,4089.358887,4095.384521,0.000000,4.000000,82.000000,,,,0.000000,4.000000,4.000000,4.000000,4.000000,4.000000,4.000000,4.000000,4.000000,4.000000,4.000000,4.000000,4.000000,4.000000,4.000000,100.000000,,,,,,,,,,,,,,,,
1644854486.422807,123.000000,0.000000,4208.461426,4086.923096,4186.922852,3800.897461,4127.563965,4214.487305,4219.871582,4213.333496,4213.205078,4203.461426,4097.307617,4185.512695,4090.512939,4107.820313,0.000000,4.000000,82.000000,,,,0.000000,4.000000,4.000000,4.000000,4.000000,4.000000,4.000000,4.000000,4.000000,4.000000,4.000000,4.000000,4.000000,4.000000,4.000000,100.000000,,,,,,,,,,,,,,,,
1644854486.426847,124.000000,0.000000,4205.384766,4086.025635,4187.307617,3805.897461,4135.384766,4213.846191,4221.922852,4214.358887,4206.153809,4202.307617,4093.974365,4183.077148,4096.025879,4111.666504,0.000000,4.000000,82.000000,,,,0.000000,4.000000,4.000000,4.000000,4.000000,4.000000,4.000000,4.000000,4.000000,4.000000,4.000000,4.000000,4.000000,4.000000,4.000000,100.000000,,,,,,,,,,,,,,,,
1644854486.430787,125.000000,0.000000,4201.794922,4084.487061,4186.794922,3820.897461,4140.897461,4214.615234,4222.692383,4214.102539,4202.051270,4201.794922,4088.718018,4183.846191,4103.077148,4106.794922,0.000000,4.000000,82.000000,,,,0.000000,4.000000,4.000000,4.000000,4.000000,4.000000,4.000000,4.000000,4.000000,4.000000,4.000000,4.000000,4.000000,4.000000,4.000000,100.000000,,,,,,,,,,,,,,,,
1644854486.434727,126.000000,0.000000,4198.974121,4083.846191,4186.410156,3839.102539,4141.410156,4215.769043,4223.846191,4213.589844,4203.974121,4202.179688,4083.461426,4189.230957,4107.948730,4099.487305,0.000000,4.000000,82.000000,,,,0.000000,4.000000,4.000000,4.000000,4.000000,4.000000,4.000000,4.000000,4.000000,4.000000,4.000000,4.000000,4.000000,4.000000,4.000000,100.000000,,,,,,,,,,,,,,,,
1644854486.438667,127.000000,0.000000,4197.692383,4084.102539,4187.820313,3851.538574,4138.717773,4216.538574,4227.179688,4215.000000,4211.153809,4203.846191,4081.538574,4197.051270,4109.102539,4096.538574,0.000000,4.000000,82.000000,,,,0.000000,4.000000,4.000000,4.000000,4.000000,4.000000,4.000000,4.000000,4.000000,4.000000,4.000000,4.000000,4.000000,4.000000,4.000000,100.000000,,,,,,,,,,,,,,,,
1644854486.442607,128.000000,0.000000,4198.717773,4085.641113,4190.769043,3853.589844,4137.051270,4217.179688,4231.922852,4219.230957,4220.000000,4207.179688,4085.897461,4203.589844,4108.974121,4098.846191,3426.000000,4.000000,82.000000,,,,0.000000,4.000000,4.000000,4.000000,4.000000,4.000000,4.000000,4.000000,4.000000,4.000000,4.000000,4.000000,4.000000,4.000000,4.000000,100.000000,,,,,,,,,,,,,,,,
1644854486.446547,129.000000,0.000000,4203.461426,4089.358887,4193.974121,3847.307617,4138.846191,4218.205078,4234.615234,4225.000000,4227.307617,4212.436035,4096.410156,4206.538574,4111.922852,4102.948730,3352.000000,4.000000,82.000000,,,,0.000000,4.000000,4.000000,4.000000,4.000000,4.000000,4.000000,4.000000,4.000000,4.000000,4.000000,4.000000,4.000000,4.000000,4.000000,100.000000,,,,,,,,,,,,,,,,
1644854486.450487,130.000000,0.000000,4211.922852,4095.128174,4195.769043,3839.358887,4143.333496,4219.743652,4233.205078,4230.000000,4232.307617,4218.846191,4109.487305,4206.153809,4119.358887,4105.769043,3578.000000,4.000000,82.000000,,,,0.000000,4.000000,4.000000,4.000000,4.000000,4.000000,4.000000,4.000000,4.000000,4.000000,4.000000,4.000000,4.000000,4.000000,4.000000,100.000000,,,,,,,,,,,,,,,,
1644854486.454427,131.000000,0.000000,4221.666504,4100.641113,4195.512695,3835.512939,4147.436035,4220.641113,4229.615234,4232.948730,4235.384766,4224.102539,4119.615234,4204.102539,4128.077148,4107.563965,3533.000000,4.000000,82.000000,,,,0.000000,4.000000,4.000000,4.000000,4.000000,4.000000,4.000000,4.000000,4.000000,4.000000,4.000000,4.000000,4.000000,4.000000,4.000000,100.000000,,,,,,,,,,,,,,,,
1644854486.458367,132.000000,0.000000,4227.948730,4102.563965,4193.717773,3835.384521,4148.333496,4220.256348,4227.563965,4234.230957,4237.179688,4226.538574,4123.333496,4201.922852,4133.077148,4109.743652,3516.000000,4.000000,82.000000,,,,0.000000,4.000000,4.000000,4.000000,4.000000,4.000000,4.000000,4.000000,4.000000,4.000000,4.000000,4.000000,4.000000,4.000000,4.000000,100.000000,,,,,,,,,,,,,,,,
1644854486.462308,133.000000,0.000000,4228.077148,4100.000000,4191.794922,3834.487061,4146.922852,4219.358887,4228.333496,4234.615234,4237.948730,4226.922852,4121.025879,4200.769043,4132.179688,4112.307617,3101.000000,4.000000,82.000000,,,,0.000000,4.000000,4.000000,4.000000,4.000000,4.000000,4.000000,4.000000,4.000000,4.000000,4.000000,4.000000,4.000000,4.000000,4.000000,100.000000,,,,,,,,,,,,,,,,
1644854486.466248,134.000000,0.000000,4223.589844,4095.256348,4190.897461,3829.871826,4146.153809,4219.230957,4229.615234,4235.000000,4237.948730,4228.205078,4116.410156,4201.282227,4127.692383,4113.461426,2342.000000,4.000000,82.000000,,,,0.000000,4.000000,4.000000,4.000000,4.000000,4.000000,4.000000,4.000000,4.000000,4.000000,4.000000,4.000000,4.000000,4.000000,4.000000,100.000000,,,,,,,,,,,,,,,,
1644854486.470188,135.000000,0.000000,4219.615234,4092.692383,4192.563965,3825.128174,4149.102539,4221.282227,4229.871582,4235.512695,4237.692383,4232.051270,4113.205078,4203.717773,4124.358887,4113.717773,3127.000000,4.000000,82.000000,,,,0.000000,4.000000,4.000000,4.000000,4.000000,4.000000,4.000000,4.000000,4.000000,4.000000,4.000000,4.000000,4.000000,4.000000,4.000000,100.000000,,,,,,,,,,,,,,,,
1644854486.474128,136.000000,0.000000,4220.769043,4094.871826,4197.179688,3828.205078,4155.769043,4225.128418,4229.743652,4235.769043,4238.077148,4236.922852,4112.563965,4207.820313,4125.000000,4115.897461,3358.000000,4.000000,82.000000,,,,0.000000,4.000000,4.000000,4.000000,4.000000,4.000000,4.000000,4.000000,4.000000,4.000000,4.000000,4.000000,4.000000,4.000000,4.000000,100.000000,,,,,,,,,,,,,,,,
1644854486.478068,137.000000,0.000000,4226.922852,4101.922852,4203.461426,3843.205078,4163.205078,4229.871582,4231.410156,4236.410156,4239.230957,4239.743652,4113.589844,4212.948730,4129.102539,4122.563965,3269.000000,4.000000,82.000000,,,,0.000000,4.000000,4.000000,4.000000,4.000000,4.000000,4.000000,4.000000,4.000000,4.000000,4.000000,4.000000,4.000000,4.000000,4.000000,100.000000,,,,,,,,,,,,,,,,
1644854486.482008,138.000000,0.000000,4235.256348,4111.922852,4209.230957,3865.384521,4167.692383,4233.974121,4234.871582,4238.205078,4241.410156,4239.230957,4115.641113,4217.820313,4134.358887,4131.666504,3321.000000,4.000000,82.000000,,,,0.000000,4.000000,4.000000,4.000000,4.000000,4.000000,4.000000,4.000000,4.000000,4.000000,4.000000,4.000000,4.000000,4.000000,4.000000,100.000000,,,,,,,,,,,,,,,,
1644854486.485948,139.000000,0.000000,4242.179688,4121.794922,4212.563965,3883.333252,4167.948730,4236.666504,4237.051270,4241.153809,4244.102539,4237.051270,4118.974121,4221.666504,4138.846191,4137.948730,2412.000000,4.000000,82.000000,,,,0.000000,4.000000,4.000000,4.000000,4.000000,4.000000,4.000000,4.000000,4.000000,4.000000,4.000000,4.000000,4.000000,4.000000,4.000000,100.000000,,,,,,,,,,,,,,,,
1644854486.489888,140.000000,0.000000,4245.641113,4128.974121,4212.820313,3887.564209,4164.487305,4237.307617,4235.897461,4243.205078,4246.153809,4235.641113,4123.333496,4223.077148,4141.025879,4137.820313,3519.000000,4.000000,82.000000,,,,0.000000,4.000000,4.000000,4.000000,4.000000,4.000000,4.000000,4.000000,4.000000,4.000000,4.000000,4.000000,4.000000,4.000000,4.000000,100.000000,,,,,,,,,,,,,,,,
1644854486.493828,141.000000,0.000000,4244.487305,4130.769043,4210.897461,3877.051270,4159.230957,4236.538574,4232.948730,4241.794922,4245.641113,4235.256348,4126.922852,4221.410156,4139.358887,4132.436035,3501.000000,4.000000,82.000000,,,,0.000000,4.000000,4.000000,4.000000,4.000000,4.000000,4.000000,4.000000,4.000000,4.000000,4.000000,4.000000,4.000000,4.000000,4.000000,100.000000,,,,,,,,,,,,,,,,
1644854486.497768,142.000000,0.000000,4238.333496,4125.769043,4207.820313,3859.358887,4153.846191,4235.128418,4231.794922,4236.410156,4240.769043,4233.846191,4126.922852,4217.307617,4132.179688,4125.769043,3321.000000,4.000000,82.000000,,,,0.000000,4.000000,4.000000,4.000000,4.000000,4.000000,4.000000,4.000000,4.000000,4.000000,4.000000,4.000000,4.000000,4.000000,4.000000,100.000000,,,,,,,,,,,,,,,,
1644854486.501709,143.000000,0.000000,4228.333496,4115.000000,4204.358887,3844.871826,4149.871582,4233.974121,4233.717773,4229.615234,4233.077148,4229.358887,4121.922852,4212.948730,4120.512695,4120.256348,2412.000000,4.000000,82.000000,,,,0.000000,4.000000,4.000000,4.000000,4.000000,4.000000,4.000000,4.000000,4.000000,4.000000,4.000000,4.000000,4.000000,4.000000,4.000000,100.000000,,,,,,,,,,,,,,,,
1644854486.505649,144.000000,0.000000,4218.589844,4102.436035,4201.025879,3840.128174,4150.000000,4233.333496,4236.410156,4224.615234,4226.538574,4222.820313,4114.102539,4210.641113,4108.717773,4115.897461,3519.000000,4.000000,82.000000,,,,0.000000,4.000000,4.000000,4.000000,4.000000,4.000000,4.000000,4.000000,4.000000,4.000000,4.000000,4.000000,4.000000,4.000000,4.000000,100.000000,,,,,,,,,,,,,,,,
1644854486.509589,145.000000,0.000000,4213.846191,4093.974365,4198.461426,3846.025635,4154.743652,4233.205078,4237.307617,4222.820313,4224.102539,4217.436035,4107.179688,4211.538574,4102.692383,4113.077148,3501.000000,4.000000,82.000000,,,,0.000000,4.000000,4.000000,4.000000,4.000000,4.000000,4.000000,4.000000,4.000000,4.000000,4.000000,4.000000,4.000000,4.000000,4.000000,100.000000,,,,,,,,,,,,,,,,
1644854486.513529,146.000000,0.000000,4216.153809,4092.948730,4197.563965,3857.435791,4160.256348,4232.948730,4236.666504,4223.333496,4225.256348,4215.512695,4103.974121,4213.974121,4105.384766,4114.230957,3321.000000,4.000000,82.000000,,,,0.000000,4.000000,4.000000,4.000000,4.000000,4.000000,4.000000,4.000000,4.000000,4.000000,4.000000,4.000000,4.000000,4.000000,4.000000,100.000000,,,,,,,,,,,,,,,,
1644854486.517469,147.000000,0.000000,4222.692383,4097.307617,4198.205078,3868.076904,4160.512695,4232.307617,4236.922852,4224.358887,4226.794922,4217.179688,4105.641113,4214.871582,4115.128418,4121.282227,2412.000000,4.000000,82.000000,,,,0.000000,4.000000,4.000000,4.000000,4.000000,4.000000,4.000000,4.000000,4.000000,4.000000,4.000000,4.000000,4.000000,4.000000,4.000000,100.000000,,,,,,,,,,,,,,,,
1644854486.521409,148.000000,0.000000,4228.333496,4101.794922,4199.230957,3872.307617,4153.461426,4231.794922,4239.102539,4225.128418,4226.410156,4220.769043,4110.641113,4212.051270,4127.179688,4132.436035,3519.000000,4.000000,82.000000,,,,0.000000,4.000000,4.000000,4.000000,4.000000,4.000000,4.000000,4.000000,4.000000,4.000000,4.000000,4.000000,4.000000,4.000000,4.000000,100.000000,,,,,,,,,,,,,,,,
1644854486.525349,149.000000,0.000000,4229.358887,4101.538574,4199.615234,3868.333252,4143.846191,4231.922852,4240.384766,4225.128418,4224.871582,4224.230957,4116.153809,4206.153809,4136.666504,4142.179688,3501.000000,4.000000,82.000000,,,,0.000000,4.000000,4.000000,4.000000,4.000000,4.000000,4.000000,4.000000,4.000000,4.000000,4.000000,4.000000,4.000000,4.000000,4.000000,100.000000,,,,,,,,,,,,,,,,
1644854486.529289,150.000000,0.000000,4225.769043,4096.538574,4198.846191,3857.564209,4139.487305,4232.820313,4238.333496,4224.487305,4224.102539,4226.922852,4119.230957,4200.256348,4140.897461,4145.384766,3321.000000,4.000000,82.000000,,,,0.000000,4.000000,4.000000,4.000000,4.000000,4.000000,4.000000,4.000000,4.000000,4.000000,4.000000,4.000000,4.000000,4.000000,4.000000,100.000000,,,,,,,,,,,,,,,,
1644854486.533229,151.000000,0.000000,4220.128418,4091.666748,4197.692383,3845.384521,4143.846191,4233.589844,4234.102539,4223.717773,4224.743652,4228.461426,4118.974121,4197.948730,4140.512695,4141.794922,2412.000000,4.000000,82.000000,,,,0.000000,4.000000,4.000000,4.000000,4.000000,4.000000,4.000000,4.000000,4.000000,4.000000,4.000000,4.000000,4.000000,4.000000,4.000000,100.000000,,,,,,,,,,,,,,,,
1644854486.537170,152.000000,0.000000,4216.666504,4092.051270,4197.563965,3838.846191,4153.333496,4233.077148,4231.410156,4223.717773,4226.538574,4228.717773,4117.563965,4200.769043,4137.948730,4136.794922,3519.000000,4.000000,82.000000,,,,0.000000,4.000000,4.000000,4.000000,4.000000,4.000000,4.000000,4.000000,4.000000,4.000000,4.000000,4.000000,4.000000,4.000000,4.000000,100.000000,,,,,,,,,,,,,,,,
1644854486.541110,153.000000,0.000000,4218.589844,4099.230957,4199.230957,3842.307617,4160.897461,4230.512695,4232.307617,4224.358887,4228.205078,4227.820313,4117.563965,4207.179688,4136.025879,4135.128418,3501.000000,4.000000,82.000000,,,,0.000000,4.000000,4.000000,4.000000,4.000000,4.000000,4.000000,4.000000,4.000000,4.000000,4.000000,4.000000,4.000000,4.000000,4.000000,100.000000,,,,,,,,,,,,,,,,
1644854486.545050,154.000000,0.000000,4225.384766,4109.102539,4202.307617,3853.974365,4162.692383,4226.666504,4234.358887,4224.871582,4229.615234,4227.307617,4119.102539,4213.846191,4135.769043,4137.307617,3321.000000,4.000000,82.000000,,,,0.000000,4.000000,4.000000,4.000000,4.000000,4.000000,4.000000,4.000000,4.000000,4.000000,4.000000,4.000000,4.000000,4.000000,4.000000,100.000000,,,,,,,,,,,,,,,,
1644854486.548990,155.000000,0.000000,4233.333496,4115.512695,4205.512695,3866.153809,4160.512695,4223.077148,4234.487305,4224.230957,4231.538574,4228.974121,4120.384766,4218.333496,4136.025879,4140.256348,2412.000000,4.000000,82.000000,,,,0.000000,4.000000,4.000000,4.000000,4.000000,4.000000,4.000000,4.000000,4.000000,4.000000,4.000000,4.000000,4.000000,4.000000,4.000000,100.000000,,,,,,,,,,,,,,,,
1644854486.552930,156.000000,0.000000,4238.846191,4116.153809,4208.846191,3871.794922,4158.846191,4221.538574,4232.051270,4223.974121,4234.743652,4233.333496,4120.641113,4221.153809,4135.512695,4141.666504,3519.000000,4.000000,82.000000,,,,0.000000,4.000000,4.000000,4.000000,4.000000,4.000000,4.000000,4.000000,4.000000,4.000000,4.000000,4.000000,4.000000,4.000000,4.000000,100.000000,,,,,,,,,,,,,,,,
1644854486.556870,157.000000,0.000000,4242.692383,4114.102539,4213.077148,3869.743652,4159.102539,4222.820313,4230.256348,4226.153809,4238.717773,4239.102539,4122.692383,4225.000000,4134.230957,4142.820313,3501.000000,4.000000,82.000000,,,,0.000000,4.000000,4.000000,4.000000,4.000000,4.000000,4.000000,4.000000,4.000000,4.000000,4.000000,4.000000,4.000000,4.000000,4.000000,100.000000,,,,,,,,,,,,,,,,
1644854486.560810,158.000000,0.000000,4247.692383,4114.487305,4218.333496,3865.384521,4159.743652,4226.282227,4231.410156,4232.179688,4242.307617,4245.000000,4130.512695,4231.538574,4133.974121,4146.282227,3321.000000,4.000000,82.000000,,,,0.000000,4.000000,4.000000,4.000000,4.000000,4.000000,4.000000,4.000000,4.000000,4.000000,4.000000,4.000000,4.000000,4.000000,4.000000,100.000000,,,,,,,,,,,,,,,,
1644854486.564750,159.000000,0.000000,4253.461426,4119.487305,4223.333496,3865.000000,4157.948730,4230.769043,4234.743652,4240.128418,4244.615234,4249.871582,4144.230957,4239.230957,4136.025879,4151.282227,2412.000000,4.000000,82.000000,,,,0.000000,4.000000,4.000000,4.000000,4.000000,4.000000,4.000000,4.000000,4.000000,4.000000,4.000000,4.000000,4.000000,4.000000,4.000000,100.000000,,,,,,,,,,,,,,,,
1644854486.568590,160.000000,0.000000,4255.384766,4125.897461,4225.256348,3869.358887,4153.589844,4234.230957,4237.436035,4246.025879,4245.641113,4252.563965,4157.948730,4244.358887,4140.000000,4154.871582,3519.000000,4.000000,82.000000,,,,0.000000,4.000000,4.000000,4.000000,4.000000,4.000000,4.000000,4.000000,4.000000,4.000000,4.000000,4.000000,4.000000,4.000000,4.000000,100.000000,,,,,,,,,,,,,,,,
1644854486.572531,161.000000,0.000000,4249.871582,4128.717773,4222.692383,3875.384521,4148.717773,4235.000000,4237.948730,4247.179688,4245.256348,4252.692383,4163.205078,4244.102539,4144.358887,4155.000000,3501.000000,4.000000,82.000000,,,,0.000000,4.000000,4.000000,4.000000,4.000000,4.000000,4.000000,4.000000,4.000000,4.000000,4.000000,4.000000,4.000000,4.000000,4.000000,100.000000,,,,,,,,,,,,,,,,
1644854486.576471,162.000000,0.000000,4240.641113,4126.666504,4218.077148,3880.128174,4146.922852,4232.692383,4237.692383,4244.230957,4243.333496,4250.000000,4157.051270,4239.358887,4148.077148,4153.205078,3321.000000,4.000000,82.000000,,,,0.000000,4.000000,4.000000,4.000000,4.000000,4.000000,4.000000,4.000000,4.000000,4.000000,4.000000,4.000000,4.000000,4.000000,4.000000,100.000000,,,,,,,,,,,,,,,,
1644854486.580411,163.000000,0.000000,4238.205078,4124.615234,4216.282227,3883.846191,4150.256348,4227.948730,4237.948730,4239.615234,4240.000000,4245.128418,4144.230957,4234.230957,4151.794922,4152.820313,2412.000000,4.000000,82.000000,,,,0.000000,4.000000,4.000000,4.000000,4.000000,4.000000,4.000000,4.000000,4.000000,4.000000,4.000000,4.000000,4.000000,4.000000,4.000000,100.000000,,,,,,,,,,,,,,,,
1644854486.584351,164.000000,0.000000,4250.256348,4128.205078,4220.128418,3888.076904,4157.307617,4223.077148,4237.948730,4235.769043,4235.897461,4239.743652,4133.846191,4232.820313,4157.051270,4155.897461,3519.000000,4.000000,82.000000,,,,0.000000,4.000000,4.000000,4.000000,4.000000,4.000000,4.000000,4.000000,4.000000,4.000000,4.000000,4.000000,4.000000,4.000000,4.000000,100.000000,,,,,,,,,,,,,,,,
1644854486.588291,165.000000,0.000000,4273.333496,4138.461426,4227.820313,3892.820557,4163.717773,4220.256348,4236.282227,4233.333496,4232.051270,4236.282227,4131.922852,4235.256348,4163.974121,4162.051270,3501.000000,4.000000,82.000000,,,,0.000000,4.000000,4.000000,4.000000,4.000000,4.000000,4.000000,4.000000,4.000000,4.000000,4.000000,4.000000,4.000000,4.000000,4.000000,100.000000,,,,,,,,,,,,,,,,
1644854486.592231,166.000000,0.000000,4293.846191,4149.615234,4233.974121,3896.153809,4165.000000,4220.256348,4233.333496,4231.794922,4229.358887,4236.025879,4137.307617,4237.948730,4171.282227,4169.615234,3321.000000,4.000000,82.000000,,,,0.000000,4.000000,4.000000,4.000000,4.000000,4.000000,4.000000,4.000000,4.000000,4.000000,4.000000,4.000000,4.000000,4.000000,4.000000,100.000000,,,,,,,,,,,,,,,,
1644854486.596171,167.000000,0.000000,4298.077148,4155.384766,4234.230957,3894.615479,4160.384766,4221.410156,4230.897461,4230.512695,4227.948730,4237.179688,4143.589844,4237.051270,4176.794922,4176.666504,2412.000000,4.000000,82.000000,,,,0.000000,4.000000,4.000000,4.000000,4.000000,4.000000,4.000000,4.000000,4.000000,4.000000,4.000000,4.000000,4.000000,4.000000,4.000000,100.000000,,,,,,,,,,,,,,,,
1644854486.600111,168.000000,0.000000,4284.102539,4154.487305,4227.820313,3887.948730,4153.077148,4222.051270,4229.871582,4228.461426,4227.051270,4236.410156,4145.000000,4231.153809,4178.333496,4180.384766,3519.000000,4.000000,82.000000,,,,0.000000,4.000000,4.000000,4.000000,4.000000,4.000000,4.000000,4.000000,4.000000,4.000000,4.000000,4.000000,4.000000,4.000000,4.000000,100.000000,,,,,,,,,,,,,,,,
1644854486.604051,169.000000,0.000000,4262.692383,4152.692383,4217.948730,3880.384521,4148.077148,4221.410156,4228.846191,4224.615234,4225.384766,4231.282227,4140.384766,4223.333496,4176.410156,4178.974121,3501.000000,4.000000,82.000000,,,,0.000000,4.000000,4.000000,4.000000,4.000000,4.000000,4.000000,4.000000,4.000000,4.000000,4.000000,4.000000,4.000000,4.000000,4.000000,100.000000,,,,,,,,,,,,,,,,
1644854486.607992,170.000000,0.000000,4250.641113,4158.077148,4210.128418,3879.871826,4147.820313,4220.000000,4225.641113,4218.205078,4221.794922,4222.948730,4134.230957,4217.820313,4173.589844,4174.743652,3321.000000,4.000000,82.000000,,,,0.000000,4.000000,4.000000,4.000000,4.000000,4.000000,4.000000,4.000000,4.000000,4.000000,4.000000,4.000000,4.000000,4.000000,4.000000,100.000000,,,,,,,,,,,,,,,,
1644854486.611932,171.000000,0.000000,4259.230957,4175.128418,4208.846191,3891.281982,4152.436035,4218.333496,4221.153809,4210.897461,4216.282227,4216.410156,4131.922852,4217.948730,4173.717773,4173.846191,2412.000000,4.000000,82.000000,,,,0.000000,4.000000,4.000000,4.000000,4.000000,4.000000,4.000000,4.000000,4.000000,4.000000,4.000000,4.000000,4.000000,4.000000,4.000000,100.000000,,,,,,,,,,,,,,,,
