title:Alex-KgAvUfaOjZOGlOftXPlAuA, start timestamp:1644853162.920989, stop timestamp:1644853189.855051, headset type:EPOCPLUS, headset serial:3B9AEBFF, headset firmware:626, channels:55, sampling rate:eeg_256, samples:6837      , version:2.1, 
Timestamp,EEG.Counter,EEG.Interpolated,EEG.AF3,EEG.F7,EEG.F3,EEG.FC5,EEG.T7,EEG.P7,EEG.O1,EEG.O2,EEG.P8,EEG.T8,EEG.FC6,EEG.F4,EEG.F8,EEG.AF4,EEG.RawCq,EEG.Battery,EEG.BatteryPercent,MarkerIndex,MarkerType,MarkerValueInt,EEG.MarkerHardware,CQ.AF3,CQ.F7,CQ.F3,CQ.FC5,CQ.T7,CQ.P7,CQ.O1,CQ.O2,CQ.P8,CQ.T8,CQ.FC6,CQ.F4,CQ.F8,CQ.AF4,CQ.Overall,EQ.SampleRateQuality,EQ.OVERALL,EQ.AF3,EQ.F7,EQ.F3,EQ.FC5,EQ.T7,EQ.P7,EQ.O1,EQ.O2,EQ.P8,EQ.T8,EQ.FC6,EQ.F4,EQ.F8,EQ.AF4
1644853162.920989,88.000000,0.000000,4193.846191,4196.666504,4201.153809,4223.205078,4217.051270,4219.102539,4210.769043,4221.153809,4226.666504,4221.538574,4231.282227,4191.538574,4190.128418,4132.820313,0.000000,4.000000,91.000000,,,,0.000000,4.000000,4.000000,4.000000,4.000000,4.000000,4.000000,4.000000,4.000000,4.000000,4.000000,4.000000,4.000000,4.000000,4.000000,100.000000,,,,,,,,,,,,,,,,
1644853162.924830,89.000000,0.000000,4191.025879,4202.051270,4202.436035,4226.410156,4233.333496,4220.000000,4215.128418,4227.307617,4231.538574,4222.948730,4227.307617,4195.256348,4193.461426,4128.205078,0.000000,4.000000,91.000000,,,,0.000000,4.000000,4.000000,4.000000,4.000000,4.000000,4.000000,4.000000,4.000000,4.000000,4.000000,4.000000,4.000000,4.000000,4.000000,100.000000,,,,,,,,,,,,,,,,
1644853162.928770,90.000000,0.000000,4195.897461,4209.358887,4201.025879,4231.794922,4244.615234,4218.974121,4216.538574,4231.282227,4235.256348,4228.077148,4221.666504,4193.589844,4205.384766,4136.666504,0.000000,4.000000,91.000000,,,,0.000000,4.000000,4.000000,4.000000,4.000000,4.000000,4.000000,4.000000,4.000000,4.000000,4.000000,4.000000,4.000000,4.000000,4.000000,100.000000,,,,,,,,,,,,,,,,
1644853162.932710,91.000000,0.000000,4203.974121,4214.615234,4196.538574,4235.384766,4244.487305,4218.205078,4215.641113,4233.461426,4237.051270,4235.384766,4216.538574,4188.589844,4220.000000,4150.769043,0.000000,4.000000,91.000000,,,,0.000000,4.000000,4.000000,4.000000,4.000000,4.000000,4.000000,4.000000,4.000000,4.000000,4.000000,4.000000,4.000000,4.000000,4.000000,100.000000,,,,,,,,,,,,,,,,
1644853162.936650,92.000000,0.000000,4208.717773,4215.769043,4190.641113,4234.743652,4234.743652,4218.974121,4215.897461,4235.128418,4237.179688,4243.077148,4212.820313,4186.282227,4229.102539,4161.538574,0.000000,4.000000,91.000000,,,,0.000000,4.000000,4.000000,4.000000,4.000000,4.000000,4.000000,4.000000,4.000000,4.000000,4.000000,4.000000,4.000000,4.000000,4.000000,100.000000,,,,,,,,,,,,,,,,
1644853162.940590,93.000000,0.000000,4205.769043,4212.948730,4186.922852,4230.256348,4223.461426,4221.025879,4218.589844,4237.307617,4237.051270,4249.871582,4210.384766,4189.615234,4227.692383,4164.743652,0.000000,4.000000,91.000000,,,,0.000000,4.000000,4.000000,4.000000,4.000000,4.000000,4.000000,4.000000,4.000000,4.000000,4.000000,4.000000,4.000000,4.000000,4.000000,100.000000,,,,,,,,,,,,,,,,
1644853162.944530,94.000000,0.000000,4196.922852,4208.205078,4187.436035,4224.230957,4217.948730,4222.820313,4221.666504,4239.358887,4237.692383,4254.230957,4209.615234,4196.025879,4217.692383,4161.538574,0.000000,4.000000,91.000000,,,,0.000000,4.000000,4.000000,4.000000,4.000000,4.000000,4.000000,4.000000,4.000000,4.000000,4.000000,4.000000,4.000000,4.000000,4.000000,100.000000,,,,,,,,,,,,,,,,
1644853162.948470,95.000000,0.000000,4188.589844,4203.717773,4191.282227,4220.000000,4219.230957,4222.179688,4222.051270,4240.512695,4238.846191,4253.461426,4211.153809,4199.871582,4206.153809,4155.641113,0.000000,4.000000,91.000000,,,,0.000000,4.000000,4.000000,4.000000,4.000000,4.000000,4.000000,4.000000,4.000000,4.000000,4.000000,4.000000,4.000000,4.000000,4.000000,100.000000,,,,,,,,,,,,,,,,
1644853162.952410,96.000000,0.000000,4186.410156,4200.897461,4195.897461,4220.384766,4222.307617,4218.846191,4219.358887,4240.384766,4239.230957,4245.256348,4215.769043,4198.205078,4198.589844,4148.589844,0.000000,4.000000,91.000000,,,,0.000000,4.000000,4.000000,4.000000,4.000000,4.000000,4.000000,4.000000,4.000000,4.000000,4.000000,4.000000,4.000000,4.000000,4.000000,100.000000,,,,,,,,,,,,,,,,
1644853162.956350,97.000000,0.000000,4190.897461,4199.871582,4198.461426,4226.282227,4221.666504,4213.846191,4216.282227,4239.358887,4237.179688,4231.025879,4222.692383,4192.692383,4196.025879,4140.641113,0.000000,4.000000,91.000000,,,,0.000000,4.000000,4.000000,4.000000,4.000000,4.000000,4.000000,4.000000,4.000000,4.000000,4.000000,4.000000,4.000000,4.000000,4.000000,100.000000,,,,,,,,,,,,,,,,
1644853162.960290,98.000000,0.000000,4198.205078,4200.000000,4198.717773,4235.512695,4216.282227,4210.128418,4215.000000,4237.436035,4232.563965,4216.410156,4229.358887,4188.461426,4196.153809,4133.333496,0.000000,4.000000,91.000000,,,,0.000000,4.000000,4.000000,4.000000,4.000000,4.000000,4.000000,4.000000,4.000000,4.000000,4.000000,4.000000,4.000000,4.000000,4.000000,100.000000,,,,,,,,,,,,,,,,
1644853162.964231,99.000000,0.000000,4203.461426,4200.897461,4198.205078,4243.974121,4210.897461,4209.743652,4215.512695,4234.743652,4226.794922,4208.461426,4232.436035,4189.743652,4197.820313,4129.487305,0.000000,4.000000,91.000000,,,,0.000000,4.000000,4.000000,4.000000,4.000000,4.000000,4.000000,4.000000,4.000000,4.000000,4.000000,4.000000,4.000000,4.000000,4.000000,100.000000,,,,,,,,,,,,,,,,
1644853162.968171,100.000000,0.000000,4204.358887,4202.051270,4199.487305,4247.179688,4210.000000,4212.948730,4216.538574,4231.410156,4222.179688,4210.769043,4229.358887,4196.153809,4200.769043,4131.410156,0.000000,4.000000,91.000000,,,,0.000000,4.000000,4.000000,4.000000,4.000000,4.000000,4.000000,4.000000,4.000000,4.000000,4.000000,4.000000,4.000000,4.000000,4.000000,100.000000,,,,,,,,,,,,,,,,
1644853162.972111,101.000000,0.000000,4202.563965,4203.333496,4203.333496,4243.333496,4214.358887,4217.563965,4217.820313,4227.948730,4219.615234,4220.256348,4220.384766,4203.205078,4205.256348,4137.563965,0.000000,4.000000,91.000000,,,,0.000000,4.000000,4.000000,4.000000,4.000000,4.000000,4.000000,4.000000,4.000000,4.000000,4.000000,4.000000,4.000000,4.000000,4.000000,100.000000,,,,,,,,,,,,,,,,
1644853162.976051,102.000000,0.000000,4201.794922,4204.615234,4208.205078,4235.641113,4220.512695,4219.615234,4219.871582,4224.743652,4218.461426,4228.589844,4208.333496,4205.256348,4209.487305,4144.102539,0.000000,4.000000,91.000000,,,,0.000000,4.000000,4.000000,4.000000,4.000000,4.000000,4.000000,4.000000,4.000000,4.000000,4.000000,4.000000,4.000000,4.000000,4.000000,100.000000,,,,,,,,,,,,,,,,
1644853162.979991,103.000000,0.000000,4204.871582,4206.922852,4211.666504,4229.871582,4224.358887,4216.666504,4221.666504,4222.179688,4217.051270,4228.846191,4198.589844,4201.282227,4211.282227,4147.436035,0.000000,4.000000,91.000000,,,,0.000000,4.000000,4.000000,4.000000,4.000000,4.000000,4.000000,4.000000,4.000000,4.000000,4.000000,4.000000,4.000000,4.000000,4.000000,100.000000,,,,,,,,,,,,,,,,
1644853162.983931,104.000000,0.000000,4211.282227,4211.153809,4212.563965,4230.128418,4224.102539,4210.128418,4220.769043,4219.615234,4213.974121,4220.000000,4195.384766,4194.358887,4209.615234,4147.692383,0.000000,4.000000,91.000000,,,,0.000000,4.000000,4.000000,4.000000,4.000000,4.000000,4.000000,4.000000,4.000000,4.000000,4.000000,4.000000,4.000000,4.000000,4.000000,100.000000,,,,,,,,,,,,,,,,
1644853162.987771,105.000000,0.000000,4218.461426,4217.179688,4212.307617,4235.769043,4221.025879,4204.615234,4216.538574,4216.282227,4209.230957,4207.436035,4198.974121,4189.615234,4206.153809,4147.179688,0.000000,4.000000,91.000000,,,,0.000000,4.000000,4.000000,4.000000,4.000000,4.000000,4.000000,4.000000,4.000000,4.000000,4.000000,4.000000,4.000000,4.000000,4.000000,100.000000,,,,,,,,,,,,,,,,
1644853162.991711,106.000000,0.000000,4222.692383,4222.948730,4212.948730,4241.922852,4216.794922,4203.461426,4211.666504,4212.051270,4203.846191,4197.948730,4205.256348,4188.846191,4203.205078,4148.717773,0.000000,4.000000,91.000000,,,,0.000000,4.000000,4.000000,4.000000,4.000000,4.000000,4.000000,4.000000,4.000000,4.000000,4.000000,4.000000,4.000000,4.000000,4.000000,100.000000,,,,,,,,,,,,,,,,
1644853162.995652,107.000000,0.000000,4222.051270,4225.897461,4215.256348,4244.230957,4213.077148,4206.282227,4209.871582,4207.563965,4199.358887,4195.128418,4207.563965,4190.384766,4201.538574,4152.436035,0.000000,4.000000,91.000000,,,,0.000000,4.000000,4.000000,4.000000,4.000000,4.000000,4.000000,4.000000,4.000000,4.000000,4.000000,4.000000,4.000000,4.000000,4.000000,100.000000,,,,,,,,,,,,,,,,
1644853162.999592,108.000000,0.000000,4217.948730,4225.128418,4217.948730,4241.794922,4211.025879,4210.128418,4212.051270,4204.487305,4196.922852,4198.077148,4202.820313,4191.922852,4200.769043,4155.641113,0.000000,4.000000,91.000000,,,,0.000000,4.000000,4.000000,4.000000,4.000000,4.000000,4.000000,4.000000,4.000000,4.000000,4.000000,4.000000,4.000000,4.000000,4.000000,100.000000,,,,,,,,,,,,,,,,
1644853163.003532,109.000000,0.000000,4213.846191,4222.179688,4219.102539,4237.179688,4211.538574,4212.051270,4215.384766,4203.717773,4197.179688,4203.333496,4194.102539,4193.077148,4199.487305,4154.871582,0.000000,4.000000,91.000000,,,,0.000000,4.000000,4.000000,4.000000,4.000000,4.000000,4.000000,4.000000,4.000000,4.000000,4.000000,4.000000,4.000000,4.000000,4.000000,100.000000,,,,,,,,,,,,,,,,
1644853163.007472,110.000000,0.000000,4212.436035,4219.230957,4217.948730,4234.102539,4214.615234,4211.282227,4216.153809,4205.256348,4200.000000,4207.051270,4188.461426,4195.128418,4196.666504,4149.230957,0.000000,4.000000,91.000000,,,,0.000000,4.000000,4.000000,4.000000,4.000000,4.000000,4.000000,4.000000,4.000000,4.000000,4.000000,4.000000,4.000000,4.000000,4.000000,100.000000,,,,,,,,,,,,,,,,
1644853163.011412,111.000000,0.000000,4214.230957,4217.948730,4215.641113,4235.512695,4219.102539,4209.358887,4213.974121,4208.077148,4204.230957,4207.948730,4190.897461,4198.974121,4192.436035,4141.922852,0.000000,4.000000,91.000000,,,,0.000000,4.000000,4.000000,4.000000,4.000000,4.000000,4.000000,4.000000,4.000000,4.000000,4.000000,4.000000,4.000000,4.000000,4.000000,100.000000,,,,,,,,,,,,,,,,
1644853163.015352,112.000000,0.000000,4217.436035,4218.846191,4215.000000,4240.897461,4222.820313,4209.230957,4212.051270,4210.897461,4208.205078,4207.051270,4199.871582,4203.333496,4188.077148,4137.692383,0.000000,4.000000,91.000000,,,,0.000000,4.000000,4.000000,4.000000,4.000000,4.000000,4.000000,4.000000,4.000000,4.000000,4.000000,4.000000,4.000000,4.000000,4.000000,100.000000,,,,,,,,,,,,,,,,
1644853163.019292,113.000000,0.000000,4220.384766,4220.512695,4217.307617,4246.666504,4223.589844,4212.051270,4212.563965,4213.205078,4210.641113,4207.051270,4208.717773,4206.282227,4185.641113,4138.846191,0.000000,4.000000,91.000000,,,,0.000000,4.000000,4.000000,4.000000,4.000000,4.000000,4.000000,4.000000,4.000000,4.000000,4.000000,4.000000,4.000000,4.000000,4.000000,100.000000,,,,,,,,,,,,,,,,
1644853163.023132,114.000000,0.000000,4222.436035,4221.538574,4221.282227,4249.230957,4220.897461,4216.410156,4214.615234,4214.487305,4211.666504,4209.871582,4211.025879,4206.922852,4185.512695,4143.461426,0.000000,4.000000,91.000000,,,,0.000000,4.000000,4.000000,4.000000,4.000000,4.000000,4.000000,4.000000,4.000000,4.000000,4.000000,4.000000,4.000000,4.000000,4.000000,100.000000,,,,,,,,,,,,,,,,
1644853163.027072,115.000000,0.000000,4223.077148,4221.666504,4223.461426,4248.717773,4216.538574,4219.743652,4215.769043,4214.487305,4212.436035,4215.000000,4205.641113,4205.897461,4187.436035,4147.307617,0.000000,4.000000,91.000000,,,,0.000000,4.000000,4.000000,4.000000,4.000000,4.000000,4.000000,4.000000,4.000000,4.000000,4.000000,4.000000,4.000000,4.000000,4.000000,100.000000,,,,,,,,,,,,,,,,
1644853163.031013,116.000000,0.000000,4221.922852,4220.897461,4221.666504,4247.436035,4214.358887,4220.512695,4215.000000,4213.589844,4213.589844,4220.641113,4197.179688,4204.615234,4189.871582,4147.051270,0.000000,4.000000,91.000000,,,,0.000000,4.000000,4.000000,4.000000,4.000000,4.000000,4.000000,4.000000,4.000000,4.000000,4.000000,4.000000,4.000000,4.000000,4.000000,100.000000,,,,,,,,,,,,,,,,
1644853163.034953,117.000000,0.000000,4218.717773,4218.846191,4216.538574,4247.820313,4216.538574,4219.102539,4213.589844,4212.179688,4214.230957,4222.948730,4192.307617,4203.589844,4191.794922,4143.077148,0.000000,4.000000,91.000000,,,,0.000000,4.000000,4.000000,4.000000,4.000000,4.000000,4.000000,4.000000,4.000000,4.000000,4.000000,4.000000,4.000000,4.000000,4.000000,100.000000,,,,,,,,,,,,,,,,
1644853163.038893,118.000000,0.000000,4215.256348,4215.897461,4210.897461,4248.846191,4223.333496,4217.179688,4212.948730,4210.769043,4213.205078,4219.871582,4194.871582,4202.692383,4192.820313,4138.589844,0.000000,4.000000,91.000000,,,,0.000000,4.000000,4.000000,4.000000,4.000000,4.000000,4.000000,4.000000,4.000000,4.000000,4.000000,4.000000,4.000000,4.000000,4.000000,100.000000,,,,,,,,,,,,,,,,
1644853163.042833,119.000000,0.000000,4214.743652,4213.589844,4207.179688,4247.692383,4231.666504,4216.153809,4212.948730,4209.358887,4210.256348,4212.948730,4203.333496,4201.666504,4193.589844,4137.179688,0.000000,4.000000,91.000000,,,,0.000000,4.000000,4.000000,4.000000,4.000000,4.000000,4.000000,4.000000,4.000000,4.000000,4.000000,4.000000,4.000000,4.000000,4.000000,100.000000,,,,,,,,,,,,,,,,
1644853163.046773,120.000000,0.000000,4218.974121,4214.487305,4206.666504,4242.820313,4237.563965,4216.666504,4212.436035,4207.563965,4206.666504,4205.897461,4211.794922,4200.641113,4194.743652,4140.641113,0.000000,4.000000,91.000000,,,,0.000000,4.000000,4.000000,4.000000,4.000000,4.000000,4.000000,4.000000,4.000000,4.000000,4.000000,4.000000,4.000000,4.000000,4.000000,100.000000,,,,,,,,,,,,,,,,
1644853163.050713,121.000000,0.000000,4226.282227,4219.358887,4209.230957,4235.641113,4238.717773,4218.589844,4211.538574,4205.384766,4204.102539,4202.179688,4214.871582,4199.871582,4196.410156,4148.205078,0.000000,4.000000,91.000000,,,,0.000000,4.000000,4.000000,4.000000,4.000000,4.000000,4.000000,4.000000,4.000000,4.000000,4.000000,4.000000,4.000000,4.000000,4.000000,100.000000,,,,,,,,,,,,,,,,
1644853163.054653,122.000000,0.000000,4231.410156,4225.641113,4214.102539,4230.000000,4235.897461,4220.769043,4212.051270,4204.358887,4203.589844,4202.051270,4211.025879,4199.358887,4197.307617,4156.666504,0.000000,4.000000,91.000000,,,,0.000000,4.000000,4.000000,4.000000,4.000000,4.000000,4.000000,4.000000,4.000000,4.000000,4.000000,4.000000,4.000000,4.000000,4.000000,100.000000,,,,,,,,,,,,,,,,
1644853163.058593,123.000000,0.000000,4229.102539,4229.487305,4218.846191,4228.846191,4231.410156,4222.692383,4215.000000,4205.641113,4204.230957,4204.102539,4203.974121,4198.717773,4195.897461,4162.307617,0.000000,4.000000,91.000000,,,,0.000000,4.000000,4.000000,4.000000,4.000000,4.000000,4.000000,4.000000,4.000000,4.000000,4.000000,4.000000,4.000000,4.000000,4.000000,100.000000,,,,,,,,,,,,,,,,
1644853163.062533,124.000000,0.000000,4218.717773,4228.589844,4221.538574,4230.897461,4226.922852,4224.102539,4218.589844,4208.846191,4204.743652,4206.153809,4199.615234,4198.077148,4191.794922,4163.589844,0.000000,4.000000,91.000000,,,,0.000000,4.000000,4.000000,4.000000,4.000000,4.000000,4.000000,4.000000,4.000000,4.000000,4.000000,4.000000,4.000000,4.000000,4.000000,100.000000,,,,,,,,,,,,,,,,
1644853163.066474,125.000000,0.000000,4205.384766,4223.589844,4220.897461,4232.436035,4223.333496,4224.230957,4219.358887,4211.666504,4204.871582,4206.922852,4200.769043,4197.436035,4185.897461,4160.641113,0.000000,4.000000,91.000000,,,,0.000000,4.000000,4.000000,4.000000,4.000000,4.000000,4.000000,4.000000,4.000000,4.000000,4.000000,4.000000,4.000000,4.000000,4.000000,100.000000,,,,,,,,,,,,,,,,
1644853163.070414,126.000000,0.000000,4196.410156,4217.820313,4217.179688,4231.025879,4220.769043,4222.179688,4216.538574,4212.179688,4204.871582,4205.512695,4204.358887,4196.794922,4181.025879,4155.512695,0.000000,4.000000,91.000000,,,,0.000000,4.000000,4.000000,4.000000,4.000000,4.000000,4.000000,4.000000,4.000000,4.000000,4.000000,4.000000,4.000000,4.000000,4.000000,100.000000,,,,,,,,,,,,,,,,
1644853163.074354,127.000000,0.000000,4196.922852,4214.102539,4212.051270,4228.461426,4220.000000,4217.948730,4212.692383,4211.025879,4205.000000,4202.051270,4205.256348,4196.410156,4180.000000,4150.641113,0.000000,4.000000,91.000000,,,,0.000000,4.000000,4.000000,4.000000,4.000000,4.000000,4.000000,4.000000,4.000000,4.000000,4.000000,4.000000,4.000000,4.000000,4.000000,100.000000,,,,,,,,,,,,,,,,
1644853163.078294,128.000000,0.000000,4206.153809,4212.948730,4207.563965,4230.000000,4221.153809,4212.820313,4211.538574,4210.000000,4205.256348,4198.846191,4202.051270,4196.410156,4184.230957,4148.077148,3425.000000,4.000000,91.000000,,,,0.000000,4.000000,4.000000,4.000000,4.000000,4.000000,4.000000,4.000000,4.000000,4.000000,4.000000,4.000000,4.000000,4.000000,4.000000,100.000000,,,,,,,,,,,,,,,,
1644853163.082134,129.000000,0.000000,4218.461426,4213.333496,4204.615234,4238.717773,4223.077148,4208.589844,4212.820313,4210.128418,4205.384766,4198.717773,4198.077148,4196.666504,4193.077148,4149.230957,3483.000000,4.000000,91.000000,,,,0.000000,4.000000,4.000000,4.000000,4.000000,4.000000,4.000000,4.000000,4.000000,4.000000,4.000000,4.000000,4.000000,4.000000,4.000000,100.000000,,,,,,,,,,,,,,,,
1644853163.086074,130.000000,0.000000,4226.282227,4213.077148,4202.948730,4250.769043,4223.333496,4206.025879,4213.589844,4211.025879,4205.897461,4202.563965,4197.563965,4196.666504,4202.820313,4153.077148,3562.000000,4.000000,91.000000,,,,0.000000,4.000000,4.000000,4.000000,4.000000,4.000000,4.000000,4.000000,4.000000,4.000000,4.000000,4.000000,4.000000,4.000000,4.000000,100.000000,,,,,,,,,,,,,,,,
1644853163.090014,131.000000,0.000000,4225.512695,4211.025879,4200.897461,4257.563965,4220.384766,4205.000000,4211.538574,4211.538574,4207.051270,4208.077148,4201.153809,4196.282227,4208.077148,4156.794922,3537.000000,4.000000,91.000000,,,,0.000000,4.000000,4.000000,4.000000,4.000000,4.000000,4.000000,4.000000,4.000000,4.000000,4.000000,4.000000,4.000000,4.000000,4.000000,100.000000,,,,,,,,,,,,,,,,
1644853163.093954,132.000000,0.000000,4217.820313,4208.077148,4198.333496,4252.820313,4215.000000,4204.743652,4208.589844,4211.538574,4208.333496,4211.282227,4206.025879,4196.666504,4206.153809,4157.051270,3581.000000,4.000000,91.000000,,,,0.000000,4.000000,4.000000,4.000000,4.000000,4.000000,4.000000,4.000000,4.000000,4.000000,4.000000,4.000000,4.000000,4.000000,4.000000,100.000000,,,,,,,,,,,,,,,,
1644853163.097894,133.000000,0.000000,4209.871582,4206.538574,4196.282227,4238.077148,4209.871582,4204.871582,4207.948730,4211.922852,4209.743652,4210.512695,4209.615234,4199.487305,4199.358887,4154.102539,3350.000000,4.000000,91.000000,,,,0.000000,4.000000,4.000000,4.000000,4.000000,4.000000,4.000000,4.000000,4.000000,4.000000,4.000000,4.000000,4.000000,4.000000,4.000000,100.000000,,,,,,,,,,,,,,,,
1644853163.101835,134.000000,0.000000,4207.307617,4207.948730,4196.410156,4221.922852,4207.051270,4206.153809,4210.641113,4213.589844,4211.666504,4208.589844,4211.794922,4205.256348,4193.974121,4151.922852,2445.000000,4.000000,91.000000,,,,0.000000,4.000000,4.000000,4.000000,4.000000,4.000000,4.000000,4.000000,4.000000,4.000000,4.000000,4.000000,4.000000,4.000000,4.000000,100.000000,,,,,,,,,,,,,,,,
1644853163.105775,135.000000,0.000000,4211.282227,4211.794922,4198.461426,4213.077148,4207.436035,4209.230957,4214.358887,4216.282227,4213.974121,4209.615234,4213.974121,4211.410156,4195.512695,4155.128418,3208.000000,4.000000,91.000000,,,,0.000000,4.000000,4.000000,4.000000,4.000000,4.000000,4.000000,4.000000,4.000000,4.000000,4.000000,4.000000,4.000000,4.000000,4.000000,100.000000,,,,,,,,,,,,,,,,
1644853163.109715,136.000000,0.000000,4217.179688,4214.743652,4200.897461,4214.615234,4210.512695,4213.589844,4215.769043,4219.102539,4215.769043,4215.128418,4216.922852,4214.102539,4203.846191,4164.358887,3177.000000,4.000000,91.000000,,,,0.000000,4.000000,4.000000,4.000000,4.000000,4.000000,4.000000,4.000000,4.000000,4.000000,4.000000,4.000000,4.000000,4.000000,4.000000,100.000000,,,,,,,,,,,,,,,,
1644853163.113655,137.000000,0.000000,4220.384766,4213.974121,4201.922852,4223.205078,4215.128418,4216.922852,4215.000000,4220.769043,4216.025879,4220.897461,4219.615234,4210.256348,4214.102539,4175.641113,3533.000000,4.000000,91.000000,,,,0.000000,4.000000,4.000000,4.000000,4.000000,4.000000,4.000000,4.000000,4.000000,4.000000,4.000000,4.000000,4.000000,4.000000,4.000000,100.000000,,,,,,,,,,,,,,,,
1644853163.117595,138.000000,0.000000,4219.358887,4210.128418,4200.769043,4232.948730,4220.128418,4217.436035,4214.230957,4221.153809,4214.871582,4221.410156,4221.025879,4199.871582,4220.384766,4183.846191,3660.000000,4.000000,91.000000,,,,0.000000,4.000000,4.000000,4.000000,4.000000,4.000000,4.000000,4.000000,4.000000,4.000000,4.000000,4.000000,4.000000,4.000000,4.000000,100.000000,,,,,,,,,,,,,,,,
1644853163.121535,139.000000,0.000000,4215.897461,4207.051270,4197.948730,4238.717773,4224.358887,4214.871582,4215.128418,4220.512695,4213.589844,4215.384766,4220.256348,4187.436035,4220.128418,4185.897461,3353.000000,4.000000,91.000000,,,,0.000000,4.000000,4.000000,4.000000,4.000000,4.000000,4.000000,4.000000,4.000000,4.000000,4.000000,4.000000,4.000000,4.000000,4.000000,100.000000,,,,,,,,,,,,,,,,
1644853163.125475,140.000000,0.000000,4212.692383,4208.077148,4195.512695,4238.974121,4227.307617,4211.282227,4216.410156,4219.487305,4214.230957,4207.692383,4217.692383,4179.487305,4216.153809,4182.307617,3495.000000,4.000000,91.000000,,,,0.000000,4.000000,4.000000,4.000000,4.000000,4.000000,4.000000,4.000000,4.000000,4.000000,4.000000,4.000000,4.000000,4.000000,4.000000,100.000000,,,,,,,,,,,,,,,,
1644853163.129415,141.000000,0.000000,4211.666504,4212.692383,4194.743652,4236.538574,4229.358887,4208.333496,4216.153809,4218.589844,4217.051270,4205.641113,4214.487305,4180.128418,4212.820313,4175.384766,3497.000000,4.000000,91.000000,,,,0.000000,4.000000,4.000000,4.000000,4.000000,4.000000,4.000000,4.000000,4.000000,4.000000,4.000000,4.000000,4.000000,4.000000,4.000000,100.000000,,,,,,,,,,,,,,,,
1644853163.133355,142.000000,0.000000,4213.077148,4217.436035,4195.897461,4234.743652,4230.256348,4207.051270,4214.487305,4218.205078,4220.128418,4212.436035,4212.051270,4187.563965,4212.820313,4168.717773,3660.000000,4.000000,91.000000,,,,0.000000,4.000000,4.000000,4.000000,4.000000,4.000000,4.000000,4.000000,4.000000,4.000000,4.000000,4.000000,4.000000,4.000000,4.000000,100.000000,,,,,,,,,,,,,,,,
1644853163.137296,143.000000,0.000000,4215.384766,4218.974121,4198.077148,4235.000000,4229.230957,4206.410156,4213.077148,4217.948730,4220.769043,4224.358887,4211.025879,4196.410156,4215.000000,4163.717773,3353.000000,4.000000,91.000000,,,,0.000000,4.000000,4.000000,4.000000,4.000000,4.000000,4.000000,4.000000,4.000000,4.000000,4.000000,4.000000,4.000000,4.000000,4.000000,100.000000,,,,,,,,,,,,,,,,
1644853163.141236,144.000000,0.000000,4217.307617,4216.538574,4199.871582,4235.128418,4225.384766,4205.384766,4212.563965,4216.538574,4218.077148,4233.205078,4210.256348,4200.897461,4215.897461,4160.256348,3495.000000,4.000000,91.000000,,,,0.000000,4.000000,4.000000,4.000000,4.000000,4.000000,4.000000,4.000000,4.000000,4.000000,4.000000,4.000000,4.000000,4.000000,4.000000,100.000000,,,,,,,,,,,,,,,,
1644853163.145176,145.000000,0.000000,4218.205078,4211.666504,4200.512695,4232.179688,4219.102539,4203.461426,4212.307617,4213.333496,4213.333496,4232.948730,4207.948730,4199.743652,4212.436035,4156.666504,3497.000000,4.000000,91.000000,,,,0.000000,4.000000,4.000000,4.000000,4.000000,4.000000,4.000000,4.000000,4.000000,4.000000,4.000000,4.000000,4.000000,4.000000,4.000000,100.000000,,,,,,,,,,,,,,,,
1644853163.149116,146.000000,0.000000,4218.589844,4207.051270,4200.384766,4226.025879,4212.307617,4201.666504,4211.666504,4209.487305,4208.974121,4223.077148,4204.102539,4195.769043,4205.000000,4152.820313,3660.000000,4.000000,91.000000,,,,0.000000,4.000000,4.000000,4.000000,4.000000,4.000000,4.000000,4.000000,4.000000,4.000000,4.000000,4.000000,4.000000,4.000000,4.000000,100.000000,,,,,,,,,,,,,,,,
1644853163.153156,147.000000,0.000000,4218.589844,4204.871582,4201.538574,4219.743652,4206.922852,4200.897461,4211.666504,4207.307617,4207.179688,4210.384766,4201.153809,4193.205078,4197.179688,4150.769043,3353.000000,4.000000,91.000000,,,,0.000000,4.000000,4.000000,4.000000,4.000000,4.000000,4.000000,4.000000,4.000000,4.000000,4.000000,4.000000,4.000000,4.000000,4.000000,100.000000,,,,,,,,,,,,,,,,
1644853163.157096,148.000000,0.000000,4218.333496,4206.794922,4205.256348,4217.820313,4203.974121,4201.666504,4213.717773,4208.589844,4208.717773,4203.205078,4201.794922,4194.871582,4192.563965,4153.205078,3495.000000,4.000000,91.000000,,,,0.000000,4.000000,4.000000,4.000000,4.000000,4.000000,4.000000,4.000000,4.000000,4.000000,4.000000,4.000000,4.000000,4.000000,4.000000,100.000000,,,,,,,,,,,,,,,,
1644853163.161036,149.000000,0.000000,4217.820313,4212.563965,4210.897461,4222.436035,4203.461426,4203.974121,4216.794922,4212.563965,4212.820313,4206.153809,4206.538574,4199.487305,4192.948730,4159.743652,3497.000000,4.000000,91.000000,,,,0.000000,4.000000,4.000000,4.000000,4.000000,4.000000,4.000000,4.000000,4.000000,4.000000,4.000000,4.000000,4.000000,4.000000,4.000000,100.000000,,,,,,,,,,,,,,,,
1644853163.164976,150.000000,0.000000,4218.077148,4219.230957,4215.769043,4231.794922,4205.384766,4206.922852,4217.948730,4216.666504,4217.179688,4215.769043,4213.077148,4203.589844,4196.025879,4166.025879,3660.000000,4.000000,91.000000,,,,0.000000,4.000000,4.000000,4.000000,4.000000,4.000000,4.000000,4.000000,4.000000,4.000000,4.000000,4.000000,4.000000,4.000000,4.000000,100.000000,,,,,,,,,,,,,,,,
1644853163.168916,151.000000,0.000000,4220.769043,4222.307617,4216.794922,4241.666504,4210.128418,4209.358887,4216.025879,4218.077148,4219.487305,4224.358887,4217.820313,4204.358887,4198.333496,4168.333496,3353.000000,4.000000,91.000000,,,,0.000000,4.000000,4.000000,4.000000,4.000000,4.000000,4.000000,4.000000,4.000000,4.000000,4.000000,4.000000,4.000000,4.000000,4.000000,100.000000,,,,,,,,,,,,,,,,
1644853163.172856,152.000000,0.000000,4226.025879,4219.743652,4213.974121,4248.461426,4216.666504,4210.128418,4213.333496,4216.666504,4218.589844,4226.282227,4219.615234,4201.794922,4197.820313,4167.563965,3495.000000,4.000000,91.000000,,,,0.000000,4.000000,4.000000,4.000000,4.000000,4.000000,4.000000,4.000000,4.000000,4.000000,4.000000,4.000000,4.000000,4.000000,4.000000,100.000000,,,,,,,,,,,,,,,,
1644853163.176796,153.000000,0.000000,4231.282227,4214.230957,4210.256348,4250.384766,4223.077148,4209.358887,4212.563965,4214.743652,4215.512695,4221.794922,4219.871582,4198.333496,4195.384766,4168.333496,3497.000000,4.000000,91.000000,,,,0.000000,4.000000,4.000000,4.000000,4.000000,4.000000,4.000000,4.000000,4.000000,4.000000,4.000000,4.000000,4.000000,4.000000,4.000000,100.000000,,,,,,,,,,,,,,,,
1644853163.180737,154.000000,0.000000,4233.205078,4211.282227,4208.846191,4248.461426,4227.436035,4208.333496,4213.846191,4214.871582,4212.820313,4215.256348,4220.769043,4196.794922,4193.717773,4173.461426,3660.000000,4.000000,91.000000,,,,0.000000,4.000000,4.000000,4.000000,4.000000,4.000000,4.000000,4.000000,4.000000,4.000000,4.000000,4.000000,4.000000,4.000000,4.000000,100.000000,,,,,,,,,,,,,,,,
1644853163.184677,155.000000,0.000000,4230.256348,4213.333496,4210.641113,4245.769043,4229.871582,4208.077148,4214.358887,4216.922852,4212.692383,4211.538574,4222.948730,4198.077148,4195.512695,4180.769043,3353.000000,4.000000,91.000000,,,,0.000000,4.000000,4.000000,4.000000,4.000000,4.000000,4.000000,4.000000,4.000000,4.000000,4.000000,4.000000,4.000000,4.000000,4.000000,100.000000,,,,,,,,,,,,,,,,
1644853163.188617,156.000000,0.000000,4224.102539,4218.333496,4213.846191,4245.641113,4231.282227,4208.205078,4212.692383,4219.358887,4215.512695,4212.563965,4224.871582,4201.282227,4201.922852,4185.000000,3495.000000,4.000000,91.000000,,,,0.000000,4.000000,4.000000,4.000000,4.000000,4.000000,4.000000,4.000000,4.000000,4.000000,4.000000,4.000000,4.000000,4.000000,4.000000,100.000000,,,,,,,,,,,,,,,,
1644853163.192557,157.000000,0.000000,4218.717773,4221.153809,4216.153809,4248.205078,4231.153809,4208.846191,4211.282227,4220.641113,4220.000000,4217.307617,4224.230957,4203.974121,4211.410156,4183.717773,3497.000000,4.000000,91.000000,,,,0.000000,4.000000,4.000000,4.000000,4.000000,4.000000,4.000000,4.000000,4.000000,4.000000,4.000000,4.000000,4.000000,4.000000,4.000000,100.000000,,,,,,,,,,,,,,,,
1644853163.196497,158.000000,0.000000,4218.077148,4218.461426,4216.538574,4249.358887,4228.205078,4210.512695,4213.846191,4221.538574,4224.102539,4223.205078,4220.128418,4204.743652,4220.256348,4179.871582,3660.000000,4.000000,91.000000,,,,0.000000,4.000000,4.000000,4.000000,4.000000,4.000000,4.000000,4.000000,4.000000,4.000000,4.000000,4.000000,4.000000,4.000000,4.000000,100.000000,,,,,,,,,,,,,,,,
1644853163.200437,159.000000,0.000000,4222.820313,4211.794922,4215.512695,4244.102539,4223.205078,4213.846191,4220.256348,4223.205078,4226.666504,4228.589844,4215.128418,4203.589844,4225.000000,4177.948730,3353.000000,4.000000,91.000000,,,,0.000000,4.000000,4.000000,4.000000,4.000000,4.000000,4.000000,4.000000,4.000000,4.000000,4.000000,4.000000,4.000000,4.000000,4.000000,100.000000,,,,,,,,,,,,,,,,
1644853163.204377,160.000000,0.000000,4230.641113,4206.794922,4214.102539,4232.563965,4220.256348,4217.948730,4226.025879,4225.897461,4227.307617,4232.436035,4213.333496,4201.410156,4224.743652,4180.512695,3495.000000,4.000000,91.000000,,,,0.000000,4.000000,4.000000,4.000000,4.000000,4.000000,4.000000,4.000000,4.000000,4.000000,4.000000,4.000000,4.000000,4.000000,4.000000,100.000000,,,,,,,,,,,,,,,,
1644853163.208317,161.000000,0.000000,4237.563965,4208.205078,4212.563965,4220.512695,4222.436035,4220.384766,4226.538574,4227.692383,4226.666504,4234.358887,4216.666504,4198.333496,4219.871582,4186.410156,3497.000000,4.000000,91.000000,,,,0.000000,4.000000,4.000000,4.000000,4.000000,4.000000,4.000000,4.000000,4.000000,4.000000,4.000000,4.000000,4.000000,4.000000,4.000000,100.000000,,,,,,,,,,,,,,,,
1644853163.212257,162.000000,0.000000,4239.487305,4216.153809,4210.256348,4215.384766,4228.077148,4219.102539,4221.794922,4226.666504,4224.615234,4233.717773,4222.179688,4193.717773,4211.282227,4191.025879,3660.000000,4.000000,91.000000,,,,0.000000,4.000000,4.000000,4.000000,4.000000,4.000000,4.000000,4.000000,4.000000,4.000000,4.000000,4.000000,4.000000,4.000000,4.000000,100.000000,,,,,,,,,,,,,,,,
1644853163.216198,163.000000,0.000000,4234.615234,4225.897461,4206.538574,4220.000000,4230.128418,4214.102539,4216.153809,4222.051270,4221.025879,4229.615234,4223.589844,4187.179688,4199.230957,4190.000000,3353.000000,4.000000,91.000000,,,,0.000000,4.000000,4.000000,4.000000,4.000000,4.000000,4.000000,4.000000,4.000000,4.000000,4.000000,4.000000,4.000000,4.000000,4.000000,100.000000,,,,,,,,,,,,,,,,
1644853163.220138,164.000000,0.000000,4225.128418,4232.179688,4202.307617,4231.025879,4223.589844,4207.436035,4212.948730,4214.743652,4215.897461,4221.282227,4216.794922,4179.230957,4185.000000,4181.922852,3495.000000,4.000000,91.000000,,,,0.000000,4.000000,4.000000,4.000000,4.000000,4.000000,4.000000,4.000000,4.000000,4.000000,4.000000,4.000000,4.000000,4.000000,4.000000,100.000000,,,,,,,,,,,,,,,,
1644853163.224078,165.000000,0.000000,4215.769043,4233.461426,4199.487305,4242.436035,4211.025879,4202.307617,4211.666504,4207.307617,4210.128418,4209.871582,4203.717773,4172.051270,4171.538574,4170.769043,3497.000000,4.000000,91.000000,,,,0.000000,4.000000,4.000000,4.000000,4.000000,4.000000,4.000000,4.000000,4.000000,4.000000,4.000000,4.000000,4.000000,4.000000,4.000000,100.000000,,,,,,,,,,,,,,,,
1644853163.228118,166.000000,0.000000,4211.922852,4233.205078,4199.743652,4248.589844,4201.794922,4200.641113,4210.000000,4201.794922,4205.384766,4198.974121,4191.282227,4168.333496,4162.179688,4162.563965,3660.000000,4.000000,91.000000,,,,0.000000,4.000000,4.000000,4.000000,4.000000,4.000000,4.000000,4.000000,4.000000,4.000000,4.000000,4.000000,4.000000,4.000000,4.000000,100.000000,,,,,,,,,,,,,,,,
1644853163.232058,167.000000,0.000000,4215.000000,4236.025879,4203.077148,4247.692383,4204.487305,4202.179688,4207.563965,4198.846191,4203.077148,4192.692383,4185.641113,4168.589844,4158.205078,4161.538574,3353.000000,4.000000,91.000000,,,,0.000000,4.000000,4.000000,4.000000,4.000000,4.000000,4.000000,4.000000,4.000000,4.000000,4.000000,4.000000,4.000000,4.000000,4.000000,100.000000,,,,,,,,,,,,,,,,
1644853163.235998,168.000000,0.000000,4222.051270,4243.205078,4206.794922,4242.820313,4219.615234,4204.615234,4205.641113,4198.205078,4202.820313,4192.948730,4186.538574,4170.512695,4157.179688,4166.153809,3495.000000,4.000000,91.000000,,,,0.000000,4.000000,4.000000,4.000000,4.000000,4.000000,4.000000,4.000000,4.000000,4.000000,4.000000,4.000000,4.000000,4.000000,4.000000,100.000000,,,,,,,,,,,,,,,,
1644853163.239938,169.000000,0.000000,4227.179688,4251.282227,4207.307617,4239.358887,4238.461426,4205.897461,4205.384766,4198.077148,4201.794922,4197.051270,4187.692383,4170.512695,4155.512695,4170.641113,3497.000000,4.000000,91.000000,,,,0.000000,4.000000,4.000000,4.000000,4.000000,4.000000,4.000000,4.000000,4.000000,4.000000,4.000000,4.000000,4.000000,4.000000,4.000000,100.000000,,,,,,,,,,,,,,,,
1644853163.243878,170.000000,0.000000,4226.025879,4255.256348,4202.692383,4241.025879,4248.974121,4204.871582,4205.384766,4196.666504,4198.333496,4199.358887,4183.205078,4166.666504,4149.743652,4168.717773,3660.000000,4.000000,91.000000,,,,0.000000,4.000000,4.000000,4.000000,4.000000,4.000000,4.000000,4.000000,4.000000,4.000000,4.000000,4.000000,4.000000,4.000000,4.000000,100.000000,,,,,,,,,,,,,,,,
1644853163.247818,171.000000,0.000000,4218.205078,4253.077148,4195.641113,4245.641113,4245.256348,4202.563965,4204.615234,4193.461426,4193.205078,4196.025879,4172.692383,4160.897461,4139.743652,4159.487305,3353.000000,4.000000,91.000000,,,,0.000000,4.000000,4.000000,4.000000,4.000000,4.000000,4.000000,4.000000,4.000000,4.000000,4.000000,4.000000,4.000000,4.000000,4.000000,100.000000,,,,,,,,,,,,,,,,
1644853163.251758,172.000000,0.000000,4208.333496,4247.820313,4191.153809,4248.205078,4230.769043,4201.025879,4203.205078,4190.512695,4188.589844,4187.307617,4161.538574,4157.179688,4128.846191,4148.974121,3495.000000,4.000000,91.000000,,,,0.000000,4.000000,4.000000,4.000000,4.000000,4.000000,4.000000,4.000000,4.000000,4.000000,4.000000,4.000000,4.000000,4.000000,4.000000,100.000000,,,,,,,,,,,,,,,,
1644853163.255698,173.000000,0.000000,4203.205078,4244.615234,4192.436035,4245.641113,4216.025879,4202.307617,4202.692383,4189.358887,4186.538574,4177.179688,4156.282227,4157.692383,4121.922852,4144.871582,3497.000000,4.000000,91.000000,,,,0.000000,4.000000,4.000000,4.000000,4.000000,4.000000,4.000000,4.000000,4.000000,4.000000,4.000000,4.000000,4.000000,4.000000,4.000000,100.000000,,,,,,,,,,,,,,,,
1644853163.259639,174.000000,0.000000,4207.051270,4246.153809,4198.333496,4239.358887,4211.025879,4205.897461,4203.846191,4190.000000,4186.794922,4170.256348,4158.461426,4161.153809,4122.307617,4150.000000,3660.000000,4.000000,91.000000,,,,0.000000,4.000000,4.000000,4.000000,4.000000,4.000000,4.000000,4.000000,4.000000,4.000000,4.000000,4.000000,4.000000,4.000000,4.000000,100.000000,,,,,,,,,,,,,,,,
1644853163.263579,175.000000,0.000000,4218.333496,4251.025879,4203.461426,4234.487305,4218.589844,4209.743652,4205.128418,4191.025879,4188.077148,4169.230957,4163.974121,4164.358887,4129.230957,4160.256348,3353.000000,4.000000,91.000000,,,,0.000000,4.000000,4.000000,4.000000,4.000000,4.000000,4.000000,4.000000,4.000000,4.000000,4.000000,4.000000,4.000000,4.000000,4.000000,100.000000,,,,,,,,,,,,,,,,
1644853163.267519,176.000000,0.000000,4230.256348,4255.256348,4204.102539,4235.512695,4232.563965,4212.179688,4205.256348,4192.307617,4190.000000,4174.102539,4166.922852,4166.794922,4138.077148,4168.461426,3495.000000,4.000000,91.000000,,,,0.000000,4.000000,4.000000,4.000000,4.000000,4.000000,4.000000,4.000000,4.000000,4.000000,4.000000,4.000000,4.000000,4.000000,4.000000,100.000000,,,,,,,,,,,,,,,,
1644853163.271459,177.000000,0.000000,4236.538574,4255.512695,4201.282227,4242.436035,4242.563965,4213.589844,4204.743652,4194.487305,4192.307617,4182.436035,4163.974121,4169.487305,4143.974121,4169.743652,3497.000000,4.000000,91.000000,,,,0.000000,4.000000,4.000000,4.000000,4.000000,4.000000,4.000000,4.000000,4.000000,4.000000,4.000000,4.000000,4.000000,4.000000,4.000000,100.000000,,,,,,,,,,,,,,,,
1644853163.275399,178.000000,0.000000,4235.769043,4251.666504,4199.230957,4251.025879,4241.794922,4215.256348,4205.384766,4198.589844,4195.384766,4190.769043,4156.922852,4174.102539,4143.846191,4164.743652,3660.000000,4.000000,91.000000,,,,0.000000,4.000000,4.000000,4.000000,4.000000,4.000000,4.000000,4.000000,4.000000,4.000000,4.000000,4.000000,4.000000,4.000000,4.000000,100.000000,,,,,,,,,,,,,,,,
1644853163.279339,179.000000,0.000000,4231.282227,4246.282227,4201.025879,4256.025879,4231.666504,4216.922852,4207.692383,4203.077148,4198.461426,4196.153809,4152.948730,4179.871582,4138.717773,4158.077148,3353.000000,4.000000,91.000000,,,,0.000000,4.000000,4.000000,4.000000,4.000000,4.000000,4.000000,4.000000,4.000000,4.000000,4.000000,4.000000,4.000000,4.000000,4.000000,100.000000,,,,,,,,,,,,,,,,
1644853163.283279,180.000000,0.000000,4227.436035,4243.205078,4205.384766,4254.230957,4220.128418,4216.794922,4209.615234,4205.641113,4200.128418,4196.922852,4158.846191,4183.717773,4131.538574,4154.487305,3495.000000,4.000000,91.000000,,,,0.000000,4.000000,4.000000,4.000000,4.000000,4.000000,4.000000,4.000000,4.000000,4.000000,4.000000,4.000000,4.000000,4.000000,4.000000,100.000000,,,,,,,,,,,,,,,,
1644853163.287219,181.000000,0.000000,4226.282227,4244.743652,4208.974121,4247.307617,4214.871582,4213.717773,4209.102539,4204.487305,4199.230957,4192.307617,4174.871582,4183.461426,4125.512695,4155.512695,3497.000000,4.000000,91.000000,,,,0.000000,4.000000,4.000000,4.000000,4.000000,4.000000,4.000000,4.000000,4.000000,4.000000,4.000000,4.000000,4.000000,4.000000,4.000000,100.000000,,,,,,,,,,,,,,,,
1644853163.291159,182.000000,0.000000,4226.922852,4248.974121,4209.358887,4239.487305,4217.563965,4208.717773,4206.922852,4200.641113,4195.384766,4182.948730,4193.461426,4179.871582,4121.794922,4159.230957,3660.000000,4.000000,91.000000,,,,0.000000,4.000000,4.000000,4.000000,4.000000,4.000000,4.000000,4.000000,4.000000,4.000000,4.000000,4.000000,4.000000,4.000000,4.000000,100.000000,,,,,,,,,,,,,,,,
1644853163.295100,183.000000,0.000000,4226.666504,4251.922852,4206.794922,4233.846191,4223.974121,4203.846191,4205.769043,4197.307617,4189.871582,4171.794922,4204.230957,4175.000000,4120.128418,4162.692383,3353.000000,4.000000,91.000000,,,,0.000000,4.000000,4.000000,4.000000,4.000000,4.000000,4.000000,4.000000,4.000000,4.000000,4.000000,4.000000,4.000000,4.000000,4.000000,100.000000,,,,,,,,,,,,,,,,
1644853163.299040,184.000000,0.000000,4223.077148,4250.000000,4203.589844,4232.051270,4229.102539,4201.666504,4207.436035,4196.666504,4185.641113,4163.846191,4200.897461,4170.897461,4120.128418,4163.846191,3495.000000,4.000000,91.000000,,,,0.000000,4.000000,4.000000,4.000000,4.000000,4.000000,4.000000,4.000000,4.000000,4.000000,4.000000,4.000000,4.000000,4.000000,4.000000,100.000000,,,,,,,,,,,,,,,,
1644853163.302880,185.000000,0.000000,4217.051270,4243.333496,4202.436035,4233.461426,4230.128418,4203.589844,4210.256348,4198.205078,4184.871582,4163.589844,4185.897461,4167.820313,4122.436035,4163.333496,3497.000000,4.000000,91.000000,,,,0.000000,4.000000,4.000000,4.000000,4.000000,4.000000,4.000000,4.000000,4.000000,4.000000,4.000000,4.000000,4.000000,4.000000,4.000000,100.000000,,,,,,,,,,,,,,,,
1644853163.306820,186.000000,0.000000,4211.922852,4236.025879,4203.461426,4236.410156,4228.077148,4209.230957,4211.282227,4200.128418,4187.307617,4172.051270,4168.205078,4164.743652,4128.717773,4163.077148,3660.000000,4.000000,91.000000,,,,0.000000,4.000000,4.000000,4.000000,4.000000,4.000000,4.000000,4.000000,4.000000,4.000000,4.000000,4.000000,4.000000,4.000000,4.000000,100.000000,,,,,,,,,,,,,,,,
1644853163.310760,187.000000,0.000000,4211.666504,4232.692383,4205.256348,4237.692383,4226.153809,4216.153809,4209.743652,4200.641113,4190.384766,4184.615234,4155.897461,4161.025879,4138.333496,4165.000000,3353.000000,4.000000,91.000000,,,,0.000000,4.000000,4.000000,4.000000,4.000000,4.000000,4.000000,4.000000,4.000000,4.000000,4.000000,4.000000,4.000000,4.000000,4.000000,100.000000,,,,,,,,,,,,,,,,
1644853163.314700,188.000000,0.000000,4216.410156,4235.641113,4205.256348,4234.487305,4226.666504,4220.256348,4208.333496,4199.358887,4191.025879,4193.205078,4151.025879,4157.692383,4147.820313,4168.077148,3495.000000,4.000000,91.000000,,,,0.000000,4.000000,4.000000,4.000000,4.000000,4.000000,4.000000,4.000000,4.000000,4.000000,4.000000,4.000000,4.000000,4.000000,4.000000,100.000000,1.000000,91.666664,4.000000,4.000000,4.000000,4.000000,4.000000,4.000000,4.000000,4.000000,4.000000,4.000000,4.000000,4.000000,4.000000,3.000000
1644853163.318640,189.000000,0.000000,4222.179688,4241.794922,4203.077148,4226.666504,4228.846191,4219.102539,4209.871582,4197.692383,4187.820313,4192.436035,4150.641113,4156.794922,4151.666504,4169.102539,3497.000000,4.000000,91.000000,1,1,3,0.000000,4.000000,4.000000,4.000000,4.000000,4.000000,4.000000,4.000000,4.000000,4.000000,4.000000,4.000000,4.000000,4.000000,4.000000,100.000000,,,,,,,,,,,,,,,,
1644853163.322580,190.000000,0.000000,4223.589844,4245.897461,4199.871582,4217.563965,4228.589844,4213.846191,4213.589844,4196.282227,4182.563965,4184.102539,4150.384766,4159.230957,4147.948730,4165.128418,3660.000000,4.000000,91.000000,,,,0.000000,4.000000,4.000000,4.000000,4.000000,4.000000,4.000000,4.000000,4.000000,4.000000,4.000000,4.000000,4.000000,4.000000,4.000000,100.000000,,,,,,,,,,,,,,,,
1644853163.326520,191.000000,0.000000,4218.846191,4244.230957,4197.820313,4212.307617,4223.077148,4208.205078,4216.025879,4195.897461,4179.230957,4175.769043,4149.358887,4163.974121,4139.615234,4156.410156,3353.000000,4.000000,91.000000,,,,0.000000,4.000000,4.000000,4.000000,4.000000,4.000000,4.000000,4.000000,4.000000,4.000000,4.000000,4.000000,4.000000,4.000000,4.000000,100.000000,,,,,,,,,,,,,,,,
1644853163.330461,192.000000,0.000000,4210.641113,4237.948730,4198.461426,4215.384766,4213.846191,4205.641113,4215.256348,4196.410156,4180.128418,4174.230957,4150.256348,4168.974121,4132.436035,4146.922852,3495.000000,4.000000,91.000000,,,,0.000000,4.000000,4.000000,4.000000,4.000000,4.000000,4.000000,4.000000,4.000000,4.000000,4.000000,4.000000,4.000000,4.000000,4.000000,100.000000,,,,,,,,,,,,,,,,
1644853163.334401,193.000000,0.000000,4204.102539,4231.922852,4201.538574,4226.410156,4206.794922,4206.922852,4212.563965,4197.563965,4184.358887,4179.358887,4155.512695,4172.307617,4130.000000,4141.153809,3497.000000,4.000000,91.000000,,,,0.000000,4.000000,4.000000,4.000000,4.000000,4.000000,4.000000,4.000000,4.000000,4.000000,4.000000,4.000000,4.000000,4.000000,4.000000,100.000000,,,,,,,,,,,,,,,,
1644853163.338341,194.000000,0.000000,4202.820313,4230.384766,4205.512695,4239.615234,4208.461426,4210.769043,4211.025879,4199.615234,4189.358887,4184.615234,4163.589844,4173.717773,4132.436035,4141.410156,3660.000000,4.000000,91.000000,,,,0.000000,4.000000,4.000000,4.000000,4.000000,4.000000,4.000000,4.000000,4.000000,4.000000,4.000000,4.000000,4.000000,4.000000,4.000000,100.000000,,,,,,,,,,,,,,,,
1644853163.342281,195.000000,0.000000,4207.307617,4233.717773,4208.461426,4247.051270,4221.153809,4215.256348,4211.538574,4202.307617,4192.820313,4184.230957,4169.358887,4173.846191,4136.922852,4146.666504,3353.000000,4.000000,91.000000,,,,0.000000,4.000000,4.000000,4.000000,4.000000,4.000000,4.000000,4.000000,4.000000,4.000000,4.000000,4.000000,4.000000,4.000000,4.000000,100.000000,,,,,,,,,,,,,,,,
1644853163.346221,196.000000,0.000000,4215.256348,4240.000000,4209.487305,4244.743652,4239.615234,4218.974121,4212.179688,4205.000000,4194.487305,4179.230957,4169.358887,4173.717773,4140.512695,4153.974121,3495.000000,4.000000,91.000000,,,,0.000000,4.000000,4.000000,4.000000,4.000000,4.000000,4.000000,4.000000,4.000000,4.000000,4.000000,4.000000,4.000000,4.000000,4.000000,100.000000,,,,,,,,,,,,,,,,
1644853163.350161,197.000000,0.000000,4223.717773,4246.538574,4208.974121,4235.512695,4253.461426,4220.641113,4211.282227,4206.666504,4195.256348,4175.641113,4165.128418,4174.358887,4142.051270,4160.000000,3497.000000,4.000000,91.000000,,,,0.000000,4.000000,4.000000,4.000000,4.000000,4.000000,4.000000,4.000000,4.000000,4.000000,4.000000,4.000000,4.000000,4.000000,4.000000,100.000000,,,,,,,,,,,,,,,,
1644853163.354101,198.000000,0.000000,4230.000000,4252.051270,4208.077148,4226.666504,4253.717773,4219.230957,4209.615234,4206.794922,4195.897461,4178.974121,4163.333496,4175.641113,4142.179688,4163.846191,3660.000000,4.000000,91.000000,,,,0.000000,4.000000,4.000000,4.000000,4.000000,4.000000,4.000000,4.000000,4.000000,4.000000,4.000000,4.000000,4.000000,4.000000,4.000000,100.000000,,,,,,,,,,,,,,,,
1644853163.358041,199.000000,0.000000,4231.025879,4256.025879,4207.051270,4224.487305,4240.000000,4215.000000,4208.589844,4206.666504,4196.922852,4188.589844,4169.871582,4176.794922,4142.692383,4167.307617,3353.000000,4.000000,91.000000,,,,0.000000,4.000000,4.000000,4.000000,4.000000,4.000000,4.000000,4.000000,4.000000,4.000000,4.000000,4.000000,4.000000,4.000000,4.000000,100.000000,,,,,,,,,,,,,,,,
1644853163.361981,200.000000,0.000000,4225.384766,4258.461426,4205.897461,4230.384766,4221.922852,4209.615234,4208.461426,4207.179688,4198.461426,4198.461426,4184.358887,4177.436035,4146.025879,4172.307617,3495.000000,4.000000,91.000000,,,,0.000000,4.000000,4.000000,4.000000,4.000000,4.000000,4.000000,4.000000,4.000000,4.000000,4.000000,4.000000,4.000000,4.000000,4.000000,100.000000,,,,,,,,,,,,,,,,
1644853163.365922,201.000000,0.000000,4215.128418,4259.358887,4204.487305,4239.615234,4211.794922,4206.282227,4207.692383,4209.230957,4201.153809,4203.846191,4198.717773,4177.307617,4153.205078,4177.948730,3497.000000,4.000000,91.000000,,,,0.000000,4.000000,4.000000,4.000000,4.000000,4.000000,4.000000,4.000000,4.000000,4.000000,4.000000,4.000000,4.000000,4.000000,4.000000,100.000000,,,,,,,,,,,,,,,,
1644853163.369862,202.000000,0.000000,4205.000000,4258.974121,4203.205078,4245.256348,4215.256348,4207.051270,4205.641113,4212.051270,4204.743652,4203.717773,4202.179688,4176.410156,4162.051270,4181.282227,3660.000000,4.000000,91.000000,,,,0.000000,4.000000,4.000000,4.000000,4.000000,4.000000,4.000000,4.000000,4.000000,4.000000,4.000000,4.000000,4.000000,4.000000,4.000000,100.000000,,,,,,,,,,,,,,,,
1644853163.373702,203.000000,0.000000,4200.512695,4257.948730,4202.563965,4242.563965,4226.282227,4211.025879,4204.358887,4214.487305,4208.333496,4201.025879,4190.897461,4174.102539,4168.333496,4180.897461,3353.000000,4.000000,91.000000,,,,0.000000,4.000000,4.000000,4.000000,4.000000,4.000000,4.000000,4.000000,4.000000,4.000000,4.000000,4.000000,4.000000,4.000000,4.000000,100.000000,,,,,,,,,,,,,,,,
1644853163.377642,204.000000,0.000000,4205.256348,4257.563965,4202.563965,4233.333496,4233.717773,4215.384766,4206.025879,4215.641113,4210.384766,4199.615234,4172.179688,4171.025879,4168.589844,4178.846191,3495.000000,4.000000,91.000000,,,,0.000000,4.000000,4.000000,4.000000,4.000000,4.000000,4.000000,4.000000,4.000000,4.000000,4.000000,4.000000,4.000000,4.000000,4.000000,100.000000,,,,,,,,,,,,,,,,
1644853163.381582,205.000000,0.000000,4218.461426,4258.589844,4202.563965,4224.615234,4230.000000,4217.179688,4210.128418,4215.256348,4209.615234,4201.282227,4159.358887,4169.102539,4163.461426,4178.077148,3497.000000,4.000000,91.000000,,,,0.000000,4.000000,4.000000,4.000000,4.000000,4.000000,4.000000,4.000000,4.000000,4.000000,4.000000,4.000000,4.000000,4.000000,4.000000,100.000000,,,,,,,,,,,,,,,,
1644853163.385522,206.000000,0.000000,4234.615234,4261.025879,4201.922852,4222.051270,4218.205078,4215.256348,4212.948730,4214.230957,4206.538574,4205.128418,4161.025879,4170.128418,4157.563965,4179.615234,3660.000000,4.000000,91.000000,,,,0.000000,4.000000,4.000000,4.000000,4.000000,4.000000,4.000000,4.000000,4.000000,4.000000,4.000000,4.000000,4.000000,4.000000,4.000000,100.000000,,,,,,,,,,,,,,,,
1644853163.389462,207.000000,0.000000,4244.871582,4262.820313,4199.743652,4225.897461,4207.948730,4211.794922,4212.563965,4213.205078,4203.333496,4207.692383,4174.102539,4172.820313,4155.384766,4181.282227,3353.000000,4.000000,91.000000,,,,0.000000,4.000000,4.000000,4.000000,4.000000,4.000000,4.000000,4.000000,4.000000,4.000000,4.000000,4.000000,4.000000,4.000000,4.000000,100.000000,,,,,,,,,,,,,,,,
1644853163.393402,208.000000,0.000000,4243.205078,4260.897461,4196.794922,4232.820313,4207.820313,4209.487305,4210.512695,4212.948730,4201.666504,4205.769043,4184.871582,4173.461426,4157.563965,4179.743652,3495.000000,4.000000,91.000000,,,,0.000000,4.000000,4.000000,4.000000,4.000000,4.000000,4.000000,4.000000,4.000000,4.000000,4.000000,4.000000,4.000000,4.000000,4.000000,100.000000,,,,,,,,,,,,,,,,
1644853163.397342,209.000000,0.000000,4231.666504,4254.102539,4195.128418,4240.384766,4218.333496,4210.128418,4210.128418,4212.692383,4201.282227,4198.846191,4181.025879,4170.641113,4161.410156,4175.000000,3497.000000,4.000000,91.000000,,,,0.000000,4.000000,4.000000,4.000000,4.000000,4.000000,4.000000,4.000000,4.000000,4.000000,4.000000,4.000000,4.000000,4.000000,4.000000,100.000000,,,,,,,,,,,,,,,,
1644853163.401283,210.000000,0.000000,4218.974121,4244.743652,4196.666504,4247.179688,4231.922852,4212.948730,4211.922852,4211.410156,4200.897461,4190.897461,4162.563965,4166.538574,4163.589844,4171.153809,3660.000000,4.000000,91.000000,,,,0.000000,4.000000,4.000000,4.000000,4.000000,4.000000,4.000000,4.000000,4.000000,4.000000,4.000000,4.000000,4.000000,4.000000,4.000000,100.000000,,,,,,,,,,,,,,,,
1644853163.405223,211.000000,0.000000,4213.205078,4237.436035,4200.384766,4252.436035,4239.230957,4214.743652,4213.205078,4207.948730,4199.358887,4186.410156,4142.948730,4165.897461,4162.563965,4172.563965,3353.000000,4.000000,91.000000,,,,0.000000,4.000000,4.000000,4.000000,4.000000,4.000000,4.000000,4.000000,4.000000,4.000000,4.000000,4.000000,4.000000,4.000000,4.000000,100.000000,,,,,,,,,,,,,,,,
1644853163.409163,212.000000,0.000000,4215.384766,4235.256348,4203.717773,4255.128418,4236.410156,4213.205078,4211.282227,4202.563965,4196.410156,4186.794922,4138.333496,4170.641113,4159.102539,4179.487305,3495.000000,4.000000,91.000000,,,,0.000000,4.000000,4.000000,4.000000,4.000000,4.000000,4.000000,4.000000,4.000000,4.000000,4.000000,4.000000,4.000000,4.000000,4.000000,100.000000,,,,,,,,,,,,,,,,
1644853163.413103,213.000000,0.000000,4219.871582,4238.205078,4204.358887,4255.897461,4226.410156,4208.589844,4207.307617,4197.692383,4192.692383,4189.871582,4153.589844,4177.692383,4155.641113,4187.179688,3497.000000,4.000000,91.000000,,,,0.000000,4.000000,4.000000,4.000000,4.000000,4.000000,4.000000,4.000000,4.000000,4.000000,4.000000,4.000000,4.000000,4.000000,4.000000,100.000000,,,,,,,,,,,,,,,,
1644853163.417043,214.000000,0.000000,4221.410156,4243.589844,4202.692383,4256.025879,4215.897461,4203.974121,4204.615234,4196.282227,4189.871582,4192.692383,4177.692383,4181.410156,4154.358887,4190.256348,3660.000000,4.000000,91.000000,,,,0.000000,4.000000,4.000000,4.000000,4.000000,4.000000,4.000000,4.000000,4.000000,4.000000,4.000000,4.000000,4.000000,4.000000,4.000000,100.000000,,,,,,,,,,,,,,,,
1644853163.420983,215.000000,0.000000,4219.487305,4248.589844,4200.897461,4255.897461,4210.384766,4203.333496,4205.384766,4198.974121,4190.000000,4194.871582,4194.102539,4179.358887,4155.641113,4187.948730,3353.000000,4.000000,91.000000,,,,0.000000,4.000000,4.000000,4.000000,4.000000,4.000000,4.000000,4.000000,4.000000,4.000000,4.000000,4.000000,4.000000,4.000000,4.000000,100.000000,,,,,,,,,,,,,,,,
1644853163.424923,216.000000,0.000000,4218.077148,4252.307617,4201.282227,4255.384766,4210.897461,4207.692383,4207.948730,4203.333496,4193.717773,4197.563965,4194.615234,4174.230957,4157.820313,4185.128418,3495.000000,4.000000,91.000000,,,,0.000000,4.000000,4.000000,4.000000,4.000000,4.000000,4.000000,4.000000,4.000000,4.000000,4.000000,4.000000,4.000000,4.000000,4.000000,100.000000,,,,,,,,,,,,,,,,
1644853163.428863,217.000000,0.000000,4221.922852,4254.358887,4204.102539,4254.615234,4214.102539,4214.102539,4209.871582,4206.282227,4199.358887,4201.538574,4184.871582,4171.410156,4159.230957,4186.538574,3497.000000,4.000000,91.000000,,,,0.000000,4.000000,4.000000,4.000000,4.000000,4.000000,4.000000,4.000000,4.000000,4.000000,4.000000,4.000000,4.000000,4.000000,4.000000,100.000000,,,,,,,,,,,,,,,,
1644853163.432803,218.000000,0.000000,4230.384766,4253.846191,4208.589844,4254.358887,4216.153809,4217.820313,4210.769043,4206.538574,4203.717773,4205.128418,4176.282227,4174.102539,4160.128418,4192.436035,3660.000000,4.000000,91.000000,,,,0.000000,4.000000,4.000000,4.000000,4.000000,4.000000,4.000000,4.000000,4.000000,4.000000,4.000000,4.000000,4.000000,4.000000,4.000000,100.000000,,,,,,,,,,,,,,,,
1644853163.436744,219.000000,0.000000,4237.692383,4250.384766,4212.820313,4255.128418,4215.512695,4216.538574,4211.794922,4205.769043,4204.487305,4205.897461,4175.384766,4180.769043,4161.794922,4197.563965,3353.000000,4.000000,91.000000,,,,0.000000,4.000000,4.000000,4.000000,4.000000,4.000000,4.000000,4.000000,4.000000,4.000000,4.000000,4.000000,4.000000,4.000000,4.000000,100.000000,,,,,,,,,,,,,,,,
1644853163.440684,220.000000,0.000000,4238.333496,4245.512695,4215.384766,4255.512695,4214.487305,4211.538574,4213.461426,4206.153809,4202.179688,4202.820313,4179.615234,4187.436035,4165.000000,4196.410156,3495.000000,4.000000,91.000000,,,,0.000000,4.000000,4.000000,4.000000,4.000000,4.000000,4.000000,4.000000,4.000000,4.000000,4.000000,4.000000,4.000000,4.000000,4.000000,100.000000,,,,,,,,,,,,,,,,
1644853163.444524,221.000000,0.000000,4232.948730,4242.307617,4215.000000,4252.820313,4215.641113,4207.051270,4214.487305,4208.461426,4200.000000,4197.563965,4182.051270,4190.512695,4170.128418,4189.615234,3497.000000,4.000000,91.000000,,,,0.000000,4.000000,4.000000,4.000000,4.000000,4.000000,4.000000,4.000000,4.000000,4.000000,4.000000,4.000000,4.000000,4.000000,4.000000,100.000000,,,,,,,,,,,,,,,,
1644853163.448464,222.000000,0.000000,4226.666504,4242.436035,4212.436035,4246.025879,4219.743652,4206.282227,4213.333496,4211.153809,4200.512695,4192.307617,4178.846191,4189.487305,4176.025879,4184.230957,3660.000000,4.000000,91.000000,,,,0.000000,4.000000,4.000000,4.000000,4.000000,4.000000,4.000000,4.000000,4.000000,4.000000,4.000000,4.000000,4.000000,4.000000,4.000000,100.000000,,,,,,,,,,,,,,,,
1644853163.452404,223.000000,0.000000,4223.077148,4243.974121,4209.102539,4237.692383,4224.615234,4208.974121,4210.897461,4212.051270,4203.205078,4189.230957,4172.179688,4186.794922,4180.641113,4186.666504,3353.000000,4.000000,91.000000,,,,0.000000,4.000000,4.000000,4.000000,4.000000,4.000000,4.000000,4.000000,4.000000,4.000000,4.000000,4.000000,4.000000,4.000000,4.000000,100.000000,,,,,,,,,,,,,,,,
1644853163.456344,224.000000,0.000000,4222.307617,4244.615234,4206.794922,4232.563965,4227.820313,4212.563965,4209.487305,4210.769043,4205.641113,4188.589844,4168.205078,4185.128418,4181.282227,4195.641113,3495.000000,4.000000,91.000000,,,,0.000000,4.000000,4.000000,4.000000,4.000000,4.000000,4.000000,4.000000,4.000000,4.000000,4.000000,4.000000,4.000000,4.000000,4.000000,100.000000,,,,,,,,,,,,,,,,
1644853163.460284,225.000000,0.000000,4221.922852,4243.333496,4206.025879,4233.333496,4228.077148,4214.102539,4209.487305,4208.461426,4205.512695,4190.256348,4170.512695,4185.000000,4176.922852,4203.717773,3497.000000,4.000000,91.000000,,,,0.000000,4.000000,4.000000,4.000000,4.000000,4.000000,4.000000,4.000000,4.000000,4.000000,4.000000,4.000000,4.000000,4.000000,4.000000,100.000000,,,,,,,,,,,,,,,,
1644853163.464224,226.000000,0.000000,4221.153809,4241.538574,4205.769043,4239.230957,4226.025879,4212.948730,4209.102539,4206.666504,4203.205078,4193.589844,4176.666504,4185.128418,4169.743652,4204.871582,3660.000000,4.000000,91.000000,,,,0.000000,4.000000,4.000000,4.000000,4.000000,4.000000,4.000000,4.000000,4.000000,4.000000,4.000000,4.000000,4.000000,4.000000,4.000000,100.000000,,,,,,,,,,,,,,,,
1644853163.468164,227.000000,0.000000,4221.153809,4240.641113,4205.128418,4246.538574,4223.589844,4211.025879,4207.307617,4205.641113,4200.641113,4197.051270,4180.641113,4183.333496,4163.205078,4200.256348,3353.000000,4.000000,91.000000,,,,0.000000,4.000000,4.000000,4.000000,4.000000,4.000000,4.000000,4.000000,4.000000,4.000000,4.000000,4.000000,4.000000,4.000000,4.000000,100.000000,,,,,,,,,,,,,,,,
1644853163.472105,228.000000,0.000000,4223.589844,4241.282227,4204.615234,4252.436035,4222.436035,4210.384766,4205.128418,4204.487305,4199.230957,4199.358887,4179.102539,4178.974121,4160.384766,4196.410156,3495.000000,4.000000,91.000000,,,,0.000000,4.000000,4.000000,4.000000,4.000000,4.000000,4.000000,4.000000,4.000000,4.000000,4.000000,4.000000,4.000000,4.000000,4.000000,100.000000,,,,,,,,,,,,,,,,
1644853163.476045,229.000000,0.000000,4227.820313,4242.436035,4204.615234,4254.487305,4221.922852,4211.410156,4205.128418,4202.179688,4198.461426,4200.000000,4173.846191,4173.461426,4161.153809,4197.692383,3497.000000,4.000000,91.000000,,,,0.000000,4.000000,4.000000,4.000000,4.000000,4.000000,4.000000,4.000000,4.000000,4.000000,4.000000,4.000000,4.000000,4.000000,4.000000,100.000000,,,,,,,,,,,,,,,,
1644853163.479985,230.000000,0.000000,4230.000000,4242.692383,4204.743652,4250.512695,4219.743652,4213.077148,4207.563965,4198.589844,4197.436035,4199.358887,4168.589844,4168.461426,4162.948730,4202.051270,3660.000000,4.000000,91.000000,,,,0.000000,4.000000,4.000000,4.000000,4.000000,4.000000,4.000000,4.000000,4.000000,4.000000,4.000000,4.000000,4.000000,4.000000,4.000000,100.000000,,,,,,,,,,,,,,,,
1644853163.483925,231.000000,0.000000,4227.307617,4240.769043,4203.461426,4240.384766,4215.000000,4213.717773,4209.487305,4194.871582,4195.769043,4197.692383,4164.358887,4165.000000,4162.307617,4202.307617,3353.000000,4.000000,91.000000,2,1,3,0.000000,4.000000,4.000000,4.000000,4.000000,4.000000,4.000000,4.000000,4.000000,4.000000,4.000000,4.000000,4.000000,4.000000,4.000000,100.000000,,,,,,,,,,,,,,,,
1644853163.487865,232.000000,0.000000,4221.025879,4236.794922,4199.615234,4228.846191,4209.358887,4212.179688,4208.205078,4192.307617,4193.333496,4194.230957,4158.717773,4162.820313,4157.820313,4194.102539,3495.000000,4.000000,91.000000,,,,0.000000,4.000000,4.000000,4.000000,4.000000,4.000000,4.000000,4.000000,4.000000,4.000000,4.000000,4.000000,4.000000,4.000000,4.000000,100.000000,,,,,,,,,,,,,,,,
1644853163.491805,233.000000,0.000000,4216.410156,4232.179688,4195.128418,4223.333496,4206.538574,4208.589844,4204.230957,4191.666504,4191.025879,4188.846191,4150.641113,4161.666504,4150.000000,4181.025879,3497.000000,4.000000,91.000000,,,,0.000000,4.000000,4.000000,4.000000,4.000000,4.000000,4.000000,4.000000,4.000000,4.000000,4.000000,4.000000,4.000000,4.000000,4.000000,100.000000,,,,,,,,,,,,,,,,
1644853163.495745,234.000000,0.000000,4216.538574,4228.717773,4192.820313,4227.436035,4208.589844,4204.615234,4201.153809,4193.333496,4190.384766,4182.307617,4143.461426,4161.666504,4142.820313,4172.436035,3660.000000,4.000000,91.000000,,,,0.000000,4.000000,4.000000,4.000000,4.000000,4.000000,4.000000,4.000000,4.000000,4.000000,4.000000,4.000000,4.000000,4.000000,4.000000,100.000000,,,,,,,,,,,,,,,,
1644853163.499685,235.000000,0.000000,4219.871582,4227.820313,4194.230957,4237.436035,4214.487305,4202.948730,4201.922852,4197.051270,4192.307617,4177.307617,4143.974121,4162.948730,4141.538574,4175.769043,3353.000000,4.000000,91.000000,,,,0.000000,4.000000,4.000000,4.000000,4.000000,4.000000,4.000000,4.000000,4.000000,4.000000,4.000000,4.000000,4.000000,4.000000,4.000000,100.000000,,,,,,,,,,,,,,,,
1644853163.503625,236.000000,0.000000,4221.922852,4229.743652,4197.563965,4246.025879,4221.410156,4205.512695,4205.769043,4201.794922,4196.794922,4176.538574,4156.282227,4165.128418,4149.358887,4190.384766,3495.000000,4.000000,91.000000,,,,0.000000,4.000000,4.000000,4.000000,4.000000,4.000000,4.000000,4.000000,4.000000,4.000000,4.000000,4.000000,4.000000,4.000000,4.000000,100.000000,,,,,,,,,,,,,,,,
1644853163.507566,237.000000,0.000000,4220.256348,4233.846191,4200.512695,4247.307617,4227.179688,4211.794922,4210.000000,4206.410156,4202.307617,4181.538574,4176.794922,4167.692383,4164.743652,4208.846191,3497.000000,4.000000,91.000000,,,,0.000000,4.000000,4.000000,4.000000,4.000000,4.000000,4.000000,4.000000,4.000000,4.000000,4.000000,4.000000,4.000000,4.000000,4.000000,100.000000,,,,,,,,,,,,,,,,
1644853163.511506,238.000000,0.000000,4216.538574,4238.589844,4202.307617,4241.025879,4230.769043,4218.205078,4212.820313,4209.615234,4206.282227,4190.512695,4195.512695,4170.641113,4180.769043,4222.179688,3660.000000,4.000000,91.000000,,,,0.000000,4.000000,4.000000,4.000000,4.000000,4.000000,4.000000,4.000000,4.000000,4.000000,4.000000,4.000000,4.000000,4.000000,4.000000,100.000000,,,,,,,,,,,,,,,,
1644853163.515446,239.000000,0.000000,4215.128418,4243.077148,4203.333496,4231.538574,4232.179688,4220.769043,4214.102539,4211.025879,4206.410156,4198.846191,4202.179688,4174.487305,4189.102539,4226.922852,3353.000000,4.000000,91.000000,,,,0.000000,4.000000,4.000000,4.000000,4.000000,4.000000,4.000000,4.000000,4.000000,4.000000,4.000000,4.000000,4.000000,4.000000,4.000000,100.000000,,,,,,,,,,,,,,,,
1644853163.519286,240.000000,0.000000,4220.641113,4246.922852,4205.000000,4224.358887,4230.769043,4217.436035,4214.102539,4210.897461,4202.692383,4202.179688,4194.358887,4179.230957,4186.922852,4224.615234,3495.000000,4.000000,91.000000,,,,0.000000,4.000000,4.000000,4.000000,4.000000,4.000000,4.000000,4.000000,4.000000,4.000000,4.000000,4.000000,4.000000,4.000000,4.000000,100.000000,,,,,,,,,,,,,,,,
1644853163.523226,241.000000,0.000000,4233.974121,4250.512695,4208.333496,4223.846191,4225.897461,4209.871582,4212.692383,4209.743652,4197.948730,4199.230957,4179.871582,4184.230957,4178.974121,4219.615234,3497.000000,4.000000,91.000000,,,,0.000000,4.000000,4.000000,4.000000,4.000000,4.000000,4.000000,4.000000,4.000000,4.000000,4.000000,4.000000,4.000000,4.000000,4.000000,100.000000,,,,,,,,,,,,,,,,
1644853163.527166,242.000000,0.000000,4249.615234,4253.717773,4213.333496,4230.128418,4218.077148,4202.948730,4210.256348,4208.205078,4195.384766,4193.717773,4169.358887,4188.077148,4173.077148,4216.410156,3660.000000,4.000000,91.000000,,,,0.000000,4.000000,4.000000,4.000000,4.000000,4.000000,4.000000,4.000000,4.000000,4.000000,4.000000,4.000000,4.000000,4.000000,4.000000,100.000000,,,,,,,,,,,,,,,,
1644853163.531106,243.000000,0.000000,4259.487305,4255.512695,4218.974121,4238.589844,4210.000000,4201.282227,4208.846191,4207.307617,4196.410156,4190.512695,4169.102539,4189.615234,4173.974121,4217.051270,3353.000000,4.000000,91.000000,,,,0.000000,4.000000,4.000000,4.000000,4.000000,4.000000,4.000000,4.000000,4.000000,4.000000,4.000000,4.000000,4.000000,4.000000,4.000000,100.000000,,,,,,,,,,,,,,,,
1644853163.535046,244.000000,0.000000,4258.846191,4255.512695,4223.461426,4243.717773,4206.282227,4205.128418,4210.000000,4207.179688,4199.358887,4191.538574,4176.153809,4188.846191,4179.743652,4220.769043,3495.000000,4.000000,91.000000,,,,0.000000,4.000000,4.000000,4.000000,4.000000,4.000000,4.000000,4.000000,4.000000,4.000000,4.000000,4.000000,4.000000,4.000000,4.000000,100.000000,,,,,,,,,,,,,,,,
1644853163.538986,245.000000,0.000000,4250.256348,4254.230957,4225.384766,4244.102539,4209.743652,4211.153809,4212.948730,4207.307617,4201.410156,4194.743652,4182.179688,4187.563965,4185.128418,4225.256348,3497.000000,4.000000,91.000000,,,,0.000000,4.000000,4.000000,4.000000,4.000000,4.000000,4.000000,4.000000,4.000000,4.000000,4.000000,4.000000,4.000000,4.000000,4.000000,100.000000,,,,,,,,,,,,,,,,
1644853163.542927,246.000000,0.000000,4241.153809,4252.563965,4224.358887,4243.589844,4219.358887,4214.102539,4214.358887,4206.666504,4201.538574,4197.179688,4181.282227,4188.333496,4186.410156,4228.333496,3660.000000,4.000000,91.000000,,,,0.000000,4.000000,4.000000,4.000000,4.000000,4.000000,4.000000,4.000000,4.000000,4.000000,4.000000,4.000000,4.000000,4.000000,4.000000,100.000000,,,,,,,,,,,,,,,,
1644853163.546867,247.000000,0.000000,4236.282227,4251.153809,4220.769043,4246.282227,4230.128418,4211.538574,4211.794922,4205.384766,4200.128418,4197.820313,4174.358887,4191.666504,4183.846191,4229.102539,3353.000000,4.000000,91.000000,,,,0.000000,4.000000,4.000000,4.000000,4.000000,4.000000,4.000000,4.000000,4.000000,4.000000,4.000000,4.000000,4.000000,4.000000,4.000000,100.000000,,,,,,,,,,,,,,,,
1644853163.550807,248.000000,0.000000,4236.153809,4250.512695,4215.769043,4251.410156,4235.256348,4205.512695,4206.538574,4204.102539,4198.717773,4197.563965,4167.692383,4194.743652,4179.358887,4227.820313,3495.000000,4.000000,91.000000,,,,0.000000,4.000000,4.000000,4.000000,4.000000,4.000000,4.000000,4.000000,4.000000,4.000000,4.000000,4.000000,4.000000,4.000000,4.000000,100.000000,,,,,,,,,,,,,,,,
1644853163.554747,249.000000,0.000000,4237.563965,4250.256348,4210.641113,4253.333496,4231.153809,4200.256348,4203.461426,4203.589844,4198.205078,4196.538574,4167.051270,4193.717773,4174.871582,4225.384766,3497.000000,4.000000,91.000000,,,,0.000000,4.000000,4.000000,4.000000,4.000000,4.000000,4.000000,4.000000,4.000000,4.000000,4.000000,4.000000,4.000000,4.000000,4.000000,100.000000,,,,,,,,,,,,,,,,
1644853163.558687,250.000000,0.000000,4237.948730,4249.358887,4206.794922,4247.179688,4221.666504,4199.358887,4205.769043,4204.230957,4199.102539,4193.461426,4172.692383,4187.563965,4171.153809,4221.794922,3660.000000,4.000000,91.000000,,,,0.000000,4.000000,4.000000,4.000000,4.000000,4.000000,4.000000,4.000000,4.000000,4.000000,4.000000,4.000000,4.000000,4.000000,4.000000,100.000000,,,,,,,,,,,,,,,,
1644853163.562627,251.000000,0.000000,4236.282227,4246.538574,4204.743652,4234.102539,4214.743652,4203.077148,4211.153809,4205.256348,4200.384766,4187.563965,4180.512695,4179.102539,4167.948730,4216.410156,3353.000000,4.000000,91.000000,,,,0.000000,4.000000,4.000000,4.000000,4.000000,4.000000,4.000000,4.000000,4.000000,4.000000,4.000000,4.000000,4.000000,4.000000,4.000000,100.000000,,,,,,,,,,,,,,,,
1644853163.566567,252.000000,0.000000,4233.717773,4241.025879,4203.717773,4220.000000,4215.256348,4207.820313,4214.487305,4205.000000,4200.512695,4180.512695,4185.256348,4172.051270,4163.589844,4208.974121,3495.000000,4.000000,91.000000,,,,0.000000,4.000000,4.000000,4.000000,4.000000,4.000000,4.000000,4.000000,4.000000,4.000000,4.000000,4.000000,4.000000,4.000000,4.000000,100.000000,,,,,,,,,,,,,,,,
1644853163.570507,253.000000,0.000000,4230.897461,4232.820313,4201.410156,4210.128418,4219.743652,4209.615234,4212.948730,4202.563965,4197.820313,4175.641113,4183.333496,4168.717773,4156.794922,4201.538574,3497.000000,4.000000,91.000000,,,,0.000000,4.000000,4.000000,4.000000,4.000000,4.000000,4.000000,4.000000,4.000000,4.000000,4.000000,4.000000,4.000000,4.000000,4.000000,100.000000,,,,,,,,,,,,,,,,
1644853163.574447,254.000000,0.000000,4229.102539,4223.333496,4196.794922,4206.538574,4220.641113,4207.436035,4208.717773,4199.102539,4192.436035,4174.615234,4175.512695,4168.077148,4149.230957,4197.051270,3660.000000,4.000000,91.000000,,,,0.000000,4.000000,4.000000,4.000000,4.000000,4.000000,4.000000,4.000000,4.000000,4.000000,4.000000,4.000000,4.000000,4.000000,4.000000,100.000000,,,,,,,,,,,,,,,,
1644853163.578388,255.000000,0.000000,4229.102539,4216.666504,4191.538574,4208.974121,4214.615234,4203.333496,4206.025879,4196.538574,4186.410156,4176.153809,4166.153809,4167.948730,4144.358887,4198.333496,114.000000,4.000000,91.000000,,,,0.000000,4.000000,4.000000,4.000000,4.000000,4.000000,4.000000,4.000000,4.000000,4.000000,4.000000,4.000000,4.000000,4.000000,4.000000,100.000000,,,,,,,,,,,,,,,,
1644853163.582328,0.000000,0.000000,4231.282227,4216.666504,4189.358887,4215.641113,4205.512695,4201.025879,4206.666504,4196.153809,4182.948730,4177.307617,4161.153809,4167.307617,4145.256348,4205.256348,3417.000000,4.000000,91.000000,,,,0.000000,4.000000,4.000000,4.000000,4.000000,4.000000,4.000000,4.000000,4.000000,4.000000,4.000000,4.000000,4.000000,4.000000,4.000000,100.000000,,,,,,,,,,,,,,,,
1644853163.586268,1.000000,0.000000,4232.692383,4223.846191,4192.307617,4223.205078,4200.769043,4201.666504,4208.717773,4196.794922,4183.077148,4175.769043,4163.077148,4166.410156,4150.641113,4214.230957,3135.000000,4.000000,91.000000,,,,0.000000,4.000000,4.000000,4.000000,4.000000,4.000000,4.000000,4.000000,4.000000,4.000000,4.000000,4.000000,4.000000,4.000000,4.000000,100.000000,,,,,,,,,,,,,,,,
1644853163.590308,2.000000,0.000000,4229.102539,4233.205078,4197.692383,4228.589844,4203.717773,4203.589844,4209.487305,4196.410156,4185.384766,4171.025879,4168.717773,4166.025879,4156.282227,4218.974121,3542.000000,4.000000,91.000000,,,,0.000000,4.000000,4.000000,4.000000,4.000000,4.000000,4.000000,4.000000,4.000000,4.000000,4.000000,4.000000,4.000000,4.000000,4.000000,100.000000,,,,,,,,,,,,,,,,
1644853163.594248,3.000000,0.000000,4218.717773,4237.948730,4200.641113,4229.871582,4211.025879,4203.461426,4208.589844,4194.487305,4186.794922,4164.871582,4171.025879,4166.538574,4157.436035,4214.743652,3522.000000,4.000000,91.000000,3,1,3,0.000000,4.000000,4.000000,4.000000,4.000000,4.000000,4.000000,4.000000,4.000000,4.000000,4.000000,4.000000,4.000000,4.000000,4.000000,100.000000,,,,,,,,,,,,,,,,
1644853163.598188,4.000000,0.000000,4205.769043,4234.743652,4198.333496,4228.333496,4216.410156,4201.025879,4207.436035,4191.922852,4185.641113,4160.512695,4165.897461,4167.436035,4153.589844,4202.563965,3532.000000,4.000000,91.000000,,,,0.000000,4.000000,4.000000,4.000000,4.000000,4.000000,4.000000,4.000000,4.000000,4.000000,4.000000,4.000000,4.000000,4.000000,4.000000,100.000000,,,,,,,,,,,,,,,,
1644853163.602128,5.000000,0.000000,4197.307617,4226.666504,4192.179688,4227.820313,4217.179688,4198.205078,4206.922852,4189.871582,4183.077148,4161.153809,4156.282227,4167.820313,4148.589844,4190.128418,3343.000000,4.000000,91.000000,,,,0.000000,4.000000,4.000000,4.000000,4.000000,4.000000,4.000000,4.000000,4.000000,4.000000,4.000000,4.000000,4.000000,4.000000,4.000000,100.000000,,,,,,,,,,,,,,,,
1644853163.605968,6.000000,0.000000,4198.077148,4220.384766,4186.794922,4231.153809,4215.512695,4198.077148,4205.897461,4188.974121,4181.666504,4167.307617,4149.743652,4167.436035,4147.307617,4186.282227,2544.000000,4.000000,91.000000,,,,0.000000,4.000000,4.000000,4.000000,4.000000,4.000000,4.000000,4.000000,4.000000,4.000000,4.000000,4.000000,4.000000,4.000000,4.000000,100.000000,,,,,,,,,,,,,,,,
1644853163.609908,7.000000,0.000000,4207.179688,4220.256348,4186.025879,4237.948730,4215.897461,4201.153809,4204.102539,4188.974121,4183.461426,4175.256348,4151.410156,4166.922852,4151.538574,4194.358887,2792.000000,4.000000,91.000000,,,,0.000000,4.000000,4.000000,4.000000,4.000000,4.000000,4.000000,4.000000,4.000000,4.000000,4.000000,4.000000,4.000000,4.000000,4.000000,100.000000,,,,,,,,,,,,,,,,
1644853163.613848,8.000000,0.000000,4219.487305,4225.384766,4190.256348,4245.128418,4220.256348,4206.025879,4203.077148,4189.487305,4187.307617,4180.256348,4159.871582,4166.282227,4158.589844,4208.077148,3268.000000,4.000000,91.000000,,,,0.000000,4.000000,4.000000,4.000000,4.000000,4.000000,4.000000,4.000000,4.000000,4.000000,4.000000,4.000000,4.000000,4.000000,4.000000,100.000000,,,,,,,,,,,,,,,,
1644853163.617789,9.000000,0.000000,4228.974121,4230.897461,4196.666504,4250.384766,4226.666504,4210.128418,4204.615234,4190.641113,4191.025879,4180.000000,4170.256348,4166.410156,4163.846191,4217.307617,3272.000000,4.000000,91.000000,,,,0.000000,4.000000,4.000000,4.000000,4.000000,4.000000,4.000000,4.000000,4.000000,4.000000,4.000000,4.000000,4.000000,4.000000,4.000000,100.000000,,,,,,,,,,,,,,,,
1644853163.621729,10.000000,0.000000,4232.948730,4233.205078,4201.153809,4253.205078,4231.282227,4212.436035,4208.205078,4192.563965,4193.077148,4177.692383,4178.589844,4168.077148,4165.128418,4216.666504,3597.000000,4.000000,91.000000,,,,0.000000,4.000000,4.000000,4.000000,4.000000,4.000000,4.000000,4.000000,4.000000,4.000000,4.000000,4.000000,4.000000,4.000000,4.000000,100.000000,,,,,,,,,,,,,,,,
1644853163.625669,11.000000,0.000000,4232.179688,4233.589844,4201.922852,4253.205078,4231.666504,4213.717773,4211.025879,4196.025879,4194.615234,4178.077148,4185.512695,4171.282227,4164.358887,4210.769043,3290.000000,4.000000,91.000000,,,,0.000000,4.000000,4.000000,4.000000,4.000000,4.000000,4.000000,4.000000,4.000000,4.000000,4.000000,4.000000,4.000000,4.000000,4.000000,100.000000,,,,,,,,,,,,,,,,
1644853163.629609,12.000000,0.000000,4230.384766,4235.384766,4200.384766,4249.615234,4228.077148,4215.256348,4211.282227,4201.153809,4197.948730,4184.102539,4193.077148,4174.871582,4165.769043,4208.974121,3469.000000,4.000000,91.000000,,,,0.000000,4.000000,4.000000,4.000000,4.000000,4.000000,4.000000,4.000000,4.000000,4.000000,4.000000,4.000000,4.000000,4.000000,4.000000,100.000000,,,,,,,,,,,,,,,,
1644853163.633549,13.000000,0.000000,4230.000000,4239.871582,4199.358887,4243.205078,4223.077148,4217.179688,4210.641113,4207.563965,4203.846191,4193.589844,4201.025879,4176.666504,4172.563965,4215.256348,3229.000000,4.000000,91.000000,,,,0.000000,4.000000,4.000000,4.000000,4.000000,4.000000,4.000000,4.000000,4.000000,4.000000,4.000000,4.000000,4.000000,4.000000,4.000000,100.000000,,,,,,,,,,,,,,,,
1644853163.637489,14.000000,0.000000,4231.153809,4243.589844,4200.641113,4236.666504,4219.615234,4217.948730,4210.897461,4212.692383,4210.128418,4201.922852,4205.769043,4175.769043,4182.820313,4223.974121,3597.000000,4.000000,91.000000,,,,0.000000,4.000000,4.000000,4.000000,4.000000,4.000000,4.000000,4.000000,4.000000,4.000000,4.000000,4.000000,4.000000,4.000000,4.000000,100.000000,,,,,,,,,,,,,,,,
1644853163.641429,15.000000,0.000000,4231.282227,4241.922852,4202.692383,4233.589844,4219.102539,4216.025879,4211.538574,4213.974121,4212.820313,4204.487305,4202.179688,4172.436035,4189.743652,4226.025879,3290.000000,4.000000,91.000000,,,,0.000000,4.000000,4.000000,4.000000,4.000000,4.000000,4.000000,4.000000,4.000000,4.000000,4.000000,4.000000,4.000000,4.000000,4.000000,100.000000,,,,,,,,,,,,,,,,
1644853163.645369,16.000000,0.000000,4228.589844,4233.589844,4202.563965,4235.384766,4220.641113,4211.410156,4210.128418,4210.256348,4209.871582,4200.256348,4189.102539,4168.846191,4186.410156,4220.512695,3469.000000,4.000000,91.000000,,,,0.000000,4.000000,4.000000,4.000000,4.000000,4.000000,4.000000,4.000000,4.000000,4.000000,4.000000,4.000000,4.000000,4.000000,4.000000,100.000000,,,,,,,,,,,,,,,,
1644853163.649309,17.000000,0.000000,4223.077148,4222.436035,4198.717773,4240.641113,4222.563965,4206.538574,4206.025879,4203.717773,4202.948730,4191.538574,4172.436035,4166.922852,4172.692383,4219.871582,3229.000000,4.000000,91.000000,,,,0.000000,4.000000,4.000000,4.000000,4.000000,4.000000,4.000000,4.000000,4.000000,4.000000,4.000000,4.000000,4.000000,4.000000,4.000000,100.000000,,,,,,,,,,,,,,,,
1644853163.653250,18.000000,0.000000,4217.179688,4215.000000,4193.589844,4246.153809,4223.717773,4203.846191,4202.436035,4198.974121,4195.769043,4183.461426,4162.179688,4167.179688,4157.051270,4242.436035,3597.000000,4.000000,91.000000,,,,0.000000,4.000000,4.000000,4.000000,4.000000,4.000000,4.000000,4.000000,4.000000,4.000000,4.000000,4.000000,4.000000,4.000000,4.000000,100.000000,,,,,,,,,,,,,,,,
1644853163.657190,19.000000,0.000000,4213.974121,4215.897461,4191.410156,4248.846191,4223.717773,4204.615234,4202.948730,4198.717773,4191.538574,4180.897461,4164.487305,4168.717773,4150.128418,4296.538574,3290.000000,4.000000,91.000000,,,,0.000000,4.000000,4.000000,4.000000,4.000000,4.000000,4.000000,4.000000,4.000000,4.000000,4.000000,4.000000,4.000000,4.000000,4.000000,100.000000,,,,,,,,,,,,,,,,
1644853163.661130,20.000000,0.000000,4215.256348,4223.974121,4194.102539,4246.538574,4222.179688,4207.563965,4207.307617,4202.051270,4191.666504,4185.512695,4176.282227,4169.743652,4156.153809,4370.256348,3469.000000,4.000000,91.000000,,,,0.000000,4.000000,4.000000,4.000000,4.000000,4.000000,4.000000,4.000000,4.000000,4.000000,4.000000,4.000000,4.000000,4.000000,4.000000,100.000000,,,,,,,,,,,,,,,,
1644853163.665070,21.000000,0.000000,4220.384766,4233.461426,4199.615234,4238.846191,4219.358887,4210.256348,4211.538574,4204.615234,4194.615234,4193.589844,4186.922852,4169.487305,4169.615234,4436.666504,3229.000000,4.000000,91.000000,,,,0.000000,4.000000,4.000000,4.000000,4.000000,4.000000,4.000000,4.000000,4.000000,4.000000,4.000000,4.000000,4.000000,4.000000,4.000000,100.000000,,,,,,,,,,,,,,,,
1644853163.669010,22.000000,0.000000,4227.179688,4238.461426,4203.974121,4228.461426,4216.794922,4210.769043,4212.563965,4203.333496,4197.563965,4198.205078,4187.051270,4169.487305,4180.641113,4472.563965,3597.000000,4.000000,91.000000,,,,0.000000,4.000000,4.000000,4.000000,4.000000,4.000000,4.000000,4.000000,4.000000,4.000000,4.000000,4.000000,4.000000,4.000000,4.000000,100.000000,,,,,,,,,,,,,,,,
1644853163.672950,23.000000,0.000000,4232.820313,4236.794922,4205.384766,4221.538574,4216.025879,4209.487305,4211.153809,4199.615234,4198.846191,4195.256348,4176.922852,4171.794922,4182.820313,4473.333496,3290.000000,4.000000,91.000000,,,,0.000000,4.000000,4.000000,4.000000,4.000000,4.000000,4.000000,4.000000,4.000000,4.000000,4.000000,4.000000,4.000000,4.000000,4.000000,100.000000,,,,,,,,,,,,,,,,
1644853163.676990,24.000000,0.000000,4235.000000,4231.410156,4205.000000,4223.717773,4217.948730,4209.102539,4211.025879,4197.563965,4198.461426,4187.563965,4166.794922,4176.922852,4177.307617,4455.128418,3469.000000,4.000000,91.000000,,,,0.000000,4.000000,4.000000,4.000000,4.000000,4.000000,4.000000,4.000000,4.000000,4.000000,4.000000,4.000000,4.000000,4.000000,4.000000,100.000000,,,,,,,,,,,,,,,,
1644853163.680930,25.000000,0.000000,4233.461426,4227.436035,4205.256348,4234.487305,4221.666504,4211.410156,4214.102539,4199.743652,4198.077148,4182.692383,4167.692383,4182.820313,4171.282227,4441.666504,3229.000000,4.000000,91.000000,,,,0.000000,4.000000,4.000000,4.000000,4.000000,4.000000,4.000000,4.000000,4.000000,4.000000,4.000000,4.000000,4.000000,4.000000,4.000000,100.000000,,,,,,,,,,,,,,,,
1644853163.684870,26.000000,0.000000,4230.256348,4227.948730,4206.794922,4247.179688,4225.000000,4215.641113,4217.820313,4204.615234,4199.230957,4186.153809,4182.820313,4186.666504,4171.282227,4446.922852,3597.000000,4.000000,91.000000,,,,0.000000,4.000000,4.000000,4.000000,4.000000,4.000000,4.000000,4.000000,4.000000,4.000000,4.000000,4.000000,4.000000,4.000000,4.000000,100.000000,,,,,,,,,,,,,,,,
1644853163.688810,27.000000,0.000000,4228.077148,4232.436035,4208.974121,4252.948730,4225.512695,4218.589844,4218.717773,4208.205078,4201.794922,4196.538574,4204.230957,4187.307617,4177.948730,4467.820313,3290.000000,4.000000,91.000000,,,,0.000000,4.000000,4.000000,4.000000,4.000000,4.000000,4.000000,4.000000,4.000000,4.000000,4.000000,4.000000,4.000000,4.000000,4.000000,100.000000,,,,,,,,,,,,,,,,
1644853163.692751,28.000000,0.000000,4228.846191,4237.692383,4211.025879,4248.333496,4222.563965,4218.077148,4216.538574,4208.589844,4204.615234,4206.153809,4218.205078,4186.666504,4186.794922,4490.000000,3469.000000,4.000000,91.000000,,,,0.000000,4.000000,4.000000,4.000000,4.000000,4.000000,4.000000,4.000000,4.000000,4.000000,4.000000,4.000000,4.000000,4.000000,4.000000,100.000000,,,,,,,,,,,,,,,,
1644853163.696691,29.000000,0.000000,4233.077148,4241.666504,4213.589844,4238.333496,4218.589844,4214.743652,4213.589844,4206.666504,4206.666504,4208.333496,4217.179688,4187.948730,4192.179688,4501.922852,3229.000000,4.000000,91.000000,,,,0.000000,4.000000,4.000000,4.000000,4.000000,4.000000,4.000000,4.000000,4.000000,4.000000,4.000000,4.000000,4.000000,4.000000,4.000000,100.000000,,,,,,,,,,,,,,,,
1644853163.700631,30.000000,0.000000,4239.743652,4244.615234,4217.948730,4232.179688,4218.333496,4211.922852,4212.948730,4205.897461,4208.589844,4203.205078,4205.128418,4192.948730,4192.820313,4501.794922,3597.000000,4.000000,91.000000,,,,0.000000,4.000000,4.000000,4.000000,4.000000,4.000000,4.000000,4.000000,4.000000,4.000000,4.000000,4.000000,4.000000,4.000000,4.000000,100.000000,,,,,,,,,,,,,,,,
1644853163.704571,31.000000,0.000000,4247.179688,4248.077148,4224.358887,4236.025879,4225.384766,4212.692383,4215.000000,4208.589844,4211.794922,4197.436035,4194.487305,4200.000000,4191.666504,4496.538574,3290.000000,4.000000,91.000000,,,,0.000000,4.000000,4.000000,4.000000,4.000000,4.000000,4.000000,4.000000,4.000000,4.000000,4.000000,4.000000,4.000000,4.000000,4.000000,100.000000,,,,,,,,,,,,,,,,
1644853163.708511,32.000000,0.000000,4253.461426,4252.692383,4231.153809,4248.333496,4238.974121,4216.922852,4218.333496,4214.358887,4216.538574,4198.205078,4194.871582,4205.769043,4192.436035,4493.846191,0.000000,4.000000,91.000000,,,,0.000000,4.000000,4.000000,4.000000,4.000000,4.000000,4.000000,4.000000,4.000000,4.000000,4.000000,4.000000,4.000000,4.000000,4.000000,100.000000,,,,,,,,,,,,,,,,
1644853163.712451,33.000000,0.000000,4256.282227,4257.948730,4236.410156,4261.666504,4253.077148,4221.282227,4221.538574,4220.384766,4220.384766,4205.897461,4205.769043,4207.563965,4195.256348,4496.794922,0.000000,4.000000,91.000000,,,,0.000000,4.000000,4.000000,4.000000,4.000000,4.000000,4.000000,4.000000,4.000000,4.000000,4.000000,4.000000,4.000000,4.000000,4.000000,100.000000,,,,,,,,,,,,,,,,
1644853163.716391,34.000000,0.000000,4254.871582,4262.179688,4239.487305,4268.077148,4259.871582,4221.794922,4223.717773,4223.846191,4220.897461,4213.974121,4218.333496,4206.410156,4196.794922,4504.615234,0.000000,4.000000,91.000000,,,,0.000000,4.000000,4.000000,4.000000,4.000000,4.000000,4.000000,4.000000,4.000000,4.000000,4.000000,4.000000,4.000000,4.000000,4.000000,100.000000,,,,,,,,,,,,,,,,
1644853163.720331,35.000000,0.000000,4250.512695,4264.358887,4240.769043,4264.102539,4255.128418,4218.333496,4224.102539,4223.717773,4218.077148,4215.256348,4223.461426,4205.384766,4195.256348,4515.256348,0.000000,4.000000,91.000000,,,,0.000000,4.000000,4.000000,4.000000,4.000000,4.000000,4.000000,4.000000,4.000000,4.000000,4.000000,4.000000,4.000000,4.000000,4.000000,100.000000,,,,,,,,,,,,,,,,
1644853163.724271,36.000000,0.000000,4246.666504,4264.230957,4240.641113,4253.974121,4242.179688,4214.230957,4222.179688,4221.410156,4214.743652,4209.743652,4219.102539,4207.051270,4192.948730,4525.384766,0.000000,4.000000,91.000000,,,,0.000000,4.000000,4.000000,4.000000,4.000000,4.000000,4.000000,4.000000,4.000000,4.000000,4.000000,4.000000,4.000000,4.000000,4.000000,100.000000,,,,,,,,,,,,,,,,
1644853163.728211,37.000000,0.000000,4246.153809,4262.051270,4238.333496,4245.897461,4229.102539,4212.948730,4218.333496,4218.333496,4213.461426,4202.948730,4209.871582,4211.025879,4194.230957,4530.512695,0.000000,4.000000,91.000000,,,,0.000000,4.000000,4.000000,4.000000,4.000000,4.000000,4.000000,4.000000,4.000000,4.000000,4.000000,4.000000,4.000000,4.000000,4.000000,100.000000,,,,,,,,,,,,,,,,
1644853163.732152,38.000000,0.000000,4248.974121,4258.077148,4233.077148,4246.153809,4223.205078,4215.128418,4214.615234,4215.256348,4213.717773,4200.897461,4201.794922,4213.333496,4199.487305,4526.922852,0.000000,4.000000,91.000000,,,,0.000000,4.000000,4.000000,4.000000,4.000000,4.000000,4.000000,4.000000,4.000000,4.000000,4.000000,4.000000,4.000000,4.000000,4.000000,100.000000,,,,,,,,,,,,,,,,
1644853163.736092,39.000000,0.000000,4252.307617,4252.436035,4224.743652,4253.461426,4225.256348,4217.820313,4213.333496,4212.051270,4212.948730,4204.487305,4197.307617,4210.000000,4203.717773,4515.641113,0.000000,4.000000,91.000000,,,,0.000000,4.000000,4.000000,4.000000,4.000000,4.000000,4.000000,4.000000,4.000000,4.000000,4.000000,4.000000,4.000000,4.000000,4.000000,100.000000,,,,,,,,,,,,,,,,
1644853163.740032,40.000000,0.000000,4252.692383,4246.153809,4214.615234,4260.128418,4230.384766,4217.820313,4214.358887,4209.102539,4209.230957,4209.615234,4195.384766,4199.487305,4202.051270,4504.102539,0.000000,4.000000,91.000000,,,,0.000000,4.000000,4.000000,4.000000,4.000000,4.000000,4.000000,4.000000,4.000000,4.000000,4.000000,4.000000,4.000000,4.000000,4.000000,100.000000,,,,,,,,,,,,,,,,
1644853163.743972,41.000000,0.000000,4248.846191,4241.153809,4205.641113,4258.205078,4232.563965,4214.230957,4215.512695,4207.051270,4203.589844,4211.153809,4194.615234,4185.641113,4195.384766,4501.025879,0.000000,4.000000,91.000000,,,,0.000000,4.000000,4.000000,4.000000,4.000000,4.000000,4.000000,4.000000,4.000000,4.000000,4.000000,4.000000,4.000000,4.000000,4.000000,100.000000,,,,,,,,,,,,,,,,
1644853163.747912,42.000000,0.000000,4242.563965,4239.230957,4201.666504,4247.051270,4229.615234,4208.974121,4215.256348,4206.282227,4199.615234,4207.563965,4193.974121,4175.384766,4190.384766,4509.358887,0.000000,4.000000,91.000000,,,,0.000000,4.000000,4.000000,4.000000,4.000000,4.000000,4.000000,4.000000,4.000000,4.000000,4.000000,4.000000,4.000000,4.000000,4.000000,100.000000,,,,,,,,,,,,,,,,
1644853163.751952,43.000000,0.000000,4236.025879,4240.641113,4204.743652,4233.333496,4224.102539,4205.769043,4214.615234,4207.051270,4200.128418,4201.922852,4191.922852,4174.743652,4192.051270,4522.179688,0.000000,4.000000,91.000000,,,,0.000000,4.000000,4.000000,4.000000,4.000000,4.000000,4.000000,4.000000,4.000000,4.000000,4.000000,4.000000,4.000000,4.000000,4.000000,100.000000,,,,,,,,,,,,,,,,
1644853163.755892,44.000000,0.000000,4229.102539,4242.436035,4212.692383,4225.128418,4219.871582,4206.794922,4215.512695,4209.230957,4204.743652,4198.461426,4187.820313,4183.846191,4197.948730,4527.307617,0.000000,4.000000,91.000000,,,,0.000000,4.000000,4.000000,4.000000,4.000000,4.000000,4.000000,4.000000,4.000000,4.000000,4.000000,4.000000,4.000000,4.000000,4.000000,100.000000,,,,,,,,,,,,,,,,
1644853163.759832,45.000000,0.000000,4220.641113,4241.410156,4219.230957,4226.282227,4220.000000,4211.410156,4217.820313,4211.666504,4209.615234,4198.205078,4183.205078,4195.897461,4200.256348,4518.461426,0.000000,4.000000,91.000000,,,,0.000000,4.000000,4.000000,4.000000,4.000000,4.000000,4.000000,4.000000,4.000000,4.000000,4.000000,4.000000,4.000000,4.000000,4.000000,100.000000,,,,,,,,,,,,,,,,
1644853163.763772,46.000000,0.000000,4212.051270,4236.282227,4218.846191,4233.974121,4225.000000,4216.025879,4218.333496,4212.436035,4210.769043,4198.974121,4182.948730,4202.820313,4193.717773,4500.256348,0.000000,4.000000,91.000000,,,,0.000000,4.000000,4.000000,4.000000,4.000000,4.000000,4.000000,4.000000,4.000000,4.000000,4.000000,4.000000,4.000000,4.000000,4.000000,100.000000,,,,,,,,,,,,,,,,
1644853163.767712,47.000000,0.000000,4207.179688,4229.230957,4211.153809,4242.179688,4233.205078,4217.948730,4215.128418,4210.641113,4207.692383,4197.948730,4190.128418,4200.769043,4180.897461,4484.743652,0.000000,4.000000,91.000000,,,,0.000000,4.000000,4.000000,4.000000,4.000000,4.000000,4.000000,4.000000,4.000000,4.000000,4.000000,4.000000,4.000000,4.000000,4.000000,100.000000,,,,,,,,,,,,,,,,
1644853163.771653,48.000000,0.000000,4208.974121,4224.102539,4201.410156,4245.897461,4240.897461,4216.922852,4210.384766,4207.692383,4203.333496,4194.743652,4201.666504,4192.820313,4168.589844,4480.897461,0.000000,4.000000,91.000000,,,,0.000000,4.000000,4.000000,4.000000,4.000000,4.000000,4.000000,4.000000,4.000000,4.000000,4.000000,4.000000,4.000000,4.000000,4.000000,100.000000,,,,,,,,,,,,,,,,
1644853163.775593,49.000000,0.000000,4215.769043,4223.333496,4196.410156,4244.487305,4242.948730,4214.871582,4208.333496,4205.641113,4201.282227,4191.410156,4209.615234,4185.769043,4162.820313,4487.436035,0.000000,4.000000,91.000000,,,,0.000000,4.000000,4.000000,4.000000,4.000000,4.000000,4.000000,4.000000,4.000000,4.000000,4.000000,4.000000,4.000000,4.000000,4.000000,100.000000,,,,,,,,,,,,,,,,
1644853163.779533,50.000000,0.000000,4222.179688,4225.897461,4199.102539,4241.153809,4236.538574,4214.102539,4210.897461,4205.769043,4202.563965,4189.871582,4207.307617,4184.743652,4163.846191,4495.641113,0.000000,4.000000,91.000000,,,,0.000000,4.000000,4.000000,4.000000,4.000000,4.000000,4.000000,4.000000,4.000000,4.000000,4.000000,4.000000,4.000000,4.000000,4.000000,100.000000,,,,,,,,,,,,,,,,
1644853163.783473,51.000000,0.000000,4224.230957,4229.358887,4206.538574,4241.153809,4223.846191,4215.384766,4214.615234,4207.051270,4206.153809,4190.128418,4195.897461,4190.384766,4168.717773,4497.436035,0.000000,4.000000,91.000000,,,,0.000000,4.000000,4.000000,4.000000,4.000000,4.000000,4.000000,4.000000,4.000000,4.000000,4.000000,4.000000,4.000000,4.000000,4.000000,100.000000,,,,,,,,,,,,,,,,
1644853163.787413,52.000000,0.000000,4223.077148,4232.179688,4213.333496,4246.794922,4212.179688,4217.307617,4215.000000,4208.461426,4209.358887,4191.025879,4184.230957,4199.102539,4174.358887,4493.846191,0.000000,4.000000,91.000000,,,,0.000000,4.000000,4.000000,4.000000,4.000000,4.000000,4.000000,4.000000,4.000000,4.000000,4.000000,4.000000,4.000000,4.000000,4.000000,100.000000,,,,,,,,,,,,,,,,
1644853163.791353,53.000000,0.000000,4224.487305,4235.897461,4216.153809,4255.641113,4209.358887,4217.692383,4211.538574,4209.615234,4211.025879,4192.948730,4182.820313,4205.897461,4181.025879,4493.077148,0.000000,4.000000,91.000000,,,,0.000000,4.000000,4.000000,4.000000,4.000000,4.000000,4.000000,4.000000,4.000000,4.000000,4.000000,4.000000,4.000000,4.000000,4.000000,100.000000,,,,,,,,,,,,,,,,
1644853163.795293,54.000000,0.000000,4233.846191,4242.692383,4216.666504,4262.692383,4217.948730,4215.769043,4208.205078,4211.794922,4211.794922,4197.820313,4196.410156,4208.077148,4191.282227,4503.077148,0.000000,4.000000,91.000000,,,,0.000000,4.000000,4.000000,4.000000,4.000000,4.000000,4.000000,4.000000,4.000000,4.000000,4.000000,4.000000,4.000000,4.000000,4.000000,100.000000,,,,,,,,,,,,,,,,
1644853163.799233,55.000000,0.000000,4250.641113,4253.333496,4218.846191,4264.615234,4234.743652,4213.846191,4208.846191,4215.897461,4213.974121,4207.563965,4220.128418,4206.666504,4206.538574,4524.230957,0.000000,4.000000,91.000000,,,,0.000000,4.000000,4.000000,4.000000,4.000000,4.000000,4.000000,4.000000,4.000000,4.000000,4.000000,4.000000,4.000000,4.000000,4.000000,100.000000,,,,,,,,,,,,,,,,
1644853163.803173,56.000000,0.000000,4268.205078,4265.641113,4225.256348,4262.179688,4252.307617,4215.128418,4212.563965,4220.897461,4218.461426,4221.282227,4241.538574,4205.128418,4223.589844,4547.436035,0.000000,4.000000,91.000000,,,,0.000000,4.000000,4.000000,4.000000,4.000000,4.000000,4.000000,4.000000,4.000000,4.000000,4.000000,4.000000,4.000000,4.000000,4.000000,100.000000,,,,,,,,,,,,,,,,
1644853163.807113,57.000000,0.000000,4278.974121,4275.641113,4234.615234,4259.358887,4263.846191,4220.256348,4215.384766,4224.615234,4223.589844,4234.615234,4249.102539,4206.794922,4236.025879,4560.769043,0.000000,4.000000,91.000000,,,,0.000000,4.000000,4.000000,4.000000,4.000000,4.000000,4.000000,4.000000,4.000000,4.000000,4.000000,4.000000,4.000000,4.000000,4.000000,100.000000,,,,,,,,,,,,,,,,
1644853163.811054,58.000000,0.000000,4279.102539,4279.230957,4242.692383,4259.743652,4264.871582,4226.922852,4215.000000,4225.000000,4226.153809,4241.410156,4240.641113,4211.538574,4239.358887,4558.846191,0.000000,4.000000,91.000000,,,,0.000000,4.000000,4.000000,4.000000,4.000000,4.000000,4.000000,4.000000,4.000000,4.000000,4.000000,4.000000,4.000000,4.000000,4.000000,100.000000,,,,,,,,,,,,,,,,
1644853163.814994,59.000000,0.000000,4271.666504,4275.128418,4245.897461,4263.974121,4256.153809,4231.025879,4213.077148,4222.692383,4224.102539,4237.436035,4224.230957,4216.153809,4233.717773,4545.769043,0.000000,4.000000,91.000000,,,,0.000000,4.000000,4.000000,4.000000,4.000000,4.000000,4.000000,4.000000,4.000000,4.000000,4.000000,4.000000,4.000000,4.000000,4.000000,100.000000,,,,,,,,,,,,,,,,
1644853163.818934,60.000000,0.000000,4262.436035,4266.153809,4243.717773,4269.615234,4242.948730,4230.384766,4212.179688,4219.743652,4218.974121,4224.358887,4211.666504,4217.051270,4224.102539,4532.051270,0.000000,4.000000,91.000000,,,,0.000000,4.000000,4.000000,4.000000,4.000000,4.000000,4.000000,4.000000,4.000000,4.000000,4.000000,4.000000,4.000000,4.000000,4.000000,100.000000,1.000000,75.000000,4.000000,4.000000,4.000000,4.000000,4.000000,4.000000,4.000000,4.000000,4.000000,4.000000,4.000000,4.000000,4.000000,1.000000
1644853163.822874,61.000000,0.000000,4255.769043,4257.820313,4238.333496,4272.948730,4232.692383,4225.256348,4212.692383,4217.948730,4214.743652,4210.256348,4210.000000,4213.846191,4216.025879,4525.128418,0.000000,4.000000,91.000000,,,,0.000000,4.000000,4.000000,4.000000,4.000000,4.000000,4.000000,4.000000,4.000000,4.000000,4.000000,4.000000,4.000000,4.000000,4.000000,100.000000,,,,,,,,,,,,,,,,
1644853163.826914,62.000000,0.000000,4252.051270,4253.589844,4232.692383,4271.666504,4229.230957,4218.333496,4212.820313,4217.563965,4214.615234,4203.846191,4216.410156,4208.974121,4211.922852,4524.871582,0.000000,4.000000,91.000000,,,,0.000000,4.000000,4.000000,4.000000,4.000000,4.000000,4.000000,4.000000,4.000000,4.000000,4.000000,4.000000,4.000000,4.000000,4.000000,100.000000,,,,,,,,,,,,,,,,
1644853163.830854,63.000000,0.000000,4248.333496,4253.333496,4228.717773,4266.410156,4230.128418,4213.333496,4212.051270,4217.948730,4217.692383,4207.563965,4222.307617,4205.384766,4209.615234,4525.641113,0.000000,4.000000,91.000000,,,,0.000000,4.000000,4.000000,4.000000,4.000000,4.000000,4.000000,4.000000,4.000000,4.000000,4.000000,4.000000,4.000000,4.000000,4.000000,100.000000,,,,,,,,,,,,,,,,
1644853163.834794,64.000000,0.000000,4242.051270,4253.077148,4225.769043,4259.743652,4229.487305,4212.051270,4211.410156,4218.077148,4220.384766,4214.743652,4220.769043,4202.820313,4205.512695,4522.436035,0.000000,4.000000,91.000000,,,,0.000000,4.000000,4.000000,4.000000,4.000000,4.000000,4.000000,4.000000,4.000000,4.000000,4.000000,4.000000,4.000000,4.000000,4.000000,100.000000,,,,,,,,,,,,,,,,
1644853163.838734,65.000000,0.000000,4234.102539,4249.743652,4222.692383,4254.102539,4224.358887,4213.717773,4212.051270,4217.307617,4218.974121,4215.256348,4211.153809,4199.358887,4198.589844,4515.000000,0.000000,4.000000,91.000000,,,,0.000000,4.000000,4.000000,4.000000,4.000000,4.000000,4.000000,4.000000,4.000000,4.000000,4.000000,4.000000,4.000000,4.000000,4.000000,100.000000,,,,,,,,,,,,,,,,
1644853163.842674,66.000000,0.000000,4228.205078,4243.461426,4218.333496,4250.000000,4216.922852,4216.025879,4212.820313,4215.256348,4213.589844,4205.000000,4198.333496,4193.461426,4191.410156,4507.051270,0.000000,4.000000,91.000000,,,,0.000000,4.000000,4.000000,4.000000,4.000000,4.000000,4.000000,4.000000,4.000000,4.000000,4.000000,4.000000,4.000000,4.000000,4.000000,100.000000,,,,,,,,,,,,,,,,
1644853163.846614,67.000000,0.000000,4226.794922,4237.179688,4213.077148,4247.051270,4211.794922,4216.025879,4211.666504,4212.436035,4207.051270,4189.743652,4188.846191,4185.641113,4187.051270,4501.282227,0.000000,4.000000,91.000000,,,,0.000000,4.000000,4.000000,4.000000,4.000000,4.000000,4.000000,4.000000,4.000000,4.000000,4.000000,4.000000,4.000000,4.000000,4.000000,100.000000,,,,,,,,,,,,,,,,
1644853163.850555,68.000000,0.000000,4227.563965,4233.717773,4208.461426,4244.358887,4211.025879,4212.692383,4208.846191,4209.487305,4202.307617,4179.358887,4186.410156,4178.205078,4185.384766,4497.436035,0.000000,4.000000,91.000000,,,,0.000000,4.000000,4.000000,4.000000,4.000000,4.000000,4.000000,4.000000,4.000000,4.000000,4.000000,4.000000,4.000000,4.000000,4.000000,100.000000,,,,,,,,,,,,,,,,
1644853163.854495,69.000000,0.000000,4225.897461,4233.077148,4205.897461,4241.794922,4212.820313,4207.179688,4207.179688,4207.563965,4200.256348,4178.461426,4189.487305,4173.077148,4183.589844,4493.717773,0.000000,4.000000,91.000000,,,,0.000000,4.000000,4.000000,4.000000,4.000000,4.000000,4.000000,4.000000,4.000000,4.000000,4.000000,4.000000,4.000000,4.000000,4.000000,100.000000,,,,,,,,,,,,,,,,
1644853163.858435,70.000000,0.000000,4219.358887,4232.948730,4205.641113,4239.615234,4215.000000,4202.307617,4208.846191,4206.794922,4199.743652,4183.974121,4193.974121,4170.641113,4179.615234,4488.589844,0.000000,4.000000,91.000000,,,,0.000000,4.000000,4.000000,4.000000,4.000000,4.000000,4.000000,4.000000,4.000000,4.000000,4.000000,4.000000,4.000000,4.000000,4.000000,100.000000,,,,,,,,,,,,,,,,
1644853163.862375,71.000000,0.000000,4210.897461,4230.512695,4206.153809,4237.820313,4216.282227,4200.641113,4212.563965,4206.410156,4199.230957,4189.487305,4195.512695,4170.256348,4174.358887,4482.307617,0.000000,4.000000,91.000000,,,,0.000000,4.000000,4.000000,4.000000,4.000000,4.000000,4.000000,4.000000,4.000000,4.000000,4.000000,4.000000,4.000000,4.000000,4.000000,100.000000,,,,,,,,,,,,,,,,
1644853163.866315,72.000000,0.000000,4204.871582,4225.769043,4206.025879,4236.410156,4216.666504,4202.948730,4214.871582,4205.641113,4198.205078,4190.641113,4193.589844,4170.897461,4170.641113,4476.538574,0.000000,4.000000,91.000000,,,,0.000000,4.000000,4.000000,4.000000,4.000000,4.000000,4.000000,4.000000,4.000000,4.000000,4.000000,4.000000,4.000000,4.000000,4.000000,100.000000,,,,,,,,,,,,,,,,
1644853163.870255,73.000000,0.000000,4203.461426,4220.512695,4204.871582,4234.615234,4215.641113,4207.820313,4213.846191,4204.102539,4196.666504,4187.692383,4190.512695,4171.794922,4171.025879,4472.820313,0.000000,4.000000,91.000000,,,,0.000000,4.000000,4.000000,4.000000,4.000000,4.000000,4.000000,4.000000,4.000000,4.000000,4.000000,4.000000,4.000000,4.000000,4.000000,100.000000,,,,,,,,,,,,,,,,
1644853163.874195,74.000000,0.000000,4205.641113,4218.333496,4203.717773,4232.563965,4212.820313,4212.692383,4211.794922,4202.307617,4195.641113,4183.589844,4189.358887,4171.922852,4174.358887,4472.692383,0.000000,4.000000,91.000000,,,,0.000000,4.000000,4.000000,4.000000,4.000000,4.000000,4.000000,4.000000,4.000000,4.000000,4.000000,4.000000,4.000000,4.000000,4.000000,100.000000,,,,,,,,,,,,,,,,
1644853163.878135,75.000000,0.000000,4208.589844,4221.410156,4203.974121,4231.025879,4210.000000,4215.769043,4211.922852,4201.922852,4195.641113,4181.410156,4190.512695,4172.051270,4177.692383,4476.922852,0.000000,4.000000,91.000000,,,,0.000000,4.000000,4.000000,4.000000,4.000000,4.000000,4.000000,4.000000,4.000000,4.000000,4.000000,4.000000,4.000000,4.000000,4.000000,100.000000,,,,,,,,,,,,,,,,
1644853163.882075,76.000000,0.000000,4210.641113,4229.358887,4205.512695,4230.897461,4210.000000,4216.794922,4215.256348,4203.846191,4197.051270,4182.436035,4192.179688,4173.846191,4179.230957,4484.871582,0.000000,4.000000,91.000000,,,,0.000000,4.000000,4.000000,4.000000,4.000000,4.000000,4.000000,4.000000,4.000000,4.000000,4.000000,4.000000,4.000000,4.000000,4.000000,100.000000,,,,,,,,,,,,,,,,
1644853163.886015,77.000000,0.000000,4212.307617,4238.461426,4207.820313,4232.307617,4214.615234,4217.051270,4219.102539,4207.820313,4200.512695,4186.025879,4192.307617,4178.205078,4178.846191,4492.948730,0.000000,4.000000,91.000000,,,,0.000000,4.000000,4.000000,4.000000,4.000000,4.000000,4.000000,4.000000,4.000000,4.000000,4.000000,4.000000,4.000000,4.000000,4.000000,100.000000,,,,,,,,,,,,,,,,
1644853163.889956,78.000000,0.000000,4215.897461,4243.846191,4210.769043,4233.846191,4222.820313,4217.948730,4220.897461,4212.179688,4205.512695,4190.897461,4192.051270,4184.102539,4178.205078,4496.666504,0.000000,4.000000,91.000000,,,,0.000000,4.000000,4.000000,4.000000,4.000000,4.000000,4.000000,4.000000,4.000000,4.000000,4.000000,4.000000,4.000000,4.000000,4.000000,100.000000,,,,,,,,,,,,,,,,
1644853163.893896,79.000000,0.000000,4222.436035,4242.436035,4214.230957,4234.743652,4229.743652,4219.487305,4220.256348,4215.000000,4210.384766,4195.769043,4193.717773,4188.846191,4178.461426,4494.102539,0.000000,4.000000,91.000000,,,,0.000000,4.000000,4.000000,4.000000,4.000000,4.000000,4.000000,4.000000,4.000000,4.000000,4.000000,4.000000,4.000000,4.000000,4.000000,100.000000,,,,,,,,,,,,,,,,
1644853163.897836,80.000000,0.000000,4229.743652,4235.641113,4217.563965,4235.384766,4230.384766,4220.641113,4218.589844,4215.512695,4212.563965,4199.358887,4198.846191,4190.641113,4180.256348,4487.179688,0.000000,4.000000,91.000000,,,,0.000000,4.000000,4.000000,4.000000,4.000000,4.000000,4.000000,4.000000,4.000000,4.000000,4.000000,4.000000,4.000000,4.000000,4.000000,100.000000,,,,,,,,,,,,,,,,
1644853163.901876,81.000000,0.000000,4233.461426,4227.948730,4219.358887,4236.666504,4223.333496,4219.871582,4216.794922,4213.461426,4210.641113,4200.000000,4205.897461,4190.000000,4182.307617,4480.769043,0.000000,4.000000,91.000000,,,,0.000000,4.000000,4.000000,4.000000,4.000000,4.000000,4.000000,4.000000,4.000000,4.000000,4.000000,4.000000,4.000000,4.000000,4.000000,100.000000,,,,,,,,,,,,,,,,
1644853163.905816,82.000000,0.000000,4230.128418,4223.589844,4218.589844,4238.077148,4212.179688,4218.205078,4215.000000,4210.000000,4205.641113,4196.153809,4211.282227,4188.846191,4182.948730,4478.461426,0.000000,4.000000,91.000000,,,,0.000000,4.000000,4.000000,4.000000,4.000000,4.000000,4.000000,4.000000,4.000000,4.000000,4.000000,4.000000,4.000000,4.000000,4.000000,100.000000,,,,,,,,,,,,,,,,
1644853163.909756,83.000000,0.000000,4220.641113,4224.743652,4215.000000,4237.692383,4203.846191,4217.051270,4213.205078,4207.051270,4200.641113,4188.077148,4211.794922,4188.717773,4180.641113,4480.641113,0.000000,4.000000,91.000000,,,,0.000000,4.000000,4.000000,4.000000,4.000000,4.000000,4.000000,4.000000,4.000000,4.000000,4.000000,4.000000,4.000000,4.000000,4.000000,100.000000,,,,,,,,,,,,,,,,
1644853163.913696,84.000000,0.000000,4210.384766,4230.384766,4210.128418,4233.589844,4203.846191,4217.436035,4212.692383,4206.282227,4198.077148,4179.230957,4206.922852,4188.461426,4175.897461,4485.384766,0.000000,4.000000,91.000000,,,,0.000000,4.000000,4.000000,4.000000,4.000000,4.000000,4.000000,4.000000,4.000000,4.000000,4.000000,4.000000,4.000000,4.000000,4.000000,100.000000,,,,,,,,,,,,,,,,
1644853163.917636,85.000000,0.000000,4206.025879,4237.179688,4205.769043,4226.538574,4212.179688,4217.820313,4214.230957,4207.307617,4198.205078,4174.615234,4199.487305,4186.794922,4171.922852,4490.769043,0.000000,4.000000,91.000000,,,,0.000000,4.000000,4.000000,4.000000,4.000000,4.000000,4.000000,4.000000,4.000000,4.000000,4.000000,4.000000,4.000000,4.000000,4.000000,100.000000,,,,,,,,,,,,,,,,
1644853163.921576,86.000000,0.000000,4210.897461,4241.794922,4203.333496,4220.641113,4222.948730,4216.666504,4216.282227,4207.948730,4198.974121,4176.922852,4193.974121,4182.948730,4173.589844,4495.512695,0.000000,4.000000,91.000000,,,,0.000000,4.000000,4.000000,4.000000,4.000000,4.000000,4.000000,4.000000,4.000000,4.000000,4.000000,4.000000,4.000000,4.000000,4.000000,100.000000,,,,,,,,,,,,,,,,
1644853163.925516,87.000000,0.000000,4222.563965,4242.692383,4202.307617,4220.512695,4228.205078,4212.948730,4216.025879,4206.153809,4198.333496,4184.743652,4193.333496,4178.077148,4182.436035,4499.358887,0.000000,4.000000,91.000000,,,,0.000000,4.000000,4.000000,4.000000,4.000000,4.000000,4.000000,4.000000,4.000000,4.000000,4.000000,4.000000,4.000000,4.000000,4.000000,100.000000,,,,,,,,,,,,,,,,
1644853163.929457,88.000000,0.000000,4234.487305,4241.153809,4202.179688,4227.692383,4224.230957,4208.589844,4212.948730,4201.794922,4196.153809,4193.077148,4197.307617,4174.230957,4195.641113,4502.563965,0.000000,4.000000,91.000000,,,,0.000000,4.000000,4.000000,4.000000,4.000000,4.000000,4.000000,4.000000,4.000000,4.000000,4.000000,4.000000,4.000000,4.000000,4.000000,100.000000,,,,,,,,,,,,,,,,
1644853163.933397,89.000000,0.000000,4240.897461,4239.358887,4202.948730,4238.077148,4214.487305,4206.666504,4209.358887,4197.820313,4194.102539,4196.922852,4203.333496,4173.974121,4207.692383,4505.256348,0.000000,4.000000,91.000000,,,,0.000000,4.000000,4.000000,4.000000,4.000000,4.000000,4.000000,4.000000,4.000000,4.000000,4.000000,4.000000,4.000000,4.000000,4.000000,100.000000,,,,,,,,,,,,,,,,
1644853163.937337,90.000000,0.000000,4240.641113,4238.461426,4204.615234,4244.615234,4207.307617,4208.846191,4208.589844,4197.692383,4193.846191,4195.384766,4208.205078,4177.692383,4215.000000,4506.538574,0.000000,4.000000,91.000000,,,,0.000000,4.000000,4.000000,4.000000,4.000000,4.000000,4.000000,4.000000,4.000000,4.000000,4.000000,4.000000,4.000000,4.000000,4.000000,100.000000,,,,,,,,,,,,,,,,
1644853163.941277,91.000000,0.000000,4236.025879,4237.820313,4206.666504,4241.794922,4208.077148,4213.461426,4210.641113,4201.538574,4195.512695,4191.025879,4210.384766,4183.717773,4217.051270,4504.871582,0.000000,4.000000,91.000000,,,,0.000000,4.000000,4.000000,4.000000,4.000000,4.000000,4.000000,4.000000,4.000000,4.000000,4.000000,4.000000,4.000000,4.000000,4.000000,100.000000,,,,,,,,,,,,,,,,
1644853163.945217,92.000000,0.000000,4230.256348,4235.897461,4207.692383,4230.128418,4214.743652,4217.563965,4212.307617,4206.025879,4197.436035,4187.563965,4210.000000,4188.333496,4215.000000,4499.487305,0.000000,4.000000,91.000000,,,,0.000000,4.000000,4.000000,4.000000,4.000000,4.000000,4.000000,4.000000,4.000000,4.000000,4.000000,4.000000,4.000000,4.000000,4.000000,100.000000,,,,,,,,,,,,,,,,
1644853163.949157,93.000000,0.000000,4224.615234,4231.666504,4207.436035,4217.051270,4220.641113,4218.717773,4211.282227,4207.436035,4197.820313,4186.666504,4207.179688,4188.974121,4210.512695,4491.922852,0.000000,4.000000,91.000000,,,,0.000000,4.000000,4.000000,4.000000,4.000000,4.000000,4.000000,4.000000,4.000000,4.000000,4.000000,4.000000,4.000000,4.000000,4.000000,100.000000,,,,,,,,,,,,,,,,
1644853163.953097,94.000000,0.000000,4219.743652,4226.410156,4206.922852,4211.410156,4220.641113,4216.538574,4208.717773,4205.256348,4196.410156,4187.179688,4202.820313,4186.410156,4205.000000,4484.743652,0.000000,4.000000,91.000000,,,,0.000000,4.000000,4.000000,4.000000,4.000000,4.000000,4.000000,4.000000,4.000000,4.000000,4.000000,4.000000,4.000000,4.000000,4.000000,100.000000,,,,,,,,,,,,,,,,
1644853163.957037,95.000000,0.000000,4216.153809,4223.589844,4206.922852,4218.205078,4216.282227,4213.205078,4208.205078,4202.307617,4194.871582,4187.948730,4199.358887,4184.102539,4200.256348,4480.128418,0.000000,4.000000,91.000000,,,,0.000000,4.000000,4.000000,4.000000,4.000000,4.000000,4.000000,4.000000,4.000000,4.000000,4.000000,4.000000,4.000000,4.000000,4.000000,100.000000,,,,,,,,,,,,,,,,
1644853163.960977,96.000000,0.000000,4214.871582,4225.000000,4208.589844,4233.461426,4212.820313,4211.922852,4210.897461,4202.436035,4195.641113,4188.717773,4200.128418,4185.384766,4198.077148,4478.077148,0.000000,4.000000,91.000000,,,,0.000000,4.000000,4.000000,4.000000,4.000000,4.000000,4.000000,4.000000,4.000000,4.000000,4.000000,4.000000,4.000000,4.000000,4.000000,100.000000,,,,,,,,,,,,,,,,
1644853163.964917,97.000000,0.000000,4216.025879,4228.846191,4211.922852,4246.922852,4213.589844,4214.615234,4214.871582,4205.897461,4199.487305,4190.512695,4207.179688,4190.256348,4199.102539,4477.051270,0.000000,4.000000,91.000000,,,,0.000000,4.000000,4.000000,4.000000,4.000000,4.000000,4.000000,4.000000,4.000000,4.000000,4.000000,4.000000,4.000000,4.000000,4.000000,100.000000,,,,,,,,,,,,,,,,
1644853163.968858,98.000000,0.000000,4218.205078,4231.153809,4215.641113,4249.871582,4216.922852,4220.000000,4217.179688,4209.743652,4204.615234,4192.948730,4217.307617,4195.512695,4202.563965,4475.128418,0.000000,4.000000,91.000000,,,,0.000000,4.000000,4.000000,4.000000,4.000000,4.000000,4.000000,4.000000,4.000000,4.000000,4.000000,4.000000,4.000000,4.000000,4.000000,100.000000,,,,,,,,,,,,,,,,
1644853163.972798,99.000000,0.000000,4218.974121,4228.461426,4218.205078,4242.179688,4217.948730,4224.615234,4216.794922,4211.025879,4207.307617,4194.358887,4224.230957,4197.179688,4205.769043,4472.563965,0.000000,4.000000,91.000000,,,,0.000000,4.000000,4.000000,4.000000,4.000000,4.000000,4.000000,4.000000,4.000000,4.000000,4.000000,4.000000,4.000000,4.000000,4.000000,100.000000,,,,,,,,,,,,,,,,
1644853163.976838,100.000000,0.000000,4216.794922,4221.282227,4218.974121,4231.025879,4213.589844,4225.384766,4215.128418,4208.846191,4206.153809,4193.333496,4222.563965,4194.230957,4206.794922,4470.897461,0.000000,4.000000,91.000000,,,,0.000000,4.000000,4.000000,4.000000,4.000000,4.000000,4.000000,4.000000,4.000000,4.000000,4.000000,4.000000,4.000000,4.000000,4.000000,100.000000,,,,,,,,,,,,,,,,
1644853163.980778,101.000000,0.000000,4212.948730,4213.589844,4218.077148,4225.512695,4206.025879,4221.794922,4213.846191,4205.897461,4202.948730,4191.794922,4213.589844,4189.871582,4204.743652,4471.794922,0.000000,4.000000,91.000000,,,,0.000000,4.000000,4.000000,4.000000,4.000000,4.000000,4.000000,4.000000,4.000000,4.000000,4.000000,4.000000,4.000000,4.000000,4.000000,100.000000,,,,,,,,,,,,,,,,
1644853163.984718,102.000000,0.000000,4210.897461,4210.897461,4216.410156,4229.358887,4201.282227,4216.538574,4212.563965,4204.871582,4202.179688,4193.589844,4203.974121,4188.077148,4201.282227,4475.256348,0.000000,4.000000,91.000000,,,,0.000000,4.000000,4.000000,4.000000,4.000000,4.000000,4.000000,4.000000,4.000000,4.000000,4.000000,4.000000,4.000000,4.000000,4.000000,100.000000,,,,,,,,,,,,,,,,
1644853163.988658,103.000000,0.000000,4213.333496,4215.128418,4215.256348,4239.615234,4204.615234,4212.948730,4210.897461,4207.179688,4206.666504,4200.384766,4201.410156,4190.641113,4199.230957,4478.974121,0.000000,4.000000,91.000000,,,,0.000000,4.000000,4.000000,4.000000,4.000000,4.000000,4.000000,4.000000,4.000000,4.000000,4.000000,4.000000,4.000000,4.000000,4.000000,100.000000,,,,,,,,,,,,,,,,
1644853163.992598,104.000000,0.000000,4219.615234,4223.974121,4215.000000,4248.846191,4215.256348,4212.948730,4210.128418,4211.153809,4214.230957,4208.717773,4208.717773,4196.025879,4200.384766,4479.871582,0.000000,4.000000,91.000000,,,,0.000000,4.000000,4.000000,4.000000,4.000000,4.000000,4.000000,4.000000,4.000000,4.000000,4.000000,4.000000,4.000000,4.000000,4.000000,100.000000,,,,,,,,,,,,,,,,
1644853163.996538,105.000000,0.000000,4225.769043,4231.922852,4215.128418,4250.897461,4227.307617,4215.897461,4211.666504,4214.102539,4219.743652,4212.820313,4221.282227,4201.153809,4203.846191,4475.256348,0.000000,4.000000,91.000000,,,,0.000000,4.000000,4.000000,4.000000,4.000000,4.000000,4.000000,4.000000,4.000000,4.000000,4.000000,4.000000,4.000000,4.000000,4.000000,100.000000,,,,,,,,,,,,,,,,
1644853164.000478,106.000000,0.000000,4228.974121,4235.128418,4214.743652,4244.871582,4234.102539,4219.358887,4214.615234,4214.615234,4219.102539,4210.384766,4230.897461,4203.589844,4207.179688,4465.512695,0.000000,4.000000,91.000000,,,,0.000000,4.000000,4.000000,4.000000,4.000000,4.000000,4.000000,4.000000,4.000000,4.000000,4.000000,4.000000,4.000000,4.000000,4.000000,100.000000,,,,,,,,,,,,,,,,
1644853164.004418,107.000000,0.000000,4229.615234,4234.230957,4212.948730,4234.487305,4232.563965,4220.512695,4215.384766,4212.563965,4213.205078,4204.358887,4231.538574,4202.563965,4209.487305,4454.615234,0.000000,4.000000,91.000000,,,,0.000000,4.000000,4.000000,4.000000,4.000000,4.000000,4.000000,4.000000,4.000000,4.000000,4.000000,4.000000,4.000000,4.000000,4.000000,100.000000,,,,,,,,,,,,,,,,
1644853164.008359,108.000000,0.000000,4230.000000,4232.820313,4210.897461,4225.512695,4225.384766,4218.461426,4211.794922,4209.615234,4206.922852,4200.128418,4223.717773,4199.230957,4212.179688,4449.487305,0.000000,4.000000,91.000000,,,,0.000000,4.000000,4.000000,4.000000,4.000000,4.000000,4.000000,4.000000,4.000000,4.000000,4.000000,4.000000,4.000000,4.000000,4.000000,100.000000,,,,,,,,,,,,,,,,
1644853164.012299,109.000000,0.000000,4231.794922,4233.846191,4210.384766,4221.666504,4218.717773,4214.615234,4206.538574,4207.948730,4204.615234,4200.384766,4213.077148,4196.153809,4216.794922,4454.615234,0.000000,4.000000,91.000000,,,,0.000000,4.000000,4.000000,4.000000,4.000000,4.000000,4.000000,4.000000,4.000000,4.000000,4.000000,4.000000,4.000000,4.000000,4.000000,100.000000,,,,,,,,,,,,,,,,
1644853164.016239,110.000000,0.000000,4233.205078,4236.153809,4212.692383,4222.820313,4216.666504,4211.666504,4203.974121,4208.077148,4206.666504,4203.077148,4206.153809,4195.256348,4222.563965,4467.436035,0.000000,4.000000,91.000000,,,,0.000000,4.000000,4.000000,4.000000,4.000000,4.000000,4.000000,4.000000,4.000000,4.000000,4.000000,4.000000,4.000000,4.000000,4.000000,100.000000,,,,,,,,,,,,,,,,
1644853164.020179,111.000000,0.000000,4231.025879,4236.666504,4216.410156,4227.179688,4218.333496,4212.051270,4206.153809,4208.717773,4209.102539,4204.487305,4206.410156,4196.922852,4226.538574,4479.102539,0.000000,4.000000,91.000000,,,,0.000000,4.000000,4.000000,4.000000,4.000000,4.000000,4.000000,4.000000,4.000000,4.000000,4.000000,4.000000,4.000000,4.000000,4.000000,100.000000,,,,,,,,,,,,,,,,
1644853164.024119,112.000000,0.000000,4224.743652,4233.333496,4219.358887,4232.948730,4219.743652,4215.256348,4209.871582,4207.307617,4208.461426,4203.077148,4212.948730,4199.358887,4226.410156,4482.051270,0.000000,4.000000,91.000000,,,,0.000000,4.000000,4.000000,4.000000,4.000000,4.000000,4.000000,4.000000,4.000000,4.000000,4.000000,4.000000,4.000000,4.000000,4.000000,100.000000,,,,,,,,,,,,,,,,
1644853164.028059,113.000000,0.000000,4217.563965,4227.563965,4219.615234,4239.230957,4218.205078,4219.102539,4211.282227,4202.436035,4204.102539,4200.641113,4221.538574,4200.769043,4223.589844,4475.897461,0.000000,4.000000,91.000000,,,,0.000000,4.000000,4.000000,4.000000,4.000000,4.000000,4.000000,4.000000,4.000000,4.000000,4.000000,4.000000,4.000000,4.000000,4.000000,100.000000,,,,,,,,,,,,,,,,
1644853164.031999,114.000000,0.000000,4214.743652,4223.461426,4217.563965,4245.256348,4214.615234,4220.897461,4209.358887,4196.282227,4198.846191,4200.512695,4227.692383,4200.384766,4221.282227,4466.922852,0.000000,4.000000,91.000000,,,,0.000000,4.000000,4.000000,4.000000,4.000000,4.000000,4.000000,4.000000,4.000000,4.000000,4.000000,4.000000,4.000000,4.000000,4.000000,100.000000,,,,,,,,,,,,,,,,
1644853164.035939,115.000000,0.000000,4218.717773,4224.743652,4215.128418,4249.487305,4211.538574,4219.871582,4207.820313,4192.307617,4196.153809,4203.717773,4229.358887,4198.974121,4221.153809,4461.153809,0.000000,4.000000,91.000000,,,,0.000000,4.000000,4.000000,4.000000,4.000000,4.000000,4.000000,4.000000,4.000000,4.000000,4.000000,4.000000,4.000000,4.000000,4.000000,100.000000,,,,,,,,,,,,,,,,
1644853164.039879,116.000000,0.000000,4227.051270,4232.563965,4214.615234,4250.769043,4210.769043,4217.563965,4209.230957,4192.948730,4197.051270,4208.846191,4227.692383,4198.461426,4222.307617,4459.487305,0.000000,4.000000,91.000000,,,,0.000000,4.000000,4.000000,4.000000,4.000000,4.000000,4.000000,4.000000,4.000000,4.000000,4.000000,4.000000,4.000000,4.000000,4.000000,100.000000,,,,,,,,,,,,,,,,
1644853164.043720,117.000000,0.000000,4235.000000,4243.205078,4216.922852,4249.743652,4212.051270,4215.897461,4212.307617,4197.436035,4200.769043,4212.051270,4225.897461,4200.769043,4223.077148,4457.563965,0.000000,4.000000,91.000000,,,,0.000000,4.000000,4.000000,4.000000,4.000000,4.000000,4.000000,4.000000,4.000000,4.000000,4.000000,4.000000,4.000000,4.000000,4.000000,100.000000,,,,,,,,,,,,,,,,
1644853164.047660,118.000000,0.000000,4239.487305,4251.025879,4221.153809,4248.333496,4214.358887,4215.384766,4213.717773,4202.179688,4205.128418,4211.153809,4226.922852,4206.153809,4223.205078,4452.692383,0.000000,4.000000,91.000000,,,,0.000000,4.000000,4.000000,4.000000,4.000000,4.000000,4.000000,4.000000,4.000000,4.000000,4.000000,4.000000,4.000000,4.000000,4.000000,100.000000,,,,,,,,,,,,,,,,
1644853164.051600,119.000000,0.000000,4241.153809,4251.922852,4225.769043,4248.077148,4216.922852,4215.897461,4211.922852,4204.743652,4207.820313,4207.179688,4231.153809,4213.077148,4223.717773,4446.538574,0.000000,4.000000,91.000000,,,,0.000000,4.000000,4.000000,4.000000,4.000000,4.000000,4.000000,4.000000,4.000000,4.000000,4.000000,4.000000,4.000000,4.000000,4.000000,100.000000,,,,,,,,,,,,,,,,
1644853164.055540,120.000000,0.000000,4242.179688,4247.307617,4229.358887,4249.102539,4219.230957,4216.922852,4209.230957,4205.128418,4208.461426,4204.102539,4236.794922,4218.717773,4226.025879,4445.000000,0.000000,4.000000,91.000000,,,,0.000000,4.000000,4.000000,4.000000,4.000000,4.000000,4.000000,4.000000,4.000000,4.000000,4.000000,4.000000,4.000000,4.000000,4.000000,100.000000,,,,,,,,,,,,,,,,
1644853164.059480,121.000000,0.000000,4244.230957,4243.077148,4231.666504,4250.128418,4221.922852,4218.333496,4208.333496,4205.256348,4207.820313,4205.897461,4241.282227,4220.512695,4230.769043,4450.897461,0.000000,4.000000,91.000000,,,,0.000000,4.000000,4.000000,4.000000,4.000000,4.000000,4.000000,4.000000,4.000000,4.000000,4.000000,4.000000,4.000000,4.000000,4.000000,100.000000,,,,,,,,,,,,,,,,
1644853164.063420,122.000000,0.000000,4247.307617,4244.743652,4232.948730,4250.512695,4225.512695,4219.487305,4208.974121,4206.153809,4207.436035,4212.436035,4242.563965,4217.948730,4237.820313,4460.256348,0.000000,4.000000,91.000000,,,,0.000000,4.000000,4.000000,4.000000,4.000000,4.000000,4.000000,4.000000,4.000000,4.000000,4.000000,4.000000,4.000000,4.000000,4.000000,100.000000,,,,,,,,,,,,,,,,
1644853164.067360,123.000000,0.000000,4249.743652,4251.922852,4232.692383,4250.769043,4228.974121,4219.871582,4208.974121,4207.563965,4207.820313,4220.641113,4240.384766,4213.461426,4245.384766,4465.000000,0.000000,4.000000,91.000000,,,,0.000000,4.000000,4.000000,4.000000,4.000000,4.000000,4.000000,4.000000,4.000000,4.000000,4.000000,4.000000,4.000000,4.000000,4.000000,100.000000,,,,,,,,,,,,,,,,
1644853164.071300,124.000000,0.000000,4248.974121,4258.077148,4230.128418,4251.282227,4230.000000,4218.974121,4207.692383,4208.717773,4208.974121,4226.410156,4236.538574,4209.615234,4251.153809,4459.487305,0.000000,4.000000,91.000000,,,,0.000000,4.000000,4.000000,4.000000,4.000000,4.000000,4.000000,4.000000,4.000000,4.000000,4.000000,4.000000,4.000000,4.000000,4.000000,100.000000,,,,,,,,,,,,,,,,
1644853164.075240,125.000000,0.000000,4243.205078,4255.897461,4225.256348,4252.179688,4226.922852,4217.563965,4206.794922,4209.871582,4210.256348,4228.461426,4233.461426,4207.948730,4253.589844,4445.769043,0.000000,4.000000,91.000000,,,,0.000000,4.000000,4.000000,4.000000,4.000000,4.000000,4.000000,4.000000,4.000000,4.000000,4.000000,4.000000,4.000000,4.000000,4.000000,100.000000,,,,,,,,,,,,,,,,
1644853164.079181,126.000000,0.000000,4233.077148,4244.615234,4220.384766,4253.077148,4222.436035,4217.307617,4208.461426,4211.666504,4211.282227,4228.077148,4232.948730,4208.717773,4253.333496,4431.538574,0.000000,4.000000,91.000000,,,,0.000000,4.000000,4.000000,4.000000,4.000000,4.000000,4.000000,4.000000,4.000000,4.000000,4.000000,4.000000,4.000000,4.000000,4.000000,100.000000,,,,,,,,,,,,,,,,
1644853164.083121,127.000000,0.000000,4222.563965,4231.025879,4218.077148,4253.846191,4220.641113,4220.000000,4212.051270,4214.615234,4212.948730,4227.563965,4234.615234,4210.769043,4253.461426,4424.487305,0.000000,4.000000,91.000000,,,,0.000000,4.000000,4.000000,4.000000,4.000000,4.000000,4.000000,4.000000,4.000000,4.000000,4.000000,4.000000,4.000000,4.000000,4.000000,100.000000,,,,,,,,,,,,,,,,
1644853164.087061,128.000000,0.000000,4217.307617,4224.487305,4219.743652,4253.717773,4224.358887,4225.384766,4215.384766,4218.205078,4215.897461,4227.692383,4236.538574,4214.358887,4256.025879,4426.666504,3409.000000,4.000000,91.000000,,,,0.000000,4.000000,4.000000,4.000000,4.000000,4.000000,4.000000,4.000000,4.000000,4.000000,4.000000,4.000000,4.000000,4.000000,4.000000,100.000000,,,,,,,,,,,,,,,,
