title:Alex-jTXj1uEnCg1dwN6Dxz-Sdg, start timestamp:1645707238.796383, stop timestamp:1645707264.840484, headset type:EPOCPLUS, headset serial:3B9AEBFF, headset firmware:626, channels:55, sampling rate:eeg_256, samples:6611      , version:2.1, 
Timestamp,OriginalTimestamp,EEG.Counter,EEG.Interpolated,EEG.AF3,EEG.F7,EEG.F3,EEG.FC5,EEG.T7,EEG.P7,EEG.O1,EEG.O2,EEG.P8,EEG.T8,EEG.FC6,EEG.F4,EEG.F8,EEG.AF4,EEG.RawCq,EEG.Battery,EEG.BatteryPercent,MarkerIndex,MarkerType,MarkerValueInt,EEG.MarkerHardware,CQ.AF3,CQ.F7,CQ.F3,CQ.FC5,CQ.T7,CQ.P7,CQ.O1,CQ.O2,CQ.P8,CQ.T8,CQ.FC6,CQ.F4,CQ.F8,CQ.AF4,CQ.Overall,EQ.SampleRateQuality,EQ.OVERALL,EQ.AF3,EQ.F7,EQ.F3,EQ.FC5,EQ.T7,EQ.P7,EQ.O1,EQ.O2,EQ.P8,EQ.T8,EQ.FC6,EQ.F4,EQ.F8,EQ.AF4
1645707238.796383,1645707238.801969,190.000000,0.000000,4201.794922,4196.794922,4210.641113,4205.897461,4210.512695,4212.051270,4215.256348,4203.974121,4213.461426,4214.871582,4205.641113,4199.358887,4228.846191,4217.051270,3145.000000,4.000000,95.000000,,,,0.000000,4.000000,4.000000,4.000000,4.000000,4.000000,4.000000,4.000000,4.000000,4.000000,4.000000,4.000000,4.000000,4.000000,4.000000,100.000000,,,,,,,,,,,,,,,,
1645707238.800323,1645707238.806009,191.000000,0.000000,4206.025879,4199.871582,4210.128418,4208.717773,4213.077148,4215.512695,4215.641113,4206.153809,4215.256348,4216.282227,4205.384766,4198.589844,4226.666504,4222.436035,3418.000000,4.000000,95.000000,,,,0.000000,4.000000,4.000000,4.000000,4.000000,4.000000,4.000000,4.000000,4.000000,4.000000,4.000000,4.000000,4.000000,4.000000,4.000000,100.000000,,,,,,,,,,,,,,,,
1645707238.804263,1645707238.809949,192.000000,0.000000,4210.128418,4202.436035,4209.871582,4214.743652,4215.897461,4217.436035,4214.487305,4207.051270,4216.025879,4218.205078,4207.051270,4197.436035,4226.922852,4226.410156,3424.000000,4.000000,95.000000,,,,0.000000,4.000000,4.000000,4.000000,4.000000,4.000000,4.000000,4.000000,4.000000,4.000000,4.000000,4.000000,4.000000,4.000000,4.000000,100.000000,,,,,,,,,,,,,,,,
1645707238.808204,1645707238.813889,193.000000,0.000000,4211.153809,4203.333496,4210.897461,4220.128418,4216.922852,4216.410156,4213.974121,4207.948730,4215.769043,4220.128418,4210.256348,4198.333496,4229.615234,4227.436035,3156.000000,4.000000,95.000000,,,,0.000000,4.000000,4.000000,4.000000,4.000000,4.000000,4.000000,4.000000,4.000000,4.000000,4.000000,4.000000,4.000000,4.000000,4.000000,100.000000,,,,,,,,,,,,,,,,
1645707238.812144,1645707238.817829,194.000000,0.000000,4209.102539,4202.179688,4212.307617,4221.538574,4215.512695,4213.333496,4215.384766,4210.000000,4215.128418,4222.179688,4214.487305,4201.922852,4233.077148,4226.794922,3145.000000,4.000000,95.000000,,,,0.000000,4.000000,4.000000,4.000000,4.000000,4.000000,4.000000,4.000000,4.000000,4.000000,4.000000,4.000000,4.000000,4.000000,4.000000,100.000000,,,,,,,,,,,,,,,,
1645707238.816084,1645707238.821769,195.000000,0.000000,4206.282227,4200.512695,4212.436035,4219.230957,4213.461426,4211.153809,4217.436035,4213.205078,4215.128418,4225.256348,4219.358887,4207.051270,4236.025879,4227.563965,3418.000000,4.000000,95.000000,,,,0.000000,4.000000,4.000000,4.000000,4.000000,4.000000,4.000000,4.000000,4.000000,4.000000,4.000000,4.000000,4.000000,4.000000,4.000000,100.000000,,,,,,,,,,,,,,,,
1645707238.820024,1645707238.825709,196.000000,0.000000,4205.256348,4199.230957,4210.769043,4215.897461,4213.205078,4212.051270,4217.948730,4216.153809,4217.051270,4229.230957,4224.487305,4211.153809,4237.948730,4231.025879,3424.000000,4.000000,95.000000,,,,0.000000,4.000000,4.000000,4.000000,4.000000,4.000000,4.000000,4.000000,4.000000,4.000000,4.000000,4.000000,4.000000,4.000000,4.000000,100.000000,,,,,,,,,,,,,,,,
1645707238.823964,1645707238.829649,197.000000,0.000000,4206.153809,4199.487305,4208.717773,4214.743652,4215.384766,4215.256348,4216.282227,4217.563965,4220.769043,4232.307617,4228.589844,4212.692383,4238.461426,4235.384766,3156.000000,4.000000,95.000000,,,,0.000000,4.000000,4.000000,4.000000,4.000000,4.000000,4.000000,4.000000,4.000000,4.000000,4.000000,4.000000,4.000000,4.000000,4.000000,100.000000,,,,,,,,,,,,,,,,
1645707238.827904,1645707238.833589,198.000000,0.000000,4207.307617,4201.153809,4208.077148,4217.179688,4218.461426,4218.077148,4214.615234,4216.666504,4224.358887,4232.948730,4229.871582,4211.538574,4237.692383,4237.692383,3145.000000,4.000000,95.000000,,,,0.000000,4.000000,4.000000,4.000000,4.000000,4.000000,4.000000,4.000000,4.000000,4.000000,4.000000,4.000000,4.000000,4.000000,4.000000,100.000000,,,,,,,,,,,,,,,,
1645707238.831844,1645707238.837529,199.000000,0.000000,4208.205078,4204.230957,4209.358887,4222.179688,4220.769043,4218.974121,4214.871582,4214.615234,4225.512695,4231.538574,4228.333496,4209.487305,4236.666504,4237.051270,3418.000000,4.000000,95.000000,,,,0.000000,4.000000,4.000000,4.000000,4.000000,4.000000,4.000000,4.000000,4.000000,4.000000,4.000000,4.000000,4.000000,4.000000,4.000000,100.000000,,,,,,,,,,,,,,,,
1645707238.835784,1645707238.841470,200.000000,0.000000,4209.358887,4207.692383,4211.538574,4226.538574,4222.051270,4218.205078,4216.538574,4212.820313,4224.358887,4230.256348,4226.922852,4208.717773,4237.436035,4235.512695,3424.000000,4.000000,95.000000,,,,0.000000,4.000000,4.000000,4.000000,4.000000,4.000000,4.000000,4.000000,4.000000,4.000000,4.000000,4.000000,4.000000,4.000000,4.000000,100.000000,,,,,,,,,,,,,,,,
1645707238.839724,1645707238.845410,201.000000,0.000000,4211.410156,4210.384766,4213.717773,4227.692383,4222.563965,4217.436035,4217.563965,4212.692383,4222.563965,4231.410156,4228.333496,4210.769043,4241.410156,4235.641113,3156.000000,4.000000,95.000000,,,,0.000000,4.000000,4.000000,4.000000,4.000000,4.000000,4.000000,4.000000,4.000000,4.000000,4.000000,4.000000,4.000000,4.000000,4.000000,100.000000,,,,,,,,,,,,,,,,
1645707238.843665,1645707238.849350,202.000000,0.000000,4213.461426,4211.025879,4215.000000,4225.128418,4222.179688,4217.436035,4217.051270,4213.974121,4222.179688,4234.615234,4232.820313,4215.000000,4246.666504,4238.333496,3145.000000,4.000000,95.000000,,,,0.000000,4.000000,4.000000,4.000000,4.000000,4.000000,4.000000,4.000000,4.000000,4.000000,4.000000,4.000000,4.000000,4.000000,4.000000,100.000000,,,,,,,,,,,,,,,,
1645707238.847605,1645707238.853290,203.000000,0.000000,4214.230957,4210.000000,4215.641113,4221.410156,4220.641113,4217.948730,4216.282227,4215.769043,4223.077148,4237.436035,4236.794922,4218.974121,4249.102539,4241.794922,3418.000000,4.000000,95.000000,,,,0.000000,4.000000,4.000000,4.000000,4.000000,4.000000,4.000000,4.000000,4.000000,4.000000,4.000000,4.000000,4.000000,4.000000,4.000000,100.000000,,,,,,,,,,,,,,,,
1645707238.851545,1645707238.857230,204.000000,0.000000,4213.077148,4209.102539,4215.256348,4219.743652,4218.846191,4218.333496,4216.153809,4215.897461,4223.846191,4237.820313,4236.922852,4220.512695,4245.256348,4243.461426,3424.000000,4.000000,95.000000,,,,0.000000,4.000000,4.000000,4.000000,4.000000,4.000000,4.000000,4.000000,4.000000,4.000000,4.000000,4.000000,4.000000,4.000000,4.000000,100.000000,,,,,,,,,,,,,,,,
1645707238.855485,1645707238.861170,205.000000,0.000000,4211.282227,4209.615234,4214.102539,4221.922852,4218.333496,4218.846191,4216.153809,4213.717773,4223.333496,4235.769043,4232.436035,4217.820313,4235.769043,4242.307617,3156.000000,4.000000,95.000000,,,,0.000000,4.000000,4.000000,4.000000,4.000000,4.000000,4.000000,4.000000,4.000000,4.000000,4.000000,4.000000,4.000000,4.000000,4.000000,100.000000,,,,,,,,,,,,,,,,
1645707238.859425,1645707238.865110,206.000000,0.000000,4210.512695,4210.256348,4212.179688,4226.025879,4219.615234,4220.000000,4214.871582,4210.256348,4221.922852,4232.307617,4226.025879,4211.538574,4224.743652,4239.102539,3145.000000,4.000000,95.000000,,,,0.000000,4.000000,4.000000,4.000000,4.000000,4.000000,4.000000,4.000000,4.000000,4.000000,4.000000,4.000000,4.000000,4.000000,4.000000,100.000000,,,,,,,,,,,,,,,,
1645707238.863365,1645707238.869050,207.000000,0.000000,4210.512695,4208.333496,4210.256348,4228.461426,4221.025879,4221.025879,4212.179688,4207.820313,4220.512695,4228.077148,4220.256348,4204.230957,4215.897461,4235.128418,3418.000000,4.000000,95.000000,,,,0.000000,4.000000,4.000000,4.000000,4.000000,4.000000,4.000000,4.000000,4.000000,4.000000,4.000000,4.000000,4.000000,4.000000,4.000000,100.000000,,,,,,,,,,,,,,,,
1645707238.867305,1645707238.872990,208.000000,0.000000,4209.487305,4202.307617,4208.589844,4226.538574,4220.256348,4220.769043,4210.000000,4207.692383,4219.743652,4223.589844,4216.282227,4199.102539,4210.641113,4231.538574,3424.000000,4.000000,95.000000,,,,0.000000,4.000000,4.000000,4.000000,4.000000,4.000000,4.000000,4.000000,4.000000,4.000000,4.000000,4.000000,4.000000,4.000000,4.000000,100.000000,,,,,,,,,,,,,,,,
1645707238.871245,1645707238.876931,209.000000,0.000000,4206.153809,4193.974121,4206.794922,4220.641113,4217.051270,4218.589844,4210.000000,4209.743652,4219.358887,4219.743652,4213.974121,4198.205078,4209.102539,4229.230957,3156.000000,4.000000,95.000000,,,,0.000000,4.000000,4.000000,4.000000,4.000000,4.000000,4.000000,4.000000,4.000000,4.000000,4.000000,4.000000,4.000000,4.000000,4.000000,100.000000,,,,,,,,,,,,,,,,
1645707238.875185,1645707238.880771,210.000000,0.000000,4201.666504,4188.077148,4204.871582,4214.743652,4213.077148,4215.769043,4211.538574,4211.794922,4218.333496,4218.461426,4213.846191,4200.897461,4211.025879,4228.589844,3145.000000,4.000000,95.000000,,,,0.000000,4.000000,4.000000,4.000000,4.000000,4.000000,4.000000,4.000000,4.000000,4.000000,4.000000,4.000000,4.000000,4.000000,4.000000,100.000000,,,,,,,,,,,,,,,,
1645707238.879125,1645707238.884711,211.000000,0.000000,4198.717773,4187.948730,4203.205078,4212.436035,4210.897461,4213.974121,4212.436035,4212.436035,4217.179688,4220.128418,4215.769043,4204.743652,4215.512695,4229.487305,3418.000000,4.000000,95.000000,,,,0.000000,4.000000,4.000000,4.000000,4.000000,4.000000,4.000000,4.000000,4.000000,4.000000,4.000000,4.000000,4.000000,4.000000,4.000000,100.000000,,,,,,,,,,,,,,,,
1645707238.883066,1645707238.888651,212.000000,0.000000,4198.846191,4192.820313,4202.948730,4214.358887,4210.769043,4213.717773,4211.666504,4211.410156,4217.307617,4223.205078,4218.461426,4207.051270,4219.871582,4230.256348,3424.000000,4.000000,95.000000,,,,0.000000,4.000000,4.000000,4.000000,4.000000,4.000000,4.000000,4.000000,4.000000,4.000000,4.000000,4.000000,4.000000,4.000000,4.000000,100.000000,,,,,,,,,,,,,,,,
1645707238.887006,1645707238.892591,213.000000,0.000000,4201.153809,4199.102539,4204.615234,4217.948730,4211.282227,4213.589844,4209.743652,4210.128418,4218.974121,4225.128418,4219.743652,4206.922852,4221.410156,4229.102539,3156.000000,4.000000,95.000000,,,,0.000000,4.000000,4.000000,4.000000,4.000000,4.000000,4.000000,4.000000,4.000000,4.000000,4.000000,4.000000,4.000000,4.000000,4.000000,100.000000,,,,,,,,,,,,,,,,
1645707238.890946,1645707238.896531,214.000000,0.000000,4204.102539,4202.820313,4207.436035,4219.743652,4211.153809,4212.563965,4208.077148,4209.230957,4221.282227,4224.743652,4219.102539,4205.384766,4220.128418,4226.153809,3145.000000,4.000000,95.000000,,,,0.000000,4.000000,4.000000,4.000000,4.000000,4.000000,4.000000,4.000000,4.000000,4.000000,4.000000,4.000000,4.000000,4.000000,4.000000,100.000000,,,,,,,,,,,,,,,,
1645707238.894886,1645707238.900471,215.000000,0.000000,4206.666504,4203.717773,4210.000000,4218.461426,4210.512695,4211.282227,4207.436035,4209.230957,4222.692383,4223.717773,4218.333496,4204.230957,4218.974121,4223.461426,3418.000000,4.000000,95.000000,,,,0.000000,4.000000,4.000000,4.000000,4.000000,4.000000,4.000000,4.000000,4.000000,4.000000,4.000000,4.000000,4.000000,4.000000,4.000000,100.000000,,,,,,,,,,,,,,,,
1645707238.898826,1645707238.904411,216.000000,0.000000,4209.615234,4203.461426,4211.282227,4215.769043,4210.641113,4211.282227,4207.820313,4209.743652,4222.948730,4224.871582,4219.743652,4204.615234,4219.743652,4223.589844,3424.000000,4.000000,95.000000,,,,0.000000,4.000000,4.000000,4.000000,4.000000,4.000000,4.000000,4.000000,4.000000,4.000000,4.000000,4.000000,4.000000,4.000000,4.000000,100.000000,,,,,,,,,,,,,,,,
1645707238.902766,1645707238.908351,217.000000,0.000000,4212.563965,4203.717773,4211.538574,4214.102539,4211.922852,4213.333496,4209.358887,4211.282227,4222.436035,4228.846191,4222.692383,4206.538574,4221.538574,4226.538574,3156.000000,4.000000,95.000000,,,,0.000000,4.000000,4.000000,4.000000,4.000000,4.000000,4.000000,4.000000,4.000000,4.000000,4.000000,4.000000,4.000000,4.000000,4.000000,100.000000,,,,,,,,,,,,,,,,
1645707238.906706,1645707238.912292,218.000000,0.000000,4214.102539,4204.358887,4211.794922,4215.641113,4213.077148,4215.641113,4212.436035,4214.230957,4221.794922,4233.205078,4224.743652,4208.461426,4222.307617,4230.384766,3145.000000,4.000000,95.000000,,,,0.000000,4.000000,4.000000,4.000000,4.000000,4.000000,4.000000,4.000000,4.000000,4.000000,4.000000,4.000000,4.000000,4.000000,4.000000,100.000000,,,,,,,,,,,,,,,,
1645707238.910646,1645707238.916232,219.000000,0.000000,4213.205078,4204.358887,4212.692383,4219.871582,4212.436035,4216.794922,4216.666504,4218.461426,4221.410156,4234.487305,4224.230957,4209.230957,4221.282227,4232.692383,3418.000000,4.000000,95.000000,,,,0.000000,4.000000,4.000000,4.000000,4.000000,4.000000,4.000000,4.000000,4.000000,4.000000,4.000000,4.000000,4.000000,4.000000,4.000000,100.000000,,,,,,,,,,,,,,,,
1645707238.914586,1645707238.920172,220.000000,0.000000,4210.256348,4203.205078,4213.333496,4223.717773,4210.641113,4216.153809,4219.358887,4221.538574,4222.051270,4232.307617,4222.820313,4209.230957,4221.025879,4232.563965,3424.000000,4.000000,95.000000,,,,0.000000,4.000000,4.000000,4.000000,4.000000,4.000000,4.000000,4.000000,4.000000,4.000000,4.000000,4.000000,4.000000,4.000000,4.000000,100.000000,,,,,,,,,,,,,,,,
1645707238.918527,1645707238.924112,221.000000,0.000000,4207.820313,4201.794922,4212.307617,4224.487305,4209.743652,4214.615234,4218.333496,4221.282227,4223.717773,4228.717773,4223.205078,4209.487305,4223.205078,4231.153809,3156.000000,4.000000,95.000000,,,,0.000000,4.000000,4.000000,4.000000,4.000000,4.000000,4.000000,4.000000,4.000000,4.000000,4.000000,4.000000,4.000000,4.000000,4.000000,100.000000,,,,,,,,,,,,,,,,
1645707238.922467,1645707238.928052,222.000000,0.000000,4207.307617,4200.769043,4209.743652,4221.538574,4211.153809,4213.205078,4214.102539,4217.820313,4225.256348,4226.282227,4225.897461,4210.000000,4226.922852,4229.230957,3145.000000,4.000000,95.000000,,,,0.000000,4.000000,4.000000,4.000000,4.000000,4.000000,4.000000,4.000000,4.000000,4.000000,4.000000,4.000000,4.000000,4.000000,4.000000,100.000000,,,,,,,,,,,,,,,,
1645707238.926407,1645707238.931992,223.000000,0.000000,4208.461426,4199.615234,4206.538574,4216.282227,4213.717773,4212.051270,4210.256348,4213.461426,4225.897461,4225.384766,4228.589844,4209.615234,4228.589844,4227.051270,3418.000000,4.000000,95.000000,,,,0.000000,4.000000,4.000000,4.000000,4.000000,4.000000,4.000000,4.000000,4.000000,4.000000,4.000000,4.000000,4.000000,4.000000,4.000000,100.000000,,,,,,,,,,,,,,,,
1645707238.930347,1645707238.935932,224.000000,0.000000,4208.974121,4197.436035,4203.974121,4211.025879,4214.358887,4211.282227,4209.871582,4211.153809,4225.512695,4224.487305,4228.205078,4207.179688,4226.282227,4224.615234,3424.000000,4.000000,95.000000,,,,0.000000,4.000000,4.000000,4.000000,4.000000,4.000000,4.000000,4.000000,4.000000,4.000000,4.000000,4.000000,4.000000,4.000000,4.000000,100.000000,,,,,,,,,,,,,,,,
1645707238.934287,1645707238.939872,225.000000,0.000000,4207.820313,4194.615234,4202.307617,4208.333496,4211.794922,4210.897461,4212.051270,4210.769043,4224.743652,4223.077148,4223.846191,4202.692383,4221.666504,4222.179688,3156.000000,4.000000,95.000000,,,,0.000000,4.000000,4.000000,4.000000,4.000000,4.000000,4.000000,4.000000,4.000000,4.000000,4.000000,4.000000,4.000000,4.000000,4.000000,100.000000,,,,,,,,,,,,,,,,
1645707238.938227,1645707238.943812,226.000000,0.000000,4205.641113,4192.692383,4201.538574,4208.974121,4208.205078,4211.794922,4213.846191,4210.641113,4223.846191,4221.794922,4218.333496,4197.948730,4218.333496,4221.025879,3145.000000,4.000000,95.000000,,,,0.000000,4.000000,4.000000,4.000000,4.000000,4.000000,4.000000,4.000000,4.000000,4.000000,4.000000,4.000000,4.000000,4.000000,4.000000,100.000000,,,,,,,,,,,,,,,,
1645707238.942167,1645707238.947753,227.000000,0.000000,4204.230957,4193.461426,4202.051270,4212.436035,4206.666504,4213.333496,4213.205078,4209.230957,4222.692383,4221.282227,4214.487305,4195.897461,4218.461426,4221.794922,3418.000000,4.000000,95.000000,,,,0.000000,4.000000,4.000000,4.000000,4.000000,4.000000,4.000000,4.000000,4.000000,4.000000,4.000000,4.000000,4.000000,4.000000,4.000000,100.000000,,,,,,,,,,,,,,,,
1645707238.946107,1645707238.951593,228.000000,0.000000,4204.615234,4196.410156,4204.230957,4216.666504,4208.589844,4214.102539,4211.538574,4207.051270,4220.897461,4220.641113,4213.717773,4197.436035,4220.897461,4222.692383,3424.000000,4.000000,95.000000,,,,0.000000,4.000000,4.000000,4.000000,4.000000,4.000000,4.000000,4.000000,4.000000,4.000000,4.000000,4.000000,4.000000,4.000000,4.000000,100.000000,,,,,,,,,,,,,,,,
1645707238.950047,1645707238.955533,229.000000,0.000000,4206.153809,4199.487305,4207.307617,4219.487305,4212.948730,4213.333496,4211.666504,4206.025879,4218.333496,4218.846191,4215.641113,4200.897461,4222.948730,4221.922852,3156.000000,4.000000,95.000000,,,,0.000000,4.000000,4.000000,4.000000,4.000000,4.000000,4.000000,4.000000,4.000000,4.000000,4.000000,4.000000,4.000000,4.000000,4.000000,100.000000,,,,,,,,,,,,,,,,
1645707238.953987,1645707238.959473,230.000000,0.000000,4207.820313,4201.025879,4209.102539,4220.128418,4217.692383,4212.179688,4214.358887,4206.794922,4215.769043,4216.794922,4218.846191,4203.205078,4223.333496,4218.461426,3145.000000,4.000000,95.000000,,,,0.000000,4.000000,4.000000,4.000000,4.000000,4.000000,4.000000,4.000000,4.000000,4.000000,4.000000,4.000000,4.000000,4.000000,4.000000,100.000000,,,,,,,,,,,,,,,,
1645707238.957928,1645707238.963413,231.000000,0.000000,4208.333496,4200.384766,4208.461426,4219.358887,4221.282227,4212.820313,4217.692383,4209.358887,4215.000000,4217.051270,4221.794922,4203.205078,4222.820313,4213.974121,3418.000000,4.000000,95.000000,,,,0.000000,4.000000,4.000000,4.000000,4.000000,4.000000,4.000000,4.000000,4.000000,4.000000,4.000000,4.000000,4.000000,4.000000,4.000000,100.000000,,,,,,,,,,,,,,,,
1645707238.961868,1645707238.967353,232.000000,0.000000,4207.563965,4198.717773,4206.153809,4218.077148,4222.692383,4216.025879,4219.358887,4212.692383,4216.666504,4221.025879,4223.205078,4202.179688,4223.077148,4211.153809,3424.000000,4.000000,95.000000,,,,0.000000,4.000000,4.000000,4.000000,4.000000,4.000000,4.000000,4.000000,4.000000,4.000000,4.000000,4.000000,4.000000,4.000000,4.000000,100.000000,,,,,,,,,,,,,,,,
1645707238.965808,1645707238.971293,233.000000,0.000000,4205.897461,4196.922852,4204.230957,4216.922852,4221.538574,4220.512695,4219.102539,4216.538574,4219.615234,4226.922852,4222.179688,4202.948730,4224.358887,4212.179688,3156.000000,4.000000,95.000000,,,,0.000000,4.000000,4.000000,4.000000,4.000000,4.000000,4.000000,4.000000,4.000000,4.000000,4.000000,4.000000,4.000000,4.000000,4.000000,100.000000,,,,,,,,,,,,,,,,
1645707238.969748,1645707238.975233,234.000000,0.000000,4204.358887,4196.410156,4204.743652,4217.179688,4218.846191,4224.230957,4218.974121,4220.641113,4222.179688,4231.153809,4220.128418,4206.666504,4226.282227,4216.922852,3145.000000,4.000000,95.000000,,,,0.000000,4.000000,4.000000,4.000000,4.000000,4.000000,4.000000,4.000000,4.000000,4.000000,4.000000,4.000000,4.000000,4.000000,4.000000,100.000000,,,,,,,,,,,,,,,,
1645707238.973688,1645707238.979173,235.000000,0.000000,4204.487305,4198.333496,4207.051270,4219.102539,4217.563965,4226.282227,4220.384766,4224.102539,4223.589844,4232.179688,4219.487305,4211.922852,4228.077148,4223.589844,3418.000000,4.000000,95.000000,,,,0.000000,4.000000,4.000000,4.000000,4.000000,4.000000,4.000000,4.000000,4.000000,4.000000,4.000000,4.000000,4.000000,4.000000,4.000000,100.000000,,,,,,,,,,,,,,,,
1645707238.977628,1645707238.983114,236.000000,0.000000,4207.307617,4202.563965,4209.230957,4221.794922,4219.871582,4227.307617,4222.436035,4226.025879,4224.358887,4231.794922,4222.051270,4215.641113,4229.615234,4229.102539,3424.000000,4.000000,95.000000,,,,0.000000,4.000000,4.000000,4.000000,4.000000,4.000000,4.000000,4.000000,4.000000,4.000000,4.000000,4.000000,4.000000,4.000000,4.000000,100.000000,,,,,,,,,,,,,,,,
1645707238.981568,1645707238.987054,237.000000,0.000000,4211.794922,4206.153809,4209.743652,4222.563965,4223.974121,4227.563965,4223.461426,4226.410156,4225.384766,4232.436035,4226.666504,4215.897461,4231.025879,4230.384766,3156.000000,4.000000,95.000000,,,,0.000000,4.000000,4.000000,4.000000,4.000000,4.000000,4.000000,4.000000,4.000000,4.000000,4.000000,4.000000,4.000000,4.000000,4.000000,100.000000,,,,,,,,,,,,,,,,
1645707238.985508,1645707238.990994,238.000000,0.000000,4214.743652,4205.897461,4208.717773,4219.487305,4225.641113,4227.307617,4222.948730,4226.538574,4226.025879,4234.102539,4229.230957,4212.436035,4231.282227,4226.282227,3145.000000,4.000000,95.000000,,,,0.000000,4.000000,4.000000,4.000000,4.000000,4.000000,4.000000,4.000000,4.000000,4.000000,4.000000,4.000000,4.000000,4.000000,4.000000,100.000000,,,,,,,,,,,,,,,,
1645707238.989448,1645707238.994934,239.000000,0.000000,4213.077148,4201.153809,4207.307617,4213.333496,4222.051270,4225.897461,4221.794922,4226.922852,4226.025879,4234.230957,4226.922852,4207.051270,4228.333496,4218.333496,3418.000000,4.000000,95.000000,,,,0.000000,4.000000,4.000000,4.000000,4.000000,4.000000,4.000000,4.000000,4.000000,4.000000,4.000000,4.000000,4.000000,4.000000,4.000000,100.000000,,,,,,,,,,,,,,,,
1645707238.993389,1645707238.998874,240.000000,0.000000,4207.051270,4194.615234,4205.256348,4207.692383,4215.256348,4223.717773,4220.384766,4226.666504,4225.256348,4231.282227,4220.384766,4202.051270,4220.897461,4210.384766,3424.000000,4.000000,95.000000,,,,0.000000,4.000000,4.000000,4.000000,4.000000,4.000000,4.000000,4.000000,4.000000,4.000000,4.000000,4.000000,4.000000,4.000000,4.000000,100.000000,,,,,,,,,,,,,,,,
1645707238.997329,1645707239.002814,241.000000,0.000000,4200.000000,4190.256348,4202.307617,4205.384766,4210.128418,4221.410156,4218.205078,4223.717773,4224.230957,4226.410156,4213.717773,4199.230957,4210.897461,4205.897461,3156.000000,4.000000,95.000000,,,,0.000000,4.000000,4.000000,4.000000,4.000000,4.000000,4.000000,4.000000,4.000000,4.000000,4.000000,4.000000,4.000000,4.000000,4.000000,100.000000,,,,,,,,,,,,,,,,
1645707239.001269,1645707239.006754,242.000000,0.000000,4195.512695,4190.384766,4199.358887,4206.666504,4208.974121,4218.974121,4214.743652,4217.692383,4223.077148,4221.922852,4211.025879,4199.102539,4202.436035,4206.153809,3145.000000,4.000000,95.000000,,,,0.000000,4.000000,4.000000,4.000000,4.000000,4.000000,4.000000,4.000000,4.000000,4.000000,4.000000,4.000000,4.000000,4.000000,4.000000,100.000000,,,,,,,,,,,,,,,,
1645707239.005209,1645707239.010694,243.000000,0.000000,4194.871582,4193.205078,4197.948730,4208.205078,4210.000000,4216.153809,4210.769043,4210.641113,4221.410156,4218.589844,4212.692383,4200.897461,4199.102539,4209.230957,3418.000000,4.000000,95.000000,,,,0.000000,4.000000,4.000000,4.000000,4.000000,4.000000,4.000000,4.000000,4.000000,4.000000,4.000000,4.000000,4.000000,4.000000,4.000000,100.000000,,,,,,,,,,,,,,,,
1645707239.009149,1645707239.014634,244.000000,0.000000,4196.538574,4194.743652,4198.589844,4206.922852,4208.846191,4212.436035,4207.692383,4206.153809,4219.871582,4216.153809,4215.384766,4202.820313,4201.025879,4212.307617,3424.000000,4.000000,95.000000,,,,0.000000,4.000000,4.000000,4.000000,4.000000,4.000000,4.000000,4.000000,4.000000,4.000000,4.000000,4.000000,4.000000,4.000000,4.000000,100.000000,,,,,,,,,,,,,,,,
1645707239.013089,1645707239.018575,245.000000,0.000000,4198.077148,4192.051270,4199.871582,4202.692383,4205.128418,4208.461426,4205.897461,4205.641113,4218.974121,4213.974121,4215.256348,4203.589844,4205.641113,4212.948730,3156.000000,4.000000,95.000000,,,,0.000000,4.000000,4.000000,4.000000,4.000000,4.000000,4.000000,4.000000,4.000000,4.000000,4.000000,4.000000,4.000000,4.000000,4.000000,100.000000,,,,,,,,,,,,,,,,
1645707239.017029,1645707239.022515,246.000000,0.000000,4198.461426,4186.025879,4199.230957,4199.358887,4201.666504,4206.538574,4204.487305,4207.563965,4219.102539,4212.436035,4211.410156,4202.563965,4209.230957,4211.410156,3145.000000,4.000000,95.000000,,,,0.000000,4.000000,4.000000,4.000000,4.000000,4.000000,4.000000,4.000000,4.000000,4.000000,4.000000,4.000000,4.000000,4.000000,4.000000,100.000000,,,,,,,,,,,,,,,,
1645707239.020969,1645707239.026355,247.000000,0.000000,4197.307617,4180.256348,4196.025879,4200.512695,4202.051270,4207.563965,4203.589844,4208.717773,4219.487305,4211.794922,4205.897461,4200.512695,4209.743652,4208.717773,3418.000000,4.000000,95.000000,,,,0.000000,4.000000,4.000000,4.000000,4.000000,4.000000,4.000000,4.000000,4.000000,4.000000,4.000000,4.000000,4.000000,4.000000,4.000000,100.000000,,,,,,,,,,,,,,,,
1645707239.024909,1645707239.030295,248.000000,0.000000,4195.256348,4177.692383,4192.179688,4205.897461,4206.153809,4211.153809,4204.615234,4207.563965,4218.974121,4211.410156,4201.922852,4198.846191,4207.563965,4206.282227,3424.000000,4.000000,95.000000,,,,0.000000,4.000000,4.000000,4.000000,4.000000,4.000000,4.000000,4.000000,4.000000,4.000000,4.000000,4.000000,4.000000,4.000000,4.000000,100.000000,,,,,,,,,,,,,,,,
1645707239.028849,1645707239.034235,249.000000,0.000000,4192.436035,4179.358887,4190.256348,4211.282227,4210.897461,4215.384766,4208.974121,4205.512695,4217.179688,4210.897461,4201.794922,4198.333496,4204.743652,4204.743652,3156.000000,4.000000,95.000000,,,,0.000000,4.000000,4.000000,4.000000,4.000000,4.000000,4.000000,4.000000,4.000000,4.000000,4.000000,4.000000,4.000000,4.000000,4.000000,100.000000,,,,,,,,,,,,,,,,
1645707239.032790,1645707239.038175,250.000000,0.000000,4190.384766,4183.974121,4191.410156,4212.436035,4213.717773,4218.717773,4215.256348,4205.384766,4214.871582,4210.769043,4205.384766,4198.846191,4203.846191,4204.615234,3145.000000,4.000000,95.000000,,,,0.000000,4.000000,4.000000,4.000000,4.000000,4.000000,4.000000,4.000000,4.000000,4.000000,4.000000,4.000000,4.000000,4.000000,4.000000,100.000000,,,,,,,,,,,,,,,,
1645707239.036730,1645707239.042115,251.000000,0.000000,4190.641113,4189.230957,4194.230957,4209.358887,4214.615234,4220.384766,4220.256348,4208.333496,4214.102539,4212.692383,4211.153809,4200.000000,4207.051270,4206.025879,3418.000000,4.000000,95.000000,,,,0.000000,4.000000,4.000000,4.000000,4.000000,4.000000,4.000000,4.000000,4.000000,4.000000,4.000000,4.000000,4.000000,4.000000,4.000000,100.000000,,,,,,,,,,,,,,,,
1645707239.040670,1645707239.046055,252.000000,0.000000,4194.102539,4192.820313,4197.179688,4205.897461,4214.871582,4220.897461,4221.153809,4213.205078,4216.153809,4217.307617,4216.922852,4201.153809,4213.589844,4208.461426,3424.000000,4.000000,95.000000,,,,0.000000,4.000000,4.000000,4.000000,4.000000,4.000000,4.000000,4.000000,4.000000,4.000000,4.000000,4.000000,4.000000,4.000000,4.000000,100.000000,,,,,,,,,,,,,,,,
1645707239.044610,1645707239.049995,253.000000,0.000000,4199.358887,4193.461426,4198.974121,4205.769043,4215.641113,4221.025879,4218.846191,4217.820313,4219.871582,4223.589844,4220.897461,4202.436035,4220.384766,4210.384766,3156.000000,4.000000,95.000000,,,,0.000000,4.000000,4.000000,4.000000,4.000000,4.000000,4.000000,4.000000,4.000000,4.000000,4.000000,4.000000,4.000000,4.000000,4.000000,100.000000,,,,,,,,,,,,,,,,
1645707239.048550,1645707239.053936,254.000000,0.000000,4203.717773,4192.051270,4200.000000,4209.871582,4217.051270,4221.153809,4216.153809,4220.897461,4223.205078,4228.846191,4222.179688,4203.461426,4223.846191,4210.897461,3145.000000,4.000000,95.000000,,,,0.000000,4.000000,4.000000,4.000000,4.000000,4.000000,4.000000,4.000000,4.000000,4.000000,4.000000,4.000000,4.000000,4.000000,4.000000,100.000000,,,,,,,,,,,,,,,,
1645707239.052490,1645707239.057876,255.000000,0.000000,4205.384766,4190.641113,4199.871582,4215.256348,4218.205078,4221.410156,4215.512695,4221.538574,4225.128418,4231.025879,4221.410156,4203.846191,4223.077148,4210.512695,115.000000,4.000000,95.000000,,,,0.000000,4.000000,4.000000,4.000000,4.000000,4.000000,4.000000,4.000000,4.000000,4.000000,4.000000,4.000000,4.000000,4.000000,4.000000,100.000000,,,,,,,,,,,,,,,,
1645707239.056430,1645707239.061816,0.000000,0.000000,4204.615234,4190.769043,4198.205078,4218.205078,4218.077148,4221.410156,4216.282227,4219.871582,4225.384766,4230.128418,4220.256348,4202.948730,4220.000000,4210.384766,3178.000000,4.000000,95.000000,,,,0.000000,4.000000,4.000000,4.000000,4.000000,4.000000,4.000000,4.000000,4.000000,4.000000,4.000000,4.000000,4.000000,4.000000,4.000000,100.000000,,,,,,,,,,,,,,,,
1645707239.060370,1645707239.065756,1.000000,0.000000,4202.820313,4192.307617,4194.358887,4216.922852,4216.410156,4220.769043,4216.538574,4216.666504,4224.102539,4227.436035,4219.487305,4201.025879,4216.922852,4211.282227,3481.000000,4.000000,95.000000,,,,0.000000,4.000000,4.000000,4.000000,4.000000,4.000000,4.000000,4.000000,4.000000,4.000000,4.000000,4.000000,4.000000,4.000000,4.000000,100.000000,,,,,,,,,,,,,,,,
1645707239.064310,1645707239.069696,2.000000,0.000000,4200.641113,4193.717773,4190.128418,4212.051270,4214.102539,4218.974121,4215.641113,4213.846191,4221.538574,4223.846191,4219.102539,4199.487305,4214.487305,4212.051270,3526.000000,4.000000,95.000000,,,,0.000000,4.000000,4.000000,4.000000,4.000000,4.000000,4.000000,4.000000,4.000000,4.000000,4.000000,4.000000,4.000000,4.000000,4.000000,100.000000,,,,,,,,,,,,,,,,
1645707239.068251,1645707239.073636,3.000000,0.000000,4198.077148,4193.589844,4187.820313,4206.666504,4211.666504,4215.897461,4214.871582,4212.563965,4218.461426,4219.743652,4218.205078,4199.743652,4212.179688,4211.282227,3445.000000,4.000000,95.000000,,,,0.000000,4.000000,4.000000,4.000000,4.000000,4.000000,4.000000,4.000000,4.000000,4.000000,4.000000,4.000000,4.000000,4.000000,4.000000,100.000000,,,,,,,,,,,,,,,,
1645707239.072191,1645707239.077576,4.000000,0.000000,4196.025879,4192.436035,4188.077148,4203.333496,4209.743652,4212.692383,4215.000000,4212.820313,4216.025879,4215.769043,4216.794922,4201.538574,4209.871582,4208.461426,3524.000000,4.000000,95.000000,,,,0.000000,4.000000,4.000000,4.000000,4.000000,4.000000,4.000000,4.000000,4.000000,4.000000,4.000000,4.000000,4.000000,4.000000,4.000000,100.000000,,,,,,,,,,,,,,,,
1645707239.076131,1645707239.081516,5.000000,0.000000,4195.512695,4191.666504,4188.974121,4203.461426,4208.461426,4210.641113,4214.615234,4212.563965,4215.256348,4212.820313,4215.641113,4203.205078,4207.948730,4204.743652,3412.000000,4.000000,95.000000,,,,0.000000,4.000000,4.000000,4.000000,4.000000,4.000000,4.000000,4.000000,4.000000,4.000000,4.000000,4.000000,4.000000,4.000000,4.000000,100.000000,,,,,,,,,,,,,,,,
1645707239.080071,1645707239.085456,6.000000,0.000000,4197.436035,4192.436035,4188.205078,4205.897461,4207.948730,4210.384766,4212.179688,4210.256348,4215.897461,4211.666504,4215.512695,4203.461426,4207.307617,4202.051270,2690.000000,4.000000,95.000000,,,,0.000000,4.000000,4.000000,4.000000,4.000000,4.000000,4.000000,4.000000,4.000000,4.000000,4.000000,4.000000,4.000000,4.000000,4.000000,100.000000,,,,,,,,,,,,,,,,
1645707239.084011,1645707239.089397,7.000000,0.000000,4200.897461,4194.102539,4185.897461,4208.589844,4208.077148,4211.282227,4208.846191,4206.666504,4216.794922,4211.410156,4215.641113,4202.820313,4207.563965,4201.282227,2811.000000,4.000000,95.000000,,,,0.000000,4.000000,4.000000,4.000000,4.000000,4.000000,4.000000,4.000000,4.000000,4.000000,4.000000,4.000000,4.000000,4.000000,4.000000,100.000000,,,,,,,,,,,,,,,,
1645707239.087951,1645707239.093337,8.000000,0.000000,4204.358887,4195.256348,4183.717773,4209.743652,4208.333496,4212.307617,4207.692383,4204.358887,4217.051270,4211.153809,4215.512695,4203.333496,4207.436035,4202.307617,1214.000000,4.000000,95.000000,,,,0.000000,4.000000,4.000000,4.000000,4.000000,4.000000,4.000000,4.000000,4.000000,4.000000,4.000000,4.000000,4.000000,4.000000,4.000000,100.000000,,,,,,,,,,,,,,,,
1645707239.091891,1645707239.097377,9.000000,0.000000,4206.410156,4194.615234,4183.077148,4209.871582,4209.102539,4213.077148,4210.128418,4205.256348,4216.922852,4210.384766,4214.743652,4206.666504,4206.538574,4204.615234,3284.000000,4.000000,95.000000,,,,0.000000,4.000000,4.000000,4.000000,4.000000,4.000000,4.000000,4.000000,4.000000,4.000000,4.000000,4.000000,4.000000,4.000000,4.000000,100.000000,,,,,,,,,,,,,,,,
1645707239.095831,1645707239.101317,10.000000,0.000000,4206.922852,4192.692383,4183.461426,4210.769043,4210.897461,4213.846191,4213.717773,4208.461426,4216.410156,4209.615234,4214.358887,4211.794922,4205.769043,4207.820313,3279.000000,4.000000,95.000000,,,,0.000000,4.000000,4.000000,4.000000,4.000000,4.000000,4.000000,4.000000,4.000000,4.000000,4.000000,4.000000,4.000000,4.000000,4.000000,100.000000,1.000000,100.000000,4.000000,4.000000,4.000000,4.000000,4.000000,4.000000,4.000000,4.000000,4.000000,4.000000,4.000000,4.000000,4.000000,4.000000
1645707239.099771,1645707239.105257,11.000000,0.000000,4206.538574,4191.153809,4183.205078,4213.461426,4212.948730,4214.358887,4214.743652,4211.794922,4216.153809,4209.230957,4214.871582,4215.641113,4205.769043,4211.153809,3419.000000,4.000000,95.000000,,,,0.000000,4.000000,4.000000,4.000000,4.000000,4.000000,4.000000,4.000000,4.000000,4.000000,4.000000,4.000000,4.000000,4.000000,4.000000,100.000000,,,,,,,,,,,,,,,,
1645707239.103711,1645707239.109197,12.000000,0.000000,4205.769043,4190.769043,4181.538574,4215.897461,4213.717773,4213.974121,4211.666504,4213.974121,4216.153809,4208.974121,4215.000000,4215.897461,4206.153809,4212.820313,3349.000000,4.000000,95.000000,,,,0.000000,4.000000,4.000000,4.000000,4.000000,4.000000,4.000000,4.000000,4.000000,4.000000,4.000000,4.000000,4.000000,4.000000,4.000000,100.000000,,,,,,,,,,,,,,,,
1645707239.107652,1645707239.113137,13.000000,0.000000,4204.230957,4190.897461,4179.102539,4215.512695,4211.410156,4211.922852,4207.051270,4214.615234,4216.410156,4207.948730,4212.820313,4212.820313,4205.000000,4211.025879,3156.000000,4.000000,95.000000,,,,0.000000,4.000000,4.000000,4.000000,4.000000,4.000000,4.000000,4.000000,4.000000,4.000000,4.000000,4.000000,4.000000,4.000000,4.000000,100.000000,,,,,,,,,,,,,,,,
1645707239.111592,1645707239.117077,14.000000,0.000000,4201.666504,4190.384766,4176.922852,4211.025879,4206.666504,4208.974121,4204.230957,4213.717773,4216.922852,4206.025879,4208.077148,4208.077148,4201.922852,4205.512695,3279.000000,4.000000,95.000000,,,,0.000000,4.000000,4.000000,4.000000,4.000000,4.000000,4.000000,4.000000,4.000000,4.000000,4.000000,4.000000,4.000000,4.000000,4.000000,100.000000,,,,,,,,,,,,,,,,
1645707239.115532,1645707239.121017,15.000000,0.000000,4198.077148,4188.589844,4175.256348,4204.743652,4202.051270,4206.794922,4204.615234,4210.897461,4217.563965,4204.358887,4202.948730,4203.461426,4198.333496,4198.333496,3419.000000,4.000000,95.000000,,,,0.000000,4.000000,4.000000,4.000000,4.000000,4.000000,4.000000,4.000000,4.000000,4.000000,4.000000,4.000000,4.000000,4.000000,4.000000,100.000000,,,,,,,,,,,,,,,,
1645707239.119472,1645707239.124957,16.000000,0.000000,4194.230957,4185.897461,4173.077148,4199.615234,4199.615234,4206.153809,4206.410156,4206.666504,4218.077148,4203.589844,4199.871582,4199.871582,4196.538574,4192.436035,3349.000000,4.000000,95.000000,,,,0.000000,4.000000,4.000000,4.000000,4.000000,4.000000,4.000000,4.000000,4.000000,4.000000,4.000000,4.000000,4.000000,4.000000,4.000000,100.000000,,,,,,,,,,,,,,,,
1645707239.123412,1645707239.128798,17.000000,0.000000,4190.641113,4183.077148,4170.384766,4197.307617,4199.230957,4206.153809,4207.179688,4203.205078,4218.077148,4203.333496,4198.846191,4197.307617,4196.538574,4189.487305,3156.000000,4.000000,95.000000,,,,0.000000,4.000000,4.000000,4.000000,4.000000,4.000000,4.000000,4.000000,4.000000,4.000000,4.000000,4.000000,4.000000,4.000000,4.000000,100.000000,,,,,,,,,,,,,,,,
1645707239.127352,1645707239.132738,18.000000,0.000000,4187.436035,4180.897461,4167.820313,4196.922852,4199.358887,4205.256348,4207.051270,4202.436035,4217.692383,4202.820313,4197.948730,4194.871582,4196.922852,4189.358887,3279.000000,4.000000,95.000000,,,,0.000000,4.000000,4.000000,4.000000,4.000000,4.000000,4.000000,4.000000,4.000000,4.000000,4.000000,4.000000,4.000000,4.000000,4.000000,100.000000,,,,,,,,,,,,,,,,
1645707239.131292,1645707239.136678,19.000000,0.000000,4186.153809,4180.256348,4166.410156,4197.820313,4199.615234,4203.589844,4207.179688,4204.871582,4217.051270,4202.051270,4196.538574,4192.692383,4196.538574,4190.641113,3419.000000,4.000000,95.000000,,,,0.000000,4.000000,4.000000,4.000000,4.000000,4.000000,4.000000,4.000000,4.000000,4.000000,4.000000,4.000000,4.000000,4.000000,4.000000,100.000000,,,,,,,,,,,,,,,,
1645707239.135232,1645707239.140618,20.000000,0.000000,4187.820313,4182.051270,4167.051270,4199.615234,4200.769043,4203.333496,4208.333496,4208.333496,4216.153809,4202.948730,4196.282227,4192.051270,4196.666504,4192.692383,3349.000000,4.000000,95.000000,,,,0.000000,4.000000,4.000000,4.000000,4.000000,4.000000,4.000000,4.000000,4.000000,4.000000,4.000000,4.000000,4.000000,4.000000,4.000000,100.000000,,,,,,,,,,,,,,,,
1645707239.139172,1645707239.144558,21.000000,0.000000,4192.692383,4185.897461,4170.000000,4202.307617,4204.102539,4205.769043,4209.615234,4210.256348,4215.897461,4206.410156,4198.461426,4193.589844,4198.461426,4195.512695,3156.000000,4.000000,95.000000,,,,0.000000,4.000000,4.000000,4.000000,4.000000,4.000000,4.000000,4.000000,4.000000,4.000000,4.000000,4.000000,4.000000,4.000000,4.000000,100.000000,,,,,,,,,,,,,,,,
1645707239.143113,1645707239.148498,22.000000,0.000000,4198.717773,4189.615234,4174.743652,4205.000000,4208.077148,4209.743652,4210.128418,4210.128418,4216.538574,4211.153809,4202.563965,4197.307617,4201.922852,4198.974121,3279.000000,4.000000,95.000000,,,,0.000000,4.000000,4.000000,4.000000,4.000000,4.000000,4.000000,4.000000,4.000000,4.000000,4.000000,4.000000,4.000000,4.000000,4.000000,100.000000,,,,,,,,,,,,,,,,
1645707239.147053,1645707239.152438,23.000000,0.000000,4202.820313,4191.538574,4179.743652,4207.436035,4210.128418,4212.051270,4210.128418,4209.230957,4217.948730,4214.358887,4206.538574,4201.153809,4205.641113,4202.563965,3419.000000,4.000000,95.000000,,,,0.000000,4.000000,4.000000,4.000000,4.000000,4.000000,4.000000,4.000000,4.000000,4.000000,4.000000,4.000000,4.000000,4.000000,4.000000,100.000000,,,,,,,,,,,,,,,,
1645707239.150993,1645707239.156378,24.000000,0.000000,4204.487305,4191.666504,4182.692383,4210.384766,4209.102539,4211.282227,4210.384766,4209.871582,4219.487305,4214.743652,4208.974121,4202.820313,4208.461426,4205.897461,3349.000000,4.000000,95.000000,,,,0.000000,4.000000,4.000000,4.000000,4.000000,4.000000,4.000000,4.000000,4.000000,4.000000,4.000000,4.000000,4.000000,4.000000,4.000000,100.000000,,,,,,,,,,,,,,,,
1645707239.154933,1645707239.160318,25.000000,0.000000,4205.000000,4192.051270,4182.692383,4214.487305,4207.179688,4208.717773,4210.641113,4212.051270,4220.512695,4214.102539,4210.256348,4201.922852,4210.641113,4208.717773,3156.000000,4.000000,95.000000,,,,0.000000,4.000000,4.000000,4.000000,4.000000,4.000000,4.000000,4.000000,4.000000,4.000000,4.000000,4.000000,4.000000,4.000000,4.000000,100.000000,,,,,,,,,,,,,,,,
1645707239.158873,1645707239.164259,26.000000,0.000000,4206.666504,4193.846191,4180.897461,4218.974121,4206.922852,4207.179688,4210.000000,4214.230957,4221.282227,4215.128418,4211.025879,4200.000000,4213.333496,4211.282227,3279.000000,4.000000,95.000000,,,,0.000000,4.000000,4.000000,4.000000,4.000000,4.000000,4.000000,4.000000,4.000000,4.000000,4.000000,4.000000,4.000000,4.000000,4.000000,100.000000,,,,,,,,,,,,,,,,
1645707239.162813,1645707239.168299,27.000000,0.000000,4209.230957,4196.025879,4179.743652,4221.410156,4208.461426,4207.563965,4208.846191,4214.615234,4221.794922,4217.820313,4211.538574,4199.487305,4216.025879,4211.922852,3419.000000,4.000000,95.000000,,,,0.000000,4.000000,4.000000,4.000000,4.000000,4.000000,4.000000,4.000000,4.000000,4.000000,4.000000,4.000000,4.000000,4.000000,4.000000,100.000000,,,,,,,,,,,,,,,,
1645707239.166753,1645707239.172239,28.000000,0.000000,4210.256348,4196.153809,4180.897461,4219.358887,4209.358887,4208.205078,4208.333496,4212.948730,4221.922852,4219.615234,4210.512695,4200.512695,4217.436035,4209.615234,3349.000000,4.000000,95.000000,,,,0.000000,4.000000,4.000000,4.000000,4.000000,4.000000,4.000000,4.000000,4.000000,4.000000,4.000000,4.000000,4.000000,4.000000,4.000000,100.000000,,,,,,,,,,,,,,,,
1645707239.170693,1645707239.176179,29.000000,0.000000,4208.461426,4194.230957,4183.589844,4214.102539,4207.692383,4207.563965,4209.102539,4210.641113,4221.410156,4218.589844,4207.692383,4202.051270,4217.179688,4205.000000,3156.000000,4.000000,95.000000,,,,0.000000,4.000000,4.000000,4.000000,4.000000,4.000000,4.000000,4.000000,4.000000,4.000000,4.000000,4.000000,4.000000,4.000000,4.000000,100.000000,,,,,,,,,,,,,,,,
1645707239.174633,1645707239.180119,30.000000,0.000000,4205.769043,4193.333496,4186.025879,4210.128418,4205.769043,4206.794922,4210.512695,4209.358887,4220.769043,4216.794922,4205.128418,4202.692383,4216.538574,4201.922852,3279.000000,4.000000,95.000000,,,,0.000000,4.000000,4.000000,4.000000,4.000000,4.000000,4.000000,4.000000,4.000000,4.000000,4.000000,4.000000,4.000000,4.000000,4.000000,100.000000,,,,,,,,,,,,,,,,
1645707239.178573,1645707239.184059,31.000000,0.000000,4206.153809,4197.307617,4187.307617,4211.666504,4206.666504,4208.461426,4211.410156,4210.256348,4220.384766,4217.692383,4205.897461,4202.692383,4218.077148,4203.846191,3419.000000,4.000000,95.000000,,,,0.000000,4.000000,4.000000,4.000000,4.000000,4.000000,4.000000,4.000000,4.000000,4.000000,4.000000,4.000000,4.000000,4.000000,4.000000,100.000000,,,,,,,,,,,,,,,,
1645707239.182514,1645707239.187999,32.000000,0.000000,4211.153809,4205.128418,4188.077148,4217.820313,4211.410156,4213.077148,4211.538574,4212.820313,4220.512695,4222.692383,4211.025879,4203.077148,4222.307617,4210.897461,0.000000,4.000000,95.000000,,,,0.000000,4.000000,4.000000,4.000000,4.000000,4.000000,4.000000,4.000000,4.000000,4.000000,4.000000,4.000000,4.000000,4.000000,4.000000,100.000000,,,,,,,,,,,,,,,,
1645707239.186454,1645707239.191939,33.000000,0.000000,4217.563965,4211.410156,4188.974121,4222.948730,4216.282227,4217.820313,4212.179688,4215.384766,4220.641113,4227.948730,4217.436035,4204.615234,4226.538574,4218.461426,0.000000,4.000000,95.000000,,,,0.000000,4.000000,4.000000,4.000000,4.000000,4.000000,4.000000,4.000000,4.000000,4.000000,4.000000,4.000000,4.000000,4.000000,4.000000,100.000000,,,,,,,,,,,,,,,,
1645707239.190394,1645707239.195879,34.000000,0.000000,4219.615234,4210.384766,4189.102539,4221.153809,4216.794922,4218.846191,4213.589844,4215.641113,4219.615234,4228.333496,4220.512695,4205.897461,4227.692383,4221.410156,0.000000,4.000000,95.000000,,,,0.000000,4.000000,4.000000,4.000000,4.000000,4.000000,4.000000,4.000000,4.000000,4.000000,4.000000,4.000000,4.000000,4.000000,4.000000,100.000000,,,,,,,,,,,,,,,,
1645707239.194334,1645707239.199819,35.000000,0.000000,4214.487305,4201.410156,4187.179688,4212.179688,4211.666504,4215.256348,4214.487305,4212.820313,4217.307617,4221.666504,4218.077148,4204.871582,4224.102539,4217.307617,0.000000,4.000000,95.000000,,,,0.000000,4.000000,4.000000,4.000000,4.000000,4.000000,4.000000,4.000000,4.000000,4.000000,4.000000,4.000000,4.000000,4.000000,4.000000,100.000000,,,,,,,,,,,,,,,,
1645707239.198274,1645707239.203759,36.000000,0.000000,4204.743652,4189.358887,4183.205078,4202.563965,4204.615234,4210.128418,4213.461426,4208.077148,4215.000000,4211.410156,4211.410156,4201.025879,4217.051270,4208.589844,0.000000,4.000000,95.000000,,,,0.000000,4.000000,4.000000,4.000000,4.000000,4.000000,4.000000,4.000000,4.000000,4.000000,4.000000,4.000000,4.000000,4.000000,4.000000,100.000000,,,,,,,,,,,,,,,,
1645707239.202214,1645707239.207700,37.000000,0.000000,4195.769043,4180.384766,4178.846191,4199.102539,4200.256348,4207.692383,4210.769043,4204.230957,4214.358887,4202.692383,4204.615234,4195.384766,4209.615234,4200.384766,0.000000,4.000000,95.000000,,,,0.000000,4.000000,4.000000,4.000000,4.000000,4.000000,4.000000,4.000000,4.000000,4.000000,4.000000,4.000000,4.000000,4.000000,4.000000,100.000000,,,,,,,,,,,,,,,,
1645707239.206154,1645707239.211640,38.000000,0.000000,4192.051270,4177.948730,4176.410156,4203.974121,4200.256348,4209.487305,4208.589844,4203.333496,4215.512695,4198.846191,4200.769043,4189.743652,4204.358887,4196.410156,0.000000,4.000000,95.000000,,,,0.000000,4.000000,4.000000,4.000000,4.000000,4.000000,4.000000,4.000000,4.000000,4.000000,4.000000,4.000000,4.000000,4.000000,4.000000,100.000000,,,,,,,,,,,,,,,,
1645707239.210094,1645707239.215580,39.000000,0.000000,4193.717773,4181.410156,4176.538574,4212.563965,4202.948730,4213.077148,4208.461426,4205.384766,4216.922852,4198.974121,4200.000000,4185.769043,4202.436035,4196.538574,0.000000,4.000000,95.000000,,,,0.000000,4.000000,4.000000,4.000000,4.000000,4.000000,4.000000,4.000000,4.000000,4.000000,4.000000,4.000000,4.000000,4.000000,4.000000,100.000000,,,,,,,,,,,,,,,,
1645707239.214034,1645707239.219520,40.000000,0.000000,4198.077148,4187.563965,4178.205078,4218.461426,4206.153809,4215.769043,4210.000000,4207.692383,4217.051270,4200.897461,4200.897461,4183.717773,4203.461426,4198.717773,0.000000,4.000000,95.000000,,,,0.000000,4.000000,4.000000,4.000000,4.000000,4.000000,4.000000,4.000000,4.000000,4.000000,4.000000,4.000000,4.000000,4.000000,4.000000,100.000000,,,,,,,,,,,,,,,,
1645707239.217975,1645707239.223360,41.000000,0.000000,4201.538574,4192.563965,4179.358887,4218.077148,4208.589844,4216.153809,4211.025879,4207.563965,4215.769043,4203.205078,4201.666504,4183.333496,4205.641113,4200.641113,0.000000,4.000000,95.000000,,,,0.000000,4.000000,4.000000,4.000000,4.000000,4.000000,4.000000,4.000000,4.000000,4.000000,4.000000,4.000000,4.000000,4.000000,4.000000,100.000000,,,,,,,,,,,,,,,,
1645707239.221915,1645707239.227300,42.000000,0.000000,4201.794922,4194.230957,4179.615234,4212.820313,4209.487305,4214.743652,4211.153809,4205.512695,4213.846191,4205.384766,4202.307617,4183.974121,4206.794922,4201.538574,0.000000,4.000000,95.000000,1,1,2,0.000000,4.000000,4.000000,4.000000,4.000000,4.000000,4.000000,4.000000,4.000000,4.000000,4.000000,4.000000,4.000000,4.000000,4.000000,100.000000,,,,,,,,,,,,,,,,
1645707239.225855,1645707239.231240,43.000000,0.000000,4199.358887,4192.692383,4180.128418,4206.666504,4208.846191,4213.077148,4211.794922,4204.102539,4212.563965,4207.307617,4203.077148,4185.512695,4206.153809,4202.563965,0.000000,4.000000,95.000000,,,,0.000000,4.000000,4.000000,4.000000,4.000000,4.000000,4.000000,4.000000,4.000000,4.000000,4.000000,4.000000,4.000000,4.000000,4.000000,100.000000,,,,,,,,,,,,,,,,
1645707239.229795,1645707239.235180,44.000000,0.000000,4196.282227,4190.000000,4182.307617,4203.205078,4207.307617,4212.563965,4214.102539,4205.512695,4212.563965,4209.102539,4204.743652,4188.589844,4205.256348,4205.000000,0.000000,4.000000,95.000000,,,,0.000000,4.000000,4.000000,4.000000,4.000000,4.000000,4.000000,4.000000,4.000000,4.000000,4.000000,4.000000,4.000000,4.000000,4.000000,100.000000,,,,,,,,,,,,,,,,
1645707239.233735,1645707239.239121,45.000000,0.000000,4195.769043,4188.589844,4186.025879,4203.717773,4206.153809,4213.333496,4216.666504,4208.589844,4214.102539,4211.282227,4207.948730,4193.461426,4206.922852,4210.000000,0.000000,4.000000,95.000000,,,,0.000000,4.000000,4.000000,4.000000,4.000000,4.000000,4.000000,4.000000,4.000000,4.000000,4.000000,4.000000,4.000000,4.000000,4.000000,100.000000,,,,,,,,,,,,,,,,
1645707239.237675,1645707239.243061,46.000000,0.000000,4199.230957,4189.358887,4190.000000,4207.051270,4206.410156,4214.743652,4216.538574,4210.641113,4216.538574,4213.974121,4212.051270,4199.358887,4211.922852,4215.897461,0.000000,4.000000,95.000000,,,,0.000000,4.000000,4.000000,4.000000,4.000000,4.000000,4.000000,4.000000,4.000000,4.000000,4.000000,4.000000,4.000000,4.000000,4.000000,100.000000,,,,,,,,,,,,,,,,
1645707239.241615,1645707239.247001,47.000000,0.000000,4204.871582,4191.025879,4192.820313,4210.512695,4207.563965,4215.128418,4213.077148,4210.256348,4218.846191,4216.025879,4215.384766,4203.589844,4217.436035,4219.615234,0.000000,4.000000,95.000000,,,,0.000000,4.000000,4.000000,4.000000,4.000000,4.000000,4.000000,4.000000,4.000000,4.000000,4.000000,4.000000,4.000000,4.000000,4.000000,100.000000,,,,,,,,,,,,,,,,
1645707239.245555,1645707239.250941,48.000000,0.000000,4208.333496,4191.538574,4194.615234,4211.538574,4208.205078,4213.333496,4208.717773,4208.461426,4219.615234,4215.000000,4214.871582,4204.230957,4217.307617,4217.948730,0.000000,4.000000,95.000000,,,,0.000000,4.000000,4.000000,4.000000,4.000000,4.000000,4.000000,4.000000,4.000000,4.000000,4.000000,4.000000,4.000000,4.000000,4.000000,100.000000,,,,,,,,,,,,,,,,
1645707239.249495,1645707239.254881,49.000000,0.000000,4206.794922,4190.384766,4195.641113,4209.358887,4207.051270,4209.871582,4206.922852,4207.948730,4218.717773,4210.384766,4209.743652,4200.769043,4208.077148,4211.410156,0.000000,4.000000,95.000000,,,,0.000000,4.000000,4.000000,4.000000,4.000000,4.000000,4.000000,4.000000,4.000000,4.000000,4.000000,4.000000,4.000000,4.000000,4.000000,100.000000,,,,,,,,,,,,,,,,
1645707239.253435,1645707239.258821,50.000000,0.000000,4201.538574,4188.974121,4195.512695,4205.897461,4204.487305,4207.179688,4208.589844,4209.358887,4216.153809,4204.743652,4202.179688,4194.615234,4192.692383,4203.333496,0.000000,4.000000,95.000000,,,,0.000000,4.000000,4.000000,4.000000,4.000000,4.000000,4.000000,4.000000,4.000000,4.000000,4.000000,4.000000,4.000000,4.000000,4.000000,100.000000,,,,,,,,,,,,,,,,
1645707239.257376,1645707239.262761,51.000000,0.000000,4196.282227,4189.102539,4193.717773,4203.974121,4202.563965,4207.179688,4210.897461,4211.025879,4213.205078,4202.307617,4196.666504,4188.333496,4179.871582,4197.820313,0.000000,4.000000,95.000000,,,,0.000000,4.000000,4.000000,4.000000,4.000000,4.000000,4.000000,4.000000,4.000000,4.000000,4.000000,4.000000,4.000000,4.000000,4.000000,100.000000,,,,,,,,,,,,,,,,
1645707239.261316,1645707239.266701,52.000000,0.000000,4193.589844,4190.128418,4190.384766,4205.000000,4201.794922,4209.230957,4210.384766,4210.512695,4211.153809,4204.230957,4195.384766,4184.487305,4176.538574,4195.897461,0.000000,4.000000,95.000000,,,,0.000000,4.000000,4.000000,4.000000,4.000000,4.000000,4.000000,4.000000,4.000000,4.000000,4.000000,4.000000,4.000000,4.000000,4.000000,100.000000,,,,,,,,,,,,,,,,
1645707239.265256,1645707239.270641,53.000000,0.000000,4192.563965,4189.743652,4186.922852,4207.179688,4201.282227,4210.641113,4207.179688,4208.077148,4210.769043,4207.563965,4196.794922,4184.871582,4182.563965,4196.025879,0.000000,4.000000,95.000000,,,,0.000000,4.000000,4.000000,4.000000,4.000000,4.000000,4.000000,4.000000,4.000000,4.000000,4.000000,4.000000,4.000000,4.000000,4.000000,100.000000,,,,,,,,,,,,,,,,
1645707239.269196,1645707239.274581,54.000000,0.000000,4190.512695,4186.282227,4185.000000,4208.077148,4199.487305,4209.615234,4204.487305,4206.153809,4211.666504,4208.333496,4197.820313,4188.974121,4191.922852,4195.769043,0.000000,4.000000,95.000000,,,,0.000000,4.000000,4.000000,4.000000,4.000000,4.000000,4.000000,4.000000,4.000000,4.000000,4.000000,4.000000,4.000000,4.000000,4.000000,100.000000,,,,,,,,,,,,,,,,
1645707239.273136,1645707239.278522,55.000000,0.000000,4186.794922,4181.282227,4184.871582,4206.794922,4196.794922,4206.922852,4204.743652,4206.410156,4212.820313,4205.641113,4197.820313,4193.974121,4197.948730,4194.743652,0.000000,4.000000,95.000000,,,,0.000000,4.000000,4.000000,4.000000,4.000000,4.000000,4.000000,4.000000,4.000000,4.000000,4.000000,4.000000,4.000000,4.000000,4.000000,100.000000,,,,,,,,,,,,,,,,
1645707239.277076,1645707239.282462,56.000000,0.000000,4183.846191,4178.717773,4185.384766,4204.743652,4195.384766,4204.615234,4207.051270,4208.846191,4213.846191,4202.179688,4198.717773,4196.922852,4198.846191,4193.589844,0.000000,4.000000,95.000000,,,,0.000000,4.000000,4.000000,4.000000,4.000000,4.000000,4.000000,4.000000,4.000000,4.000000,4.000000,4.000000,4.000000,4.000000,4.000000,100.000000,,,,,,,,,,,,,,,,
1645707239.281016,1645707239.286302,57.000000,0.000000,4184.743652,4181.410156,4186.025879,4203.846191,4196.153809,4204.487305,4208.974121,4211.410156,4215.128418,4200.769043,4202.051270,4196.666504,4197.820313,4193.461426,0.000000,4.000000,95.000000,,,,0.000000,4.000000,4.000000,4.000000,4.000000,4.000000,4.000000,4.000000,4.000000,4.000000,4.000000,4.000000,4.000000,4.000000,4.000000,100.000000,,,,,,,,,,,,,,,,
1645707239.284956,1645707239.290242,58.000000,0.000000,4189.615234,4188.461426,4187.563965,4205.000000,4198.205078,4205.641113,4209.743652,4212.436035,4216.282227,4201.410156,4206.153809,4194.615234,4197.820313,4194.615234,0.000000,4.000000,95.000000,,,,0.000000,4.000000,4.000000,4.000000,4.000000,4.000000,4.000000,4.000000,4.000000,4.000000,4.000000,4.000000,4.000000,4.000000,4.000000,100.000000,,,,,,,,,,,,,,,,
1645707239.288896,1645707239.294182,59.000000,0.000000,4196.153809,4196.025879,4191.153809,4207.692383,4199.871582,4206.794922,4210.256348,4212.179688,4216.410156,4202.179688,4207.179688,4192.179688,4199.615234,4195.769043,0.000000,4.000000,95.000000,,,,0.000000,4.000000,4.000000,4.000000,4.000000,4.000000,4.000000,4.000000,4.000000,4.000000,4.000000,4.000000,4.000000,4.000000,4.000000,100.000000,,,,,,,,,,,,,,,,
1645707239.292837,1645707239.298122,60.000000,0.000000,4201.922852,4200.641113,4196.025879,4210.512695,4200.897461,4207.436035,4211.538574,4211.794922,4215.128418,4202.179688,4204.487305,4190.897461,4202.179688,4196.282227,0.000000,4.000000,95.000000,,,,0.000000,4.000000,4.000000,4.000000,4.000000,4.000000,4.000000,4.000000,4.000000,4.000000,4.000000,4.000000,4.000000,4.000000,4.000000,100.000000,,,,,,,,,,,,,,,,
1645707239.296777,1645707239.302062,61.000000,0.000000,4206.025879,4201.922852,4200.384766,4212.948730,4202.820313,4208.717773,4213.846191,4211.794922,4212.948730,4202.179688,4200.769043,4190.384766,4204.230957,4196.282227,0.000000,4.000000,95.000000,,,,0.000000,4.000000,4.000000,4.000000,4.000000,4.000000,4.000000,4.000000,4.000000,4.000000,4.000000,4.000000,4.000000,4.000000,4.000000,100.000000,,,,,,,,,,,,,,,,
1645707239.300717,1645707239.306002,62.000000,0.000000,4208.077148,4201.410156,4202.436035,4214.615234,4206.282227,4211.282227,4215.641113,4212.307617,4211.153809,4203.461426,4199.358887,4190.000000,4205.128418,4196.282227,0.000000,4.000000,95.000000,,,,0.000000,4.000000,4.000000,4.000000,4.000000,4.000000,4.000000,4.000000,4.000000,4.000000,4.000000,4.000000,4.000000,4.000000,4.000000,100.000000,,,,,,,,,,,,,,,,
1645707239.304657,1645707239.309943,63.000000,0.000000,4207.948730,4200.641113,4202.307617,4215.512695,4209.871582,4214.230957,4216.410156,4212.820313,4210.384766,4205.384766,4200.897461,4189.615234,4205.128418,4196.153809,0.000000,4.000000,95.000000,,,,0.000000,4.000000,4.000000,4.000000,4.000000,4.000000,4.000000,4.000000,4.000000,4.000000,4.000000,4.000000,4.000000,4.000000,4.000000,100.000000,,,,,,,,,,,,,,,,
1645707239.308597,1645707239.313883,64.000000,0.000000,4205.512695,4199.615234,4201.282227,4216.153809,4211.666504,4215.641113,4216.538574,4213.461426,4210.769043,4206.410156,4203.589844,4189.487305,4205.128418,4194.871582,0.000000,4.000000,95.000000,,,,0.000000,4.000000,4.000000,4.000000,4.000000,4.000000,4.000000,4.000000,4.000000,4.000000,4.000000,4.000000,4.000000,4.000000,4.000000,100.000000,,,,,,,,,,,,,,,,
1645707239.312537,1645707239.317823,65.000000,0.000000,4202.563965,4198.077148,4200.512695,4217.051270,4210.897461,4214.743652,4216.666504,4214.487305,4212.051270,4206.025879,4205.769043,4190.769043,4206.025879,4192.436035,0.000000,4.000000,95.000000,,,,0.000000,4.000000,4.000000,4.000000,4.000000,4.000000,4.000000,4.000000,4.000000,4.000000,4.000000,4.000000,4.000000,4.000000,4.000000,100.000000,,,,,,,,,,,,,,,,
1645707239.316477,1645707239.321763,66.000000,0.000000,4201.666504,4196.538574,4200.256348,4219.102539,4209.615234,4213.077148,4216.410156,4215.769043,4213.974121,4205.769043,4207.436035,4193.974121,4207.948730,4190.512695,0.000000,4.000000,95.000000,,,,0.000000,4.000000,4.000000,4.000000,4.000000,4.000000,4.000000,4.000000,4.000000,4.000000,4.000000,4.000000,4.000000,4.000000,4.000000,100.000000,,,,,,,,,,,,,,,,
1645707239.320417,1645707239.325703,67.000000,0.000000,4204.102539,4196.666504,4200.897461,4222.179688,4210.512695,4212.948730,4215.128418,4216.922852,4216.538574,4207.692383,4209.871582,4198.077148,4210.512695,4191.025879,0.000000,4.000000,95.000000,,,,0.000000,4.000000,4.000000,4.000000,4.000000,4.000000,4.000000,4.000000,4.000000,4.000000,4.000000,4.000000,4.000000,4.000000,4.000000,100.000000,,,,,,,,,,,,,,,,
1645707239.324357,1645707239.329643,68.000000,0.000000,4208.461426,4198.717773,4202.179688,4224.615234,4214.102539,4214.743652,4214.102539,4218.333496,4218.717773,4211.794922,4213.077148,4201.794922,4212.563965,4194.487305,0.000000,4.000000,95.000000,,,,0.000000,4.000000,4.000000,4.000000,4.000000,4.000000,4.000000,4.000000,4.000000,4.000000,4.000000,4.000000,4.000000,4.000000,4.000000,100.000000,,,,,,,,,,,,,,,,
1645707239.328298,1645707239.333583,69.000000,0.000000,4211.794922,4201.538574,4202.820313,4224.871582,4218.205078,4217.179688,4214.358887,4220.256348,4218.461426,4215.641113,4216.153809,4203.846191,4213.077148,4199.358887,0.000000,4.000000,95.000000,,,,0.000000,4.000000,4.000000,4.000000,4.000000,4.000000,4.000000,4.000000,4.000000,4.000000,4.000000,4.000000,4.000000,4.000000,4.000000,100.000000,,,,,,,,,,,,,,,,
1645707239.332238,1645707239.337523,70.000000,0.000000,4211.922852,4202.948730,4201.538574,4222.051270,4219.871582,4218.077148,4215.897461,4221.538574,4214.230957,4216.922852,4217.692383,4203.589844,4212.563965,4202.948730,0.000000,4.000000,95.000000,,,,0.000000,4.000000,4.000000,4.000000,4.000000,4.000000,4.000000,4.000000,4.000000,4.000000,4.000000,4.000000,4.000000,4.000000,4.000000,100.000000,,,,,,,,,,,,,,,,
1645707239.336178,1645707239.341463,71.000000,0.000000,4208.589844,4202.051270,4197.820313,4217.692383,4218.589844,4216.922852,4216.282227,4219.615234,4206.282227,4214.871582,4217.179688,4201.153809,4212.179688,4203.461426,0.000000,4.000000,95.000000,,,,0.000000,4.000000,4.000000,4.000000,4.000000,4.000000,4.000000,4.000000,4.000000,4.000000,4.000000,4.000000,4.000000,4.000000,4.000000,100.000000,,,,,,,,,,,,,,,,
1645707239.340118,1645707239.345403,72.000000,0.000000,4203.461426,4199.230957,4193.717773,4214.358887,4215.769043,4214.102539,4213.846191,4213.077148,4197.307617,4210.641113,4215.128418,4197.820313,4212.307617,4201.410156,0.000000,4.000000,95.000000,,,,0.000000,4.000000,4.000000,4.000000,4.000000,4.000000,4.000000,4.000000,4.000000,4.000000,4.000000,4.000000,4.000000,4.000000,4.000000,100.000000,,,,,,,,,,,,,,,,
1645707239.344058,1645707239.349344,73.000000,0.000000,4199.358887,4196.025879,4192.563965,4213.077148,4213.077148,4211.153809,4210.128418,4204.102539,4190.512695,4206.282227,4212.436035,4195.769043,4212.563965,4199.102539,0.000000,4.000000,95.000000,,,,0.000000,4.000000,4.000000,4.000000,4.000000,4.000000,4.000000,4.000000,4.000000,4.000000,4.000000,4.000000,4.000000,4.000000,4.000000,100.000000,,,,,,,,,,,,,,,,
1645707239.347998,1645707239.353284,74.000000,0.000000,4197.948730,4194.358887,4196.025879,4213.333496,4211.538574,4208.846191,4208.205078,4196.794922,4187.820313,4203.333496,4210.128418,4196.794922,4212.563965,4198.846191,0.000000,4.000000,95.000000,,,,0.000000,4.000000,4.000000,4.000000,4.000000,4.000000,4.000000,4.000000,4.000000,4.000000,4.000000,4.000000,4.000000,4.000000,4.000000,100.000000,,,,,,,,,,,,,,,,
1645707239.351938,1645707239.357224,75.000000,0.000000,4200.256348,4195.769043,4202.563965,4213.461426,4211.282227,4207.820313,4209.743652,4194.230957,4189.102539,4202.820313,4210.128418,4200.512695,4213.077148,4201.410156,0.000000,4.000000,95.000000,,,,0.000000,4.000000,4.000000,4.000000,4.000000,4.000000,4.000000,4.000000,4.000000,4.000000,4.000000,4.000000,4.000000,4.000000,4.000000,100.000000,,,,,,,,,,,,,,,,
1645707239.355878,1645707239.361064,76.000000,0.000000,4205.384766,4199.487305,4208.589844,4213.717773,4213.077148,4208.846191,4212.692383,4196.025879,4192.436035,4205.256348,4213.846191,4205.128418,4215.512695,4206.282227,0.000000,4.000000,95.000000,,,,0.000000,4.000000,4.000000,4.000000,4.000000,4.000000,4.000000,4.000000,4.000000,4.000000,4.000000,4.000000,4.000000,4.000000,4.000000,100.000000,,,,,,,,,,,,,,,,
1645707239.359818,1645707239.365004,77.000000,0.000000,4211.410156,4202.948730,4211.282227,4215.384766,4216.666504,4211.794922,4214.102539,4199.743652,4195.512695,4210.769043,4220.512695,4208.589844,4219.871582,4212.051270,0.000000,4.000000,95.000000,,,,0.000000,4.000000,4.000000,4.000000,4.000000,4.000000,4.000000,4.000000,4.000000,4.000000,4.000000,4.000000,4.000000,4.000000,4.000000,100.000000,,,,,,,,,,,,,,,,
1645707239.363758,1645707239.368944,78.000000,0.000000,4214.871582,4203.461426,4210.128418,4218.717773,4220.000000,4215.128418,4213.205078,4203.333496,4196.666504,4217.051270,4227.179688,4209.743652,4223.846191,4216.410156,0.000000,4.000000,95.000000,,,,0.000000,4.000000,4.000000,4.000000,4.000000,4.000000,4.000000,4.000000,4.000000,4.000000,4.000000,4.000000,4.000000,4.000000,4.000000,100.000000,,,,,,,,,,,,,,,,
1645707239.367699,1645707239.372884,79.000000,0.000000,4213.974121,4199.615234,4206.410156,4221.666504,4220.384766,4215.897461,4211.282227,4206.153809,4196.153809,4221.538574,4230.384766,4208.974121,4224.871582,4217.692383,0.000000,4.000000,95.000000,,,,0.000000,4.000000,4.000000,4.000000,4.000000,4.000000,4.000000,4.000000,4.000000,4.000000,4.000000,4.000000,4.000000,4.000000,4.000000,100.000000,,,,,,,,,,,,,,,,
1645707239.371639,1645707239.376824,80.000000,0.000000,4209.743652,4193.974121,4202.051270,4221.922852,4217.436035,4213.333496,4210.256348,4208.974121,4195.769043,4222.307617,4228.974121,4207.307617,4222.692383,4216.410156,0.000000,4.000000,95.000000,,,,0.000000,4.000000,4.000000,4.000000,4.000000,4.000000,4.000000,4.000000,4.000000,4.000000,4.000000,4.000000,4.000000,4.000000,4.000000,100.000000,,,,,,,,,,,,,,,,
1645707239.375579,1645707239.380765,81.000000,0.000000,4205.641113,4190.128418,4199.487305,4219.871582,4213.974121,4209.487305,4210.512695,4211.153809,4197.051270,4221.153809,4225.512695,4206.538574,4220.128418,4214.487305,0.000000,4.000000,95.000000,,,,0.000000,4.000000,4.000000,4.000000,4.000000,4.000000,4.000000,4.000000,4.000000,4.000000,4.000000,4.000000,4.000000,4.000000,4.000000,100.000000,,,,,,,,,,,,,,,,
1645707239.379519,1645707239.384705,82.000000,0.000000,4204.615234,4190.128418,4199.871582,4217.820313,4213.077148,4207.692383,4211.410156,4212.436035,4199.743652,4221.025879,4222.948730,4207.436035,4219.871582,4214.102539,0.000000,4.000000,95.000000,,,,0.000000,4.000000,4.000000,4.000000,4.000000,4.000000,4.000000,4.000000,4.000000,4.000000,4.000000,4.000000,4.000000,4.000000,4.000000,100.000000,,,,,,,,,,,,,,,,
1645707239.383459,1645707239.388645,83.000000,0.000000,4206.922852,4192.179688,4203.077148,4217.820313,4215.641113,4209.615234,4213.077148,4212.948730,4202.563965,4222.948730,4222.179688,4208.974121,4221.410156,4215.000000,0.000000,4.000000,95.000000,,,,0.000000,4.000000,4.000000,4.000000,4.000000,4.000000,4.000000,4.000000,4.000000,4.000000,4.000000,4.000000,4.000000,4.000000,4.000000,100.000000,,,,,,,,,,,,,,,,
1645707239.387399,1645707239.392585,84.000000,0.000000,4209.487305,4193.205078,4207.692383,4218.974121,4219.230957,4213.717773,4216.025879,4213.974121,4203.717773,4225.512695,4221.666504,4209.358887,4221.410156,4215.641113,0.000000,4.000000,95.000000,,,,0.000000,4.000000,4.000000,4.000000,4.000000,4.000000,4.000000,4.000000,4.000000,4.000000,4.000000,4.000000,4.000000,4.000000,4.000000,100.000000,,,,,,,,,,,,,,,,
1645707239.391339,1645707239.396525,85.000000,0.000000,4210.000000,4192.307617,4210.769043,4219.743652,4220.897461,4217.436035,4219.871582,4215.897461,4202.820313,4226.153809,4220.256348,4208.077148,4217.307617,4215.256348,0.000000,4.000000,95.000000,,,,0.000000,4.000000,4.000000,4.000000,4.000000,4.000000,4.000000,4.000000,4.000000,4.000000,4.000000,4.000000,4.000000,4.000000,4.000000,100.000000,,,,,,,,,,,,,,,,
1645707239.395279,1645707239.400465,86.000000,0.000000,4208.205078,4191.282227,4211.153809,4219.358887,4220.000000,4218.974121,4222.051270,4217.563965,4200.769043,4224.615234,4218.974121,4206.282227,4210.769043,4215.256348,0.000000,4.000000,95.000000,,,,0.000000,4.000000,4.000000,4.000000,4.000000,4.000000,4.000000,4.000000,4.000000,4.000000,4.000000,4.000000,4.000000,4.000000,4.000000,100.000000,,,,,,,,,,,,,,,,
1645707239.399219,1645707239.404405,87.000000,0.000000,4207.179688,4192.307617,4209.487305,4218.846191,4217.948730,4218.077148,4220.384766,4217.436035,4200.000000,4222.692383,4219.487305,4206.538574,4206.282227,4217.563965,0.000000,4.000000,95.000000,,,,0.000000,4.000000,4.000000,4.000000,4.000000,4.000000,4.000000,4.000000,4.000000,4.000000,4.000000,4.000000,4.000000,4.000000,4.000000,100.000000,,,,,,,,,,,,,,,,
1645707239.403160,1645707239.408345,88.000000,0.000000,4208.974121,4195.897461,4208.205078,4218.717773,4216.794922,4215.769043,4215.641113,4215.897461,4201.538574,4222.563965,4222.179688,4209.743652,4207.307617,4221.538574,0.000000,4.000000,95.000000,,,,0.000000,4.000000,4.000000,4.000000,4.000000,4.000000,4.000000,4.000000,4.000000,4.000000,4.000000,4.000000,4.000000,4.000000,4.000000,100.000000,,,,,,,,,,,,,,,,
1645707239.407100,1645707239.412285,89.000000,0.000000,4213.205078,4200.641113,4208.974121,4219.230957,4216.922852,4213.846191,4212.179688,4215.256348,4204.358887,4224.102539,4225.256348,4214.743652,4213.205078,4224.743652,0.000000,4.000000,95.000000,,,,0.000000,4.000000,4.000000,4.000000,4.000000,4.000000,4.000000,4.000000,4.000000,4.000000,4.000000,4.000000,4.000000,4.000000,4.000000,100.000000,,,,,,,,,,,,,,,,
1645707239.411040,1645707239.416225,90.000000,0.000000,4217.179688,4205.256348,4211.538574,4220.384766,4218.846191,4214.230957,4213.077148,4217.307617,4206.666504,4226.538574,4226.922852,4219.230957,4220.769043,4225.512695,0.000000,4.000000,95.000000,,,,0.000000,4.000000,4.000000,4.000000,4.000000,4.000000,4.000000,4.000000,4.000000,4.000000,4.000000,4.000000,4.000000,4.000000,4.000000,100.000000,,,,,,,,,,,,,,,,
1645707239.414980,1645707239.420166,91.000000,0.000000,4219.615234,4209.487305,4214.871582,4223.205078,4222.692383,4218.077148,4217.820313,4221.538574,4207.692383,4229.487305,4227.179688,4221.153809,4226.794922,4224.743652,0.000000,4.000000,95.000000,,,,0.000000,4.000000,4.000000,4.000000,4.000000,4.000000,4.000000,4.000000,4.000000,4.000000,4.000000,4.000000,4.000000,4.000000,4.000000,100.000000,,,,,,,,,,,,,,,,
1645707239.418920,1645707239.424106,92.000000,0.000000,4221.282227,4214.102539,4217.820313,4227.692383,4228.589844,4224.102539,4222.692383,4226.153809,4207.820313,4232.692383,4226.794922,4220.512695,4230.128418,4225.384766,0.000000,4.000000,95.000000,,,,0.000000,4.000000,4.000000,4.000000,4.000000,4.000000,4.000000,4.000000,4.000000,4.000000,4.000000,4.000000,4.000000,4.000000,4.000000,100.000000,,,,,,,,,,,,,,,,
1645707239.422860,1645707239.428046,93.000000,0.000000,4222.179688,4217.563965,4220.384766,4231.922852,4234.102539,4229.358887,4224.615234,4229.102539,4207.692383,4235.256348,4226.410156,4218.974121,4230.512695,4228.333496,0.000000,4.000000,95.000000,,,,0.000000,4.000000,4.000000,4.000000,4.000000,4.000000,4.000000,4.000000,4.000000,4.000000,4.000000,4.000000,4.000000,4.000000,4.000000,100.000000,,,,,,,,,,,,,,,,
1645707239.426800,1645707239.431886,94.000000,0.000000,4221.538574,4217.692383,4222.051270,4233.077148,4235.512695,4230.256348,4223.205078,4229.487305,4207.179688,4235.256348,4225.128418,4218.333496,4228.461426,4232.051270,0.000000,4.000000,95.000000,,,,0.000000,4.000000,4.000000,4.000000,4.000000,4.000000,4.000000,4.000000,4.000000,4.000000,4.000000,4.000000,4.000000,4.000000,4.000000,100.000000,,,,,,,,,,,,,,,,
1645707239.430740,1645707239.435826,95.000000,0.000000,4218.205078,4212.948730,4221.922852,4230.512695,4231.153809,4226.282227,4220.384766,4227.051270,4206.794922,4232.307617,4222.436035,4218.461426,4224.615234,4234.102539,0.000000,4.000000,95.000000,,,,0.000000,4.000000,4.000000,4.000000,4.000000,4.000000,4.000000,4.000000,4.000000,4.000000,4.000000,4.000000,4.000000,4.000000,4.000000,100.000000,,,,,,,,,,,,,,,,
1645707239.434680,1645707239.439766,96.000000,0.000000,4213.461426,4205.769043,4219.358887,4226.538574,4224.102539,4220.641113,4217.692383,4222.563965,4206.538574,4228.589844,4219.102539,4217.820313,4221.025879,4233.333496,0.000000,4.000000,95.000000,,,,0.000000,4.000000,4.000000,4.000000,4.000000,4.000000,4.000000,4.000000,4.000000,4.000000,4.000000,4.000000,4.000000,4.000000,4.000000,100.000000,,,,,,,,,,,,,,,,
1645707239.438620,1645707239.443706,97.000000,0.000000,4209.615234,4200.897461,4215.128418,4224.358887,4219.102539,4217.820313,4216.153809,4217.563965,4206.538574,4226.794922,4217.051270,4215.384766,4220.000000,4230.512695,0.000000,4.000000,95.000000,,,,0.000000,4.000000,4.000000,4.000000,4.000000,4.000000,4.000000,4.000000,4.000000,4.000000,4.000000,4.000000,4.000000,4.000000,4.000000,100.000000,,,,,,,,,,,,,,,,
1645707239.442561,1645707239.447646,98.000000,0.000000,4208.846191,4201.666504,4211.922852,4225.128418,4218.333496,4219.487305,4216.153809,4214.230957,4206.025879,4227.436035,4217.692383,4212.179688,4221.666504,4227.563965,0.000000,4.000000,95.000000,,,,0.000000,4.000000,4.000000,4.000000,4.000000,4.000000,4.000000,4.000000,4.000000,4.000000,4.000000,4.000000,4.000000,4.000000,4.000000,100.000000,,,,,,,,,,,,,,,,
1645707239.446501,1645707239.451587,99.000000,0.000000,4210.000000,4206.410156,4212.051270,4227.436035,4220.641113,4223.589844,4217.948730,4213.846191,4204.743652,4228.077148,4219.743652,4209.615234,4223.846191,4225.384766,0.000000,4.000000,95.000000,,,,0.000000,4.000000,4.000000,4.000000,4.000000,4.000000,4.000000,4.000000,4.000000,4.000000,4.000000,4.000000,4.000000,4.000000,4.000000,100.000000,,,,,,,,,,,,,,,,
1645707239.450441,1645707239.455527,100.000000,0.000000,4210.897461,4209.871582,4214.487305,4229.230957,4222.692383,4226.282227,4220.769043,4214.743652,4202.820313,4226.538574,4220.641113,4208.589844,4224.102539,4223.974121,0.000000,4.000000,95.000000,,,,0.000000,4.000000,4.000000,4.000000,4.000000,4.000000,4.000000,4.000000,4.000000,4.000000,4.000000,4.000000,4.000000,4.000000,4.000000,100.000000,,,,,,,,,,,,,,,,
1645707239.454381,1645707239.459467,101.000000,0.000000,4209.615234,4208.205078,4216.025879,4229.102539,4222.436035,4225.641113,4222.179688,4214.102539,4201.538574,4222.820313,4218.461426,4208.461426,4221.153809,4222.820313,0.000000,4.000000,95.000000,,,,0.000000,4.000000,4.000000,4.000000,4.000000,4.000000,4.000000,4.000000,4.000000,4.000000,4.000000,4.000000,4.000000,4.000000,4.000000,100.000000,,,,,,,,,,,,,,,,
1645707239.458321,1645707239.463407,102.000000,0.000000,4206.922852,4202.179688,4214.615234,4226.922852,4220.000000,4222.307617,4220.384766,4210.641113,4201.025879,4218.974121,4213.974121,4208.461426,4216.794922,4221.538574,0.000000,4.000000,95.000000,,,,0.000000,4.000000,4.000000,4.000000,4.000000,4.000000,4.000000,4.000000,4.000000,4.000000,4.000000,4.000000,4.000000,4.000000,4.000000,100.000000,,,,,,,,,,,,,,,,
1645707239.462261,1645707239.467347,103.000000,0.000000,4204.871582,4196.153809,4211.282227,4223.717773,4217.051270,4218.077148,4216.025879,4206.794922,4201.410156,4216.794922,4209.615234,4208.333496,4213.589844,4221.025879,0.000000,4.000000,95.000000,,,,0.000000,4.000000,4.000000,4.000000,4.000000,4.000000,4.000000,4.000000,4.000000,4.000000,4.000000,4.000000,4.000000,4.000000,4.000000,100.000000,,,,,,,,,,,,,,,,
1645707239.466201,1645707239.471287,104.000000,0.000000,4205.128418,4193.974121,4209.487305,4220.769043,4214.230957,4214.871582,4212.563965,4206.153809,4201.794922,4216.794922,4208.077148,4208.846191,4213.717773,4222.820313,0.000000,4.000000,95.000000,,,,0.000000,4.000000,4.000000,4.000000,4.000000,4.000000,4.000000,4.000000,4.000000,4.000000,4.000000,4.000000,4.000000,4.000000,4.000000,100.000000,,,,,,,,,,,,,,,,
1645707239.470141,1645707239.475227,105.000000,0.000000,4207.563965,4196.538574,4211.666504,4220.000000,4212.307617,4213.461426,4213.077148,4209.615234,4201.666504,4217.820313,4210.256348,4210.769043,4216.666504,4227.179688,0.000000,4.000000,95.000000,,,,0.000000,4.000000,4.000000,4.000000,4.000000,4.000000,4.000000,4.000000,4.000000,4.000000,4.000000,4.000000,4.000000,4.000000,4.000000,100.000000,,,,,,,,,,,,,,,,
1645707239.474081,1645707239.479167,106.000000,0.000000,4210.384766,4201.282227,4216.538574,4221.282227,4211.282227,4213.589844,4216.666504,4214.102539,4201.153809,4219.230957,4214.743652,4213.077148,4220.512695,4232.563965,0.000000,4.000000,95.000000,,,,0.000000,4.000000,4.000000,4.000000,4.000000,4.000000,4.000000,4.000000,4.000000,4.000000,4.000000,4.000000,4.000000,4.000000,4.000000,100.000000,,,,,,,,,,,,,,,,
1645707239.478022,1645707239.483107,107.000000,0.000000,4211.666504,4204.743652,4219.743652,4222.563965,4211.538574,4214.230957,4219.102539,4215.769043,4201.025879,4220.256348,4218.846191,4214.230957,4222.307617,4235.769043,0.000000,4.000000,95.000000,,,,0.000000,4.000000,4.000000,4.000000,4.000000,4.000000,4.000000,4.000000,4.000000,4.000000,4.000000,4.000000,4.000000,4.000000,4.000000,100.000000,,,,,,,,,,,,,,,,
1645707239.481962,1645707239.487047,108.000000,0.000000,4210.512695,4203.846191,4218.461426,4221.666504,4212.692383,4214.230957,4217.307617,4213.461426,4201.410156,4220.000000,4219.230957,4212.436035,4220.384766,4233.974121,0.000000,4.000000,95.000000,,,,0.000000,4.000000,4.000000,4.000000,4.000000,4.000000,4.000000,4.000000,4.000000,4.000000,4.000000,4.000000,4.000000,4.000000,4.000000,100.000000,,,,,,,,,,,,,,,,
1645707239.485902,1645707239.490988,109.000000,0.000000,4206.922852,4198.846191,4213.846191,4218.461426,4213.205078,4212.692383,4212.436035,4209.358887,4201.282227,4217.692383,4215.512695,4207.820313,4215.512695,4227.179688,0.000000,4.000000,95.000000,,,,0.000000,4.000000,4.000000,4.000000,4.000000,4.000000,4.000000,4.000000,4.000000,4.000000,4.000000,4.000000,4.000000,4.000000,4.000000,100.000000,,,,,,,,,,,,,,,,
1645707239.489842,1645707239.494928,110.000000,0.000000,4202.948730,4192.563965,4209.230957,4215.128418,4212.436035,4210.000000,4208.205078,4206.538574,4200.641113,4213.717773,4210.512695,4202.436035,4210.769043,4218.974121,0.000000,4.000000,95.000000,,,,0.000000,4.000000,4.000000,4.000000,4.000000,4.000000,4.000000,4.000000,4.000000,4.000000,4.000000,4.000000,4.000000,4.000000,4.000000,100.000000,,,,,,,,,,,,,,,,
1645707239.493782,1645707239.498868,111.000000,0.000000,4200.897461,4188.846191,4207.307617,4213.974121,4210.897461,4207.563965,4206.922852,4206.025879,4199.871582,4210.641113,4208.205078,4198.333496,4209.871582,4214.487305,0.000000,4.000000,95.000000,,,,0.000000,4.000000,4.000000,4.000000,4.000000,4.000000,4.000000,4.000000,4.000000,4.000000,4.000000,4.000000,4.000000,4.000000,4.000000,100.000000,,,,,,,,,,,,,,,,
1645707239.497722,1645707239.502708,112.000000,0.000000,4202.179688,4189.871582,4207.948730,4215.897461,4210.128418,4206.794922,4208.333496,4206.666504,4199.743652,4210.769043,4211.282227,4196.666504,4214.487305,4216.153809,0.000000,4.000000,95.000000,,,,0.000000,4.000000,4.000000,4.000000,4.000000,4.000000,4.000000,4.000000,4.000000,4.000000,4.000000,4.000000,4.000000,4.000000,4.000000,100.000000,,,,,,,,,,,,,,,,
1645707239.501662,1645707239.506648,113.000000,0.000000,4205.000000,4194.615234,4208.974121,4219.102539,4210.641113,4207.948730,4210.384766,4207.307617,4200.641113,4214.230957,4217.692383,4197.179688,4221.922852,4222.307617,0.000000,4.000000,95.000000,,,,0.000000,4.000000,4.000000,4.000000,4.000000,4.000000,4.000000,4.000000,4.000000,4.000000,4.000000,4.000000,4.000000,4.000000,4.000000,100.000000,,,,,,,,,,,,,,,,
1645707239.505602,1645707239.510588,114.000000,0.000000,4206.922852,4199.615234,4208.846191,4221.282227,4211.666504,4210.256348,4212.692383,4208.333496,4201.666504,4218.461426,4223.077148,4198.717773,4227.692383,4227.820313,0.000000,4.000000,95.000000,,,,0.000000,4.000000,4.000000,4.000000,4.000000,4.000000,4.000000,4.000000,4.000000,4.000000,4.000000,4.000000,4.000000,4.000000,4.000000,100.000000,,,,,,,,,,,,,,,,
1645707239.509542,1645707239.514528,115.000000,0.000000,4206.538574,4202.436035,4207.692383,4221.922852,4212.179688,4212.692383,4215.256348,4210.641113,4201.666504,4220.000000,4224.358887,4200.000000,4228.974121,4229.102539,0.000000,4.000000,95.000000,,,,0.000000,4.000000,4.000000,4.000000,4.000000,4.000000,4.000000,4.000000,4.000000,4.000000,4.000000,4.000000,4.000000,4.000000,4.000000,100.000000,,,,,,,,,,,,,,,,
1645707239.513482,1645707239.518468,116.000000,0.000000,4204.743652,4203.333496,4206.794922,4221.666504,4211.922852,4214.615234,4218.205078,4214.487305,4200.384766,4218.846191,4222.307617,4200.256348,4226.666504,4226.025879,0.000000,4.000000,95.000000,,,,0.000000,4.000000,4.000000,4.000000,4.000000,4.000000,4.000000,4.000000,4.000000,4.000000,4.000000,4.000000,4.000000,4.000000,4.000000,100.000000,,,,,,,,,,,,,,,,
1645707239.517423,1645707239.522409,117.000000,0.000000,4203.333496,4203.589844,4206.794922,4220.769043,4211.922852,4216.410156,4220.256348,4219.230957,4199.102539,4217.436035,4220.641113,4200.000000,4224.615234,4222.051270,0.000000,4.000000,95.000000,,,,0.000000,4.000000,4.000000,4.000000,4.000000,4.000000,4.000000,4.000000,4.000000,4.000000,4.000000,4.000000,4.000000,4.000000,4.000000,100.000000,,,,,,,,,,,,,,,,
1645707239.521363,1645707239.526349,118.000000,0.000000,4202.948730,4203.846191,4207.436035,4218.589844,4211.922852,4217.948730,4220.641113,4223.589844,4200.256348,4218.205078,4222.179688,4199.871582,4225.384766,4220.897461,0.000000,4.000000,95.000000,,,,0.000000,4.000000,4.000000,4.000000,4.000000,4.000000,4.000000,4.000000,4.000000,4.000000,4.000000,4.000000,4.000000,4.000000,4.000000,100.000000,,,,,,,,,,,,,,,,
1645707239.525303,1645707239.530289,119.000000,0.000000,4202.948730,4203.333496,4208.077148,4214.487305,4211.410156,4218.717773,4220.128418,4226.538574,4204.487305,4221.282227,4226.282227,4200.000000,4228.333496,4223.333496,0.000000,4.000000,95.000000,,,,0.000000,4.000000,4.000000,4.000000,4.000000,4.000000,4.000000,4.000000,4.000000,4.000000,4.000000,4.000000,4.000000,4.000000,4.000000,100.000000,,,,,,,,,,,,,,,,
1645707239.529243,1645707239.534229,120.000000,0.000000,4202.563965,4202.051270,4208.846191,4209.615234,4210.256348,4218.333496,4220.384766,4227.948730,4209.358887,4224.615234,4230.512695,4200.256348,4231.025879,4227.692383,0.000000,4.000000,95.000000,,,,0.000000,4.000000,4.000000,4.000000,4.000000,4.000000,4.000000,4.000000,4.000000,4.000000,4.000000,4.000000,4.000000,4.000000,4.000000,100.000000,,,,,,,,,,,,,,,,
1645707239.533183,1645707239.538169,121.000000,0.000000,4202.051270,4201.666504,4209.487305,4207.436035,4209.615234,4217.948730,4221.282227,4228.333496,4212.051270,4226.410156,4232.948730,4200.769043,4232.307617,4231.538574,0.000000,4.000000,95.000000,,,,0.000000,4.000000,4.000000,4.000000,4.000000,4.000000,4.000000,4.000000,4.000000,4.000000,4.000000,4.000000,4.000000,4.000000,4.000000,100.000000,,,,,,,,,,,,,,,,
1645707239.537123,1645707239.542109,122.000000,0.000000,4202.307617,4203.717773,4209.871582,4210.128418,4210.897461,4218.333496,4221.153809,4228.077148,4211.025879,4226.410156,4234.358887,4201.538574,4232.948730,4233.589844,0.000000,4.000000,95.000000,,,,0.000000,4.000000,4.000000,4.000000,4.000000,4.000000,4.000000,4.000000,4.000000,4.000000,4.000000,4.000000,4.000000,4.000000,4.000000,100.000000,,,,,,,,,,,,,,,,
1645707239.541063,1645707239.546049,123.000000,0.000000,4204.102539,4207.436035,4209.871582,4217.307617,4214.102539,4219.487305,4218.974121,4227.563965,4207.563965,4225.641113,4235.000000,4202.307617,4233.205078,4232.948730,0.000000,4.000000,95.000000,,,,0.000000,4.000000,4.000000,4.000000,4.000000,4.000000,4.000000,4.000000,4.000000,4.000000,4.000000,4.000000,4.000000,4.000000,4.000000,100.000000,,,,,,,,,,,,,,,,
1645707239.545003,1645707239.549989,124.000000,0.000000,4205.769043,4209.743652,4209.615234,4224.487305,4216.538574,4220.128418,4215.769043,4226.794922,4204.615234,4224.230957,4234.487305,4202.179688,4231.538574,4229.230957,0.000000,4.000000,95.000000,,,,0.000000,4.000000,4.000000,4.000000,4.000000,4.000000,4.000000,4.000000,4.000000,4.000000,4.000000,4.000000,4.000000,4.000000,4.000000,100.000000,,,,,,,,,,,,,,,,
1645707239.548943,1645707239.553929,125.000000,0.000000,4205.641113,4208.461426,4209.487305,4226.922852,4215.384766,4219.102539,4214.102539,4225.641113,4203.974121,4221.410156,4231.538574,4200.384766,4226.666504,4223.205078,0.000000,4.000000,95.000000,,,,0.000000,4.000000,4.000000,4.000000,4.000000,4.000000,4.000000,4.000000,4.000000,4.000000,4.000000,4.000000,4.000000,4.000000,4.000000,100.000000,,,,,,,,,,,,,,,,
1645707239.552884,1645707239.557869,126.000000,0.000000,4203.846191,4204.871582,4209.358887,4223.077148,4211.153809,4215.769043,4214.743652,4224.487305,4205.128418,4217.692383,4226.666504,4197.179688,4220.000000,4217.179688,0.000000,4.000000,95.000000,,,,0.000000,4.000000,4.000000,4.000000,4.000000,4.000000,4.000000,4.000000,4.000000,4.000000,4.000000,4.000000,4.000000,4.000000,4.000000,100.000000,,,,,,,,,,,,,,,,
1645707239.556824,1645707239.561810,127.000000,0.000000,4202.692383,4201.794922,4208.846191,4216.666504,4207.179688,4212.051270,4215.897461,4222.820313,4206.538574,4215.000000,4222.948730,4194.230957,4216.025879,4213.717773,0.000000,4.000000,95.000000,,,,0.000000,4.000000,4.000000,4.000000,4.000000,4.000000,4.000000,4.000000,4.000000,4.000000,4.000000,4.000000,4.000000,4.000000,4.000000,100.000000,,,,,,,,,,,,,,,,
1645707239.560764,1645707239.565750,128.000000,0.000000,4204.102539,4201.538574,4208.205078,4213.205078,4206.025879,4209.871582,4215.769043,4220.641113,4206.794922,4215.128418,4223.077148,4193.205078,4217.563965,4213.974121,3180.000000,4.000000,95.000000,,,,0.000000,4.000000,4.000000,4.000000,4.000000,4.000000,4.000000,4.000000,4.000000,4.000000,4.000000,4.000000,4.000000,4.000000,4.000000,100.000000,,,,,,,,,,,,,,,,
1645707239.564704,1645707239.569790,129.000000,0.000000,4207.820313,4203.974121,4208.974121,4214.871582,4207.692383,4209.871582,4214.358887,4218.077148,4205.512695,4217.179688,4226.538574,4194.615234,4222.563965,4216.410156,3263.000000,4.000000,95.000000,,,,0.000000,4.000000,4.000000,4.000000,4.000000,4.000000,4.000000,4.000000,4.000000,4.000000,4.000000,4.000000,4.000000,4.000000,4.000000,100.000000,,,,,,,,,,,,,,,,
1645707239.568644,1645707239.573730,130.000000,0.000000,4211.153809,4207.179688,4211.538574,4218.846191,4209.871582,4211.410156,4213.589844,4215.512695,4202.820313,4218.461426,4230.384766,4197.436035,4226.025879,4218.589844,3512.000000,4.000000,95.000000,,,,0.000000,4.000000,4.000000,4.000000,4.000000,4.000000,4.000000,4.000000,4.000000,4.000000,4.000000,4.000000,4.000000,4.000000,4.000000,100.000000,,,,,,,,,,,,,,,,
1645707239.572584,1645707239.577670,131.000000,0.000000,4212.563965,4209.487305,4214.871582,4220.256348,4210.897461,4213.205078,4214.230957,4213.333496,4199.871582,4217.307617,4231.410156,4199.743652,4223.846191,4219.358887,3446.000000,4.000000,95.000000,,,,0.000000,4.000000,4.000000,4.000000,4.000000,4.000000,4.000000,4.000000,4.000000,4.000000,4.000000,4.000000,4.000000,4.000000,4.000000,100.000000,,,,,,,,,,,,,,,,
1645707239.576524,1645707239.581610,132.000000,0.000000,4212.051270,4210.384766,4217.307617,4217.820313,4211.153809,4214.743652,4215.128418,4211.153809,4198.333496,4214.615234,4228.974121,4200.256348,4217.436035,4218.974121,3561.000000,4.000000,95.000000,,,,0.000000,4.000000,4.000000,4.000000,4.000000,4.000000,4.000000,4.000000,4.000000,4.000000,4.000000,4.000000,4.000000,4.000000,4.000000,100.000000,,,,,,,,,,,,,,,,
1645707239.580464,1645707239.585550,133.000000,0.000000,4211.410156,4210.000000,4217.948730,4213.717773,4211.666504,4215.512695,4215.128418,4208.589844,4199.230957,4212.051270,4225.384766,4199.743652,4211.410156,4218.717773,3411.000000,4.000000,95.000000,,,,0.000000,4.000000,4.000000,4.000000,4.000000,4.000000,4.000000,4.000000,4.000000,4.000000,4.000000,4.000000,4.000000,4.000000,4.000000,100.000000,,,,,,,,,,,,,,,,
1645707239.584404,1645707239.589490,134.000000,0.000000,4211.666504,4208.589844,4218.077148,4211.666504,4212.436035,4215.000000,4214.230957,4206.666504,4202.563965,4210.641113,4223.205078,4200.000000,4209.871582,4219.230957,2812.000000,4.000000,95.000000,,,,0.000000,4.000000,4.000000,4.000000,4.000000,4.000000,4.000000,4.000000,4.000000,4.000000,4.000000,4.000000,4.000000,4.000000,4.000000,100.000000,,,,,,,,,,,,,,,,
1645707239.588344,1645707239.593430,135.000000,0.000000,4213.205078,4207.051270,4219.487305,4213.717773,4212.436035,4213.205078,4213.589844,4207.179688,4207.051270,4210.384766,4224.230957,4202.692383,4213.461426,4221.025879,2502.000000,4.000000,95.000000,,,,0.000000,4.000000,4.000000,4.000000,4.000000,4.000000,4.000000,4.000000,4.000000,4.000000,4.000000,4.000000,4.000000,4.000000,4.000000,100.000000,,,,,,,,,,,,,,,,
1645707239.592285,1645707239.597370,136.000000,0.000000,4215.897461,4206.922852,4222.563965,4219.358887,4211.922852,4211.153809,4213.974121,4211.410156,4211.025879,4212.179688,4228.461426,4207.563965,4219.871582,4224.358887,1322.000000,4.000000,95.000000,,,,0.000000,4.000000,4.000000,4.000000,4.000000,4.000000,4.000000,4.000000,4.000000,4.000000,4.000000,4.000000,4.000000,4.000000,4.000000,100.000000,,,,,,,,,,,,,,,,
1645707239.596225,1645707239.601311,137.000000,0.000000,4219.487305,4208.974121,4225.769043,4226.025879,4212.307617,4210.897461,4214.743652,4218.846191,4213.974121,4217.179688,4234.487305,4212.948730,4225.641113,4229.102539,3065.000000,4.000000,95.000000,,,,0.000000,4.000000,4.000000,4.000000,4.000000,4.000000,4.000000,4.000000,4.000000,4.000000,4.000000,4.000000,4.000000,4.000000,4.000000,100.000000,,,,,,,,,,,,,,,,
1645707239.600165,1645707239.605251,138.000000,0.000000,4223.077148,4212.051270,4227.436035,4230.897461,4214.487305,4213.461426,4214.743652,4227.051270,4215.897461,4224.743652,4240.384766,4216.922852,4228.717773,4233.974121,3296.000000,4.000000,95.000000,,,,0.000000,4.000000,4.000000,4.000000,4.000000,4.000000,4.000000,4.000000,4.000000,4.000000,4.000000,4.000000,4.000000,4.000000,4.000000,100.000000,1.000000,100.000000,4.000000,4.000000,4.000000,4.000000,4.000000,4.000000,4.000000,4.000000,4.000000,4.000000,4.000000,4.000000,4.000000,4.000000
1645707239.604105,1645707239.609191,139.000000,0.000000,4225.384766,4213.846191,4227.179688,4232.307617,4216.922852,4217.307617,4214.230957,4232.692383,4216.538574,4231.666504,4244.102539,4218.846191,4229.358887,4237.051270,3417.000000,4.000000,95.000000,,,,0.000000,4.000000,4.000000,4.000000,4.000000,4.000000,4.000000,4.000000,4.000000,4.000000,4.000000,4.000000,4.000000,4.000000,4.000000,100.000000,,,,,,,,,,,,,,,,
1645707239.608045,1645707239.613131,140.000000,0.000000,4225.384766,4212.692383,4226.410156,4230.128418,4217.307617,4219.230957,4214.102539,4234.615234,4215.897461,4234.743652,4244.230957,4218.974121,4228.846191,4236.666504,3333.000000,4.000000,95.000000,,,,0.000000,4.000000,4.000000,4.000000,4.000000,4.000000,4.000000,4.000000,4.000000,4.000000,4.000000,4.000000,4.000000,4.000000,4.000000,100.000000,,,,,,,,,,,,,,,,
1645707239.611985,1645707239.617071,141.000000,0.000000,4223.205078,4209.487305,4225.641113,4226.410156,4215.000000,4217.948730,4215.128418,4232.563965,4214.358887,4233.333496,4241.153809,4218.077148,4228.589844,4233.461426,2905.000000,4.000000,95.000000,,,,0.000000,4.000000,4.000000,4.000000,4.000000,4.000000,4.000000,4.000000,4.000000,4.000000,4.000000,4.000000,4.000000,4.000000,4.000000,100.000000,,,,,,,,,,,,,,,,
1645707239.615925,1645707239.621011,142.000000,0.000000,4220.000000,4206.922852,4224.743652,4223.461426,4212.307617,4215.512695,4216.538574,4228.589844,4212.820313,4229.743652,4237.051270,4216.153809,4228.717773,4229.615234,3296.000000,4.000000,95.000000,,,,0.000000,4.000000,4.000000,4.000000,4.000000,4.000000,4.000000,4.000000,4.000000,4.000000,4.000000,4.000000,4.000000,4.000000,4.000000,100.000000,,,,,,,,,,,,,,,,
1645707239.619865,1645707239.624951,143.000000,0.000000,4216.922852,4206.410156,4222.948730,4222.692383,4212.051270,4214.871582,4217.436035,4225.000000,4212.179688,4227.051270,4233.974121,4213.461426,4228.077148,4227.051270,3417.000000,4.000000,95.000000,,,,0.000000,4.000000,4.000000,4.000000,4.000000,4.000000,4.000000,4.000000,4.000000,4.000000,4.000000,4.000000,4.000000,4.000000,4.000000,100.000000,,,,,,,,,,,,,,,,
1645707239.623805,1645707239.628891,144.000000,0.000000,4213.846191,4206.922852,4220.384766,4223.205078,4214.615234,4216.922852,4217.692383,4224.358887,4212.179688,4226.538574,4231.538574,4210.512695,4225.384766,4225.769043,3333.000000,4.000000,95.000000,,,,0.000000,4.000000,4.000000,4.000000,4.000000,4.000000,4.000000,4.000000,4.000000,4.000000,4.000000,4.000000,4.000000,4.000000,4.000000,100.000000,,,,,,,,,,,,,,,,
1645707239.627746,1645707239.632831,145.000000,0.000000,4210.512695,4206.538574,4218.077148,4222.820313,4217.563965,4219.615234,4218.974121,4227.179688,4212.436035,4227.051270,4228.461426,4208.077148,4220.897461,4224.743652,2905.000000,4.000000,95.000000,,,,0.000000,4.000000,4.000000,4.000000,4.000000,4.000000,4.000000,4.000000,4.000000,4.000000,4.000000,4.000000,4.000000,4.000000,4.000000,100.000000,,,,,,,,,,,,,,,,
1645707239.631686,1645707239.636771,146.000000,0.000000,4207.563965,4204.743652,4216.538574,4220.384766,4218.333496,4220.512695,4221.794922,4230.769043,4212.692383,4227.436035,4225.384766,4206.538574,4216.794922,4223.077148,3296.000000,4.000000,95.000000,,,,0.000000,4.000000,4.000000,4.000000,4.000000,4.000000,4.000000,4.000000,4.000000,4.000000,4.000000,4.000000,4.000000,4.000000,4.000000,100.000000,,,,,,,,,,,,,,,,
1645707239.635626,1645707239.640712,147.000000,0.000000,4206.922852,4202.692383,4215.128418,4216.794922,4216.794922,4219.358887,4224.615234,4231.410156,4213.205078,4227.563965,4224.358887,4205.128418,4215.641113,4221.922852,3417.000000,4.000000,95.000000,,,,0.000000,4.000000,4.000000,4.000000,4.000000,4.000000,4.000000,4.000000,4.000000,4.000000,4.000000,4.000000,4.000000,4.000000,4.000000,100.000000,,,,,,,,,,,,,,,,
1645707239.639566,1645707239.644552,148.000000,0.000000,4209.230957,4201.410156,4213.589844,4213.461426,4214.743652,4217.436035,4225.128418,4227.563965,4214.615234,4227.820313,4227.179688,4203.717773,4217.436035,4223.461426,3333.000000,4.000000,95.000000,,,,0.000000,4.000000,4.000000,4.000000,4.000000,4.000000,4.000000,4.000000,4.000000,4.000000,4.000000,4.000000,4.000000,4.000000,4.000000,100.000000,,,,,,,,,,,,,,,,
1645707239.643506,1645707239.648492,149.000000,0.000000,4213.077148,4201.282227,4212.307617,4210.897461,4213.333496,4216.153809,4223.077148,4221.922852,4216.922852,4227.563965,4231.794922,4202.436035,4219.487305,4227.948730,2905.000000,4.000000,95.000000,,,,0.000000,4.000000,4.000000,4.000000,4.000000,4.000000,4.000000,4.000000,4.000000,4.000000,4.000000,4.000000,4.000000,4.000000,4.000000,100.000000,,,,,,,,,,,,,,,,
1645707239.647446,1645707239.652432,150.000000,0.000000,4216.025879,4201.282227,4212.051270,4208.974121,4212.692383,4216.025879,4220.641113,4218.846191,4218.205078,4225.641113,4234.743652,4202.179688,4219.102539,4232.563965,3296.000000,4.000000,95.000000,,,,0.000000,4.000000,4.000000,4.000000,4.000000,4.000000,4.000000,4.000000,4.000000,4.000000,4.000000,4.000000,4.000000,4.000000,4.000000,100.000000,,,,,,,,,,,,,,,,
1645707239.651386,1645707239.656372,151.000000,0.000000,4217.179688,4200.641113,4213.077148,4207.820313,4211.794922,4216.794922,4220.128418,4220.384766,4216.794922,4222.563965,4233.333496,4203.333496,4216.153809,4234.487305,3417.000000,4.000000,95.000000,,,,0.000000,4.000000,4.000000,4.000000,4.000000,4.000000,4.000000,4.000000,4.000000,4.000000,4.000000,4.000000,4.000000,4.000000,4.000000,100.000000,,,,,,,,,,,,,,,,
1645707239.655326,1645707239.660312,152.000000,0.000000,4217.179688,4199.871582,4215.000000,4208.205078,4210.897461,4217.820313,4220.897461,4223.333496,4212.820313,4220.256348,4229.102539,4204.871582,4213.846191,4232.948730,3333.000000,4.000000,95.000000,,,,0.000000,4.000000,4.000000,4.000000,4.000000,4.000000,4.000000,4.000000,4.000000,4.000000,4.000000,4.000000,4.000000,4.000000,4.000000,100.000000,,,,,,,,,,,,,,,,
1645707239.659266,1645707239.664252,153.000000,0.000000,4217.307617,4199.871582,4216.922852,4210.512695,4210.769043,4218.077148,4220.641113,4222.820313,4208.461426,4219.743652,4225.512695,4205.769043,4215.256348,4230.128418,2905.000000,4.000000,95.000000,,,,0.000000,4.000000,4.000000,4.000000,4.000000,4.000000,4.000000,4.000000,4.000000,4.000000,4.000000,4.000000,4.000000,4.000000,4.000000,100.000000,,,,,,,,,,,,,,,,
1645707239.663206,1645707239.668192,154.000000,0.000000,4217.307617,4199.871582,4218.205078,4213.461426,4211.538574,4216.410156,4218.461426,4217.179688,4206.025879,4220.384766,4225.000000,4205.641113,4219.615234,4228.589844,3296.000000,4.000000,95.000000,,,,0.000000,4.000000,4.000000,4.000000,4.000000,4.000000,4.000000,4.000000,4.000000,4.000000,4.000000,4.000000,4.000000,4.000000,4.000000,100.000000,,,,,,,,,,,,,,,,
1645707239.667147,1645707239.672133,155.000000,0.000000,4215.384766,4198.333496,4218.589844,4215.256348,4212.563965,4213.461426,4216.153809,4210.000000,4206.282227,4220.000000,4226.922852,4205.256348,4223.589844,4229.230957,3417.000000,4.000000,95.000000,,,,0.000000,4.000000,4.000000,4.000000,4.000000,4.000000,4.000000,4.000000,4.000000,4.000000,4.000000,4.000000,4.000000,4.000000,4.000000,100.000000,,,,,,,,,,,,,,,,
1645707239.671087,1645707239.676073,156.000000,0.000000,4211.025879,4194.743652,4218.205078,4214.871582,4212.820313,4211.153809,4216.538574,4206.410156,4208.589844,4218.205078,4230.256348,4206.410156,4224.487305,4231.025879,3333.000000,4.000000,95.000000,,,,0.000000,4.000000,4.000000,4.000000,4.000000,4.000000,4.000000,4.000000,4.000000,4.000000,4.000000,4.000000,4.000000,4.000000,4.000000,100.000000,,,,,,,,,,,,,,,,
1645707239.675027,1645707239.680013,157.000000,0.000000,4206.410156,4191.282227,4217.179688,4213.846191,4213.077148,4212.307617,4220.000000,4208.589844,4211.538574,4217.179688,4234.487305,4209.615234,4223.717773,4233.077148,2905.000000,4.000000,95.000000,,,,0.000000,4.000000,4.000000,4.000000,4.000000,4.000000,4.000000,4.000000,4.000000,4.000000,4.000000,4.000000,4.000000,4.000000,4.000000,100.000000,,,,,,,,,,,,,,,,
1645707239.678967,1645707239.683953,158.000000,0.000000,4205.000000,4190.769043,4216.666504,4213.589844,4213.717773,4217.436035,4224.102539,4214.615234,4213.077148,4219.743652,4239.615234,4213.205078,4225.000000,4235.384766,3296.000000,4.000000,95.000000,,,,0.000000,4.000000,4.000000,4.000000,4.000000,4.000000,4.000000,4.000000,4.000000,4.000000,4.000000,4.000000,4.000000,4.000000,4.000000,100.000000,,,,,,,,,,,,,,,,
1645707239.682907,1645707239.687893,159.000000,0.000000,4207.948730,4193.717773,4217.307617,4214.358887,4214.230957,4222.948730,4225.641113,4220.512695,4212.436035,4225.897461,4244.358887,4214.615234,4230.128418,4238.077148,3417.000000,4.000000,95.000000,,,,0.000000,4.000000,4.000000,4.000000,4.000000,4.000000,4.000000,4.000000,4.000000,4.000000,4.000000,4.000000,4.000000,4.000000,4.000000,100.000000,,,,,,,,,,,,,,,,
1645707239.686847,1645707239.691833,160.000000,0.000000,4212.307617,4197.563965,4219.230957,4215.641113,4213.589844,4224.743652,4224.358887,4223.333496,4210.512695,4232.179688,4246.538574,4212.820313,4236.153809,4239.615234,3333.000000,4.000000,95.000000,,,,0.000000,4.000000,4.000000,4.000000,4.000000,4.000000,4.000000,4.000000,4.000000,4.000000,4.000000,4.000000,4.000000,4.000000,4.000000,100.000000,,,,,,,,,,,,,,,,
1645707239.690787,1645707239.695773,161.000000,0.000000,4214.615234,4199.743652,4220.897461,4216.666504,4211.794922,4221.538574,4222.051270,4223.077148,4209.743652,4235.128418,4245.384766,4209.230957,4238.589844,4238.846191,2905.000000,4.000000,95.000000,,,,0.000000,4.000000,4.000000,4.000000,4.000000,4.000000,4.000000,4.000000,4.000000,4.000000,4.000000,4.000000,4.000000,4.000000,4.000000,100.000000,,,,,,,,,,,,,,,,
1645707239.694727,1645707239.699713,162.000000,0.000000,4214.615234,4199.615234,4220.897461,4218.077148,4210.897461,4216.794922,4220.384766,4221.153809,4211.666504,4234.487305,4242.948730,4206.794922,4236.282227,4236.025879,3296.000000,4.000000,95.000000,,,,0.000000,4.000000,4.000000,4.000000,4.000000,4.000000,4.000000,4.000000,4.000000,4.000000,4.000000,4.000000,4.000000,4.000000,4.000000,100.000000,,,,,,,,,,,,,,,,
1645707239.698667,1645707239.703653,163.000000,0.000000,4214.615234,4198.846191,4219.871582,4220.128418,4212.563965,4215.000000,4219.871582,4219.743652,4215.641113,4233.461426,4242.179688,4207.436035,4231.794922,4233.589844,3417.000000,4.000000,95.000000,,,,0.000000,4.000000,4.000000,4.000000,4.000000,4.000000,4.000000,4.000000,4.000000,4.000000,4.000000,4.000000,4.000000,4.000000,4.000000,100.000000,,,,,,,,,,,,,,,,
1645707239.702608,1645707239.707593,164.000000,0.000000,4216.794922,4199.230957,4219.358887,4222.307617,4216.153809,4217.436035,4220.256348,4220.256348,4219.358887,4234.871582,4243.717773,4210.000000,4229.230957,4232.820313,3333.000000,4.000000,95.000000,,,,0.000000,4.000000,4.000000,4.000000,4.000000,4.000000,4.000000,4.000000,4.000000,4.000000,4.000000,4.000000,4.000000,4.000000,4.000000,100.000000,,,,,,,,,,,,,,,,
1645707239.706548,1645707239.711633,165.000000,0.000000,4220.256348,4200.512695,4220.000000,4223.077148,4218.589844,4221.538574,4222.051270,4223.333496,4220.256348,4238.589844,4245.256348,4211.666504,4229.871582,4233.205078,2905.000000,4.000000,95.000000,,,,0.000000,4.000000,4.000000,4.000000,4.000000,4.000000,4.000000,4.000000,4.000000,4.000000,4.000000,4.000000,4.000000,4.000000,4.000000,100.000000,,,,,,,,,,,,,,,,
1645707239.710488,1645707239.715574,166.000000,0.000000,4221.666504,4201.153809,4220.769043,4221.538574,4217.436035,4223.974121,4225.000000,4227.820313,4218.461426,4241.538574,4244.358887,4210.384766,4231.922852,4232.820313,3296.000000,4.000000,95.000000,,,,0.000000,4.000000,4.000000,4.000000,4.000000,4.000000,4.000000,4.000000,4.000000,4.000000,4.000000,4.000000,4.000000,4.000000,4.000000,100.000000,,,,,,,,,,,,,,,,
1645707239.714428,1645707239.719514,167.000000,0.000000,4219.102539,4199.743652,4219.230957,4218.974121,4214.230957,4223.717773,4227.563965,4231.794922,4216.153809,4241.410156,4240.641113,4206.794922,4233.205078,4230.769043,3417.000000,4.000000,95.000000,,,,0.000000,4.000000,4.000000,4.000000,4.000000,4.000000,4.000000,4.000000,4.000000,4.000000,4.000000,4.000000,4.000000,4.000000,4.000000,100.000000,,,,,,,,,,,,,,,,
1645707239.718368,1645707239.723454,168.000000,0.000000,4213.461426,4196.666504,4215.000000,4217.436035,4212.563965,4222.563965,4227.948730,4232.948730,4216.153809,4238.589844,4236.410156,4203.333496,4232.692383,4227.820313,3333.000000,4.000000,95.000000,,,,0.000000,4.000000,4.000000,4.000000,4.000000,4.000000,4.000000,4.000000,4.000000,4.000000,4.000000,4.000000,4.000000,4.000000,4.000000,100.000000,,,,,,,,,,,,,,,,
1645707239.722308,1645707239.727394,169.000000,0.000000,4208.461426,4193.846191,4210.512695,4218.461426,4214.230957,4222.692383,4226.153809,4231.666504,4218.589844,4235.000000,4234.230957,4202.820313,4231.025879,4224.615234,2905.000000,4.000000,95.000000,,,,0.000000,4.000000,4.000000,4.000000,4.000000,4.000000,4.000000,4.000000,4.000000,4.000000,4.000000,4.000000,4.000000,4.000000,4.000000,100.000000,,,,,,,,,,,,,,,,
1645707239.726248,1645707239.731334,170.000000,0.000000,4206.153809,4192.436035,4209.102539,4221.025879,4217.307617,4224.487305,4224.615234,4229.871582,4221.666504,4232.307617,4235.000000,4205.128418,4228.461426,4222.179688,3296.000000,4.000000,95.000000,,,,0.000000,4.000000,4.000000,4.000000,4.000000,4.000000,4.000000,4.000000,4.000000,4.000000,4.000000,4.000000,4.000000,4.000000,4.000000,100.000000,,,,,,,,,,,,,,,,
1645707239.730188,1645707239.735274,171.000000,0.000000,4206.666504,4192.179688,4211.153809,4222.179688,4218.589844,4225.897461,4224.871582,4229.615234,4223.461426,4231.282227,4237.179688,4207.563965,4225.769043,4220.769043,3417.000000,4.000000,95.000000,,,,0.000000,4.000000,4.000000,4.000000,4.000000,4.000000,4.000000,4.000000,4.000000,4.000000,4.000000,4.000000,4.000000,4.000000,4.000000,100.000000,,,,,,,,,,,,,,,,
1645707239.734128,1645707239.739214,172.000000,0.000000,4208.205078,4192.436035,4214.230957,4219.871582,4216.666504,4225.384766,4226.282227,4230.641113,4223.333496,4231.794922,4238.974121,4207.436035,4223.974121,4220.897461,3333.000000,4.000000,95.000000,,,,0.000000,4.000000,4.000000,4.000000,4.000000,4.000000,4.000000,4.000000,4.000000,4.000000,4.000000,4.000000,4.000000,4.000000,4.000000,100.000000,,,,,,,,,,,,,,,,
1645707239.738068,1645707239.743154,173.000000,0.000000,4208.846191,4192.436035,4215.128418,4214.102539,4212.820313,4222.948730,4226.153809,4231.282227,4221.794922,4233.333496,4239.487305,4204.615234,4223.589844,4221.666504,2905.000000,4.000000,95.000000,,,,0.000000,4.000000,4.000000,4.000000,4.000000,4.000000,4.000000,4.000000,4.000000,4.000000,4.000000,4.000000,4.000000,4.000000,4.000000,100.000000,,,,,,,,,,,,,,,,
1645707239.742009,1645707239.747094,174.000000,0.000000,4207.692383,4191.282227,4212.563965,4207.948730,4209.743652,4219.871582,4222.948730,4229.871582,4219.102539,4234.358887,4238.077148,4201.153809,4223.589844,4221.282227,3296.000000,4.000000,95.000000,,,,0.000000,4.000000,4.000000,4.000000,4.000000,4.000000,4.000000,4.000000,4.000000,4.000000,4.000000,4.000000,4.000000,4.000000,4.000000,100.000000,,,,,,,,,,,,,,,,
1645707239.745949,1645707239.751035,175.000000,0.000000,4204.358887,4188.205078,4208.333496,4204.487305,4208.846191,4217.820313,4218.846191,4227.436035,4215.897461,4233.077148,4235.256348,4199.230957,4222.179688,4218.974121,3417.000000,4.000000,95.000000,,,,0.000000,4.000000,4.000000,4.000000,4.000000,4.000000,4.000000,4.000000,4.000000,4.000000,4.000000,4.000000,4.000000,4.000000,4.000000,100.000000,,,,,,,,,,,,,,,,
1645707239.749889,1645707239.754975,176.000000,0.000000,4200.256348,4183.717773,4205.384766,4204.487305,4209.487305,4217.692383,4216.922852,4226.282227,4213.461426,4229.487305,4231.794922,4198.974121,4219.102539,4215.384766,3333.000000,4.000000,95.000000,,,,0.000000,4.000000,4.000000,4.000000,4.000000,4.000000,4.000000,4.000000,4.000000,4.000000,4.000000,4.000000,4.000000,4.000000,4.000000,100.000000,,,,,,,,,,,,,,,,
1645707239.753829,1645707239.758915,177.000000,0.000000,4197.820313,4180.641113,4205.512695,4206.538574,4211.153809,4219.230957,4218.846191,4226.922852,4213.461426,4225.769043,4229.743652,4199.358887,4216.794922,4213.589844,2905.000000,4.000000,95.000000,,,,0.000000,4.000000,4.000000,4.000000,4.000000,4.000000,4.000000,4.000000,4.000000,4.000000,4.000000,4.000000,4.000000,4.000000,4.000000,100.000000,,,,,,,,,,,,,,,,
1645707239.757769,1645707239.762855,178.000000,0.000000,4199.102539,4180.897461,4207.820313,4208.077148,4213.333496,4221.794922,4222.436035,4228.461426,4215.897461,4225.000000,4231.282227,4199.358887,4217.948730,4215.384766,3296.000000,4.000000,95.000000,,,,0.000000,4.000000,4.000000,4.000000,4.000000,4.000000,4.000000,4.000000,4.000000,4.000000,4.000000,4.000000,4.000000,4.000000,4.000000,100.000000,,,,,,,,,,,,,,,,
1645707239.761709,1645707239.766795,179.000000,0.000000,4203.589844,4184.358887,4210.769043,4207.820313,4214.871582,4223.717773,4225.000000,4229.615234,4219.358887,4227.820313,4236.538574,4199.487305,4222.820313,4219.871582,3417.000000,4.000000,95.000000,,,,0.000000,4.000000,4.000000,4.000000,4.000000,4.000000,4.000000,4.000000,4.000000,4.000000,4.000000,4.000000,4.000000,4.000000,4.000000,100.000000,,,,,,,,,,,,,,,,
1645707239.765649,1645707239.770735,180.000000,0.000000,4208.205078,4188.333496,4212.948730,4206.410156,4214.487305,4224.102539,4225.384766,4230.384766,4221.666504,4231.922852,4242.820313,4200.897461,4228.846191,4224.102539,3333.000000,4.000000,95.000000,,,,0.000000,4.000000,4.000000,4.000000,4.000000,4.000000,4.000000,4.000000,4.000000,4.000000,4.000000,4.000000,4.000000,4.000000,4.000000,100.000000,,,,,,,,,,,,,,,,
1645707239.769589,1645707239.774675,181.000000,0.000000,4209.743652,4190.128418,4213.589844,4206.025879,4211.922852,4223.077148,4225.128418,4231.538574,4221.538574,4234.230957,4246.666504,4203.846191,4232.307617,4225.512695,2905.000000,4.000000,95.000000,,,,0.000000,4.000000,4.000000,4.000000,4.000000,4.000000,4.000000,4.000000,4.000000,4.000000,4.000000,4.000000,4.000000,4.000000,4.000000,100.000000,,,,,,,,,,,,,,,,
1645707239.773529,1645707239.778615,182.000000,0.000000,4207.820313,4189.743652,4212.563965,4207.820313,4209.358887,4222.563965,4224.871582,4233.205078,4219.230957,4233.974121,4246.282227,4206.666504,4232.307617,4224.358887,3296.000000,4.000000,95.000000,,,,0.000000,4.000000,4.000000,4.000000,4.000000,4.000000,4.000000,4.000000,4.000000,4.000000,4.000000,4.000000,4.000000,4.000000,4.000000,100.000000,,,,,,,,,,,,,,,,
1645707239.777470,1645707239.782555,183.000000,0.000000,4204.230957,4188.974121,4210.128418,4211.153809,4209.230957,4223.717773,4224.615234,4234.487305,4216.538574,4232.948730,4242.436035,4207.051270,4230.256348,4222.307617,3417.000000,4.000000,95.000000,,,,0.000000,4.000000,4.000000,4.000000,4.000000,4.000000,4.000000,4.000000,4.000000,4.000000,4.000000,4.000000,4.000000,4.000000,4.000000,100.000000,,,,,,,,,,,,,,,,
1645707239.781410,1645707239.786396,184.000000,0.000000,4201.666504,4188.974121,4207.051270,4213.589844,4212.051270,4225.769043,4223.974121,4234.230957,4215.128418,4232.436035,4237.820313,4203.974121,4228.717773,4220.128418,3333.000000,4.000000,95.000000,,,,0.000000,4.000000,4.000000,4.000000,4.000000,4.000000,4.000000,4.000000,4.000000,4.000000,4.000000,4.000000,4.000000,4.000000,4.000000,100.000000,,,,,,,,,,,,,,,,
1645707239.785350,1645707239.790336,185.000000,0.000000,4201.282227,4190.128418,4205.256348,4212.436035,4215.000000,4226.794922,4223.589844,4232.307617,4215.641113,4231.794922,4234.230957,4198.717773,4228.589844,4218.077148,2905.000000,4.000000,95.000000,,,,0.000000,4.000000,4.000000,4.000000,4.000000,4.000000,4.000000,4.000000,4.000000,4.000000,4.000000,4.000000,4.000000,4.000000,4.000000,100.000000,,,,,,,,,,,,,,,,
1645707239.789290,1645707239.794276,186.000000,0.000000,4202.436035,4191.538574,4205.641113,4207.436035,4215.256348,4225.384766,4224.230957,4229.102539,4216.538574,4229.871582,4232.436035,4193.717773,4228.846191,4216.153809,3296.000000,4.000000,95.000000,,,,0.000000,4.000000,4.000000,4.000000,4.000000,4.000000,4.000000,4.000000,4.000000,4.000000,4.000000,4.000000,4.000000,4.000000,4.000000,100.000000,,,,,,,,,,,,,,,,
1645707239.793230,1645707239.798216,187.000000,0.000000,4204.358887,4193.205078,4207.563965,4201.538574,4212.436035,4222.563965,4225.384766,4225.641113,4216.666504,4226.794922,4232.820313,4191.794922,4229.102539,4215.384766,3417.000000,4.000000,95.000000,,,,0.000000,4.000000,4.000000,4.000000,4.000000,4.000000,4.000000,4.000000,4.000000,4.000000,4.000000,4.000000,4.000000,4.000000,4.000000,100.000000,,,,,,,,,,,,,,,,
1645707239.797170,1645707239.802156,188.000000,0.000000,4206.922852,4196.025879,4209.615234,4199.230957,4208.974121,4220.641113,4225.128418,4222.692383,4216.153809,4225.128418,4236.025879,4193.717773,4230.000000,4217.179688,3333.000000,4.000000,95.000000,,,,0.000000,4.000000,4.000000,4.000000,4.000000,4.000000,4.000000,4.000000,4.000000,4.000000,4.000000,4.000000,4.000000,4.000000,4.000000,100.000000,,,,,,,,,,,,,,,,
1645707239.801110,1645707239.806096,189.000000,0.000000,4210.128418,4200.000000,4211.153809,4202.692383,4207.436035,4220.769043,4222.820313,4221.922852,4216.538574,4227.307617,4241.282227,4198.589844,4232.179688,4221.538574,2905.000000,4.000000,95.000000,,,,0.000000,4.000000,4.000000,4.000000,4.000000,4.000000,4.000000,4.000000,4.000000,4.000000,4.000000,4.000000,4.000000,4.000000,4.000000,100.000000,,,,,,,,,,,,,,,,
1645707239.805050,1645707239.810036,190.000000,0.000000,4213.077148,4204.102539,4212.179688,4209.743652,4208.205078,4222.051270,4220.384766,4224.358887,4219.102539,4232.692383,4246.410156,4203.461426,4235.256348,4226.538574,3296.000000,4.000000,95.000000,,,,0.000000,4.000000,4.000000,4.000000,4.000000,4.000000,4.000000,4.000000,4.000000,4.000000,4.000000,4.000000,4.000000,4.000000,4.000000,100.000000,,,,,,,,,,,,,,,,
1645707239.808990,1645707239.813976,191.000000,0.000000,4214.487305,4206.410156,4213.077148,4215.000000,4209.615234,4223.077148,4220.641113,4229.230957,4222.948730,4238.333496,4248.846191,4206.153809,4237.436035,4229.743652,3417.000000,4.000000,95.000000,,,,0.000000,4.000000,4.000000,4.000000,4.000000,4.000000,4.000000,4.000000,4.000000,4.000000,4.000000,4.000000,4.000000,4.000000,4.000000,100.000000,,,,,,,,,,,,,,,,
1645707239.812930,1645707239.817916,192.000000,0.000000,4214.487305,4206.153809,4213.589844,4215.384766,4210.641113,4223.333496,4224.230957,4233.974121,4225.897461,4241.410156,4248.461426,4206.025879,4237.948730,4229.871582,3333.000000,4.000000,95.000000,,,,0.000000,4.000000,4.000000,4.000000,4.000000,4.000000,4.000000,4.000000,4.000000,4.000000,4.000000,4.000000,4.000000,4.000000,4.000000,100.000000,,,,,,,,,,,,,,,,
1645707239.816871,1645707239.821857,193.000000,0.000000,4214.358887,4204.487305,4212.948730,4211.794922,4211.410156,4223.589844,4227.820313,4235.641113,4225.641113,4242.179688,4247.436035,4203.974121,4236.922852,4227.692383,2905.000000,4.000000,95.000000,,,,0.000000,4.000000,4.000000,4.000000,4.000000,4.000000,4.000000,4.000000,4.000000,4.000000,4.000000,4.000000,4.000000,4.000000,4.000000,100.000000,,,,,,,,,,,,,,,,
1645707239.820811,1645707239.825797,194.000000,0.000000,4214.871582,4202.820313,4211.282227,4208.205078,4212.179688,4224.487305,4228.589844,4233.333496,4222.307617,4241.538574,4247.307617,4201.282227,4234.871582,4225.769043,3296.000000,4.000000,95.000000,,,,0.000000,4.000000,4.000000,4.000000,4.000000,4.000000,4.000000,4.000000,4.000000,4.000000,4.000000,4.000000,4.000000,4.000000,4.000000,100.000000,,,,,,,,,,,,,,,,
1645707239.824751,1645707239.829737,195.000000,0.000000,4215.128418,4201.153809,4210.128418,4207.051270,4212.436035,4225.384766,4226.410156,4228.589844,4217.948730,4240.128418,4247.820313,4198.589844,4231.666504,4225.512695,3417.000000,4.000000,95.000000,,,,0.000000,4.000000,4.000000,4.000000,4.000000,4.000000,4.000000,4.000000,4.000000,4.000000,4.000000,4.000000,4.000000,4.000000,4.000000,100.000000,,,,,,,,,,,,,,,,
1645707239.828691,1645707239.833677,196.000000,0.000000,4213.461426,4199.358887,4210.256348,4208.205078,4211.538574,4225.256348,4224.102539,4224.743652,4215.128418,4237.307617,4246.538574,4195.769043,4227.436035,4226.410156,3333.000000,4.000000,95.000000,,,,0.000000,4.000000,4.000000,4.000000,4.000000,4.000000,4.000000,4.000000,4.000000,4.000000,4.000000,4.000000,4.000000,4.000000,4.000000,100.000000,,,,,,,,,,,,,,,,
1645707239.832631,1645707239.837617,197.000000,0.000000,4210.512695,4197.692383,4211.153809,4210.256348,4209.871582,4223.717773,4223.333496,4223.333496,4214.871582,4233.205078,4242.563965,4192.563965,4222.948730,4226.794922,2905.000000,4.000000,95.000000,,,,0.000000,4.000000,4.000000,4.000000,4.000000,4.000000,4.000000,4.000000,4.000000,4.000000,4.000000,4.000000,4.000000,4.000000,4.000000,100.000000,,,,,,,,,,,,,,,,
1645707239.836571,1645707239.841557,198.000000,0.000000,4208.717773,4197.051270,4211.282227,4211.922852,4208.846191,4221.922852,4223.205078,4223.589844,4216.410156,4228.846191,4237.051270,4188.717773,4219.871582,4225.512695,3296.000000,4.000000,95.000000,,,,0.000000,4.000000,4.000000,4.000000,4.000000,4.000000,4.000000,4.000000,4.000000,4.000000,4.000000,4.000000,4.000000,4.000000,4.000000,100.000000,,,,,,,,,,,,,,,,
1645707239.840511,1645707239.845497,199.000000,0.000000,4209.743652,4197.948730,4209.615234,4212.563965,4208.589844,4221.025879,4221.922852,4223.717773,4218.205078,4225.641113,4232.051270,4184.871582,4218.846191,4222.563965,3417.000000,4.000000,95.000000,,,,0.000000,4.000000,4.000000,4.000000,4.000000,4.000000,4.000000,4.000000,4.000000,4.000000,4.000000,4.000000,4.000000,4.000000,4.000000,100.000000,,,,,,,,,,,,,,,,
1645707239.844451,1645707239.849437,200.000000,0.000000,4212.563965,4199.615234,4207.051270,4211.538574,4208.461426,4221.153809,4219.871582,4223.077148,4218.717773,4223.589844,4228.589844,4182.179688,4219.230957,4219.230957,3333.000000,4.000000,95.000000,,,,0.000000,4.000000,4.000000,4.000000,4.000000,4.000000,4.000000,4.000000,4.000000,4.000000,4.000000,4.000000,4.000000,4.000000,4.000000,100.000000,,,,,,,,,,,,,,,,
1645707239.848391,1645707239.853477,201.000000,0.000000,4214.487305,4201.538574,4205.641113,4208.974121,4207.692383,4221.794922,4219.871582,4222.563965,4217.307617,4221.538574,4226.282227,4181.282227,4219.743652,4216.282227,2905.000000,4.000000,95.000000,,,,0.000000,4.000000,4.000000,4.000000,4.000000,4.000000,4.000000,4.000000,4.000000,4.000000,4.000000,4.000000,4.000000,4.000000,4.000000,100.000000,,,,,,,,,,,,,,,,
1645707239.852332,1645707239.857417,202.000000,0.000000,4214.615234,4203.846191,4206.282227,4207.051270,4207.307617,4222.692383,4223.589844,4222.563965,4214.871582,4219.358887,4224.487305,4181.794922,4220.128418,4215.000000,3296.000000,4.000000,95.000000,,,,0.000000,4.000000,4.000000,4.000000,4.000000,4.000000,4.000000,4.000000,4.000000,4.000000,4.000000,4.000000,4.000000,4.000000,4.000000,100.000000,,,,,,,,,,,,,,,,
1645707239.856272,1645707239.861357,203.000000,0.000000,4214.487305,4207.051270,4208.077148,4208.717773,4209.487305,4224.358887,4228.461426,4222.436035,4212.948730,4217.948730,4223.846191,4182.948730,4220.897461,4216.153809,3417.000000,4.000000,95.000000,,,,0.000000,4.000000,4.000000,4.000000,4.000000,4.000000,4.000000,4.000000,4.000000,4.000000,4.000000,4.000000,4.000000,4.000000,4.000000,100.000000,,,,,,,,,,,,,,,,
1645707239.860212,1645707239.865298,204.000000,0.000000,4216.282227,4210.256348,4210.000000,4215.000000,4214.487305,4226.410156,4230.641113,4220.769043,4212.692383,4217.692383,4224.871582,4183.974121,4221.922852,4219.871582,3333.000000,4.000000,95.000000,,,,0.000000,4.000000,4.000000,4.000000,4.000000,4.000000,4.000000,4.000000,4.000000,4.000000,4.000000,4.000000,4.000000,4.000000,4.000000,100.000000,,,,,,,,,,,,,,,,
1645707239.864152,1645707239.869238,205.000000,0.000000,4219.487305,4211.282227,4211.922852,4222.436035,4219.358887,4227.820313,4228.205078,4217.692383,4213.461426,4217.820313,4227.051270,4185.000000,4221.153809,4224.871582,2905.000000,4.000000,95.000000,,,,0.000000,4.000000,4.000000,4.000000,4.000000,4.000000,4.000000,4.000000,4.000000,4.000000,4.000000,4.000000,4.000000,4.000000,4.000000,100.000000,,,,,,,,,,,,,,,,
1645707239.868092,1645707239.873178,206.000000,0.000000,4222.051270,4209.358887,4213.717773,4226.025879,4220.641113,4227.307617,4223.461426,4214.487305,4214.102539,4217.051270,4229.102539,4185.512695,4216.666504,4228.589844,3296.000000,4.000000,95.000000,,,,0.000000,4.000000,4.000000,4.000000,4.000000,4.000000,4.000000,4.000000,4.000000,4.000000,4.000000,4.000000,4.000000,4.000000,4.000000,100.000000,,,,,,,,,,,,,,,,
1645707239.872032,1645707239.877118,207.000000,0.000000,4222.051270,4205.769043,4214.871582,4223.077148,4217.436035,4225.512695,4220.256348,4213.077148,4213.846191,4215.384766,4230.000000,4185.512695,4209.487305,4228.333496,3417.000000,4.000000,95.000000,,,,0.000000,4.000000,4.000000,4.000000,4.000000,4.000000,4.000000,4.000000,4.000000,4.000000,4.000000,4.000000,4.000000,4.000000,4.000000,100.000000,,,,,,,,,,,,,,,,
1645707239.875972,1645707239.881058,208.000000,0.000000,4219.487305,4202.948730,4213.974121,4216.025879,4212.692383,4224.358887,4220.128418,4214.230957,4213.461426,4214.615234,4229.487305,4184.743652,4203.846191,4224.102539,3333.000000,4.000000,95.000000,,,,0.000000,4.000000,4.000000,4.000000,4.000000,4.000000,4.000000,4.000000,4.000000,4.000000,4.000000,4.000000,4.000000,4.000000,4.000000,100.000000,,,,,,,,,,,,,,,,
1645707239.879912,1645707239.884998,209.000000,0.000000,4215.769043,4202.563965,4210.769043,4209.871582,4210.000000,4225.000000,4222.307617,4217.307617,4213.717773,4215.897461,4228.205078,4183.974121,4203.974121,4218.205078,2905.000000,4.000000,95.000000,,,,0.000000,4.000000,4.000000,4.000000,4.000000,4.000000,4.000000,4.000000,4.000000,4.000000,4.000000,4.000000,4.000000,4.000000,4.000000,100.000000,,,,,,,,,,,,,,,,
1645707239.883852,1645707239.888938,210.000000,0.000000,4212.563965,4203.717773,4206.794922,4208.077148,4210.384766,4227.179688,4225.512695,4221.410156,4214.358887,4218.333496,4227.179688,4184.615234,4210.384766,4213.589844,3296.000000,4.000000,95.000000,,,,0.000000,4.000000,4.000000,4.000000,4.000000,4.000000,4.000000,4.000000,4.000000,4.000000,4.000000,4.000000,4.000000,4.000000,4.000000,100.000000,,,,,,,,,,,,,,,,
1645707239.887792,1645707239.892878,211.000000,0.000000,4210.897461,4203.717773,4204.615234,4209.487305,4211.538574,4228.589844,4228.461426,4224.871582,4214.615234,4219.487305,4226.922852,4187.179688,4219.358887,4212.820313,3417.000000,4.000000,95.000000,,,,0.000000,4.000000,4.000000,4.000000,4.000000,4.000000,4.000000,4.000000,4.000000,4.000000,4.000000,4.000000,4.000000,4.000000,4.000000,100.000000,,,,,,,,,,,,,,,,
1645707239.891733,1645707239.896818,212.000000,0.000000,4210.769043,4201.410156,4205.128418,4210.897461,4210.897461,4227.692383,4230.000000,4226.538574,4214.358887,4218.205078,4227.820313,4190.256348,4226.025879,4215.769043,3333.000000,4.000000,95.000000,,,,0.000000,4.000000,4.000000,4.000000,4.000000,4.000000,4.000000,4.000000,4.000000,4.000000,4.000000,4.000000,4.000000,4.000000,4.000000,100.000000,,,,,,,,,,,,,,,,
1645707239.895673,1645707239.900759,213.000000,0.000000,4212.051270,4198.205078,4207.436035,4210.384766,4208.589844,4225.512695,4229.230957,4226.025879,4213.717773,4216.282227,4230.000000,4191.538574,4228.077148,4221.282227,2905.000000,4.000000,95.000000,,,,0.000000,4.000000,4.000000,4.000000,4.000000,4.000000,4.000000,4.000000,4.000000,4.000000,4.000000,4.000000,4.000000,4.000000,4.000000,100.000000,,,,,,,,,,,,,,,,
1645707239.899613,1645707239.904699,214.000000,0.000000,4213.717773,4196.410156,4209.487305,4208.717773,4206.794922,4223.974121,4226.153809,4223.589844,4212.948730,4216.025879,4232.563965,4189.743652,4226.538574,4226.538574,3296.000000,4.000000,95.000000,,,,0.000000,4.000000,4.000000,4.000000,4.000000,4.000000,4.000000,4.000000,4.000000,4.000000,4.000000,4.000000,4.000000,4.000000,4.000000,100.000000,,,,,,,,,,,,,,,,
1645707239.903553,1645707239.908639,215.000000,0.000000,4214.102539,4196.794922,4209.743652,4208.077148,4206.922852,4224.102539,4223.333496,4220.897461,4212.692383,4217.820313,4233.333496,4186.666504,4223.589844,4228.974121,3417.000000,4.000000,95.000000,,,,0.000000,4.000000,4.000000,4.000000,4.000000,4.000000,4.000000,4.000000,4.000000,4.000000,4.000000,4.000000,4.000000,4.000000,4.000000,100.000000,,,,,,,,,,,,,,,,
1645707239.907493,1645707239.912579,216.000000,0.000000,4212.051270,4197.436035,4207.563965,4209.358887,4208.846191,4225.000000,4223.717773,4219.615234,4212.820313,4219.615234,4231.153809,4185.256348,4221.025879,4226.794922,3333.000000,4.000000,95.000000,,,,0.000000,4.000000,4.000000,4.000000,4.000000,4.000000,4.000000,4.000000,4.000000,4.000000,4.000000,4.000000,4.000000,4.000000,4.000000,100.000000,,,,,,,,,,,,,,,,
1645707239.911433,1645707239.916519,217.000000,0.000000,4207.820313,4196.794922,4203.461426,4212.051270,4211.025879,4225.384766,4227.179688,4220.769043,4213.717773,4218.974121,4226.794922,4186.794922,4219.230957,4221.666504,2905.000000,4.000000,95.000000,,,,0.000000,4.000000,4.000000,4.000000,4.000000,4.000000,4.000000,4.000000,4.000000,4.000000,4.000000,4.000000,4.000000,4.000000,4.000000,100.000000,,,,,,,,,,,,,,,,
