title:Alex-xYzInZ3t6XYyKGNveIkzKw, start timestamp:1644852976.068489, stop timestamp:1644853002.742104, headset type:EPOCPLUS, headset serial:3B9AEBFF, headset firmware:626, channels:55, sampling rate:eeg_256, samples:6771      , version:2.1, 
Timestamp,EEG.Counter,EEG.Interpolated,EEG.AF3,EEG.F7,EEG.F3,EEG.FC5,EEG.T7,EEG.P7,EEG.O1,EEG.O2,EEG.P8,EEG.T8,EEG.FC6,EEG.F4,EEG.F8,EEG.AF4,EEG.RawCq,EEG.Battery,EEG.BatteryPercent,MarkerIndex,MarkerType,MarkerValueInt,EEG.MarkerHardware,CQ.AF3,CQ.F7,CQ.F3,CQ.FC5,CQ.T7,CQ.P7,CQ.O1,CQ.O2,CQ.P8,CQ.T8,CQ.FC6,CQ.F4,CQ.F8,CQ.AF4,CQ.Overall,EQ.SampleRateQuality,EQ.OVERALL,EQ.AF3,EQ.F7,EQ.F3,EQ.FC5,EQ.T7,EQ.P7,EQ.O1,EQ.O2,EQ.P8,EQ.T8,EQ.FC6,EQ.F4,EQ.F8,EQ.AF4
1644852976.068489,19.000000,0.000000,4210.128418,4210.769043,4211.794922,4196.666504,4213.974121,4217.179688,4222.051270,4213.205078,4199.871582,4213.461426,4184.743652,4198.333496,4212.179688,4271.410156,3389.000000,4.000000,91.000000,,,,0.000000,4.000000,4.000000,4.000000,4.000000,4.000000,4.000000,4.000000,4.000000,4.000000,4.000000,4.000000,4.000000,4.000000,4.000000,100.000000,,,,,,,,,,,,,,,,
1644852976.072529,20.000000,0.000000,4206.922852,4201.794922,4213.846191,4190.512695,4204.871582,4217.820313,4217.563965,4212.051270,4202.563965,4216.922852,4171.538574,4196.025879,4205.256348,4268.333496,3488.000000,4.000000,91.000000,,,,0.000000,4.000000,4.000000,4.000000,4.000000,4.000000,4.000000,4.000000,4.000000,4.000000,4.000000,4.000000,4.000000,4.000000,4.000000,100.000000,,,,,,,,,,,,,,,,
1644852976.076469,21.000000,0.000000,4201.282227,4191.025879,4211.666504,4184.743652,4200.256348,4218.077148,4213.333496,4210.769043,4205.256348,4217.436035,4173.589844,4196.922852,4197.179688,4260.641113,3347.000000,4.000000,91.000000,,,,0.000000,4.000000,4.000000,4.000000,4.000000,4.000000,4.000000,4.000000,4.000000,4.000000,4.000000,4.000000,4.000000,4.000000,4.000000,100.000000,,,,,,,,,,,,,,,,
1644852976.080409,22.000000,0.000000,4196.666504,4183.333496,4206.538574,4189.871582,4202.307617,4216.410156,4212.051270,4210.256348,4205.769043,4214.487305,4192.563965,4201.538574,4192.820313,4251.153809,3518.000000,4.000000,91.000000,,,,0.000000,4.000000,4.000000,4.000000,4.000000,4.000000,4.000000,4.000000,4.000000,4.000000,4.000000,4.000000,4.000000,4.000000,4.000000,100.000000,,,,,,,,,,,,,,,,
1644852976.084349,23.000000,0.000000,4196.025879,4183.077148,4202.948730,4207.820313,4210.769043,4213.461426,4213.333496,4211.410156,4204.487305,4211.153809,4217.051270,4207.051270,4196.666504,4246.282227,3389.000000,4.000000,91.000000,,,,0.000000,4.000000,4.000000,4.000000,4.000000,4.000000,4.000000,4.000000,4.000000,4.000000,4.000000,4.000000,4.000000,4.000000,4.000000,100.000000,,,,,,,,,,,,,,,,
1644852976.088290,24.000000,0.000000,4199.743652,4191.282227,4203.846191,4226.666504,4223.077148,4211.153809,4214.615234,4214.743652,4203.846191,4211.666504,4232.436035,4210.000000,4208.205078,4249.615234,3488.000000,4.000000,91.000000,,,,0.000000,4.000000,4.000000,4.000000,4.000000,4.000000,4.000000,4.000000,4.000000,4.000000,4.000000,4.000000,4.000000,4.000000,4.000000,100.000000,,,,,,,,,,,,,,,,
1644852976.092230,25.000000,0.000000,4205.128418,4204.230957,4209.102539,4230.512695,4234.102539,4211.410156,4215.128418,4218.974121,4205.769043,4215.641113,4231.794922,4210.128418,4221.538574,4257.948730,3347.000000,4.000000,91.000000,,,,0.000000,4.000000,4.000000,4.000000,4.000000,4.000000,4.000000,4.000000,4.000000,4.000000,4.000000,4.000000,4.000000,4.000000,4.000000,100.000000,,,,,,,,,,,,,,,,
1644852976.096170,26.000000,0.000000,4209.871582,4215.512695,4215.641113,4213.717773,4238.846191,4214.230957,4215.641113,4222.436035,4209.743652,4218.589844,4220.128418,4210.128418,4229.102539,4264.615234,3518.000000,4.000000,91.000000,,,,0.000000,4.000000,4.000000,4.000000,4.000000,4.000000,4.000000,4.000000,4.000000,4.000000,4.000000,4.000000,4.000000,4.000000,4.000000,100.000000,,,,,,,,,,,,,,,,
1644852976.100110,27.000000,0.000000,4213.461426,4219.871582,4219.615234,4186.282227,4234.871582,4216.922852,4216.410156,4223.717773,4213.077148,4217.179688,4208.077148,4211.666504,4228.077148,4265.897461,3389.000000,4.000000,91.000000,,,,0.000000,4.000000,4.000000,4.000000,4.000000,4.000000,4.000000,4.000000,4.000000,4.000000,4.000000,4.000000,4.000000,4.000000,4.000000,100.000000,,,,,,,,,,,,,,,,
1644852976.104050,28.000000,0.000000,4216.025879,4216.538574,4219.102539,4166.410156,4223.974121,4217.307617,4216.410156,4222.692383,4213.461426,4212.563965,4202.051270,4213.974121,4222.948730,4263.974121,3488.000000,4.000000,91.000000,,,,0.000000,4.000000,4.000000,4.000000,4.000000,4.000000,4.000000,4.000000,4.000000,4.000000,4.000000,4.000000,4.000000,4.000000,4.000000,100.000000,,,,,,,,,,,,,,,,
1644852976.107990,29.000000,0.000000,4217.948730,4210.512695,4215.512695,4167.307617,4211.410156,4215.128418,4214.615234,4220.256348,4210.897461,4210.769043,4202.051270,4214.358887,4220.000000,4263.461426,3347.000000,4.000000,91.000000,,,,0.000000,4.000000,4.000000,4.000000,4.000000,4.000000,4.000000,4.000000,4.000000,4.000000,4.000000,4.000000,4.000000,4.000000,4.000000,100.000000,,,,,,,,,,,,,,,,
1644852976.111930,30.000000,0.000000,4218.974121,4207.692383,4212.948730,4188.717773,4203.717773,4212.820313,4212.820313,4218.846191,4208.077148,4216.794922,4204.743652,4211.922852,4222.051270,4266.794922,3518.000000,4.000000,91.000000,,,,0.000000,4.000000,4.000000,4.000000,4.000000,4.000000,4.000000,4.000000,4.000000,4.000000,4.000000,4.000000,4.000000,4.000000,4.000000,100.000000,,,,,,,,,,,,,,,,
1644852976.115870,31.000000,0.000000,4219.102539,4210.000000,4214.102539,4217.179688,4204.487305,4212.820313,4214.102539,4220.128418,4207.820313,4228.717773,4208.589844,4208.717773,4226.025879,4272.436035,3389.000000,4.000000,91.000000,,,,0.000000,4.000000,4.000000,4.000000,4.000000,4.000000,4.000000,4.000000,4.000000,4.000000,4.000000,4.000000,4.000000,4.000000,4.000000,100.000000,,,,,,,,,,,,,,,,
1644852976.119810,32.000000,0.000000,4219.487305,4214.230957,4218.461426,4235.384766,4212.179688,4215.512695,4218.589844,4223.974121,4211.025879,4239.743652,4214.871582,4208.077148,4227.179688,4275.256348,0.000000,4.000000,91.000000,,,,0.000000,4.000000,4.000000,4.000000,4.000000,4.000000,4.000000,4.000000,4.000000,4.000000,4.000000,4.000000,4.000000,4.000000,4.000000,100.000000,,,,,,,,,,,,,,,,
1644852976.123850,33.000000,0.000000,4221.538574,4215.769043,4222.051270,4234.358887,4221.153809,4218.461426,4222.948730,4227.563965,4215.769043,4243.205078,4224.615234,4211.410156,4225.128418,4271.922852,0.000000,4.000000,91.000000,,,,0.000000,4.000000,4.000000,4.000000,4.000000,4.000000,4.000000,4.000000,4.000000,4.000000,4.000000,4.000000,4.000000,4.000000,4.000000,100.000000,,,,,,,,,,,,,,,,
1644852976.127790,34.000000,0.000000,4225.256348,4213.077148,4221.410156,4218.717773,4225.641113,4218.589844,4222.692383,4227.692383,4219.230957,4238.461426,4235.128418,4216.666504,4224.102539,4263.974121,0.000000,4.000000,91.000000,,,,0.000000,4.000000,4.000000,4.000000,4.000000,4.000000,4.000000,4.000000,4.000000,4.000000,4.000000,4.000000,4.000000,4.000000,4.000000,100.000000,,,,,,,,,,,,,,,,
1644852976.131731,35.000000,0.000000,4228.717773,4208.846191,4216.794922,4201.538574,4224.358887,4215.000000,4218.077148,4224.487305,4219.743652,4231.025879,4241.153809,4220.384766,4228.846191,4257.307617,0.000000,4.000000,91.000000,,,,0.000000,4.000000,4.000000,4.000000,4.000000,4.000000,4.000000,4.000000,4.000000,4.000000,4.000000,4.000000,4.000000,4.000000,4.000000,100.000000,,,,,,,,,,,,,,,,
1644852976.135671,36.000000,0.000000,4229.743652,4207.051270,4211.538574,4193.717773,4220.384766,4210.641113,4213.974121,4220.641113,4217.948730,4227.051270,4239.487305,4220.384766,4238.205078,4256.538574,0.000000,4.000000,91.000000,,,,0.000000,4.000000,4.000000,4.000000,4.000000,4.000000,4.000000,4.000000,4.000000,4.000000,4.000000,4.000000,4.000000,4.000000,4.000000,100.000000,,,,,,,,,,,,,,,,
1644852976.139611,37.000000,0.000000,4228.205078,4209.615234,4209.743652,4197.563965,4219.487305,4209.230957,4215.128418,4219.615234,4216.153809,4229.230957,4232.692383,4217.820313,4246.538574,4261.025879,0.000000,4.000000,91.000000,,,,0.000000,4.000000,4.000000,4.000000,4.000000,4.000000,4.000000,4.000000,4.000000,4.000000,4.000000,4.000000,4.000000,4.000000,4.000000,100.000000,,,,,,,,,,,,,,,,
1644852976.143551,38.000000,0.000000,4225.128418,4215.769043,4213.589844,4207.820313,4224.743652,4212.692383,4221.282227,4222.436035,4216.794922,4234.230957,4226.538574,4215.897461,4249.487305,4266.153809,0.000000,4.000000,91.000000,,,,0.000000,4.000000,4.000000,4.000000,4.000000,4.000000,4.000000,4.000000,4.000000,4.000000,4.000000,4.000000,4.000000,4.000000,4.000000,100.000000,,,,,,,,,,,,,,,,
1644852976.147491,39.000000,0.000000,4221.666504,4221.922852,4221.153809,4217.051270,4233.205078,4218.589844,4226.922852,4226.794922,4220.384766,4236.922852,4224.358887,4217.436035,4246.410156,4267.948730,0.000000,4.000000,91.000000,,,,0.000000,4.000000,4.000000,4.000000,4.000000,4.000000,4.000000,4.000000,4.000000,4.000000,4.000000,4.000000,4.000000,4.000000,4.000000,100.000000,,,,,,,,,,,,,,,,
1644852976.151431,40.000000,0.000000,4218.717773,4223.846191,4227.436035,4220.897461,4237.436035,4222.692383,4227.692383,4229.487305,4224.743652,4235.000000,4223.846191,4221.410156,4239.102539,4265.128418,0.000000,4.000000,91.000000,,,,0.000000,4.000000,4.000000,4.000000,4.000000,4.000000,4.000000,4.000000,4.000000,4.000000,4.000000,4.000000,4.000000,4.000000,4.000000,100.000000,,,,,,,,,,,,,,,,
1644852976.155371,41.000000,0.000000,4215.897461,4218.717773,4227.948730,4218.974121,4232.179688,4222.692383,4223.974121,4228.846191,4226.666504,4230.897461,4220.000000,4223.974121,4228.205078,4257.307617,0.000000,4.000000,91.000000,,,,0.000000,4.000000,4.000000,4.000000,4.000000,4.000000,4.000000,4.000000,4.000000,4.000000,4.000000,4.000000,4.000000,4.000000,4.000000,100.000000,,,,,,,,,,,,,,,,
1644852976.159311,42.000000,0.000000,4213.333496,4208.077148,4221.410156,4213.461426,4219.743652,4219.615234,4220.256348,4225.897461,4224.615234,4228.333496,4211.794922,4221.922852,4215.512695,4244.743652,0.000000,4.000000,91.000000,,,,0.000000,4.000000,4.000000,4.000000,4.000000,4.000000,4.000000,4.000000,4.000000,4.000000,4.000000,4.000000,4.000000,4.000000,4.000000,100.000000,,,,,,,,,,,,,,,,
1644852976.163251,43.000000,0.000000,4211.410156,4197.179688,4211.153809,4206.538574,4208.717773,4216.922852,4219.615234,4223.333496,4220.641113,4228.974121,4205.000000,4216.410156,4205.512695,4230.641113,0.000000,4.000000,91.000000,,,,0.000000,4.000000,4.000000,4.000000,4.000000,4.000000,4.000000,4.000000,4.000000,4.000000,4.000000,4.000000,4.000000,4.000000,4.000000,100.000000,,,,,,,,,,,,,,,,
1644852976.167192,44.000000,0.000000,4211.794922,4192.307617,4202.692383,4200.128418,4206.538574,4216.794922,4221.794922,4223.333496,4219.487305,4231.794922,4206.794922,4211.666504,4203.717773,4220.512695,0.000000,4.000000,91.000000,,,,0.000000,4.000000,4.000000,4.000000,4.000000,4.000000,4.000000,4.000000,4.000000,4.000000,4.000000,4.000000,4.000000,4.000000,4.000000,100.000000,,,,,,,,,,,,,,,,
1644852976.171132,45.000000,0.000000,4215.000000,4195.769043,4199.743652,4196.538574,4213.589844,4218.717773,4224.615234,4226.153809,4223.333496,4234.230957,4217.692383,4211.666504,4211.282227,4220.000000,0.000000,4.000000,91.000000,,,,0.000000,4.000000,4.000000,4.000000,4.000000,4.000000,4.000000,4.000000,4.000000,4.000000,4.000000,4.000000,4.000000,4.000000,4.000000,100.000000,,,,,,,,,,,,,,,,
1644852976.175072,46.000000,0.000000,4219.102539,4204.615234,4202.436035,4196.538574,4222.563965,4220.256348,4226.410156,4229.743652,4229.102539,4234.230957,4228.717773,4215.384766,4223.205078,4230.000000,0.000000,4.000000,91.000000,,,,0.000000,4.000000,4.000000,4.000000,4.000000,4.000000,4.000000,4.000000,4.000000,4.000000,4.000000,4.000000,4.000000,4.000000,4.000000,100.000000,,,,,,,,,,,,,,,,
1644852976.179012,47.000000,0.000000,4220.384766,4212.307617,4207.563965,4198.717773,4224.871582,4219.487305,4226.794922,4231.410156,4231.538574,4231.282227,4229.487305,4217.820313,4232.179688,4245.384766,0.000000,4.000000,91.000000,,,,0.000000,4.000000,4.000000,4.000000,4.000000,4.000000,4.000000,4.000000,4.000000,4.000000,4.000000,4.000000,4.000000,4.000000,4.000000,100.000000,,,,,,,,,,,,,,,,
1644852976.182952,48.000000,0.000000,4217.179688,4214.230957,4211.666504,4200.512695,4218.717773,4216.666504,4225.128418,4229.102539,4227.948730,4227.307617,4218.974121,4214.871582,4234.358887,4258.461426,0.000000,4.000000,91.000000,,,,0.000000,4.000000,4.000000,4.000000,4.000000,4.000000,4.000000,4.000000,4.000000,4.000000,4.000000,4.000000,4.000000,4.000000,4.000000,100.000000,,,,,,,,,,,,,,,,
1644852976.186892,49.000000,0.000000,4212.307617,4210.897461,4213.077148,4201.666504,4209.615234,4213.846191,4221.153809,4223.589844,4220.641113,4225.641113,4206.794922,4206.922852,4231.282227,4264.487305,0.000000,4.000000,91.000000,,,,0.000000,4.000000,4.000000,4.000000,4.000000,4.000000,4.000000,4.000000,4.000000,4.000000,4.000000,4.000000,4.000000,4.000000,4.000000,100.000000,,,,,,,,,,,,,,,,
1644852976.190832,50.000000,0.000000,4210.256348,4206.025879,4212.563965,4203.077148,4205.769043,4213.589844,4216.538574,4218.717773,4214.230957,4227.179688,4204.102539,4198.717773,4226.922852,4262.820313,0.000000,4.000000,91.000000,,,,0.000000,4.000000,4.000000,4.000000,4.000000,4.000000,4.000000,4.000000,4.000000,4.000000,4.000000,4.000000,4.000000,4.000000,4.000000,100.000000,,,,,,,,,,,,,,,,
1644852976.194772,51.000000,0.000000,4212.307617,4203.333496,4211.282227,4205.000000,4209.871582,4216.025879,4214.487305,4217.820313,4212.436035,4229.615234,4211.922852,4195.641113,4222.820313,4255.641113,0.000000,4.000000,91.000000,,,,0.000000,4.000000,4.000000,4.000000,4.000000,4.000000,4.000000,4.000000,4.000000,4.000000,4.000000,4.000000,4.000000,4.000000,4.000000,100.000000,,,,,,,,,,,,,,,,
1644852976.198613,52.000000,0.000000,4214.871582,4204.230957,4209.230957,4205.512695,4217.820313,4218.974121,4216.794922,4220.769043,4215.128418,4229.358887,4221.025879,4199.358887,4216.922852,4245.000000,0.000000,4.000000,91.000000,,,,0.000000,4.000000,4.000000,4.000000,4.000000,4.000000,4.000000,4.000000,4.000000,4.000000,4.000000,4.000000,4.000000,4.000000,4.000000,100.000000,,,,,,,,,,,,,,,,
1644852976.202553,53.000000,0.000000,4213.846191,4207.051270,4206.025879,4203.974121,4222.948730,4219.871582,4220.897461,4224.230957,4219.358887,4225.769043,4221.025879,4206.153809,4207.436035,4232.820313,0.000000,4.000000,91.000000,,,,0.000000,4.000000,4.000000,4.000000,4.000000,4.000000,4.000000,4.000000,4.000000,4.000000,4.000000,4.000000,4.000000,4.000000,4.000000,100.000000,,,,,,,,,,,,,,,,
1644852976.206493,54.000000,0.000000,4208.461426,4209.230957,4201.538574,4202.307617,4222.692383,4217.436035,4222.179688,4224.743652,4221.922852,4222.051270,4211.025879,4209.615234,4196.410156,4222.820313,0.000000,4.000000,91.000000,,,,0.000000,4.000000,4.000000,4.000000,4.000000,4.000000,4.000000,4.000000,4.000000,4.000000,4.000000,4.000000,4.000000,4.000000,4.000000,100.000000,,,,,,,,,,,,,,,,
1644852976.210433,55.000000,0.000000,4203.333496,4210.128418,4197.179688,4202.563965,4220.000000,4212.948730,4218.974121,4222.051270,4221.538574,4221.538574,4199.102539,4205.769043,4189.743652,4219.230957,0.000000,4.000000,91.000000,,,,0.000000,4.000000,4.000000,4.000000,4.000000,4.000000,4.000000,4.000000,4.000000,4.000000,4.000000,4.000000,4.000000,4.000000,4.000000,100.000000,,,,,,,,,,,,,,,,
1644852976.214373,56.000000,0.000000,4203.461426,4209.743652,4195.256348,4204.102539,4218.461426,4208.974121,4213.974121,4218.333496,4218.846191,4223.589844,4194.102539,4195.897461,4192.051270,4222.948730,0.000000,4.000000,91.000000,,,,0.000000,4.000000,4.000000,4.000000,4.000000,4.000000,4.000000,4.000000,4.000000,4.000000,4.000000,4.000000,4.000000,4.000000,4.000000,100.000000,,,,,,,,,,,,,,,,
1644852976.218313,57.000000,0.000000,4209.615234,4208.717773,4196.666504,4203.974121,4218.974121,4207.563965,4211.538574,4216.410156,4215.128418,4224.871582,4198.077148,4185.897461,4203.205078,4229.487305,0.000000,4.000000,91.000000,,,,0.000000,4.000000,4.000000,4.000000,4.000000,4.000000,4.000000,4.000000,4.000000,4.000000,4.000000,4.000000,4.000000,4.000000,4.000000,100.000000,,,,,,,,,,,,,,,,
1644852976.222253,58.000000,0.000000,4216.794922,4207.692383,4200.641113,4200.769043,4220.256348,4208.717773,4212.948730,4216.794922,4211.922852,4222.948730,4206.410156,4182.179688,4217.179688,4232.563965,0.000000,4.000000,91.000000,,,,0.000000,4.000000,4.000000,4.000000,4.000000,4.000000,4.000000,4.000000,4.000000,4.000000,4.000000,4.000000,4.000000,4.000000,4.000000,100.000000,,,,,,,,,,,,,,,,
1644852976.226193,59.000000,0.000000,4218.717773,4207.948730,4204.487305,4196.282227,4221.282227,4211.794922,4215.128418,4218.077148,4210.256348,4219.230957,4212.563965,4186.794922,4227.307617,4229.615234,0.000000,4.000000,91.000000,,,,0.000000,4.000000,4.000000,4.000000,4.000000,4.000000,4.000000,4.000000,4.000000,4.000000,4.000000,4.000000,4.000000,4.000000,4.000000,100.000000,,,,,,,,,,,,,,,,
1644852976.230133,60.000000,0.000000,4213.717773,4210.128418,4206.153809,4193.846191,4221.410156,4214.871582,4215.512695,4218.846191,4209.743652,4216.922852,4214.102539,4196.666504,4229.487305,4222.948730,0.000000,4.000000,91.000000,,,,0.000000,4.000000,4.000000,4.000000,4.000000,4.000000,4.000000,4.000000,4.000000,4.000000,4.000000,4.000000,4.000000,4.000000,4.000000,100.000000,,,,,,,,,,,,,,,,
1644852976.234073,61.000000,0.000000,4205.384766,4212.692383,4205.000000,4195.256348,4219.743652,4216.153809,4214.230957,4217.948730,4208.846191,4217.563965,4212.948730,4204.743652,4223.974121,4216.794922,0.000000,4.000000,91.000000,,,,0.000000,4.000000,4.000000,4.000000,4.000000,4.000000,4.000000,4.000000,4.000000,4.000000,4.000000,4.000000,4.000000,4.000000,4.000000,100.000000,,,,,,,,,,,,,,,,
1644852976.238014,62.000000,0.000000,4199.615234,4212.563965,4201.794922,4198.974121,4214.230957,4214.743652,4213.461426,4215.512695,4206.538574,4219.615234,4212.820313,4205.641113,4214.102539,4214.743652,0.000000,4.000000,91.000000,,,,0.000000,4.000000,4.000000,4.000000,4.000000,4.000000,4.000000,4.000000,4.000000,4.000000,4.000000,4.000000,4.000000,4.000000,4.000000,100.000000,,,,,,,,,,,,,,,,
1644852976.241954,63.000000,0.000000,4200.256348,4208.461426,4198.333496,4201.794922,4204.871582,4212.051270,4214.102539,4212.692383,4203.589844,4221.153809,4215.769043,4199.871582,4203.717773,4217.436035,0.000000,4.000000,91.000000,,,,0.000000,4.000000,4.000000,4.000000,4.000000,4.000000,4.000000,4.000000,4.000000,4.000000,4.000000,4.000000,4.000000,4.000000,4.000000,100.000000,,,,,,,,,,,,,,,,
1644852976.245894,64.000000,0.000000,4207.179688,4203.717773,4196.922852,4202.436035,4195.897461,4211.025879,4215.000000,4211.282227,4202.179688,4222.179688,4220.512695,4193.589844,4197.051270,4222.436035,0.000000,4.000000,91.000000,,,,0.000000,4.000000,4.000000,4.000000,4.000000,4.000000,4.000000,4.000000,4.000000,4.000000,4.000000,4.000000,4.000000,4.000000,4.000000,100.000000,,,,,,,,,,,,,,,,
1644852976.249834,65.000000,0.000000,4216.153809,4203.333496,4199.487305,4202.820313,4194.102539,4213.974121,4215.384766,4212.820313,4204.615234,4223.333496,4223.461426,4193.846191,4197.820313,4226.282227,0.000000,4.000000,91.000000,,,,0.000000,4.000000,4.000000,4.000000,4.000000,4.000000,4.000000,4.000000,4.000000,4.000000,4.000000,4.000000,4.000000,4.000000,4.000000,100.000000,,,,,,,,,,,,,,,,
1644852976.253774,66.000000,0.000000,4222.692383,4209.871582,4206.025879,4205.000000,4203.589844,4219.871582,4216.538574,4218.333496,4211.025879,4224.743652,4221.282227,4203.077148,4207.179688,4227.436035,0.000000,4.000000,91.000000,,,,0.000000,4.000000,4.000000,4.000000,4.000000,4.000000,4.000000,4.000000,4.000000,4.000000,4.000000,4.000000,4.000000,4.000000,4.000000,100.000000,,,,,,,,,,,,,,,,
1644852976.257714,67.000000,0.000000,4225.000000,4219.871582,4213.846191,4209.358887,4221.666504,4225.384766,4219.743652,4227.051270,4219.487305,4226.153809,4214.743652,4217.563965,4221.794922,4228.333496,0.000000,4.000000,91.000000,,,,0.000000,4.000000,4.000000,4.000000,4.000000,4.000000,4.000000,4.000000,4.000000,4.000000,4.000000,4.000000,4.000000,4.000000,4.000000,100.000000,,,,,,,,,,,,,,,,
1644852976.261654,68.000000,0.000000,4225.384766,4227.051270,4219.871582,4213.589844,4240.256348,4227.692383,4223.717773,4236.025879,4227.307617,4227.692383,4209.358887,4231.153809,4235.128418,4232.948730,0.000000,4.000000,91.000000,,,,0.000000,4.000000,4.000000,4.000000,4.000000,4.000000,4.000000,4.000000,4.000000,4.000000,4.000000,4.000000,4.000000,4.000000,4.000000,100.000000,,,,,,,,,,,,,,,,
1644852976.265594,69.000000,0.000000,4226.153809,4227.307617,4221.666504,4215.384766,4250.000000,4226.153809,4224.871582,4241.025879,4231.794922,4229.871582,4210.256348,4238.205078,4240.641113,4242.692383,0.000000,4.000000,91.000000,,,,0.000000,4.000000,4.000000,4.000000,4.000000,4.000000,4.000000,4.000000,4.000000,4.000000,4.000000,4.000000,4.000000,4.000000,4.000000,100.000000,,,,,,,,,,,,,,,,
1644852976.269534,70.000000,0.000000,4226.410156,4220.897461,4219.487305,4214.102539,4245.769043,4221.922852,4221.153809,4239.487305,4231.282227,4231.922852,4217.692383,4236.538574,4236.282227,4253.589844,0.000000,4.000000,91.000000,,,,0.000000,4.000000,4.000000,4.000000,4.000000,4.000000,4.000000,4.000000,4.000000,4.000000,4.000000,4.000000,4.000000,4.000000,4.000000,100.000000,,,,,,,,,,,,,,,,
1644852976.273375,71.000000,0.000000,4223.589844,4211.153809,4215.256348,4210.897461,4229.871582,4217.179688,4214.487305,4232.820313,4226.538574,4231.794922,4226.666504,4227.948730,4225.384766,4258.717773,0.000000,4.000000,91.000000,,,,0.000000,4.000000,4.000000,4.000000,4.000000,4.000000,4.000000,4.000000,4.000000,4.000000,4.000000,4.000000,4.000000,4.000000,4.000000,100.000000,,,,,,,,,,,,,,,,
1644852976.277315,72.000000,0.000000,4217.051270,4203.461426,4211.410156,4208.589844,4211.410156,4212.948730,4209.871582,4225.384766,4220.512695,4229.102539,4231.538574,4216.922852,4215.000000,4254.358887,0.000000,4.000000,91.000000,,,,0.000000,4.000000,4.000000,4.000000,4.000000,4.000000,4.000000,4.000000,4.000000,4.000000,4.000000,4.000000,4.000000,4.000000,4.000000,100.000000,,,,,,,,,,,,,,,,
1644852976.281255,73.000000,0.000000,4210.641113,4202.307617,4210.512695,4209.358887,4199.871582,4210.384766,4210.384766,4221.666504,4216.666504,4226.282227,4230.769043,4208.846191,4211.410156,4243.974121,0.000000,4.000000,91.000000,,,,0.000000,4.000000,4.000000,4.000000,4.000000,4.000000,4.000000,4.000000,4.000000,4.000000,4.000000,4.000000,4.000000,4.000000,4.000000,100.000000,,,,,,,,,,,,,,,,
1644852976.285195,74.000000,0.000000,4209.743652,4207.948730,4212.820313,4213.205078,4199.358887,4210.384766,4214.615234,4223.461426,4217.307617,4227.436035,4227.307617,4207.563965,4215.897461,4235.641113,0.000000,4.000000,91.000000,,,,0.000000,4.000000,4.000000,4.000000,4.000000,4.000000,4.000000,4.000000,4.000000,4.000000,4.000000,4.000000,4.000000,4.000000,4.000000,100.000000,,,,,,,,,,,,,,,,
1644852976.289135,75.000000,0.000000,4215.000000,4214.743652,4216.410156,4216.922852,4205.769043,4213.205078,4218.846191,4227.692383,4221.153809,4232.563965,4223.974121,4212.436035,4224.102539,4234.871582,0.000000,4.000000,91.000000,,,,0.000000,4.000000,4.000000,4.000000,4.000000,4.000000,4.000000,4.000000,4.000000,4.000000,4.000000,4.000000,4.000000,4.000000,4.000000,100.000000,,,,,,,,,,,,,,,,
1644852976.293075,76.000000,0.000000,4220.769043,4215.128418,4217.948730,4216.922852,4210.384766,4217.051270,4220.512695,4229.743652,4224.102539,4236.538574,4221.538574,4219.358887,4229.102539,4240.384766,0.000000,4.000000,91.000000,,,,0.000000,4.000000,4.000000,4.000000,4.000000,4.000000,4.000000,4.000000,4.000000,4.000000,4.000000,4.000000,4.000000,4.000000,4.000000,100.000000,,,,,,,,,,,,,,,,
1644852976.297015,77.000000,0.000000,4221.025879,4206.922852,4215.769043,4213.205078,4207.820313,4219.230957,4220.128418,4227.307617,4221.794922,4233.205078,4218.717773,4222.820313,4227.051270,4245.512695,0.000000,4.000000,91.000000,,,,0.000000,4.000000,4.000000,4.000000,4.000000,4.000000,4.000000,4.000000,4.000000,4.000000,4.000000,4.000000,4.000000,4.000000,4.000000,100.000000,,,,,,,,,,,,,,,,
1644852976.300955,78.000000,0.000000,4215.128418,4196.410156,4211.153809,4210.000000,4200.641113,4218.333496,4218.717773,4222.051270,4214.358887,4222.436035,4214.871582,4220.128418,4220.128418,4244.487305,0.000000,4.000000,91.000000,,,,0.000000,4.000000,4.000000,4.000000,4.000000,4.000000,4.000000,4.000000,4.000000,4.000000,4.000000,4.000000,4.000000,4.000000,4.000000,100.000000,,,,,,,,,,,,,,,,
1644852976.304895,79.000000,0.000000,4209.102539,4193.205078,4207.436035,4211.282227,4196.794922,4215.769043,4217.051270,4217.820313,4206.282227,4210.641113,4211.282227,4213.333496,4213.461426,4237.051270,0.000000,4.000000,91.000000,,,,0.000000,4.000000,4.000000,4.000000,4.000000,4.000000,4.000000,4.000000,4.000000,4.000000,4.000000,4.000000,4.000000,4.000000,4.000000,100.000000,,,,,,,,,,,,,,,,
1644852976.308836,80.000000,0.000000,4208.589844,4201.922852,4206.922852,4216.410156,4201.922852,4213.846191,4215.000000,4216.538574,4202.436035,4204.743652,4209.230957,4207.436035,4210.769043,4226.922852,0.000000,4.000000,91.000000,,,,0.000000,4.000000,4.000000,4.000000,4.000000,4.000000,4.000000,4.000000,4.000000,4.000000,4.000000,4.000000,4.000000,4.000000,4.000000,100.000000,,,,,,,,,,,,,,,,
1644852976.312776,81.000000,0.000000,4213.333496,4216.794922,4209.487305,4220.256348,4213.846191,4213.846191,4213.589844,4217.948730,4203.974121,4206.025879,4209.487305,4206.666504,4210.384766,4218.846191,0.000000,4.000000,91.000000,,,,0.000000,4.000000,4.000000,4.000000,4.000000,4.000000,4.000000,4.000000,4.000000,4.000000,4.000000,4.000000,4.000000,4.000000,4.000000,100.000000,,,,,,,,,,,,,,,,
1644852976.316716,82.000000,0.000000,4216.922852,4226.410156,4212.051270,4218.589844,4224.871582,4215.128418,4214.102539,4219.615234,4207.948730,4209.358887,4211.282227,4211.666504,4208.077148,4215.256348,0.000000,4.000000,91.000000,,,,0.000000,4.000000,4.000000,4.000000,4.000000,4.000000,4.000000,4.000000,4.000000,4.000000,4.000000,4.000000,4.000000,4.000000,4.000000,100.000000,,,,,,,,,,,,,,,,
1644852976.320656,83.000000,0.000000,4213.846191,4223.333496,4211.794922,4211.794922,4228.974121,4215.512695,4216.025879,4218.717773,4209.743652,4209.230957,4212.436035,4218.461426,4201.666504,4215.128418,0.000000,4.000000,91.000000,,,,0.000000,4.000000,4.000000,4.000000,4.000000,4.000000,4.000000,4.000000,4.000000,4.000000,4.000000,4.000000,4.000000,4.000000,4.000000,100.000000,,,,,,,,,,,,,,,,
1644852976.324596,84.000000,0.000000,4205.512695,4210.000000,4207.948730,4205.128418,4225.256348,4213.589844,4216.282227,4214.230957,4207.307617,4205.384766,4211.153809,4221.794922,4193.589844,4215.897461,0.000000,4.000000,91.000000,,,,0.000000,4.000000,4.000000,4.000000,4.000000,4.000000,4.000000,4.000000,4.000000,4.000000,4.000000,4.000000,4.000000,4.000000,4.000000,100.000000,,,,,,,,,,,,,,,,
1644852976.328536,85.000000,0.000000,4199.230957,4196.410156,4202.563965,4203.461426,4217.307617,4209.487305,4213.077148,4207.820313,4202.820313,4202.820313,4208.846191,4218.717773,4190.256348,4216.538574,0.000000,4.000000,91.000000,,,,0.000000,4.000000,4.000000,4.000000,4.000000,4.000000,4.000000,4.000000,4.000000,4.000000,4.000000,4.000000,4.000000,4.000000,4.000000,100.000000,,,,,,,,,,,,,,,,
1644852976.332476,86.000000,0.000000,4202.051270,4192.820313,4199.743652,4207.948730,4209.230957,4206.025879,4208.333496,4204.102539,4201.153809,4206.538574,4209.615234,4210.897461,4196.282227,4219.230957,0.000000,4.000000,91.000000,,,,0.000000,4.000000,4.000000,4.000000,4.000000,4.000000,4.000000,4.000000,4.000000,4.000000,4.000000,4.000000,4.000000,4.000000,4.000000,100.000000,,,,,,,,,,,,,,,,
1644852976.336416,87.000000,0.000000,4214.230957,4202.307617,4202.948730,4214.743652,4203.717773,4206.282227,4206.666504,4206.410156,4205.128418,4216.410156,4217.563965,4204.487305,4211.794922,4226.282227,0.000000,4.000000,91.000000,,,,0.000000,4.000000,4.000000,4.000000,4.000000,4.000000,4.000000,4.000000,4.000000,4.000000,4.000000,4.000000,4.000000,4.000000,4.000000,100.000000,,,,,,,,,,,,,,,,
1644852976.340356,88.000000,0.000000,4229.102539,4219.230957,4212.051270,4219.230957,4202.692383,4211.025879,4210.384766,4214.743652,4213.846191,4227.820313,4231.282227,4205.128418,4232.307617,4236.922852,0.000000,4.000000,91.000000,,,,0.000000,4.000000,4.000000,4.000000,4.000000,4.000000,4.000000,4.000000,4.000000,4.000000,4.000000,4.000000,4.000000,4.000000,4.000000,100.000000,,,,,,,,,,,,,,,,
1644852976.344396,89.000000,0.000000,4238.589844,4232.563965,4223.205078,4219.102539,4207.436035,4217.948730,4216.922852,4224.871582,4223.589844,4235.000000,4243.461426,4214.230957,4250.897461,4246.410156,0.000000,4.000000,91.000000,,,,0.000000,4.000000,4.000000,4.000000,4.000000,4.000000,4.000000,4.000000,4.000000,4.000000,4.000000,4.000000,4.000000,4.000000,4.000000,100.000000,,,,,,,,,,,,,,,,
1644852976.348337,90.000000,0.000000,4238.461426,4233.974121,4230.512695,4216.666504,4216.666504,4222.948730,4221.282227,4231.666504,4230.384766,4236.922852,4246.794922,4227.179688,4260.769043,4248.589844,0.000000,4.000000,91.000000,,,,0.000000,4.000000,4.000000,4.000000,4.000000,4.000000,4.000000,4.000000,4.000000,4.000000,4.000000,4.000000,4.000000,4.000000,4.000000,100.000000,1.000000,66.666664,4.000000,4.000000,4.000000,4.000000,3.000000,4.000000,4.000000,4.000000,4.000000,4.000000,4.000000,4.000000,4.000000,1.000000
1644852976.352277,91.000000,0.000000,4230.512695,4223.461426,4230.641113,4216.410156,4226.153809,4223.589844,4221.153809,4232.692383,4232.051270,4236.538574,4239.871582,4236.538574,4257.820313,4241.282227,0.000000,4.000000,91.000000,,,,0.000000,4.000000,4.000000,4.000000,4.000000,4.000000,4.000000,4.000000,4.000000,4.000000,4.000000,4.000000,4.000000,4.000000,4.000000,100.000000,,,,,,,,,,,,,,,,
1644852976.356217,92.000000,0.000000,4220.000000,4209.615234,4223.974121,4221.153809,4230.641113,4220.384766,4218.846191,4229.230957,4229.230957,4236.922852,4229.358887,4236.794922,4243.461426,4228.974121,0.000000,4.000000,91.000000,,,,0.000000,4.000000,4.000000,4.000000,4.000000,4.000000,4.000000,4.000000,4.000000,4.000000,4.000000,4.000000,4.000000,4.000000,4.000000,100.000000,,,,,,,,,,,,,,,,
1644852976.360157,93.000000,0.000000,4210.897461,4202.948730,4215.000000,4229.487305,4227.948730,4216.410156,4217.179688,4224.230957,4223.846191,4237.948730,4223.461426,4227.179688,4225.256348,4219.743652,0.000000,4.000000,91.000000,,,,0.000000,4.000000,4.000000,4.000000,4.000000,4.000000,4.000000,4.000000,4.000000,4.000000,4.000000,4.000000,4.000000,4.000000,4.000000,100.000000,,,,,,,,,,,,,,,,
1644852976.364197,94.000000,0.000000,4205.000000,4207.179688,4207.820313,4235.769043,4220.384766,4214.102539,4216.666504,4220.000000,4217.948730,4236.410156,4225.641113,4212.436035,4211.025879,4218.077148,0.000000,4.000000,91.000000,,,,0.000000,4.000000,4.000000,4.000000,4.000000,4.000000,4.000000,4.000000,4.000000,4.000000,4.000000,4.000000,4.000000,4.000000,4.000000,100.000000,,,,,,,,,,,,,,,,
1644852976.368137,95.000000,0.000000,4202.692383,4217.436035,4203.461426,4234.615234,4212.948730,4214.487305,4215.641113,4216.922852,4212.948730,4229.743652,4232.051270,4200.000000,4204.487305,4221.282227,0.000000,4.000000,91.000000,,,,0.000000,4.000000,4.000000,4.000000,4.000000,4.000000,4.000000,4.000000,4.000000,4.000000,4.000000,4.000000,4.000000,4.000000,4.000000,100.000000,,,,,,,,,,,,,,,,
1644852976.372077,96.000000,0.000000,4204.230957,4224.871582,4200.897461,4225.256348,4209.743652,4216.666504,4213.461426,4215.000000,4209.102539,4219.358887,4236.153809,4195.384766,4204.487305,4222.563965,0.000000,4.000000,91.000000,,,,0.000000,4.000000,4.000000,4.000000,4.000000,4.000000,4.000000,4.000000,4.000000,4.000000,4.000000,4.000000,4.000000,4.000000,4.000000,100.000000,,,,,,,,,,,,,,,,
1644852976.376017,97.000000,0.000000,4209.358887,4224.615234,4199.615234,4212.820313,4212.307617,4218.974121,4211.922852,4214.487305,4206.922852,4211.153809,4233.846191,4199.358887,4208.589844,4218.717773,0.000000,4.000000,91.000000,,,,0.000000,4.000000,4.000000,4.000000,4.000000,4.000000,4.000000,4.000000,4.000000,4.000000,4.000000,4.000000,4.000000,4.000000,4.000000,100.000000,,,,,,,,,,,,,,,,
1644852976.379957,98.000000,0.000000,4216.410156,4218.461426,4199.871582,4205.384766,4219.487305,4220.128418,4213.077148,4215.641113,4206.794922,4210.897461,4226.282227,4207.436035,4215.641113,4213.461426,0.000000,4.000000,91.000000,,,,0.000000,4.000000,4.000000,4.000000,4.000000,4.000000,4.000000,4.000000,4.000000,4.000000,4.000000,4.000000,4.000000,4.000000,4.000000,100.000000,,,,,,,,,,,,,,,,
1644852976.383897,99.000000,0.000000,4222.051270,4213.205078,4202.436035,4207.179688,4228.846191,4219.487305,4215.769043,4217.692383,4208.333496,4218.717773,4218.461426,4213.717773,4225.128418,4212.948730,0.000000,4.000000,91.000000,,,,0.000000,4.000000,4.000000,4.000000,4.000000,4.000000,4.000000,4.000000,4.000000,4.000000,4.000000,4.000000,4.000000,4.000000,4.000000,100.000000,,,,,,,,,,,,,,,,
1644852976.387837,100.000000,0.000000,4223.461426,4213.846191,4206.153809,4215.128418,4235.256348,4216.794922,4216.538574,4219.230957,4210.769043,4228.205078,4214.102539,4213.717773,4234.871582,4219.230957,0.000000,4.000000,91.000000,,,,0.000000,4.000000,4.000000,4.000000,4.000000,4.000000,4.000000,4.000000,4.000000,4.000000,4.000000,4.000000,4.000000,4.000000,4.000000,100.000000,,,,,,,,,,,,,,,,
1644852976.391778,101.000000,0.000000,4219.615234,4219.358887,4209.358887,4221.794922,4233.333496,4212.179688,4214.102539,4218.717773,4212.179688,4231.538574,4213.974121,4207.563965,4239.230957,4226.922852,0.000000,4.000000,91.000000,,,,0.000000,4.000000,4.000000,4.000000,4.000000,4.000000,4.000000,4.000000,4.000000,4.000000,4.000000,4.000000,4.000000,4.000000,4.000000,100.000000,,,,,,,,,,,,,,,,
1644852976.395718,102.000000,0.000000,4212.692383,4223.461426,4211.025879,4221.666504,4222.436035,4207.179688,4210.897461,4217.051270,4211.666504,4225.384766,4216.282227,4198.974121,4233.589844,4228.205078,0.000000,4.000000,91.000000,,,,0.000000,4.000000,4.000000,4.000000,4.000000,4.000000,4.000000,4.000000,4.000000,4.000000,4.000000,4.000000,4.000000,4.000000,4.000000,100.000000,,,,,,,,,,,,,,,,
1644852976.399658,103.000000,0.000000,4205.512695,4221.282227,4211.666504,4215.128418,4209.615234,4204.743652,4210.641113,4216.666504,4210.000000,4214.230957,4218.589844,4193.717773,4218.461426,4219.871582,0.000000,4.000000,91.000000,1,1,1,0.000000,4.000000,4.000000,4.000000,4.000000,4.000000,4.000000,4.000000,4.000000,4.000000,4.000000,4.000000,4.000000,4.000000,4.000000,100.000000,,,,,,,,,,,,,,,,
1644852976.403598,104.000000,0.000000,4200.512695,4213.333496,4212.307617,4206.922852,4204.102539,4207.436035,4214.102539,4219.230957,4209.487305,4206.153809,4219.615234,4195.128418,4201.153809,4206.282227,0.000000,4.000000,91.000000,,,,0.000000,4.000000,4.000000,4.000000,4.000000,4.000000,4.000000,4.000000,4.000000,4.000000,4.000000,4.000000,4.000000,4.000000,4.000000,100.000000,,,,,,,,,,,,,,,,
1644852976.407438,105.000000,0.000000,4198.461426,4205.384766,4212.436035,4202.051270,4209.230957,4214.615234,4218.846191,4223.589844,4211.282227,4206.025879,4219.615234,4201.410156,4189.487305,4195.769043,0.000000,4.000000,91.000000,,,,0.000000,4.000000,4.000000,4.000000,4.000000,4.000000,4.000000,4.000000,4.000000,4.000000,4.000000,4.000000,4.000000,4.000000,4.000000,100.000000,,,,,,,,,,,,,,,,
1644852976.411378,106.000000,0.000000,4198.717773,4203.077148,4211.410156,4201.666504,4219.358887,4222.179688,4221.666504,4226.282227,4214.102539,4211.538574,4217.563965,4207.179688,4186.666504,4193.333496,0.000000,4.000000,91.000000,,,,0.000000,4.000000,4.000000,4.000000,4.000000,4.000000,4.000000,4.000000,4.000000,4.000000,4.000000,4.000000,4.000000,4.000000,4.000000,100.000000,,,,,,,,,,,,,,,,
1644852976.415318,107.000000,0.000000,4200.256348,4206.794922,4209.615234,4203.589844,4224.487305,4225.384766,4221.538574,4224.871582,4214.102539,4216.153809,4211.666504,4206.922852,4189.358887,4196.922852,0.000000,4.000000,91.000000,,,,0.000000,4.000000,4.000000,4.000000,4.000000,4.000000,4.000000,4.000000,4.000000,4.000000,4.000000,4.000000,4.000000,4.000000,4.000000,100.000000,,,,,,,,,,,,,,,,
1644852976.419258,108.000000,0.000000,4201.538574,4211.538574,4207.820313,4204.615234,4218.974121,4222.563965,4219.871582,4219.615234,4210.384766,4215.256348,4202.051270,4199.230957,4192.563965,4201.410156,0.000000,4.000000,91.000000,,,,0.000000,4.000000,4.000000,4.000000,4.000000,4.000000,4.000000,4.000000,4.000000,4.000000,4.000000,4.000000,4.000000,4.000000,4.000000,100.000000,,,,,,,,,,,,,,,,
1644852976.423199,109.000000,0.000000,4201.538574,4211.922852,4206.025879,4203.333496,4205.769043,4216.922852,4217.563965,4214.102539,4205.897461,4209.487305,4193.589844,4188.461426,4194.615234,4203.461426,0.000000,4.000000,91.000000,,,,0.000000,4.000000,4.000000,4.000000,4.000000,4.000000,4.000000,4.000000,4.000000,4.000000,4.000000,4.000000,4.000000,4.000000,4.000000,100.000000,,,,,,,,,,,,,,,,
1644852976.427139,110.000000,0.000000,4200.256348,4206.794922,4203.333496,4201.025879,4194.358887,4213.205078,4214.615234,4211.666504,4204.871582,4203.846191,4192.820313,4181.282227,4197.051270,4202.948730,0.000000,4.000000,91.000000,,,,0.000000,4.000000,4.000000,4.000000,4.000000,4.000000,4.000000,4.000000,4.000000,4.000000,4.000000,4.000000,4.000000,4.000000,4.000000,100.000000,,,,,,,,,,,,,,,,
1644852976.431079,111.000000,0.000000,4199.487305,4200.256348,4200.256348,4200.897461,4193.717773,4214.230957,4211.794922,4213.333496,4209.230957,4203.974121,4201.794922,4183.589844,4202.307617,4201.153809,0.000000,4.000000,91.000000,,,,0.000000,4.000000,4.000000,4.000000,4.000000,4.000000,4.000000,4.000000,4.000000,4.000000,4.000000,4.000000,4.000000,4.000000,4.000000,100.000000,,,,,,,,,,,,,,,,
1644852976.435019,112.000000,0.000000,4201.538574,4197.948730,4199.102539,4205.384766,4205.641113,4218.846191,4211.410156,4218.205078,4216.666504,4211.282227,4215.897461,4196.282227,4209.615234,4198.717773,0.000000,4.000000,91.000000,,,,0.000000,4.000000,4.000000,4.000000,4.000000,4.000000,4.000000,4.000000,4.000000,4.000000,4.000000,4.000000,4.000000,4.000000,4.000000,100.000000,,,,,,,,,,,,,,,,
1644852976.438959,113.000000,0.000000,4206.794922,4202.563965,4202.179688,4213.205078,4222.948730,4223.333496,4214.487305,4224.102539,4223.461426,4222.692383,4227.563965,4213.974121,4215.384766,4196.666504,0.000000,4.000000,91.000000,,,,0.000000,4.000000,4.000000,4.000000,4.000000,4.000000,4.000000,4.000000,4.000000,4.000000,4.000000,4.000000,4.000000,4.000000,4.000000,100.000000,,,,,,,,,,,,,,,,
1644852976.442899,114.000000,0.000000,4212.692383,4210.769043,4208.846191,4219.358887,4234.743652,4224.615234,4218.846191,4228.333496,4226.282227,4232.051270,4232.179688,4228.205078,4216.282227,4196.025879,0.000000,4.000000,91.000000,,,,0.000000,4.000000,4.000000,4.000000,4.000000,4.000000,4.000000,4.000000,4.000000,4.000000,4.000000,4.000000,4.000000,4.000000,4.000000,100.000000,,,,,,,,,,,,,,,,
1644852976.446839,115.000000,0.000000,4215.641113,4216.410156,4215.256348,4218.589844,4234.487305,4222.436035,4220.512695,4229.102539,4224.743652,4234.487305,4230.769043,4231.922852,4213.333496,4197.692383,0.000000,4.000000,91.000000,,,,0.000000,4.000000,4.000000,4.000000,4.000000,4.000000,4.000000,4.000000,4.000000,4.000000,4.000000,4.000000,4.000000,4.000000,4.000000,100.000000,,,,,,,,,,,,,,,,
1644852976.450779,116.000000,0.000000,4213.846191,4215.256348,4217.692383,4210.512695,4224.743652,4218.846191,4218.461426,4226.153809,4220.641113,4229.871582,4227.436035,4224.871582,4210.897461,4202.563965,0.000000,4.000000,91.000000,,,,0.000000,4.000000,4.000000,4.000000,4.000000,4.000000,4.000000,4.000000,4.000000,4.000000,4.000000,4.000000,4.000000,4.000000,4.000000,100.000000,,,,,,,,,,,,,,,,
1644852976.454719,117.000000,0.000000,4209.871582,4208.333496,4215.384766,4201.282227,4214.871582,4216.282227,4215.512695,4222.307617,4217.051270,4222.307617,4225.000000,4212.948730,4213.333496,4211.153809,0.000000,4.000000,91.000000,,,,0.000000,4.000000,4.000000,4.000000,4.000000,4.000000,4.000000,4.000000,4.000000,4.000000,4.000000,4.000000,4.000000,4.000000,4.000000,100.000000,,,,,,,,,,,,,,,,
1644852976.458659,118.000000,0.000000,4208.077148,4200.641113,4211.153809,4198.461426,4212.307617,4215.769043,4215.256348,4220.384766,4215.897461,4216.922852,4224.487305,4203.974121,4221.025879,4222.692383,0.000000,4.000000,91.000000,,,,0.000000,4.000000,4.000000,4.000000,4.000000,4.000000,4.000000,4.000000,4.000000,4.000000,4.000000,4.000000,4.000000,4.000000,4.000000,100.000000,,,,,,,,,,,,,,,,
1644852976.462600,119.000000,0.000000,4210.384766,4196.410156,4206.922852,4205.256348,4216.025879,4216.794922,4217.307617,4221.153809,4216.410156,4216.282227,4225.256348,4202.051270,4229.743652,4232.948730,0.000000,4.000000,91.000000,,,,0.000000,4.000000,4.000000,4.000000,4.000000,4.000000,4.000000,4.000000,4.000000,4.000000,4.000000,4.000000,4.000000,4.000000,4.000000,100.000000,,,,,,,,,,,,,,,,
1644852976.466540,120.000000,0.000000,4214.615234,4196.153809,4203.205078,4216.922852,4217.692383,4217.563965,4218.333496,4222.307617,4216.666504,4218.589844,4225.769043,4204.743652,4232.692383,4235.128418,0.000000,4.000000,91.000000,,,,0.000000,4.000000,4.000000,4.000000,4.000000,4.000000,4.000000,4.000000,4.000000,4.000000,4.000000,4.000000,4.000000,4.000000,4.000000,100.000000,,,,,,,,,,,,,,,,
1644852976.470480,121.000000,0.000000,4215.384766,4197.051270,4199.743652,4223.333496,4211.538574,4217.051270,4216.025879,4221.282227,4215.128418,4220.897461,4224.615234,4206.794922,4225.897461,4224.743652,0.000000,4.000000,91.000000,,,,0.000000,4.000000,4.000000,4.000000,4.000000,4.000000,4.000000,4.000000,4.000000,4.000000,4.000000,4.000000,4.000000,4.000000,4.000000,100.000000,,,,,,,,,,,,,,,,
1644852976.474320,122.000000,0.000000,4209.743652,4197.307617,4198.077148,4217.179688,4200.897461,4215.897461,4212.692383,4218.333496,4212.051270,4221.025879,4220.641113,4205.897461,4211.282227,4204.487305,0.000000,4.000000,91.000000,,,,0.000000,4.000000,4.000000,4.000000,4.000000,4.000000,4.000000,4.000000,4.000000,4.000000,4.000000,4.000000,4.000000,4.000000,4.000000,100.000000,,,,,,,,,,,,,,,,
1644852976.478260,123.000000,0.000000,4199.871582,4197.436035,4199.487305,4199.743652,4195.256348,4215.769043,4211.922852,4216.666504,4209.871582,4219.615234,4214.743652,4203.846191,4195.897461,4183.333496,0.000000,4.000000,91.000000,,,,0.000000,4.000000,4.000000,4.000000,4.000000,4.000000,4.000000,4.000000,4.000000,4.000000,4.000000,4.000000,4.000000,4.000000,4.000000,100.000000,,,,,,,,,,,,,,,,
1644852976.482200,124.000000,0.000000,4191.794922,4199.743652,4203.846191,4181.282227,4200.769043,4217.563965,4214.230957,4218.205078,4210.256348,4218.589844,4209.871582,4204.358887,4187.948730,4172.436035,0.000000,4.000000,91.000000,,,,0.000000,4.000000,4.000000,4.000000,4.000000,4.000000,4.000000,4.000000,4.000000,4.000000,4.000000,4.000000,4.000000,4.000000,4.000000,100.000000,,,,,,,,,,,,,,,,
1644852976.486140,125.000000,0.000000,4190.512695,4205.384766,4209.102539,4174.230957,4214.871582,4219.871582,4216.410156,4222.051270,4213.077148,4219.102539,4209.102539,4208.333496,4191.666504,4177.307617,0.000000,4.000000,91.000000,,,,0.000000,4.000000,4.000000,4.000000,4.000000,4.000000,4.000000,4.000000,4.000000,4.000000,4.000000,4.000000,4.000000,4.000000,4.000000,100.000000,,,,,,,,,,,,,,,,
1644852976.490080,126.000000,0.000000,4197.051270,4212.563965,4212.563965,4184.743652,4228.717773,4220.897461,4215.769043,4225.000000,4215.641113,4220.512695,4214.102539,4213.846191,4204.871582,4194.743652,0.000000,4.000000,91.000000,,,,0.000000,4.000000,4.000000,4.000000,4.000000,4.000000,4.000000,4.000000,4.000000,4.000000,4.000000,4.000000,4.000000,4.000000,4.000000,100.000000,,,,,,,,,,,,,,,,
1644852976.494021,127.000000,0.000000,4207.307617,4218.461426,4212.948730,4207.307617,4234.615234,4220.000000,4213.205078,4224.743652,4215.256348,4220.897461,4222.563965,4217.179688,4220.000000,4214.358887,0.000000,4.000000,91.000000,,,,0.000000,4.000000,4.000000,4.000000,4.000000,4.000000,4.000000,4.000000,4.000000,4.000000,4.000000,4.000000,4.000000,4.000000,4.000000,100.000000,,,,,,,,,,,,,,,,
1644852976.497961,128.000000,0.000000,4215.384766,4219.871582,4210.384766,4228.205078,4229.615234,4218.333496,4212.307617,4220.897461,4210.897461,4218.717773,4229.487305,4215.128418,4229.230957,4224.743652,3416.000000,4.000000,91.000000,,,,0.000000,4.000000,4.000000,4.000000,4.000000,4.000000,4.000000,4.000000,4.000000,4.000000,4.000000,4.000000,4.000000,4.000000,4.000000,100.000000,,,,,,,,,,,,,,,,
1644852976.501901,129.000000,0.000000,4216.794922,4216.282227,4206.025879,4234.743652,4218.077148,4217.563965,4214.230957,4214.743652,4204.615234,4214.358887,4230.384766,4208.461426,4228.717773,4220.256348,3326.000000,4.000000,91.000000,,,,0.000000,4.000000,4.000000,4.000000,4.000000,4.000000,4.000000,4.000000,4.000000,4.000000,4.000000,4.000000,4.000000,4.000000,4.000000,100.000000,,,,,,,,,,,,,,,,
1644852976.505841,130.000000,0.000000,4212.051270,4209.487305,4201.666504,4224.230957,4207.436035,4217.820313,4216.538574,4208.974121,4199.871582,4209.743652,4224.743652,4200.897461,4220.256348,4203.846191,3622.000000,4.000000,91.000000,,,,0.000000,4.000000,4.000000,4.000000,4.000000,4.000000,4.000000,4.000000,4.000000,4.000000,4.000000,4.000000,4.000000,4.000000,4.000000,100.000000,,,,,,,,,,,,,,,,
1644852976.509781,131.000000,0.000000,4204.743652,4202.948730,4198.846191,4204.615234,4203.974121,4218.461426,4216.538574,4206.282227,4199.615234,4207.563965,4215.512695,4196.922852,4208.589844,4185.000000,3337.000000,4.000000,91.000000,,,,0.000000,4.000000,4.000000,4.000000,4.000000,4.000000,4.000000,4.000000,4.000000,4.000000,4.000000,4.000000,4.000000,4.000000,4.000000,100.000000,,,,,,,,,,,,,,,,
1644852976.513721,132.000000,0.000000,4199.230957,4199.743652,4197.948730,4189.102539,4207.948730,4218.461426,4214.871582,4208.333496,4203.589844,4208.717773,4207.179688,4197.436035,4198.205078,4173.461426,3476.000000,4.000000,91.000000,,,,0.000000,4.000000,4.000000,4.000000,4.000000,4.000000,4.000000,4.000000,4.000000,4.000000,4.000000,4.000000,4.000000,4.000000,4.000000,100.000000,,,,,,,,,,,,,,,,
1644852976.517661,133.000000,0.000000,4197.820313,4201.538574,4198.717773,4186.282227,4214.743652,4217.563965,4214.102539,4213.589844,4209.230957,4212.436035,4203.205078,4199.743652,4191.666504,4173.333496,3131.000000,4.000000,91.000000,,,,0.000000,4.000000,4.000000,4.000000,4.000000,4.000000,4.000000,4.000000,4.000000,4.000000,4.000000,4.000000,4.000000,4.000000,4.000000,100.000000,,,,,,,,,,,,,,,,
1644852976.521601,134.000000,0.000000,4200.641113,4206.538574,4200.897461,4194.743652,4218.077148,4216.538574,4215.512695,4218.205078,4212.820313,4216.153809,4204.487305,4201.153809,4190.512695,4181.153809,2431.000000,4.000000,91.000000,,,,0.000000,4.000000,4.000000,4.000000,4.000000,4.000000,4.000000,4.000000,4.000000,4.000000,4.000000,4.000000,4.000000,4.000000,4.000000,100.000000,,,,,,,,,,,,,,,,
1644852976.525541,135.000000,0.000000,4205.256348,4211.410156,4204.230957,4205.000000,4214.615234,4216.666504,4217.307617,4218.974121,4212.948730,4218.205078,4209.615234,4201.153809,4194.358887,4189.615234,3087.000000,4.000000,91.000000,2,1,1,0.000000,4.000000,4.000000,4.000000,4.000000,4.000000,4.000000,4.000000,4.000000,4.000000,4.000000,4.000000,4.000000,4.000000,4.000000,100.000000,,,,,,,,,,,,,,,,
1644852976.529481,136.000000,0.000000,4208.589844,4212.179688,4207.692383,4208.717773,4206.410156,4217.820313,4217.179688,4215.897461,4210.769043,4217.820313,4215.512695,4201.153809,4201.153809,4193.461426,3373.000000,4.000000,91.000000,,,,0.000000,4.000000,4.000000,4.000000,4.000000,4.000000,4.000000,4.000000,4.000000,4.000000,4.000000,4.000000,4.000000,4.000000,4.000000,100.000000,,,,,,,,,,,,,,,,
1644852976.533422,137.000000,0.000000,4208.205078,4207.948730,4209.871582,4204.487305,4198.846191,4218.717773,4215.000000,4211.794922,4208.333496,4215.512695,4219.487305,4201.538574,4208.717773,4192.692383,3537.000000,4.000000,91.000000,,,,0.000000,4.000000,4.000000,4.000000,4.000000,4.000000,4.000000,4.000000,4.000000,4.000000,4.000000,4.000000,4.000000,4.000000,4.000000,100.000000,,,,,,,,,,,,,,,,
1644852976.537362,138.000000,0.000000,4204.871582,4202.307617,4210.256348,4198.589844,4197.820313,4218.461426,4213.077148,4210.256348,4207.820313,4213.205078,4220.897461,4201.282227,4215.897461,4190.769043,3530.000000,4.000000,91.000000,,,,0.000000,4.000000,4.000000,4.000000,4.000000,4.000000,4.000000,4.000000,4.000000,4.000000,4.000000,4.000000,4.000000,4.000000,4.000000,100.000000,,,,,,,,,,,,,,,,
1644852976.541302,139.000000,0.000000,4202.436035,4201.666504,4209.871582,4197.948730,4204.102539,4217.820313,4213.461426,4212.948730,4209.743652,4213.333496,4220.897461,4200.128418,4222.307617,4191.794922,3198.000000,4.000000,91.000000,,,,0.000000,4.000000,4.000000,4.000000,4.000000,4.000000,4.000000,4.000000,4.000000,4.000000,4.000000,4.000000,4.000000,4.000000,4.000000,100.000000,,,,,,,,,,,,,,,,
1644852976.545242,140.000000,0.000000,4205.256348,4210.128418,4210.000000,4204.230957,4213.974121,4218.461426,4215.384766,4218.333496,4213.589844,4217.051270,4221.666504,4199.358887,4226.666504,4197.307617,3578.000000,4.000000,91.000000,,,,0.000000,4.000000,4.000000,4.000000,4.000000,4.000000,4.000000,4.000000,4.000000,4.000000,4.000000,4.000000,4.000000,4.000000,4.000000,100.000000,,,,,,,,,,,,,,,,
1644852976.549082,141.000000,0.000000,4214.102539,4225.256348,4211.282227,4212.051270,4221.666504,4221.410156,4217.051270,4223.461426,4218.077148,4223.205078,4223.846191,4201.794922,4227.051270,4205.384766,3466.000000,4.000000,91.000000,,,,0.000000,4.000000,4.000000,4.000000,4.000000,4.000000,4.000000,4.000000,4.000000,4.000000,4.000000,4.000000,4.000000,4.000000,4.000000,100.000000,,,,,,,,,,,,,,,,
1644852976.553022,142.000000,0.000000,4224.871582,4238.205078,4213.205078,4214.743652,4222.692383,4224.743652,4217.692383,4225.769043,4220.769043,4227.948730,4225.256348,4207.436035,4222.051270,4211.410156,3530.000000,4.000000,91.000000,,,,0.000000,4.000000,4.000000,4.000000,4.000000,4.000000,4.000000,4.000000,4.000000,4.000000,4.000000,4.000000,4.000000,4.000000,4.000000,100.000000,,,,,,,,,,,,,,,,
1644852976.556962,143.000000,0.000000,4230.128418,4240.512695,4214.871582,4210.897461,4216.153809,4225.769043,4218.205078,4224.230957,4219.615234,4227.179688,4222.436035,4212.563965,4212.436035,4210.000000,3198.000000,4.000000,91.000000,,,,0.000000,4.000000,4.000000,4.000000,4.000000,4.000000,4.000000,4.000000,4.000000,4.000000,4.000000,4.000000,4.000000,4.000000,4.000000,100.000000,,,,,,,,,,,,,,,,
1644852976.560902,144.000000,0.000000,4224.487305,4230.512695,4215.256348,4205.897461,4204.743652,4222.948730,4218.461426,4219.871582,4214.871582,4219.615234,4213.974121,4212.179688,4201.153809,4199.487305,3578.000000,4.000000,91.000000,,,,0.000000,4.000000,4.000000,4.000000,4.000000,4.000000,4.000000,4.000000,4.000000,4.000000,4.000000,4.000000,4.000000,4.000000,4.000000,100.000000,,,,,,,,,,,,,,,,
1644852976.564843,145.000000,0.000000,4209.230957,4214.358887,4214.102539,4206.025879,4194.615234,4218.333496,4216.922852,4214.487305,4208.846191,4208.461426,4203.461426,4205.000000,4191.794922,4183.461426,3466.000000,4.000000,91.000000,,,,0.000000,4.000000,4.000000,4.000000,4.000000,4.000000,4.000000,4.000000,4.000000,4.000000,4.000000,4.000000,4.000000,4.000000,4.000000,100.000000,,,,,,,,,,,,,,,,
1644852976.568783,146.000000,0.000000,4192.436035,4201.922852,4211.922852,4212.051270,4191.794922,4216.025879,4213.717773,4210.512695,4204.743652,4200.384766,4196.666504,4195.128418,4187.820313,4169.358887,3530.000000,4.000000,91.000000,,,,0.000000,4.000000,4.000000,4.000000,4.000000,4.000000,4.000000,4.000000,4.000000,4.000000,4.000000,4.000000,4.000000,4.000000,4.000000,100.000000,,,,,,,,,,,,,,,,
1644852976.572723,147.000000,0.000000,4184.358887,4199.615234,4209.487305,4219.615234,4198.717773,4218.717773,4211.410156,4209.615234,4204.743652,4200.384766,4197.436035,4188.846191,4190.512695,4164.743652,3198.000000,4.000000,91.000000,,,,0.000000,4.000000,4.000000,4.000000,4.000000,4.000000,4.000000,4.000000,4.000000,4.000000,4.000000,4.000000,4.000000,4.000000,4.000000,100.000000,,,,,,,,,,,,,,,,
1644852976.576663,148.000000,0.000000,4189.743652,4206.794922,4207.820313,4222.948730,4211.410156,4224.743652,4213.333496,4212.436035,4208.333496,4207.948730,4203.205078,4189.487305,4198.974121,4172.948730,3578.000000,4.000000,91.000000,,,,0.000000,4.000000,4.000000,4.000000,4.000000,4.000000,4.000000,4.000000,4.000000,4.000000,4.000000,4.000000,4.000000,4.000000,4.000000,100.000000,,,,,,,,,,,,,,,,
1644852976.580603,149.000000,0.000000,4204.230957,4217.820313,4208.077148,4219.743652,4222.563965,4229.615234,4219.230957,4217.563965,4213.589844,4217.563965,4208.077148,4195.000000,4209.230957,4190.128418,3466.000000,4.000000,91.000000,,,,0.000000,4.000000,4.000000,4.000000,4.000000,4.000000,4.000000,4.000000,4.000000,4.000000,4.000000,4.000000,4.000000,4.000000,4.000000,100.000000,,,,,,,,,,,,,,,,
1644852976.584543,150.000000,0.000000,4218.974121,4226.025879,4210.128418,4211.025879,4226.153809,4229.743652,4224.102539,4221.922852,4217.563965,4223.589844,4208.077148,4200.128418,4215.897461,4205.384766,3530.000000,4.000000,91.000000,,,,0.000000,4.000000,4.000000,4.000000,4.000000,4.000000,4.000000,4.000000,4.000000,4.000000,4.000000,4.000000,4.000000,4.000000,4.000000,100.000000,,,,,,,,,,,,,,,,
1644852976.588483,151.000000,0.000000,4225.897461,4227.948730,4212.436035,4200.769043,4220.769043,4224.871582,4223.205078,4222.948730,4218.077148,4224.743652,4204.487305,4200.256348,4215.512695,4207.820313,3198.000000,4.000000,91.000000,,,,0.000000,4.000000,4.000000,4.000000,4.000000,4.000000,4.000000,4.000000,4.000000,4.000000,4.000000,4.000000,4.000000,4.000000,4.000000,100.000000,,,,,,,,,,,,,,,,
1644852976.592423,152.000000,0.000000,4223.974121,4223.846191,4213.077148,4193.205078,4210.641113,4218.205078,4217.307617,4220.256348,4214.743652,4223.589844,4202.692383,4195.000000,4208.974121,4194.230957,3578.000000,4.000000,91.000000,,,,0.000000,4.000000,4.000000,4.000000,4.000000,4.000000,4.000000,4.000000,4.000000,4.000000,4.000000,4.000000,4.000000,4.000000,4.000000,100.000000,,,,,,,,,,,,,,,,
1644852976.596363,153.000000,0.000000,4217.051270,4216.282227,4211.153809,4191.282227,4202.307617,4214.102539,4212.179688,4215.897461,4210.000000,4223.205078,4207.436035,4187.948730,4200.897461,4172.563965,3466.000000,4.000000,91.000000,,,,0.000000,4.000000,4.000000,4.000000,4.000000,4.000000,4.000000,4.000000,4.000000,4.000000,4.000000,4.000000,4.000000,4.000000,4.000000,100.000000,,,,,,,,,,,,,,,,
1644852976.600303,154.000000,0.000000,4209.871582,4208.205078,4207.436035,4194.230957,4200.128418,4214.358887,4212.307617,4213.077148,4207.692383,4223.205078,4217.820313,4184.102539,4196.025879,4156.282227,3530.000000,4.000000,91.000000,,,,0.000000,4.000000,4.000000,4.000000,4.000000,4.000000,4.000000,4.000000,4.000000,4.000000,4.000000,4.000000,4.000000,4.000000,4.000000,100.000000,,,,,,,,,,,,,,,,
1644852976.604244,155.000000,0.000000,4204.358887,4202.692383,4203.846191,4199.230957,4203.974121,4217.692383,4216.282227,4213.846191,4209.743652,4221.538574,4227.563965,4186.794922,4195.769043,4154.230957,3198.000000,4.000000,91.000000,,,,0.000000,4.000000,4.000000,4.000000,4.000000,4.000000,4.000000,4.000000,4.000000,4.000000,4.000000,4.000000,4.000000,4.000000,4.000000,100.000000,,,,,,,,,,,,,,,,
1644852976.608184,156.000000,0.000000,4199.102539,4201.153809,4202.307617,4203.205078,4210.512695,4221.025879,4219.230957,4216.794922,4214.871582,4216.666504,4229.871582,4195.897461,4198.846191,4165.000000,3578.000000,4.000000,91.000000,,,,0.000000,4.000000,4.000000,4.000000,4.000000,4.000000,4.000000,4.000000,4.000000,4.000000,4.000000,4.000000,4.000000,4.000000,4.000000,100.000000,,,,,,,,,,,,,,,,
1644852976.612124,157.000000,0.000000,4193.205078,4203.333496,4204.358887,4204.871582,4215.769043,4221.666504,4218.205078,4219.615234,4219.615234,4210.384766,4223.717773,4207.563965,4203.205078,4179.102539,3466.000000,4.000000,91.000000,,,,0.000000,4.000000,4.000000,4.000000,4.000000,4.000000,4.000000,4.000000,4.000000,4.000000,4.000000,4.000000,4.000000,4.000000,4.000000,100.000000,,,,,,,,,,,,,,,,
1644852976.616064,158.000000,0.000000,4188.589844,4207.307617,4209.358887,4203.846191,4217.179688,4219.487305,4214.743652,4220.512695,4220.641113,4206.666504,4215.256348,4216.922852,4207.563965,4186.410156,3530.000000,4.000000,91.000000,,,,0.000000,4.000000,4.000000,4.000000,4.000000,4.000000,4.000000,4.000000,4.000000,4.000000,4.000000,4.000000,4.000000,4.000000,4.000000,100.000000,,,,,,,,,,,,,,,,
1644852976.619904,159.000000,0.000000,4189.230957,4210.769043,4214.487305,4200.769043,4214.743652,4216.794922,4212.051270,4219.743652,4217.563965,4209.102539,4211.410156,4220.000000,4211.794922,4183.846191,3198.000000,4.000000,91.000000,,,,0.000000,4.000000,4.000000,4.000000,4.000000,4.000000,4.000000,4.000000,4.000000,4.000000,4.000000,4.000000,4.000000,4.000000,4.000000,100.000000,,,,,,,,,,,,,,,,
1644852976.623844,160.000000,0.000000,4197.179688,4213.333496,4216.410156,4197.563965,4211.794922,4215.512695,4211.410156,4218.589844,4212.692383,4218.205078,4214.615234,4216.153809,4217.436035,4175.128418,3578.000000,4.000000,91.000000,3,1,1,0.000000,4.000000,4.000000,4.000000,4.000000,4.000000,4.000000,4.000000,4.000000,4.000000,4.000000,4.000000,4.000000,4.000000,4.000000,100.000000,,,,,,,,,,,,,,,,
1644852976.627784,161.000000,0.000000,4209.871582,4216.153809,4214.358887,4196.922852,4211.282227,4216.282227,4211.794922,4217.948730,4210.384766,4230.256348,4221.666504,4208.846191,4225.897461,4167.563965,3466.000000,4.000000,91.000000,,,,0.000000,4.000000,4.000000,4.000000,4.000000,4.000000,4.000000,4.000000,4.000000,4.000000,4.000000,4.000000,4.000000,4.000000,4.000000,100.000000,,,,,,,,,,,,,,,,
1644852976.631724,162.000000,0.000000,4221.282227,4219.102539,4211.410156,4200.384766,4213.589844,4217.948730,4212.307617,4218.205078,4212.820313,4239.615234,4228.077148,4203.333496,4235.641113,4166.922852,3530.000000,4.000000,91.000000,,,,0.000000,4.000000,4.000000,4.000000,4.000000,4.000000,4.000000,4.000000,4.000000,4.000000,4.000000,4.000000,4.000000,4.000000,4.000000,100.000000,,,,,,,,,,,,,,,,
1644852976.635764,163.000000,0.000000,4225.128418,4219.871582,4211.153809,4205.512695,4215.512695,4219.102539,4213.589844,4219.358887,4218.333496,4241.794922,4231.025879,4203.205078,4241.922852,4173.461426,3198.000000,4.000000,91.000000,,,,0.000000,4.000000,4.000000,4.000000,4.000000,4.000000,4.000000,4.000000,4.000000,4.000000,4.000000,4.000000,4.000000,4.000000,4.000000,100.000000,,,,,,,,,,,,,,,,
1644852976.639705,164.000000,0.000000,4220.256348,4215.512695,4214.743652,4207.307617,4214.358887,4218.589844,4216.153809,4220.897461,4222.948730,4236.922852,4231.025879,4207.820313,4239.230957,4181.410156,3578.000000,4.000000,91.000000,,,,0.000000,4.000000,4.000000,4.000000,4.000000,4.000000,4.000000,4.000000,4.000000,4.000000,4.000000,4.000000,4.000000,4.000000,4.000000,100.000000,,,,,,,,,,,,,,,,
1644852976.643645,165.000000,0.000000,4211.666504,4205.897461,4219.102539,4202.948730,4210.256348,4217.179688,4218.205078,4221.922852,4224.102539,4229.358887,4229.871582,4213.333496,4226.538574,4183.589844,3466.000000,4.000000,91.000000,,,,0.000000,4.000000,4.000000,4.000000,4.000000,4.000000,4.000000,4.000000,4.000000,4.000000,4.000000,4.000000,4.000000,4.000000,4.000000,100.000000,,,,,,,,,,,,,,,,
1644852976.647585,166.000000,0.000000,4205.897461,4195.512695,4221.282227,4195.512695,4205.512695,4216.282227,4218.077148,4221.538574,4222.179688,4224.487305,4229.487305,4215.897461,4210.512695,4176.282227,3530.000000,4.000000,91.000000,,,,0.000000,4.000000,4.000000,4.000000,4.000000,4.000000,4.000000,4.000000,4.000000,4.000000,4.000000,4.000000,4.000000,4.000000,4.000000,100.000000,,,,,,,,,,,,,,,,
1644852976.651525,167.000000,0.000000,4206.025879,4190.512695,4221.282227,4191.538574,4201.922852,4217.563965,4216.025879,4220.384766,4219.871582,4223.846191,4229.615234,4214.230957,4199.743652,4162.692383,3198.000000,4.000000,91.000000,,,,0.000000,4.000000,4.000000,4.000000,4.000000,4.000000,4.000000,4.000000,4.000000,4.000000,4.000000,4.000000,4.000000,4.000000,4.000000,100.000000,,,,,,,,,,,,,,,,
1644852976.655465,168.000000,0.000000,4208.846191,4193.846191,4221.922852,4195.512695,4200.512695,4221.025879,4215.000000,4220.000000,4218.333496,4225.128418,4228.589844,4210.512695,4199.743652,4149.871582,3578.000000,4.000000,91.000000,,,,0.000000,4.000000,4.000000,4.000000,4.000000,4.000000,4.000000,4.000000,4.000000,4.000000,4.000000,4.000000,4.000000,4.000000,4.000000,100.000000,,,,,,,,,,,,,,,,
1644852976.659405,169.000000,0.000000,4209.871582,4202.948730,4224.743652,4205.512695,4202.820313,4225.512695,4217.563965,4221.025879,4217.948730,4225.769043,4225.897461,4208.846191,4209.358887,4144.102539,3466.000000,4.000000,91.000000,,,,0.000000,4.000000,4.000000,4.000000,4.000000,4.000000,4.000000,4.000000,4.000000,4.000000,4.000000,4.000000,4.000000,4.000000,4.000000,100.000000,,,,,,,,,,,,,,,,
1644852976.663345,170.000000,0.000000,4207.692383,4212.307617,4228.461426,4215.256348,4211.153809,4229.871582,4222.307617,4223.077148,4218.717773,4226.025879,4223.717773,4211.922852,4223.077148,4146.538574,3530.000000,4.000000,91.000000,,,,0.000000,4.000000,4.000000,4.000000,4.000000,4.000000,4.000000,4.000000,4.000000,4.000000,4.000000,4.000000,4.000000,4.000000,4.000000,100.000000,,,,,,,,,,,,,,,,
1644852976.667285,171.000000,0.000000,4205.256348,4218.717773,4230.000000,4218.717773,4224.230957,4232.563965,4225.512695,4224.487305,4220.641113,4227.051270,4224.871582,4218.717773,4234.743652,4154.358887,3198.000000,4.000000,91.000000,,,,0.000000,4.000000,4.000000,4.000000,4.000000,4.000000,4.000000,4.000000,4.000000,4.000000,4.000000,4.000000,4.000000,4.000000,4.000000,100.000000,,,,,,,,,,,,,,,,
1644852976.671225,172.000000,0.000000,4206.282227,4222.820313,4228.205078,4214.487305,4236.922852,4232.820313,4225.128418,4224.743652,4223.974121,4228.846191,4230.512695,4224.615234,4240.512695,4163.077148,3578.000000,4.000000,91.000000,,,,0.000000,4.000000,4.000000,4.000000,4.000000,4.000000,4.000000,4.000000,4.000000,4.000000,4.000000,4.000000,4.000000,4.000000,4.000000,100.000000,,,,,,,,,,,,,,,,
1644852976.675165,173.000000,0.000000,4210.769043,4225.641113,4225.512695,4206.410156,4242.179688,4230.897461,4222.692383,4224.487305,4227.563965,4229.615234,4238.205078,4225.641113,4238.333496,4168.974121,3466.000000,4.000000,91.000000,,,,0.000000,4.000000,4.000000,4.000000,4.000000,4.000000,4.000000,4.000000,4.000000,4.000000,4.000000,4.000000,4.000000,4.000000,4.000000,100.000000,,,,,,,,,,,,,,,,
1644852976.679106,174.000000,0.000000,4215.256348,4226.666504,4225.256348,4200.000000,4237.179688,4227.820313,4221.025879,4223.974121,4229.102539,4228.717773,4243.589844,4222.179688,4228.717773,4169.230957,3530.000000,4.000000,91.000000,,,,0.000000,4.000000,4.000000,4.000000,4.000000,4.000000,4.000000,4.000000,4.000000,4.000000,4.000000,4.000000,4.000000,4.000000,4.000000,100.000000,,,,,,,,,,,,,,,,
1644852976.683046,175.000000,0.000000,4216.410156,4223.461426,4227.820313,4198.589844,4225.256348,4224.871582,4221.025879,4222.436035,4227.051270,4227.948730,4244.102539,4217.948730,4215.769043,4163.333496,3198.000000,4.000000,91.000000,,,,0.000000,4.000000,4.000000,4.000000,4.000000,4.000000,4.000000,4.000000,4.000000,4.000000,4.000000,4.000000,4.000000,4.000000,4.000000,100.000000,,,,,,,,,,,,,,,,
1644852976.686986,176.000000,0.000000,4213.974121,4215.769043,4230.128418,4201.794922,4213.974121,4223.333496,4221.282227,4219.230957,4222.051270,4228.974121,4240.384766,4216.025879,4204.871582,4154.615234,3578.000000,4.000000,91.000000,,,,0.000000,4.000000,4.000000,4.000000,4.000000,4.000000,4.000000,4.000000,4.000000,4.000000,4.000000,4.000000,4.000000,4.000000,4.000000,100.000000,,,,,,,,,,,,,,,,
1644852976.690926,177.000000,0.000000,4211.538574,4207.436035,4229.487305,4206.153809,4209.230957,4223.974121,4221.153809,4215.256348,4216.666504,4231.538574,4235.769043,4216.282227,4200.512695,4148.205078,3466.000000,4.000000,91.000000,,,,0.000000,4.000000,4.000000,4.000000,4.000000,4.000000,4.000000,4.000000,4.000000,4.000000,4.000000,4.000000,4.000000,4.000000,4.000000,100.000000,,,,,,,,,,,,,,,,
1644852976.694866,178.000000,0.000000,4212.179688,4204.487305,4226.666504,4208.717773,4211.666504,4226.282227,4221.794922,4213.333496,4214.487305,4233.589844,4232.948730,4216.666504,4203.205078,4147.436035,3530.000000,4.000000,91.000000,,,,0.000000,4.000000,4.000000,4.000000,4.000000,4.000000,4.000000,4.000000,4.000000,4.000000,4.000000,4.000000,4.000000,4.000000,4.000000,100.000000,,,,,,,,,,,,,,,,
1644852976.698706,179.000000,0.000000,4215.256348,4210.512695,4224.102539,4208.077148,4217.948730,4229.230957,4224.743652,4215.384766,4216.410156,4233.205078,4232.179688,4215.641113,4209.615234,4151.025879,3198.000000,4.000000,91.000000,,,,0.000000,4.000000,4.000000,4.000000,4.000000,4.000000,4.000000,4.000000,4.000000,4.000000,4.000000,4.000000,4.000000,4.000000,4.000000,100.000000,,,,,,,,,,,,,,,,
1644852976.702646,180.000000,0.000000,4216.794922,4222.051270,4223.589844,4205.000000,4223.205078,4231.282227,4228.205078,4220.256348,4220.128418,4230.000000,4232.307617,4212.948730,4214.743652,4153.333496,3578.000000,4.000000,91.000000,,,,0.000000,4.000000,4.000000,4.000000,4.000000,4.000000,4.000000,4.000000,4.000000,4.000000,4.000000,4.000000,4.000000,4.000000,4.000000,100.000000,,,,,,,,,,,,,,,,
1644852976.706586,181.000000,0.000000,4213.205078,4230.641113,4224.358887,4200.897461,4223.205078,4231.025879,4228.205078,4223.589844,4221.794922,4225.384766,4231.794922,4208.461426,4214.358887,4149.102539,3466.000000,4.000000,91.000000,,,,0.000000,4.000000,4.000000,4.000000,4.000000,4.000000,4.000000,4.000000,4.000000,4.000000,4.000000,4.000000,4.000000,4.000000,4.000000,100.000000,,,,,,,,,,,,,,,,
1644852976.710626,182.000000,0.000000,4205.000000,4228.589844,4224.358887,4198.077148,4216.794922,4227.563965,4222.948730,4221.666504,4218.205078,4220.897461,4229.230957,4201.666504,4208.333496,4138.077148,3530.000000,4.000000,91.000000,,,,0.000000,4.000000,4.000000,4.000000,4.000000,4.000000,4.000000,4.000000,4.000000,4.000000,4.000000,4.000000,4.000000,4.000000,4.000000,100.000000,,,,,,,,,,,,,,,,
1644852976.714567,183.000000,0.000000,4197.307617,4216.410156,4221.794922,4197.820313,4206.666504,4221.282227,4215.769043,4214.743652,4210.256348,4217.948730,4224.230957,4193.461426,4201.025879,4125.512695,3198.000000,4.000000,91.000000,,,,0.000000,4.000000,4.000000,4.000000,4.000000,4.000000,4.000000,4.000000,4.000000,4.000000,4.000000,4.000000,4.000000,4.000000,4.000000,100.000000,,,,,,,,,,,,,,,,
1644852976.718507,184.000000,0.000000,4195.128418,4202.051270,4217.820313,4200.000000,4199.102539,4215.000000,4211.794922,4206.666504,4201.922852,4217.179688,4218.333496,4186.922852,4198.333496,4118.205078,3578.000000,4.000000,91.000000,,,,0.000000,4.000000,4.000000,4.000000,4.000000,4.000000,4.000000,4.000000,4.000000,4.000000,4.000000,4.000000,4.000000,4.000000,4.000000,100.000000,,,,,,,,,,,,,,,,
1644852976.722447,185.000000,0.000000,4200.128418,4195.897461,4215.384766,4203.333496,4200.512695,4212.307617,4213.205078,4202.820313,4199.230957,4218.974121,4215.769043,4187.051270,4203.205078,4119.871582,3466.000000,4.000000,91.000000,,,,0.000000,4.000000,4.000000,4.000000,4.000000,4.000000,4.000000,4.000000,4.000000,4.000000,4.000000,4.000000,4.000000,4.000000,4.000000,100.000000,,,,,,,,,,,,,,,,
1644852976.726387,186.000000,0.000000,4209.102539,4202.179688,4217.179688,4205.769043,4212.307617,4215.128418,4217.820313,4205.512695,4204.487305,4223.333496,4220.512695,4195.769043,4212.563965,4127.948730,3530.000000,4.000000,91.000000,,,,0.000000,4.000000,4.000000,4.000000,4.000000,4.000000,4.000000,4.000000,4.000000,4.000000,4.000000,4.000000,4.000000,4.000000,4.000000,100.000000,,,,,,,,,,,,,,,,
1644852976.730327,187.000000,0.000000,4216.666504,4216.025879,4223.461426,4206.922852,4228.589844,4221.922852,4221.666504,4213.333496,4215.128418,4228.333496,4231.666504,4210.000000,4220.256348,4136.282227,3198.000000,4.000000,91.000000,,,,0.000000,4.000000,4.000000,4.000000,4.000000,4.000000,4.000000,4.000000,4.000000,4.000000,4.000000,4.000000,4.000000,4.000000,4.000000,100.000000,,,,,,,,,,,,,,,,
1644852976.734167,188.000000,0.000000,4219.743652,4227.563965,4231.666504,4208.589844,4239.230957,4228.717773,4223.333496,4222.051270,4225.769043,4231.666504,4242.692383,4222.051270,4222.051270,4141.153809,3578.000000,4.000000,91.000000,,,,0.000000,4.000000,4.000000,4.000000,4.000000,4.000000,4.000000,4.000000,4.000000,4.000000,4.000000,4.000000,4.000000,4.000000,4.000000,100.000000,,,,,,,,,,,,,,,,
1644852976.738107,189.000000,0.000000,4218.717773,4229.615234,4237.563965,4212.948730,4237.563965,4231.794922,4223.717773,4227.948730,4231.666504,4231.922852,4246.666504,4225.641113,4219.230957,4143.717773,3466.000000,4.000000,91.000000,,,,0.000000,4.000000,4.000000,4.000000,4.000000,4.000000,4.000000,4.000000,4.000000,4.000000,4.000000,4.000000,4.000000,4.000000,4.000000,100.000000,,,,,,,,,,,,,,,,
1644852976.742147,190.000000,0.000000,4216.282227,4224.487305,4238.717773,4219.487305,4225.769043,4230.512695,4222.948730,4229.358887,4232.307617,4230.384766,4243.077148,4220.384766,4216.794922,4148.461426,3530.000000,4.000000,91.000000,,,,0.000000,4.000000,4.000000,4.000000,4.000000,4.000000,4.000000,4.000000,4.000000,4.000000,4.000000,4.000000,4.000000,4.000000,4.000000,100.000000,,,,,,,,,,,,,,,,
1644852976.746087,191.000000,0.000000,4214.230957,4220.128418,4236.025879,4222.307617,4213.077148,4226.922852,4220.897461,4227.307617,4230.384766,4229.487305,4237.307617,4212.179688,4218.589844,4158.333496,3198.000000,4.000000,91.000000,,,,0.000000,4.000000,4.000000,4.000000,4.000000,4.000000,4.000000,4.000000,4.000000,4.000000,4.000000,4.000000,4.000000,4.000000,4.000000,100.000000,,,,,,,,,,,,,,,,
1644852976.750027,192.000000,0.000000,4212.307617,4222.436035,4231.922852,4216.025879,4209.102539,4224.358887,4218.333496,4224.358887,4229.230957,4230.641113,4235.897461,4208.846191,4223.717773,4170.641113,3578.000000,4.000000,91.000000,,,,0.000000,4.000000,4.000000,4.000000,4.000000,4.000000,4.000000,4.000000,4.000000,4.000000,4.000000,4.000000,4.000000,4.000000,4.000000,100.000000,,,,,,,,,,,,,,,,
1644852976.753968,193.000000,0.000000,4209.487305,4229.615234,4229.102539,4201.153809,4216.538574,4225.256348,4218.077148,4223.077148,4230.512695,4232.692383,4240.769043,4212.948730,4228.333496,4178.205078,3466.000000,4.000000,91.000000,,,,0.000000,4.000000,4.000000,4.000000,4.000000,4.000000,4.000000,4.000000,4.000000,4.000000,4.000000,4.000000,4.000000,4.000000,4.000000,100.000000,,,,,,,,,,,,,,,,
1644852976.757908,194.000000,0.000000,4206.153809,4235.512695,4227.307617,4185.769043,4229.230957,4229.487305,4221.794922,4224.487305,4232.948730,4233.846191,4248.333496,4220.384766,4229.102539,4174.615234,3530.000000,4.000000,91.000000,,,,0.000000,4.000000,4.000000,4.000000,4.000000,4.000000,4.000000,4.000000,4.000000,4.000000,4.000000,4.000000,4.000000,4.000000,4.000000,100.000000,,,,,,,,,,,,,,,,
1644852976.761848,195.000000,0.000000,4204.615234,4235.256348,4224.743652,4180.128418,4237.179688,4234.102539,4227.051270,4227.051270,4233.974121,4232.563965,4253.205078,4222.948730,4225.769043,4160.000000,3198.000000,4.000000,91.000000,,,,0.000000,4.000000,4.000000,4.000000,4.000000,4.000000,4.000000,4.000000,4.000000,4.000000,4.000000,4.000000,4.000000,4.000000,4.000000,100.000000,,,,,,,,,,,,,,,,
1644852976.765788,196.000000,0.000000,4207.563965,4229.230957,4220.128418,4189.102539,4235.256348,4235.769043,4229.230957,4228.333496,4232.692383,4230.000000,4251.794922,4216.153809,4221.410156,4142.051270,3578.000000,4.000000,91.000000,,,,0.000000,4.000000,4.000000,4.000000,4.000000,4.000000,4.000000,4.000000,4.000000,4.000000,4.000000,4.000000,4.000000,4.000000,4.000000,100.000000,,,,,,,,,,,,,,,,
1644852976.769828,197.000000,0.000000,4214.230957,4221.282227,4214.487305,4208.333496,4226.794922,4234.102539,4226.538574,4227.051270,4230.256348,4229.102539,4244.743652,4202.692383,4218.974121,4132.179688,3466.000000,4.000000,91.000000,,,,0.000000,4.000000,4.000000,4.000000,4.000000,4.000000,4.000000,4.000000,4.000000,4.000000,4.000000,4.000000,4.000000,4.000000,4.000000,100.000000,,,,,,,,,,,,,,,,
1644852976.773768,198.000000,0.000000,4220.512695,4215.384766,4211.410156,4226.922852,4219.615234,4231.025879,4221.922852,4224.230957,4228.461426,4231.282227,4235.641113,4190.769043,4218.846191,4136.153809,3530.000000,4.000000,91.000000,,,,0.000000,4.000000,4.000000,4.000000,4.000000,4.000000,4.000000,4.000000,4.000000,4.000000,4.000000,4.000000,4.000000,4.000000,4.000000,100.000000,,,,,,,,,,,,,,,,
1644852976.777708,199.000000,0.000000,4222.179688,4212.948730,4212.948730,4234.871582,4218.717773,4229.487305,4219.743652,4222.307617,4227.692383,4234.743652,4228.205078,4186.666504,4219.358887,4149.615234,3198.000000,4.000000,91.000000,,,,0.000000,4.000000,4.000000,4.000000,4.000000,4.000000,4.000000,4.000000,4.000000,4.000000,4.000000,4.000000,4.000000,4.000000,4.000000,100.000000,,,,,,,,,,,,,,,,
1644852976.781648,200.000000,0.000000,4218.461426,4213.333496,4218.461426,4229.615234,4223.077148,4230.128418,4221.153809,4222.563965,4226.922852,4235.256348,4224.615234,4191.153809,4218.333496,4159.743652,3578.000000,4.000000,91.000000,,,,0.000000,4.000000,4.000000,4.000000,4.000000,4.000000,4.000000,4.000000,4.000000,4.000000,4.000000,4.000000,4.000000,4.000000,4.000000,100.000000,,,,,,,,,,,,,,,,
1644852976.785588,201.000000,0.000000,4212.307617,4215.128418,4224.487305,4216.538574,4228.461426,4230.897461,4223.205078,4224.102539,4225.512695,4230.897461,4225.384766,4200.128418,4215.769043,4156.922852,3466.000000,4.000000,91.000000,,,,0.000000,4.000000,4.000000,4.000000,4.000000,4.000000,4.000000,4.000000,4.000000,4.000000,4.000000,4.000000,4.000000,4.000000,4.000000,100.000000,,,,,,,,,,,,,,,,
1644852976.789429,202.000000,0.000000,4206.538574,4217.051270,4227.307617,4205.256348,4231.025879,4229.615234,4222.692383,4225.000000,4224.358887,4224.230957,4229.615234,4208.205078,4212.948730,4142.692383,3530.000000,4.000000,91.000000,,,,0.000000,4.000000,4.000000,4.000000,4.000000,4.000000,4.000000,4.000000,4.000000,4.000000,4.000000,4.000000,4.000000,4.000000,4.000000,100.000000,,,,,,,,,,,,,,,,
1644852976.793369,203.000000,0.000000,4202.692383,4217.307617,4225.769043,4202.307617,4228.846191,4225.769043,4220.000000,4224.358887,4223.974121,4220.000000,4235.512695,4211.282227,4211.666504,4128.077148,3198.000000,4.000000,91.000000,,,,0.000000,4.000000,4.000000,4.000000,4.000000,4.000000,4.000000,4.000000,4.000000,4.000000,4.000000,4.000000,4.000000,4.000000,4.000000,100.000000,,,,,,,,,,,,,,,,
1644852976.797309,204.000000,0.000000,4200.512695,4215.000000,4221.410156,4207.820313,4221.922852,4221.794922,4218.333496,4222.563965,4223.846191,4220.641113,4240.000000,4208.717773,4211.666504,4124.487305,3578.000000,4.000000,91.000000,,,,0.000000,4.000000,4.000000,4.000000,4.000000,4.000000,4.000000,4.000000,4.000000,4.000000,4.000000,4.000000,4.000000,4.000000,4.000000,100.000000,,,,,,,,,,,,,,,,
1644852976.801249,205.000000,0.000000,4200.000000,4211.410156,4217.179688,4216.794922,4212.307617,4220.256348,4219.358887,4220.897461,4223.077148,4225.256348,4239.871582,4202.820313,4212.179688,4134.743652,3466.000000,4.000000,91.000000,,,,0.000000,4.000000,4.000000,4.000000,4.000000,4.000000,4.000000,4.000000,4.000000,4.000000,4.000000,4.000000,4.000000,4.000000,4.000000,100.000000,,,,,,,,,,,,,,,,
1644852976.805189,206.000000,0.000000,4201.922852,4209.743652,4215.384766,4222.948730,4204.615234,4222.692383,4221.153809,4219.615234,4222.179688,4230.256348,4234.615234,4198.333496,4212.948730,4151.538574,3530.000000,4.000000,91.000000,,,,0.000000,4.000000,4.000000,4.000000,4.000000,4.000000,4.000000,4.000000,4.000000,4.000000,4.000000,4.000000,4.000000,4.000000,4.000000,100.000000,,,,,,,,,,,,,,,,
1644852976.809129,207.000000,0.000000,4207.051270,4212.563965,4216.153809,4222.051270,4203.717773,4227.948730,4221.282227,4218.461426,4222.179688,4232.307617,4227.307617,4198.846191,4215.256348,4164.487305,3198.000000,4.000000,91.000000,,,,0.000000,4.000000,4.000000,4.000000,4.000000,4.000000,4.000000,4.000000,4.000000,4.000000,4.000000,4.000000,4.000000,4.000000,4.000000,100.000000,,,,,,,,,,,,,,,,
1644852976.813069,208.000000,0.000000,4213.461426,4219.358887,4218.461426,4214.230957,4211.922852,4232.436035,4219.487305,4217.307617,4222.948730,4230.512695,4223.589844,4203.717773,4219.487305,4168.205078,3578.000000,4.000000,91.000000,,,,0.000000,4.000000,4.000000,4.000000,4.000000,4.000000,4.000000,4.000000,4.000000,4.000000,4.000000,4.000000,4.000000,4.000000,4.000000,100.000000,,,,,,,,,,,,,,,,
1644852976.817009,209.000000,0.000000,4218.205078,4226.922852,4221.794922,4204.615234,4226.538574,4233.717773,4218.589844,4217.051270,4223.717773,4226.922852,4227.307617,4209.487305,4225.000000,4165.512695,3466.000000,4.000000,91.000000,,,,0.000000,4.000000,4.000000,4.000000,4.000000,4.000000,4.000000,4.000000,4.000000,4.000000,4.000000,4.000000,4.000000,4.000000,4.000000,100.000000,,,,,,,,,,,,,,,,
1644852976.820949,210.000000,0.000000,4218.974121,4232.436035,4226.153809,4199.615234,4240.897461,4231.282227,4220.384766,4218.974121,4224.487305,4225.384766,4236.666504,4213.333496,4230.769043,4163.333496,3530.000000,4.000000,91.000000,,,,0.000000,4.000000,4.000000,4.000000,4.000000,4.000000,4.000000,4.000000,4.000000,4.000000,4.000000,4.000000,4.000000,4.000000,4.000000,100.000000,,,,,,,,,,,,,,,,
1644852976.824889,211.000000,0.000000,4215.897461,4233.974121,4231.410156,4202.820313,4246.794922,4227.563965,4223.333496,4222.948730,4226.282227,4228.333496,4244.615234,4214.230957,4235.769043,4166.025879,3198.000000,4.000000,91.000000,,,,0.000000,4.000000,4.000000,4.000000,4.000000,4.000000,4.000000,4.000000,4.000000,4.000000,4.000000,4.000000,4.000000,4.000000,4.000000,100.000000,,,,,,,,,,,,,,,,
1644852976.828830,212.000000,0.000000,4211.153809,4231.153809,4235.256348,4211.410156,4239.743652,4224.615234,4224.487305,4226.538574,4229.615234,4234.743652,4244.743652,4213.205078,4238.205078,4170.641113,3578.000000,4.000000,91.000000,,,,0.000000,4.000000,4.000000,4.000000,4.000000,4.000000,4.000000,4.000000,4.000000,4.000000,4.000000,4.000000,4.000000,4.000000,4.000000,100.000000,,,,,,,,,,,,,,,,
1644852976.832770,213.000000,0.000000,4206.922852,4224.871582,4235.000000,4217.692383,4222.436035,4222.948730,4222.948730,4227.051270,4232.436035,4240.641113,4237.179688,4211.153809,4235.384766,4170.256348,3466.000000,4.000000,91.000000,,,,0.000000,4.000000,4.000000,4.000000,4.000000,4.000000,4.000000,4.000000,4.000000,4.000000,4.000000,4.000000,4.000000,4.000000,4.000000,100.000000,,,,,,,,,,,,,,,,
1644852976.836710,214.000000,0.000000,4204.230957,4217.820313,4229.615234,4216.153809,4204.743652,4221.666504,4220.384766,4223.717773,4231.666504,4241.153809,4228.846191,4208.974121,4226.025879,4161.538574,3530.000000,4.000000,91.000000,,,,0.000000,4.000000,4.000000,4.000000,4.000000,4.000000,4.000000,4.000000,4.000000,4.000000,4.000000,4.000000,4.000000,4.000000,4.000000,100.000000,,,,,,,,,,,,,,,,
1644852976.840650,215.000000,0.000000,4203.846191,4213.077148,4222.179688,4208.333496,4197.436035,4220.256348,4219.102539,4218.717773,4226.410156,4234.615234,4227.307617,4207.563965,4213.077148,4150.000000,3198.000000,4.000000,91.000000,,,,0.000000,4.000000,4.000000,4.000000,4.000000,4.000000,4.000000,4.000000,4.000000,4.000000,4.000000,4.000000,4.000000,4.000000,4.000000,100.000000,,,,,,,,,,,,,,,,
1644852976.844590,216.000000,0.000000,4206.538574,4212.948730,4216.794922,4202.563965,4205.641113,4220.512695,4220.128418,4215.384766,4220.000000,4224.358887,4233.846191,4207.820313,4202.820313,4145.512695,3578.000000,4.000000,91.000000,,,,0.000000,4.000000,4.000000,4.000000,4.000000,4.000000,4.000000,4.000000,4.000000,4.000000,4.000000,4.000000,4.000000,4.000000,4.000000,100.000000,,,,,,,,,,,,,,,,
1644852976.848630,217.000000,0.000000,4212.563965,4217.692383,4216.410156,4206.282227,4224.230957,4224.358887,4222.307617,4216.282227,4216.922852,4217.179688,4242.820313,4210.000000,4201.153809,4152.820313,3466.000000,4.000000,91.000000,,,,0.000000,4.000000,4.000000,4.000000,4.000000,4.000000,4.000000,4.000000,4.000000,4.000000,4.000000,4.000000,4.000000,4.000000,4.000000,100.000000,,,,,,,,,,,,,,,,
1644852976.852570,218.000000,0.000000,4220.256348,4224.615234,4220.512695,4218.846191,4241.794922,4230.512695,4225.128418,4220.769043,4219.487305,4217.563965,4246.538574,4213.333496,4209.615234,4166.666504,3530.000000,4.000000,91.000000,,,,0.000000,4.000000,4.000000,4.000000,4.000000,4.000000,4.000000,4.000000,4.000000,4.000000,4.000000,4.000000,4.000000,4.000000,4.000000,100.000000,1.000000,58.333332,4.000000,4.000000,4.000000,3.000000,3.000000,4.000000,4.000000,4.000000,4.000000,4.000000,4.000000,4.000000,4.000000,1.000000
1644852976.856510,219.000000,0.000000,4226.282227,4230.000000,4225.769043,4231.794922,4247.820313,4235.384766,4227.948730,4225.897461,4224.743652,4224.358887,4241.666504,4216.794922,4223.589844,4175.897461,3198.000000,4.000000,91.000000,,,,0.000000,4.000000,4.000000,4.000000,4.000000,4.000000,4.000000,4.000000,4.000000,4.000000,4.000000,4.000000,4.000000,4.000000,4.000000,100.000000,,,,,,,,,,,,,,,,
1644852976.860450,220.000000,0.000000,4227.948730,4231.153809,4228.717773,4235.641113,4239.615234,4235.256348,4230.128418,4228.333496,4228.717773,4231.410156,4232.051270,4220.128418,4235.641113,4173.846191,3578.000000,4.000000,91.000000,,,,0.000000,4.000000,4.000000,4.000000,4.000000,4.000000,4.000000,4.000000,4.000000,4.000000,4.000000,4.000000,4.000000,4.000000,4.000000,100.000000,,,,,,,,,,,,,,,,
1644852976.864390,221.000000,0.000000,4224.743652,4229.358887,4228.974121,4227.051270,4224.230957,4230.256348,4230.384766,4227.563965,4229.102539,4234.102539,4225.641113,4223.589844,4240.384766,4165.000000,3466.000000,4.000000,91.000000,,,,0.000000,4.000000,4.000000,4.000000,4.000000,4.000000,4.000000,4.000000,4.000000,4.000000,4.000000,4.000000,4.000000,4.000000,4.000000,100.000000,,,,,,,,,,,,,,,,
1644852976.868331,222.000000,0.000000,4219.743652,4227.948730,4228.974121,4212.563965,4213.461426,4224.102539,4228.205078,4225.512695,4227.820313,4232.948730,4227.820313,4227.563965,4238.205078,4161.282227,3530.000000,4.000000,91.000000,,,,0.000000,4.000000,4.000000,4.000000,4.000000,4.000000,4.000000,4.000000,4.000000,4.000000,4.000000,4.000000,4.000000,4.000000,4.000000,100.000000,,,,,,,,,,,,,,,,
1644852976.872271,223.000000,0.000000,4216.153809,4229.230957,4231.410156,4202.948730,4213.717773,4221.025879,4225.128418,4225.000000,4227.179688,4231.538574,4236.153809,4231.153809,4233.717773,4170.000000,3198.000000,4.000000,91.000000,,,,0.000000,4.000000,4.000000,4.000000,4.000000,4.000000,4.000000,4.000000,4.000000,4.000000,4.000000,4.000000,4.000000,4.000000,4.000000,100.000000,,,,,,,,,,,,,,,,
1644852976.876211,224.000000,0.000000,4215.128418,4231.666504,4235.769043,4204.743652,4222.436035,4222.692383,4224.230957,4226.922852,4228.333496,4233.077148,4242.820313,4232.563965,4231.410156,4186.282227,3578.000000,4.000000,91.000000,,,,0.000000,4.000000,4.000000,4.000000,4.000000,4.000000,4.000000,4.000000,4.000000,4.000000,4.000000,4.000000,4.000000,4.000000,4.000000,100.000000,,,,,,,,,,,,,,,,
1644852976.880151,225.000000,0.000000,4214.743652,4231.794922,4239.230957,4215.000000,4231.538574,4227.820313,4226.282227,4229.487305,4230.256348,4237.692383,4241.922852,4230.769043,4232.307617,4197.563965,3466.000000,4.000000,91.000000,,,,0.000000,4.000000,4.000000,4.000000,4.000000,4.000000,4.000000,4.000000,4.000000,4.000000,4.000000,4.000000,4.000000,4.000000,4.000000,100.000000,,,,,,,,,,,,,,,,
1644852976.884091,226.000000,0.000000,4213.589844,4227.436035,4239.102539,4224.615234,4234.871582,4233.077148,4228.974121,4230.128418,4231.666504,4243.205078,4235.512695,4226.025879,4234.487305,4193.974121,3530.000000,4.000000,91.000000,,,,0.000000,4.000000,4.000000,4.000000,4.000000,4.000000,4.000000,4.000000,4.000000,4.000000,4.000000,4.000000,4.000000,4.000000,4.000000,100.000000,,,,,,,,,,,,,,,,
1644852976.888031,227.000000,0.000000,4212.820313,4220.256348,4234.871582,4226.666504,4232.436035,4235.897461,4229.358887,4227.948730,4232.051270,4246.410156,4231.025879,4219.871582,4235.384766,4176.922852,3198.000000,4.000000,91.000000,,,,0.000000,4.000000,4.000000,4.000000,4.000000,4.000000,4.000000,4.000000,4.000000,4.000000,4.000000,4.000000,4.000000,4.000000,4.000000,100.000000,,,,,,,,,,,,,,,,
1644852976.891971,228.000000,0.000000,4215.000000,4215.128418,4229.102539,4221.153809,4227.948730,4234.743652,4227.051270,4225.000000,4231.666504,4245.897461,4234.487305,4215.384766,4233.589844,4158.461426,3578.000000,4.000000,91.000000,,,,0.000000,4.000000,4.000000,4.000000,4.000000,4.000000,4.000000,4.000000,4.000000,4.000000,4.000000,4.000000,4.000000,4.000000,4.000000,100.000000,,,,,,,,,,,,,,,,
1644852976.895911,229.000000,0.000000,4220.897461,4217.051270,4225.512695,4213.717773,4224.358887,4231.153809,4224.615234,4224.615234,4231.282227,4242.948730,4245.256348,4214.743652,4230.384766,4151.410156,3466.000000,4.000000,91.000000,,,,0.000000,4.000000,4.000000,4.000000,4.000000,4.000000,4.000000,4.000000,4.000000,4.000000,4.000000,4.000000,4.000000,4.000000,4.000000,100.000000,,,,,,,,,,,,,,,,
1644852976.899851,230.000000,0.000000,4228.846191,4226.282227,4225.897461,4210.128418,4222.563965,4228.205078,4224.871582,4228.333496,4232.436035,4240.769043,4257.820313,4218.717773,4227.692383,4160.512695,3530.000000,4.000000,91.000000,,,,0.000000,4.000000,4.000000,4.000000,4.000000,4.000000,4.000000,4.000000,4.000000,4.000000,4.000000,4.000000,4.000000,4.000000,4.000000,100.000000,,,,,,,,,,,,,,,,
1644852976.903891,231.000000,0.000000,4234.487305,4236.922852,4229.487305,4212.051270,4221.282227,4228.589844,4227.179688,4233.974121,4235.256348,4242.307617,4265.641113,4224.743652,4227.436035,4178.333496,3198.000000,4.000000,91.000000,,,,0.000000,4.000000,4.000000,4.000000,4.000000,4.000000,4.000000,4.000000,4.000000,4.000000,4.000000,4.000000,4.000000,4.000000,4.000000,100.000000,,,,,,,,,,,,,,,,
1644852976.907831,232.000000,0.000000,4234.743652,4241.153809,4233.717773,4216.666504,4220.512695,4231.794922,4228.717773,4238.205078,4239.230957,4247.692383,4265.641113,4229.615234,4229.615234,4191.538574,3578.000000,4.000000,91.000000,,,,0.000000,4.000000,4.000000,4.000000,4.000000,4.000000,4.000000,4.000000,4.000000,4.000000,4.000000,4.000000,4.000000,4.000000,4.000000,100.000000,,,,,,,,,,,,,,,,
1644852976.911772,233.000000,0.000000,4229.615234,4235.000000,4236.538574,4220.512695,4221.410156,4235.128418,4227.948730,4238.974121,4242.820313,4253.846191,4259.230957,4232.307617,4233.717773,4191.538574,3466.000000,4.000000,91.000000,,,,0.000000,4.000000,4.000000,4.000000,4.000000,4.000000,4.000000,4.000000,4.000000,4.000000,4.000000,4.000000,4.000000,4.000000,4.000000,100.000000,,,,,,,,,,,,,,,,
1644852976.915712,234.000000,0.000000,4222.436035,4222.436035,4237.436035,4221.153809,4224.230957,4235.128418,4226.410156,4237.051270,4244.871582,4256.410156,4250.897461,4233.846191,4238.589844,4180.512695,3530.000000,4.000000,91.000000,,,,0.000000,4.000000,4.000000,4.000000,4.000000,4.000000,4.000000,4.000000,4.000000,4.000000,4.000000,4.000000,4.000000,4.000000,4.000000,100.000000,,,,,,,,,,,,,,,,
1644852976.919652,235.000000,0.000000,4216.922852,4211.922852,4237.307617,4219.358887,4226.538574,4230.000000,4225.897461,4234.871582,4244.743652,4253.077148,4244.615234,4235.128418,4242.948730,4168.333496,3198.000000,4.000000,91.000000,,,,0.000000,4.000000,4.000000,4.000000,4.000000,4.000000,4.000000,4.000000,4.000000,4.000000,4.000000,4.000000,4.000000,4.000000,4.000000,100.000000,,,,,,,,,,,,,,,,
1644852976.923592,236.000000,0.000000,4214.615234,4210.512695,4237.051270,4217.436035,4225.897461,4222.051270,4225.641113,4233.205078,4241.922852,4245.512695,4242.051270,4235.512695,4245.897461,4163.846191,3578.000000,4.000000,91.000000,,,,0.000000,4.000000,4.000000,4.000000,4.000000,4.000000,4.000000,4.000000,4.000000,4.000000,4.000000,4.000000,4.000000,4.000000,4.000000,100.000000,,,,,,,,,,,,,,,,
1644852976.927532,237.000000,0.000000,4214.743652,4218.717773,4236.025879,4217.051270,4222.563965,4215.769043,4224.358887,4231.666504,4237.563965,4237.692383,4242.563965,4233.589844,4246.410156,4169.102539,3466.000000,4.000000,91.000000,,,,0.000000,4.000000,4.000000,4.000000,4.000000,4.000000,4.000000,4.000000,4.000000,4.000000,4.000000,4.000000,4.000000,4.000000,4.000000,100.000000,,,,,,,,,,,,,,,,
1644852976.931472,238.000000,0.000000,4215.641113,4231.025879,4234.230957,4217.948730,4219.487305,4215.000000,4222.179688,4229.615234,4233.205078,4233.589844,4243.461426,4229.743652,4244.102539,4179.487305,3530.000000,4.000000,91.000000,,,,0.000000,4.000000,4.000000,4.000000,4.000000,4.000000,4.000000,4.000000,4.000000,4.000000,4.000000,4.000000,4.000000,4.000000,4.000000,100.000000,,,,,,,,,,,,,,,,
1644852976.935412,239.000000,0.000000,4217.436035,4239.871582,4231.794922,4218.333496,4219.743652,4220.128418,4221.922852,4227.307617,4230.256348,4234.358887,4241.666504,4225.769043,4239.743652,4188.333496,3198.000000,4.000000,91.000000,,,,0.000000,4.000000,4.000000,4.000000,4.000000,4.000000,4.000000,4.000000,4.000000,4.000000,4.000000,4.000000,4.000000,4.000000,4.000000,100.000000,,,,,,,,,,,,,,,,
1644852976.939352,240.000000,0.000000,4220.897461,4240.512695,4228.717773,4217.051270,4222.692383,4226.666504,4224.230957,4225.384766,4228.846191,4238.205078,4236.538574,4223.589844,4234.230957,4190.897461,3578.000000,4.000000,91.000000,,,,0.000000,4.000000,4.000000,4.000000,4.000000,4.000000,4.000000,4.000000,4.000000,4.000000,4.000000,4.000000,4.000000,4.000000,4.000000,100.000000,,,,,,,,,,,,,,,,
1644852976.943292,241.000000,0.000000,4225.256348,4234.102539,4224.871582,4215.128418,4224.615234,4228.974121,4226.538574,4223.974121,4228.077148,4241.282227,4231.153809,4222.820313,4228.974121,4187.179688,3466.000000,4.000000,91.000000,,,,0.000000,4.000000,4.000000,4.000000,4.000000,4.000000,4.000000,4.000000,4.000000,4.000000,4.000000,4.000000,4.000000,4.000000,4.000000,100.000000,,,,,,,,,,,,,,,,
1644852976.947233,242.000000,0.000000,4227.948730,4225.769043,4220.897461,4214.743652,4223.077148,4225.256348,4225.256348,4223.205078,4227.307617,4241.538574,4230.256348,4222.179688,4225.384766,4180.897461,3530.000000,4.000000,91.000000,,,,0.000000,4.000000,4.000000,4.000000,4.000000,4.000000,4.000000,4.000000,4.000000,4.000000,4.000000,4.000000,4.000000,4.000000,4.000000,100.000000,,,,,,,,,,,,,,,,
1644852976.951173,243.000000,0.000000,4226.794922,4220.128418,4217.948730,4217.948730,4219.743652,4219.743652,4221.410156,4223.717773,4226.922852,4238.846191,4235.897461,4220.769043,4223.974121,4176.282227,3198.000000,4.000000,91.000000,,,,0.000000,4.000000,4.000000,4.000000,4.000000,4.000000,4.000000,4.000000,4.000000,4.000000,4.000000,4.000000,4.000000,4.000000,4.000000,100.000000,,,,,,,,,,,,,,,,
1644852976.955113,244.000000,0.000000,4222.179688,4218.717773,4218.205078,4224.230957,4218.717773,4218.974121,4219.487305,4225.769043,4227.563965,4234.743652,4244.487305,4219.487305,4223.589844,4175.256348,3578.000000,4.000000,91.000000,,,,0.000000,4.000000,4.000000,4.000000,4.000000,4.000000,4.000000,4.000000,4.000000,4.000000,4.000000,4.000000,4.000000,4.000000,4.000000,100.000000,,,,,,,,,,,,,,,,
1644852976.959053,245.000000,0.000000,4217.179688,4219.871582,4221.538574,4230.384766,4221.538574,4224.743652,4223.077148,4227.948730,4229.102539,4230.897461,4249.102539,4219.487305,4222.820313,4176.153809,3466.000000,4.000000,91.000000,,,,0.000000,4.000000,4.000000,4.000000,4.000000,4.000000,4.000000,4.000000,4.000000,4.000000,4.000000,4.000000,4.000000,4.000000,4.000000,100.000000,,,,,,,,,,,,,,,,
1644852976.962993,246.000000,0.000000,4214.487305,4220.641113,4225.512695,4232.179688,4225.769043,4232.820313,4229.487305,4228.077148,4229.871582,4228.077148,4244.871582,4220.512695,4220.769043,4175.256348,3530.000000,4.000000,91.000000,,,,0.000000,4.000000,4.000000,4.000000,4.000000,4.000000,4.000000,4.000000,4.000000,4.000000,4.000000,4.000000,4.000000,4.000000,4.000000,100.000000,,,,,,,,,,,,,,,,
1644852976.966933,247.000000,0.000000,4213.846191,4219.102539,4226.410156,4228.077148,4226.922852,4236.282227,4231.794922,4224.487305,4228.461426,4226.410156,4233.717773,4220.897461,4218.846191,4171.025879,3198.000000,4.000000,91.000000,,,,0.000000,4.000000,4.000000,4.000000,4.000000,4.000000,4.000000,4.000000,4.000000,4.000000,4.000000,4.000000,4.000000,4.000000,4.000000,100.000000,,,,,,,,,,,,,,,,
1644852976.970873,248.000000,0.000000,4213.077148,4215.000000,4222.307617,4220.384766,4222.948730,4232.307617,4226.922852,4218.333496,4224.102539,4225.128418,4223.333496,4218.846191,4218.589844,4165.128418,3578.000000,4.000000,91.000000,,,,0.000000,4.000000,4.000000,4.000000,4.000000,4.000000,4.000000,4.000000,4.000000,4.000000,4.000000,4.000000,4.000000,4.000000,4.000000,100.000000,,,,,,,,,,,,,,,,
1644852976.974913,249.000000,0.000000,4210.769043,4210.897461,4216.025879,4214.102539,4216.538574,4224.487305,4218.974121,4213.333496,4218.846191,4224.358887,4221.538574,4214.615234,4220.384766,4161.538574,3466.000000,4.000000,91.000000,,,,0.000000,4.000000,4.000000,4.000000,4.000000,4.000000,4.000000,4.000000,4.000000,4.000000,4.000000,4.000000,4.000000,4.000000,4.000000,100.000000,,,,,,,,,,,,,,,,
1644852976.978853,250.000000,0.000000,4208.717773,4209.743652,4212.436035,4213.589844,4213.077148,4219.102539,4215.384766,4213.077148,4216.153809,4224.615234,4229.358887,4210.897461,4223.717773,4162.436035,3530.000000,4.000000,91.000000,,,,0.000000,4.000000,4.000000,4.000000,4.000000,4.000000,4.000000,4.000000,4.000000,4.000000,4.000000,4.000000,4.000000,4.000000,4.000000,100.000000,,,,,,,,,,,,,,,,
1644852976.982793,251.000000,0.000000,4209.487305,4212.563965,4214.487305,4218.077148,4216.666504,4219.871582,4218.974121,4217.948730,4218.077148,4227.307617,4240.128418,4211.025879,4226.922852,4165.384766,3198.000000,4.000000,91.000000,,,,0.000000,4.000000,4.000000,4.000000,4.000000,4.000000,4.000000,4.000000,4.000000,4.000000,4.000000,4.000000,4.000000,4.000000,4.000000,100.000000,,,,,,,,,,,,,,,,
1644852976.986733,252.000000,0.000000,4213.333496,4217.051270,4220.769043,4222.563965,4225.897461,4224.487305,4225.512695,4224.230957,4223.205078,4232.436035,4245.128418,4215.641113,4228.846191,4166.538574,3578.000000,4.000000,91.000000,,,,0.000000,4.000000,4.000000,4.000000,4.000000,4.000000,4.000000,4.000000,4.000000,4.000000,4.000000,4.000000,4.000000,4.000000,4.000000,100.000000,,,,,,,,,,,,,,,,
1644852976.990674,253.000000,0.000000,4216.922852,4219.615234,4226.538574,4221.666504,4233.846191,4227.692383,4228.717773,4227.436035,4227.692383,4238.205078,4241.153809,4221.538574,4228.846191,4163.974121,3466.000000,4.000000,91.000000,,,,0.000000,4.000000,4.000000,4.000000,4.000000,4.000000,4.000000,4.000000,4.000000,4.000000,4.000000,4.000000,4.000000,4.000000,4.000000,100.000000,,,,,,,,,,,,,,,,
1644852976.994614,254.000000,0.000000,4215.641113,4218.717773,4227.692383,4213.846191,4233.974121,4226.538574,4226.922852,4226.025879,4228.333496,4242.051270,4233.077148,4223.846191,4227.307617,4159.230957,3530.000000,4.000000,91.000000,,,,0.000000,4.000000,4.000000,4.000000,4.000000,4.000000,4.000000,4.000000,4.000000,4.000000,4.000000,4.000000,4.000000,4.000000,4.000000,100.000000,,,,,,,,,,,,,,,,
1644852976.998554,255.000000,0.000000,4209.487305,4216.410156,4224.487305,4202.563965,4225.384766,4222.692383,4223.589844,4222.436035,4225.512695,4242.051270,4228.717773,4221.025879,4225.384766,4156.282227,114.000000,4.000000,91.000000,,,,0.000000,4.000000,4.000000,4.000000,4.000000,4.000000,4.000000,4.000000,4.000000,4.000000,4.000000,4.000000,4.000000,4.000000,4.000000,100.000000,,,,,,,,,,,,,,,,
1644852977.002494,0.000000,0.000000,4204.230957,4217.051270,4220.641113,4194.743652,4215.256348,4221.153809,4222.563965,4220.128418,4222.820313,4239.230957,4232.051270,4215.769043,4224.871582,4159.358887,3415.000000,4.000000,91.000000,,,,0.000000,4.000000,4.000000,4.000000,4.000000,4.000000,4.000000,4.000000,4.000000,4.000000,4.000000,4.000000,4.000000,4.000000,4.000000,100.000000,,,,,,,,,,,,,,,,
1644852977.006434,1.000000,0.000000,4207.563965,4222.948730,4220.000000,4196.538574,4211.794922,4224.615234,4223.846191,4221.538574,4223.717773,4236.794922,4239.358887,4213.205078,4227.436035,4170.128418,3299.000000,4.000000,91.000000,,,,0.000000,4.000000,4.000000,4.000000,4.000000,4.000000,4.000000,4.000000,4.000000,4.000000,4.000000,4.000000,4.000000,4.000000,4.000000,100.000000,,,,,,,,,,,,,,,,
1644852977.010374,2.000000,0.000000,4221.153809,4232.179688,4223.974121,4210.128418,4217.948730,4231.538574,4225.512695,4226.282227,4228.846191,4236.794922,4243.846191,4216.153809,4233.205078,4186.025879,3555.000000,4.000000,91.000000,,,,0.000000,4.000000,4.000000,4.000000,4.000000,4.000000,4.000000,4.000000,4.000000,4.000000,4.000000,4.000000,4.000000,4.000000,4.000000,100.000000,,,,,,,,,,,,,,,,
1644852977.014314,3.000000,0.000000,4237.692383,4239.358887,4230.769043,4230.897461,4230.128418,4236.922852,4226.282227,4232.179688,4235.641113,4238.717773,4241.666504,4222.820313,4239.358887,4199.615234,3400.000000,4.000000,91.000000,,,,0.000000,4.000000,4.000000,4.000000,4.000000,4.000000,4.000000,4.000000,4.000000,4.000000,4.000000,4.000000,4.000000,4.000000,4.000000,100.000000,,,,,,,,,,,,,,,,
1644852977.018254,4.000000,0.000000,4245.000000,4239.871582,4236.922852,4249.358887,4240.384766,4237.179688,4226.794922,4236.794922,4239.871582,4240.256348,4234.743652,4229.358887,4242.179688,4203.077148,3695.000000,4.000000,91.000000,,,,0.000000,4.000000,4.000000,4.000000,4.000000,4.000000,4.000000,4.000000,4.000000,4.000000,4.000000,4.000000,4.000000,4.000000,4.000000,100.000000,,,,,,,,,,,,,,,,
1644852977.022194,5.000000,0.000000,4237.179688,4233.333496,4238.974121,4256.666504,4242.307617,4233.461426,4227.051270,4238.077148,4239.743652,4239.487305,4228.077148,4232.307617,4239.230957,4194.230957,3227.000000,4.000000,91.000000,,,,0.000000,4.000000,4.000000,4.000000,4.000000,4.000000,4.000000,4.000000,4.000000,4.000000,4.000000,4.000000,4.000000,4.000000,4.000000,100.000000,,,,,,,,,,,,,,,,
1644852977.026234,6.000000,0.000000,4220.000000,4223.717773,4236.153809,4249.871582,4235.128418,4230.000000,4226.410156,4235.641113,4236.538574,4236.538574,4225.384766,4231.153809,4231.538574,4179.358887,2435.000000,4.000000,91.000000,,,,0.000000,4.000000,4.000000,4.000000,4.000000,4.000000,4.000000,4.000000,4.000000,4.000000,4.000000,4.000000,4.000000,4.000000,4.000000,100.000000,,,,,,,,,,,,,,,,
1644852977.030175,7.000000,0.000000,4207.436035,4216.410156,4230.897461,4234.487305,4224.102539,4229.743652,4224.230957,4231.153809,4233.077148,4233.589844,4226.410156,4228.077148,4222.436035,4168.461426,3188.000000,4.000000,91.000000,,,,0.000000,4.000000,4.000000,4.000000,4.000000,4.000000,4.000000,4.000000,4.000000,4.000000,4.000000,4.000000,4.000000,4.000000,4.000000,100.000000,,,,,,,,,,,,,,,,
1644852977.034115,8.000000,0.000000,4208.846191,4214.102539,4227.051270,4220.641113,4216.410156,4231.538574,4221.666504,4226.794922,4231.282227,4231.666504,4228.717773,4225.000000,4215.769043,4167.563965,3288.000000,4.000000,91.000000,,,,0.000000,4.000000,4.000000,4.000000,4.000000,4.000000,4.000000,4.000000,4.000000,4.000000,4.000000,4.000000,4.000000,4.000000,4.000000,100.000000,,,,,,,,,,,,,,,,
1644852977.038055,9.000000,0.000000,4221.282227,4215.512695,4226.538574,4216.025879,4216.025879,4231.410156,4220.897461,4224.230957,4230.897461,4229.743652,4230.384766,4222.307617,4212.307617,4174.487305,3528.000000,4.000000,91.000000,,,,0.000000,4.000000,4.000000,4.000000,4.000000,4.000000,4.000000,4.000000,4.000000,4.000000,4.000000,4.000000,4.000000,4.000000,4.000000,100.000000,,,,,,,,,,,,,,,,
1644852977.041995,10.000000,0.000000,4232.820313,4217.436035,4227.820313,4220.384766,4221.410156,4226.922852,4221.922852,4223.717773,4230.256348,4227.179688,4231.153809,4219.358887,4211.922852,4182.051270,3532.000000,4.000000,91.000000,,,,0.000000,4.000000,4.000000,4.000000,4.000000,4.000000,4.000000,4.000000,4.000000,4.000000,4.000000,4.000000,4.000000,4.000000,4.000000,100.000000,,,,,,,,,,,,,,,,
1644852977.045935,11.000000,0.000000,4234.487305,4217.692383,4228.461426,4226.794922,4227.051270,4220.256348,4222.948730,4224.487305,4229.102539,4225.256348,4231.922852,4216.666504,4213.589844,4184.230957,3526.000000,4.000000,91.000000,,,,0.000000,4.000000,4.000000,4.000000,4.000000,4.000000,4.000000,4.000000,4.000000,4.000000,4.000000,4.000000,4.000000,4.000000,4.000000,100.000000,,,,,,,,,,,,,,,,
1644852977.049875,12.000000,0.000000,4227.436035,4216.794922,4227.563965,4228.077148,4227.820313,4216.025879,4222.436035,4226.153809,4228.589844,4225.897461,4232.948730,4215.897461,4217.051270,4180.000000,3479.000000,4.000000,91.000000,,,,0.000000,4.000000,4.000000,4.000000,4.000000,4.000000,4.000000,4.000000,4.000000,4.000000,4.000000,4.000000,4.000000,4.000000,4.000000,100.000000,,,,,,,,,,,,,,,,
1644852977.053815,13.000000,0.000000,4219.615234,4217.051270,4226.538574,4222.051270,4222.820313,4217.307617,4221.922852,4228.717773,4230.128418,4229.102539,4232.948730,4218.077148,4221.282227,4172.820313,3717.000000,4.000000,91.000000,,,,0.000000,4.000000,4.000000,4.000000,4.000000,4.000000,4.000000,4.000000,4.000000,4.000000,4.000000,4.000000,4.000000,4.000000,4.000000,100.000000,,,,,,,,,,,,,,,,
1644852977.057755,14.000000,0.000000,4217.051270,4219.487305,4227.563965,4212.692383,4216.794922,4223.205078,4223.589844,4232.051270,4233.461426,4233.077148,4231.153809,4222.051270,4225.384766,4167.820313,3532.000000,4.000000,91.000000,,,,0.000000,4.000000,4.000000,4.000000,4.000000,4.000000,4.000000,4.000000,4.000000,4.000000,4.000000,4.000000,4.000000,4.000000,4.000000,100.000000,,,,,,,,,,,,,,,,
1644852977.061695,15.000000,0.000000,4218.974121,4223.461426,4230.512695,4206.282227,4216.794922,4230.256348,4227.436035,4235.641113,4237.179688,4235.384766,4227.563965,4225.384766,4228.589844,4167.820313,3526.000000,4.000000,91.000000,,,,0.000000,4.000000,4.000000,4.000000,4.000000,4.000000,4.000000,4.000000,4.000000,4.000000,4.000000,4.000000,4.000000,4.000000,4.000000,100.000000,,,,,,,,,,,,,,,,
1644852977.065635,16.000000,0.000000,4219.871582,4226.410156,4232.820313,4206.153809,4225.256348,4234.102539,4230.128418,4237.436035,4239.102539,4235.641113,4223.205078,4225.512695,4230.769043,4171.410156,3479.000000,4.000000,91.000000,,,,0.000000,4.000000,4.000000,4.000000,4.000000,4.000000,4.000000,4.000000,4.000000,4.000000,4.000000,4.000000,4.000000,4.000000,4.000000,100.000000,,,,,,,,,,,,,,,,
1644852977.069576,17.000000,0.000000,4215.512695,4226.025879,4231.666504,4211.025879,4235.897461,4232.820313,4228.333496,4235.897461,4237.820313,4234.615234,4218.461426,4221.410156,4230.897461,4173.974121,3717.000000,4.000000,91.000000,,,,0.000000,4.000000,4.000000,4.000000,4.000000,4.000000,4.000000,4.000000,4.000000,4.000000,4.000000,4.000000,4.000000,4.000000,4.000000,100.000000,,,,,,,,,,,,,,,,
1644852977.073516,18.000000,0.000000,4207.307617,4221.410156,4226.666504,4217.051270,4238.589844,4227.179688,4222.820313,4231.153809,4233.717773,4233.205078,4213.846191,4214.358887,4227.179688,4171.666504,3532.000000,4.000000,91.000000,,,,0.000000,4.000000,4.000000,4.000000,4.000000,4.000000,4.000000,4.000000,4.000000,4.000000,4.000000,4.000000,4.000000,4.000000,4.000000,100.000000,,,,,,,,,,,,,,,,
1644852977.077456,19.000000,0.000000,4201.538574,4214.615234,4220.384766,4220.897461,4229.743652,4220.769043,4218.333496,4225.512695,4227.820313,4231.410156,4211.410156,4206.794922,4219.615234,4166.025879,3526.000000,4.000000,91.000000,,,,0.000000,4.000000,4.000000,4.000000,4.000000,4.000000,4.000000,4.000000,4.000000,4.000000,4.000000,4.000000,4.000000,4.000000,4.000000,100.000000,,,,,,,,,,,,,,,,
1644852977.081396,20.000000,0.000000,4203.974121,4209.230957,4215.769043,4221.666504,4216.538574,4216.666504,4217.563965,4221.922852,4222.692383,4228.974121,4213.589844,4201.282227,4211.153809,4162.563965,3479.000000,4.000000,91.000000,,,,0.000000,4.000000,4.000000,4.000000,4.000000,4.000000,4.000000,4.000000,4.000000,4.000000,4.000000,4.000000,4.000000,4.000000,4.000000,100.000000,,,,,,,,,,,,,,,,
1644852977.085336,21.000000,0.000000,4213.974121,4208.717773,4213.589844,4219.230957,4209.615234,4215.897461,4219.102539,4221.410156,4220.256348,4226.153809,4221.025879,4199.487305,4206.153809,4165.128418,3717.000000,4.000000,91.000000,,,,0.000000,4.000000,4.000000,4.000000,4.000000,4.000000,4.000000,4.000000,4.000000,4.000000,4.000000,4.000000,4.000000,4.000000,4.000000,100.000000,,,,,,,,,,,,,,,,
1644852977.089276,22.000000,0.000000,4224.230957,4212.692383,4212.948730,4214.358887,4213.205078,4217.307617,4219.487305,4222.563965,4220.769043,4223.333496,4229.743652,4202.820313,4206.666504,4171.282227,3532.000000,4.000000,91.000000,,,,0.000000,4.000000,4.000000,4.000000,4.000000,4.000000,4.000000,4.000000,4.000000,4.000000,4.000000,4.000000,4.000000,4.000000,4.000000,100.000000,,,,,,,,,,,,,,,,
1644852977.093216,23.000000,0.000000,4226.410156,4218.077148,4213.077148,4209.743652,4220.897461,4219.743652,4217.436035,4223.205078,4222.820313,4221.794922,4234.615234,4210.512695,4211.153809,4175.128418,3526.000000,4.000000,91.000000,,,,0.000000,4.000000,4.000000,4.000000,4.000000,4.000000,4.000000,4.000000,4.000000,4.000000,4.000000,4.000000,4.000000,4.000000,4.000000,100.000000,,,,,,,,,,,,,,,,
1644852977.097156,24.000000,0.000000,4219.615234,4221.025879,4214.358887,4209.487305,4222.948730,4222.436035,4215.641113,4222.436035,4224.615234,4221.666504,4232.692383,4219.230957,4216.794922,4173.205078,3479.000000,4.000000,91.000000,,,,0.000000,4.000000,4.000000,4.000000,4.000000,4.000000,4.000000,4.000000,4.000000,4.000000,4.000000,4.000000,4.000000,4.000000,4.000000,100.000000,,,,,,,,,,,,,,,,
1644852977.100997,25.000000,0.000000,4211.153809,4220.256348,4217.436035,4216.025879,4215.769043,4225.384766,4216.538574,4221.794922,4225.256348,4223.461426,4227.307617,4225.384766,4222.820313,4169.230957,3717.000000,4.000000,91.000000,,,,0.000000,4.000000,4.000000,4.000000,4.000000,4.000000,4.000000,4.000000,4.000000,4.000000,4.000000,4.000000,4.000000,4.000000,4.000000,100.000000,,,,,,,,,,,,,,,,
1644852977.104937,26.000000,0.000000,4209.615234,4218.077148,4222.051270,4226.153809,4205.897461,4228.461426,4219.743652,4222.820313,4226.282227,4227.179688,4224.871582,4226.666504,4230.000000,4169.487305,3532.000000,4.000000,91.000000,,,,0.000000,4.000000,4.000000,4.000000,4.000000,4.000000,4.000000,4.000000,4.000000,4.000000,4.000000,4.000000,4.000000,4.000000,4.000000,100.000000,,,,,,,,,,,,,,,,
1644852977.108877,27.000000,0.000000,4216.025879,4217.563965,4226.922852,4231.282227,4203.717773,4230.769043,4222.692383,4225.897461,4228.589844,4232.307617,4227.820313,4224.487305,4237.563965,4176.282227,3526.000000,4.000000,91.000000,,,,0.000000,4.000000,4.000000,4.000000,4.000000,4.000000,4.000000,4.000000,4.000000,4.000000,4.000000,4.000000,4.000000,4.000000,4.000000,100.000000,,,,,,,,,,,,,,,,
1644852977.112817,28.000000,0.000000,4222.948730,4219.230957,4230.128418,4224.871582,4214.230957,4230.384766,4223.974121,4229.230957,4231.794922,4236.666504,4231.794922,4221.538574,4242.051270,4185.897461,3479.000000,4.000000,91.000000,,,,0.000000,4.000000,4.000000,4.000000,4.000000,4.000000,4.000000,4.000000,4.000000,4.000000,4.000000,4.000000,4.000000,4.000000,4.000000,100.000000,,,,,,,,,,,,,,,,
1644852977.116757,29.000000,0.000000,4221.538574,4220.384766,4229.871582,4208.717773,4231.153809,4226.666504,4223.717773,4230.512695,4233.333496,4237.436035,4229.871582,4219.230957,4239.102539,4191.666504,3717.000000,4.000000,91.000000,,,,0.000000,4.000000,4.000000,4.000000,4.000000,4.000000,4.000000,4.000000,4.000000,4.000000,4.000000,4.000000,4.000000,4.000000,4.000000,100.000000,,,,,,,,,,,,,,,,
1644852977.120697,30.000000,0.000000,4211.410156,4218.717773,4226.282227,4192.563965,4241.922852,4221.025879,4222.563965,4228.846191,4230.897461,4233.333496,4220.769043,4216.794922,4228.974121,4190.769043,3532.000000,4.000000,91.000000,,,,0.000000,4.000000,4.000000,4.000000,4.000000,4.000000,4.000000,4.000000,4.000000,4.000000,4.000000,4.000000,4.000000,4.000000,4.000000,100.000000,,,,,,,,,,,,,,,,
1644852977.124637,31.000000,0.000000,4201.025879,4215.256348,4220.769043,4186.410156,4238.589844,4216.666504,4220.512695,4225.000000,4225.897461,4225.512695,4212.051270,4212.948730,4217.563965,4186.410156,3526.000000,4.000000,91.000000,,,,0.000000,4.000000,4.000000,4.000000,4.000000,4.000000,4.000000,4.000000,4.000000,4.000000,4.000000,4.000000,4.000000,4.000000,4.000000,100.000000,,,,,,,,,,,,,,,,
1644852977.128577,32.000000,0.000000,4199.871582,4213.333496,4215.641113,4193.717773,4224.358887,4216.153809,4217.948730,4221.153809,4221.025879,4216.922852,4211.794922,4207.436035,4211.794922,4183.205078,0.000000,4.000000,91.000000,,,,0.000000,4.000000,4.000000,4.000000,4.000000,4.000000,4.000000,4.000000,4.000000,4.000000,4.000000,4.000000,4.000000,4.000000,4.000000,100.000000,,,,,,,,,,,,,,,,
1644852977.132517,33.000000,0.000000,4208.333496,4215.128418,4212.563965,4208.589844,4211.025879,4220.000000,4216.153809,4219.230957,4219.358887,4210.897461,4219.615234,4202.436035,4214.871582,4183.077148,0.000000,4.000000,91.000000,,,,0.000000,4.000000,4.000000,4.000000,4.000000,4.000000,4.000000,4.000000,4.000000,4.000000,4.000000,4.000000,4.000000,4.000000,4.000000,100.000000,,,,,,,,,,,,,,,,
1644852977.136457,34.000000,0.000000,4218.205078,4220.000000,4212.307617,4220.769043,4208.589844,4226.025879,4217.051270,4220.512695,4221.410156,4209.743652,4226.666504,4201.153809,4223.589844,4184.102539,0.000000,4.000000,91.000000,,,,0.000000,4.000000,4.000000,4.000000,4.000000,4.000000,4.000000,4.000000,4.000000,4.000000,4.000000,4.000000,4.000000,4.000000,4.000000,100.000000,,,,,,,,,,,,,,,,
1644852977.140398,35.000000,0.000000,4221.282227,4225.128418,4214.358887,4223.846191,4217.820313,4230.641113,4220.641113,4224.487305,4225.897461,4214.358887,4223.846191,4205.384766,4230.897461,4182.563965,0.000000,4.000000,91.000000,,,,0.000000,4.000000,4.000000,4.000000,4.000000,4.000000,4.000000,4.000000,4.000000,4.000000,4.000000,4.000000,4.000000,4.000000,4.000000,100.000000,,,,,,,,,,,,,,,,
1644852977.144338,36.000000,0.000000,4216.153809,4227.307617,4217.948730,4219.102539,4229.358887,4231.666504,4223.974121,4228.461426,4230.256348,4223.333496,4210.641113,4213.333496,4230.897461,4177.563965,0.000000,4.000000,91.000000,,,,0.000000,4.000000,4.000000,4.000000,4.000000,4.000000,4.000000,4.000000,4.000000,4.000000,4.000000,4.000000,4.000000,4.000000,4.000000,100.000000,,,,,,,,,,,,,,,,
1644852977.148378,37.000000,0.000000,4208.717773,4225.384766,4222.307617,4212.948730,4232.307617,4229.102539,4224.358887,4229.358887,4231.922852,4232.051270,4195.641113,4220.000000,4221.794922,4171.153809,0.000000,4.000000,91.000000,,,,0.000000,4.000000,4.000000,4.000000,4.000000,4.000000,4.000000,4.000000,4.000000,4.000000,4.000000,4.000000,4.000000,4.000000,4.000000,100.000000,,,,,,,,,,,,,,,,
1644852977.152318,38.000000,0.000000,4205.000000,4219.871582,4226.025879,4211.025879,4223.205078,4224.871582,4221.666504,4225.897461,4229.487305,4235.128418,4189.102539,4220.641113,4208.205078,4166.794922,0.000000,4.000000,91.000000,,,,0.000000,4.000000,4.000000,4.000000,4.000000,4.000000,4.000000,4.000000,4.000000,4.000000,4.000000,4.000000,4.000000,4.000000,4.000000,100.000000,,,,,,,,,,,,,,,,
1644852977.156258,39.000000,0.000000,4206.410156,4213.846191,4227.051270,4212.820313,4207.948730,4221.153809,4218.461426,4219.615234,4223.077148,4229.615234,4193.846191,4214.230957,4196.666504,4166.153809,0.000000,4.000000,91.000000,,,,0.000000,4.000000,4.000000,4.000000,4.000000,4.000000,4.000000,4.000000,4.000000,4.000000,4.000000,4.000000,4.000000,4.000000,4.000000,100.000000,,,,,,,,,,,,,,,,
1644852977.160198,40.000000,0.000000,4210.641113,4210.512695,4224.487305,4213.333496,4197.307617,4218.717773,4216.794922,4213.077148,4215.000000,4218.077148,4204.615234,4204.615234,4192.436035,4167.820313,0.000000,4.000000,91.000000,,,,0.000000,4.000000,4.000000,4.000000,4.000000,4.000000,4.000000,4.000000,4.000000,4.000000,4.000000,4.000000,4.000000,4.000000,4.000000,100.000000,,,,,,,,,,,,,,,,
1644852977.164138,41.000000,0.000000,4214.871582,4211.794922,4218.846191,4209.102539,4198.333496,4217.179688,4215.769043,4208.461426,4208.589844,4207.179688,4213.333496,4197.692383,4196.538574,4169.871582,0.000000,4.000000,91.000000,,,,0.000000,4.000000,4.000000,4.000000,4.000000,4.000000,4.000000,4.000000,4.000000,4.000000,4.000000,4.000000,4.000000,4.000000,4.000000,100.000000,,,,,,,,,,,,,,,,
1644852977.168078,42.000000,0.000000,4217.436035,4216.538574,4213.205078,4203.205078,4210.000000,4216.410156,4213.717773,4206.794922,4207.692383,4203.205078,4215.384766,4196.538574,4206.794922,4173.077148,0.000000,4.000000,91.000000,,,,0.000000,4.000000,4.000000,4.000000,4.000000,4.000000,4.000000,4.000000,4.000000,4.000000,4.000000,4.000000,4.000000,4.000000,4.000000,100.000000,,,,,,,,,,,,,,,,
1644852977.172018,43.000000,0.000000,4218.077148,4221.666504,4210.641113,4202.563965,4224.487305,4216.794922,4211.025879,4208.205078,4212.948730,4206.794922,4211.794922,4198.846191,4219.102539,4180.000000,0.000000,4.000000,91.000000,,,,0.000000,4.000000,4.000000,4.000000,4.000000,4.000000,4.000000,4.000000,4.000000,4.000000,4.000000,4.000000,4.000000,4.000000,4.000000,100.000000,,,,,,,,,,,,,,,,
1644852977.175958,44.000000,0.000000,4216.282227,4224.358887,4212.179688,4210.128418,4232.307617,4218.333496,4210.512695,4211.794922,4221.153809,4212.948730,4205.000000,4200.256348,4228.077148,4189.487305,0.000000,4.000000,91.000000,,,,0.000000,4.000000,4.000000,4.000000,4.000000,4.000000,4.000000,4.000000,4.000000,4.000000,4.000000,4.000000,4.000000,4.000000,4.000000,100.000000,,,,,,,,,,,,,,,,
1644852977.179899,45.000000,0.000000,4211.922852,4222.692383,4215.769043,4220.256348,4228.205078,4220.128418,4213.589844,4215.256348,4226.666504,4215.769043,4196.922852,4198.589844,4228.846191,4193.974121,0.000000,4.000000,91.000000,,,,0.000000,4.000000,4.000000,4.000000,4.000000,4.000000,4.000000,4.000000,4.000000,4.000000,4.000000,4.000000,4.000000,4.000000,4.000000,100.000000,,,,,,,,,,,,,,,,
1644852977.183839,46.000000,0.000000,4206.282227,4217.307617,4218.717773,4224.102539,4215.000000,4221.025879,4217.307617,4216.282227,4226.025879,4213.974121,4190.000000,4196.410156,4219.615234,4185.512695,0.000000,4.000000,91.000000,,,,0.000000,4.000000,4.000000,4.000000,4.000000,4.000000,4.000000,4.000000,4.000000,4.000000,4.000000,4.000000,4.000000,4.000000,4.000000,100.000000,,,,,,,,,,,,,,,,
1644852977.187779,47.000000,0.000000,4202.051270,4211.922852,4219.615234,4218.717773,4202.436035,4220.256348,4217.820313,4214.102539,4220.641113,4211.922852,4187.820313,4198.205078,4204.487305,4165.128418,0.000000,4.000000,91.000000,,,,0.000000,4.000000,4.000000,4.000000,4.000000,4.000000,4.000000,4.000000,4.000000,4.000000,4.000000,4.000000,4.000000,4.000000,4.000000,100.000000,,,,,,,,,,,,,,,,
1644852977.191719,48.000000,0.000000,4202.436035,4211.025879,4219.487305,4210.769043,4200.000000,4218.589844,4214.358887,4210.897461,4214.487305,4213.974121,4193.077148,4204.743652,4192.436035,4144.871582,0.000000,4.000000,91.000000,,,,0.000000,4.000000,4.000000,4.000000,4.000000,4.000000,4.000000,4.000000,4.000000,4.000000,4.000000,4.000000,4.000000,4.000000,4.000000,100.000000,,,,,,,,,,,,,,,,
1644852977.195659,49.000000,0.000000,4207.563965,4216.410156,4220.256348,4208.717773,4209.358887,4217.948730,4211.153809,4210.256348,4211.538574,4220.128418,4204.615234,4211.410156,4190.641113,4138.974121,0.000000,4.000000,91.000000,,,,0.000000,4.000000,4.000000,4.000000,4.000000,4.000000,4.000000,4.000000,4.000000,4.000000,4.000000,4.000000,4.000000,4.000000,4.000000,100.000000,,,,,,,,,,,,,,,,
1644852977.199599,50.000000,0.000000,4213.846191,4224.615234,4222.051270,4215.384766,4222.436035,4220.384766,4212.307617,4213.717773,4213.077148,4225.897461,4216.666504,4212.051270,4199.358887,4151.282227,0.000000,4.000000,91.000000,,,,0.000000,4.000000,4.000000,4.000000,4.000000,4.000000,4.000000,4.000000,4.000000,4.000000,4.000000,4.000000,4.000000,4.000000,4.000000,100.000000,,,,,,,,,,,,,,,,
1644852977.203539,51.000000,0.000000,4215.512695,4228.589844,4222.820313,4224.743652,4229.615234,4225.128418,4217.179688,4219.487305,4217.563965,4226.410156,4222.436035,4204.358887,4210.384766,4171.538574,0.000000,4.000000,91.000000,,,,0.000000,4.000000,4.000000,4.000000,4.000000,4.000000,4.000000,4.000000,4.000000,4.000000,4.000000,4.000000,4.000000,4.000000,4.000000,100.000000,,,,,,,,,,,,,,,,
1644852977.207479,52.000000,0.000000,4210.128418,4223.461426,4220.000000,4227.820313,4227.820313,4229.743652,4221.282227,4223.461426,4222.051270,4220.769043,4218.717773,4192.948730,4214.615234,4183.589844,0.000000,4.000000,91.000000,,,,0.000000,4.000000,4.000000,4.000000,4.000000,4.000000,4.000000,4.000000,4.000000,4.000000,4.000000,4.000000,4.000000,4.000000,4.000000,100.000000,,,,,,,,,,,,,,,,
1644852977.211419,53.000000,0.000000,4201.282227,4211.410156,4213.333496,4221.153809,4220.897461,4231.153809,4221.025879,4223.589844,4223.589844,4213.205078,4208.589844,4185.000000,4209.230957,4179.358887,0.000000,4.000000,91.000000,,,,0.000000,4.000000,4.000000,4.000000,4.000000,4.000000,4.000000,4.000000,4.000000,4.000000,4.000000,4.000000,4.000000,4.000000,4.000000,100.000000,,,,,,,,,,,,,,,,
1644852977.215359,54.000000,0.000000,4196.153809,4200.769043,4205.641113,4208.589844,4215.000000,4227.436035,4217.820313,4220.769043,4221.538574,4208.717773,4199.615234,4185.000000,4200.256348,4165.384766,0.000000,4.000000,91.000000,,,,0.000000,4.000000,4.000000,4.000000,4.000000,4.000000,4.000000,4.000000,4.000000,4.000000,4.000000,4.000000,4.000000,4.000000,4.000000,100.000000,,,,,,,,,,,,,,,,
1644852977.219300,55.000000,0.000000,4199.358887,4198.846191,4201.025879,4198.205078,4212.820313,4220.128418,4215.769043,4218.333496,4217.692383,4209.871582,4198.717773,4191.153809,4197.179688,4155.897461,0.000000,4.000000,91.000000,,,,0.000000,4.000000,4.000000,4.000000,4.000000,4.000000,4.000000,4.000000,4.000000,4.000000,4.000000,4.000000,4.000000,4.000000,4.000000,100.000000,,,,,,,,,,,,,,,,
1644852977.223340,56.000000,0.000000,4208.717773,4206.410156,4201.794922,4195.641113,4212.820313,4213.461426,4216.922852,4218.717773,4215.128418,4215.128418,4207.307617,4198.205078,4204.102539,4160.641113,0.000000,4.000000,91.000000,,,,0.000000,4.000000,4.000000,4.000000,4.000000,4.000000,4.000000,4.000000,4.000000,4.000000,4.000000,4.000000,4.000000,4.000000,4.000000,100.000000,,,,,,,,,,,,,,,,
1644852977.227280,57.000000,0.000000,4218.333496,4217.179688,4207.436035,4200.128418,4211.794922,4211.282227,4219.358887,4221.410156,4215.641113,4221.025879,4219.615234,4202.436035,4217.436035,4176.922852,0.000000,4.000000,91.000000,,,,0.000000,4.000000,4.000000,4.000000,4.000000,4.000000,4.000000,4.000000,4.000000,4.000000,4.000000,4.000000,4.000000,4.000000,4.000000,100.000000,,,,,,,,,,,,,,,,
1644852977.231220,58.000000,0.000000,4223.461426,4223.846191,4214.615234,4207.436035,4208.717773,4214.871582,4220.641113,4223.461426,4218.461426,4224.358887,4227.307617,4203.974121,4228.717773,4193.461426,0.000000,4.000000,91.000000,,,,0.000000,4.000000,4.000000,4.000000,4.000000,4.000000,4.000000,4.000000,4.000000,4.000000,4.000000,4.000000,4.000000,4.000000,4.000000,100.000000,,,,,,,,,,,,,,,,
1644852977.235160,59.000000,0.000000,4223.974121,4224.230957,4219.871582,4213.077148,4205.384766,4221.025879,4220.769043,4222.563965,4220.641113,4224.358887,4225.512695,4205.384766,4231.410156,4200.000000,0.000000,4.000000,91.000000,,,,0.000000,4.000000,4.000000,4.000000,4.000000,4.000000,4.000000,4.000000,4.000000,4.000000,4.000000,4.000000,4.000000,4.000000,4.000000,100.000000,,,,,,,,,,,,,,,,
