title:Alex-vvyly02lPKWlHNn-j_JL8g, start timestamp:1644853123.300885, stop timestamp:1644853150.258344, headset type:EPOCPLUS, headset serial:3B9AEBFF, headset firmware:626, channels:55, sampling rate:eeg_256, samples:6842      , version:2.1, 
Timestamp,EEG.Counter,EEG.Interpolated,EEG.AF3,EEG.F7,EEG.F3,EEG.FC5,EEG.T7,EEG.P7,EEG.O1,EEG.O2,EEG.P8,EEG.T8,EEG.FC6,EEG.F4,EEG.F8,EEG.AF4,EEG.RawCq,EEG.Battery,EEG.BatteryPercent,MarkerIndex,MarkerType,MarkerValueInt,EEG.MarkerHardware,CQ.AF3,CQ.F7,CQ.F3,CQ.FC5,CQ.T7,CQ.P7,CQ.O1,CQ.O2,CQ.P8,CQ.T8,CQ.FC6,CQ.F4,CQ.F8,CQ.AF4,CQ.Overall,EQ.SampleRateQuality,EQ.OVERALL,EQ.AF3,EQ.F7,EQ.F3,EQ.FC5,EQ.T7,EQ.P7,EQ.O1,EQ.O2,EQ.P8,EQ.T8,EQ.FC6,EQ.F4,EQ.F8,EQ.AF4
1644853123.300885,17.000000,0.000000,4250.000000,4198.846191,4223.974121,4248.589844,4214.615234,4221.794922,4219.743652,4225.256348,4224.615234,4217.563965,4226.666504,4199.358887,4230.769043,4209.743652,3616.000000,4.000000,91.000000,,,,0.000000,4.000000,4.000000,4.000000,4.000000,4.000000,4.000000,4.000000,4.000000,4.000000,4.000000,4.000000,4.000000,4.000000,4.000000,100.000000,,,,,,,,,,,,,,,,
1644853123.304925,18.000000,0.000000,4251.153809,4196.282227,4222.563965,4247.820313,4219.743652,4218.717773,4220.641113,4222.436035,4223.717773,4223.589844,4232.563965,4194.487305,4232.563965,4215.769043,3480.000000,4.000000,91.000000,,,,0.000000,4.000000,4.000000,4.000000,4.000000,4.000000,4.000000,4.000000,4.000000,4.000000,4.000000,4.000000,4.000000,4.000000,4.000000,100.000000,,,,,,,,,,,,,,,,
1644853123.308866,19.000000,0.000000,4253.333496,4198.717773,4225.512695,4241.922852,4227.692383,4220.000000,4223.589844,4225.512695,4225.256348,4230.769043,4232.436035,4197.051270,4231.922852,4213.077148,3396.000000,4.000000,91.000000,,,,0.000000,4.000000,4.000000,4.000000,4.000000,4.000000,4.000000,4.000000,4.000000,4.000000,4.000000,4.000000,4.000000,4.000000,4.000000,100.000000,,,,,,,,,,,,,,,,
1644853123.312806,20.000000,0.000000,4253.974121,4202.563965,4228.846191,4231.153809,4231.666504,4222.820313,4224.102539,4230.512695,4226.794922,4232.563965,4227.563965,4204.102539,4228.974121,4200.256348,3399.000000,4.000000,91.000000,,,,0.000000,4.000000,4.000000,4.000000,4.000000,4.000000,4.000000,4.000000,4.000000,4.000000,4.000000,4.000000,4.000000,4.000000,4.000000,100.000000,,,,,,,,,,,,,,,,
1644853123.316746,21.000000,0.000000,4251.153809,4204.743652,4228.974121,4219.487305,4227.820313,4223.974121,4221.153809,4232.563965,4226.410156,4226.794922,4222.820313,4210.000000,4224.487305,4185.256348,3616.000000,4.000000,91.000000,,,,0.000000,4.000000,4.000000,4.000000,4.000000,4.000000,4.000000,4.000000,4.000000,4.000000,4.000000,4.000000,4.000000,4.000000,4.000000,100.000000,,,,,,,,,,,,,,,,
1644853123.320686,22.000000,0.000000,4244.358887,4204.871582,4225.769043,4212.820313,4218.205078,4222.307617,4217.820313,4229.743652,4223.461426,4217.948730,4221.794922,4210.769043,4219.871582,4178.461426,3480.000000,4.000000,91.000000,,,,0.000000,4.000000,4.000000,4.000000,4.000000,4.000000,4.000000,4.000000,4.000000,4.000000,4.000000,4.000000,4.000000,4.000000,4.000000,100.000000,,,,,,,,,,,,,,,,
1644853123.324626,23.000000,0.000000,4235.769043,4204.487305,4222.307617,4214.358887,4209.615234,4218.974121,4217.051270,4224.615234,4219.615234,4213.333496,4223.846191,4206.794922,4217.051270,4184.102539,3396.000000,4.000000,91.000000,,,,0.000000,4.000000,4.000000,4.000000,4.000000,4.000000,4.000000,4.000000,4.000000,4.000000,4.000000,4.000000,4.000000,4.000000,4.000000,100.000000,,,,,,,,,,,,,,,,
1644853123.328566,24.000000,0.000000,4229.230957,4204.358887,4221.153809,4222.436035,4207.692383,4216.282227,4217.948730,4221.282227,4217.563965,4215.897461,4223.846191,4203.461426,4217.436035,4196.153809,3399.000000,4.000000,91.000000,,,,0.000000,4.000000,4.000000,4.000000,4.000000,4.000000,4.000000,4.000000,4.000000,4.000000,4.000000,4.000000,4.000000,4.000000,4.000000,100.000000,,,,,,,,,,,,,,,,
1644853123.332506,25.000000,0.000000,4227.563965,4203.846191,4222.436035,4230.769043,4212.051270,4215.128418,4217.820313,4221.410156,4218.974121,4223.205078,4217.563965,4205.641113,4219.615234,4203.717773,3616.000000,4.000000,91.000000,,,,0.000000,4.000000,4.000000,4.000000,4.000000,4.000000,4.000000,4.000000,4.000000,4.000000,4.000000,4.000000,4.000000,4.000000,4.000000,100.000000,,,,,,,,,,,,,,,,
1644853123.336446,26.000000,0.000000,4231.025879,4201.666504,4224.615234,4234.743652,4218.205078,4214.615234,4216.282227,4223.333496,4223.205078,4230.384766,4206.025879,4213.205078,4221.922852,4201.153809,3480.000000,4.000000,91.000000,,,,0.000000,4.000000,4.000000,4.000000,4.000000,4.000000,4.000000,4.000000,4.000000,4.000000,4.000000,4.000000,4.000000,4.000000,4.000000,100.000000,,,,,,,,,,,,,,,,
1644853123.340386,27.000000,0.000000,4237.436035,4197.948730,4226.410156,4234.743652,4222.948730,4213.974121,4215.897461,4224.615234,4227.307617,4233.846191,4195.512695,4220.384766,4223.205078,4192.948730,3396.000000,4.000000,91.000000,,,,0.000000,4.000000,4.000000,4.000000,4.000000,4.000000,4.000000,4.000000,4.000000,4.000000,4.000000,4.000000,4.000000,4.000000,4.000000,100.000000,,,,,,,,,,,,,,,,
1644853123.344327,28.000000,0.000000,4243.974121,4194.358887,4227.820313,4233.333496,4226.666504,4213.333496,4219.230957,4224.487305,4228.974121,4233.333496,4193.205078,4221.025879,4223.717773,4187.820313,3399.000000,4.000000,91.000000,,,,0.000000,4.000000,4.000000,4.000000,4.000000,4.000000,4.000000,4.000000,4.000000,4.000000,4.000000,4.000000,4.000000,4.000000,4.000000,100.000000,,,,,,,,,,,,,,,,
1644853123.348267,29.000000,0.000000,4247.948730,4193.589844,4228.589844,4232.179688,4231.410156,4214.358887,4224.358887,4223.589844,4227.563965,4230.384766,4201.538574,4213.846191,4224.230957,4190.897461,3616.000000,4.000000,91.000000,,,,0.000000,4.000000,4.000000,4.000000,4.000000,4.000000,4.000000,4.000000,4.000000,4.000000,4.000000,4.000000,4.000000,4.000000,4.000000,100.000000,,,,,,,,,,,,,,,,
1644853123.352207,30.000000,0.000000,4248.333496,4196.666504,4228.077148,4229.743652,4236.538574,4217.948730,4227.307617,4223.461426,4224.743652,4226.282227,4216.282227,4203.333496,4224.102539,4198.717773,3480.000000,4.000000,91.000000,,,,0.000000,4.000000,4.000000,4.000000,4.000000,4.000000,4.000000,4.000000,4.000000,4.000000,4.000000,4.000000,4.000000,4.000000,4.000000,100.000000,,,,,,,,,,,,,,,,
1644853123.356147,31.000000,0.000000,4244.871582,4202.692383,4226.410156,4224.102539,4239.230957,4223.333496,4226.153809,4224.615234,4223.205078,4222.179688,4228.205078,4196.410156,4222.179688,4204.487305,3396.000000,4.000000,91.000000,,,,0.000000,4.000000,4.000000,4.000000,4.000000,4.000000,4.000000,4.000000,4.000000,4.000000,4.000000,4.000000,4.000000,4.000000,4.000000,100.000000,,,,,,,,,,,,,,,,
1644853123.360087,32.000000,0.000000,4238.846191,4208.846191,4224.358887,4216.922852,4236.410156,4227.820313,4223.205078,4226.794922,4223.974121,4219.230957,4230.128418,4196.025879,4219.230957,4205.256348,0.000000,4.000000,91.000000,,,,0.000000,4.000000,4.000000,4.000000,4.000000,4.000000,4.000000,4.000000,4.000000,4.000000,4.000000,4.000000,4.000000,4.000000,4.000000,100.000000,,,,,,,,,,,,,,,,
1644853123.364027,33.000000,0.000000,4232.563965,4212.692383,4223.077148,4212.692383,4228.205078,4229.102539,4222.179688,4230.000000,4227.051270,4219.615234,4222.307617,4200.512695,4217.563965,4202.692383,0.000000,4.000000,91.000000,,,,0.000000,4.000000,4.000000,4.000000,4.000000,4.000000,4.000000,4.000000,4.000000,4.000000,4.000000,4.000000,4.000000,4.000000,4.000000,100.000000,,,,,,,,,,,,,,,,
1644853123.367967,34.000000,0.000000,4229.230957,4213.077148,4223.589844,4216.282227,4219.358887,4228.205078,4223.974121,4233.077148,4230.769043,4224.487305,4212.820313,4205.512695,4219.615234,4200.256348,0.000000,4.000000,91.000000,,,,0.000000,4.000000,4.000000,4.000000,4.000000,4.000000,4.000000,4.000000,4.000000,4.000000,4.000000,4.000000,4.000000,4.000000,4.000000,100.000000,,,,,,,,,,,,,,,,
1644853123.371907,35.000000,0.000000,4230.641113,4211.538574,4226.153809,4227.692383,4215.256348,4228.077148,4226.153809,4235.512695,4233.717773,4233.205078,4211.410156,4208.333496,4224.487305,4198.717773,0.000000,4.000000,91.000000,,,,0.000000,4.000000,4.000000,4.000000,4.000000,4.000000,4.000000,4.000000,4.000000,4.000000,4.000000,4.000000,4.000000,4.000000,4.000000,100.000000,,,,,,,,,,,,,,,,
1644853123.375947,36.000000,0.000000,4236.025879,4210.384766,4230.128418,4240.256348,4217.563965,4230.512695,4226.153809,4236.922852,4235.512695,4241.666504,4220.256348,4209.358887,4229.230957,4196.410156,0.000000,4.000000,91.000000,,,,0.000000,4.000000,4.000000,4.000000,4.000000,4.000000,4.000000,4.000000,4.000000,4.000000,4.000000,4.000000,4.000000,4.000000,4.000000,100.000000,,,,,,,,,,,,,,,,
1644853123.379887,37.000000,0.000000,4241.410156,4210.384766,4233.846191,4244.743652,4222.948730,4233.717773,4224.615234,4238.205078,4236.922852,4245.641113,4232.307617,4210.512695,4231.153809,4191.922852,0.000000,4.000000,91.000000,,,,0.000000,4.000000,4.000000,4.000000,4.000000,4.000000,4.000000,4.000000,4.000000,4.000000,4.000000,4.000000,4.000000,4.000000,4.000000,100.000000,,,,,,,,,,,,,,,,
1644853123.383827,38.000000,0.000000,4243.974121,4211.153809,4235.384766,4237.563965,4225.897461,4234.487305,4223.461426,4240.384766,4238.717773,4243.333496,4236.922852,4212.948730,4230.000000,4186.922852,0.000000,4.000000,91.000000,,,,0.000000,4.000000,4.000000,4.000000,4.000000,4.000000,4.000000,4.000000,4.000000,4.000000,4.000000,4.000000,4.000000,4.000000,4.000000,100.000000,,,,,,,,,,,,,,,,
1644853123.387768,39.000000,0.000000,4242.948730,4211.922852,4234.358887,4224.358887,4224.230957,4231.282227,4223.461426,4242.692383,4241.153809,4238.461426,4229.358887,4216.025879,4228.333496,4185.128418,0.000000,4.000000,91.000000,,,,0.000000,4.000000,4.000000,4.000000,4.000000,4.000000,4.000000,4.000000,4.000000,4.000000,4.000000,4.000000,4.000000,4.000000,4.000000,100.000000,,,,,,,,,,,,,,,,
1644853123.391708,40.000000,0.000000,4239.230957,4212.307617,4232.179688,4215.384766,4220.641113,4226.410156,4223.333496,4243.461426,4243.333496,4236.410156,4213.846191,4217.307617,4228.974121,4189.871582,0.000000,4.000000,91.000000,,,,0.000000,4.000000,4.000000,4.000000,4.000000,4.000000,4.000000,4.000000,4.000000,4.000000,4.000000,4.000000,4.000000,4.000000,4.000000,100.000000,,,,,,,,,,,,,,,,
1644853123.395748,41.000000,0.000000,4234.230957,4211.410156,4230.256348,4216.666504,4221.025879,4223.846191,4222.307617,4241.410156,4243.461426,4239.487305,4200.769043,4214.487305,4232.307617,4200.384766,0.000000,4.000000,91.000000,,,,0.000000,4.000000,4.000000,4.000000,4.000000,4.000000,4.000000,4.000000,4.000000,4.000000,4.000000,4.000000,4.000000,4.000000,4.000000,100.000000,,,,,,,,,,,,,,,,
1644853123.399688,42.000000,0.000000,4228.846191,4208.589844,4229.487305,4225.384766,4228.717773,4226.153809,4221.538574,4237.563965,4240.512695,4244.358887,4198.461426,4208.333496,4235.512695,4211.538574,0.000000,4.000000,91.000000,,,,0.000000,4.000000,4.000000,4.000000,4.000000,4.000000,4.000000,4.000000,4.000000,4.000000,4.000000,4.000000,4.000000,4.000000,4.000000,100.000000,,,,,,,,,,,,,,,,
1644853123.403628,43.000000,0.000000,4223.717773,4204.615234,4229.102539,4232.820313,4240.512695,4231.025879,4221.794922,4233.589844,4234.615234,4245.512695,4207.307617,4202.051270,4235.384766,4217.051270,0.000000,4.000000,91.000000,,,,0.000000,4.000000,4.000000,4.000000,4.000000,4.000000,4.000000,4.000000,4.000000,4.000000,4.000000,4.000000,4.000000,4.000000,4.000000,100.000000,,,,,,,,,,,,,,,,
1644853123.407568,44.000000,0.000000,4219.743652,4201.410156,4227.563965,4231.538574,4248.846191,4234.615234,4222.436035,4230.769043,4227.948730,4240.256348,4219.871582,4199.102539,4231.794922,4214.358887,0.000000,4.000000,91.000000,,,,0.000000,4.000000,4.000000,4.000000,4.000000,4.000000,4.000000,4.000000,4.000000,4.000000,4.000000,4.000000,4.000000,4.000000,4.000000,100.000000,,,,,,,,,,,,,,,,
1644853123.411608,45.000000,0.000000,4217.692383,4200.769043,4224.102539,4220.512695,4247.051270,4233.974121,4221.410156,4228.717773,4223.205078,4230.769043,4227.563965,4200.512695,4227.820313,4205.897461,0.000000,4.000000,91.000000,,,,0.000000,4.000000,4.000000,4.000000,4.000000,4.000000,4.000000,4.000000,4.000000,4.000000,4.000000,4.000000,4.000000,4.000000,4.000000,100.000000,,,,,,,,,,,,,,,,
1644853123.415548,46.000000,0.000000,4218.077148,4203.205078,4219.743652,4205.000000,4235.256348,4229.358887,4218.333496,4226.794922,4221.922852,4221.282227,4226.666504,4203.717773,4227.436035,4196.922852,0.000000,4.000000,91.000000,,,,0.000000,4.000000,4.000000,4.000000,4.000000,4.000000,4.000000,4.000000,4.000000,4.000000,4.000000,4.000000,4.000000,4.000000,4.000000,100.000000,,,,,,,,,,,,,,,,
1644853123.419488,47.000000,0.000000,4220.384766,4207.051270,4217.179688,4193.717773,4220.512695,4223.461426,4215.512695,4225.000000,4223.846191,4215.256348,4220.512695,4206.153809,4230.512695,4192.051270,0.000000,4.000000,91.000000,,,,0.000000,4.000000,4.000000,4.000000,4.000000,4.000000,4.000000,4.000000,4.000000,4.000000,4.000000,4.000000,4.000000,4.000000,4.000000,100.000000,,,,,,,,,,,,,,,,
1644853123.423428,48.000000,0.000000,4223.717773,4209.871582,4218.461426,4194.230957,4210.897461,4219.358887,4215.256348,4224.487305,4226.794922,4213.974121,4215.256348,4207.563965,4232.692383,4192.436035,0.000000,4.000000,91.000000,,,,0.000000,4.000000,4.000000,4.000000,4.000000,4.000000,4.000000,4.000000,4.000000,4.000000,4.000000,4.000000,4.000000,4.000000,4.000000,100.000000,,,,,,,,,,,,,,,,
1644853123.427368,49.000000,0.000000,4226.410156,4210.000000,4222.563965,4209.102539,4209.487305,4218.589844,4217.179688,4225.128418,4228.333496,4216.922852,4215.256348,4208.846191,4229.358887,4195.384766,0.000000,4.000000,91.000000,,,,0.000000,4.000000,4.000000,4.000000,4.000000,4.000000,4.000000,4.000000,4.000000,4.000000,4.000000,4.000000,4.000000,4.000000,4.000000,100.000000,,,,,,,,,,,,,,,,
1644853123.431309,50.000000,0.000000,4226.922852,4207.692383,4226.153809,4233.077148,4212.692383,4220.384766,4218.333496,4225.000000,4226.410156,4222.179688,4220.128418,4209.487305,4219.871582,4197.307617,0.000000,4.000000,91.000000,,,,0.000000,4.000000,4.000000,4.000000,4.000000,4.000000,4.000000,4.000000,4.000000,4.000000,4.000000,4.000000,4.000000,4.000000,4.000000,100.000000,,,,,,,,,,,,,,,,
1644853123.435249,51.000000,0.000000,4224.871582,4203.333496,4225.384766,4253.974121,4213.974121,4222.563965,4215.897461,4222.563965,4220.769043,4226.410156,4224.871582,4206.666504,4208.589844,4195.256348,0.000000,4.000000,91.000000,,,,0.000000,4.000000,4.000000,4.000000,4.000000,4.000000,4.000000,4.000000,4.000000,4.000000,4.000000,4.000000,4.000000,4.000000,4.000000,100.000000,,,,,,,,,,,,,,,,
1644853123.439089,52.000000,0.000000,4221.025879,4198.077148,4219.871582,4259.358887,4210.769043,4223.205078,4211.538574,4218.589844,4213.333496,4225.641113,4223.333496,4199.743652,4201.025879,4188.589844,0.000000,4.000000,91.000000,,,,0.000000,4.000000,4.000000,4.000000,4.000000,4.000000,4.000000,4.000000,4.000000,4.000000,4.000000,4.000000,4.000000,4.000000,4.000000,100.000000,,,,,,,,,,,,,,,,
1644853123.443029,53.000000,0.000000,4216.794922,4193.461426,4212.948730,4244.743652,4205.897461,4221.538574,4209.102539,4215.641113,4207.820313,4218.974121,4213.205078,4192.179688,4200.384766,4179.743652,0.000000,4.000000,91.000000,,,,0.000000,4.000000,4.000000,4.000000,4.000000,4.000000,4.000000,4.000000,4.000000,4.000000,4.000000,4.000000,4.000000,4.000000,4.000000,100.000000,,,,,,,,,,,,,,,,
1644853123.446969,54.000000,0.000000,4213.461426,4191.794922,4209.358887,4218.333496,4204.487305,4219.230957,4211.025879,4216.025879,4207.436035,4210.256348,4198.589844,4189.743652,4205.897461,4172.820313,0.000000,4.000000,91.000000,,,,0.000000,4.000000,4.000000,4.000000,4.000000,4.000000,4.000000,4.000000,4.000000,4.000000,4.000000,4.000000,4.000000,4.000000,4.000000,100.000000,,,,,,,,,,,,,,,,
1644853123.450909,55.000000,0.000000,4211.538574,4194.871582,4211.153809,4196.282227,4209.230957,4218.717773,4215.769043,4219.743652,4213.077148,4207.436035,4187.051270,4195.641113,4213.205078,4171.410156,0.000000,4.000000,91.000000,,,,0.000000,4.000000,4.000000,4.000000,4.000000,4.000000,4.000000,4.000000,4.000000,4.000000,4.000000,4.000000,4.000000,4.000000,4.000000,100.000000,,,,,,,,,,,,,,,,
1644853123.454849,56.000000,0.000000,4211.666504,4202.307617,4216.410156,4192.179688,4218.846191,4221.666504,4219.871582,4225.512695,4223.205078,4215.384766,4185.000000,4207.307617,4218.589844,4177.563965,0.000000,4.000000,91.000000,,,,0.000000,4.000000,4.000000,4.000000,4.000000,4.000000,4.000000,4.000000,4.000000,4.000000,4.000000,4.000000,4.000000,4.000000,4.000000,100.000000,,,,,,,,,,,,,,,,
1644853123.458789,57.000000,0.000000,4214.615234,4211.794922,4222.051270,4208.205078,4230.384766,4227.051270,4221.666504,4231.922852,4233.333496,4231.282227,4194.743652,4218.974121,4221.153809,4190.512695,0.000000,4.000000,91.000000,,,,0.000000,4.000000,4.000000,4.000000,4.000000,4.000000,4.000000,4.000000,4.000000,4.000000,4.000000,4.000000,4.000000,4.000000,4.000000,100.000000,,,,,,,,,,,,,,,,
1644853123.462730,58.000000,0.000000,4221.025879,4219.358887,4226.025879,4233.717773,4240.897461,4232.051270,4222.179688,4237.307617,4238.974121,4245.384766,4213.846191,4225.000000,4222.692383,4206.794922,0.000000,4.000000,91.000000,,,,0.000000,4.000000,4.000000,4.000000,4.000000,4.000000,4.000000,4.000000,4.000000,4.000000,4.000000,4.000000,4.000000,4.000000,4.000000,100.000000,,,,,,,,,,,,,,,,
1644853123.466670,59.000000,0.000000,4227.948730,4220.769043,4227.820313,4253.333496,4246.922852,4233.589844,4222.820313,4239.743652,4238.077148,4247.820313,4236.410156,4223.461426,4225.128418,4221.282227,0.000000,4.000000,91.000000,,,,0.000000,4.000000,4.000000,4.000000,4.000000,4.000000,4.000000,4.000000,4.000000,4.000000,4.000000,4.000000,4.000000,4.000000,4.000000,100.000000,,,,,,,,,,,,,,,,
1644853123.470610,60.000000,0.000000,4229.871582,4214.743652,4227.820313,4256.282227,4245.256348,4230.641113,4223.205078,4237.436035,4232.436035,4236.538574,4253.205078,4216.153809,4227.820313,4227.692383,0.000000,4.000000,91.000000,,,,0.000000,4.000000,4.000000,4.000000,4.000000,4.000000,4.000000,4.000000,4.000000,4.000000,4.000000,4.000000,4.000000,4.000000,4.000000,100.000000,,,,,,,,,,,,,,,,
1644853123.474550,61.000000,0.000000,4223.205078,4204.487305,4226.153809,4243.717773,4235.128418,4225.384766,4222.179688,4230.897461,4225.641113,4218.461426,4254.871582,4206.410156,4228.205078,4222.563965,0.000000,4.000000,91.000000,,,,0.000000,4.000000,4.000000,4.000000,4.000000,4.000000,4.000000,4.000000,4.000000,4.000000,4.000000,4.000000,4.000000,4.000000,4.000000,100.000000,,,,,,,,,,,,,,,,
1644853123.478490,62.000000,0.000000,4210.256348,4196.666504,4223.717773,4227.563965,4221.025879,4221.025879,4220.897461,4223.589844,4221.153809,4205.384766,4238.589844,4198.461426,4224.358887,4208.333496,0.000000,4.000000,91.000000,,,,0.000000,4.000000,4.000000,4.000000,4.000000,4.000000,4.000000,4.000000,4.000000,4.000000,4.000000,4.000000,4.000000,4.000000,4.000000,100.000000,,,,,,,,,,,,,,,,
1644853123.482430,63.000000,0.000000,4198.333496,4196.282227,4221.153809,4220.384766,4210.897461,4220.384766,4221.410156,4220.128418,4220.769043,4204.358887,4210.897461,4195.256348,4218.077148,4193.333496,0.000000,4.000000,91.000000,,,,0.000000,4.000000,4.000000,4.000000,4.000000,4.000000,4.000000,4.000000,4.000000,4.000000,4.000000,4.000000,4.000000,4.000000,4.000000,100.000000,,,,,,,,,,,,,,,,
1644853123.486270,64.000000,0.000000,4194.743652,4203.461426,4218.974121,4225.512695,4211.410156,4224.487305,4224.358887,4222.436035,4223.974121,4213.846191,4186.282227,4197.436035,4213.333496,4186.538574,0.000000,4.000000,91.000000,,,,0.000000,4.000000,4.000000,4.000000,4.000000,4.000000,4.000000,4.000000,4.000000,4.000000,4.000000,4.000000,4.000000,4.000000,4.000000,100.000000,,,,,,,,,,,,,,,,
1644853123.490210,65.000000,0.000000,4200.384766,4213.461426,4216.922852,4234.487305,4222.692383,4230.769043,4227.307617,4227.948730,4228.589844,4225.512695,4177.948730,4202.307617,4213.077148,4190.512695,0.000000,4.000000,91.000000,,,,0.000000,4.000000,4.000000,4.000000,4.000000,4.000000,4.000000,4.000000,4.000000,4.000000,4.000000,4.000000,4.000000,4.000000,4.000000,100.000000,,,,,,,,,,,,,,,,
1644853123.494150,66.000000,0.000000,4210.000000,4219.487305,4215.384766,4236.025879,4237.436035,4235.256348,4227.436035,4231.666504,4231.410156,4231.794922,4188.461426,4204.871582,4216.538574,4199.871582,0.000000,4.000000,91.000000,,,,0.000000,4.000000,4.000000,4.000000,4.000000,4.000000,4.000000,4.000000,4.000000,4.000000,4.000000,4.000000,4.000000,4.000000,4.000000,100.000000,,,,,,,,,,,,,,,,
1644853123.498091,67.000000,0.000000,4216.153809,4218.077148,4215.256348,4227.563965,4245.128418,4234.615234,4224.743652,4230.256348,4229.615234,4230.641113,4207.563965,4201.922852,4220.128418,4205.769043,0.000000,4.000000,91.000000,,,,0.000000,4.000000,4.000000,4.000000,4.000000,4.000000,4.000000,4.000000,4.000000,4.000000,4.000000,4.000000,4.000000,4.000000,4.000000,100.000000,,,,,,,,,,,,,,,,
1644853123.502031,68.000000,0.000000,4216.025879,4210.384766,4217.051270,4216.666504,4239.743652,4230.128418,4221.922852,4223.717773,4223.461426,4224.743652,4220.384766,4194.358887,4220.769043,4203.846191,0.000000,4.000000,91.000000,,,,0.000000,4.000000,4.000000,4.000000,4.000000,4.000000,4.000000,4.000000,4.000000,4.000000,4.000000,4.000000,4.000000,4.000000,4.000000,100.000000,,,,,,,,,,,,,,,,
1644853123.505971,69.000000,0.000000,4213.077148,4202.051270,4218.974121,4213.333496,4224.871582,4226.025879,4220.769043,4215.641113,4215.769043,4217.948730,4219.743652,4186.794922,4217.179688,4195.897461,0.000000,4.000000,91.000000,,,,0.000000,4.000000,4.000000,4.000000,4.000000,4.000000,4.000000,4.000000,4.000000,4.000000,4.000000,4.000000,4.000000,4.000000,4.000000,100.000000,,,,,,,,,,,,,,,,
1644853123.509911,70.000000,0.000000,4213.205078,4198.461426,4218.846191,4219.487305,4210.769043,4225.256348,4220.384766,4209.743652,4210.256348,4211.794922,4209.615234,4184.358887,4210.384766,4187.692383,0.000000,4.000000,91.000000,,,,0.000000,4.000000,4.000000,4.000000,4.000000,4.000000,4.000000,4.000000,4.000000,4.000000,4.000000,4.000000,4.000000,4.000000,4.000000,100.000000,,,,,,,,,,,,,,,,
1644853123.513851,71.000000,0.000000,4218.077148,4201.153809,4216.153809,4227.948730,4207.051270,4227.820313,4218.846191,4207.563965,4208.589844,4207.051270,4200.128418,4187.948730,4202.563965,4183.333496,0.000000,4.000000,91.000000,,,,0.000000,4.000000,4.000000,4.000000,4.000000,4.000000,4.000000,4.000000,4.000000,4.000000,4.000000,4.000000,4.000000,4.000000,4.000000,100.000000,,,,,,,,,,,,,,,,
1644853123.517791,72.000000,0.000000,4222.692383,4207.563965,4212.563965,4229.871582,4215.384766,4230.641113,4216.282227,4208.846191,4210.000000,4204.358887,4198.077148,4193.846191,4197.436035,4184.358887,0.000000,4.000000,91.000000,,,,0.000000,4.000000,4.000000,4.000000,4.000000,4.000000,4.000000,4.000000,4.000000,4.000000,4.000000,4.000000,4.000000,4.000000,4.000000,100.000000,,,,,,,,,,,,,,,,
1644853123.521731,73.000000,0.000000,4220.641113,4213.205078,4210.641113,4222.563965,4228.717773,4230.769043,4214.743652,4211.794922,4211.922852,4204.615234,4202.948730,4196.666504,4197.948730,4189.102539,0.000000,4.000000,91.000000,,,,0.000000,4.000000,4.000000,4.000000,4.000000,4.000000,4.000000,4.000000,4.000000,4.000000,4.000000,4.000000,4.000000,4.000000,4.000000,100.000000,,,,,,,,,,,,,,,,
1644853123.525671,74.000000,0.000000,4210.384766,4215.641113,4210.897461,4210.769043,4236.922852,4227.307617,4215.000000,4214.615234,4212.820313,4207.307617,4208.974121,4194.615234,4204.487305,4193.717773,0.000000,4.000000,91.000000,,,,0.000000,4.000000,4.000000,4.000000,4.000000,4.000000,4.000000,4.000000,4.000000,4.000000,4.000000,4.000000,4.000000,4.000000,4.000000,100.000000,,,,,,,,,,,,,,,,
1644853123.529611,75.000000,0.000000,4198.333496,4214.358887,4212.307617,4202.436035,4235.000000,4221.794922,4215.641113,4216.153809,4212.563965,4210.512695,4210.641113,4190.384766,4214.743652,4195.000000,0.000000,4.000000,91.000000,,,,0.000000,4.000000,4.000000,4.000000,4.000000,4.000000,4.000000,4.000000,4.000000,4.000000,4.000000,4.000000,4.000000,4.000000,4.000000,100.000000,,,,,,,,,,,,,,,,
1644853123.533552,76.000000,0.000000,4193.589844,4210.128418,4213.846191,4202.179688,4226.410156,4217.307617,4214.615234,4216.410156,4212.307617,4212.051270,4207.307617,4188.077148,4224.358887,4193.589844,0.000000,4.000000,91.000000,,,,0.000000,4.000000,4.000000,4.000000,4.000000,4.000000,4.000000,4.000000,4.000000,4.000000,4.000000,4.000000,4.000000,4.000000,4.000000,100.000000,,,,,,,,,,,,,,,,
1644853123.537492,77.000000,0.000000,4199.615234,4203.846191,4215.384766,4209.230957,4218.974121,4216.025879,4212.563965,4216.153809,4213.077148,4211.538574,4202.948730,4189.615234,4228.974121,4193.077148,0.000000,4.000000,91.000000,,,,0.000000,4.000000,4.000000,4.000000,4.000000,4.000000,4.000000,4.000000,4.000000,4.000000,4.000000,4.000000,4.000000,4.000000,4.000000,100.000000,,,,,,,,,,,,,,,,
1644853123.541432,78.000000,0.000000,4211.282227,4196.794922,4216.410156,4218.461426,4217.692383,4218.589844,4212.820313,4216.538574,4215.000000,4210.769043,4202.307617,4193.333496,4226.794922,4196.666504,0.000000,4.000000,91.000000,,,,0.000000,4.000000,4.000000,4.000000,4.000000,4.000000,4.000000,4.000000,4.000000,4.000000,4.000000,4.000000,4.000000,4.000000,4.000000,100.000000,,,,,,,,,,,,,,,,
1644853123.545372,79.000000,0.000000,4219.230957,4191.666504,4216.666504,4224.487305,4221.282227,4223.589844,4216.794922,4218.717773,4218.077148,4212.692383,4206.666504,4197.179688,4218.846191,4203.717773,0.000000,4.000000,91.000000,,,,0.000000,4.000000,4.000000,4.000000,4.000000,4.000000,4.000000,4.000000,4.000000,4.000000,4.000000,4.000000,4.000000,4.000000,4.000000,100.000000,,,,,,,,,,,,,,,,
1644853123.549212,80.000000,0.000000,4219.102539,4191.538574,4215.897461,4225.128418,4225.641113,4228.461426,4221.794922,4222.436035,4222.436035,4218.205078,4213.205078,4199.743652,4209.743652,4210.512695,0.000000,4.000000,91.000000,,,,0.000000,4.000000,4.000000,4.000000,4.000000,4.000000,4.000000,4.000000,4.000000,4.000000,4.000000,4.000000,4.000000,4.000000,4.000000,100.000000,,,,,,,,,,,,,,,,
1644853123.553152,81.000000,0.000000,4214.487305,4197.948730,4215.000000,4221.025879,4228.461426,4230.641113,4223.846191,4226.410156,4228.077148,4224.871582,4218.333496,4202.692383,4205.128418,4213.846191,0.000000,4.000000,91.000000,,,,0.000000,4.000000,4.000000,4.000000,4.000000,4.000000,4.000000,4.000000,4.000000,4.000000,4.000000,4.000000,4.000000,4.000000,4.000000,100.000000,,,,,,,,,,,,,,,,
1644853123.557092,82.000000,0.000000,4213.205078,4208.077148,4215.384766,4216.153809,4230.256348,4229.487305,4221.794922,4229.487305,4233.205078,4228.589844,4220.769043,4208.205078,4208.205078,4212.948730,0.000000,4.000000,91.000000,,,,0.000000,4.000000,4.000000,4.000000,4.000000,4.000000,4.000000,4.000000,4.000000,4.000000,4.000000,4.000000,4.000000,4.000000,4.000000,100.000000,,,,,,,,,,,,,,,,
1644853123.561032,83.000000,0.000000,4218.974121,4216.410156,4217.692383,4214.615234,4230.256348,4226.282227,4218.974121,4230.769043,4235.769043,4226.794922,4221.538574,4215.512695,4217.692383,4208.974121,0.000000,4.000000,91.000000,,,,0.000000,4.000000,4.000000,4.000000,4.000000,4.000000,4.000000,4.000000,4.000000,4.000000,4.000000,4.000000,4.000000,4.000000,4.000000,100.000000,,,,,,,,,,,,,,,,
1644853123.564972,84.000000,0.000000,4227.948730,4218.333496,4220.897461,4217.436035,4225.641113,4223.846191,4218.205078,4229.871582,4234.230957,4221.922852,4222.307617,4220.641113,4228.077148,4204.230957,0.000000,4.000000,91.000000,,,,0.000000,4.000000,4.000000,4.000000,4.000000,4.000000,4.000000,4.000000,4.000000,4.000000,4.000000,4.000000,4.000000,4.000000,4.000000,100.000000,,,,,,,,,,,,,,,,
1644853123.568913,85.000000,0.000000,4232.820313,4213.333496,4223.077148,4220.512695,4215.000000,4223.717773,4219.102539,4226.922852,4229.358887,4219.743652,4223.589844,4220.128418,4234.871582,4201.794922,0.000000,4.000000,91.000000,,,,0.000000,4.000000,4.000000,4.000000,4.000000,4.000000,4.000000,4.000000,4.000000,4.000000,4.000000,4.000000,4.000000,4.000000,4.000000,100.000000,,,,,,,,,,,,,,,,
1644853123.572853,86.000000,0.000000,4229.871582,4205.897461,4223.205078,4218.846191,4202.436035,4225.769043,4219.487305,4223.077148,4224.230957,4224.102539,4225.641113,4215.128418,4237.051270,4204.358887,0.000000,4.000000,91.000000,,,,0.000000,4.000000,4.000000,4.000000,4.000000,4.000000,4.000000,4.000000,4.000000,4.000000,4.000000,4.000000,4.000000,4.000000,4.000000,100.000000,,,,,,,,,,,,,,,,
1644853123.576793,87.000000,0.000000,4222.820313,4202.179688,4222.948730,4211.025879,4196.794922,4228.589844,4218.846191,4221.282227,4222.692383,4233.333496,4227.820313,4211.410156,4236.282227,4212.948730,0.000000,4.000000,91.000000,,,,0.000000,4.000000,4.000000,4.000000,4.000000,4.000000,4.000000,4.000000,4.000000,4.000000,4.000000,4.000000,4.000000,4.000000,4.000000,100.000000,,,,,,,,,,,,,,,,
1644853123.580733,88.000000,0.000000,4218.333496,4205.384766,4224.615234,4202.179688,4204.743652,4231.538574,4219.230957,4223.333496,4225.641113,4241.153809,4229.230957,4213.717773,4235.256348,4224.615234,0.000000,4.000000,91.000000,,,,0.000000,4.000000,4.000000,4.000000,4.000000,4.000000,4.000000,4.000000,4.000000,4.000000,4.000000,4.000000,4.000000,4.000000,4.000000,100.000000,,,,,,,,,,,,,,,,
1644853123.584673,89.000000,0.000000,4220.512695,4213.205078,4229.102539,4199.743652,4224.615234,4233.846191,4221.794922,4227.948730,4230.512695,4242.692383,4229.102539,4221.153809,4235.000000,4232.948730,0.000000,4.000000,91.000000,,,,0.000000,4.000000,4.000000,4.000000,4.000000,4.000000,4.000000,4.000000,4.000000,4.000000,4.000000,4.000000,4.000000,4.000000,4.000000,100.000000,,,,,,,,,,,,,,,,
1644853123.588613,90.000000,0.000000,4226.794922,4219.743652,4233.846191,4207.563965,4246.538574,4235.384766,4224.871582,4230.897461,4233.589844,4237.820313,4227.307617,4227.692383,4235.000000,4232.179688,0.000000,4.000000,91.000000,,,,0.000000,4.000000,4.000000,4.000000,4.000000,4.000000,4.000000,4.000000,4.000000,4.000000,4.000000,4.000000,4.000000,4.000000,4.000000,100.000000,,,,,,,,,,,,,,,,
1644853123.592553,91.000000,0.000000,4231.153809,4220.000000,4235.256348,4222.179688,4259.871582,4235.384766,4225.512695,4229.358887,4232.948730,4231.025879,4225.000000,4227.436035,4233.974121,4222.307617,0.000000,4.000000,91.000000,,,,0.000000,4.000000,4.000000,4.000000,4.000000,4.000000,4.000000,4.000000,4.000000,4.000000,4.000000,4.000000,4.000000,4.000000,4.000000,100.000000,,,,,,,,,,,,,,,,
1644853123.596493,92.000000,0.000000,4230.128418,4214.743652,4231.282227,4234.871582,4259.871582,4234.358887,4223.077148,4224.102539,4229.871582,4227.307617,4223.974121,4219.615234,4231.025879,4208.974121,0.000000,4.000000,91.000000,,,,0.000000,4.000000,4.000000,4.000000,4.000000,4.000000,4.000000,4.000000,4.000000,4.000000,4.000000,4.000000,4.000000,4.000000,4.000000,100.000000,,,,,,,,,,,,,,,,
1644853123.600433,93.000000,0.000000,4225.384766,4209.487305,4223.717773,4237.179688,4249.230957,4233.077148,4220.256348,4218.461426,4226.666504,4228.589844,4225.000000,4208.974121,4225.897461,4200.128418,0.000000,4.000000,91.000000,,,,0.000000,4.000000,4.000000,4.000000,4.000000,4.000000,4.000000,4.000000,4.000000,4.000000,4.000000,4.000000,4.000000,4.000000,4.000000,100.000000,,,,,,,,,,,,,,,,
1644853123.604374,94.000000,0.000000,4221.538574,4209.487305,4216.794922,4227.948730,4234.743652,4232.179688,4219.102539,4215.000000,4224.102539,4231.922852,4226.794922,4200.769043,4219.615234,4200.000000,0.000000,4.000000,91.000000,,,,0.000000,4.000000,4.000000,4.000000,4.000000,4.000000,4.000000,4.000000,4.000000,4.000000,4.000000,4.000000,4.000000,4.000000,4.000000,100.000000,,,,,,,,,,,,,,,,
1644853123.608314,95.000000,0.000000,4221.794922,4215.128418,4213.974121,4214.230957,4222.692383,4231.922852,4218.717773,4213.846191,4220.641113,4232.692383,4226.410156,4197.179688,4214.487305,4207.179688,0.000000,4.000000,91.000000,,,,0.000000,4.000000,4.000000,4.000000,4.000000,4.000000,4.000000,4.000000,4.000000,4.000000,4.000000,4.000000,4.000000,4.000000,4.000000,100.000000,,,,,,,,,,,,,,,,
1644853123.612254,96.000000,0.000000,4225.384766,4222.307617,4215.897461,4206.282227,4216.410156,4232.051270,4216.922852,4213.205078,4215.641113,4227.948730,4222.820313,4197.820313,4212.307617,4216.153809,0.000000,4.000000,91.000000,,,,0.000000,4.000000,4.000000,4.000000,4.000000,4.000000,4.000000,4.000000,4.000000,4.000000,4.000000,4.000000,4.000000,4.000000,4.000000,100.000000,,,,,,,,,,,,,,,,
1644853123.616194,97.000000,0.000000,4228.461426,4225.897461,4220.128418,4208.333496,4215.000000,4232.051270,4213.717773,4212.307617,4210.384766,4218.589844,4217.948730,4200.897461,4214.230957,4220.384766,0.000000,4.000000,91.000000,,,,0.000000,4.000000,4.000000,4.000000,4.000000,4.000000,4.000000,4.000000,4.000000,4.000000,4.000000,4.000000,4.000000,4.000000,4.000000,100.000000,,,,,,,,,,,,,,,,
1644853123.620034,98.000000,0.000000,4226.922852,4224.230957,4223.077148,4214.871582,4215.000000,4231.282227,4211.538574,4211.922852,4207.436035,4208.846191,4214.871582,4204.743652,4219.487305,4217.307617,0.000000,4.000000,91.000000,,,,0.000000,4.000000,4.000000,4.000000,4.000000,4.000000,4.000000,4.000000,4.000000,4.000000,4.000000,4.000000,4.000000,4.000000,4.000000,100.000000,,,,,,,,,,,,,,,,
1644853123.623974,99.000000,0.000000,4220.000000,4219.615234,4222.820313,4217.179688,4214.615234,4230.128418,4212.179688,4213.333496,4208.333496,4203.846191,4214.871582,4207.563965,4226.025879,4209.487305,0.000000,4.000000,91.000000,,,,0.000000,4.000000,4.000000,4.000000,4.000000,4.000000,4.000000,4.000000,4.000000,4.000000,4.000000,4.000000,4.000000,4.000000,4.000000,100.000000,,,,,,,,,,,,,,,,
1644853123.627914,100.000000,0.000000,4211.922852,4215.512695,4219.487305,4211.922852,4215.256348,4229.230957,4214.743652,4216.282227,4212.948730,4205.769043,4215.897461,4208.077148,4231.410156,4202.051270,0.000000,4.000000,91.000000,,,,0.000000,4.000000,4.000000,4.000000,4.000000,4.000000,4.000000,4.000000,4.000000,4.000000,4.000000,4.000000,4.000000,4.000000,4.000000,100.000000,,,,,,,,,,,,,,,,
1644853123.631854,101.000000,0.000000,4207.820313,4213.461426,4215.256348,4204.487305,4219.487305,4229.487305,4216.410156,4219.743652,4218.974121,4212.563965,4214.615234,4206.794922,4233.077148,4197.948730,0.000000,4.000000,91.000000,,,,0.000000,4.000000,4.000000,4.000000,4.000000,4.000000,4.000000,4.000000,4.000000,4.000000,4.000000,4.000000,4.000000,4.000000,4.000000,100.000000,,,,,,,,,,,,,,,,
1644853123.635794,102.000000,0.000000,4209.230957,4211.922852,4212.820313,4202.563965,4226.794922,4230.512695,4216.410156,4222.820313,4224.102539,4219.615234,4209.102539,4205.641113,4228.717773,4196.538574,0.000000,4.000000,91.000000,,,,0.000000,4.000000,4.000000,4.000000,4.000000,4.000000,4.000000,4.000000,4.000000,4.000000,4.000000,4.000000,4.000000,4.000000,4.000000,100.000000,,,,,,,,,,,,,,,,
1644853123.639735,103.000000,0.000000,4213.461426,4209.358887,4213.589844,4208.974121,4233.589844,4231.025879,4216.538574,4225.128418,4227.179688,4223.333496,4201.025879,4206.282227,4218.077148,4195.128418,0.000000,4.000000,91.000000,,,,0.000000,4.000000,4.000000,4.000000,4.000000,4.000000,4.000000,4.000000,4.000000,4.000000,4.000000,4.000000,4.000000,4.000000,4.000000,100.000000,,,,,,,,,,,,,,,,
1644853123.643775,104.000000,0.000000,4216.666504,4206.282227,4216.538574,4217.948730,4237.436035,4230.641113,4218.974121,4227.307617,4229.102539,4223.974121,4195.897461,4208.333496,4204.743652,4194.102539,0.000000,4.000000,91.000000,,,,0.000000,4.000000,4.000000,4.000000,4.000000,4.000000,4.000000,4.000000,4.000000,4.000000,4.000000,4.000000,4.000000,4.000000,4.000000,100.000000,,,,,,,,,,,,,,,,
1644853123.647715,105.000000,0.000000,4217.948730,4205.897461,4219.871582,4222.436035,4238.974121,4230.512695,4222.436035,4229.743652,4231.410156,4225.128418,4198.461426,4210.897461,4195.000000,4197.692383,0.000000,4.000000,91.000000,,,,0.000000,4.000000,4.000000,4.000000,4.000000,4.000000,4.000000,4.000000,4.000000,4.000000,4.000000,4.000000,4.000000,4.000000,4.000000,100.000000,,,,,,,,,,,,,,,,
1644853123.651655,106.000000,0.000000,4220.128418,4210.641113,4221.538574,4221.282227,4240.384766,4231.794922,4224.230957,4232.179688,4235.000000,4229.743652,4208.589844,4212.692383,4195.384766,4209.230957,0.000000,4.000000,91.000000,,,,0.000000,4.000000,4.000000,4.000000,4.000000,4.000000,4.000000,4.000000,4.000000,4.000000,4.000000,4.000000,4.000000,4.000000,4.000000,100.000000,,,,,,,,,,,,,,,,
1644853123.655595,107.000000,0.000000,4225.641113,4218.461426,4220.000000,4219.487305,4239.743652,4233.974121,4222.563965,4233.461426,4238.461426,4236.282227,4221.410156,4212.051270,4207.563965,4226.025879,0.000000,4.000000,91.000000,,,,0.000000,4.000000,4.000000,4.000000,4.000000,4.000000,4.000000,4.000000,4.000000,4.000000,4.000000,4.000000,4.000000,4.000000,4.000000,100.000000,,,,,,,,,,,,,,,,
1644853123.659535,108.000000,0.000000,4232.820313,4223.846191,4216.153809,4222.051270,4232.692383,4234.615234,4219.487305,4232.307617,4238.846191,4240.000000,4230.897461,4208.077148,4226.410156,4239.743652,0.000000,4.000000,91.000000,,,,0.000000,4.000000,4.000000,4.000000,4.000000,4.000000,4.000000,4.000000,4.000000,4.000000,4.000000,4.000000,4.000000,4.000000,4.000000,100.000000,,,,,,,,,,,,,,,,
1644853123.663375,109.000000,0.000000,4236.666504,4222.436035,4211.922852,4228.974121,4218.717773,4231.538574,4217.948730,4228.205078,4234.743652,4237.436035,4234.743652,4202.179688,4243.205078,4242.307617,0.000000,4.000000,91.000000,,,,0.000000,4.000000,4.000000,4.000000,4.000000,4.000000,4.000000,4.000000,4.000000,4.000000,4.000000,4.000000,4.000000,4.000000,4.000000,100.000000,,,,,,,,,,,,,,,,
1644853123.667315,110.000000,0.000000,4232.563965,4216.282227,4210.000000,4235.384766,4205.000000,4225.256348,4219.102539,4222.820313,4228.333496,4229.743652,4234.487305,4198.205078,4249.743652,4232.179688,0.000000,4.000000,91.000000,,,,0.000000,4.000000,4.000000,4.000000,4.000000,4.000000,4.000000,4.000000,4.000000,4.000000,4.000000,4.000000,4.000000,4.000000,4.000000,100.000000,,,,,,,,,,,,,,,,
1644853123.671255,111.000000,0.000000,4222.051270,4211.794922,4211.025879,4236.153809,4200.641113,4218.846191,4220.512695,4218.846191,4224.102539,4222.948730,4232.179688,4198.974121,4244.743652,4215.897461,0.000000,4.000000,91.000000,,,,0.000000,4.000000,4.000000,4.000000,4.000000,4.000000,4.000000,4.000000,4.000000,4.000000,4.000000,4.000000,4.000000,4.000000,4.000000,100.000000,,,,,,,,,,,,,,,,
1644853123.675196,112.000000,0.000000,4211.666504,4213.077148,4213.717773,4229.615234,4207.948730,4215.512695,4219.743652,4217.948730,4224.358887,4223.077148,4227.948730,4204.358887,4233.333496,4202.692383,0.000000,4.000000,91.000000,1,1,3,0.000000,4.000000,4.000000,4.000000,4.000000,4.000000,4.000000,4.000000,4.000000,4.000000,4.000000,4.000000,4.000000,4.000000,4.000000,100.000000,,,,,,,,,,,,,,,,
1644853123.679136,113.000000,0.000000,4207.948730,4217.563965,4215.769043,4219.487305,4218.461426,4216.153809,4217.307617,4219.358887,4227.179688,4230.641113,4220.512695,4211.025879,4222.692383,4197.820313,0.000000,4.000000,91.000000,,,,0.000000,4.000000,4.000000,4.000000,4.000000,4.000000,4.000000,4.000000,4.000000,4.000000,4.000000,4.000000,4.000000,4.000000,4.000000,100.000000,,,,,,,,,,,,,,,,
1644853123.683076,114.000000,0.000000,4211.794922,4218.589844,4215.512695,4211.410156,4221.666504,4218.461426,4215.128418,4220.897461,4228.077148,4239.358887,4211.794922,4215.256348,4217.307617,4201.153809,0.000000,4.000000,91.000000,,,,0.000000,4.000000,4.000000,4.000000,4.000000,4.000000,4.000000,4.000000,4.000000,4.000000,4.000000,4.000000,4.000000,4.000000,4.000000,100.000000,,,,,,,,,,,,,,,,
1644853123.687016,115.000000,0.000000,4219.102539,4212.692383,4213.333496,4209.871582,4214.743652,4219.358887,4214.743652,4220.897461,4225.512695,4242.179688,4207.051270,4215.897461,4216.538574,4208.333496,0.000000,4.000000,91.000000,,,,0.000000,4.000000,4.000000,4.000000,4.000000,4.000000,4.000000,4.000000,4.000000,4.000000,4.000000,4.000000,4.000000,4.000000,4.000000,100.000000,,,,,,,,,,,,,,,,
1644853123.690956,116.000000,0.000000,4223.846191,4203.461426,4211.666504,4214.102539,4205.512695,4218.205078,4215.256348,4219.358887,4221.922852,4236.922852,4211.666504,4214.871582,4217.436035,4215.128418,0.000000,4.000000,91.000000,,,,0.000000,4.000000,4.000000,4.000000,4.000000,4.000000,4.000000,4.000000,4.000000,4.000000,4.000000,4.000000,4.000000,4.000000,4.000000,100.000000,,,,,,,,,,,,,,,,
1644853123.694896,117.000000,0.000000,4222.179688,4198.333496,4212.563965,4221.025879,4203.461426,4217.563965,4215.641113,4217.051270,4220.512695,4228.461426,4223.717773,4214.615234,4217.051270,4219.358887,0.000000,4.000000,91.000000,,,,0.000000,4.000000,4.000000,4.000000,4.000000,4.000000,4.000000,4.000000,4.000000,4.000000,4.000000,4.000000,4.000000,4.000000,4.000000,100.000000,,,,,,,,,,,,,,,,
1644853123.698836,118.000000,0.000000,4214.871582,4201.666504,4216.282227,4227.563965,4211.410156,4220.000000,4215.769043,4215.256348,4221.538574,4222.563965,4234.743652,4216.153809,4214.743652,4220.769043,0.000000,4.000000,91.000000,,,,0.000000,4.000000,4.000000,4.000000,4.000000,4.000000,4.000000,4.000000,4.000000,4.000000,4.000000,4.000000,4.000000,4.000000,4.000000,100.000000,,,,,,,,,,,,,,,,
1644853123.702876,119.000000,0.000000,4206.282227,4210.256348,4220.641113,4233.461426,4225.000000,4225.641113,4216.794922,4213.974121,4222.179688,4221.410156,4236.282227,4218.589844,4211.794922,4219.743652,0.000000,4.000000,91.000000,,,,0.000000,4.000000,4.000000,4.000000,4.000000,4.000000,4.000000,4.000000,4.000000,4.000000,4.000000,4.000000,4.000000,4.000000,4.000000,100.000000,,,,,,,,,,,,,,,,
1644853123.706816,120.000000,0.000000,4202.179688,4216.410156,4223.077148,4238.717773,4235.769043,4231.153809,4218.461426,4213.205078,4219.743652,4222.307617,4227.307617,4219.487305,4210.256348,4216.666504,0.000000,4.000000,91.000000,,,,0.000000,4.000000,4.000000,4.000000,4.000000,4.000000,4.000000,4.000000,4.000000,4.000000,4.000000,4.000000,4.000000,4.000000,4.000000,100.000000,,,,,,,,,,,,,,,,
1644853123.710756,121.000000,0.000000,4205.897461,4214.871582,4221.922852,4242.051270,4237.948730,4233.333496,4218.974121,4212.436035,4214.615234,4221.025879,4213.717773,4217.436035,4211.794922,4212.692383,0.000000,4.000000,91.000000,,,,0.000000,4.000000,4.000000,4.000000,4.000000,4.000000,4.000000,4.000000,4.000000,4.000000,4.000000,4.000000,4.000000,4.000000,4.000000,100.000000,,,,,,,,,,,,,,,,
1644853123.714696,122.000000,0.000000,4215.897461,4207.948730,4217.948730,4241.410156,4231.282227,4231.153809,4216.922852,4211.794922,4210.512695,4216.538574,4203.333496,4211.794922,4216.282227,4210.769043,0.000000,4.000000,91.000000,,,,0.000000,4.000000,4.000000,4.000000,4.000000,4.000000,4.000000,4.000000,4.000000,4.000000,4.000000,4.000000,4.000000,4.000000,4.000000,100.000000,,,,,,,,,,,,,,,,
1644853123.718637,123.000000,0.000000,4227.692383,4202.692383,4214.102539,4237.307617,4220.897461,4226.538574,4213.461426,4212.051270,4210.641113,4211.025879,4200.512695,4204.743652,4221.538574,4213.974121,0.000000,4.000000,91.000000,,,,0.000000,4.000000,4.000000,4.000000,4.000000,4.000000,4.000000,4.000000,4.000000,4.000000,4.000000,4.000000,4.000000,4.000000,4.000000,100.000000,,,,,,,,,,,,,,,,
1644853123.722477,124.000000,0.000000,4236.410156,4205.128418,4213.974121,4233.589844,4213.589844,4222.563965,4211.922852,4214.487305,4215.512695,4208.846191,4205.384766,4200.256348,4224.615234,4222.179688,0.000000,4.000000,91.000000,,,,0.000000,4.000000,4.000000,4.000000,4.000000,4.000000,4.000000,4.000000,4.000000,4.000000,4.000000,4.000000,4.000000,4.000000,4.000000,100.000000,,,,,,,,,,,,,,,,
1644853123.726417,125.000000,0.000000,4239.615234,4214.102539,4218.333496,4232.563965,4212.563965,4221.794922,4214.102539,4219.230957,4222.179688,4212.948730,4215.000000,4202.436035,4224.743652,4230.769043,0.000000,4.000000,91.000000,,,,0.000000,4.000000,4.000000,4.000000,4.000000,4.000000,4.000000,4.000000,4.000000,4.000000,4.000000,4.000000,4.000000,4.000000,4.000000,100.000000,,,,,,,,,,,,,,,,
1644853123.730357,126.000000,0.000000,4236.922852,4223.333496,4225.000000,4232.948730,4216.538574,4224.102539,4218.077148,4224.615234,4227.051270,4222.692383,4225.384766,4210.897461,4223.333496,4233.717773,0.000000,4.000000,91.000000,,,,0.000000,4.000000,4.000000,4.000000,4.000000,4.000000,4.000000,4.000000,4.000000,4.000000,4.000000,4.000000,4.000000,4.000000,4.000000,100.000000,,,,,,,,,,,,,,,,
1644853123.734297,127.000000,0.000000,4229.102539,4226.282227,4229.615234,4231.538574,4220.769043,4226.794922,4220.641113,4227.692383,4228.461426,4233.846191,4232.563965,4220.641113,4221.153809,4227.948730,0.000000,4.000000,91.000000,,,,0.000000,4.000000,4.000000,4.000000,4.000000,4.000000,4.000000,4.000000,4.000000,4.000000,4.000000,4.000000,4.000000,4.000000,4.000000,100.000000,,,,,,,,,,,,,,,,
1644853123.738137,128.000000,0.000000,4218.205078,4222.051270,4229.615234,4227.820313,4221.666504,4226.666504,4220.384766,4227.436035,4226.794922,4240.769043,4234.487305,4225.512695,4218.077148,4216.025879,3430.000000,4.000000,91.000000,,,,0.000000,4.000000,4.000000,4.000000,4.000000,4.000000,4.000000,4.000000,4.000000,4.000000,4.000000,4.000000,4.000000,4.000000,4.000000,100.000000,,,,,,,,,,,,,,,,
1644853123.742077,129.000000,0.000000,4207.179688,4213.974121,4225.769043,4225.384766,4219.487305,4222.948730,4218.717773,4225.384766,4223.974121,4240.128418,4231.153809,4222.307617,4213.974121,4203.589844,3147.000000,4.000000,91.000000,,,,0.000000,4.000000,4.000000,4.000000,4.000000,4.000000,4.000000,4.000000,4.000000,4.000000,4.000000,4.000000,4.000000,4.000000,4.000000,100.000000,,,,,,,,,,,,,,,,
1644853123.746018,130.000000,0.000000,4201.153809,4206.922852,4220.512695,4227.948730,4216.282227,4218.205078,4216.794922,4223.846191,4221.922852,4233.205078,4224.615234,4213.461426,4209.871582,4195.769043,3543.000000,4.000000,91.000000,,,,0.000000,4.000000,4.000000,4.000000,4.000000,4.000000,4.000000,4.000000,4.000000,4.000000,4.000000,4.000000,4.000000,4.000000,4.000000,100.000000,,,,,,,,,,,,,,,,
1644853123.749958,131.000000,0.000000,4203.589844,4203.077148,4216.538574,4235.641113,4212.436035,4216.282227,4214.615234,4223.717773,4221.922852,4225.000000,4218.205078,4204.358887,4207.820313,4194.102539,3528.000000,4.000000,91.000000,,,,0.000000,4.000000,4.000000,4.000000,4.000000,4.000000,4.000000,4.000000,4.000000,4.000000,4.000000,4.000000,4.000000,4.000000,4.000000,100.000000,,,,,,,,,,,,,,,,
1644853123.753898,132.000000,0.000000,4213.461426,4201.538574,4215.128418,4243.461426,4207.692383,4219.230957,4212.051270,4224.358887,4223.333496,4220.000000,4215.128418,4199.743652,4208.717773,4197.692383,3392.000000,4.000000,91.000000,,,,0.000000,4.000000,4.000000,4.000000,4.000000,4.000000,4.000000,4.000000,4.000000,4.000000,4.000000,4.000000,4.000000,4.000000,4.000000,100.000000,,,,,,,,,,,,,,,,
1644853123.757838,133.000000,0.000000,4225.256348,4201.794922,4216.025879,4245.897461,4203.333496,4224.871582,4210.256348,4225.256348,4225.000000,4219.871582,4215.769043,4200.512695,4211.538574,4204.487305,3326.000000,4.000000,91.000000,,,,0.000000,4.000000,4.000000,4.000000,4.000000,4.000000,4.000000,4.000000,4.000000,4.000000,4.000000,4.000000,4.000000,4.000000,4.000000,100.000000,,,,,,,,,,,,,,,,
1644853123.761778,134.000000,0.000000,4232.436035,4205.000000,4218.589844,4241.922852,4203.205078,4229.230957,4211.410156,4225.512695,4225.641113,4222.692383,4217.692383,4204.102539,4214.358887,4212.692383,2390.000000,4.000000,91.000000,,,,0.000000,4.000000,4.000000,4.000000,4.000000,4.000000,4.000000,4.000000,4.000000,4.000000,4.000000,4.000000,4.000000,4.000000,4.000000,100.000000,,,,,,,,,,,,,,,,
1644853123.765718,135.000000,0.000000,4232.179688,4212.820313,4222.179688,4236.922852,4210.512695,4229.358887,4215.256348,4224.871582,4225.128418,4225.641113,4216.922852,4206.794922,4217.051270,4220.769043,3012.000000,4.000000,91.000000,,,,0.000000,4.000000,4.000000,4.000000,4.000000,4.000000,4.000000,4.000000,4.000000,4.000000,4.000000,4.000000,4.000000,4.000000,4.000000,100.000000,,,,,,,,,,,,,,,,
1644853123.769658,136.000000,0.000000,4226.794922,4223.589844,4226.153809,4238.461426,4222.563965,4225.384766,4218.461426,4223.077148,4224.102539,4227.307617,4212.307617,4206.666504,4220.512695,4227.051270,3278.000000,4.000000,91.000000,,,,0.000000,4.000000,4.000000,4.000000,4.000000,4.000000,4.000000,4.000000,4.000000,4.000000,4.000000,4.000000,4.000000,4.000000,4.000000,100.000000,,,,,,,,,,,,,,,,
1644853123.773598,137.000000,0.000000,4220.384766,4231.666504,4228.461426,4250.384766,4233.333496,4220.641113,4218.589844,4220.256348,4223.077148,4227.692383,4207.051270,4204.743652,4225.897461,4229.487305,3567.000000,4.000000,91.000000,,,,0.000000,4.000000,4.000000,4.000000,4.000000,4.000000,4.000000,4.000000,4.000000,4.000000,4.000000,4.000000,4.000000,4.000000,4.000000,100.000000,,,,,,,,,,,,,,,,
1644853123.777538,138.000000,0.000000,4216.025879,4231.538574,4227.820313,4268.077148,4237.563965,4218.333496,4216.025879,4217.436035,4222.051270,4227.436035,4207.307617,4203.205078,4231.922852,4227.436035,3515.000000,4.000000,91.000000,,,,0.000000,4.000000,4.000000,4.000000,4.000000,4.000000,4.000000,4.000000,4.000000,4.000000,4.000000,4.000000,4.000000,4.000000,4.000000,100.000000,,,,,,,,,,,,,,,,
1644853123.781478,139.000000,0.000000,4215.641113,4223.205078,4224.615234,4279.871582,4235.384766,4219.102539,4213.974121,4216.282227,4221.410156,4228.589844,4216.538574,4202.563965,4235.897461,4222.563965,3390.000000,4.000000,91.000000,,,,0.000000,4.000000,4.000000,4.000000,4.000000,4.000000,4.000000,4.000000,4.000000,4.000000,4.000000,4.000000,4.000000,4.000000,4.000000,100.000000,,,,,,,,,,,,,,,,
1644853123.785419,140.000000,0.000000,4219.102539,4212.692383,4220.897461,4275.897461,4230.897461,4222.307617,4214.230957,4217.692383,4222.051270,4232.307617,4231.666504,4202.948730,4235.256348,4217.948730,3302.000000,4.000000,91.000000,,,,0.000000,4.000000,4.000000,4.000000,4.000000,4.000000,4.000000,4.000000,4.000000,4.000000,4.000000,4.000000,4.000000,4.000000,4.000000,100.000000,,,,,,,,,,,,,,,,
1644853123.789359,141.000000,0.000000,4224.615234,4208.077148,4219.230957,4257.051270,4227.948730,4226.025879,4215.512695,4220.897461,4224.615234,4238.205078,4244.871582,4203.846191,4230.384766,4216.794922,3512.000000,4.000000,91.000000,,,,0.000000,4.000000,4.000000,4.000000,4.000000,4.000000,4.000000,4.000000,4.000000,4.000000,4.000000,4.000000,4.000000,4.000000,4.000000,100.000000,,,,,,,,,,,,,,,,
1644853123.793299,142.000000,0.000000,4229.102539,4212.692383,4220.641113,4235.769043,4227.051270,4229.230957,4215.897461,4223.205078,4228.461426,4242.692383,4250.512695,4205.000000,4224.358887,4218.846191,3515.000000,4.000000,91.000000,,,,0.000000,4.000000,4.000000,4.000000,4.000000,4.000000,4.000000,4.000000,4.000000,4.000000,4.000000,4.000000,4.000000,4.000000,4.000000,100.000000,,,,,,,,,,,,,,,,
1644853123.797239,143.000000,0.000000,4230.000000,4222.179688,4223.589844,4225.769043,4225.641113,4230.769043,4215.128418,4223.333496,4231.538574,4242.563965,4248.589844,4205.641113,4220.256348,4221.153809,3390.000000,4.000000,91.000000,2,1,3,0.000000,4.000000,4.000000,4.000000,4.000000,4.000000,4.000000,4.000000,4.000000,4.000000,4.000000,4.000000,4.000000,4.000000,4.000000,100.000000,,,,,,,,,,,,,,,,
1644853123.801179,144.000000,0.000000,4227.948730,4227.692383,4225.000000,4229.871582,4220.128418,4230.512695,4215.512695,4222.051270,4231.794922,4237.179688,4242.307617,4205.384766,4218.461426,4219.358887,3302.000000,4.000000,91.000000,,,,0.000000,4.000000,4.000000,4.000000,4.000000,4.000000,4.000000,4.000000,4.000000,4.000000,4.000000,4.000000,4.000000,4.000000,4.000000,100.000000,1.000000,83.333336,4.000000,4.000000,4.000000,4.000000,3.000000,4.000000,4.000000,4.000000,4.000000,4.000000,4.000000,4.000000,4.000000,3.000000
1644853123.805219,145.000000,0.000000,4225.384766,4224.358887,4222.948730,4237.948730,4211.153809,4228.974121,4218.205078,4220.897461,4229.487305,4230.256348,4233.333496,4204.871582,4217.307617,4212.692383,3512.000000,4.000000,91.000000,,,,0.000000,4.000000,4.000000,4.000000,4.000000,4.000000,4.000000,4.000000,4.000000,4.000000,4.000000,4.000000,4.000000,4.000000,4.000000,100.000000,,,,,,,,,,,,,,,,
1644853123.809159,146.000000,0.000000,4222.820313,4215.000000,4218.461426,4238.077148,4204.615234,4226.794922,4220.769043,4221.153809,4226.538574,4226.153809,4220.897461,4205.512695,4215.512695,4205.384766,3515.000000,4.000000,91.000000,,,,0.000000,4.000000,4.000000,4.000000,4.000000,4.000000,4.000000,4.000000,4.000000,4.000000,4.000000,4.000000,4.000000,4.000000,4.000000,100.000000,,,,,,,,,,,,,,,,
1644853123.813099,147.000000,0.000000,4218.846191,4207.179688,4214.487305,4228.077148,4207.692383,4223.974121,4220.512695,4222.051270,4225.128418,4226.794922,4206.153809,4208.974121,4213.077148,4203.717773,3390.000000,4.000000,91.000000,,,,0.000000,4.000000,4.000000,4.000000,4.000000,4.000000,4.000000,4.000000,4.000000,4.000000,4.000000,4.000000,4.000000,4.000000,4.000000,100.000000,,,,,,,,,,,,,,,,
1644853123.817039,148.000000,0.000000,4210.897461,4205.769043,4213.589844,4216.538574,4221.282227,4221.025879,4217.307617,4222.307617,4225.000000,4229.102539,4193.205078,4214.615234,4210.384766,4209.871582,3302.000000,4.000000,91.000000,,,,0.000000,4.000000,4.000000,4.000000,4.000000,4.000000,4.000000,4.000000,4.000000,4.000000,4.000000,4.000000,4.000000,4.000000,4.000000,100.000000,,,,,,,,,,,,,,,,
1644853123.820979,149.000000,0.000000,4199.230957,4208.974121,4215.256348,4213.846191,4235.641113,4218.333496,4214.230957,4220.641113,4223.717773,4227.820313,4188.077148,4218.717773,4206.922852,4218.846191,3512.000000,4.000000,91.000000,,,,0.000000,4.000000,4.000000,4.000000,4.000000,4.000000,4.000000,4.000000,4.000000,4.000000,4.000000,4.000000,4.000000,4.000000,4.000000,100.000000,,,,,,,,,,,,,,,,
1644853123.824920,150.000000,0.000000,4187.948730,4210.000000,4216.666504,4223.077148,4237.307617,4216.794922,4213.461426,4216.410156,4219.102539,4219.871582,4193.077148,4216.666504,4201.538574,4222.307617,3515.000000,4.000000,91.000000,,,,0.000000,4.000000,4.000000,4.000000,4.000000,4.000000,4.000000,4.000000,4.000000,4.000000,4.000000,4.000000,4.000000,4.000000,4.000000,100.000000,,,,,,,,,,,,,,,,
1644853123.828860,151.000000,0.000000,4182.307617,4205.641113,4215.769043,4238.077148,4221.410156,4216.153809,4214.102539,4210.897461,4212.307617,4208.846191,4204.743652,4206.538574,4193.974121,4216.922852,3390.000000,4.000000,91.000000,,,,0.000000,4.000000,4.000000,4.000000,4.000000,4.000000,4.000000,4.000000,4.000000,4.000000,4.000000,4.000000,4.000000,4.000000,4.000000,100.000000,,,,,,,,,,,,,,,,
1644853123.832800,152.000000,0.000000,4185.641113,4198.846191,4212.179688,4248.589844,4198.077148,4216.282227,4214.230957,4206.922852,4207.436035,4201.153809,4216.282227,4192.179688,4186.538574,4206.922852,3302.000000,4.000000,91.000000,,,,0.000000,4.000000,4.000000,4.000000,4.000000,4.000000,4.000000,4.000000,4.000000,4.000000,4.000000,4.000000,4.000000,4.000000,4.000000,100.000000,,,,,,,,,,,,,,,,
1644853123.836740,153.000000,0.000000,4196.666504,4196.025879,4208.717773,4248.461426,4185.384766,4217.307617,4213.333496,4207.179688,4207.820313,4201.025879,4222.051270,4181.282227,4183.461426,4199.615234,3512.000000,4.000000,91.000000,,,,0.000000,4.000000,4.000000,4.000000,4.000000,4.000000,4.000000,4.000000,4.000000,4.000000,4.000000,4.000000,4.000000,4.000000,4.000000,100.000000,,,,,,,,,,,,,,,,
1644853123.840680,154.000000,0.000000,4209.871582,4200.128418,4208.077148,4239.230957,4193.461426,4219.358887,4213.461426,4211.922852,4212.820313,4207.051270,4220.769043,4179.230957,4187.563965,4198.589844,3515.000000,4.000000,91.000000,,,,0.000000,4.000000,4.000000,4.000000,4.000000,4.000000,4.000000,4.000000,4.000000,4.000000,4.000000,4.000000,4.000000,4.000000,4.000000,100.000000,,,,,,,,,,,,,,,,
1644853123.844620,155.000000,0.000000,4218.589844,4207.051270,4211.025879,4227.948730,4215.000000,4222.051270,4215.769043,4218.077148,4218.717773,4214.358887,4215.897461,4185.641113,4197.436035,4201.666504,3390.000000,4.000000,91.000000,,,,0.000000,4.000000,4.000000,4.000000,4.000000,4.000000,4.000000,4.000000,4.000000,4.000000,4.000000,4.000000,4.000000,4.000000,4.000000,100.000000,,,,,,,,,,,,,,,,
1644853123.848560,156.000000,0.000000,4218.333496,4209.358887,4215.512695,4220.897461,4231.410156,4223.974121,4218.333496,4221.922852,4221.282227,4218.589844,4212.307617,4195.000000,4209.102539,4205.128418,3302.000000,4.000000,91.000000,,,,0.000000,4.000000,4.000000,4.000000,4.000000,4.000000,4.000000,4.000000,4.000000,4.000000,4.000000,4.000000,4.000000,4.000000,4.000000,100.000000,,,,,,,,,,,,,,,,
1644853123.852500,157.000000,0.000000,4210.000000,4203.589844,4219.358887,4219.230957,4228.717773,4223.333496,4218.205078,4221.282227,4219.487305,4219.615234,4211.922852,4201.666504,4218.461426,4206.794922,3512.000000,4.000000,91.000000,,,,0.000000,4.000000,4.000000,4.000000,4.000000,4.000000,4.000000,4.000000,4.000000,4.000000,4.000000,4.000000,4.000000,4.000000,4.000000,100.000000,,,,,,,,,,,,,,,,
1644853123.856440,158.000000,0.000000,4198.846191,4192.948730,4221.794922,4219.230957,4208.846191,4220.256348,4215.128418,4217.820313,4215.769043,4220.384766,4213.333496,4204.230957,4222.948730,4208.205078,3515.000000,4.000000,91.000000,,,,0.000000,4.000000,4.000000,4.000000,4.000000,4.000000,4.000000,4.000000,4.000000,4.000000,4.000000,4.000000,4.000000,4.000000,4.000000,100.000000,,,,,,,,,,,,,,,,
1644853123.860380,159.000000,0.000000,4192.307617,4185.769043,4223.205078,4217.179688,4187.692383,4216.282227,4211.922852,4215.128418,4213.846191,4223.205078,4213.846191,4204.487305,4222.563965,4211.794922,3390.000000,4.000000,91.000000,,,,0.000000,4.000000,4.000000,4.000000,4.000000,4.000000,4.000000,4.000000,4.000000,4.000000,4.000000,4.000000,4.000000,4.000000,4.000000,100.000000,,,,,,,,,,,,,,,,
1644853123.864321,160.000000,0.000000,4194.743652,4188.461426,4223.717773,4214.487305,4182.948730,4213.974121,4211.282227,4215.769043,4215.769043,4227.179688,4212.563965,4205.000000,4219.230957,4218.461426,3302.000000,4.000000,91.000000,,,,0.000000,4.000000,4.000000,4.000000,4.000000,4.000000,4.000000,4.000000,4.000000,4.000000,4.000000,4.000000,4.000000,4.000000,4.000000,100.000000,,,,,,,,,,,,,,,,
1644853123.868261,161.000000,0.000000,4204.743652,4200.769043,4222.820313,4216.666504,4199.743652,4214.615234,4212.692383,4218.974121,4220.512695,4228.974121,4210.769043,4206.025879,4216.282227,4226.666504,3512.000000,4.000000,91.000000,,,,0.000000,4.000000,4.000000,4.000000,4.000000,4.000000,4.000000,4.000000,4.000000,4.000000,4.000000,4.000000,4.000000,4.000000,4.000000,100.000000,,,,,,,,,,,,,,,,
1644853123.872201,162.000000,0.000000,4217.051270,4215.897461,4219.871582,4227.051270,4226.794922,4217.436035,4213.205078,4222.307617,4225.000000,4226.025879,4211.153809,4206.410156,4216.538574,4233.461426,3515.000000,4.000000,91.000000,,,,0.000000,4.000000,4.000000,4.000000,4.000000,4.000000,4.000000,4.000000,4.000000,4.000000,4.000000,4.000000,4.000000,4.000000,4.000000,100.000000,,,,,,,,,,,,,,,,
1644853123.876141,163.000000,0.000000,4224.487305,4224.743652,4216.282227,4241.794922,4244.230957,4219.487305,4211.410156,4223.333496,4226.282227,4219.358887,4215.128418,4205.897461,4218.846191,4237.051270,3390.000000,4.000000,91.000000,,,,0.000000,4.000000,4.000000,4.000000,4.000000,4.000000,4.000000,4.000000,4.000000,4.000000,4.000000,4.000000,4.000000,4.000000,4.000000,100.000000,,,,,,,,,,,,,,,,
1644853123.879981,164.000000,0.000000,4223.333496,4222.179688,4214.102539,4250.897461,4238.333496,4218.077148,4208.974121,4221.666504,4224.230957,4212.436035,4221.410156,4205.769043,4219.487305,4236.410156,3302.000000,4.000000,91.000000,,,,0.000000,4.000000,4.000000,4.000000,4.000000,4.000000,4.000000,4.000000,4.000000,4.000000,4.000000,4.000000,4.000000,4.000000,4.000000,100.000000,,,,,,,,,,,,,,,,
1644853123.883921,165.000000,0.000000,4214.102539,4210.512695,4215.512695,4247.179688,4212.051270,4213.461426,4208.333496,4218.974121,4220.769043,4208.333496,4227.563965,4207.692383,4215.256348,4231.794922,3512.000000,4.000000,91.000000,,,,0.000000,4.000000,4.000000,4.000000,4.000000,4.000000,4.000000,4.000000,4.000000,4.000000,4.000000,4.000000,4.000000,4.000000,4.000000,100.000000,,,,,,,,,,,,,,,,
1644853123.887861,166.000000,0.000000,4202.692383,4197.051270,4220.000000,4232.820313,4183.205078,4208.077148,4209.615234,4216.794922,4218.205078,4208.717773,4231.282227,4211.666504,4207.820313,4224.230957,3515.000000,4.000000,91.000000,,,,0.000000,4.000000,4.000000,4.000000,4.000000,4.000000,4.000000,4.000000,4.000000,4.000000,4.000000,4.000000,4.000000,4.000000,4.000000,100.000000,,,,,,,,,,,,,,,,
1644853123.891801,167.000000,0.000000,4195.897461,4189.358887,4224.871582,4217.820313,4169.871582,4204.871582,4210.384766,4215.000000,4217.948730,4213.461426,4231.153809,4215.769043,4202.307617,4215.769043,3390.000000,4.000000,91.000000,,,,0.000000,4.000000,4.000000,4.000000,4.000000,4.000000,4.000000,4.000000,4.000000,4.000000,4.000000,4.000000,4.000000,4.000000,4.000000,100.000000,,,,,,,,,,,,,,,,
1644853123.895742,168.000000,0.000000,4197.692383,4190.000000,4226.666504,4212.820313,4177.563965,4204.871582,4208.974121,4213.205078,4218.974121,4220.769043,4227.179688,4217.051270,4202.307617,4208.333496,3302.000000,4.000000,91.000000,,,,0.000000,4.000000,4.000000,4.000000,4.000000,4.000000,4.000000,4.000000,4.000000,4.000000,4.000000,4.000000,4.000000,4.000000,4.000000,100.000000,,,,,,,,,,,,,,,,
1644853123.899682,169.000000,0.000000,4206.153809,4196.794922,4223.717773,4221.025879,4197.820313,4207.051270,4206.666504,4211.538574,4219.358887,4226.666504,4219.615234,4214.230957,4207.436035,4202.436035,3512.000000,4.000000,91.000000,,,,0.000000,4.000000,4.000000,4.000000,4.000000,4.000000,4.000000,4.000000,4.000000,4.000000,4.000000,4.000000,4.000000,4.000000,4.000000,100.000000,,,,,,,,,,,,,,,,
1644853123.903622,170.000000,0.000000,4215.128418,4205.000000,4216.282227,4236.410156,4215.512695,4209.487305,4205.769043,4210.512695,4218.846191,4227.436035,4209.871582,4207.948730,4213.717773,4197.948730,3515.000000,4.000000,91.000000,,,,0.000000,4.000000,4.000000,4.000000,4.000000,4.000000,4.000000,4.000000,4.000000,4.000000,4.000000,4.000000,4.000000,4.000000,4.000000,100.000000,,,,,,,,,,,,,,,,
1644853123.907562,171.000000,0.000000,4218.461426,4210.256348,4206.922852,4246.153809,4220.000000,4210.256348,4206.794922,4210.641113,4218.205078,4222.307617,4199.743652,4200.641113,4216.666504,4193.461426,3390.000000,4.000000,91.000000,3,1,3,0.000000,4.000000,4.000000,4.000000,4.000000,4.000000,4.000000,4.000000,4.000000,4.000000,4.000000,4.000000,4.000000,4.000000,4.000000,100.000000,,,,,,,,,,,,,,,,
1644853123.911502,172.000000,0.000000,4212.820313,4209.615234,4198.589844,4240.128418,4209.358887,4208.205078,4206.794922,4210.897461,4217.948730,4214.230957,4191.282227,4194.102539,4213.846191,4188.205078,3302.000000,4.000000,91.000000,,,,0.000000,4.000000,4.000000,4.000000,4.000000,4.000000,4.000000,4.000000,4.000000,4.000000,4.000000,4.000000,4.000000,4.000000,4.000000,100.000000,,,,,,,,,,,,,,,,
1644853123.915442,173.000000,0.000000,4199.615234,4202.051270,4193.846191,4220.000000,4189.615234,4203.846191,4204.358887,4209.487305,4216.922852,4207.820313,4187.051270,4188.589844,4206.666504,4183.077148,3512.000000,4.000000,91.000000,,,,0.000000,4.000000,4.000000,4.000000,4.000000,4.000000,4.000000,4.000000,4.000000,4.000000,4.000000,4.000000,4.000000,4.000000,4.000000,100.000000,,,,,,,,,,,,,,,,
1644853123.919382,174.000000,0.000000,4184.487305,4190.384766,4193.846191,4199.615234,4171.922852,4199.230957,4201.282227,4206.410156,4213.717773,4205.641113,4188.846191,4183.974121,4199.230957,4181.922852,3515.000000,4.000000,91.000000,,,,0.000000,4.000000,4.000000,4.000000,4.000000,4.000000,4.000000,4.000000,4.000000,4.000000,4.000000,4.000000,4.000000,4.000000,4.000000,100.000000,,,,,,,,,,,,,,,,
1644853123.923322,175.000000,0.000000,4174.871582,4181.410156,4197.820313,4194.230957,4166.922852,4197.948730,4201.922852,4204.102539,4209.871582,4207.436035,4196.153809,4180.897461,4195.641113,4190.256348,3390.000000,4.000000,91.000000,,,,0.000000,4.000000,4.000000,4.000000,4.000000,4.000000,4.000000,4.000000,4.000000,4.000000,4.000000,4.000000,4.000000,4.000000,4.000000,100.000000,,,,,,,,,,,,,,,,
1644853123.927262,176.000000,0.000000,4175.769043,4181.025879,4203.205078,4207.692383,4178.717773,4202.307617,4207.307617,4205.128418,4208.717773,4210.512695,4206.025879,4181.282227,4196.282227,4208.077148,3302.000000,4.000000,91.000000,,,,0.000000,4.000000,4.000000,4.000000,4.000000,4.000000,4.000000,4.000000,4.000000,4.000000,4.000000,4.000000,4.000000,4.000000,4.000000,100.000000,,,,,,,,,,,,,,,,
1644853123.931202,177.000000,0.000000,4187.563965,4190.384766,4206.666504,4228.846191,4201.666504,4210.512695,4213.974121,4209.743652,4212.051270,4211.922852,4213.589844,4184.871582,4198.205078,4226.794922,3512.000000,4.000000,91.000000,,,,0.000000,4.000000,4.000000,4.000000,4.000000,4.000000,4.000000,4.000000,4.000000,4.000000,4.000000,4.000000,4.000000,4.000000,4.000000,100.000000,,,,,,,,,,,,,,,,
1644853123.935143,178.000000,0.000000,4204.487305,4203.205078,4205.897461,4240.641113,4221.538574,4217.692383,4217.563965,4215.000000,4217.307617,4210.256348,4215.256348,4188.077148,4196.922852,4233.205078,3515.000000,4.000000,91.000000,,,,0.000000,4.000000,4.000000,4.000000,4.000000,4.000000,4.000000,4.000000,4.000000,4.000000,4.000000,4.000000,4.000000,4.000000,4.000000,100.000000,,,,,,,,,,,,,,,,
1644853123.939083,179.000000,0.000000,4217.307617,4210.769043,4201.538574,4235.256348,4226.794922,4220.256348,4216.666504,4217.563965,4220.128418,4206.025879,4210.512695,4187.179688,4190.769043,4221.153809,3390.000000,4.000000,91.000000,,,,0.000000,4.000000,4.000000,4.000000,4.000000,4.000000,4.000000,4.000000,4.000000,4.000000,4.000000,4.000000,4.000000,4.000000,4.000000,100.000000,,,,,,,,,,,,,,,,
1644853123.943023,180.000000,0.000000,4218.974121,4209.358887,4197.436035,4220.512695,4216.666504,4218.846191,4214.487305,4216.922852,4218.333496,4201.666504,4202.948730,4182.948730,4183.461426,4198.077148,3302.000000,4.000000,91.000000,,,,0.000000,4.000000,4.000000,4.000000,4.000000,4.000000,4.000000,4.000000,4.000000,4.000000,4.000000,4.000000,4.000000,4.000000,4.000000,100.000000,,,,,,,,,,,,,,,,
1644853123.947063,181.000000,0.000000,4209.487305,4202.436035,4197.051270,4211.922852,4202.179688,4217.307617,4214.230957,4215.000000,4214.615234,4200.512695,4196.922852,4180.512695,4181.794922,4180.384766,3512.000000,4.000000,91.000000,,,,0.000000,4.000000,4.000000,4.000000,4.000000,4.000000,4.000000,4.000000,4.000000,4.000000,4.000000,4.000000,4.000000,4.000000,4.000000,100.000000,,,,,,,,,,,,,,,,
1644853123.951003,182.000000,0.000000,4195.769043,4197.692383,4200.897461,4216.922852,4194.615234,4218.077148,4216.153809,4214.487305,4213.205078,4204.487305,4195.000000,4184.615234,4189.102539,4179.230957,3515.000000,4.000000,91.000000,,,,0.000000,4.000000,4.000000,4.000000,4.000000,4.000000,4.000000,4.000000,4.000000,4.000000,4.000000,4.000000,4.000000,4.000000,4.000000,100.000000,,,,,,,,,,,,,,,,
1644853123.954943,183.000000,0.000000,4186.410156,4198.974121,4205.769043,4229.102539,4195.897461,4220.000000,4217.948730,4215.897461,4215.897461,4210.512695,4196.153809,4194.358887,4201.538574,4191.410156,3390.000000,4.000000,91.000000,4,1,3,0.000000,4.000000,4.000000,4.000000,4.000000,4.000000,4.000000,4.000000,4.000000,4.000000,4.000000,4.000000,4.000000,4.000000,4.000000,100.000000,,,,,,,,,,,,,,,,
1644853123.958883,184.000000,0.000000,4186.282227,4203.077148,4208.077148,4234.743652,4199.230957,4219.743652,4217.692383,4217.051270,4219.743652,4212.436035,4195.384766,4202.692383,4209.615234,4203.333496,3302.000000,4.000000,91.000000,,,,0.000000,4.000000,4.000000,4.000000,4.000000,4.000000,4.000000,4.000000,4.000000,4.000000,4.000000,4.000000,4.000000,4.000000,4.000000,100.000000,,,,,,,,,,,,,,,,
1644853123.962823,185.000000,0.000000,4192.820313,4203.461426,4207.179688,4226.666504,4197.948730,4215.641113,4215.384766,4215.769043,4219.871582,4206.666504,4189.615234,4202.948730,4206.282227,4204.230957,3512.000000,4.000000,91.000000,,,,0.000000,4.000000,4.000000,4.000000,4.000000,4.000000,4.000000,4.000000,4.000000,4.000000,4.000000,4.000000,4.000000,4.000000,4.000000,100.000000,,,,,,,,,,,,,,,,
1644853123.966763,186.000000,0.000000,4199.358887,4196.410156,4205.769043,4210.897461,4192.179688,4210.128418,4212.563965,4212.307617,4214.871582,4196.922852,4181.538574,4194.230957,4192.692383,4194.871582,3515.000000,4.000000,91.000000,,,,0.000000,4.000000,4.000000,4.000000,4.000000,4.000000,4.000000,4.000000,4.000000,4.000000,4.000000,4.000000,4.000000,4.000000,4.000000,100.000000,,,,,,,,,,,,,,,,
1644853123.970703,187.000000,0.000000,4201.794922,4185.641113,4206.025879,4201.794922,4188.717773,4206.666504,4210.256348,4208.846191,4208.717773,4192.307617,4178.717773,4182.820313,4178.205078,4185.128418,3390.000000,4.000000,91.000000,,,,0.000000,4.000000,4.000000,4.000000,4.000000,4.000000,4.000000,4.000000,4.000000,4.000000,4.000000,4.000000,4.000000,4.000000,4.000000,100.000000,,,,,,,,,,,,,,,,
1644853123.974644,188.000000,0.000000,4201.282227,4179.743652,4207.820313,4208.974121,4193.589844,4208.333496,4209.487305,4208.461426,4206.922852,4198.589844,4187.179688,4177.179688,4173.077148,4183.974121,3302.000000,4.000000,91.000000,,,,0.000000,4.000000,4.000000,4.000000,4.000000,4.000000,4.000000,4.000000,4.000000,4.000000,4.000000,4.000000,4.000000,4.000000,4.000000,100.000000,,,,,,,,,,,,,,,,
1644853123.978584,189.000000,0.000000,4201.794922,4185.000000,4209.615234,4229.487305,4206.153809,4213.974121,4210.769043,4211.794922,4211.410156,4212.820313,4205.641113,4181.410156,4180.641113,4192.179688,3512.000000,4.000000,91.000000,,,,0.000000,4.000000,4.000000,4.000000,4.000000,4.000000,4.000000,4.000000,4.000000,4.000000,4.000000,4.000000,4.000000,4.000000,4.000000,100.000000,,,,,,,,,,,,,,,,
1644853123.982524,190.000000,0.000000,4204.615234,4199.102539,4210.256348,4249.487305,4218.333496,4220.128418,4213.589844,4216.922852,4218.461426,4225.256348,4225.128418,4192.307617,4195.128418,4202.307617,3515.000000,4.000000,91.000000,,,,0.000000,4.000000,4.000000,4.000000,4.000000,4.000000,4.000000,4.000000,4.000000,4.000000,4.000000,4.000000,4.000000,4.000000,4.000000,100.000000,,,,,,,,,,,,,,,,
1644853123.986464,191.000000,0.000000,4205.128418,4212.948730,4210.256348,4254.487305,4221.538574,4222.820313,4215.641113,4219.871582,4222.307617,4227.179688,4234.871582,4202.307617,4205.769043,4206.282227,3390.000000,4.000000,91.000000,,,,0.000000,4.000000,4.000000,4.000000,4.000000,4.000000,4.000000,4.000000,4.000000,4.000000,4.000000,4.000000,4.000000,4.000000,4.000000,100.000000,,,,,,,,,,,,,,,,
1644853123.990404,192.000000,0.000000,4198.077148,4217.563965,4210.000000,4240.000000,4214.102539,4220.769043,4214.102539,4218.461426,4219.743652,4217.307617,4229.102539,4205.384766,4205.769043,4201.922852,3302.000000,4.000000,91.000000,,,,0.000000,4.000000,4.000000,4.000000,4.000000,4.000000,4.000000,4.000000,4.000000,4.000000,4.000000,4.000000,4.000000,4.000000,4.000000,100.000000,,,,,,,,,,,,,,,,
1644853123.994344,193.000000,0.000000,4183.974121,4211.153809,4209.358887,4214.743652,4201.794922,4216.153809,4209.230957,4213.589844,4212.820313,4202.179688,4211.025879,4201.282227,4197.051270,4194.358887,3512.000000,4.000000,91.000000,,,,0.000000,4.000000,4.000000,4.000000,4.000000,4.000000,4.000000,4.000000,4.000000,4.000000,4.000000,4.000000,4.000000,4.000000,4.000000,100.000000,,,,,,,,,,,,,,,,
1644853123.998284,194.000000,0.000000,4170.897461,4198.717773,4208.333496,4194.230957,4193.974121,4212.692383,4205.000000,4208.846191,4206.794922,4190.897461,4190.512695,4194.615234,4187.948730,4190.769043,3515.000000,4.000000,91.000000,,,,0.000000,4.000000,4.000000,4.000000,4.000000,4.000000,4.000000,4.000000,4.000000,4.000000,4.000000,4.000000,4.000000,4.000000,4.000000,100.000000,,,,,,,,,,,,,,,,
1644853124.002224,195.000000,0.000000,4168.333496,4187.948730,4207.820313,4189.230957,4194.871582,4212.051270,4205.512695,4207.179688,4205.641113,4188.974121,4178.205078,4190.384766,4185.256348,4193.974121,3390.000000,4.000000,91.000000,,,,0.000000,4.000000,4.000000,4.000000,4.000000,4.000000,4.000000,4.000000,4.000000,4.000000,4.000000,4.000000,4.000000,4.000000,4.000000,100.000000,,,,,,,,,,,,,,,,
1644853124.006164,196.000000,0.000000,4178.333496,4183.974121,4208.333496,4198.589844,4202.179688,4213.589844,4210.512695,4208.717773,4209.102539,4195.641113,4179.358887,4190.641113,4189.230957,4200.128418,3302.000000,4.000000,91.000000,,,,0.000000,4.000000,4.000000,4.000000,4.000000,4.000000,4.000000,4.000000,4.000000,4.000000,4.000000,4.000000,4.000000,4.000000,4.000000,100.000000,,,,,,,,,,,,,,,,
1644853124.010104,197.000000,0.000000,4193.974121,4187.307617,4209.230957,4211.410156,4209.487305,4215.128418,4215.512695,4211.538574,4213.974121,4205.512695,4191.538574,4193.589844,4194.487305,4202.436035,3512.000000,4.000000,91.000000,,,,0.000000,4.000000,4.000000,4.000000,4.000000,4.000000,4.000000,4.000000,4.000000,4.000000,4.000000,4.000000,4.000000,4.000000,4.000000,100.000000,,,,,,,,,,,,,,,,
1644853124.014045,198.000000,0.000000,4204.615234,4194.230957,4209.487305,4217.307617,4211.153809,4215.769043,4216.794922,4213.846191,4217.179688,4212.820313,4206.025879,4195.641113,4195.769043,4197.692383,3515.000000,4.000000,91.000000,,,,0.000000,4.000000,4.000000,4.000000,4.000000,4.000000,4.000000,4.000000,4.000000,4.000000,4.000000,4.000000,4.000000,4.000000,4.000000,100.000000,,,,,,,,,,,,,,,,
1644853124.017985,199.000000,0.000000,4204.230957,4199.230957,4208.589844,4214.358887,4206.025879,4215.897461,4214.358887,4215.256348,4218.205078,4215.256348,4213.205078,4194.743652,4192.436035,4189.871582,3390.000000,4.000000,91.000000,,,,0.000000,4.000000,4.000000,4.000000,4.000000,4.000000,4.000000,4.000000,4.000000,4.000000,4.000000,4.000000,4.000000,4.000000,4.000000,100.000000,,,,,,,,,,,,,,,,
1644853124.021825,200.000000,0.000000,4195.000000,4198.974121,4206.666504,4209.358887,4198.077148,4216.153809,4211.538574,4216.025879,4217.820313,4213.974121,4209.743652,4191.410156,4188.333496,4186.538574,3302.000000,4.000000,91.000000,,,,0.000000,4.000000,4.000000,4.000000,4.000000,4.000000,4.000000,4.000000,4.000000,4.000000,4.000000,4.000000,4.000000,4.000000,4.000000,100.000000,,,,,,,,,,,,,,,,
1644853124.025765,201.000000,0.000000,4184.871582,4194.743652,4204.102539,4210.897461,4192.436035,4215.769043,4210.641113,4216.538574,4217.436035,4212.051270,4201.025879,4187.563965,4188.717773,4190.512695,3512.000000,4.000000,91.000000,,,,0.000000,4.000000,4.000000,4.000000,4.000000,4.000000,4.000000,4.000000,4.000000,4.000000,4.000000,4.000000,4.000000,4.000000,4.000000,100.000000,,,,,,,,,,,,,,,,
1644853124.029705,202.000000,0.000000,4180.384766,4192.051270,4201.538574,4221.153809,4192.563965,4214.230957,4210.897461,4216.794922,4217.820313,4211.922852,4196.410156,4185.512695,4195.641113,4197.563965,3515.000000,4.000000,91.000000,,,,0.000000,4.000000,4.000000,4.000000,4.000000,4.000000,4.000000,4.000000,4.000000,4.000000,4.000000,4.000000,4.000000,4.000000,4.000000,100.000000,,,,,,,,,,,,,,,,
1644853124.033645,203.000000,0.000000,4182.563965,4195.512695,4201.153809,4233.205078,4198.077148,4213.333496,4210.641113,4216.538574,4219.743652,4213.589844,4200.000000,4186.025879,4206.153809,4201.025879,3390.000000,4.000000,91.000000,,,,0.000000,4.000000,4.000000,4.000000,4.000000,4.000000,4.000000,4.000000,4.000000,4.000000,4.000000,4.000000,4.000000,4.000000,4.000000,100.000000,,,,,,,,,,,,,,,,
1644853124.037585,204.000000,0.000000,4187.563965,4205.128418,4204.230957,4236.410156,4206.410156,4215.384766,4209.871582,4216.538574,4222.307617,4214.102539,4206.922852,4188.333496,4213.333496,4197.563965,3302.000000,4.000000,91.000000,,,,0.000000,4.000000,4.000000,4.000000,4.000000,4.000000,4.000000,4.000000,4.000000,4.000000,4.000000,4.000000,4.000000,4.000000,4.000000,100.000000,,,,,,,,,,,,,,,,
1644853124.041525,205.000000,0.000000,4190.769043,4215.128418,4210.256348,4225.256348,4214.487305,4220.641113,4210.641113,4217.307617,4224.615234,4210.897461,4208.461426,4191.282227,4213.846191,4190.128418,3512.000000,4.000000,91.000000,,,,0.000000,4.000000,4.000000,4.000000,4.000000,4.000000,4.000000,4.000000,4.000000,4.000000,4.000000,4.000000,4.000000,4.000000,4.000000,100.000000,,,,,,,,,,,,,,,,
1644853124.045466,206.000000,0.000000,4190.641113,4219.230957,4216.666504,4205.256348,4219.615234,4226.666504,4213.589844,4219.615234,4225.641113,4204.487305,4202.307617,4194.487305,4209.871582,4184.871582,3515.000000,4.000000,91.000000,,,,0.000000,4.000000,4.000000,4.000000,4.000000,4.000000,4.000000,4.000000,4.000000,4.000000,4.000000,4.000000,4.000000,4.000000,4.000000,100.000000,,,,,,,,,,,,,,,,
1644853124.049406,207.000000,0.000000,4190.000000,4214.102539,4220.512695,4190.384766,4220.384766,4229.871582,4217.179688,4222.820313,4225.384766,4199.871582,4196.025879,4199.487305,4207.051270,4186.410156,3390.000000,4.000000,91.000000,,,,0.000000,4.000000,4.000000,4.000000,4.000000,4.000000,4.000000,4.000000,4.000000,4.000000,4.000000,4.000000,4.000000,4.000000,4.000000,100.000000,,,,,,,,,,,,,,,,
1644853124.053346,208.000000,0.000000,4191.282227,4202.179688,4220.897461,4193.077148,4217.436035,4228.461426,4218.589844,4225.000000,4224.102539,4201.922852,4199.487305,4206.666504,4207.692383,4194.615234,3302.000000,4.000000,91.000000,,,,0.000000,4.000000,4.000000,4.000000,4.000000,4.000000,4.000000,4.000000,4.000000,4.000000,4.000000,4.000000,4.000000,4.000000,4.000000,100.000000,,,,,,,,,,,,,,,,
1644853124.057286,209.000000,0.000000,4192.948730,4189.487305,4219.102539,4213.077148,4212.563965,4223.461426,4217.692383,4225.000000,4222.436035,4211.538574,4215.384766,4213.333496,4208.717773,4204.743652,3512.000000,4.000000,91.000000,,,,0.000000,4.000000,4.000000,4.000000,4.000000,4.000000,4.000000,4.000000,4.000000,4.000000,4.000000,4.000000,4.000000,4.000000,4.000000,100.000000,,,,,,,,,,,,,,,,
1644853124.061226,210.000000,0.000000,4190.512695,4182.307617,4217.179688,4236.410156,4207.948730,4217.436035,4217.051270,4223.461426,4221.410156,4223.589844,4235.384766,4215.128418,4206.153809,4210.512695,3515.000000,4.000000,91.000000,,,,0.000000,4.000000,4.000000,4.000000,4.000000,4.000000,4.000000,4.000000,4.000000,4.000000,4.000000,4.000000,4.000000,4.000000,4.000000,100.000000,,,,,,,,,,,,,,,,
1644853124.065166,211.000000,0.000000,4182.179688,4184.230957,4215.897461,4246.153809,4205.769043,4213.589844,4218.461426,4222.436035,4222.563965,4231.282227,4246.666504,4211.282227,4200.000000,4208.077148,3390.000000,4.000000,91.000000,,,,0.000000,4.000000,4.000000,4.000000,4.000000,4.000000,4.000000,4.000000,4.000000,4.000000,4.000000,4.000000,4.000000,4.000000,4.000000,100.000000,,,,,,,,,,,,,,,,
1644853124.069106,212.000000,0.000000,4172.307617,4194.230957,4215.769043,4235.897461,4207.948730,4213.846191,4221.025879,4223.205078,4226.025879,4231.666504,4242.948730,4205.256348,4196.025879,4198.589844,3302.000000,4.000000,91.000000,,,,0.000000,4.000000,4.000000,4.000000,4.000000,4.000000,4.000000,4.000000,4.000000,4.000000,4.000000,4.000000,4.000000,4.000000,4.000000,100.000000,,,,,,,,,,,,,,,,
1644853124.073046,213.000000,0.000000,4168.205078,4206.922852,4216.666504,4214.230957,4214.743652,4217.692383,4222.051270,4225.384766,4230.641113,4227.179688,4228.589844,4202.051270,4199.871582,4187.179688,3512.000000,4.000000,91.000000,,,,0.000000,4.000000,4.000000,4.000000,4.000000,4.000000,4.000000,4.000000,4.000000,4.000000,4.000000,4.000000,4.000000,4.000000,4.000000,100.000000,,,,,,,,,,,,,,,,
1644853124.076986,214.000000,0.000000,4173.461426,4216.153809,4218.461426,4197.179688,4222.307617,4223.077148,4221.025879,4227.436035,4234.358887,4222.948730,4213.846191,4203.333496,4211.025879,4179.743652,3515.000000,4.000000,91.000000,,,,0.000000,4.000000,4.000000,4.000000,4.000000,4.000000,4.000000,4.000000,4.000000,4.000000,4.000000,4.000000,4.000000,4.000000,4.000000,100.000000,,,,,,,,,,,,,,,,
1644853124.080926,215.000000,0.000000,4184.358887,4218.333496,4220.512695,4195.256348,4224.743652,4227.948730,4219.743652,4227.692383,4235.128418,4222.179688,4205.512695,4206.282227,4222.307617,4178.846191,3390.000000,4.000000,91.000000,,,,0.000000,4.000000,4.000000,4.000000,4.000000,4.000000,4.000000,4.000000,4.000000,4.000000,4.000000,4.000000,4.000000,4.000000,4.000000,100.000000,,,,,,,,,,,,,,,,
1644853124.084867,216.000000,0.000000,4193.974121,4215.641113,4221.794922,4206.538574,4219.615234,4231.025879,4220.000000,4225.641113,4232.563965,4224.615234,4202.692383,4207.563965,4225.384766,4183.846191,3302.000000,4.000000,91.000000,,,,0.000000,4.000000,4.000000,4.000000,4.000000,4.000000,4.000000,4.000000,4.000000,4.000000,4.000000,4.000000,4.000000,4.000000,4.000000,100.000000,,,,,,,,,,,,,,,,
1644853124.088807,217.000000,0.000000,4198.077148,4212.179688,4221.410156,4219.871582,4211.153809,4232.307617,4221.282227,4222.307617,4228.846191,4227.436035,4201.153809,4206.282227,4218.205078,4191.410156,3512.000000,4.000000,91.000000,,,,0.000000,4.000000,4.000000,4.000000,4.000000,4.000000,4.000000,4.000000,4.000000,4.000000,4.000000,4.000000,4.000000,4.000000,4.000000,100.000000,,,,,,,,,,,,,,,,
1644853124.092747,218.000000,0.000000,4196.794922,4211.282227,4220.000000,4223.461426,4207.820313,4232.820313,4221.666504,4219.871582,4227.051270,4228.461426,4199.871582,4204.230957,4206.666504,4198.461426,3515.000000,4.000000,91.000000,,,,0.000000,4.000000,4.000000,4.000000,4.000000,4.000000,4.000000,4.000000,4.000000,4.000000,4.000000,4.000000,4.000000,4.000000,4.000000,100.000000,,,,,,,,,,,,,,,,
1644853124.096587,219.000000,0.000000,4193.077148,4212.948730,4219.230957,4214.230957,4214.743652,4233.205078,4221.153809,4220.512695,4228.974121,4227.179688,4202.436035,4204.615234,4199.871582,4203.077148,3390.000000,4.000000,91.000000,,,,0.000000,4.000000,4.000000,4.000000,4.000000,4.000000,4.000000,4.000000,4.000000,4.000000,4.000000,4.000000,4.000000,4.000000,4.000000,100.000000,,,,,,,,,,,,,,,,
1644853124.100527,220.000000,0.000000,4189.230957,4215.384766,4220.897461,4199.487305,4228.717773,4233.077148,4221.538574,4225.128418,4233.461426,4226.153809,4211.922852,4208.461426,4203.717773,4205.641113,3302.000000,4.000000,91.000000,,,,0.000000,4.000000,4.000000,4.000000,4.000000,4.000000,4.000000,4.000000,4.000000,4.000000,4.000000,4.000000,4.000000,4.000000,4.000000,100.000000,,,,,,,,,,,,,,,,
1644853124.104467,221.000000,0.000000,4184.871582,4217.051270,4225.128418,4191.282227,4239.871582,4232.563965,4224.230957,4232.307617,4238.461426,4227.948730,4226.153809,4214.615234,4215.769043,4206.538574,3512.000000,4.000000,91.000000,,,,0.000000,4.000000,4.000000,4.000000,4.000000,4.000000,4.000000,4.000000,4.000000,4.000000,4.000000,4.000000,4.000000,4.000000,4.000000,100.000000,,,,,,,,,,,,,,,,
1644853124.108407,222.000000,0.000000,4180.128418,4217.436035,4229.871582,4197.692383,4239.871582,4231.922852,4227.307617,4238.461426,4242.051270,4232.948730,4237.948730,4219.871582,4228.333496,4205.769043,3515.000000,4.000000,91.000000,,,,0.000000,4.000000,4.000000,4.000000,4.000000,4.000000,4.000000,4.000000,4.000000,4.000000,4.000000,4.000000,4.000000,4.000000,4.000000,100.000000,,,,,,,,,,,,,,,,
1644853124.112347,223.000000,0.000000,4176.025879,4216.282227,4232.051270,4217.307617,4228.717773,4232.179688,4226.922852,4239.358887,4242.948730,4237.820313,4240.897461,4221.666504,4234.102539,4202.820313,3390.000000,4.000000,91.000000,,,,0.000000,4.000000,4.000000,4.000000,4.000000,4.000000,4.000000,4.000000,4.000000,4.000000,4.000000,4.000000,4.000000,4.000000,4.000000,100.000000,,,,,,,,,,,,,,,,
1644853124.116288,224.000000,0.000000,4174.743652,4213.846191,4230.641113,4240.128418,4214.487305,4232.692383,4222.051270,4233.846191,4241.025879,4238.717773,4235.512695,4220.128418,4230.897461,4198.717773,3302.000000,4.000000,91.000000,,,,0.000000,4.000000,4.000000,4.000000,4.000000,4.000000,4.000000,4.000000,4.000000,4.000000,4.000000,4.000000,4.000000,4.000000,4.000000,100.000000,,,,,,,,,,,,,,,,
1644853124.120228,225.000000,0.000000,4177.179688,4211.153809,4227.307617,4255.000000,4206.410156,4232.051270,4216.282227,4225.641113,4236.794922,4235.641113,4227.820313,4217.563965,4222.692383,4195.256348,3512.000000,4.000000,91.000000,,,,0.000000,4.000000,4.000000,4.000000,4.000000,4.000000,4.000000,4.000000,4.000000,4.000000,4.000000,4.000000,4.000000,4.000000,4.000000,100.000000,,,,,,,,,,,,,,,,
1644853124.124168,226.000000,0.000000,4182.820313,4210.128418,4225.769043,4254.871582,4207.051270,4229.871582,4214.102539,4220.128418,4232.051270,4232.307617,4223.717773,4216.153809,4215.641113,4194.230957,3515.000000,4.000000,91.000000,,,,0.000000,4.000000,4.000000,4.000000,4.000000,4.000000,4.000000,4.000000,4.000000,4.000000,4.000000,4.000000,4.000000,4.000000,4.000000,100.000000,,,,,,,,,,,,,,,,
1644853124.128108,227.000000,0.000000,4189.230957,4211.922852,4228.205078,4241.410156,4211.794922,4227.307617,4216.153809,4220.128418,4229.230957,4231.538574,4223.333496,4216.025879,4213.589844,4196.538574,3390.000000,4.000000,91.000000,,,,0.000000,4.000000,4.000000,4.000000,4.000000,4.000000,4.000000,4.000000,4.000000,4.000000,4.000000,4.000000,4.000000,4.000000,4.000000,100.000000,,,,,,,,,,,,,,,,
1644853124.132048,228.000000,0.000000,4192.948730,4216.025879,4231.922852,4222.692383,4213.846191,4224.871582,4218.717773,4223.077148,4228.205078,4232.436035,4221.922852,4215.000000,4214.615234,4200.256348,3302.000000,4.000000,91.000000,,,,0.000000,4.000000,4.000000,4.000000,4.000000,4.000000,4.000000,4.000000,4.000000,4.000000,4.000000,4.000000,4.000000,4.000000,4.000000,100.000000,,,,,,,,,,,,,,,,
1644853124.135988,229.000000,0.000000,4191.282227,4219.743652,4232.436035,4209.358887,4210.128418,4222.179688,4217.948730,4223.717773,4226.922852,4230.769043,4215.897461,4211.794922,4215.000000,4202.692383,3512.000000,4.000000,91.000000,,,,0.000000,4.000000,4.000000,4.000000,4.000000,4.000000,4.000000,4.000000,4.000000,4.000000,4.000000,4.000000,4.000000,4.000000,4.000000,100.000000,,,,,,,,,,,,,,,,
1644853124.139928,230.000000,0.000000,4185.384766,4220.256348,4227.820313,4207.820313,4203.974121,4218.717773,4214.487305,4219.743652,4223.461426,4224.871582,4207.820313,4207.692383,4212.307617,4202.307617,3515.000000,4.000000,91.000000,,,,0.000000,4.000000,4.000000,4.000000,4.000000,4.000000,4.000000,4.000000,4.000000,4.000000,4.000000,4.000000,4.000000,4.000000,4.000000,100.000000,,,,,,,,,,,,,,,,
1644853124.143868,231.000000,0.000000,4180.384766,4216.410156,4220.897461,4217.179688,4201.153809,4215.128418,4211.666504,4213.461426,4218.589844,4217.051270,4205.128418,4206.282227,4207.948730,4199.743652,3390.000000,4.000000,91.000000,,,,0.000000,4.000000,4.000000,4.000000,4.000000,4.000000,4.000000,4.000000,4.000000,4.000000,4.000000,4.000000,4.000000,4.000000,4.000000,100.000000,,,,,,,,,,,,,,,,
1644853124.147808,232.000000,0.000000,4180.641113,4210.256348,4216.666504,4229.871582,4205.128418,4213.717773,4212.051270,4209.615234,4215.641113,4212.436035,4213.333496,4209.615234,4205.384766,4198.589844,3302.000000,4.000000,91.000000,,,,0.000000,4.000000,4.000000,4.000000,4.000000,4.000000,4.000000,4.000000,4.000000,4.000000,4.000000,4.000000,4.000000,4.000000,4.000000,100.000000,,,,,,,,,,,,,,,,
1644853124.151748,233.000000,0.000000,4185.256348,4206.282227,4218.205078,4236.666504,4213.974121,4216.025879,4215.000000,4211.282227,4217.307617,4214.487305,4228.846191,4215.641113,4207.820313,4202.307617,3512.000000,4.000000,91.000000,,,,0.000000,4.000000,4.000000,4.000000,4.000000,4.000000,4.000000,4.000000,4.000000,4.000000,4.000000,4.000000,4.000000,4.000000,4.000000,100.000000,,,,,,,,,,,,,,,,
1644853124.155689,234.000000,0.000000,4188.589844,4208.205078,4224.230957,4233.846191,4222.436035,4222.051270,4218.589844,4217.948730,4223.333496,4222.436035,4241.922852,4219.871582,4215.512695,4211.282227,3515.000000,4.000000,91.000000,,,,0.000000,4.000000,4.000000,4.000000,4.000000,4.000000,4.000000,4.000000,4.000000,4.000000,4.000000,4.000000,4.000000,4.000000,4.000000,100.000000,,,,,,,,,,,,,,,,
1644853124.159629,235.000000,0.000000,4186.666504,4215.512695,4231.282227,4226.922852,4226.538574,4228.974121,4222.051270,4225.897461,4230.384766,4231.282227,4243.846191,4219.230957,4225.641113,4220.769043,3390.000000,4.000000,91.000000,,,,0.000000,4.000000,4.000000,4.000000,4.000000,4.000000,4.000000,4.000000,4.000000,4.000000,4.000000,4.000000,4.000000,4.000000,4.000000,100.000000,,,,,,,,,,,,,,,,
1644853124.163569,236.000000,0.000000,4181.153809,4223.846191,4235.769043,4226.025879,4226.538574,4233.333496,4224.615234,4230.897461,4234.230957,4236.410156,4236.282227,4215.128418,4233.974121,4224.230957,3302.000000,4.000000,91.000000,,,,0.000000,4.000000,4.000000,4.000000,4.000000,4.000000,4.000000,4.000000,4.000000,4.000000,4.000000,4.000000,4.000000,4.000000,4.000000,100.000000,,,,,,,,,,,,,,,,
1644853124.167409,237.000000,0.000000,4178.205078,4228.589844,4236.538574,4237.179688,4225.641113,4233.333496,4225.512695,4230.897461,4233.974121,4236.538574,4228.717773,4212.307617,4237.051270,4219.743652,3512.000000,4.000000,91.000000,,,,0.000000,4.000000,4.000000,4.000000,4.000000,4.000000,4.000000,4.000000,4.000000,4.000000,4.000000,4.000000,4.000000,4.000000,4.000000,100.000000,,,,,,,,,,,,,,,,
1644853124.171349,238.000000,0.000000,4182.307617,4227.820313,4234.102539,4255.641113,4224.487305,4230.384766,4223.589844,4227.051270,4231.538574,4234.102539,4229.487305,4214.487305,4234.615234,4211.282227,3515.000000,4.000000,91.000000,,,,0.000000,4.000000,4.000000,4.000000,4.000000,4.000000,4.000000,4.000000,4.000000,4.000000,4.000000,4.000000,4.000000,4.000000,4.000000,100.000000,,,,,,,,,,,,,,,,
1644853124.175289,239.000000,0.000000,4192.051270,4223.461426,4230.641113,4270.512695,4221.666504,4227.820313,4220.384766,4222.692383,4230.256348,4232.307617,4236.794922,4221.538574,4228.974121,4204.615234,3390.000000,4.000000,91.000000,,,,0.000000,4.000000,4.000000,4.000000,4.000000,4.000000,4.000000,4.000000,4.000000,4.000000,4.000000,4.000000,4.000000,4.000000,4.000000,100.000000,,,,,,,,,,,,,,,,
1644853124.179229,240.000000,0.000000,4200.769043,4219.230957,4228.333496,4272.307617,4216.538574,4228.077148,4218.717773,4221.538574,4231.922852,4232.820313,4240.897461,4229.487305,4223.461426,4203.077148,3302.000000,4.000000,91.000000,,,,0.000000,4.000000,4.000000,4.000000,4.000000,4.000000,4.000000,4.000000,4.000000,4.000000,4.000000,4.000000,4.000000,4.000000,4.000000,100.000000,,,,,,,,,,,,,,,,
1644853124.183169,241.000000,0.000000,4202.820313,4217.692383,4228.077148,4260.512695,4211.794922,4230.897461,4220.897461,4224.743652,4235.384766,4234.615234,4235.000000,4233.461426,4220.256348,4205.000000,3512.000000,4.000000,91.000000,,,,0.000000,4.000000,4.000000,4.000000,4.000000,4.000000,4.000000,4.000000,4.000000,4.000000,4.000000,4.000000,4.000000,4.000000,4.000000,100.000000,,,,,,,,,,,,,,,,
1644853124.187110,242.000000,0.000000,4197.692383,4219.230957,4229.615234,4242.563965,4210.897461,4233.589844,4225.000000,4230.128418,4238.077148,4235.769043,4222.948730,4231.282227,4220.512695,4207.820313,3515.000000,4.000000,91.000000,,,,0.000000,4.000000,4.000000,4.000000,4.000000,4.000000,4.000000,4.000000,4.000000,4.000000,4.000000,4.000000,4.000000,4.000000,4.000000,100.000000,,,,,,,,,,,,,,,,
1644853124.191050,243.000000,0.000000,4189.358887,4221.410156,4231.282227,4228.846191,4214.743652,4233.461426,4226.666504,4233.333496,4238.333496,4235.384766,4216.025879,4224.358887,4223.333496,4209.743652,3390.000000,4.000000,91.000000,,,,0.000000,4.000000,4.000000,4.000000,4.000000,4.000000,4.000000,4.000000,4.000000,4.000000,4.000000,4.000000,4.000000,4.000000,4.000000,100.000000,,,,,,,,,,,,,,,,
1644853124.194990,244.000000,0.000000,4182.307617,4221.410156,4231.282227,4226.153809,4219.487305,4229.358887,4223.846191,4232.179688,4236.153809,4234.487305,4222.307617,4216.538574,4225.897461,4211.153809,3302.000000,4.000000,91.000000,,,,0.000000,4.000000,4.000000,4.000000,4.000000,4.000000,4.000000,4.000000,4.000000,4.000000,4.000000,4.000000,4.000000,4.000000,4.000000,100.000000,,,,,,,,,,,,,,,,
1644853124.198930,245.000000,0.000000,4177.307617,4218.205078,4229.102539,4233.846191,4220.384766,4222.692383,4219.102539,4228.333496,4233.461426,4234.102539,4237.820313,4211.666504,4224.743652,4212.692383,3512.000000,4.000000,91.000000,,,,0.000000,4.000000,4.000000,4.000000,4.000000,4.000000,4.000000,4.000000,4.000000,4.000000,4.000000,4.000000,4.000000,4.000000,4.000000,100.000000,,,,,,,,,,,,,,,,
1644853124.202870,246.000000,0.000000,4171.794922,4213.846191,4225.769043,4245.000000,4215.512695,4217.051270,4216.794922,4225.641113,4231.922852,4234.102539,4250.897461,4211.282227,4219.871582,4214.615234,3515.000000,4.000000,91.000000,,,,0.000000,4.000000,4.000000,4.000000,4.000000,4.000000,4.000000,4.000000,4.000000,4.000000,4.000000,4.000000,4.000000,4.000000,4.000000,100.000000,,,,,,,,,,,,,,,,
1644853124.206810,247.000000,0.000000,4164.358887,4211.794922,4223.461426,4251.922852,4208.461426,4215.256348,4218.205078,4226.538574,4232.820313,4233.333496,4251.666504,4214.743652,4215.641113,4216.666504,3390.000000,4.000000,91.000000,,,,0.000000,4.000000,4.000000,4.000000,4.000000,4.000000,4.000000,4.000000,4.000000,4.000000,4.000000,4.000000,4.000000,4.000000,4.000000,100.000000,,,,,,,,,,,,,,,,
1644853124.210750,248.000000,0.000000,4157.820313,4214.358887,4223.717773,4251.153809,4205.256348,4216.794922,4220.897461,4230.000000,4235.897461,4233.077148,4241.025879,4219.358887,4217.051270,4218.717773,3302.000000,4.000000,91.000000,,,,0.000000,4.000000,4.000000,4.000000,4.000000,4.000000,4.000000,4.000000,4.000000,4.000000,4.000000,4.000000,4.000000,4.000000,4.000000,100.000000,,,,,,,,,,,,,,,,
1644853124.214690,249.000000,0.000000,4157.307617,4220.128418,4226.153809,4244.615234,4210.000000,4219.743652,4221.794922,4233.461426,4239.743652,4235.641113,4229.230957,4221.282227,4226.282227,4221.282227,3512.000000,4.000000,91.000000,,,,0.000000,4.000000,4.000000,4.000000,4.000000,4.000000,4.000000,4.000000,4.000000,4.000000,4.000000,4.000000,4.000000,4.000000,4.000000,100.000000,,,,,,,,,,,,,,,,
1644853124.218630,250.000000,0.000000,4166.282227,4224.743652,4228.717773,4236.922852,4220.769043,4222.307617,4221.025879,4234.743652,4242.692383,4241.538574,4227.948730,4219.102539,4239.871582,4224.743652,3515.000000,4.000000,91.000000,,,,0.000000,4.000000,4.000000,4.000000,4.000000,4.000000,4.000000,4.000000,4.000000,4.000000,4.000000,4.000000,4.000000,4.000000,4.000000,100.000000,,,,,,,,,,,,,,,,
1644853124.222570,251.000000,0.000000,4181.538574,4225.512695,4229.487305,4231.922852,4230.384766,4224.358887,4220.512695,4233.717773,4243.717773,4247.820313,4240.512695,4214.230957,4252.051270,4228.717773,3390.000000,4.000000,91.000000,,,,0.000000,4.000000,4.000000,4.000000,4.000000,4.000000,4.000000,4.000000,4.000000,4.000000,4.000000,4.000000,4.000000,4.000000,4.000000,100.000000,,,,,,,,,,,,,,,,
1644853124.226511,252.000000,0.000000,4195.256348,4223.461426,4227.307617,4230.641113,4232.307617,4227.051270,4221.538574,4231.666504,4242.820313,4250.897461,4259.487305,4211.025879,4258.846191,4231.922852,3302.000000,4.000000,91.000000,,,,0.000000,4.000000,4.000000,4.000000,4.000000,4.000000,4.000000,4.000000,4.000000,4.000000,4.000000,4.000000,4.000000,4.000000,4.000000,100.000000,,,,,,,,,,,,,,,,
1644853124.230451,253.000000,0.000000,4200.512695,4221.666504,4223.461426,4231.538574,4226.538574,4230.897461,4223.205078,4230.641113,4241.922852,4249.871582,4272.179688,4212.820313,4259.871582,4233.333496,3512.000000,4.000000,91.000000,,,,0.000000,4.000000,4.000000,4.000000,4.000000,4.000000,4.000000,4.000000,4.000000,4.000000,4.000000,4.000000,4.000000,4.000000,4.000000,100.000000,,,,,,,,,,,,,,,,
1644853124.234391,254.000000,0.000000,4197.307617,4221.794922,4221.282227,4232.307617,4220.128418,4234.871582,4224.230957,4231.794922,4242.820313,4247.692383,4270.256348,4219.358887,4257.692383,4232.948730,3515.000000,4.000000,91.000000,,,,0.000000,4.000000,4.000000,4.000000,4.000000,4.000000,4.000000,4.000000,4.000000,4.000000,4.000000,4.000000,4.000000,4.000000,4.000000,100.000000,,,,,,,,,,,,,,,,
1644853124.238231,255.000000,0.000000,4191.282227,4221.794922,4223.077148,4231.666504,4220.128418,4237.948730,4225.384766,4234.615234,4246.153809,4247.179688,4256.410156,4227.436035,4253.974121,4231.666504,114.000000,4.000000,91.000000,,,,0.000000,4.000000,4.000000,4.000000,4.000000,4.000000,4.000000,4.000000,4.000000,4.000000,4.000000,4.000000,4.000000,4.000000,4.000000,100.000000,,,,,,,,,,,,,,,,
1644853124.242171,0.000000,0.000000,4188.077148,4218.205078,4228.717773,4230.769043,4227.436035,4238.333496,4227.563965,4237.563965,4249.358887,4248.717773,4241.025879,4233.077148,4248.717773,4230.897461,3426.000000,4.000000,91.000000,,,,0.000000,4.000000,4.000000,4.000000,4.000000,4.000000,4.000000,4.000000,4.000000,4.000000,4.000000,4.000000,4.000000,4.000000,4.000000,100.000000,,,,,,,,,,,,,,,,
1644853124.246111,1.000000,0.000000,4188.077148,4210.641113,4234.487305,4231.666504,4235.512695,4235.897461,4229.871582,4239.230957,4249.743652,4250.384766,4234.487305,4235.128418,4241.282227,4230.000000,3314.000000,4.000000,91.000000,,,,0.000000,4.000000,4.000000,4.000000,4.000000,4.000000,4.000000,4.000000,4.000000,4.000000,4.000000,4.000000,4.000000,4.000000,4.000000,100.000000,,,,,,,,,,,,,,,,
1644853124.250051,2.000000,0.000000,4188.333496,4202.179688,4236.794922,4235.769043,4237.563965,4232.563965,4229.871582,4238.846191,4246.922852,4250.256348,4240.000000,4235.000000,4233.589844,4226.922852,3652.000000,4.000000,91.000000,,,,0.000000,4.000000,4.000000,4.000000,4.000000,4.000000,4.000000,4.000000,4.000000,4.000000,4.000000,4.000000,4.000000,4.000000,4.000000,100.000000,,,,,,,,,,,,,,,,
1644853124.253991,3.000000,0.000000,4186.153809,4197.563965,4234.230957,4241.922852,4232.051270,4231.025879,4226.666504,4236.922852,4243.077148,4248.846191,4252.179688,4234.871582,4229.743652,4220.769043,3436.000000,4.000000,91.000000,,,,0.000000,4.000000,4.000000,4.000000,4.000000,4.000000,4.000000,4.000000,4.000000,4.000000,4.000000,4.000000,4.000000,4.000000,4.000000,100.000000,,,,,,,,,,,,,,,,
1644853124.257932,4.000000,0.000000,4181.282227,4198.589844,4229.487305,4247.051270,4223.461426,4232.436035,4222.179688,4234.743652,4240.384766,4247.563965,4261.922852,4235.256348,4232.436035,4214.487305,3494.000000,4.000000,91.000000,,,,0.000000,4.000000,4.000000,4.000000,4.000000,4.000000,4.000000,4.000000,4.000000,4.000000,4.000000,4.000000,4.000000,4.000000,4.000000,100.000000,,,,,,,,,,,,,,,,
1644853124.261872,5.000000,0.000000,4174.487305,4202.051270,4225.128418,4247.692383,4216.538574,4234.871582,4219.358887,4232.820313,4239.358887,4246.538574,4262.179688,4233.589844,4239.487305,4213.205078,3199.000000,4.000000,91.000000,,,,0.000000,4.000000,4.000000,4.000000,4.000000,4.000000,4.000000,4.000000,4.000000,4.000000,4.000000,4.000000,4.000000,4.000000,4.000000,100.000000,,,,,,,,,,,,,,,,
1644853124.265812,6.000000,0.000000,4167.307617,4202.051270,4222.179688,4241.282227,4211.666504,4234.871582,4218.846191,4230.384766,4238.333496,4243.461426,4251.922852,4227.436035,4244.743652,4218.846191,2498.000000,4.000000,91.000000,,,,0.000000,4.000000,4.000000,4.000000,4.000000,4.000000,4.000000,4.000000,4.000000,4.000000,4.000000,4.000000,4.000000,4.000000,4.000000,100.000000,,,,,,,,,,,,,,,,
1644853124.269752,7.000000,0.000000,4161.282227,4195.897461,4218.974121,4230.769043,4207.179688,4230.897461,4218.717773,4226.666504,4235.769043,4237.051270,4236.922852,4216.666504,4243.205078,4227.307617,3116.000000,4.000000,91.000000,,,,0.000000,4.000000,4.000000,4.000000,4.000000,4.000000,4.000000,4.000000,4.000000,4.000000,4.000000,4.000000,4.000000,4.000000,4.000000,100.000000,,,,,,,,,,,,,,,,
1644853124.273692,8.000000,0.000000,4158.077148,4187.692383,4214.743652,4223.333496,4202.948730,4225.000000,4216.794922,4222.307617,4231.922852,4229.230957,4225.641113,4205.256348,4235.384766,4233.205078,3383.000000,4.000000,91.000000,,,,0.000000,4.000000,4.000000,4.000000,4.000000,4.000000,4.000000,4.000000,4.000000,4.000000,4.000000,4.000000,4.000000,4.000000,4.000000,100.000000,,,,,,,,,,,,,,,,
1644853124.277632,9.000000,0.000000,4159.487305,4184.871582,4211.025879,4224.871582,4201.922852,4221.153809,4214.358887,4219.358887,4228.333496,4224.487305,4223.077148,4199.615234,4226.410156,4234.487305,3533.000000,4.000000,91.000000,,,,0.000000,4.000000,4.000000,4.000000,4.000000,4.000000,4.000000,4.000000,4.000000,4.000000,4.000000,4.000000,4.000000,4.000000,4.000000,100.000000,,,,,,,,,,,,,,,,
1644853124.281572,10.000000,0.000000,4166.410156,4191.282227,4210.641113,4233.717773,4207.436035,4221.922852,4214.487305,4219.230957,4227.051270,4225.641113,4227.948730,4202.563965,4221.538574,4233.333496,3362.000000,4.000000,91.000000,,,,0.000000,4.000000,4.000000,4.000000,4.000000,4.000000,4.000000,4.000000,4.000000,4.000000,4.000000,4.000000,4.000000,4.000000,4.000000,100.000000,,,,,,,,,,,,,,,,
1644853124.285512,11.000000,0.000000,4177.179688,4203.717773,4214.487305,4240.769043,4218.333496,4226.410156,4217.692383,4221.410156,4227.948730,4231.794922,4233.974121,4210.641113,4221.794922,4232.307617,3405.000000,4.000000,91.000000,,,,0.000000,4.000000,4.000000,4.000000,4.000000,4.000000,4.000000,4.000000,4.000000,4.000000,4.000000,4.000000,4.000000,4.000000,4.000000,100.000000,,,,,,,,,,,,,,,,
1644853124.289452,12.000000,0.000000,4187.436035,4215.000000,4220.384766,4238.333496,4229.487305,4231.153809,4221.025879,4224.102539,4230.128418,4238.717773,4235.897461,4217.307617,4223.974121,4231.153809,3546.000000,4.000000,91.000000,,,,0.000000,4.000000,4.000000,4.000000,4.000000,4.000000,4.000000,4.000000,4.000000,4.000000,4.000000,4.000000,4.000000,4.000000,4.000000,100.000000,,,,,,,,,,,,,,,,
1644853124.293392,13.000000,0.000000,4192.563965,4219.358887,4224.871582,4227.179688,4235.512695,4232.820313,4221.025879,4225.641113,4232.436035,4242.436035,4234.358887,4218.333496,4224.743652,4229.102539,3507.000000,4.000000,91.000000,,,,0.000000,4.000000,4.000000,4.000000,4.000000,4.000000,4.000000,4.000000,4.000000,4.000000,4.000000,4.000000,4.000000,4.000000,4.000000,100.000000,,,,,,,,,,,,,,,,
1644853124.297333,14.000000,0.000000,4190.897461,4216.922852,4226.666504,4216.282227,4233.333496,4231.410156,4217.948730,4226.410156,4234.102539,4241.922852,4233.974121,4216.025879,4223.717773,4225.512695,3362.000000,4.000000,91.000000,,,,0.000000,4.000000,4.000000,4.000000,4.000000,4.000000,4.000000,4.000000,4.000000,4.000000,4.000000,4.000000,4.000000,4.000000,4.000000,100.000000,,,,,,,,,,,,,,,,
1644853124.301273,15.000000,0.000000,4185.128418,4212.051270,4226.538574,4215.641113,4224.615234,4229.230957,4215.641113,4227.948730,4235.256348,4239.230957,4237.820313,4215.256348,4223.974121,4221.794922,3405.000000,4.000000,91.000000,,,,0.000000,4.000000,4.000000,4.000000,4.000000,4.000000,4.000000,4.000000,4.000000,4.000000,4.000000,4.000000,4.000000,4.000000,4.000000,100.000000,,,,,,,,,,,,,,,,
1644853124.305213,16.000000,0.000000,4180.769043,4208.974121,4226.025879,4228.077148,4214.230957,4228.974121,4217.179688,4231.410156,4236.282227,4237.948730,4243.846191,4218.461426,4228.589844,4220.000000,3546.000000,4.000000,91.000000,,,,0.000000,4.000000,4.000000,4.000000,4.000000,4.000000,4.000000,4.000000,4.000000,4.000000,4.000000,4.000000,4.000000,4.000000,4.000000,100.000000,1.000000,58.333332,4.000000,4.000000,4.000000,3.000000,1.000000,4.000000,4.000000,4.000000,4.000000,4.000000,4.000000,4.000000,4.000000,3.000000
1644853124.309153,17.000000,0.000000,4181.794922,4208.846191,4225.897461,4247.436035,4207.948730,4231.153809,4221.922852,4235.769043,4237.436035,4240.769043,4247.179688,4223.461426,4237.051270,4221.666504,3507.000000,4.000000,91.000000,,,,0.000000,4.000000,4.000000,4.000000,4.000000,4.000000,4.000000,4.000000,4.000000,4.000000,4.000000,4.000000,4.000000,4.000000,4.000000,100.000000,,,,,,,,,,,,,,,,
1644853124.313193,18.000000,0.000000,4187.051270,4210.769043,4226.153809,4262.179688,4208.461426,4233.974121,4226.282227,4238.589844,4238.974121,4246.538574,4246.666504,4227.051270,4245.128418,4226.410156,3362.000000,4.000000,91.000000,,,,0.000000,4.000000,4.000000,4.000000,4.000000,4.000000,4.000000,4.000000,4.000000,4.000000,4.000000,4.000000,4.000000,4.000000,4.000000,100.000000,,,,,,,,,,,,,,,,
1644853124.317133,19.000000,0.000000,4191.282227,4212.948730,4226.538574,4263.461426,4213.077148,4235.128418,4228.205078,4238.717773,4240.128418,4251.282227,4244.743652,4227.436035,4247.563965,4231.922852,3405.000000,4.000000,91.000000,,,,0.000000,4.000000,4.000000,4.000000,4.000000,4.000000,4.000000,4.000000,4.000000,4.000000,4.000000,4.000000,4.000000,4.000000,4.000000,100.000000,,,,,,,,,,,,,,,,
1644853124.321073,20.000000,0.000000,4189.358887,4213.717773,4226.410156,4251.025879,4216.410156,4233.461426,4228.333496,4236.922852,4239.615234,4251.282227,4244.743652,4226.025879,4242.179688,4235.384766,3546.000000,4.000000,91.000000,,,,0.000000,4.000000,4.000000,4.000000,4.000000,4.000000,4.000000,4.000000,4.000000,4.000000,4.000000,4.000000,4.000000,4.000000,4.000000,100.000000,,,,,,,,,,,,,,,,
1644853124.325013,21.000000,0.000000,4182.820313,4212.436035,4225.384766,4233.974121,4216.025879,4230.769043,4228.205078,4235.641113,4238.205078,4247.179688,4247.051270,4225.384766,4232.051270,4235.769043,3507.000000,4.000000,91.000000,,,,0.000000,4.000000,4.000000,4.000000,4.000000,4.000000,4.000000,4.000000,4.000000,4.000000,4.000000,4.000000,4.000000,4.000000,4.000000,100.000000,,,,,,,,,,,,,,,,
1644853124.328953,22.000000,0.000000,4178.077148,4210.769043,4223.589844,4224.358887,4214.871582,4230.000000,4228.589844,4236.538574,4237.436035,4243.205078,4250.256348,4226.922852,4224.230957,4234.487305,3362.000000,4.000000,91.000000,,,,0.000000,4.000000,4.000000,4.000000,4.000000,4.000000,4.000000,4.000000,4.000000,4.000000,4.000000,4.000000,4.000000,4.000000,4.000000,100.000000,,,,,,,,,,,,,,,,
1644853124.332893,23.000000,0.000000,4181.282227,4210.769043,4223.205078,4228.205078,4216.538574,4233.333496,4228.461426,4239.487305,4239.230957,4243.846191,4252.820313,4229.871582,4224.743652,4233.333496,3405.000000,4.000000,91.000000,,,,0.000000,4.000000,4.000000,4.000000,4.000000,4.000000,4.000000,4.000000,4.000000,4.000000,4.000000,4.000000,4.000000,4.000000,4.000000,100.000000,,,,,,,,,,,,,,,,
1644853124.336834,24.000000,0.000000,4191.025879,4212.820313,4225.641113,4241.410156,4220.641113,4238.717773,4227.692383,4242.948730,4243.461426,4249.358887,4254.230957,4232.948730,4233.077148,4233.077148,3546.000000,4.000000,91.000000,,,,0.000000,4.000000,4.000000,4.000000,4.000000,4.000000,4.000000,4.000000,4.000000,4.000000,4.000000,4.000000,4.000000,4.000000,4.000000,100.000000,,,,,,,,,,,,,,,,
1644853124.340774,25.000000,0.000000,4199.743652,4215.256348,4230.384766,4252.307617,4223.974121,4241.538574,4227.179688,4245.128418,4247.820313,4256.538574,4255.384766,4234.358887,4242.692383,4232.948730,3507.000000,4.000000,91.000000,,,,0.000000,4.000000,4.000000,4.000000,4.000000,4.000000,4.000000,4.000000,4.000000,4.000000,4.000000,4.000000,4.000000,4.000000,4.000000,100.000000,,,,,,,,,,,,,,,,
1644853124.344714,26.000000,0.000000,4200.000000,4215.384766,4234.615234,4250.897461,4225.128418,4239.102539,4227.563965,4245.000000,4249.487305,4261.025879,4256.282227,4232.948730,4247.307617,4232.307617,3362.000000,4.000000,91.000000,,,,0.000000,4.000000,4.000000,4.000000,4.000000,4.000000,4.000000,4.000000,4.000000,4.000000,4.000000,4.000000,4.000000,4.000000,4.000000,100.000000,,,,,,,,,,,,,,,,
1644853124.348654,27.000000,0.000000,4190.641113,4211.410156,4235.256348,4236.153809,4225.769043,4232.436035,4227.436035,4241.794922,4246.922852,4260.384766,4255.897461,4228.077148,4245.384766,4231.538574,3405.000000,4.000000,91.000000,,,,0.000000,4.000000,4.000000,4.000000,4.000000,4.000000,4.000000,4.000000,4.000000,4.000000,4.000000,4.000000,4.000000,4.000000,4.000000,100.000000,,,,,,,,,,,,,,,,
1644853124.352594,28.000000,0.000000,4177.051270,4204.230957,4230.128418,4216.282227,4226.666504,4225.384766,4224.487305,4236.025879,4241.153809,4254.743652,4251.922852,4220.000000,4240.256348,4231.666504,3546.000000,4.000000,91.000000,,,,0.000000,4.000000,4.000000,4.000000,4.000000,4.000000,4.000000,4.000000,4.000000,4.000000,4.000000,4.000000,4.000000,4.000000,4.000000,100.000000,,,,,,,,,,,,,,,,
1644853124.356534,29.000000,0.000000,4166.794922,4196.410156,4220.897461,4202.179688,4225.512695,4221.410156,4218.974121,4229.230957,4234.743652,4246.153809,4243.589844,4211.282227,4236.538574,4231.794922,3507.000000,4.000000,91.000000,,,,0.000000,4.000000,4.000000,4.000000,4.000000,4.000000,4.000000,4.000000,4.000000,4.000000,4.000000,4.000000,4.000000,4.000000,4.000000,100.000000,,,,,,,,,,,,,,,,
1644853124.360474,30.000000,0.000000,4165.128418,4190.641113,4212.051270,4199.743652,4219.358887,4220.641113,4213.974121,4222.948730,4229.487305,4237.179688,4233.974121,4205.000000,4236.025879,4229.230957,3362.000000,4.000000,91.000000,,,,0.000000,4.000000,4.000000,4.000000,4.000000,4.000000,4.000000,4.000000,4.000000,4.000000,4.000000,4.000000,4.000000,4.000000,4.000000,100.000000,,,,,,,,,,,,,,,,
1644853124.364414,31.000000,0.000000,4171.922852,4189.230957,4207.820313,4207.692383,4208.333496,4221.025879,4211.794922,4219.102539,4225.641113,4230.000000,4228.974121,4202.948730,4237.179688,4223.077148,3405.000000,4.000000,91.000000,,,,0.000000,4.000000,4.000000,4.000000,4.000000,4.000000,4.000000,4.000000,4.000000,4.000000,4.000000,4.000000,4.000000,4.000000,4.000000,100.000000,,,,,,,,,,,,,,,,
1644853124.368354,32.000000,0.000000,4182.307617,4192.436035,4209.358887,4220.000000,4197.948730,4220.256348,4212.307617,4218.461426,4223.333496,4225.769043,4232.820313,4205.256348,4237.179688,4215.897461,0.000000,4.000000,91.000000,,,,0.000000,4.000000,4.000000,4.000000,4.000000,4.000000,4.000000,4.000000,4.000000,4.000000,4.000000,4.000000,4.000000,4.000000,4.000000,100.000000,,,,,,,,,,,,,,,,
1644853124.372294,33.000000,0.000000,4190.384766,4198.846191,4213.589844,4230.256348,4195.000000,4218.333496,4212.820313,4220.000000,4222.948730,4225.512695,4243.461426,4210.256348,4234.102539,4211.666504,0.000000,4.000000,91.000000,,,,0.000000,4.000000,4.000000,4.000000,4.000000,4.000000,4.000000,4.000000,4.000000,4.000000,4.000000,4.000000,4.000000,4.000000,4.000000,100.000000,,,,,,,,,,,,,,,,
1644853124.376235,34.000000,0.000000,4192.307617,4205.897461,4216.410156,4234.615234,4201.666504,4217.563965,4212.820313,4222.563965,4224.871582,4228.974121,4253.717773,4216.153809,4229.102539,4212.436035,0.000000,4.000000,91.000000,,,,0.000000,4.000000,4.000000,4.000000,4.000000,4.000000,4.000000,4.000000,4.000000,4.000000,4.000000,4.000000,4.000000,4.000000,4.000000,100.000000,,,,,,,,,,,,,,,,
1644853124.380175,35.000000,0.000000,4188.717773,4212.436035,4216.666504,4233.461426,4214.102539,4220.128418,4213.589844,4225.384766,4228.717773,4234.615234,4256.666504,4220.641113,4225.384766,4218.077148,0.000000,4.000000,91.000000,,,,0.000000,4.000000,4.000000,4.000000,4.000000,4.000000,4.000000,4.000000,4.000000,4.000000,4.000000,4.000000,4.000000,4.000000,4.000000,100.000000,,,,,,,,,,,,,,,,
1644853124.384115,36.000000,0.000000,4183.846191,4218.589844,4216.153809,4230.256348,4225.512695,4225.512695,4216.666504,4228.333496,4232.820313,4239.871582,4251.794922,4222.820313,4226.410156,4227.051270,0.000000,4.000000,91.000000,,,,0.000000,4.000000,4.000000,4.000000,4.000000,4.000000,4.000000,4.000000,4.000000,4.000000,4.000000,4.000000,4.000000,4.000000,4.000000,100.000000,,,,,,,,,,,,,,,,
1644853124.387955,37.000000,0.000000,4181.794922,4224.230957,4217.436035,4229.102539,4231.282227,4231.025879,4220.641113,4231.282227,4236.282227,4242.436035,4244.743652,4222.563965,4232.948730,4237.179688,0.000000,4.000000,91.000000,,,,0.000000,4.000000,4.000000,4.000000,4.000000,4.000000,4.000000,4.000000,4.000000,4.000000,4.000000,4.000000,4.000000,4.000000,4.000000,100.000000,,,,,,,,,,,,,,,,
1644853124.391895,38.000000,0.000000,4184.487305,4227.307617,4221.025879,4231.025879,4231.282227,4232.948730,4222.948730,4233.717773,4238.846191,4241.666504,4241.922852,4221.538574,4241.794922,4245.384766,0.000000,4.000000,91.000000,,,,0.000000,4.000000,4.000000,4.000000,4.000000,4.000000,4.000000,4.000000,4.000000,4.000000,4.000000,4.000000,4.000000,4.000000,4.000000,100.000000,,,,,,,,,,,,,,,,
1644853124.395835,39.000000,0.000000,4189.743652,4225.128418,4225.512695,4233.717773,4228.205078,4230.384766,4222.692383,4235.641113,4240.897461,4239.230957,4246.025879,4221.153809,4247.563965,4248.589844,0.000000,4.000000,91.000000,,,,0.000000,4.000000,4.000000,4.000000,4.000000,4.000000,4.000000,4.000000,4.000000,4.000000,4.000000,4.000000,4.000000,4.000000,4.000000,100.000000,,,,,,,,,,,,,,,,
1644853124.399775,40.000000,0.000000,4193.589844,4217.179688,4228.974121,4234.615234,4224.871582,4225.128418,4221.794922,4237.051270,4242.692383,4237.692383,4253.205078,4221.794922,4246.922852,4244.230957,0.000000,4.000000,91.000000,,,,0.000000,4.000000,4.000000,4.000000,4.000000,4.000000,4.000000,4.000000,4.000000,4.000000,4.000000,4.000000,4.000000,4.000000,4.000000,100.000000,,,,,,,,,,,,,,,,
1644853124.403715,41.000000,0.000000,4192.436035,4206.025879,4229.230957,4232.436035,4221.794922,4219.487305,4221.922852,4237.563965,4243.461426,4238.333496,4256.794922,4221.922852,4240.128418,4232.692383,0.000000,4.000000,91.000000,,,,0.000000,4.000000,4.000000,4.000000,4.000000,4.000000,4.000000,4.000000,4.000000,4.000000,4.000000,4.000000,4.000000,4.000000,4.000000,100.000000,,,,,,,,,,,,,,,,
1644853124.407656,42.000000,0.000000,4185.128418,4196.153809,4225.769043,4227.563965,4217.563965,4215.384766,4222.179688,4236.025879,4241.538574,4239.871582,4251.922852,4219.871582,4231.666504,4217.948730,0.000000,4.000000,91.000000,,,,0.000000,4.000000,4.000000,4.000000,4.000000,4.000000,4.000000,4.000000,4.000000,4.000000,4.000000,4.000000,4.000000,4.000000,4.000000,100.000000,,,,,,,,,,,,,,,,
1644853124.411596,43.000000,0.000000,4174.487305,4191.538574,4219.230957,4221.538574,4211.410156,4212.563965,4220.384766,4231.922852,4236.153809,4240.256348,4239.615234,4215.000000,4226.922852,4206.794922,0.000000,4.000000,91.000000,,,,0.000000,4.000000,4.000000,4.000000,4.000000,4.000000,4.000000,4.000000,4.000000,4.000000,4.000000,4.000000,4.000000,4.000000,4.000000,100.000000,,,,,,,,,,,,,,,,
1644853124.415536,44.000000,0.000000,4166.282227,4193.589844,4211.666504,4215.897461,4205.256348,4211.025879,4216.538574,4226.282227,4228.717773,4238.333496,4225.641113,4208.461426,4228.077148,4204.743652,0.000000,4.000000,91.000000,,,,0.000000,4.000000,4.000000,4.000000,4.000000,4.000000,4.000000,4.000000,4.000000,4.000000,4.000000,4.000000,4.000000,4.000000,4.000000,100.000000,,,,,,,,,,,,,,,,
1644853124.419476,45.000000,0.000000,4166.794922,4201.153809,4205.897461,4212.436035,4202.307617,4211.153809,4213.974121,4222.436035,4222.820313,4234.230957,4217.307617,4202.692383,4233.205078,4213.077148,0.000000,4.000000,91.000000,,,,0.000000,4.000000,4.000000,4.000000,4.000000,4.000000,4.000000,4.000000,4.000000,4.000000,4.000000,4.000000,4.000000,4.000000,4.000000,100.000000,,,,,,,,,,,,,,,,
1644853124.423416,46.000000,0.000000,4178.333496,4211.538574,4205.000000,4212.051270,4203.333496,4213.846191,4215.769043,4223.589844,4221.794922,4230.897461,4219.358887,4200.769043,4238.974121,4227.563965,0.000000,4.000000,91.000000,,,,0.000000,4.000000,4.000000,4.000000,4.000000,4.000000,4.000000,4.000000,4.000000,4.000000,4.000000,4.000000,4.000000,4.000000,4.000000,100.000000,,,,,,,,,,,,,,,,
1644853124.427356,47.000000,0.000000,4196.794922,4221.410156,4210.000000,4214.871582,4206.025879,4219.102539,4220.769043,4229.871582,4226.538574,4231.153809,4231.282227,4204.102539,4242.948730,4241.153809,0.000000,4.000000,91.000000,,,,0.000000,4.000000,4.000000,4.000000,4.000000,4.000000,4.000000,4.000000,4.000000,4.000000,4.000000,4.000000,4.000000,4.000000,4.000000,100.000000,,,,,,,,,,,,,,,,
1644853124.431296,48.000000,0.000000,4213.717773,4227.307617,4218.974121,4220.641113,4207.563965,4225.128418,4224.743652,4237.307617,4234.487305,4236.025879,4246.666504,4211.794922,4244.743652,4248.461426,0.000000,4.000000,91.000000,,,,0.000000,4.000000,4.000000,4.000000,4.000000,4.000000,4.000000,4.000000,4.000000,4.000000,4.000000,4.000000,4.000000,4.000000,4.000000,100.000000,,,,,,,,,,,,,,,,
1644853124.435236,49.000000,0.000000,4222.051270,4227.948730,4227.948730,4228.846191,4208.589844,4228.846191,4224.358887,4241.153809,4241.538574,4242.692383,4257.948730,4220.897461,4244.487305,4248.461426,0.000000,4.000000,91.000000,,,,0.000000,4.000000,4.000000,4.000000,4.000000,4.000000,4.000000,4.000000,4.000000,4.000000,4.000000,4.000000,4.000000,4.000000,4.000000,100.000000,,,,,,,,,,,,,,,,
1644853124.439176,50.000000,0.000000,4220.512695,4224.487305,4232.948730,4238.461426,4212.179688,4229.102539,4221.025879,4239.871582,4243.974121,4246.922852,4260.769043,4227.692383,4242.820313,4243.974121,0.000000,4.000000,91.000000,,,,0.000000,4.000000,4.000000,4.000000,4.000000,4.000000,4.000000,4.000000,4.000000,4.000000,4.000000,4.000000,4.000000,4.000000,4.000000,100.000000,,,,,,,,,,,,,,,,
1644853124.443116,51.000000,0.000000,4213.717773,4220.769043,4233.717773,4246.153809,4220.000000,4227.051270,4219.230957,4236.410156,4242.307617,4246.922852,4257.307617,4230.512695,4241.922852,4240.000000,0.000000,4.000000,91.000000,,,,0.000000,4.000000,4.000000,4.000000,4.000000,4.000000,4.000000,4.000000,4.000000,4.000000,4.000000,4.000000,4.000000,4.000000,4.000000,100.000000,,,,,,,,,,,,,,,,
1644853124.447057,52.000000,0.000000,4207.692383,4220.641113,4232.820313,4247.820313,4230.128418,4226.282227,4221.282227,4234.871582,4240.256348,4245.512695,4253.461426,4231.025879,4243.077148,4240.384766,0.000000,4.000000,91.000000,,,,0.000000,4.000000,4.000000,4.000000,4.000000,4.000000,4.000000,4.000000,4.000000,4.000000,4.000000,4.000000,4.000000,4.000000,4.000000,100.000000,,,,,,,,,,,,,,,,
1644853124.450997,53.000000,0.000000,4206.794922,4225.384766,4234.487305,4241.922852,4237.948730,4228.461426,4226.025879,4237.179688,4241.410156,4247.051270,4254.871582,4231.922852,4246.666504,4246.410156,0.000000,4.000000,91.000000,,,,0.000000,4.000000,4.000000,4.000000,4.000000,4.000000,4.000000,4.000000,4.000000,4.000000,4.000000,4.000000,4.000000,4.000000,4.000000,100.000000,,,,,,,,,,,,,,,,
1644853124.454937,54.000000,0.000000,4212.051270,4232.948730,4240.512695,4232.563965,4240.128418,4232.563965,4230.128418,4241.410156,4245.512695,4252.436035,4262.692383,4235.256348,4251.153809,4256.538574,0.000000,4.000000,91.000000,,,,0.000000,4.000000,4.000000,4.000000,4.000000,4.000000,4.000000,4.000000,4.000000,4.000000,4.000000,4.000000,4.000000,4.000000,4.000000,100.000000,,,,,,,,,,,,,,,,
1644853124.458977,55.000000,0.000000,4220.384766,4239.102539,4248.589844,4227.563965,4236.025879,4235.512695,4231.794922,4244.230957,4248.974121,4257.051270,4271.666504,4238.974121,4254.102539,4267.051270,0.000000,4.000000,91.000000,,,,0.000000,4.000000,4.000000,4.000000,4.000000,4.000000,4.000000,4.000000,4.000000,4.000000,4.000000,4.000000,4.000000,4.000000,4.000000,100.000000,,,,,,,,,,,,,,,,
1644853124.462917,56.000000,0.000000,4226.538574,4240.128418,4253.717773,4231.794922,4228.846191,4234.615234,4231.282227,4243.589844,4248.333496,4255.641113,4274.871582,4239.743652,4253.461426,4272.948730,0.000000,4.000000,91.000000,,,,0.000000,4.000000,4.000000,4.000000,4.000000,4.000000,4.000000,4.000000,4.000000,4.000000,4.000000,4.000000,4.000000,4.000000,4.000000,100.000000,,,,,,,,,,,,,,,,
1644853124.466857,57.000000,0.000000,4225.769043,4234.102539,4250.897461,4242.692383,4223.205078,4230.512695,4229.358887,4240.000000,4243.461426,4247.692383,4269.230957,4235.512695,4249.487305,4269.871582,0.000000,4.000000,91.000000,,,,0.000000,4.000000,4.000000,4.000000,4.000000,4.000000,4.000000,4.000000,4.000000,4.000000,4.000000,4.000000,4.000000,4.000000,4.000000,100.000000,,,,,,,,,,,,,,,,
