title:Alex-m7iXW-qaTJ-ULwBo-16qkw, start timestamp:1645707484.607918, stop timestamp:1645707511.278148, headset type:EPOCPLUS, headset serial:3B9AEBFF, headset firmware:626, channels:55, sampling rate:eeg_256, samples:6769      , version:2.1, 
Timestamp,EEG.Counter,EEG.Interpolated,EEG.AF3,EEG.F7,EEG.F3,EEG.FC5,EEG.T7,EEG.P7,EEG.O1,EEG.O2,EEG.P8,EEG.T8,EEG.FC6,EEG.F4,EEG.F8,EEG.AF4,EEG.RawCq,EEG.Battery,EEG.BatteryPercent,MarkerIndex,MarkerType,MarkerValueInt,EEG.MarkerHardware,CQ.AF3,CQ.F7,CQ.F3,CQ.FC5,CQ.T7,CQ.P7,CQ.O1,CQ.O2,CQ.P8,CQ.T8,CQ.FC6,CQ.F4,CQ.F8,CQ.AF4,CQ.Overall,EQ.SampleRateQuality,EQ.OVERALL,EQ.AF3,EQ.F7,EQ.F3,EQ.FC5,EQ.T7,EQ.P7,EQ.O1,EQ.O2,EQ.P8,EQ.T8,EQ.FC6,EQ.F4,EQ.F8,EQ.AF4
1645707484.607918,107.000000,0.000000,4216.794922,4209.358887,4215.384766,4208.077148,4212.692383,4213.333496,4210.384766,4210.256348,4227.820313,4200.769043,4220.641113,4171.538574,4202.820313,4201.538574,0.000000,4.000000,95.000000,,,,0.000000,4.000000,4.000000,4.000000,4.000000,4.000000,4.000000,4.000000,4.000000,4.000000,4.000000,4.000000,4.000000,4.000000,4.000000,100.000000,,,,,,,,,,,,,,,,
1645707484.611958,108.000000,0.000000,4218.717773,4218.974121,4216.794922,4215.641113,4214.871582,4218.974121,4216.282227,4213.077148,4227.051270,4210.128418,4223.333496,4175.128418,4206.794922,4221.153809,0.000000,4.000000,95.000000,,,,0.000000,4.000000,4.000000,4.000000,4.000000,4.000000,4.000000,4.000000,4.000000,4.000000,4.000000,4.000000,4.000000,4.000000,4.000000,100.000000,,,,,,,,,,,,,,,,
1645707484.615898,109.000000,0.000000,4216.794922,4226.538574,4218.589844,4221.794922,4217.307617,4224.615234,4220.384766,4215.000000,4225.256348,4220.256348,4228.461426,4183.461426,4213.077148,4241.666504,0.000000,4.000000,95.000000,,,,0.000000,4.000000,4.000000,4.000000,4.000000,4.000000,4.000000,4.000000,4.000000,4.000000,4.000000,4.000000,4.000000,4.000000,4.000000,100.000000,,,,,,,,,,,,,,,,
1645707484.619838,110.000000,0.000000,4212.563965,4227.179688,4221.025879,4223.461426,4218.589844,4226.794922,4220.641113,4215.769043,4223.974121,4225.641113,4233.205078,4191.666504,4219.743652,4250.769043,0.000000,4.000000,95.000000,,,,0.000000,4.000000,4.000000,4.000000,4.000000,4.000000,4.000000,4.000000,4.000000,4.000000,4.000000,4.000000,4.000000,4.000000,4.000000,100.000000,,,,,,,,,,,,,,,,
1645707484.623778,111.000000,0.000000,4208.974121,4221.025879,4222.692383,4219.358887,4217.307617,4223.461426,4217.948730,4215.000000,4223.333496,4224.743652,4233.205078,4193.974121,4223.589844,4243.333496,0.000000,4.000000,95.000000,,,,0.000000,4.000000,4.000000,4.000000,4.000000,4.000000,4.000000,4.000000,4.000000,4.000000,4.000000,4.000000,4.000000,4.000000,4.000000,100.000000,,,,,,,,,,,,,,,,
1645707484.627718,112.000000,0.000000,4207.563965,4213.333496,4221.794922,4211.025879,4214.358887,4217.307617,4214.102539,4212.563965,4223.077148,4219.743652,4227.563965,4188.077148,4223.461426,4226.282227,0.000000,4.000000,95.000000,,,,0.000000,4.000000,4.000000,4.000000,4.000000,4.000000,4.000000,4.000000,4.000000,4.000000,4.000000,4.000000,4.000000,4.000000,4.000000,100.000000,,,,,,,,,,,,,,,,
1645707484.631658,113.000000,0.000000,4207.948730,4209.230957,4217.179688,4202.051270,4212.307617,4213.205078,4211.666504,4209.487305,4223.077148,4214.871582,4220.000000,4178.205078,4220.512695,4211.922852,0.000000,4.000000,95.000000,,,,0.000000,4.000000,4.000000,4.000000,4.000000,4.000000,4.000000,4.000000,4.000000,4.000000,4.000000,4.000000,4.000000,4.000000,4.000000,100.000000,,,,,,,,,,,,,,,,
1645707484.635598,114.000000,0.000000,4208.333496,4208.846191,4211.153809,4196.025879,4212.948730,4213.717773,4211.666504,4207.692383,4223.205078,4212.307617,4216.153809,4171.282227,4216.794922,4207.051270,0.000000,4.000000,95.000000,,,,0.000000,4.000000,4.000000,4.000000,4.000000,4.000000,4.000000,4.000000,4.000000,4.000000,4.000000,4.000000,4.000000,4.000000,4.000000,100.000000,,,,,,,,,,,,,,,,
1645707484.639538,115.000000,0.000000,4207.563965,4208.333496,4207.436035,4194.871582,4215.256348,4217.563965,4213.974121,4209.871582,4223.333496,4212.051270,4217.820313,4171.410156,4212.948730,4208.717773,0.000000,4.000000,95.000000,,,,0.000000,4.000000,4.000000,4.000000,4.000000,4.000000,4.000000,4.000000,4.000000,4.000000,4.000000,4.000000,4.000000,4.000000,4.000000,100.000000,,,,,,,,,,,,,,,,
1645707484.643478,116.000000,0.000000,4206.538574,4205.384766,4208.461426,4198.846191,4216.666504,4221.153809,4217.051270,4215.769043,4223.333496,4213.333496,4222.820313,4176.666504,4208.077148,4209.102539,0.000000,4.000000,95.000000,,,,0.000000,4.000000,4.000000,4.000000,4.000000,4.000000,4.000000,4.000000,4.000000,4.000000,4.000000,4.000000,4.000000,4.000000,4.000000,100.000000,,,,,,,,,,,,,,,,
1645707484.647419,117.000000,0.000000,4207.436035,4202.563965,4213.717773,4206.666504,4216.538574,4222.179688,4219.487305,4222.948730,4224.358887,4215.512695,4227.436035,4182.051270,4202.051270,4205.128418,0.000000,4.000000,95.000000,,,,0.000000,4.000000,4.000000,4.000000,4.000000,4.000000,4.000000,4.000000,4.000000,4.000000,4.000000,4.000000,4.000000,4.000000,4.000000,100.000000,,,,,,,,,,,,,,,,
1645707484.651359,118.000000,0.000000,4211.794922,4206.025879,4219.615234,4215.256348,4216.922852,4222.051270,4220.641113,4227.436035,4226.538574,4218.333496,4229.487305,4185.000000,4197.307617,4201.538574,0.000000,4.000000,95.000000,,,,0.000000,4.000000,4.000000,4.000000,4.000000,4.000000,4.000000,4.000000,4.000000,4.000000,4.000000,4.000000,4.000000,4.000000,4.000000,100.000000,,,,,,,,,,,,,,,,
1645707484.655299,119.000000,0.000000,4219.487305,4218.205078,4222.820313,4221.153809,4219.871582,4222.948730,4220.897461,4227.563965,4229.230957,4221.794922,4229.487305,4185.769043,4197.179688,4205.512695,0.000000,4.000000,95.000000,,,,0.000000,4.000000,4.000000,4.000000,4.000000,4.000000,4.000000,4.000000,4.000000,4.000000,4.000000,4.000000,4.000000,4.000000,4.000000,100.000000,,,,,,,,,,,,,,,,
1645707484.659239,120.000000,0.000000,4228.077148,4234.487305,4223.333496,4222.692383,4224.743652,4226.025879,4221.666504,4225.384766,4230.769043,4225.769043,4229.743652,4186.666504,4203.333496,4218.205078,0.000000,4.000000,95.000000,,,,0.000000,4.000000,4.000000,4.000000,4.000000,4.000000,4.000000,4.000000,4.000000,4.000000,4.000000,4.000000,4.000000,4.000000,4.000000,100.000000,,,,,,,,,,,,,,,,
1645707484.663179,121.000000,0.000000,4233.717773,4246.153809,4223.077148,4221.025879,4228.974121,4230.512695,4224.487305,4224.871582,4230.512695,4230.769043,4232.051270,4188.717773,4213.333496,4233.333496,0.000000,4.000000,95.000000,,,,0.000000,4.000000,4.000000,4.000000,4.000000,4.000000,4.000000,4.000000,4.000000,4.000000,4.000000,4.000000,4.000000,4.000000,4.000000,100.000000,,,,,,,,,,,,,,,,
1645707484.667119,122.000000,0.000000,4234.102539,4248.077148,4224.615234,4220.769043,4231.153809,4235.256348,4229.230957,4227.948730,4229.871582,4237.179688,4236.666504,4191.794922,4223.205078,4242.051270,0.000000,4.000000,95.000000,,,,0.000000,4.000000,4.000000,4.000000,4.000000,4.000000,4.000000,4.000000,4.000000,4.000000,4.000000,4.000000,4.000000,4.000000,4.000000,100.000000,,,,,,,,,,,,,,,,
1645707484.671059,123.000000,0.000000,4230.000000,4242.820313,4228.077148,4225.000000,4232.820313,4240.128418,4233.846191,4233.589844,4230.641113,4244.102539,4242.563965,4196.025879,4229.487305,4240.512695,0.000000,4.000000,95.000000,,,,0.000000,4.000000,4.000000,4.000000,4.000000,4.000000,4.000000,4.000000,4.000000,4.000000,4.000000,4.000000,4.000000,4.000000,4.000000,100.000000,,,,,,,,,,,,,,,,
1645707484.674999,124.000000,0.000000,4225.128418,4237.307617,4232.563965,4232.820313,4235.897461,4244.358887,4236.282227,4238.846191,4233.077148,4249.230957,4247.307617,4201.666504,4231.410156,4231.922852,0.000000,4.000000,95.000000,,,,0.000000,4.000000,4.000000,4.000000,4.000000,4.000000,4.000000,4.000000,4.000000,4.000000,4.000000,4.000000,4.000000,4.000000,4.000000,100.000000,,,,,,,,,,,,,,,,
1645707484.679039,125.000000,0.000000,4223.846191,4236.794922,4236.922852,4238.333496,4240.897461,4247.051270,4236.282227,4241.410156,4235.512695,4249.615234,4248.974121,4207.820313,4230.256348,4223.717773,0.000000,4.000000,95.000000,,,,0.000000,4.000000,4.000000,4.000000,4.000000,4.000000,4.000000,4.000000,4.000000,4.000000,4.000000,4.000000,4.000000,4.000000,4.000000,100.000000,,,,,,,,,,,,,,,,
1645707484.682979,126.000000,0.000000,4227.948730,4240.769043,4240.641113,4236.666504,4246.153809,4247.948730,4235.641113,4241.025879,4236.282227,4244.743652,4247.436035,4212.051270,4228.589844,4221.922852,0.000000,4.000000,95.000000,,,,0.000000,4.000000,4.000000,4.000000,4.000000,4.000000,4.000000,4.000000,4.000000,4.000000,4.000000,4.000000,4.000000,4.000000,4.000000,100.000000,,,,,,,,,,,,,,,,
1645707484.686919,127.000000,0.000000,4235.641113,4244.871582,4243.205078,4229.102539,4249.615234,4247.307617,4235.512695,4238.974121,4235.384766,4237.307617,4245.512695,4212.820313,4228.974121,4226.922852,0.000000,4.000000,95.000000,,,,0.000000,4.000000,4.000000,4.000000,4.000000,4.000000,4.000000,4.000000,4.000000,4.000000,4.000000,4.000000,4.000000,4.000000,4.000000,100.000000,,,,,,,,,,,,,,,,
1645707484.690860,128.000000,0.000000,4243.077148,4245.256348,4244.487305,4222.436035,4249.743652,4246.794922,4235.384766,4236.410156,4234.615234,4231.922852,4245.897461,4209.871582,4231.410156,4232.948730,3400.000000,4.000000,95.000000,,,,0.000000,4.000000,4.000000,4.000000,4.000000,4.000000,4.000000,4.000000,4.000000,4.000000,4.000000,4.000000,4.000000,4.000000,4.000000,100.000000,,,,,,,,,,,,,,,,
1645707484.694800,129.000000,0.000000,4246.794922,4242.051270,4244.102539,4223.717773,4246.666504,4246.538574,4233.974121,4233.846191,4235.000000,4231.282227,4247.948730,4204.487305,4233.589844,4233.846191,3265.000000,4.000000,95.000000,,,,0.000000,4.000000,4.000000,4.000000,4.000000,4.000000,4.000000,4.000000,4.000000,4.000000,4.000000,4.000000,4.000000,4.000000,4.000000,100.000000,,,,,,,,,,,,,,,,
1645707484.698740,130.000000,0.000000,4245.384766,4237.820313,4242.692383,4232.436035,4241.666504,4245.384766,4231.538574,4231.538574,4235.641113,4233.846191,4247.436035,4198.077148,4232.436035,4227.820313,3523.000000,4.000000,95.000000,,,,0.000000,4.000000,4.000000,4.000000,4.000000,4.000000,4.000000,4.000000,4.000000,4.000000,4.000000,4.000000,4.000000,4.000000,4.000000,100.000000,,,,,,,,,,,,,,,,
1645707484.702680,131.000000,0.000000,4240.512695,4235.256348,4241.410156,4241.666504,4237.051270,4242.563965,4230.000000,4229.615234,4235.000000,4235.256348,4240.769043,4192.692383,4227.051270,4220.256348,3489.000000,4.000000,95.000000,,,,0.000000,4.000000,4.000000,4.000000,4.000000,4.000000,4.000000,4.000000,4.000000,4.000000,4.000000,4.000000,4.000000,4.000000,4.000000,100.000000,,,,,,,,,,,,,,,,
1645707484.706620,132.000000,0.000000,4235.384766,4236.282227,4241.282227,4244.230957,4235.384766,4239.230957,4230.256348,4228.205078,4232.563965,4232.051270,4230.128418,4190.128418,4220.256348,4219.358887,3669.000000,4.000000,95.000000,,,,0.000000,4.000000,4.000000,4.000000,4.000000,4.000000,4.000000,4.000000,4.000000,4.000000,4.000000,4.000000,4.000000,4.000000,4.000000,100.000000,,,,,,,,,,,,,,,,
1645707484.710560,133.000000,0.000000,4234.102539,4240.512695,4241.538574,4239.102539,4237.436035,4237.948730,4231.666504,4227.179688,4229.358887,4226.153809,4222.051270,4191.538574,4216.666504,4228.974121,3436.000000,4.000000,95.000000,,,,0.000000,4.000000,4.000000,4.000000,4.000000,4.000000,4.000000,4.000000,4.000000,4.000000,4.000000,4.000000,4.000000,4.000000,4.000000,100.000000,,,,,,,,,,,,,,,,
1645707484.714500,134.000000,0.000000,4238.077148,4246.282227,4241.666504,4232.307617,4241.666504,4239.743652,4232.563965,4225.769043,4226.794922,4222.692383,4221.410156,4195.897461,4218.717773,4244.743652,3173.000000,4.000000,95.000000,,,,0.000000,4.000000,4.000000,4.000000,4.000000,4.000000,4.000000,4.000000,4.000000,4.000000,4.000000,4.000000,4.000000,4.000000,4.000000,100.000000,,,,,,,,,,,,,,,,
1645707484.718440,135.000000,0.000000,4245.128418,4250.769043,4241.153809,4230.384766,4244.615234,4243.077148,4232.307617,4223.846191,4225.512695,4225.128418,4227.307617,4199.871582,4224.615234,4257.692383,2922.000000,4.000000,95.000000,,,,0.000000,4.000000,4.000000,4.000000,4.000000,4.000000,4.000000,4.000000,4.000000,4.000000,4.000000,4.000000,4.000000,4.000000,4.000000,100.000000,,,,,,,,,,,,,,,,
1645707484.722480,136.000000,0.000000,4250.000000,4251.794922,4240.128418,4234.871582,4245.000000,4245.384766,4232.436035,4222.563965,4225.897461,4231.282227,4234.487305,4201.410156,4230.256348,4260.256348,1341.000000,4.000000,95.000000,,,,0.000000,4.000000,4.000000,4.000000,4.000000,4.000000,4.000000,4.000000,4.000000,4.000000,4.000000,4.000000,4.000000,4.000000,4.000000,100.000000,,,,,,,,,,,,,,,,
1645707484.726420,137.000000,0.000000,4248.846191,4249.487305,4239.230957,4241.025879,4243.974121,4245.512695,4234.102539,4222.820313,4227.692383,4236.282227,4238.333496,4200.769043,4232.179688,4251.922852,3291.000000,4.000000,95.000000,,,,0.000000,4.000000,4.000000,4.000000,4.000000,4.000000,4.000000,4.000000,4.000000,4.000000,4.000000,4.000000,4.000000,4.000000,4.000000,100.000000,,,,,,,,,,,,,,,,
1645707484.730361,138.000000,0.000000,4242.820313,4246.025879,4238.333496,4241.922852,4244.230957,4244.358887,4236.666504,4225.000000,4230.256348,4237.692383,4238.333496,4200.384766,4231.410156,4238.846191,2975.000000,4.000000,95.000000,,,,0.000000,4.000000,4.000000,4.000000,4.000000,4.000000,4.000000,4.000000,4.000000,4.000000,4.000000,4.000000,4.000000,4.000000,4.000000,100.000000,,,,,,,,,,,,,,,,
1645707484.734301,139.000000,0.000000,4236.794922,4243.077148,4237.307617,4234.358887,4245.897461,4243.333496,4237.948730,4228.589844,4232.436035,4236.922852,4236.538574,4201.922852,4230.384766,4229.102539,3480.000000,4.000000,95.000000,,,,0.000000,4.000000,4.000000,4.000000,4.000000,4.000000,4.000000,4.000000,4.000000,4.000000,4.000000,4.000000,4.000000,4.000000,4.000000,100.000000,,,,,,,,,,,,,,,,
1645707484.738241,140.000000,0.000000,4234.358887,4240.000000,4236.153809,4222.307617,4246.282227,4242.436035,4236.666504,4232.692383,4233.717773,4236.666504,4235.000000,4205.000000,4230.384766,4226.538574,3336.000000,4.000000,95.000000,,,,0.000000,4.000000,4.000000,4.000000,4.000000,4.000000,4.000000,4.000000,4.000000,4.000000,4.000000,4.000000,4.000000,4.000000,4.000000,100.000000,,,,,,,,,,,,,,,,
1645707484.742181,141.000000,0.000000,4235.000000,4236.025879,4235.000000,4213.333496,4243.333496,4240.641113,4233.974121,4236.153809,4233.461426,4237.563965,4235.256348,4207.692383,4230.384766,4228.461426,3273.000000,4.000000,95.000000,,,,0.000000,4.000000,4.000000,4.000000,4.000000,4.000000,4.000000,4.000000,4.000000,4.000000,4.000000,4.000000,4.000000,4.000000,4.000000,100.000000,,,,,,,,,,,,,,,,
1645707484.746121,142.000000,0.000000,4236.282227,4232.307617,4234.102539,4213.333496,4238.589844,4237.820313,4231.922852,4236.794922,4231.922852,4238.846191,4237.692383,4209.358887,4229.230957,4229.615234,2975.000000,4.000000,95.000000,,,,0.000000,4.000000,4.000000,4.000000,4.000000,4.000000,4.000000,4.000000,4.000000,4.000000,4.000000,4.000000,4.000000,4.000000,4.000000,100.000000,,,,,,,,,,,,,,,,
1645707484.750061,143.000000,0.000000,4237.179688,4232.051270,4233.077148,4222.307617,4236.025879,4235.641113,4231.153809,4233.974121,4230.000000,4239.743652,4241.410156,4210.769043,4227.307617,4227.307617,3480.000000,4.000000,95.000000,,,,0.000000,4.000000,4.000000,4.000000,4.000000,4.000000,4.000000,4.000000,4.000000,4.000000,4.000000,4.000000,4.000000,4.000000,4.000000,100.000000,,,,,,,,,,,,,,,,
1645707484.754001,144.000000,0.000000,4237.948730,4236.922852,4232.436035,4234.230957,4238.205078,4236.025879,4231.410156,4229.358887,4229.743652,4240.897461,4245.384766,4213.333496,4226.666504,4224.358887,3336.000000,4.000000,95.000000,,,,0.000000,4.000000,4.000000,4.000000,4.000000,4.000000,4.000000,4.000000,4.000000,4.000000,4.000000,4.000000,4.000000,4.000000,4.000000,100.000000,,,,,,,,,,,,,,,,
1645707484.757941,145.000000,0.000000,4238.589844,4245.000000,4233.205078,4242.307617,4243.974121,4239.230957,4232.692383,4226.410156,4232.051270,4242.563965,4247.179688,4217.179688,4228.077148,4225.897461,3273.000000,4.000000,95.000000,,,,0.000000,4.000000,4.000000,4.000000,4.000000,4.000000,4.000000,4.000000,4.000000,4.000000,4.000000,4.000000,4.000000,4.000000,4.000000,100.000000,,,,,,,,,,,,,,,,
1645707484.761881,146.000000,0.000000,4238.717773,4251.538574,4236.410156,4243.589844,4248.846191,4242.820313,4235.256348,4227.948730,4236.282227,4244.102539,4246.025879,4221.025879,4230.000000,4234.358887,2975.000000,4.000000,95.000000,,,,0.000000,4.000000,4.000000,4.000000,4.000000,4.000000,4.000000,4.000000,4.000000,4.000000,4.000000,4.000000,4.000000,4.000000,4.000000,100.000000,,,,,,,,,,,,,,,,
1645707484.765822,147.000000,0.000000,4238.205078,4252.563965,4241.153809,4240.000000,4249.871582,4244.358887,4238.461426,4233.077148,4240.384766,4245.384766,4243.077148,4223.461426,4230.128418,4246.410156,3480.000000,4.000000,95.000000,,,,0.000000,4.000000,4.000000,4.000000,4.000000,4.000000,4.000000,4.000000,4.000000,4.000000,4.000000,4.000000,4.000000,4.000000,4.000000,100.000000,,,,,,,,,,,,,,,,
1645707484.769762,148.000000,0.000000,4239.102539,4248.333496,4245.128418,4236.410156,4247.820313,4243.333496,4240.512695,4238.589844,4242.307617,4247.051270,4240.769043,4223.974121,4227.563965,4256.410156,3336.000000,4.000000,95.000000,,,,0.000000,4.000000,4.000000,4.000000,4.000000,4.000000,4.000000,4.000000,4.000000,4.000000,4.000000,4.000000,4.000000,4.000000,4.000000,100.000000,,,,,,,,,,,,,,,,
1645707484.773702,149.000000,0.000000,4242.820313,4242.820313,4246.666504,4235.897461,4245.769043,4241.410156,4240.256348,4241.794922,4241.538574,4249.871582,4241.153809,4222.692383,4224.230957,4261.282227,3273.000000,4.000000,95.000000,,,,0.000000,4.000000,4.000000,4.000000,4.000000,4.000000,4.000000,4.000000,4.000000,4.000000,4.000000,4.000000,4.000000,4.000000,4.000000,100.000000,,,,,,,,,,,,,,,,
1645707484.777642,150.000000,0.000000,4248.717773,4240.384766,4246.153809,4238.717773,4245.897461,4240.897461,4238.589844,4242.692383,4238.974121,4252.307617,4244.102539,4219.743652,4223.333496,4260.769043,2975.000000,4.000000,95.000000,,,,0.000000,4.000000,4.000000,4.000000,4.000000,4.000000,4.000000,4.000000,4.000000,4.000000,4.000000,4.000000,4.000000,4.000000,4.000000,100.000000,,,,,,,,,,,,,,,,
1645707484.781482,151.000000,0.000000,4253.974121,4242.436035,4245.128418,4242.948730,4247.692383,4242.436035,4238.077148,4243.461426,4236.025879,4251.153809,4247.820313,4216.666504,4225.641113,4255.769043,3480.000000,4.000000,95.000000,,,,0.000000,4.000000,4.000000,4.000000,4.000000,4.000000,4.000000,4.000000,4.000000,4.000000,4.000000,4.000000,4.000000,4.000000,4.000000,100.000000,,,,,,,,,,,,,,,,
1645707484.785422,152.000000,0.000000,4256.282227,4247.179688,4244.743652,4245.769043,4248.846191,4244.615234,4240.256348,4245.512695,4234.102539,4245.256348,4250.256348,4215.897461,4229.871582,4246.922852,3336.000000,4.000000,95.000000,,,,0.000000,4.000000,4.000000,4.000000,4.000000,4.000000,4.000000,4.000000,4.000000,4.000000,4.000000,4.000000,4.000000,4.000000,4.000000,100.000000,,,,,,,,,,,,,,,,
1645707484.789362,153.000000,0.000000,4255.769043,4251.153809,4245.256348,4245.897461,4248.974121,4246.538574,4244.230957,4247.948730,4234.102539,4238.077148,4250.256348,4219.358887,4233.589844,4235.897461,3273.000000,4.000000,95.000000,,,,0.000000,4.000000,4.000000,4.000000,4.000000,4.000000,4.000000,4.000000,4.000000,4.000000,4.000000,4.000000,4.000000,4.000000,4.000000,100.000000,,,,,,,,,,,,,,,,
1645707484.793302,154.000000,0.000000,4253.717773,4252.307617,4245.769043,4243.589844,4249.102539,4248.077148,4247.436035,4249.102539,4235.384766,4235.256348,4247.820313,4226.153809,4235.128418,4226.538574,2975.000000,4.000000,95.000000,,,,0.000000,4.000000,4.000000,4.000000,4.000000,4.000000,4.000000,4.000000,4.000000,4.000000,4.000000,4.000000,4.000000,4.000000,4.000000,100.000000,,,,,,,,,,,,,,,,
1645707484.797342,155.000000,0.000000,4250.641113,4250.256348,4245.769043,4240.384766,4250.128418,4249.615234,4248.589844,4248.589844,4236.794922,4239.230957,4243.589844,4231.922852,4233.589844,4222.948730,3480.000000,4.000000,95.000000,,,,0.000000,4.000000,4.000000,4.000000,4.000000,4.000000,4.000000,4.000000,4.000000,4.000000,4.000000,4.000000,4.000000,4.000000,4.000000,100.000000,,,,,,,,,,,,,,,,
1645707484.801282,156.000000,0.000000,4246.153809,4246.153809,4245.384766,4237.820313,4250.897461,4250.769043,4248.333496,4247.563965,4237.051270,4246.794922,4238.974121,4232.692383,4229.487305,4227.179688,3336.000000,4.000000,95.000000,,,,0.000000,4.000000,4.000000,4.000000,4.000000,4.000000,4.000000,4.000000,4.000000,4.000000,4.000000,4.000000,4.000000,4.000000,4.000000,100.000000,,,,,,,,,,,,,,,,
1645707484.805223,157.000000,0.000000,4240.897461,4242.179688,4244.487305,4237.179688,4249.871582,4251.153809,4247.948730,4247.051270,4236.282227,4252.948730,4236.282227,4227.179688,4225.128418,4237.692383,3273.000000,4.000000,95.000000,,,,0.000000,4.000000,4.000000,4.000000,4.000000,4.000000,4.000000,4.000000,4.000000,4.000000,4.000000,4.000000,4.000000,4.000000,4.000000,100.000000,,,,,,,,,,,,,,,,
1645707484.809163,158.000000,0.000000,4238.205078,4240.641113,4242.692383,4239.358887,4247.692383,4251.025879,4247.307617,4246.538574,4235.256348,4254.615234,4237.436035,4218.717773,4224.102539,4250.384766,2975.000000,4.000000,95.000000,,,,0.000000,4.000000,4.000000,4.000000,4.000000,4.000000,4.000000,4.000000,4.000000,4.000000,4.000000,4.000000,4.000000,4.000000,4.000000,100.000000,,,,,,,,,,,,,,,,
1645707484.813103,159.000000,0.000000,4241.410156,4242.948730,4240.000000,4244.358887,4246.538574,4251.410156,4245.641113,4245.000000,4234.230957,4252.563965,4242.436035,4213.589844,4227.948730,4260.384766,3480.000000,4.000000,95.000000,,,,0.000000,4.000000,4.000000,4.000000,4.000000,4.000000,4.000000,4.000000,4.000000,4.000000,4.000000,4.000000,4.000000,4.000000,4.000000,100.000000,,,,,,,,,,,,,,,,
1645707484.817043,160.000000,0.000000,4250.256348,4248.589844,4237.692383,4250.897461,4248.461426,4252.692383,4243.333496,4242.051270,4233.589844,4249.358887,4247.948730,4216.282227,4235.512695,4263.717773,3336.000000,4.000000,95.000000,,,,0.000000,4.000000,4.000000,4.000000,4.000000,4.000000,4.000000,4.000000,4.000000,4.000000,4.000000,4.000000,4.000000,4.000000,4.000000,100.000000,,,,,,,,,,,,,,,,
1645707484.820983,161.000000,0.000000,4260.512695,4255.769043,4237.179688,4256.282227,4252.307617,4254.743652,4242.307617,4239.358887,4232.820313,4247.307617,4249.743652,4225.128418,4242.948730,4259.743652,3273.000000,4.000000,95.000000,,,,0.000000,4.000000,4.000000,4.000000,4.000000,4.000000,4.000000,4.000000,4.000000,4.000000,4.000000,4.000000,4.000000,4.000000,4.000000,100.000000,,,,,,,,,,,,,,,,
1645707484.825023,162.000000,0.000000,4267.820313,4262.307617,4238.589844,4258.974121,4255.897461,4257.051270,4243.717773,4238.589844,4232.051270,4248.589844,4246.025879,4234.358887,4247.563965,4251.666504,2975.000000,4.000000,95.000000,,,,0.000000,4.000000,4.000000,4.000000,4.000000,4.000000,4.000000,4.000000,4.000000,4.000000,4.000000,4.000000,4.000000,4.000000,4.000000,100.000000,,,,,,,,,,,,,,,,
1645707484.828963,163.000000,0.000000,4270.384766,4266.282227,4240.000000,4259.102539,4257.692383,4259.102539,4246.794922,4240.641113,4232.051270,4253.205078,4240.512695,4237.692383,4248.717773,4245.897461,3480.000000,4.000000,95.000000,,,,0.000000,4.000000,4.000000,4.000000,4.000000,4.000000,4.000000,4.000000,4.000000,4.000000,4.000000,4.000000,4.000000,4.000000,4.000000,100.000000,,,,,,,,,,,,,,,,
1645707484.832903,164.000000,0.000000,4269.358887,4266.538574,4239.487305,4258.077148,4257.307617,4260.384766,4248.333496,4243.846191,4233.205078,4258.077148,4238.717773,4233.974121,4247.820313,4246.538574,3336.000000,4.000000,95.000000,,,,0.000000,4.000000,4.000000,4.000000,4.000000,4.000000,4.000000,4.000000,4.000000,4.000000,4.000000,4.000000,4.000000,4.000000,4.000000,100.000000,,,,,,,,,,,,,,,,
1645707484.836843,165.000000,0.000000,4266.153809,4262.820313,4236.410156,4256.410156,4254.871582,4259.230957,4246.153809,4245.897461,4234.743652,4258.846191,4243.077148,4226.538574,4245.384766,4251.794922,3273.000000,4.000000,95.000000,,,,0.000000,4.000000,4.000000,4.000000,4.000000,4.000000,4.000000,4.000000,4.000000,4.000000,4.000000,4.000000,4.000000,4.000000,4.000000,100.000000,,,,,,,,,,,,,,,,
1645707484.840783,166.000000,0.000000,4261.666504,4256.153809,4232.436035,4252.692383,4250.641113,4254.743652,4241.282227,4245.384766,4235.256348,4251.794922,4249.871582,4221.410156,4241.666504,4255.897461,2975.000000,4.000000,95.000000,,,,0.000000,4.000000,4.000000,4.000000,4.000000,4.000000,4.000000,4.000000,4.000000,4.000000,4.000000,4.000000,4.000000,4.000000,4.000000,100.000000,,,,,,,,,,,,,,,,
1645707484.844724,167.000000,0.000000,4256.282227,4249.358887,4229.358887,4246.538574,4246.666504,4247.948730,4237.179688,4243.205078,4233.974121,4239.487305,4252.692383,4221.666504,4237.436035,4254.358887,3480.000000,4.000000,95.000000,,,,0.000000,4.000000,4.000000,4.000000,4.000000,4.000000,4.000000,4.000000,4.000000,4.000000,4.000000,4.000000,4.000000,4.000000,4.000000,100.000000,,,,,,,,,,,,,,,,
1645707484.848664,168.000000,0.000000,4250.384766,4245.256348,4228.077148,4240.000000,4245.641113,4242.820313,4235.769043,4241.153809,4231.794922,4229.487305,4249.615234,4226.538574,4234.487305,4248.205078,3336.000000,4.000000,95.000000,,,,0.000000,4.000000,4.000000,4.000000,4.000000,4.000000,4.000000,4.000000,4.000000,4.000000,4.000000,4.000000,4.000000,4.000000,4.000000,100.000000,,,,,,,,,,,,,,,,
1645707484.852604,169.000000,0.000000,4244.487305,4245.000000,4228.589844,4236.538574,4248.205078,4241.794922,4236.282227,4240.384766,4230.641113,4228.974121,4244.230957,4231.282227,4233.846191,4242.563965,3273.000000,4.000000,95.000000,,,,0.000000,4.000000,4.000000,4.000000,4.000000,4.000000,4.000000,4.000000,4.000000,4.000000,4.000000,4.000000,4.000000,4.000000,4.000000,100.000000,,,,,,,,,,,,,,,,
1645707484.856544,170.000000,0.000000,4238.717773,4246.153809,4229.871582,4237.436035,4251.025879,4244.102539,4236.410156,4240.769043,4231.666504,4238.333496,4240.512695,4230.128418,4234.102539,4240.641113,2975.000000,4.000000,95.000000,,,,0.000000,4.000000,4.000000,4.000000,4.000000,4.000000,4.000000,4.000000,4.000000,4.000000,4.000000,4.000000,4.000000,4.000000,4.000000,100.000000,,,,,,,,,,,,,,,,
1645707484.860484,171.000000,0.000000,4232.948730,4244.487305,4230.000000,4240.128418,4249.743652,4245.512695,4235.256348,4240.897461,4233.717773,4249.487305,4238.589844,4221.025879,4231.922852,4240.384766,3480.000000,4.000000,95.000000,,,,0.000000,4.000000,4.000000,4.000000,4.000000,4.000000,4.000000,4.000000,4.000000,4.000000,4.000000,4.000000,4.000000,4.000000,4.000000,100.000000,,,,,,,,,,,,,,,,
1645707484.864524,172.000000,0.000000,4228.589844,4239.358887,4227.820313,4241.410156,4242.692383,4243.205078,4233.589844,4240.512695,4234.487305,4253.333496,4235.256348,4207.179688,4226.025879,4238.077148,3336.000000,4.000000,95.000000,,,,0.000000,4.000000,4.000000,4.000000,4.000000,4.000000,4.000000,4.000000,4.000000,4.000000,4.000000,4.000000,4.000000,4.000000,4.000000,100.000000,,,,,,,,,,,,,,,,
1645707484.868464,173.000000,0.000000,4227.820313,4234.743652,4222.563965,4239.743652,4234.743652,4238.589844,4232.948730,4239.358887,4232.563965,4247.436035,4229.102539,4195.512695,4219.487305,4232.948730,3273.000000,4.000000,95.000000,,,,0.000000,4.000000,4.000000,4.000000,4.000000,4.000000,4.000000,4.000000,4.000000,4.000000,4.000000,4.000000,4.000000,4.000000,4.000000,100.000000,,,,,,,,,,,,,,,,
1645707484.872404,174.000000,0.000000,4232.179688,4235.256348,4215.897461,4237.692383,4232.051270,4236.282227,4233.333496,4237.563965,4228.077148,4237.307617,4222.948730,4191.538574,4216.922852,4228.205078,2975.000000,4.000000,95.000000,,,,0.000000,4.000000,4.000000,4.000000,4.000000,4.000000,4.000000,4.000000,4.000000,4.000000,4.000000,4.000000,4.000000,4.000000,4.000000,100.000000,,,,,,,,,,,,,,,,
1645707484.876344,175.000000,0.000000,4240.384766,4241.153809,4211.538574,4238.461426,4237.179688,4238.461426,4234.358887,4236.153809,4223.461426,4230.512695,4220.000000,4196.410156,4220.000000,4227.179688,3480.000000,4.000000,95.000000,,,,0.000000,4.000000,4.000000,4.000000,4.000000,4.000000,4.000000,4.000000,4.000000,4.000000,4.000000,4.000000,4.000000,4.000000,4.000000,100.000000,,,,,,,,,,,,,,,,
1645707484.880284,176.000000,0.000000,4248.717773,4247.051270,4212.051270,4241.025879,4246.025879,4243.205078,4235.512695,4236.410156,4221.153809,4230.256348,4221.410156,4206.410156,4225.256348,4229.358887,3336.000000,4.000000,95.000000,,,,0.000000,4.000000,4.000000,4.000000,4.000000,4.000000,4.000000,4.000000,4.000000,4.000000,4.000000,4.000000,4.000000,4.000000,4.000000,100.000000,,,,,,,,,,,,,,,,
1645707484.884224,177.000000,0.000000,4253.717773,4247.820313,4217.307617,4241.794922,4251.666504,4246.282227,4236.282227,4238.461426,4222.436035,4233.846191,4225.384766,4215.512695,4227.563965,4231.153809,3273.000000,4.000000,95.000000,,,,0.000000,4.000000,4.000000,4.000000,4.000000,4.000000,4.000000,4.000000,4.000000,4.000000,4.000000,4.000000,4.000000,4.000000,4.000000,100.000000,,,,,,,,,,,,,,,,
1645707484.888165,178.000000,0.000000,4254.615234,4243.333496,4223.846191,4238.077148,4250.512695,4245.512695,4236.538574,4241.153809,4226.666504,4236.922852,4229.743652,4219.743652,4224.102539,4229.358887,2975.000000,4.000000,95.000000,,,,0.000000,4.000000,4.000000,4.000000,4.000000,4.000000,4.000000,4.000000,4.000000,4.000000,4.000000,4.000000,4.000000,4.000000,4.000000,100.000000,,,,,,,,,,,,,,,,
1645707484.892105,179.000000,0.000000,4253.077148,4238.077148,4228.077148,4231.538574,4245.000000,4242.692383,4236.153809,4242.563965,4231.153809,4237.436035,4233.589844,4218.974121,4216.922852,4224.615234,3480.000000,4.000000,95.000000,,,,0.000000,4.000000,4.000000,4.000000,4.000000,4.000000,4.000000,4.000000,4.000000,4.000000,4.000000,4.000000,4.000000,4.000000,4.000000,100.000000,,,,,,,,,,,,,,,,
1645707484.896045,180.000000,0.000000,4251.153809,4237.307617,4228.974121,4227.563965,4240.897461,4241.025879,4235.897461,4241.922852,4233.461426,4236.794922,4236.922852,4215.897461,4211.282227,4221.666504,3336.000000,4.000000,95.000000,,,,0.000000,4.000000,4.000000,4.000000,4.000000,4.000000,4.000000,4.000000,4.000000,4.000000,4.000000,4.000000,4.000000,4.000000,4.000000,100.000000,,,,,,,,,,,,,,,,
1645707484.899985,181.000000,0.000000,4249.487305,4241.922852,4228.717773,4230.000000,4241.922852,4242.179688,4236.922852,4239.871582,4232.948730,4236.922852,4239.871582,4213.461426,4211.410156,4224.871582,3273.000000,4.000000,95.000000,,,,0.000000,4.000000,4.000000,4.000000,4.000000,4.000000,4.000000,4.000000,4.000000,4.000000,4.000000,4.000000,4.000000,4.000000,4.000000,100.000000,,,,,,,,,,,,,,,,
1645707484.903925,182.000000,0.000000,4247.692383,4248.461426,4229.743652,4238.589844,4247.563965,4245.512695,4240.128418,4238.333496,4230.641113,4238.974121,4242.563965,4213.333496,4217.692383,4236.025879,2975.000000,4.000000,95.000000,,,,0.000000,4.000000,4.000000,4.000000,4.000000,4.000000,4.000000,4.000000,4.000000,4.000000,4.000000,4.000000,4.000000,4.000000,4.000000,100.000000,,,,,,,,,,,,,,,,
1645707484.907865,183.000000,0.000000,4246.410156,4253.717773,4232.179688,4248.333496,4254.358887,4248.846191,4243.717773,4238.333496,4228.846191,4242.179688,4245.128418,4215.384766,4227.051270,4251.538574,3480.000000,4.000000,95.000000,,,,0.000000,4.000000,4.000000,4.000000,4.000000,4.000000,4.000000,4.000000,4.000000,4.000000,4.000000,4.000000,4.000000,4.000000,4.000000,100.000000,,,,,,,,,,,,,,,,
1645707484.911805,184.000000,0.000000,4247.307617,4256.922852,4234.230957,4254.358887,4258.717773,4250.512695,4245.128418,4239.871582,4228.846191,4246.153809,4247.563965,4218.461426,4235.897461,4264.487305,3336.000000,4.000000,95.000000,,,,0.000000,4.000000,4.000000,4.000000,4.000000,4.000000,4.000000,4.000000,4.000000,4.000000,4.000000,4.000000,4.000000,4.000000,4.000000,100.000000,1.000000,75.000000,4.000000,4.000000,4.000000,4.000000,4.000000,4.000000,4.000000,4.000000,2.000000,4.000000,4.000000,4.000000,4.000000,3.000000
1645707484.915745,185.000000,0.000000,4251.666504,4259.358887,4234.358887,4254.743652,4259.487305,4250.128418,4243.717773,4241.666504,4230.512695,4250.128418,4249.102539,4220.641113,4241.794922,4269.358887,3273.000000,4.000000,95.000000,,,,0.000000,4.000000,4.000000,4.000000,4.000000,4.000000,4.000000,4.000000,4.000000,4.000000,4.000000,4.000000,4.000000,4.000000,4.000000,100.000000,,,,,,,,,,,,,,,,
1645707484.919685,186.000000,0.000000,4258.846191,4261.922852,4233.077148,4252.820313,4257.051270,4248.205078,4241.538574,4243.205078,4232.563965,4253.589844,4248.589844,4221.025879,4244.358887,4265.000000,2975.000000,4.000000,95.000000,,,,0.000000,4.000000,4.000000,4.000000,4.000000,4.000000,4.000000,4.000000,4.000000,4.000000,4.000000,4.000000,4.000000,4.000000,4.000000,100.000000,,,,,,,,,,,,,,,,
1645707484.923626,187.000000,0.000000,4265.769043,4263.461426,4232.051270,4252.307617,4253.589844,4246.282227,4241.282227,4244.487305,4233.589844,4255.769043,4246.025879,4218.846191,4244.358887,4255.897461,3480.000000,4.000000,95.000000,,,,0.000000,4.000000,4.000000,4.000000,4.000000,4.000000,4.000000,4.000000,4.000000,4.000000,4.000000,4.000000,4.000000,4.000000,4.000000,100.000000,,,,,,,,,,,,,,,,
1645707484.927566,188.000000,0.000000,4269.358887,4262.179688,4232.051270,4254.102539,4251.025879,4245.384766,4242.948730,4245.256348,4233.333496,4256.410156,4243.077148,4214.615234,4242.948730,4248.717773,3336.000000,4.000000,95.000000,,,,0.000000,4.000000,4.000000,4.000000,4.000000,4.000000,4.000000,4.000000,4.000000,4.000000,4.000000,4.000000,4.000000,4.000000,4.000000,100.000000,,,,,,,,,,,,,,,,
1645707484.931506,189.000000,0.000000,4268.077148,4258.077148,4232.051270,4254.358887,4250.769043,4246.025879,4243.974121,4244.743652,4232.436035,4254.743652,4241.922852,4209.743652,4241.153809,4247.179688,3273.000000,4.000000,95.000000,,,,0.000000,4.000000,4.000000,4.000000,4.000000,4.000000,4.000000,4.000000,4.000000,4.000000,4.000000,4.000000,4.000000,4.000000,4.000000,100.000000,,,,,,,,,,,,,,,,
1645707484.935346,190.000000,0.000000,4262.948730,4253.077148,4230.641113,4248.974121,4252.307617,4247.692383,4242.692383,4242.307617,4231.794922,4250.256348,4243.205078,4207.436035,4239.871582,4249.358887,2975.000000,4.000000,95.000000,,,,0.000000,4.000000,4.000000,4.000000,4.000000,4.000000,4.000000,4.000000,4.000000,4.000000,4.000000,4.000000,4.000000,4.000000,4.000000,100.000000,,,,,,,,,,,,,,,,
1645707484.939286,191.000000,0.000000,4256.794922,4250.128418,4228.589844,4238.846191,4254.102539,4248.846191,4239.871582,4238.974121,4231.666504,4243.333496,4245.897461,4210.256348,4239.358887,4249.358887,3480.000000,4.000000,95.000000,,,,0.000000,4.000000,4.000000,4.000000,4.000000,4.000000,4.000000,4.000000,4.000000,4.000000,4.000000,4.000000,4.000000,4.000000,4.000000,100.000000,,,,,,,,,,,,,,,,
1645707484.943226,192.000000,0.000000,4252.820313,4250.384766,4227.436035,4230.897461,4255.128418,4249.102539,4238.461426,4237.051270,4231.666504,4237.307617,4248.717773,4218.077148,4240.128418,4243.974121,3336.000000,4.000000,95.000000,,,,0.000000,4.000000,4.000000,4.000000,4.000000,4.000000,4.000000,4.000000,4.000000,4.000000,4.000000,4.000000,4.000000,4.000000,4.000000,100.000000,,,,,,,,,,,,,,,,
1645707484.947166,193.000000,0.000000,4253.077148,4252.948730,4228.333496,4232.307617,4255.384766,4249.358887,4240.000000,4238.077148,4232.179688,4237.051270,4250.512695,4226.666504,4242.436035,4236.153809,3273.000000,4.000000,95.000000,,,,0.000000,4.000000,4.000000,4.000000,4.000000,4.000000,4.000000,4.000000,4.000000,4.000000,4.000000,4.000000,4.000000,4.000000,4.000000,100.000000,,,,,,,,,,,,,,,,
1645707484.951106,194.000000,0.000000,4256.538574,4256.025879,4230.000000,4243.461426,4255.897461,4250.769043,4243.077148,4241.666504,4233.205078,4245.128418,4250.769043,4230.256348,4245.641113,4233.077148,2975.000000,4.000000,95.000000,,,,0.000000,4.000000,4.000000,4.000000,4.000000,4.000000,4.000000,4.000000,4.000000,4.000000,4.000000,4.000000,4.000000,4.000000,4.000000,100.000000,,,,,,,,,,,,,,,,
1645707484.955046,195.000000,0.000000,4260.128418,4258.333496,4230.128418,4257.051270,4256.922852,4252.820313,4244.743652,4245.641113,4234.230957,4257.692383,4249.230957,4226.922852,4248.461426,4239.102539,3480.000000,4.000000,95.000000,,,,0.000000,4.000000,4.000000,4.000000,4.000000,4.000000,4.000000,4.000000,4.000000,4.000000,4.000000,4.000000,4.000000,4.000000,4.000000,100.000000,,,,,,,,,,,,,,,,
1645707484.958987,196.000000,0.000000,4260.512695,4259.871582,4228.461426,4265.000000,4257.436035,4253.846191,4243.717773,4247.692383,4234.358887,4266.666504,4246.282227,4219.871582,4248.717773,4250.512695,3336.000000,4.000000,95.000000,,,,0.000000,4.000000,4.000000,4.000000,4.000000,4.000000,4.000000,4.000000,4.000000,4.000000,4.000000,4.000000,4.000000,4.000000,4.000000,100.000000,,,,,,,,,,,,,,,,
1645707484.962927,197.000000,0.000000,4257.948730,4261.410156,4226.794922,4265.128418,4256.794922,4253.077148,4241.794922,4247.436035,4233.589844,4265.897461,4243.333496,4215.897461,4245.384766,4258.846191,3273.000000,4.000000,95.000000,,,,0.000000,4.000000,4.000000,4.000000,4.000000,4.000000,4.000000,4.000000,4.000000,4.000000,4.000000,4.000000,4.000000,4.000000,4.000000,100.000000,,,,,,,,,,,,,,,,
1645707484.966767,198.000000,0.000000,4256.538574,4264.102539,4227.563965,4262.179688,4256.538574,4252.051270,4241.282227,4245.641113,4232.436035,4256.922852,4242.948730,4219.102539,4240.256348,4258.717773,2975.000000,4.000000,95.000000,,,,0.000000,4.000000,4.000000,4.000000,4.000000,4.000000,4.000000,4.000000,4.000000,4.000000,4.000000,4.000000,4.000000,4.000000,4.000000,100.000000,,,,,,,,,,,,,,,,
1645707484.970707,199.000000,0.000000,4259.615234,4267.692383,4230.897461,4261.794922,4258.589844,4252.820313,4243.077148,4243.589844,4232.179688,4247.948730,4245.897461,4227.179688,4237.051270,4252.307617,3480.000000,4.000000,95.000000,,,,0.000000,4.000000,4.000000,4.000000,4.000000,4.000000,4.000000,4.000000,4.000000,4.000000,4.000000,4.000000,4.000000,4.000000,4.000000,100.000000,,,,,,,,,,,,,,,,
1645707484.974647,200.000000,0.000000,4266.282227,4270.641113,4235.256348,4264.102539,4262.820313,4255.897461,4245.512695,4241.922852,4232.820313,4246.794922,4250.641113,4233.077148,4238.717773,4246.153809,3336.000000,4.000000,95.000000,,,,0.000000,4.000000,4.000000,4.000000,4.000000,4.000000,4.000000,4.000000,4.000000,4.000000,4.000000,4.000000,4.000000,4.000000,4.000000,100.000000,,,,,,,,,,,,,,,,
1645707484.978587,201.000000,0.000000,4270.256348,4270.512695,4238.717773,4264.102539,4265.641113,4258.333496,4246.282227,4241.153809,4233.205078,4253.589844,4253.974121,4231.410156,4244.230957,4245.128418,3273.000000,4.000000,95.000000,,,,0.000000,4.000000,4.000000,4.000000,4.000000,4.000000,4.000000,4.000000,4.000000,4.000000,4.000000,4.000000,4.000000,4.000000,4.000000,100.000000,,,,,,,,,,,,,,,,
1645707484.982527,202.000000,0.000000,4266.922852,4266.410156,4240.000000,4258.333496,4263.077148,4257.436035,4245.128418,4241.538574,4232.436035,4261.153809,4253.717773,4223.461426,4249.615234,4248.974121,2975.000000,4.000000,95.000000,,,,0.000000,4.000000,4.000000,4.000000,4.000000,4.000000,4.000000,4.000000,4.000000,4.000000,4.000000,4.000000,4.000000,4.000000,4.000000,100.000000,,,,,,,,,,,,,,,,
1645707484.986467,203.000000,0.000000,4257.563965,4260.128418,4238.846191,4248.589844,4255.128418,4252.692383,4243.205078,4242.563965,4230.641113,4262.563965,4250.512695,4215.384766,4251.794922,4253.717773,3480.000000,4.000000,95.000000,,,,0.000000,4.000000,4.000000,4.000000,4.000000,4.000000,4.000000,4.000000,4.000000,4.000000,4.000000,4.000000,4.000000,4.000000,4.000000,100.000000,,,,,,,,,,,,,,,,
1645707484.990408,204.000000,0.000000,4249.487305,4255.000000,4236.282227,4241.153809,4246.794922,4247.820313,4242.051270,4243.974121,4229.358887,4257.436035,4247.307617,4213.589844,4250.512695,4255.641113,3336.000000,4.000000,95.000000,,,,0.000000,4.000000,4.000000,4.000000,4.000000,4.000000,4.000000,4.000000,4.000000,4.000000,4.000000,4.000000,4.000000,4.000000,4.000000,100.000000,,,,,,,,,,,,,,,,
1645707484.994348,205.000000,0.000000,4250.000000,4253.333496,4234.230957,4241.538574,4243.205078,4246.410156,4242.563965,4245.769043,4230.128418,4251.153809,4246.794922,4219.358887,4248.589844,4254.102539,3273.000000,4.000000,95.000000,,,,0.000000,4.000000,4.000000,4.000000,4.000000,4.000000,4.000000,4.000000,4.000000,4.000000,4.000000,4.000000,4.000000,4.000000,4.000000,100.000000,,,,,,,,,,,,,,,,
1645707484.998288,206.000000,0.000000,4259.358887,4254.358887,4234.871582,4250.256348,4246.282227,4249.615234,4244.871582,4248.589844,4233.205078,4249.487305,4248.589844,4228.717773,4248.461426,4252.051270,2975.000000,4.000000,95.000000,,,,0.000000,4.000000,4.000000,4.000000,4.000000,4.000000,4.000000,4.000000,4.000000,4.000000,4.000000,4.000000,4.000000,4.000000,4.000000,100.000000,,,,,,,,,,,,,,,,
1645707485.002228,207.000000,0.000000,4270.769043,4256.282227,4239.102539,4262.948730,4252.692383,4254.487305,4248.077148,4252.307617,4236.410156,4253.461426,4250.897461,4236.153809,4250.512695,4252.563965,3480.000000,4.000000,95.000000,,,,0.000000,4.000000,4.000000,4.000000,4.000000,4.000000,4.000000,4.000000,4.000000,4.000000,4.000000,4.000000,4.000000,4.000000,4.000000,100.000000,,,,,,,,,,,,,,,,
1645707485.006168,208.000000,0.000000,4276.153809,4257.948730,4244.230957,4273.333496,4257.820313,4257.307617,4250.512695,4255.769043,4236.922852,4259.743652,4251.794922,4238.461426,4253.077148,4257.051270,3336.000000,4.000000,95.000000,,,,0.000000,4.000000,4.000000,4.000000,4.000000,4.000000,4.000000,4.000000,4.000000,4.000000,4.000000,4.000000,4.000000,4.000000,4.000000,100.000000,,,,,,,,,,,,,,,,
1645707485.010108,209.000000,0.000000,4272.179688,4259.615234,4246.666504,4277.051270,4259.615234,4256.922852,4250.769043,4256.282227,4234.102539,4263.461426,4251.410156,4236.410156,4253.717773,4262.820313,3273.000000,4.000000,95.000000,,,,0.000000,4.000000,4.000000,4.000000,4.000000,4.000000,4.000000,4.000000,4.000000,4.000000,4.000000,4.000000,4.000000,4.000000,4.000000,100.000000,,,,,,,,,,,,,,,,
1645707485.014048,210.000000,0.000000,4263.333496,4261.410156,4245.384766,4273.589844,4259.743652,4255.128418,4248.717773,4253.461426,4230.512695,4262.051270,4250.769043,4233.077148,4250.897461,4266.153809,2975.000000,4.000000,95.000000,,,,0.000000,4.000000,4.000000,4.000000,4.000000,4.000000,4.000000,4.000000,4.000000,4.000000,4.000000,4.000000,4.000000,4.000000,4.000000,100.000000,,,,,,,,,,,,,,,,
1645707485.017988,211.000000,0.000000,4256.922852,4262.307617,4241.922852,4265.128418,4261.025879,4254.487305,4247.051270,4249.871582,4230.256348,4257.179688,4250.000000,4231.025879,4245.256348,4264.871582,3480.000000,4.000000,95.000000,,,,0.000000,4.000000,4.000000,4.000000,4.000000,4.000000,4.000000,4.000000,4.000000,4.000000,4.000000,4.000000,4.000000,4.000000,4.000000,100.000000,,,,,,,,,,,,,,,,
1645707485.021928,212.000000,0.000000,4256.282227,4261.538574,4239.102539,4254.487305,4263.461426,4256.282227,4248.461426,4249.230957,4234.358887,4253.333496,4248.461426,4230.897461,4238.846191,4260.897461,3336.000000,4.000000,95.000000,,,,0.000000,4.000000,4.000000,4.000000,4.000000,4.000000,4.000000,4.000000,4.000000,4.000000,4.000000,4.000000,4.000000,4.000000,4.000000,100.000000,,,,,,,,,,,,,,,,
1645707485.025868,213.000000,0.000000,4259.615234,4259.102539,4238.333496,4245.000000,4265.000000,4259.615234,4253.077148,4252.179688,4240.641113,4253.717773,4246.410156,4231.410156,4234.358887,4258.333496,3273.000000,4.000000,95.000000,,,,0.000000,4.000000,4.000000,4.000000,4.000000,4.000000,4.000000,4.000000,4.000000,4.000000,4.000000,4.000000,4.000000,4.000000,4.000000,100.000000,,,,,,,,,,,,,,,,
1645707485.029809,214.000000,0.000000,4262.820313,4257.179688,4238.974121,4240.256348,4263.717773,4262.820313,4257.563965,4256.153809,4245.128418,4258.717773,4246.153809,4232.179688,4234.102539,4259.871582,2975.000000,4.000000,95.000000,,,,0.000000,4.000000,4.000000,4.000000,4.000000,4.000000,4.000000,4.000000,4.000000,4.000000,4.000000,4.000000,4.000000,4.000000,4.000000,100.000000,,,,,,,,,,,,,,,,
1645707485.033749,215.000000,0.000000,4263.461426,4257.179688,4240.000000,4243.205078,4260.128418,4264.615234,4258.205078,4257.948730,4246.153809,4265.384766,4249.358887,4233.333496,4238.077148,4263.461426,3480.000000,4.000000,95.000000,,,,0.000000,4.000000,4.000000,4.000000,4.000000,4.000000,4.000000,4.000000,4.000000,4.000000,4.000000,4.000000,4.000000,4.000000,4.000000,100.000000,,,,,,,,,,,,,,,,
1645707485.037789,216.000000,0.000000,4262.436035,4258.461426,4240.512695,4253.077148,4256.410156,4264.487305,4254.487305,4256.666504,4244.871582,4269.487305,4254.230957,4235.256348,4243.846191,4264.743652,3336.000000,4.000000,95.000000,,,,0.000000,4.000000,4.000000,4.000000,4.000000,4.000000,4.000000,4.000000,4.000000,4.000000,4.000000,4.000000,4.000000,4.000000,4.000000,100.000000,,,,,,,,,,,,,,,,
1645707485.041729,217.000000,0.000000,4260.897461,4258.717773,4240.000000,4263.461426,4254.230957,4262.692383,4249.743652,4254.102539,4243.589844,4268.589844,4256.538574,4236.666504,4247.692383,4260.512695,3273.000000,4.000000,95.000000,,,,0.000000,4.000000,4.000000,4.000000,4.000000,4.000000,4.000000,4.000000,4.000000,4.000000,4.000000,4.000000,4.000000,4.000000,4.000000,100.000000,,,,,,,,,,,,,,,,
1645707485.045669,218.000000,0.000000,4259.102539,4256.025879,4237.820313,4266.410156,4253.717773,4260.384766,4247.179688,4252.307617,4243.333496,4264.487305,4253.589844,4236.282227,4248.333496,4251.922852,2975.000000,4.000000,95.000000,,,,0.000000,4.000000,4.000000,4.000000,4.000000,4.000000,4.000000,4.000000,4.000000,4.000000,4.000000,4.000000,4.000000,4.000000,4.000000,100.000000,,,,,,,,,,,,,,,,
1645707485.049609,219.000000,0.000000,4255.897461,4251.410156,4234.102539,4259.230957,4254.358887,4258.846191,4247.563965,4251.922852,4243.589844,4261.410156,4247.307617,4233.077148,4247.692383,4243.589844,3480.000000,4.000000,95.000000,,,,0.000000,4.000000,4.000000,4.000000,4.000000,4.000000,4.000000,4.000000,4.000000,4.000000,4.000000,4.000000,4.000000,4.000000,4.000000,100.000000,,,,,,,,,,,,,,,,
1645707485.053549,220.000000,0.000000,4251.282227,4247.307617,4230.000000,4247.436035,4255.641113,4258.846191,4248.333496,4252.179688,4243.461426,4261.794922,4242.820313,4227.051270,4248.077148,4240.128418,3336.000000,4.000000,95.000000,,,,0.000000,4.000000,4.000000,4.000000,4.000000,4.000000,4.000000,4.000000,4.000000,4.000000,4.000000,4.000000,4.000000,4.000000,4.000000,100.000000,,,,,,,,,,,,,,,,
1645707485.057489,221.000000,0.000000,4246.922852,4245.897461,4227.948730,4240.512695,4256.538574,4259.102539,4247.436035,4252.307617,4242.820313,4264.743652,4242.948730,4220.512695,4249.615234,4243.205078,3273.000000,4.000000,95.000000,,,,0.000000,4.000000,4.000000,4.000000,4.000000,4.000000,4.000000,4.000000,4.000000,4.000000,4.000000,4.000000,4.000000,4.000000,4.000000,100.000000,,,,,,,,,,,,,,,,
1645707485.061429,222.000000,0.000000,4245.897461,4248.461426,4229.487305,4243.974121,4256.410156,4258.205078,4245.512695,4252.179688,4242.307617,4267.692383,4246.282227,4216.922852,4250.000000,4250.128418,2975.000000,4.000000,95.000000,,,,0.000000,4.000000,4.000000,4.000000,4.000000,4.000000,4.000000,4.000000,4.000000,4.000000,4.000000,4.000000,4.000000,4.000000,4.000000,100.000000,,,,,,,,,,,,,,,,
1645707485.065369,223.000000,0.000000,4250.256348,4254.615234,4233.461426,4254.230957,4256.410156,4256.153809,4244.358887,4251.666504,4242.692383,4269.871582,4248.717773,4218.974121,4248.077148,4256.153809,3480.000000,4.000000,95.000000,,,,0.000000,4.000000,4.000000,4.000000,4.000000,4.000000,4.000000,4.000000,4.000000,4.000000,4.000000,4.000000,4.000000,4.000000,4.000000,100.000000,,,,,,,,,,,,,,,,
1645707485.069310,224.000000,0.000000,4258.846191,4262.563965,4237.820313,4262.563965,4257.948730,4255.000000,4244.871582,4250.897461,4243.974121,4272.051270,4248.333496,4226.025879,4246.153809,4258.333496,3336.000000,4.000000,95.000000,,,,0.000000,4.000000,4.000000,4.000000,4.000000,4.000000,4.000000,4.000000,4.000000,4.000000,4.000000,4.000000,4.000000,4.000000,4.000000,100.000000,,,,,,,,,,,,,,,,
1645707485.073250,225.000000,0.000000,4267.692383,4268.717773,4240.256348,4262.563965,4261.922852,4256.153809,4245.512695,4249.871582,4244.358887,4274.358887,4246.538574,4234.230957,4247.692383,4257.692383,3273.000000,4.000000,95.000000,,,,0.000000,4.000000,4.000000,4.000000,4.000000,4.000000,4.000000,4.000000,4.000000,4.000000,4.000000,4.000000,4.000000,4.000000,4.000000,100.000000,,,,,,,,,,,,,,,,
1645707485.077190,226.000000,0.000000,4271.538574,4269.615234,4240.641113,4255.256348,4265.769043,4258.205078,4244.102539,4248.717773,4242.563965,4274.871582,4246.282227,4237.820313,4253.333496,4257.179688,2975.000000,4.000000,95.000000,,,,0.000000,4.000000,4.000000,4.000000,4.000000,4.000000,4.000000,4.000000,4.000000,4.000000,4.000000,4.000000,4.000000,4.000000,4.000000,100.000000,,,,,,,,,,,,,,,,
1645707485.081130,227.000000,0.000000,4267.820313,4264.487305,4239.615234,4247.563965,4265.384766,4258.333496,4240.769043,4246.794922,4238.205078,4270.769043,4248.205078,4233.461426,4260.256348,4259.102539,3480.000000,4.000000,95.000000,,,,0.000000,4.000000,4.000000,4.000000,4.000000,4.000000,4.000000,4.000000,4.000000,4.000000,4.000000,4.000000,4.000000,4.000000,4.000000,100.000000,,,,,,,,,,,,,,,,
1645707485.085070,228.000000,0.000000,4259.230957,4256.794922,4238.717773,4245.641113,4259.487305,4254.871582,4237.436035,4243.717773,4233.205078,4261.794922,4251.153809,4223.205078,4263.974121,4262.307617,3336.000000,4.000000,95.000000,,,,0.000000,4.000000,4.000000,4.000000,4.000000,4.000000,4.000000,4.000000,4.000000,4.000000,4.000000,4.000000,4.000000,4.000000,4.000000,100.000000,,,,,,,,,,,,,,,,
1645707485.089010,229.000000,0.000000,4252.436035,4252.051270,4238.589844,4251.025879,4251.153809,4249.358887,4235.256348,4239.230957,4229.871582,4251.282227,4254.102539,4213.333496,4262.692383,4264.230957,3273.000000,4.000000,95.000000,,,,0.000000,4.000000,4.000000,4.000000,4.000000,4.000000,4.000000,4.000000,4.000000,4.000000,4.000000,4.000000,4.000000,4.000000,4.000000,100.000000,,,,,,,,,,,,,,,,
1645707485.092950,230.000000,0.000000,4252.692383,4252.948730,4239.102539,4260.128418,4245.897461,4244.615234,4233.589844,4233.461426,4229.487305,4243.589844,4256.025879,4210.384766,4258.589844,4262.051270,2975.000000,4.000000,95.000000,,,,0.000000,4.000000,4.000000,4.000000,4.000000,4.000000,4.000000,4.000000,4.000000,4.000000,4.000000,4.000000,4.000000,4.000000,4.000000,100.000000,,,,,,,,,,,,,,,,
1645707485.096890,231.000000,0.000000,4259.102539,4257.179688,4240.384766,4265.897461,4246.025879,4242.307617,4231.666504,4227.948730,4231.282227,4241.538574,4256.538574,4215.128418,4254.230957,4254.615234,3480.000000,4.000000,95.000000,,,,0.000000,4.000000,4.000000,4.000000,4.000000,4.000000,4.000000,4.000000,4.000000,4.000000,4.000000,4.000000,4.000000,4.000000,4.000000,100.000000,,,,,,,,,,,,,,,,
1645707485.100830,232.000000,0.000000,4266.025879,4260.384766,4242.179688,4263.461426,4249.102539,4241.666504,4229.871582,4224.615234,4232.820313,4243.974121,4255.000000,4222.948730,4251.410156,4243.717773,3336.000000,4.000000,95.000000,,,,0.000000,4.000000,4.000000,4.000000,4.000000,4.000000,4.000000,4.000000,4.000000,4.000000,4.000000,4.000000,4.000000,4.000000,4.000000,100.000000,,,,,,,,,,,,,,,,
1645707485.104770,233.000000,0.000000,4268.461426,4260.000000,4244.615234,4253.333496,4251.922852,4241.794922,4230.512695,4225.128418,4232.179688,4248.205078,4251.538574,4228.205078,4250.384766,4234.871582,3273.000000,4.000000,95.000000,,,,0.000000,4.000000,4.000000,4.000000,4.000000,4.000000,4.000000,4.000000,4.000000,4.000000,4.000000,4.000000,4.000000,4.000000,4.000000,100.000000,,,,,,,,,,,,,,,,
1645707485.108711,234.000000,0.000000,4266.410156,4258.205078,4247.563965,4242.307617,4253.077148,4242.307617,4234.230957,4229.230957,4230.128418,4251.794922,4247.436035,4228.461426,4251.153809,4234.743652,2975.000000,4.000000,95.000000,,,,0.000000,4.000000,4.000000,4.000000,4.000000,4.000000,4.000000,4.000000,4.000000,4.000000,4.000000,4.000000,4.000000,4.000000,4.000000,100.000000,,,,,,,,,,,,,,,,
1645707485.112651,235.000000,0.000000,4263.846191,4257.692383,4249.871582,4238.077148,4253.974121,4242.948730,4238.974121,4234.358887,4228.589844,4254.102539,4244.487305,4225.256348,4253.461426,4245.384766,3480.000000,4.000000,95.000000,,,,0.000000,4.000000,4.000000,4.000000,4.000000,4.000000,4.000000,4.000000,4.000000,4.000000,4.000000,4.000000,4.000000,4.000000,4.000000,100.000000,,,,,,,,,,,,,,,,
1645707485.116591,236.000000,0.000000,4263.077148,4258.461426,4250.384766,4242.307617,4254.230957,4243.461426,4241.282227,4236.922852,4228.461426,4254.615234,4242.820313,4220.897461,4255.384766,4260.384766,3336.000000,4.000000,95.000000,,,,0.000000,4.000000,4.000000,4.000000,4.000000,4.000000,4.000000,4.000000,4.000000,4.000000,4.000000,4.000000,4.000000,4.000000,4.000000,100.000000,,,,,,,,,,,,,,,,
1645707485.120631,237.000000,0.000000,4261.538574,4257.436035,4248.333496,4249.102539,4252.179688,4242.436035,4239.615234,4235.128418,4228.717773,4251.538574,4241.282227,4217.179688,4253.589844,4268.205078,3273.000000,4.000000,95.000000,,,,0.000000,4.000000,4.000000,4.000000,4.000000,4.000000,4.000000,4.000000,4.000000,4.000000,4.000000,4.000000,4.000000,4.000000,4.000000,100.000000,,,,,,,,,,,,,,,,
1645707485.124571,238.000000,0.000000,4256.410156,4252.179688,4244.230957,4250.897461,4246.538574,4240.128418,4235.256348,4230.000000,4228.077148,4244.230957,4238.333496,4214.743652,4246.794922,4262.179688,2975.000000,4.000000,95.000000,,,,0.000000,4.000000,4.000000,4.000000,4.000000,4.000000,4.000000,4.000000,4.000000,4.000000,4.000000,4.000000,4.000000,4.000000,4.000000,100.000000,,,,,,,,,,,,,,,,
1645707485.128411,239.000000,0.000000,4248.846191,4243.974121,4238.717773,4244.487305,4240.000000,4237.692383,4230.769043,4224.230957,4226.922852,4235.641113,4233.974121,4213.974121,4237.948730,4246.666504,3480.000000,4.000000,95.000000,,,,0.000000,4.000000,4.000000,4.000000,4.000000,4.000000,4.000000,4.000000,4.000000,4.000000,4.000000,4.000000,4.000000,4.000000,4.000000,100.000000,,,,,,,,,,,,,,,,
1645707485.132351,240.000000,0.000000,4244.102539,4237.436035,4233.717773,4233.846191,4236.794922,4236.922852,4228.333496,4220.641113,4226.538574,4230.769043,4230.000000,4215.000000,4232.948730,4234.102539,3336.000000,4.000000,95.000000,,,,0.000000,4.000000,4.000000,4.000000,4.000000,4.000000,4.000000,4.000000,4.000000,4.000000,4.000000,4.000000,4.000000,4.000000,4.000000,100.000000,,,,,,,,,,,,,,,,
1645707485.136291,241.000000,0.000000,4245.897461,4235.897461,4231.410156,4226.666504,4238.846191,4238.077148,4228.205078,4221.410156,4227.563965,4232.307617,4227.820313,4217.436035,4235.897461,4233.717773,3273.000000,4.000000,95.000000,,,,0.000000,4.000000,4.000000,4.000000,4.000000,4.000000,4.000000,4.000000,4.000000,4.000000,4.000000,4.000000,4.000000,4.000000,4.000000,100.000000,,,,,,,,,,,,,,,,
1645707485.140231,242.000000,0.000000,4252.436035,4238.974121,4233.205078,4227.692383,4243.333496,4239.358887,4230.256348,4226.922852,4229.230957,4237.563965,4227.692383,4219.743652,4245.000000,4245.000000,2975.000000,4.000000,95.000000,,,,0.000000,4.000000,4.000000,4.000000,4.000000,4.000000,4.000000,4.000000,4.000000,4.000000,4.000000,4.000000,4.000000,4.000000,4.000000,100.000000,,,,,,,,,,,,,,,,
1645707485.144172,243.000000,0.000000,4257.948730,4243.589844,4237.563965,4235.641113,4245.769043,4239.487305,4233.205078,4235.769043,4231.025879,4241.794922,4229.615234,4220.256348,4253.846191,4258.077148,3480.000000,4.000000,95.000000,,,,0.000000,4.000000,4.000000,4.000000,4.000000,4.000000,4.000000,4.000000,4.000000,4.000000,4.000000,4.000000,4.000000,4.000000,4.000000,100.000000,,,,,,,,,,,,,,,,
1645707485.148112,244.000000,0.000000,4257.948730,4247.051270,4240.512695,4244.871582,4244.230957,4238.846191,4235.384766,4244.487305,4232.436035,4242.820313,4233.589844,4218.461426,4255.897461,4263.205078,3336.000000,4.000000,95.000000,,,,0.000000,4.000000,4.000000,4.000000,4.000000,4.000000,4.000000,4.000000,4.000000,4.000000,4.000000,4.000000,4.000000,4.000000,4.000000,100.000000,,,,,,,,,,,,,,,,
1645707485.152052,245.000000,0.000000,4252.563965,4248.333496,4239.102539,4249.358887,4240.641113,4238.846191,4234.871582,4248.974121,4233.333496,4242.692383,4238.717773,4215.512695,4249.871582,4256.922852,3273.000000,4.000000,95.000000,,,,0.000000,4.000000,4.000000,4.000000,4.000000,4.000000,4.000000,4.000000,4.000000,4.000000,4.000000,4.000000,4.000000,4.000000,4.000000,100.000000,,,,,,,,,,,,,,,,
1645707485.155992,246.000000,0.000000,4245.384766,4247.948730,4233.846191,4247.179688,4238.205078,4240.512695,4232.307617,4247.563965,4233.717773,4244.871582,4242.307617,4213.333496,4239.230957,4244.230957,2975.000000,4.000000,95.000000,,,,0.000000,4.000000,4.000000,4.000000,4.000000,4.000000,4.000000,4.000000,4.000000,4.000000,4.000000,4.000000,4.000000,4.000000,4.000000,100.000000,,,,,,,,,,,,,,,,
1645707485.159932,247.000000,0.000000,4240.256348,4246.153809,4228.461426,4240.897461,4238.717773,4242.948730,4230.384766,4241.666504,4233.717773,4249.743652,4241.666504,4212.948730,4230.000000,4234.230957,3480.000000,4.000000,95.000000,,,,0.000000,4.000000,4.000000,4.000000,4.000000,4.000000,4.000000,4.000000,4.000000,4.000000,4.000000,4.000000,4.000000,4.000000,4.000000,100.000000,,,,,,,,,,,,,,,,
1645707485.163872,248.000000,0.000000,4238.205078,4242.948730,4226.666504,4235.641113,4241.153809,4244.487305,4231.666504,4235.769043,4233.205078,4254.102539,4237.436035,4214.230957,4226.282227,4233.333496,3336.000000,4.000000,95.000000,,,,0.000000,4.000000,4.000000,4.000000,4.000000,4.000000,4.000000,4.000000,4.000000,4.000000,4.000000,4.000000,4.000000,4.000000,4.000000,100.000000,,,,,,,,,,,,,,,,
1645707485.167812,249.000000,0.000000,4238.205078,4239.743652,4228.846191,4235.128418,4244.102539,4244.487305,4235.512695,4233.461426,4232.820313,4255.512695,4233.077148,4215.897461,4230.000000,4240.897461,3273.000000,4.000000,95.000000,,,,0.000000,4.000000,4.000000,4.000000,4.000000,4.000000,4.000000,4.000000,4.000000,4.000000,4.000000,4.000000,4.000000,4.000000,4.000000,100.000000,,,,,,,,,,,,,,,,
1645707485.171752,250.000000,0.000000,4238.333496,4238.589844,4233.205078,4238.461426,4246.025879,4243.974121,4238.717773,4235.897461,4233.333496,4254.615234,4232.563965,4216.922852,4239.487305,4249.487305,2975.000000,4.000000,95.000000,,,,0.000000,4.000000,4.000000,4.000000,4.000000,4.000000,4.000000,4.000000,4.000000,4.000000,4.000000,4.000000,4.000000,4.000000,4.000000,100.000000,,,,,,,,,,,,,,,,
1645707485.175692,251.000000,0.000000,4237.307617,4240.256348,4236.666504,4241.282227,4245.512695,4243.846191,4238.589844,4240.641113,4234.871582,4253.461426,4237.051270,4216.794922,4250.512695,4251.153809,3480.000000,4.000000,95.000000,,,,0.000000,4.000000,4.000000,4.000000,4.000000,4.000000,4.000000,4.000000,4.000000,4.000000,4.000000,4.000000,4.000000,4.000000,4.000000,100.000000,,,,,,,,,,,,,,,,
1645707485.179533,252.000000,0.000000,4235.384766,4242.820313,4237.563965,4239.615234,4241.922852,4243.333496,4235.512695,4243.974121,4236.410156,4252.692383,4243.974121,4215.641113,4257.436035,4243.333496,3336.000000,4.000000,95.000000,,,,0.000000,4.000000,4.000000,4.000000,4.000000,4.000000,4.000000,4.000000,4.000000,4.000000,4.000000,4.000000,4.000000,4.000000,4.000000,100.000000,,,,,,,,,,,,,,,,
1645707485.183473,253.000000,0.000000,4233.846191,4242.820313,4236.025879,4233.717773,4236.410156,4241.794922,4232.307617,4243.461426,4236.282227,4250.641113,4249.230957,4214.102539,4257.051270,4232.436035,3273.000000,4.000000,95.000000,,,,0.000000,4.000000,4.000000,4.000000,4.000000,4.000000,4.000000,4.000000,4.000000,4.000000,4.000000,4.000000,4.000000,4.000000,4.000000,100.000000,,,,,,,,,,,,,,,,
1645707485.187413,254.000000,0.000000,4233.974121,4238.205078,4233.974121,4227.820313,4231.410156,4238.846191,4230.897461,4238.846191,4234.358887,4246.922852,4250.000000,4212.820313,4250.897461,4227.179688,2975.000000,4.000000,95.000000,,,,0.000000,4.000000,4.000000,4.000000,4.000000,4.000000,4.000000,4.000000,4.000000,4.000000,4.000000,4.000000,4.000000,4.000000,4.000000,100.000000,,,,,,,,,,,,,,,,
1645707485.191353,255.000000,0.000000,4235.769043,4231.153809,4233.077148,4226.025879,4229.230957,4235.512695,4230.512695,4232.692383,4231.922852,4242.948730,4246.666504,4212.820313,4244.102539,4231.538574,115.000000,4.000000,95.000000,,,,0.000000,4.000000,4.000000,4.000000,4.000000,4.000000,4.000000,4.000000,4.000000,4.000000,4.000000,4.000000,4.000000,4.000000,4.000000,100.000000,,,,,,,,,,,,,,,,
1645707485.195293,0.000000,0.000000,4237.948730,4226.282227,4235.000000,4228.846191,4230.128418,4233.974121,4229.871582,4228.333496,4230.641113,4241.794922,4241.410156,4214.487305,4241.410156,4241.025879,3243.000000,4.000000,95.000000,,,,0.000000,4.000000,4.000000,4.000000,4.000000,4.000000,4.000000,4.000000,4.000000,4.000000,4.000000,4.000000,4.000000,4.000000,4.000000,100.000000,,,,,,,,,,,,,,,,
1645707485.199233,1.000000,0.000000,4239.102539,4227.820313,4239.871582,4234.358887,4232.436035,4235.000000,4229.358887,4228.717773,4231.153809,4244.743652,4236.282227,4216.666504,4243.846191,4247.948730,3019.000000,4.000000,95.000000,,,,0.000000,4.000000,4.000000,4.000000,4.000000,4.000000,4.000000,4.000000,4.000000,4.000000,4.000000,4.000000,4.000000,4.000000,4.000000,100.000000,,,,,,,,,,,,,,,,
1645707485.203173,2.000000,0.000000,4239.487305,4235.769043,4246.410156,4240.512695,4234.358887,4237.563965,4230.769043,4233.461426,4232.563965,4250.769043,4233.077148,4217.179688,4248.846191,4248.333496,3509.000000,4.000000,95.000000,,,,0.000000,4.000000,4.000000,4.000000,4.000000,4.000000,4.000000,4.000000,4.000000,4.000000,4.000000,4.000000,4.000000,4.000000,4.000000,100.000000,,,,,,,,,,,,,,,,
1645707485.207113,3.000000,0.000000,4240.641113,4246.153809,4251.282227,4245.512695,4235.256348,4240.128418,4233.717773,4238.589844,4233.461426,4257.179688,4232.820313,4213.846191,4252.563965,4243.717773,3243.000000,4.000000,95.000000,,,,0.000000,4.000000,4.000000,4.000000,4.000000,4.000000,4.000000,4.000000,4.000000,4.000000,4.000000,4.000000,4.000000,4.000000,4.000000,100.000000,,,,,,,,,,,,,,,,
1645707485.211053,4.000000,0.000000,4243.077148,4253.077148,4251.794922,4247.563965,4235.897461,4240.769043,4235.384766,4240.000000,4232.948730,4260.769043,4235.384766,4207.179688,4251.922852,4239.102539,3547.000000,4.000000,95.000000,,,,0.000000,4.000000,4.000000,4.000000,4.000000,4.000000,4.000000,4.000000,4.000000,4.000000,4.000000,4.000000,4.000000,4.000000,4.000000,100.000000,,,,,,,,,,,,,,,,
1645707485.214994,5.000000,0.000000,4244.615234,4252.692383,4248.333496,4244.871582,4236.153809,4238.846191,4233.077148,4236.666504,4231.025879,4259.743652,4238.717773,4201.025879,4246.794922,4237.692383,3227.000000,4.000000,95.000000,,,,0.000000,4.000000,4.000000,4.000000,4.000000,4.000000,4.000000,4.000000,4.000000,4.000000,4.000000,4.000000,4.000000,4.000000,4.000000,100.000000,,,,,,,,,,,,,,,,
1645707485.218934,6.000000,0.000000,4242.692383,4245.128418,4244.358887,4238.077148,4235.256348,4234.615234,4227.307617,4231.282227,4228.974121,4253.589844,4239.230957,4200.512695,4239.102539,4238.461426,2758.000000,4.000000,95.000000,,,,0.000000,4.000000,4.000000,4.000000,4.000000,4.000000,4.000000,4.000000,4.000000,4.000000,4.000000,4.000000,4.000000,4.000000,4.000000,100.000000,,,,,,,,,,,,,,,,
1645707485.222874,7.000000,0.000000,4237.436035,4235.000000,4243.077148,4230.256348,4232.307617,4229.358887,4222.051270,4227.692383,4228.077148,4244.230957,4234.615234,4206.794922,4233.589844,4238.974121,2803.000000,4.000000,95.000000,,,,0.000000,4.000000,4.000000,4.000000,4.000000,4.000000,4.000000,4.000000,4.000000,4.000000,4.000000,4.000000,4.000000,4.000000,4.000000,100.000000,,,,,,,,,,,,,,,,
1645707485.226814,8.000000,0.000000,4232.563965,4228.205078,4245.128418,4226.410156,4228.717773,4225.769043,4220.641113,4227.948730,4228.717773,4236.410156,4226.794922,4215.512695,4234.615234,4237.820313,1341.000000,4.000000,95.000000,,,,0.000000,4.000000,4.000000,4.000000,4.000000,4.000000,4.000000,4.000000,4.000000,4.000000,4.000000,4.000000,4.000000,4.000000,4.000000,100.000000,,,,,,,,,,,,,,,,
1645707485.230754,9.000000,0.000000,4232.692383,4227.692383,4248.589844,4229.487305,4226.538574,4225.769043,4223.077148,4230.897461,4230.512695,4234.230957,4220.256348,4220.256348,4243.589844,4236.794922,3289.000000,4.000000,95.000000,,,,0.000000,4.000000,4.000000,4.000000,4.000000,4.000000,4.000000,4.000000,4.000000,4.000000,4.000000,4.000000,4.000000,4.000000,4.000000,100.000000,,,,,,,,,,,,,,,,
1645707485.234694,10.000000,0.000000,4238.333496,4231.153809,4251.153809,4236.794922,4226.666504,4228.717773,4227.051270,4233.461426,4232.436035,4237.051270,4218.846191,4216.922852,4255.897461,4237.820313,3018.000000,4.000000,95.000000,,,,0.000000,4.000000,4.000000,4.000000,4.000000,4.000000,4.000000,4.000000,4.000000,4.000000,4.000000,4.000000,4.000000,4.000000,4.000000,100.000000,,,,,,,,,,,,,,,,
1645707485.238634,11.000000,0.000000,4245.256348,4233.717773,4252.179688,4241.794922,4227.692383,4232.307617,4229.615234,4233.717773,4233.589844,4240.384766,4221.922852,4208.333496,4264.743652,4240.000000,3461.000000,4.000000,95.000000,,,,0.000000,4.000000,4.000000,4.000000,4.000000,4.000000,4.000000,4.000000,4.000000,4.000000,4.000000,4.000000,4.000000,4.000000,4.000000,100.000000,,,,,,,,,,,,,,,,
1645707485.242574,12.000000,0.000000,4247.692383,4232.563965,4252.436035,4239.743652,4227.820313,4233.974121,4230.384766,4232.436035,4233.205078,4239.871582,4225.641113,4200.897461,4266.153809,4239.871582,3388.000000,4.000000,95.000000,,,,0.000000,4.000000,4.000000,4.000000,4.000000,4.000000,4.000000,4.000000,4.000000,4.000000,4.000000,4.000000,4.000000,4.000000,4.000000,100.000000,,,,,,,,,,,,,,,,
1645707485.246514,13.000000,0.000000,4243.974121,4230.256348,4253.205078,4232.307617,4227.307617,4233.461426,4229.615234,4231.922852,4231.410156,4235.897461,4226.538574,4201.025879,4263.589844,4235.641113,3073.000000,4.000000,95.000000,,,,0.000000,4.000000,4.000000,4.000000,4.000000,4.000000,4.000000,4.000000,4.000000,4.000000,4.000000,4.000000,4.000000,4.000000,4.000000,100.000000,,,,,,,,,,,,,,,,
1645707485.250554,14.000000,0.000000,4238.077148,4231.922852,4254.871582,4227.051270,4227.820313,4232.692383,4228.333496,4233.077148,4229.743652,4233.077148,4224.615234,4208.846191,4264.102539,4230.512695,3018.000000,4.000000,95.000000,,,,0.000000,4.000000,4.000000,4.000000,4.000000,4.000000,4.000000,4.000000,4.000000,4.000000,4.000000,4.000000,4.000000,4.000000,4.000000,100.000000,,,,,,,,,,,,,,,,
1645707485.254494,15.000000,0.000000,4236.282227,4239.102539,4256.153809,4230.384766,4230.769043,4232.436035,4227.307617,4235.641113,4229.871582,4234.615234,4222.692383,4219.102539,4271.410156,4230.000000,3461.000000,4.000000,95.000000,,,,0.000000,4.000000,4.000000,4.000000,4.000000,4.000000,4.000000,4.000000,4.000000,4.000000,4.000000,4.000000,4.000000,4.000000,4.000000,100.000000,,,,,,,,,,,,,,,,
1645707485.258435,16.000000,0.000000,4240.641113,4247.307617,4256.282227,4241.025879,4234.230957,4231.922852,4227.179688,4238.205078,4232.179688,4238.974121,4222.179688,4223.205078,4281.410156,4235.897461,3388.000000,4.000000,95.000000,,,,0.000000,4.000000,4.000000,4.000000,4.000000,4.000000,4.000000,4.000000,4.000000,4.000000,4.000000,4.000000,4.000000,4.000000,4.000000,100.000000,,,,,,,,,,,,,,,,
1645707485.262375,17.000000,0.000000,4246.538574,4249.487305,4254.871582,4250.128418,4234.743652,4229.743652,4227.563965,4239.487305,4234.743652,4241.666504,4222.563965,4215.769043,4284.615234,4243.589844,3073.000000,4.000000,95.000000,,,,0.000000,4.000000,4.000000,4.000000,4.000000,4.000000,4.000000,4.000000,4.000000,4.000000,4.000000,4.000000,4.000000,4.000000,4.000000,100.000000,,,,,,,,,,,,,,,,
1645707485.266315,18.000000,0.000000,4247.692383,4243.589844,4252.436035,4249.102539,4231.666504,4225.641113,4227.051270,4237.820313,4234.358887,4239.102539,4221.410156,4199.102539,4274.615234,4245.384766,3018.000000,4.000000,95.000000,,,,0.000000,4.000000,4.000000,4.000000,4.000000,4.000000,4.000000,4.000000,4.000000,4.000000,4.000000,4.000000,4.000000,4.000000,4.000000,100.000000,,,,,,,,,,,,,,,,
1645707485.270255,19.000000,0.000000,4241.282227,4234.871582,4249.102539,4237.436035,4227.820313,4221.922852,4224.230957,4232.436035,4229.487305,4232.692383,4218.589844,4181.922852,4253.461426,4237.436035,3461.000000,4.000000,95.000000,,,,0.000000,4.000000,4.000000,4.000000,4.000000,4.000000,4.000000,4.000000,4.000000,4.000000,4.000000,4.000000,4.000000,4.000000,4.000000,100.000000,,,,,,,,,,,,,,,,
1645707485.274195,20.000000,0.000000,4232.051270,4230.384766,4245.769043,4224.230957,4227.307617,4221.025879,4219.615234,4224.230957,4222.692383,4226.922852,4215.641113,4174.102539,4231.025879,4223.205078,3388.000000,4.000000,95.000000,,,,0.000000,4.000000,4.000000,4.000000,4.000000,4.000000,4.000000,4.000000,4.000000,4.000000,4.000000,4.000000,4.000000,4.000000,4.000000,100.000000,,,,,,,,,,,,,,,,
1645707485.278135,21.000000,0.000000,4226.922852,4233.205078,4243.846191,4220.641113,4230.769043,4223.205078,4216.025879,4216.410156,4217.692383,4225.384766,4214.102539,4179.358887,4218.077148,4212.179688,3073.000000,4.000000,95.000000,,,,0.000000,4.000000,4.000000,4.000000,4.000000,4.000000,4.000000,4.000000,4.000000,4.000000,4.000000,4.000000,4.000000,4.000000,4.000000,100.000000,,,,,,,,,,,,,,,,
1645707485.282075,22.000000,0.000000,4229.358887,4239.743652,4244.102539,4230.641113,4234.230957,4226.153809,4216.410156,4212.948730,4217.436035,4228.461426,4214.230957,4193.333496,4218.846191,4212.179688,3018.000000,4.000000,95.000000,,,,0.000000,4.000000,4.000000,4.000000,4.000000,4.000000,4.000000,4.000000,4.000000,4.000000,4.000000,4.000000,4.000000,4.000000,4.000000,100.000000,,,,,,,,,,,,,,,,
1645707485.286015,23.000000,0.000000,4236.410156,4243.974121,4245.897461,4246.922852,4233.205078,4227.051270,4220.000000,4215.000000,4221.153809,4233.846191,4215.384766,4206.538574,4229.487305,4224.230957,3461.000000,4.000000,95.000000,,,,0.000000,4.000000,4.000000,4.000000,4.000000,4.000000,4.000000,4.000000,4.000000,4.000000,4.000000,4.000000,4.000000,4.000000,4.000000,100.000000,,,,,,,,,,,,,,,,
1645707485.289955,24.000000,0.000000,4242.563965,4243.589844,4247.179688,4257.948730,4227.563965,4225.897461,4223.333496,4220.256348,4226.153809,4239.102539,4217.179688,4212.051270,4241.922852,4240.641113,3388.000000,4.000000,95.000000,,,,0.000000,4.000000,4.000000,4.000000,4.000000,4.000000,4.000000,4.000000,4.000000,4.000000,4.000000,4.000000,4.000000,4.000000,4.000000,100.000000,,,,,,,,,,,,,,,,
1645707485.293896,25.000000,0.000000,4244.358887,4240.512695,4247.051270,4256.538574,4221.282227,4223.974121,4223.461426,4224.615234,4229.487305,4242.563965,4220.128418,4209.102539,4249.230957,4250.256348,3073.000000,4.000000,95.000000,,,,0.000000,4.000000,4.000000,4.000000,4.000000,4.000000,4.000000,4.000000,4.000000,4.000000,4.000000,4.000000,4.000000,4.000000,4.000000,100.000000,,,,,,,,,,,,,,,,
1645707485.297836,26.000000,0.000000,4241.794922,4237.692383,4245.769043,4245.512695,4218.974121,4222.948730,4221.153809,4226.025879,4229.871582,4242.436035,4223.846191,4203.077148,4249.230957,4245.512695,3018.000000,4.000000,95.000000,,,,0.000000,4.000000,4.000000,4.000000,4.000000,4.000000,4.000000,4.000000,4.000000,4.000000,4.000000,4.000000,4.000000,4.000000,4.000000,100.000000,,,,,,,,,,,,,,,,
1645707485.301776,27.000000,0.000000,4237.563965,4236.538574,4244.871582,4234.102539,4221.153809,4222.948730,4219.358887,4225.769043,4228.461426,4238.846191,4227.307617,4200.641113,4245.000000,4228.077148,3461.000000,4.000000,95.000000,,,,0.000000,4.000000,4.000000,4.000000,4.000000,4.000000,4.000000,4.000000,4.000000,4.000000,4.000000,4.000000,4.000000,4.000000,4.000000,100.000000,,,,,,,,,,,,,,,,
1645707485.305716,28.000000,0.000000,4234.230957,4236.025879,4244.615234,4229.871582,4225.512695,4224.102539,4221.153809,4226.410156,4227.051270,4234.487305,4228.974121,4204.871582,4241.025879,4207.948730,3388.000000,4.000000,95.000000,,,,0.000000,4.000000,4.000000,4.000000,4.000000,4.000000,4.000000,4.000000,4.000000,4.000000,4.000000,4.000000,4.000000,4.000000,4.000000,100.000000,,,,,,,,,,,,,,,,
1645707485.309656,29.000000,0.000000,4232.948730,4234.871582,4244.358887,4233.461426,4228.846191,4226.666504,4225.897461,4229.743652,4227.563965,4233.461426,4228.333496,4213.461426,4240.256348,4198.077148,3073.000000,4.000000,95.000000,,,,0.000000,4.000000,4.000000,4.000000,4.000000,4.000000,4.000000,4.000000,4.000000,4.000000,4.000000,4.000000,4.000000,4.000000,4.000000,100.000000,,,,,,,,,,,,,,,,
1645707485.313596,30.000000,0.000000,4232.692383,4233.205078,4242.820313,4239.230957,4230.000000,4230.384766,4230.769043,4234.358887,4230.256348,4236.794922,4225.769043,4220.769043,4241.538574,4204.615234,3018.000000,4.000000,95.000000,,,,0.000000,4.000000,4.000000,4.000000,4.000000,4.000000,4.000000,4.000000,4.000000,4.000000,4.000000,4.000000,4.000000,4.000000,4.000000,100.000000,,,,,,,,,,,,,,,,
1645707485.317536,31.000000,0.000000,4231.666504,4231.666504,4239.487305,4240.512695,4229.102539,4233.974121,4233.205078,4237.820313,4233.717773,4240.641113,4221.794922,4221.153809,4241.538574,4222.692383,3461.000000,4.000000,95.000000,,,,0.000000,4.000000,4.000000,4.000000,4.000000,4.000000,4.000000,4.000000,4.000000,4.000000,4.000000,4.000000,4.000000,4.000000,4.000000,100.000000,,,,,,,,,,,,,,,,
1645707485.321476,32.000000,0.000000,4229.615234,4230.897461,4235.512695,4235.641113,4227.051270,4235.000000,4233.205078,4238.461426,4235.512695,4240.256348,4217.307617,4213.717773,4238.077148,4240.128418,0.000000,4.000000,95.000000,,,,0.000000,4.000000,4.000000,4.000000,4.000000,4.000000,4.000000,4.000000,4.000000,4.000000,4.000000,4.000000,4.000000,4.000000,4.000000,100.000000,,,,,,,,,,,,,,,,
1645707485.325316,33.000000,0.000000,4227.820313,4230.000000,4232.692383,4228.205078,4224.871582,4232.692383,4232.179688,4236.282227,4233.717773,4234.230957,4214.102539,4202.692383,4232.051270,4246.922852,0.000000,4.000000,95.000000,,,,0.000000,4.000000,4.000000,4.000000,4.000000,4.000000,4.000000,4.000000,4.000000,4.000000,4.000000,4.000000,4.000000,4.000000,4.000000,100.000000,,,,,,,,,,,,,,,,
1645707485.329257,34.000000,0.000000,4227.820313,4228.077148,4231.666504,4223.846191,4223.461426,4228.461426,4231.538574,4232.436035,4228.974121,4226.282227,4214.230957,4194.230957,4226.666504,4242.563965,0.000000,4.000000,95.000000,,,,0.000000,4.000000,4.000000,4.000000,4.000000,4.000000,4.000000,4.000000,4.000000,4.000000,4.000000,4.000000,4.000000,4.000000,4.000000,100.000000,,,,,,,,,,,,,,,,
1645707485.333197,35.000000,0.000000,4229.358887,4224.871582,4232.051270,4225.384766,4222.436035,4225.384766,4231.153809,4228.461426,4224.230957,4222.307617,4217.436035,4192.948730,4225.000000,4233.974121,0.000000,4.000000,95.000000,,,,0.000000,4.000000,4.000000,4.000000,4.000000,4.000000,4.000000,4.000000,4.000000,4.000000,4.000000,4.000000,4.000000,4.000000,4.000000,100.000000,,,,,,,,,,,,,,,,
1645707485.337137,36.000000,0.000000,4230.641113,4220.897461,4232.820313,4230.641113,4221.666504,4224.743652,4230.512695,4226.410156,4222.692383,4225.512695,4221.153809,4198.589844,4226.025879,4228.077148,0.000000,4.000000,95.000000,,,,0.000000,4.000000,4.000000,4.000000,4.000000,4.000000,4.000000,4.000000,4.000000,4.000000,4.000000,4.000000,4.000000,4.000000,4.000000,100.000000,,,,,,,,,,,,,,,,
1645707485.341077,37.000000,0.000000,4230.256348,4218.333496,4233.717773,4234.615234,4221.410156,4225.897461,4230.256348,4227.307617,4224.743652,4234.102539,4222.692383,4207.820313,4227.307617,4226.025879,0.000000,4.000000,95.000000,,,,0.000000,4.000000,4.000000,4.000000,4.000000,4.000000,4.000000,4.000000,4.000000,4.000000,4.000000,4.000000,4.000000,4.000000,4.000000,100.000000,,,,,,,,,,,,,,,,
1645707485.345017,38.000000,0.000000,4229.871582,4219.615234,4234.487305,4233.717773,4223.205078,4227.307617,4231.153809,4230.384766,4227.948730,4242.436035,4222.179688,4215.769043,4227.179688,4225.000000,0.000000,4.000000,95.000000,,,,0.000000,4.000000,4.000000,4.000000,4.000000,4.000000,4.000000,4.000000,4.000000,4.000000,4.000000,4.000000,4.000000,4.000000,4.000000,100.000000,,,,,,,,,,,,,,,,
1645707485.348957,39.000000,0.000000,4232.179688,4226.025879,4235.512695,4228.846191,4227.436035,4228.333496,4232.820313,4233.461426,4229.230957,4245.769043,4221.794922,4218.717773,4227.051270,4222.563965,0.000000,4.000000,95.000000,,,,0.000000,4.000000,4.000000,4.000000,4.000000,4.000000,4.000000,4.000000,4.000000,4.000000,4.000000,4.000000,4.000000,4.000000,4.000000,100.000000,,,,,,,,,,,,,,,,
1645707485.352897,40.000000,0.000000,4236.922852,4235.769043,4236.538574,4224.487305,4232.692383,4230.000000,4233.589844,4233.974121,4227.820313,4243.589844,4222.820313,4216.282227,4228.846191,4219.743652,0.000000,4.000000,95.000000,,,,0.000000,4.000000,4.000000,4.000000,4.000000,4.000000,4.000000,4.000000,4.000000,4.000000,4.000000,4.000000,4.000000,4.000000,4.000000,100.000000,,,,,,,,,,,,,,,,
1645707485.356837,41.000000,0.000000,4240.641113,4243.846191,4237.307617,4224.230957,4235.384766,4232.563965,4232.436035,4231.153809,4224.743652,4239.230957,4224.487305,4210.769043,4232.436035,4218.461426,0.000000,4.000000,95.000000,,,,0.000000,4.000000,4.000000,4.000000,4.000000,4.000000,4.000000,4.000000,4.000000,4.000000,4.000000,4.000000,4.000000,4.000000,4.000000,100.000000,,,,,,,,,,,,,,,,
1645707485.360777,42.000000,0.000000,4238.717773,4245.641113,4238.077148,4227.307617,4233.461426,4234.743652,4230.512695,4226.666504,4222.051270,4235.641113,4224.615234,4206.025879,4234.358887,4220.000000,0.000000,4.000000,95.000000,,,,0.000000,4.000000,4.000000,4.000000,4.000000,4.000000,4.000000,4.000000,4.000000,4.000000,4.000000,4.000000,4.000000,4.000000,4.000000,100.000000,,,,,,,,,,,,,,,,
1645707485.364718,43.000000,0.000000,4230.769043,4240.000000,4238.461426,4230.128418,4228.333496,4234.743652,4230.000000,4223.077148,4221.410156,4234.230957,4222.563965,4204.871582,4232.307617,4223.205078,0.000000,4.000000,95.000000,,,,0.000000,4.000000,4.000000,4.000000,4.000000,4.000000,4.000000,4.000000,4.000000,4.000000,4.000000,4.000000,4.000000,4.000000,4.000000,100.000000,,,,,,,,,,,,,,,,
1645707485.368658,44.000000,0.000000,4221.666504,4229.487305,4238.333496,4229.358887,4224.358887,4232.436035,4231.538574,4221.410156,4223.461426,4234.230957,4220.512695,4207.307617,4227.436035,4227.179688,0.000000,4.000000,95.000000,,,,0.000000,4.000000,4.000000,4.000000,4.000000,4.000000,4.000000,4.000000,4.000000,4.000000,4.000000,4.000000,4.000000,4.000000,4.000000,100.000000,,,,,,,,,,,,,,,,
1645707485.372598,45.000000,0.000000,4217.307617,4218.717773,4237.692383,4225.512695,4224.615234,4229.871582,4233.461426,4221.410156,4226.794922,4234.615234,4221.410156,4210.769043,4223.846191,4232.436035,0.000000,4.000000,95.000000,,,,0.000000,4.000000,4.000000,4.000000,4.000000,4.000000,4.000000,4.000000,4.000000,4.000000,4.000000,4.000000,4.000000,4.000000,4.000000,100.000000,,,,,,,,,,,,,,,,
1645707485.376538,46.000000,0.000000,4220.000000,4211.794922,4237.692383,4221.666504,4227.563965,4228.846191,4234.102539,4222.820313,4229.358887,4235.256348,4225.512695,4212.563965,4224.102539,4239.230957,0.000000,4.000000,95.000000,,,,0.000000,4.000000,4.000000,4.000000,4.000000,4.000000,4.000000,4.000000,4.000000,4.000000,4.000000,4.000000,4.000000,4.000000,4.000000,100.000000,,,,,,,,,,,,,,,,
1645707485.380478,47.000000,0.000000,4226.666504,4210.641113,4239.102539,4221.025879,4228.589844,4229.358887,4233.461426,4225.769043,4229.871582,4236.410156,4230.512695,4212.179688,4227.051270,4245.256348,0.000000,4.000000,95.000000,,,,0.000000,4.000000,4.000000,4.000000,4.000000,4.000000,4.000000,4.000000,4.000000,4.000000,4.000000,4.000000,4.000000,4.000000,4.000000,100.000000,,,,,,,,,,,,,,,,
1645707485.384418,48.000000,0.000000,4231.922852,4215.000000,4241.282227,4223.717773,4224.871582,4230.384766,4232.563965,4230.000000,4228.846191,4238.846191,4233.846191,4211.153809,4228.077148,4245.769043,0.000000,4.000000,95.000000,,,,0.000000,4.000000,4.000000,4.000000,4.000000,4.000000,4.000000,4.000000,4.000000,4.000000,4.000000,4.000000,4.000000,4.000000,4.000000,100.000000,,,,,,,,,,,,,,,,
1645707485.388358,49.000000,0.000000,4234.358887,4223.333496,4242.051270,4227.179688,4218.846191,4230.897461,4232.307617,4233.717773,4228.461426,4242.563965,4235.641113,4211.410156,4224.102539,4239.358887,0.000000,4.000000,95.000000,,,,0.000000,4.000000,4.000000,4.000000,4.000000,4.000000,4.000000,4.000000,4.000000,4.000000,4.000000,4.000000,4.000000,4.000000,4.000000,100.000000,,,,,,,,,,,,,,,,
1645707485.392298,50.000000,0.000000,4235.769043,4232.051270,4240.384766,4228.077148,4215.384766,4231.025879,4232.436035,4235.769043,4229.871582,4246.153809,4237.179688,4213.717773,4215.897461,4230.256348,0.000000,4.000000,95.000000,,,,0.000000,4.000000,4.000000,4.000000,4.000000,4.000000,4.000000,4.000000,4.000000,4.000000,4.000000,4.000000,4.000000,4.000000,4.000000,100.000000,,,,,,,,,,,,,,,,
1645707485.396338,51.000000,0.000000,4238.461426,4236.922852,4237.179688,4225.384766,4217.692383,4231.153809,4232.563965,4236.025879,4232.436035,4247.948730,4238.717773,4216.922852,4206.794922,4226.153809,0.000000,4.000000,95.000000,,,,0.000000,4.000000,4.000000,4.000000,4.000000,4.000000,4.000000,4.000000,4.000000,4.000000,4.000000,4.000000,4.000000,4.000000,4.000000,100.000000,,,,,,,,,,,,,,,,
1645707485.400278,52.000000,0.000000,4241.153809,4234.871582,4235.128418,4220.897461,4223.589844,4230.897461,4232.948730,4236.025879,4234.230957,4246.666504,4237.307617,4219.102539,4201.153809,4230.897461,0.000000,4.000000,95.000000,,,,0.000000,4.000000,4.000000,4.000000,4.000000,4.000000,4.000000,4.000000,4.000000,4.000000,4.000000,4.000000,4.000000,4.000000,4.000000,100.000000,,,,,,,,,,,,,,,,
1645707485.404218,53.000000,0.000000,4240.384766,4227.307617,4235.384766,4217.692383,4227.820313,4229.743652,4233.461426,4236.666504,4234.487305,4242.692383,4230.512695,4219.102539,4200.641113,4240.256348,0.000000,4.000000,95.000000,,,,0.000000,4.000000,4.000000,4.000000,4.000000,4.000000,4.000000,4.000000,4.000000,4.000000,4.000000,4.000000,4.000000,4.000000,4.000000,100.000000,,,,,,,,,,,,,,,,
1645707485.408159,54.000000,0.000000,4234.615234,4219.615234,4236.538574,4217.563965,4227.179688,4228.333496,4233.461426,4237.307617,4233.589844,4237.948730,4220.000000,4216.794922,4204.487305,4245.256348,0.000000,4.000000,95.000000,,,,0.000000,4.000000,4.000000,4.000000,4.000000,4.000000,4.000000,4.000000,4.000000,4.000000,4.000000,4.000000,4.000000,4.000000,4.000000,100.000000,,,,,,,,,,,,,,,,
1645707485.412099,55.000000,0.000000,4226.538574,4217.436035,4236.153809,4220.128418,4222.563965,4227.563965,4231.794922,4236.922852,4233.077148,4235.128418,4211.025879,4213.589844,4209.615234,4240.128418,0.000000,4.000000,95.000000,,,,0.000000,4.000000,4.000000,4.000000,4.000000,4.000000,4.000000,4.000000,4.000000,4.000000,4.000000,4.000000,4.000000,4.000000,4.000000,100.000000,,,,,,,,,,,,,,,,
1645707485.416039,56.000000,0.000000,4221.282227,4222.051270,4233.461426,4222.948730,4217.563965,4227.948730,4228.333496,4235.512695,4232.948730,4235.128418,4208.333496,4211.410156,4212.436035,4226.666504,0.000000,4.000000,95.000000,,,,0.000000,4.000000,4.000000,4.000000,4.000000,4.000000,4.000000,4.000000,4.000000,4.000000,4.000000,4.000000,4.000000,4.000000,4.000000,100.000000,1.000000,83.333336,4.000000,4.000000,4.000000,4.000000,4.000000,4.000000,4.000000,4.000000,2.000000,4.000000,4.000000,4.000000,4.000000,4.000000
1645707485.419979,57.000000,0.000000,4221.282227,4228.846191,4229.358887,4223.974121,4215.256348,4228.717773,4225.769043,4234.615234,4232.563965,4236.282227,4212.051270,4209.743652,4211.538574,4213.846191,0.000000,4.000000,95.000000,,,,0.000000,4.000000,4.000000,4.000000,4.000000,4.000000,4.000000,4.000000,4.000000,4.000000,4.000000,4.000000,4.000000,4.000000,4.000000,100.000000,,,,,,,,,,,,,,,,
1645707485.423919,58.000000,0.000000,4225.256348,4231.922852,4225.769043,4222.820313,4216.922852,4228.846191,4226.282227,4235.384766,4231.538574,4235.897461,4218.974121,4206.538574,4207.948730,4210.384766,0.000000,4.000000,95.000000,,,,0.000000,4.000000,4.000000,4.000000,4.000000,4.000000,4.000000,4.000000,4.000000,4.000000,4.000000,4.000000,4.000000,4.000000,4.000000,100.000000,,,,,,,,,,,,,,,,
1645707485.427859,59.000000,0.000000,4230.128418,4229.615234,4223.974121,4221.666504,4221.794922,4228.461426,4230.000000,4237.692383,4230.641113,4234.487305,4225.641113,4201.538574,4205.256348,4218.589844,0.000000,4.000000,95.000000,,,,0.000000,4.000000,4.000000,4.000000,4.000000,4.000000,4.000000,4.000000,4.000000,4.000000,4.000000,4.000000,4.000000,4.000000,4.000000,100.000000,,,,,,,,,,,,,,,,
1645707485.431799,60.000000,0.000000,4234.230957,4225.769043,4225.128418,4222.692383,4228.461426,4228.717773,4234.102539,4240.128418,4231.922852,4235.641113,4230.256348,4197.692383,4206.025879,4231.666504,0.000000,4.000000,95.000000,,,,0.000000,4.000000,4.000000,4.000000,4.000000,4.000000,4.000000,4.000000,4.000000,4.000000,4.000000,4.000000,4.000000,4.000000,4.000000,100.000000,,,,,,,,,,,,,,,,
1645707485.435739,61.000000,0.000000,4236.794922,4224.871582,4229.102539,4225.641113,4234.358887,4230.128418,4236.282227,4241.922852,4235.256348,4241.538574,4232.948730,4198.589844,4210.000000,4239.102539,0.000000,4.000000,95.000000,,,,0.000000,4.000000,4.000000,4.000000,4.000000,4.000000,4.000000,4.000000,4.000000,4.000000,4.000000,4.000000,4.000000,4.000000,4.000000,100.000000,,,,,,,,,,,,,,,,
1645707485.439679,62.000000,0.000000,4237.051270,4227.692383,4234.230957,4227.179688,4235.897461,4231.666504,4236.282227,4242.820313,4238.589844,4250.256348,4233.333496,4205.000000,4214.230957,4235.384766,0.000000,4.000000,95.000000,,,,0.000000,4.000000,4.000000,4.000000,4.000000,4.000000,4.000000,4.000000,4.000000,4.000000,4.000000,4.000000,4.000000,4.000000,4.000000,100.000000,,,,,,,,,,,,,,,,
1645707485.443620,63.000000,0.000000,4233.717773,4231.153809,4237.692383,4223.589844,4231.153809,4232.436035,4235.384766,4242.563965,4239.230957,4255.384766,4230.256348,4213.077148,4215.384766,4224.615234,0.000000,4.000000,95.000000,,,,0.000000,4.000000,4.000000,4.000000,4.000000,4.000000,4.000000,4.000000,4.000000,4.000000,4.000000,4.000000,4.000000,4.000000,4.000000,100.000000,,,,,,,,,,,,,,,,
1645707485.447560,64.000000,0.000000,4227.307617,4231.666504,4236.666504,4214.871582,4222.307617,4231.666504,4234.358887,4240.384766,4236.410156,4252.436035,4223.717773,4217.436035,4213.077148,4216.794922,0.000000,4.000000,95.000000,,,,0.000000,4.000000,4.000000,4.000000,4.000000,4.000000,4.000000,4.000000,4.000000,4.000000,4.000000,4.000000,4.000000,4.000000,4.000000,100.000000,,,,,,,,,,,,,,,,
1645707485.451500,65.000000,0.000000,4220.769043,4228.974121,4232.051270,4205.641113,4215.000000,4230.128418,4232.307617,4235.641113,4231.794922,4242.179688,4215.897461,4215.512695,4209.615234,4218.333496,0.000000,4.000000,95.000000,,,,0.000000,4.000000,4.000000,4.000000,4.000000,4.000000,4.000000,4.000000,4.000000,4.000000,4.000000,4.000000,4.000000,4.000000,4.000000,100.000000,,,,,,,,,,,,,,,,
1645707485.455440,66.000000,0.000000,4217.179688,4225.641113,4227.436035,4202.051270,4214.230957,4228.461426,4228.717773,4229.358887,4227.692383,4230.128418,4210.384766,4208.717773,4207.307617,4227.179688,0.000000,4.000000,95.000000,,,,0.000000,4.000000,4.000000,4.000000,4.000000,4.000000,4.000000,4.000000,4.000000,4.000000,4.000000,4.000000,4.000000,4.000000,4.000000,100.000000,,,,,,,,,,,,,,,,
1645707485.459380,67.000000,0.000000,4216.794922,4223.717773,4226.922852,4206.410156,4218.974121,4226.410156,4225.128418,4223.717773,4225.897461,4222.563965,4209.487305,4200.512695,4206.025879,4235.384766,0.000000,4.000000,95.000000,,,,0.000000,4.000000,4.000000,4.000000,4.000000,4.000000,4.000000,4.000000,4.000000,4.000000,4.000000,4.000000,4.000000,4.000000,4.000000,100.000000,,,,,,,,,,,,,,,,
1645707485.463320,68.000000,0.000000,4217.948730,4223.589844,4231.153809,4215.256348,4224.358887,4223.974121,4223.846191,4220.769043,4226.666504,4222.436035,4211.922852,4194.871582,4203.589844,4236.666504,0.000000,4.000000,95.000000,,,,0.000000,4.000000,4.000000,4.000000,4.000000,4.000000,4.000000,4.000000,4.000000,4.000000,4.000000,4.000000,4.000000,4.000000,4.000000,100.000000,,,,,,,,,,,,,,,,
1645707485.467260,69.000000,0.000000,4219.615234,4223.974121,4236.666504,4222.948730,4227.179688,4222.307617,4226.025879,4221.025879,4228.461426,4228.205078,4215.897461,4193.846191,4199.230957,4231.794922,0.000000,4.000000,95.000000,,,,0.000000,4.000000,4.000000,4.000000,4.000000,4.000000,4.000000,4.000000,4.000000,4.000000,4.000000,4.000000,4.000000,4.000000,4.000000,100.000000,,,,,,,,,,,,,,,,
1645707485.471300,70.000000,0.000000,4222.563965,4224.102539,4238.974121,4227.179688,4227.563965,4223.205078,4229.871582,4223.333496,4230.384766,4236.025879,4219.615234,4197.051270,4195.000000,4225.128418,0.000000,4.000000,95.000000,,,,0.000000,4.000000,4.000000,4.000000,4.000000,4.000000,4.000000,4.000000,4.000000,4.000000,4.000000,4.000000,4.000000,4.000000,4.000000,100.000000,,,,,,,,,,,,,,,,
1645707485.475240,71.000000,0.000000,4227.051270,4224.230957,4235.897461,4228.589844,4227.948730,4226.666504,4232.436035,4226.153809,4231.794922,4240.897461,4222.692383,4202.179688,4193.974121,4218.974121,0.000000,4.000000,95.000000,,,,0.000000,4.000000,4.000000,4.000000,4.000000,4.000000,4.000000,4.000000,4.000000,4.000000,4.000000,4.000000,4.000000,4.000000,4.000000,100.000000,,,,,,,,,,,,,,,,
1645707485.479180,72.000000,0.000000,4231.410156,4225.769043,4229.615234,4228.846191,4228.461426,4231.153809,4232.563965,4228.205078,4232.820313,4240.897461,4224.102539,4206.666504,4196.794922,4211.666504,0.000000,4.000000,95.000000,,,,0.000000,4.000000,4.000000,4.000000,4.000000,4.000000,4.000000,4.000000,4.000000,4.000000,4.000000,4.000000,4.000000,4.000000,4.000000,100.000000,,,,,,,,,,,,,,,,
1645707485.483120,73.000000,0.000000,4232.948730,4229.871582,4224.487305,4228.333496,4227.948730,4233.974121,4231.666504,4229.358887,4232.820313,4237.820313,4223.077148,4208.461426,4201.410156,4202.051270,0.000000,4.000000,95.000000,,,,0.000000,4.000000,4.000000,4.000000,4.000000,4.000000,4.000000,4.000000,4.000000,4.000000,4.000000,4.000000,4.000000,4.000000,4.000000,100.000000,,,,,,,,,,,,,,,,
1645707485.487061,74.000000,0.000000,4231.282227,4236.282227,4222.563965,4226.538574,4225.769043,4234.358887,4231.922852,4230.128418,4231.922852,4236.666504,4219.871582,4207.436035,4204.871582,4195.128418,0.000000,4.000000,95.000000,,,,0.000000,4.000000,4.000000,4.000000,4.000000,4.000000,4.000000,4.000000,4.000000,4.000000,4.000000,4.000000,4.000000,4.000000,4.000000,100.000000,,,,,,,,,,,,,,,,
1645707485.491101,75.000000,0.000000,4227.692383,4242.436035,4222.820313,4223.205078,4223.205078,4233.846191,4233.461426,4230.641113,4230.641113,4239.871582,4216.153809,4204.358887,4206.153809,4198.461426,0.000000,4.000000,95.000000,,,,0.000000,4.000000,4.000000,4.000000,4.000000,4.000000,4.000000,4.000000,4.000000,4.000000,4.000000,4.000000,4.000000,4.000000,4.000000,100.000000,,,,,,,,,,,,,,,,
1645707485.495041,76.000000,0.000000,4224.102539,4243.205078,4223.077148,4217.692383,4221.922852,4233.333496,4234.871582,4230.769043,4229.871582,4244.230957,4213.461426,4200.384766,4205.000000,4213.589844,0.000000,4.000000,95.000000,,,,0.000000,4.000000,4.000000,4.000000,4.000000,4.000000,4.000000,4.000000,4.000000,4.000000,4.000000,4.000000,4.000000,4.000000,4.000000,100.000000,,,,,,,,,,,,,,,,
1645707485.498981,77.000000,0.000000,4220.512695,4235.256348,4222.051270,4211.153809,4222.179688,4233.077148,4235.000000,4230.256348,4230.000000,4243.205078,4211.410156,4197.051270,4201.794922,4232.692383,0.000000,4.000000,95.000000,,,,0.000000,4.000000,4.000000,4.000000,4.000000,4.000000,4.000000,4.000000,4.000000,4.000000,4.000000,4.000000,4.000000,4.000000,4.000000,100.000000,,,,,,,,,,,,,,,,
1645707485.502921,78.000000,0.000000,4215.512695,4219.871582,4220.512695,4206.410156,4222.436035,4232.179688,4233.717773,4229.358887,4230.000000,4234.102539,4209.487305,4196.153809,4196.666504,4242.948730,0.000000,4.000000,95.000000,,,,0.000000,4.000000,4.000000,4.000000,4.000000,4.000000,4.000000,4.000000,4.000000,4.000000,4.000000,4.000000,4.000000,4.000000,4.000000,100.000000,,,,,,,,,,,,,,,,
1645707485.506861,79.000000,0.000000,4208.333496,4204.615234,4220.641113,4206.922852,4222.051270,4230.512695,4231.922852,4227.948730,4227.820313,4221.794922,4208.333496,4199.102539,4189.743652,4237.307617,0.000000,4.000000,95.000000,,,,0.000000,4.000000,4.000000,4.000000,4.000000,4.000000,4.000000,4.000000,4.000000,4.000000,4.000000,4.000000,4.000000,4.000000,4.000000,100.000000,,,,,,,,,,,,,,,,
1645707485.510801,80.000000,0.000000,4200.641113,4197.563965,4222.820313,4213.461426,4221.538574,4228.974121,4229.871582,4226.410156,4223.846191,4215.384766,4210.000000,4206.153809,4181.794922,4220.000000,0.000000,4.000000,95.000000,,,,0.000000,4.000000,4.000000,4.000000,4.000000,4.000000,4.000000,4.000000,4.000000,4.000000,4.000000,4.000000,4.000000,4.000000,4.000000,100.000000,,,,,,,,,,,,,,,,
1645707485.514741,81.000000,0.000000,4195.897461,4201.922852,4225.641113,4221.666504,4221.282227,4227.692383,4227.948730,4224.487305,4220.128418,4218.974121,4214.871582,4213.974121,4174.230957,4201.538574,0.000000,4.000000,95.000000,,,,0.000000,4.000000,4.000000,4.000000,4.000000,4.000000,4.000000,4.000000,4.000000,4.000000,4.000000,4.000000,4.000000,4.000000,4.000000,100.000000,,,,,,,,,,,,,,,,
1645707485.518681,82.000000,0.000000,4196.410156,4213.846191,4227.051270,4224.743652,4220.641113,4226.538574,4226.922852,4222.563965,4218.846191,4228.077148,4219.871582,4218.589844,4168.717773,4191.282227,0.000000,4.000000,95.000000,,,,0.000000,4.000000,4.000000,4.000000,4.000000,4.000000,4.000000,4.000000,4.000000,4.000000,4.000000,4.000000,4.000000,4.000000,4.000000,100.000000,,,,,,,,,,,,,,,,
1645707485.522621,83.000000,0.000000,4201.410156,4226.153809,4226.153809,4220.000000,4218.717773,4225.256348,4227.692383,4220.769043,4220.256348,4234.358887,4220.384766,4217.563965,4166.794922,4191.538574,0.000000,4.000000,95.000000,,,,0.000000,4.000000,4.000000,4.000000,4.000000,4.000000,4.000000,4.000000,4.000000,4.000000,4.000000,4.000000,4.000000,4.000000,4.000000,100.000000,,,,,,,,,,,,,,,,
1645707485.526562,84.000000,0.000000,4208.974121,4233.205078,4223.205078,4212.179688,4216.410156,4223.974121,4229.871582,4220.000000,4222.563965,4233.461426,4214.871582,4211.922852,4170.128418,4198.974121,0.000000,4.000000,95.000000,,,,0.000000,4.000000,4.000000,4.000000,4.000000,4.000000,4.000000,4.000000,4.000000,4.000000,4.000000,4.000000,4.000000,4.000000,4.000000,100.000000,,,,,,,,,,,,,,,,
1645707485.530502,85.000000,0.000000,4216.538574,4233.717773,4219.871582,4208.205078,4216.025879,4223.846191,4231.410156,4220.769043,4224.230957,4228.205078,4206.922852,4204.871582,4178.461426,4209.102539,0.000000,4.000000,95.000000,,,,0.000000,4.000000,4.000000,4.000000,4.000000,4.000000,4.000000,4.000000,4.000000,4.000000,4.000000,4.000000,4.000000,4.000000,4.000000,100.000000,,,,,,,,,,,,,,,,
1645707485.534442,86.000000,0.000000,4222.179688,4229.615234,4217.948730,4210.769043,4218.589844,4225.384766,4231.025879,4223.333496,4224.871582,4224.743652,4202.948730,4199.615234,4188.846191,4219.230957,0.000000,4.000000,95.000000,,,,0.000000,4.000000,4.000000,4.000000,4.000000,4.000000,4.000000,4.000000,4.000000,4.000000,4.000000,4.000000,4.000000,4.000000,4.000000,100.000000,,,,,,,,,,,,,,,,
1645707485.538482,87.000000,0.000000,4223.717773,4223.589844,4218.717773,4215.512695,4221.666504,4227.307617,4228.846191,4226.794922,4225.641113,4225.641113,4205.256348,4197.692383,4195.897461,4227.820313,0.000000,4.000000,95.000000,,,,0.000000,4.000000,4.000000,4.000000,4.000000,4.000000,4.000000,4.000000,4.000000,4.000000,4.000000,4.000000,4.000000,4.000000,4.000000,100.000000,,,,,,,,,,,,,,,,
1645707485.542422,88.000000,0.000000,4221.153809,4217.820313,4222.179688,4217.820313,4221.922852,4226.666504,4226.922852,4229.743652,4227.307617,4228.846191,4211.410156,4199.230957,4196.025879,4233.333496,0.000000,4.000000,95.000000,,,,0.000000,4.000000,4.000000,4.000000,4.000000,4.000000,4.000000,4.000000,4.000000,4.000000,4.000000,4.000000,4.000000,4.000000,4.000000,100.000000,,,,,,,,,,,,,,,,
1645707485.546362,89.000000,0.000000,4217.179688,4214.743652,4226.538574,4216.922852,4218.717773,4222.948730,4226.025879,4231.153809,4229.102539,4231.538574,4216.794922,4203.461426,4191.025879,4234.615234,0.000000,4.000000,95.000000,,,,0.000000,4.000000,4.000000,4.000000,4.000000,4.000000,4.000000,4.000000,4.000000,4.000000,4.000000,4.000000,4.000000,4.000000,4.000000,100.000000,,,,,,,,,,,,,,,,
1645707485.550302,90.000000,0.000000,4215.641113,4216.025879,4230.128418,4216.538574,4215.384766,4218.077148,4225.641113,4230.384766,4230.000000,4233.974121,4219.871582,4209.230957,4187.051270,4232.692383,0.000000,4.000000,95.000000,,,,0.000000,4.000000,4.000000,4.000000,4.000000,4.000000,4.000000,4.000000,4.000000,4.000000,4.000000,4.000000,4.000000,4.000000,4.000000,100.000000,,,,,,,,,,,,,,,,
1645707485.554242,91.000000,0.000000,4218.717773,4221.025879,4232.307617,4218.717773,4216.025879,4215.384766,4225.256348,4228.205078,4229.743652,4237.563965,4221.538574,4214.743652,4189.230957,4230.512695,0.000000,4.000000,95.000000,,,,0.000000,4.000000,4.000000,4.000000,4.000000,4.000000,4.000000,4.000000,4.000000,4.000000,4.000000,4.000000,4.000000,4.000000,4.000000,100.000000,,,,,,,,,,,,,,,,
1645707485.558182,92.000000,0.000000,4224.871582,4227.179688,4233.846191,4221.153809,4220.384766,4216.666504,4225.769043,4226.282227,4229.102539,4242.692383,4222.948730,4218.461426,4196.538574,4229.358887,0.000000,4.000000,95.000000,,,,0.000000,4.000000,4.000000,4.000000,4.000000,4.000000,4.000000,4.000000,4.000000,4.000000,4.000000,4.000000,4.000000,4.000000,4.000000,100.000000,,,,,,,,,,,,,,,,
1645707485.562122,93.000000,0.000000,4230.000000,4231.794922,4235.000000,4219.871582,4225.128418,4220.769043,4228.077148,4226.666504,4228.589844,4246.666504,4224.358887,4219.743652,4203.205078,4227.563965,0.000000,4.000000,95.000000,,,,0.000000,4.000000,4.000000,4.000000,4.000000,4.000000,4.000000,4.000000,4.000000,4.000000,4.000000,4.000000,4.000000,4.000000,4.000000,100.000000,,,,,,,,,,,,,,,,
1645707485.566062,94.000000,0.000000,4231.153809,4233.077148,4235.256348,4214.230957,4226.922852,4224.615234,4231.153809,4229.743652,4228.589844,4247.179688,4225.769043,4218.974121,4204.230957,4222.051270,0.000000,4.000000,95.000000,,,,0.000000,4.000000,4.000000,4.000000,4.000000,4.000000,4.000000,4.000000,4.000000,4.000000,4.000000,4.000000,4.000000,4.000000,4.000000,100.000000,,,,,,,,,,,,,,,,
1645707485.570003,95.000000,0.000000,4228.589844,4231.282227,4233.461426,4208.717773,4225.641113,4226.410156,4232.179688,4232.820313,4228.589844,4243.717773,4227.051270,4217.563965,4199.615234,4212.179688,0.000000,4.000000,95.000000,,,,0.000000,4.000000,4.000000,4.000000,4.000000,4.000000,4.000000,4.000000,4.000000,4.000000,4.000000,4.000000,4.000000,4.000000,4.000000,100.000000,,,,,,,,,,,,,,,,
1645707485.573943,96.000000,0.000000,4224.230957,4228.333496,4229.871582,4208.974121,4223.461426,4225.769043,4229.615234,4233.205078,4228.077148,4238.333496,4227.051270,4216.282227,4193.589844,4201.538574,0.000000,4.000000,95.000000,,,,0.000000,4.000000,4.000000,4.000000,4.000000,4.000000,4.000000,4.000000,4.000000,4.000000,4.000000,4.000000,4.000000,4.000000,4.000000,100.000000,,,,,,,,,,,,,,,,
1645707485.577883,97.000000,0.000000,4219.487305,4225.769043,4226.922852,4216.538574,4221.922852,4223.461426,4224.615234,4229.871582,4227.179688,4232.436035,4224.743652,4215.000000,4190.769043,4196.410156,0.000000,4.000000,95.000000,,,,0.000000,4.000000,4.000000,4.000000,4.000000,4.000000,4.000000,4.000000,4.000000,4.000000,4.000000,4.000000,4.000000,4.000000,4.000000,100.000000,,,,,,,,,,,,,,,,
1645707485.581823,98.000000,0.000000,4215.256348,4223.974121,4226.666504,4226.025879,4220.769043,4220.384766,4220.897461,4225.000000,4225.769043,4226.538574,4220.769043,4212.051270,4191.922852,4201.794922,0.000000,4.000000,95.000000,,,,0.000000,4.000000,4.000000,4.000000,4.000000,4.000000,4.000000,4.000000,4.000000,4.000000,4.000000,4.000000,4.000000,4.000000,4.000000,100.000000,,,,,,,,,,,,,,,,
1645707485.585763,99.000000,0.000000,4212.436035,4222.563965,4229.102539,4229.615234,4219.743652,4217.948730,4221.025879,4221.538574,4224.487305,4220.897461,4218.205078,4206.794922,4195.000000,4217.820313,0.000000,4.000000,95.000000,,,,0.000000,4.000000,4.000000,4.000000,4.000000,4.000000,4.000000,4.000000,4.000000,4.000000,4.000000,4.000000,4.000000,4.000000,4.000000,100.000000,,,,,,,,,,,,,,,,
1645707485.589703,100.000000,0.000000,4212.179688,4221.153809,4232.051270,4223.717773,4220.128418,4217.692383,4224.230957,4220.641113,4224.358887,4217.692383,4219.743652,4200.384766,4196.666504,4237.179688,0.000000,4.000000,95.000000,,,,0.000000,4.000000,4.000000,4.000000,4.000000,4.000000,4.000000,4.000000,4.000000,4.000000,4.000000,4.000000,4.000000,4.000000,4.000000,100.000000,,,,,,,,,,,,,,,,
1645707485.593643,101.000000,0.000000,4214.487305,4219.871582,4232.692383,4212.307617,4222.563965,4220.000000,4227.307617,4221.410156,4225.897461,4219.358887,4223.589844,4196.282227,4195.641113,4248.589844,0.000000,4.000000,95.000000,,,,0.000000,4.000000,4.000000,4.000000,4.000000,4.000000,4.000000,4.000000,4.000000,4.000000,4.000000,4.000000,4.000000,4.000000,4.000000,100.000000,,,,,,,,,,,,,,,,
1645707485.597583,102.000000,0.000000,4216.922852,4218.846191,4230.512695,4204.102539,4225.256348,4223.077148,4227.692383,4221.922852,4228.717773,4226.153809,4224.615234,4196.666504,4193.333496,4244.871582,0.000000,4.000000,95.000000,,,,0.000000,4.000000,4.000000,4.000000,4.000000,4.000000,4.000000,4.000000,4.000000,4.000000,4.000000,4.000000,4.000000,4.000000,4.000000,100.000000,,,,,,,,,,,,,,,,
1645707485.601523,103.000000,0.000000,4216.282227,4217.820313,4226.538574,4204.615234,4224.743652,4223.846191,4225.769043,4221.410156,4230.897461,4234.615234,4219.743652,4200.128418,4191.538574,4227.948730,0.000000,4.000000,95.000000,,,,0.000000,4.000000,4.000000,4.000000,4.000000,4.000000,4.000000,4.000000,4.000000,4.000000,4.000000,4.000000,4.000000,4.000000,4.000000,100.000000,,,,,,,,,,,,,,,,
1645707485.605464,104.000000,0.000000,4212.436035,4217.307617,4222.563965,4211.922852,4219.358887,4221.153809,4223.461426,4219.743652,4230.897461,4239.615234,4210.897461,4201.922852,4191.025879,4208.461426,0.000000,4.000000,95.000000,,,,0.000000,4.000000,4.000000,4.000000,4.000000,4.000000,4.000000,4.000000,4.000000,4.000000,4.000000,4.000000,4.000000,4.000000,4.000000,100.000000,,,,,,,,,,,,,,,,
1645707485.609404,105.000000,0.000000,4207.948730,4217.948730,4220.384766,4219.487305,4211.282227,4217.179688,4222.051270,4217.179688,4228.077148,4237.820313,4204.487305,4198.974121,4191.410156,4197.307617,0.000000,4.000000,95.000000,,,,0.000000,4.000000,4.000000,4.000000,4.000000,4.000000,4.000000,4.000000,4.000000,4.000000,4.000000,4.000000,4.000000,4.000000,4.000000,100.000000,,,,,,,,,,,,,,,,
1645707485.613244,106.000000,0.000000,4206.282227,4220.641113,4220.000000,4222.436035,4204.871582,4215.000000,4221.282227,4213.205078,4223.974121,4229.871582,4205.256348,4192.051270,4190.641113,4198.333496,0.000000,4.000000,95.000000,,,,0.000000,4.000000,4.000000,4.000000,4.000000,4.000000,4.000000,4.000000,4.000000,4.000000,4.000000,4.000000,4.000000,4.000000,4.000000,100.000000,,,,,,,,,,,,,,,,
1645707485.617184,107.000000,0.000000,4208.205078,4224.487305,4220.897461,4221.410156,4203.205078,4215.769043,4220.512695,4208.846191,4220.000000,4219.615234,4212.051270,4185.384766,4187.307617,4206.282227,0.000000,4.000000,95.000000,,,,0.000000,4.000000,4.000000,4.000000,4.000000,4.000000,4.000000,4.000000,4.000000,4.000000,4.000000,4.000000,4.000000,4.000000,4.000000,100.000000,,,,,,,,,,,,,,,,
1645707485.621124,108.000000,0.000000,4212.179688,4227.436035,4222.179688,4220.897461,4206.153809,4217.563965,4219.871582,4206.666504,4218.077148,4211.666504,4219.102539,4182.820313,4182.307617,4212.436035,0.000000,4.000000,95.000000,,,,0.000000,4.000000,4.000000,4.000000,4.000000,4.000000,4.000000,4.000000,4.000000,4.000000,4.000000,4.000000,4.000000,4.000000,4.000000,100.000000,,,,,,,,,,,,,,,,
1645707485.625064,109.000000,0.000000,4215.512695,4228.717773,4223.589844,4223.846191,4211.666504,4218.205078,4220.384766,4208.461426,4218.974121,4209.871582,4221.538574,4186.025879,4178.974121,4211.794922,0.000000,4.000000,95.000000,,,,0.000000,4.000000,4.000000,4.000000,4.000000,4.000000,4.000000,4.000000,4.000000,4.000000,4.000000,4.000000,4.000000,4.000000,4.000000,100.000000,,,,,,,,,,,,,,,,
1645707485.629004,110.000000,0.000000,4217.179688,4229.358887,4225.000000,4228.077148,4217.692383,4217.820313,4222.436035,4213.205078,4222.307617,4215.256348,4219.743652,4192.948730,4181.282227,4207.563965,0.000000,4.000000,95.000000,1,1,1,0.000000,4.000000,4.000000,4.000000,4.000000,4.000000,4.000000,4.000000,4.000000,4.000000,4.000000,4.000000,4.000000,4.000000,4.000000,100.000000,,,,,,,,,,,,,,,,
1645707485.632944,111.000000,0.000000,4218.077148,4229.871582,4226.410156,4229.230957,4222.692383,4217.820313,4224.871582,4217.692383,4225.769043,4225.128418,4217.692383,4200.256348,4188.974121,4206.410156,0.000000,4.000000,95.000000,,,,0.000000,4.000000,4.000000,4.000000,4.000000,4.000000,4.000000,4.000000,4.000000,4.000000,4.000000,4.000000,4.000000,4.000000,4.000000,100.000000,,,,,,,,,,,,,,,,
1645707485.636884,112.000000,0.000000,4218.333496,4228.974121,4227.436035,4224.871582,4225.256348,4218.589844,4225.641113,4219.230957,4226.538574,4233.461426,4218.461426,4204.102539,4196.922852,4211.282227,0.000000,4.000000,95.000000,,,,0.000000,4.000000,4.000000,4.000000,4.000000,4.000000,4.000000,4.000000,4.000000,4.000000,4.000000,4.000000,4.000000,4.000000,4.000000,100.000000,,,,,,,,,,,,,,,,
1645707485.640825,113.000000,0.000000,4217.436035,4224.230957,4228.461426,4217.051270,4224.230957,4218.333496,4224.230957,4217.563965,4223.333496,4234.871582,4221.025879,4202.820313,4198.589844,4219.230957,0.000000,4.000000,95.000000,,,,0.000000,4.000000,4.000000,4.000000,4.000000,4.000000,4.000000,4.000000,4.000000,4.000000,4.000000,4.000000,4.000000,4.000000,4.000000,100.000000,,,,,,,,,,,,,,,,
1645707485.644765,114.000000,0.000000,4215.641113,4215.769043,4229.615234,4211.153809,4220.384766,4215.897461,4221.282227,4214.615234,4217.948730,4228.461426,4222.179688,4197.692383,4191.282227,4223.461426,0.000000,4.000000,95.000000,,,,0.000000,4.000000,4.000000,4.000000,4.000000,4.000000,4.000000,4.000000,4.000000,4.000000,4.000000,4.000000,4.000000,4.000000,4.000000,100.000000,,,,,,,,,,,,,,,,
1645707485.648705,115.000000,0.000000,4214.230957,4208.205078,4230.512695,4210.641113,4215.897461,4211.794922,4218.461426,4212.179688,4214.230957,4219.102539,4220.384766,4192.051270,4178.974121,4219.871582,0.000000,4.000000,95.000000,,,,0.000000,4.000000,4.000000,4.000000,4.000000,4.000000,4.000000,4.000000,4.000000,4.000000,4.000000,4.000000,4.000000,4.000000,4.000000,100.000000,,,,,,,,,,,,,,,,
1645707485.652645,116.000000,0.000000,4214.743652,4207.051270,4230.769043,4215.000000,4212.820313,4208.589844,4217.051270,4211.282227,4214.487305,4214.230957,4217.307617,4190.000000,4168.333496,4209.615234,0.000000,4.000000,95.000000,,,,0.000000,4.000000,4.000000,4.000000,4.000000,4.000000,4.000000,4.000000,4.000000,4.000000,4.000000,4.000000,4.000000,4.000000,4.000000,100.000000,,,,,,,,,,,,,,,,
1645707485.656585,117.000000,0.000000,4216.922852,4213.205078,4229.871582,4220.000000,4210.897461,4208.333496,4217.563965,4212.051270,4218.205078,4217.692383,4216.666504,4193.077148,4164.615234,4198.077148,0.000000,4.000000,95.000000,,,,0.000000,4.000000,4.000000,4.000000,4.000000,4.000000,4.000000,4.000000,4.000000,4.000000,4.000000,4.000000,4.000000,4.000000,4.000000,100.000000,,,,,,,,,,,,,,,,
1645707485.660525,118.000000,0.000000,4218.205078,4221.538574,4228.077148,4221.410156,4208.974121,4210.641113,4220.000000,4214.871582,4222.179688,4226.410156,4219.871582,4199.230957,4167.563965,4191.153809,0.000000,4.000000,95.000000,,,,0.000000,4.000000,4.000000,4.000000,4.000000,4.000000,4.000000,4.000000,4.000000,4.000000,4.000000,4.000000,4.000000,4.000000,4.000000,100.000000,,,,,,,,,,,,,,,,
1645707485.664465,119.000000,0.000000,4216.794922,4225.641113,4225.769043,4218.205078,4206.538574,4213.717773,4223.205078,4218.717773,4223.974121,4233.717773,4224.358887,4204.358887,4173.333496,4191.794922,0.000000,4.000000,95.000000,,,,0.000000,4.000000,4.000000,4.000000,4.000000,4.000000,4.000000,4.000000,4.000000,4.000000,4.000000,4.000000,4.000000,4.000000,4.000000,100.000000,,,,,,,,,,,,,,,,
1645707485.668405,120.000000,0.000000,4213.717773,4223.461426,4223.717773,4213.205078,4205.769043,4216.025879,4225.641113,4222.179688,4224.102539,4234.102539,4226.538574,4205.128418,4177.692383,4199.615234,0.000000,4.000000,95.000000,,,,0.000000,4.000000,4.000000,4.000000,4.000000,4.000000,4.000000,4.000000,4.000000,4.000000,4.000000,4.000000,4.000000,4.000000,4.000000,100.000000,,,,,,,,,,,,,,,,
1645707485.672345,121.000000,0.000000,4211.794922,4217.820313,4222.692383,4210.256348,4208.717773,4216.922852,4225.641113,4223.205078,4223.846191,4227.948730,4225.769043,4201.666504,4179.615234,4211.282227,0.000000,4.000000,95.000000,,,,0.000000,4.000000,4.000000,4.000000,4.000000,4.000000,4.000000,4.000000,4.000000,4.000000,4.000000,4.000000,4.000000,4.000000,4.000000,100.000000,,,,,,,,,,,,,,,,
1645707485.676286,122.000000,0.000000,4212.692383,4212.179688,4223.589844,4210.641113,4215.000000,4216.794922,4223.846191,4221.538574,4223.589844,4219.615234,4223.205078,4197.051270,4180.000000,4222.692383,0.000000,4.000000,95.000000,,,,0.000000,4.000000,4.000000,4.000000,4.000000,4.000000,4.000000,4.000000,4.000000,4.000000,4.000000,4.000000,4.000000,4.000000,4.000000,100.000000,,,,,,,,,,,,,,,,
1645707485.680126,123.000000,0.000000,4214.102539,4207.820313,4225.897461,4212.948730,4221.025879,4216.025879,4222.179688,4218.205078,4222.307617,4213.077148,4220.000000,4194.358887,4179.743652,4229.871582,0.000000,4.000000,95.000000,,,,0.000000,4.000000,4.000000,4.000000,4.000000,4.000000,4.000000,4.000000,4.000000,4.000000,4.000000,4.000000,4.000000,4.000000,4.000000,100.000000,,,,,,,,,,,,,,,,
1645707485.684066,124.000000,0.000000,4211.410156,4205.128418,4227.948730,4214.358887,4222.179688,4215.000000,4223.205078,4214.871582,4219.615234,4210.000000,4215.897461,4194.230957,4178.205078,4230.256348,0.000000,4.000000,95.000000,,,,0.000000,4.000000,4.000000,4.000000,4.000000,4.000000,4.000000,4.000000,4.000000,4.000000,4.000000,4.000000,4.000000,4.000000,4.000000,100.000000,,,,,,,,,,,,,,,,
1645707485.688006,125.000000,0.000000,4202.948730,4204.615234,4226.922852,4213.846191,4217.436035,4214.358887,4226.025879,4211.794922,4216.282227,4209.615234,4210.769043,4194.487305,4174.743652,4223.974121,0.000000,4.000000,95.000000,,,,0.000000,4.000000,4.000000,4.000000,4.000000,4.000000,4.000000,4.000000,4.000000,4.000000,4.000000,4.000000,4.000000,4.000000,4.000000,100.000000,,,,,,,,,,,,,,,,
1645707485.691946,126.000000,0.000000,4192.692383,4207.563965,4222.563965,4212.051270,4210.000000,4214.743652,4227.948730,4208.846191,4213.974121,4210.641113,4205.897461,4192.051270,4170.256348,4214.102539,0.000000,4.000000,95.000000,,,,0.000000,4.000000,4.000000,4.000000,4.000000,4.000000,4.000000,4.000000,4.000000,4.000000,4.000000,4.000000,4.000000,4.000000,4.000000,100.000000,,,,,,,,,,,,,,,,
1645707485.695786,127.000000,0.000000,4187.051270,4213.205078,4217.436035,4210.384766,4204.871582,4215.641113,4226.538574,4206.922852,4213.846191,4211.666504,4202.692383,4187.179688,4166.794922,4203.461426,0.000000,4.000000,95.000000,,,,0.000000,4.000000,4.000000,4.000000,4.000000,4.000000,4.000000,4.000000,4.000000,4.000000,4.000000,4.000000,4.000000,4.000000,4.000000,100.000000,,,,,,,,,,,,,,,,
1645707485.699726,128.000000,0.000000,4188.846191,4218.077148,4214.871582,4209.102539,4204.487305,4215.897461,4222.820313,4206.922852,4215.128418,4211.025879,4200.641113,4182.692383,4165.641113,4193.717773,3214.000000,4.000000,95.000000,,,,0.000000,4.000000,4.000000,4.000000,4.000000,4.000000,4.000000,4.000000,4.000000,4.000000,4.000000,4.000000,4.000000,4.000000,4.000000,100.000000,,,,,,,,,,,,,,,,
1645707485.703666,129.000000,0.000000,4195.897461,4218.589844,4216.282227,4208.589844,4207.307617,4214.871582,4220.256348,4209.230957,4216.538574,4208.333496,4198.333496,4182.436035,4166.153809,4186.922852,3220.000000,4.000000,95.000000,,,,0.000000,4.000000,4.000000,4.000000,4.000000,4.000000,4.000000,4.000000,4.000000,4.000000,4.000000,4.000000,4.000000,4.000000,4.000000,100.000000,,,,,,,,,,,,,,,,
1645707485.707607,130.000000,0.000000,4203.589844,4215.769043,4220.256348,4209.358887,4210.512695,4213.461426,4221.025879,4211.794922,4217.051270,4205.641113,4196.538574,4187.692383,4167.436035,4185.641113,3672.000000,4.000000,95.000000,,,,0.000000,4.000000,4.000000,4.000000,4.000000,4.000000,4.000000,4.000000,4.000000,4.000000,4.000000,4.000000,4.000000,4.000000,4.000000,100.000000,,,,,,,,,,,,,,,,
1645707485.711547,131.000000,0.000000,4208.974121,4214.358887,4224.102539,4213.077148,4212.179688,4213.077148,4223.589844,4213.205078,4216.922852,4206.410156,4198.717773,4196.025879,4170.384766,4191.153809,3435.000000,4.000000,95.000000,,,,0.000000,4.000000,4.000000,4.000000,4.000000,4.000000,4.000000,4.000000,4.000000,4.000000,4.000000,4.000000,4.000000,4.000000,4.000000,100.000000,,,,,,,,,,,,,,,,
1645707485.715487,132.000000,0.000000,4211.922852,4218.077148,4227.051270,4219.487305,4212.179688,4213.846191,4225.384766,4212.948730,4217.692383,4212.563965,4207.436035,4203.717773,4175.769043,4201.025879,3520.000000,4.000000,95.000000,,,,0.000000,4.000000,4.000000,4.000000,4.000000,4.000000,4.000000,4.000000,4.000000,4.000000,4.000000,4.000000,4.000000,4.000000,4.000000,100.000000,,,,,,,,,,,,,,,,
1645707485.719427,133.000000,0.000000,4214.230957,4225.384766,4229.743652,4225.897461,4211.282227,4214.871582,4225.512695,4212.436035,4219.743652,4221.282227,4220.769043,4208.461426,4182.820313,4210.384766,3393.000000,4.000000,95.000000,,,,0.000000,4.000000,4.000000,4.000000,4.000000,4.000000,4.000000,4.000000,4.000000,4.000000,4.000000,4.000000,4.000000,4.000000,4.000000,100.000000,,,,,,,,,,,,,,,,
1645707485.723367,134.000000,0.000000,4217.051270,4230.512695,4233.077148,4227.692383,4210.256348,4215.256348,4225.769043,4212.692383,4221.794922,4227.436035,4232.692383,4209.615234,4187.948730,4215.384766,2927.000000,4.000000,95.000000,,,,0.000000,4.000000,4.000000,4.000000,4.000000,4.000000,4.000000,4.000000,4.000000,4.000000,4.000000,4.000000,4.000000,4.000000,4.000000,100.000000,,,,,,,,,,,,,,,,
1645707485.727307,135.000000,0.000000,4221.153809,4229.615234,4235.769043,4223.717773,4210.256348,4216.025879,4227.436035,4214.358887,4222.179688,4228.589844,4237.563965,4208.974121,4188.846191,4216.666504,2954.000000,4.000000,95.000000,,,,0.000000,4.000000,4.000000,4.000000,4.000000,4.000000,4.000000,4.000000,4.000000,4.000000,4.000000,4.000000,4.000000,4.000000,4.000000,100.000000,,,,,,,,,,,,,,,,
1645707485.731247,136.000000,0.000000,4225.769043,4224.358887,4235.897461,4218.717773,4212.051270,4218.461426,4230.000000,4216.922852,4221.538574,4226.922852,4233.974121,4208.846191,4186.538574,4218.077148,1508.000000,4.000000,95.000000,,,,0.000000,4.000000,4.000000,4.000000,4.000000,4.000000,4.000000,4.000000,4.000000,4.000000,4.000000,4.000000,4.000000,4.000000,4.000000,100.000000,,,,,,,,,,,,,,,,
1645707485.735187,137.000000,0.000000,4228.589844,4219.230957,4232.563965,4218.589844,4215.128418,4222.307617,4231.666504,4219.615234,4221.794922,4226.538574,4225.256348,4210.384766,4184.615234,4223.205078,3300.000000,4.000000,95.000000,,,,0.000000,4.000000,4.000000,4.000000,4.000000,4.000000,4.000000,4.000000,4.000000,4.000000,4.000000,4.000000,4.000000,4.000000,4.000000,100.000000,,,,,,,,,,,,,,,,
1645707485.739127,138.000000,0.000000,4227.307617,4217.563965,4228.077148,4224.487305,4217.563965,4224.615234,4230.897461,4222.051270,4223.974121,4228.846191,4217.692383,4213.333496,4185.897461,4230.897461,3032.000000,4.000000,95.000000,,,,0.000000,4.000000,4.000000,4.000000,4.000000,4.000000,4.000000,4.000000,4.000000,4.000000,4.000000,4.000000,4.000000,4.000000,4.000000,100.000000,,,,,,,,,,,,,,,,
1645707485.743068,139.000000,0.000000,4221.666504,4218.974121,4225.000000,4230.641113,4217.051270,4222.563965,4228.077148,4223.077148,4226.922852,4232.051270,4215.256348,4215.641113,4189.102539,4235.897461,3467.000000,4.000000,95.000000,,,,0.000000,4.000000,4.000000,4.000000,4.000000,4.000000,4.000000,4.000000,4.000000,4.000000,4.000000,4.000000,4.000000,4.000000,4.000000,100.000000,,,,,,,,,,,,,,,,
1645707485.747008,140.000000,0.000000,4214.358887,4220.769043,4224.358887,4230.512695,4213.717773,4216.666504,4224.871582,4222.179688,4227.820313,4233.333496,4218.333496,4215.384766,4190.897461,4232.948730,3550.000000,4.000000,95.000000,,,,0.000000,4.000000,4.000000,4.000000,4.000000,4.000000,4.000000,4.000000,4.000000,4.000000,4.000000,4.000000,4.000000,4.000000,4.000000,100.000000,,,,,,,,,,,,,,,,
1645707485.750948,141.000000,0.000000,4209.615234,4221.666504,4224.487305,4222.563965,4209.743652,4210.641113,4222.307617,4219.358887,4225.897461,4231.666504,4222.820313,4212.051270,4189.358887,4221.922852,3235.000000,4.000000,95.000000,,,,0.000000,4.000000,4.000000,4.000000,4.000000,4.000000,4.000000,4.000000,4.000000,4.000000,4.000000,4.000000,4.000000,4.000000,4.000000,100.000000,,,,,,,,,,,,,,,,
1645707485.754888,142.000000,0.000000,4210.128418,4222.179688,4223.461426,4211.538574,4207.563965,4208.077148,4220.769043,4216.282227,4222.948730,4228.461426,4223.717773,4206.153809,4185.256348,4208.846191,3032.000000,4.000000,95.000000,,,,0.000000,4.000000,4.000000,4.000000,4.000000,4.000000,4.000000,4.000000,4.000000,4.000000,4.000000,4.000000,4.000000,4.000000,4.000000,100.000000,,,,,,,,,,,,,,,,
1645707485.758828,143.000000,0.000000,4214.743652,4223.333496,4220.897461,4204.487305,4207.563965,4209.615234,4221.025879,4215.769043,4221.794922,4226.282227,4218.974121,4199.615234,4180.897461,4202.436035,3467.000000,4.000000,95.000000,2,1,1,0.000000,4.000000,4.000000,4.000000,4.000000,4.000000,4.000000,4.000000,4.000000,4.000000,4.000000,4.000000,4.000000,4.000000,4.000000,100.000000,,,,,,,,,,,,,,,,
1645707485.762768,144.000000,0.000000,4219.615234,4225.256348,4218.717773,4206.538574,4208.717773,4213.077148,4224.102539,4218.589844,4223.974121,4227.307617,4211.666504,4195.000000,4178.589844,4206.922852,3550.000000,4.000000,95.000000,,,,0.000000,4.000000,4.000000,4.000000,4.000000,4.000000,4.000000,4.000000,4.000000,4.000000,4.000000,4.000000,4.000000,4.000000,4.000000,100.000000,,,,,,,,,,,,,,,,
1645707485.766708,145.000000,0.000000,4221.410156,4225.897461,4218.846191,4216.025879,4211.282227,4216.153809,4229.102539,4222.692383,4228.333496,4231.025879,4208.205078,4194.230957,4179.743652,4219.358887,3235.000000,4.000000,95.000000,,,,0.000000,4.000000,4.000000,4.000000,4.000000,4.000000,4.000000,4.000000,4.000000,4.000000,4.000000,4.000000,4.000000,4.000000,4.000000,100.000000,,,,,,,,,,,,,,,,
1645707485.770648,146.000000,0.000000,4219.487305,4223.717773,4221.410156,4226.282227,4215.769043,4218.589844,4232.820313,4224.230957,4231.410156,4234.102539,4211.922852,4197.820313,4184.743652,4230.128418,3032.000000,4.000000,95.000000,,,,0.000000,4.000000,4.000000,4.000000,4.000000,4.000000,4.000000,4.000000,4.000000,4.000000,4.000000,4.000000,4.000000,4.000000,4.000000,100.000000,,,,,,,,,,,,,,,,
1645707485.774588,147.000000,0.000000,4215.512695,4219.230957,4224.487305,4229.743652,4221.025879,4220.128418,4232.436035,4220.769043,4230.641113,4232.436035,4219.871582,4203.205078,4190.769043,4230.384766,3467.000000,4.000000,95.000000,,,,0.000000,4.000000,4.000000,4.000000,4.000000,4.000000,4.000000,4.000000,4.000000,4.000000,4.000000,4.000000,4.000000,4.000000,4.000000,100.000000,,,,,,,,,,,,,,,,
