title:Alex-KjYZ9iCPEdvSp9ECntiS8Q, start timestamp:1644854636.873692, stop timestamp:1644854663.456284, headset type:EPOCPLUS, headset serial:3B9AEBFF, headset firmware:626, channels:55, sampling rate:eeg_256, samples:6748      , version:2.1, 
Timestamp,EEG.Counter,EEG.Interpolated,EEG.AF3,EEG.F7,EEG.F3,EEG.FC5,EEG.T7,EEG.P7,EEG.O1,EEG.O2,EEG.P8,EEG.T8,EEG.FC6,EEG.F4,EEG.F8,EEG.AF4,EEG.RawCq,EEG.Battery,EEG.BatteryPercent,MarkerIndex,MarkerType,MarkerValueInt,EEG.MarkerHardware,CQ.AF3,CQ.F7,CQ.F3,CQ.FC5,CQ.T7,CQ.P7,CQ.O1,CQ.O2,CQ.P8,CQ.T8,CQ.FC6,CQ.F4,CQ.F8,CQ.AF4,CQ.Overall,EQ.SampleRateQuality,EQ.OVERALL,EQ.AF3,EQ.F7,EQ.F3,EQ.FC5,EQ.T7,EQ.P7,EQ.O1,EQ.O2,EQ.P8,EQ.T8,EQ.FC6,EQ.F4,EQ.F8,EQ.AF4
1644854636.873692,162.000000,0.000000,4231.538574,4225.897461,4227.051270,4217.820313,4216.282227,4225.897461,4218.717773,4224.615234,4227.948730,4228.717773,4230.641113,4216.282227,4223.717773,4344.743652,3639.000000,4.000000,82.000000,,,,0.000000,4.000000,4.000000,4.000000,4.000000,4.000000,4.000000,4.000000,4.000000,4.000000,4.000000,4.000000,4.000000,4.000000,4.000000,100.000000,,,,,,,,,,,,,,,,
1644854636.877532,163.000000,0.000000,4230.128418,4220.641113,4230.641113,4220.000000,4225.512695,4226.410156,4221.794922,4225.000000,4230.897461,4234.230957,4217.051270,4219.487305,4237.948730,4347.563965,2329.000000,4.000000,82.000000,,,,0.000000,4.000000,4.000000,4.000000,4.000000,4.000000,4.000000,4.000000,4.000000,4.000000,4.000000,4.000000,4.000000,4.000000,4.000000,100.000000,,,,,,,,,,,,,,,,
1644854636.881472,164.000000,0.000000,4229.871582,4210.897461,4234.102539,4219.487305,4230.512695,4225.256348,4224.487305,4224.102539,4231.282227,4234.615234,4206.538574,4219.102539,4246.153809,4348.461426,3428.000000,4.000000,82.000000,,,,0.000000,4.000000,4.000000,4.000000,4.000000,4.000000,4.000000,4.000000,4.000000,4.000000,4.000000,4.000000,4.000000,4.000000,4.000000,100.000000,,,,,,,,,,,,,,,,
1644854636.885412,165.000000,0.000000,4231.410156,4201.410156,4234.358887,4216.922852,4225.641113,4222.307617,4222.820313,4220.512695,4227.820313,4229.487305,4206.410156,4214.487305,4243.461426,4345.384766,3483.000000,4.000000,82.000000,,,,0.000000,4.000000,4.000000,4.000000,4.000000,4.000000,4.000000,4.000000,4.000000,4.000000,4.000000,4.000000,4.000000,4.000000,4.000000,100.000000,,,,,,,,,,,,,,,,
1644854636.889352,166.000000,0.000000,4233.717773,4197.563965,4229.743652,4214.615234,4214.102539,4218.461426,4216.922852,4214.358887,4221.538574,4222.563965,4215.128418,4207.307617,4231.666504,4339.102539,3639.000000,4.000000,82.000000,,,,0.000000,4.000000,4.000000,4.000000,4.000000,4.000000,4.000000,4.000000,4.000000,4.000000,4.000000,4.000000,4.000000,4.000000,4.000000,100.000000,,,,,,,,,,,,,,,,
1644854636.893292,167.000000,0.000000,4234.615234,4200.897461,4222.051270,4214.743652,4205.128418,4215.000000,4210.769043,4208.077148,4214.871582,4218.461426,4223.077148,4201.282227,4217.820313,4332.436035,2329.000000,4.000000,82.000000,,,,0.000000,4.000000,4.000000,4.000000,4.000000,4.000000,4.000000,4.000000,4.000000,4.000000,4.000000,4.000000,4.000000,4.000000,4.000000,100.000000,,,,,,,,,,,,,,,,
1644854636.897232,168.000000,0.000000,4233.589844,4207.692383,4215.512695,4217.051270,4205.256348,4213.461426,4209.102539,4204.743652,4210.769043,4218.974121,4221.794922,4199.743652,4209.615234,4327.307617,3428.000000,4.000000,82.000000,,,,0.000000,4.000000,4.000000,4.000000,4.000000,4.000000,4.000000,4.000000,4.000000,4.000000,4.000000,4.000000,4.000000,4.000000,4.000000,100.000000,,,,,,,,,,,,,,,,
1644854636.901172,169.000000,0.000000,4231.922852,4213.077148,4213.974121,4219.358887,4213.077148,4213.846191,4211.538574,4205.256348,4211.153809,4221.922852,4211.153809,4203.333496,4209.487305,4323.717773,3483.000000,4.000000,82.000000,,,,0.000000,4.000000,4.000000,4.000000,4.000000,4.000000,4.000000,4.000000,4.000000,4.000000,4.000000,4.000000,4.000000,4.000000,4.000000,100.000000,,,,,,,,,,,,,,,,
1644854636.905113,170.000000,0.000000,4231.666504,4213.717773,4218.077148,4219.743652,4220.256348,4215.256348,4213.974121,4208.077148,4214.743652,4223.974121,4200.256348,4210.000000,4214.615234,4320.641113,3639.000000,4.000000,82.000000,,,,0.000000,4.000000,4.000000,4.000000,4.000000,4.000000,4.000000,4.000000,4.000000,4.000000,4.000000,4.000000,4.000000,4.000000,4.000000,100.000000,,,,,,,,,,,,,,,,
1644854636.909053,171.000000,0.000000,4233.205078,4210.000000,4225.128418,4218.589844,4220.000000,4215.897461,4213.333496,4210.128418,4218.205078,4223.589844,4198.846191,4216.153809,4219.230957,4318.974121,2329.000000,4.000000,82.000000,,,,0.000000,4.000000,4.000000,4.000000,4.000000,4.000000,4.000000,4.000000,4.000000,4.000000,4.000000,4.000000,4.000000,4.000000,4.000000,100.000000,,,,,,,,,,,,,,,,
1644854636.912993,172.000000,0.000000,4234.871582,4204.871582,4230.769043,4217.307617,4211.666504,4214.743652,4210.641113,4209.871582,4218.589844,4221.410156,4208.717773,4218.717773,4220.384766,4320.512695,3428.000000,4.000000,82.000000,,,,0.000000,4.000000,4.000000,4.000000,4.000000,4.000000,4.000000,4.000000,4.000000,4.000000,4.000000,4.000000,4.000000,4.000000,4.000000,100.000000,,,,,,,,,,,,,,,,
1644854636.916933,173.000000,0.000000,4235.000000,4202.179688,4233.077148,4217.179688,4201.025879,4213.077148,4209.358887,4207.179688,4215.897461,4219.487305,4223.333496,4216.922852,4218.974121,4326.025879,3483.000000,4.000000,82.000000,,,,0.000000,4.000000,4.000000,4.000000,4.000000,4.000000,4.000000,4.000000,4.000000,4.000000,4.000000,4.000000,4.000000,4.000000,4.000000,100.000000,,,,,,,,,,,,,,,,
1644854636.920873,174.000000,0.000000,4233.461426,4205.000000,4233.077148,4218.974121,4196.025879,4212.436035,4210.641113,4204.487305,4212.820313,4219.487305,4233.846191,4213.077148,4218.717773,4333.205078,3639.000000,4.000000,82.000000,,,,0.000000,4.000000,4.000000,4.000000,4.000000,4.000000,4.000000,4.000000,4.000000,4.000000,4.000000,4.000000,4.000000,4.000000,4.000000,100.000000,,,,,,,,,,,,,,,,
1644854636.924813,175.000000,0.000000,4232.179688,4213.077148,4232.948730,4223.333496,4201.153809,4213.717773,4212.948730,4204.358887,4212.563965,4222.563965,4235.769043,4211.025879,4221.794922,4337.051270,2329.000000,4.000000,82.000000,,,,0.000000,4.000000,4.000000,4.000000,4.000000,4.000000,4.000000,4.000000,4.000000,4.000000,4.000000,4.000000,4.000000,4.000000,4.000000,100.000000,,,,,,,,,,,,,,,,
1644854636.928753,176.000000,0.000000,4233.333496,4221.666504,4232.820313,4230.256348,4214.102539,4215.897461,4213.846191,4207.948730,4215.641113,4227.692383,4230.000000,4212.307617,4227.179688,4334.230957,3428.000000,4.000000,82.000000,,,,0.000000,4.000000,4.000000,4.000000,4.000000,4.000000,4.000000,4.000000,4.000000,4.000000,4.000000,4.000000,4.000000,4.000000,4.000000,100.000000,,,,,,,,,,,,,,,,
1644854636.932693,177.000000,0.000000,4236.666504,4225.256348,4231.922852,4237.692383,4226.282227,4217.307617,4213.333496,4213.974121,4219.743652,4232.436035,4221.153809,4215.000000,4231.666504,4325.512695,3483.000000,4.000000,82.000000,,,,0.000000,4.000000,4.000000,4.000000,4.000000,4.000000,4.000000,4.000000,4.000000,4.000000,4.000000,4.000000,4.000000,4.000000,4.000000,100.000000,,,,,,,,,,,,,,,,
1644854636.936633,178.000000,0.000000,4239.487305,4221.538574,4229.358887,4241.538574,4228.589844,4217.436035,4212.563965,4218.974121,4221.922852,4233.589844,4213.589844,4214.871582,4232.820313,4314.871582,3639.000000,4.000000,82.000000,,,,0.000000,4.000000,4.000000,4.000000,4.000000,4.000000,4.000000,4.000000,4.000000,4.000000,4.000000,4.000000,4.000000,4.000000,4.000000,100.000000,,,,,,,,,,,,,,,,
1644854636.940574,179.000000,0.000000,4239.358887,4213.205078,4225.384766,4238.589844,4219.487305,4217.051270,4211.794922,4220.128418,4221.282227,4230.128418,4209.871582,4209.871582,4231.410156,4305.897461,2329.000000,4.000000,82.000000,,,,0.000000,4.000000,4.000000,4.000000,4.000000,4.000000,4.000000,4.000000,4.000000,4.000000,4.000000,4.000000,4.000000,4.000000,4.000000,100.000000,,,,,,,,,,,,,,,,
1644854636.944514,180.000000,0.000000,4237.051270,4206.410156,4221.282227,4228.461426,4206.410156,4216.410156,4210.384766,4217.563965,4219.358887,4224.615234,4210.384766,4202.436035,4229.230957,4301.025879,3428.000000,4.000000,82.000000,,,,0.000000,4.000000,4.000000,4.000000,4.000000,4.000000,4.000000,4.000000,4.000000,4.000000,4.000000,4.000000,4.000000,4.000000,4.000000,100.000000,,,,,,,,,,,,,,,,
1644854636.948454,181.000000,0.000000,4235.897461,4205.512695,4218.589844,4215.128418,4200.384766,4216.538574,4208.333496,4214.358887,4218.974121,4221.666504,4213.846191,4197.948730,4227.051270,4301.410156,3483.000000,4.000000,82.000000,,,,0.000000,4.000000,4.000000,4.000000,4.000000,4.000000,4.000000,4.000000,4.000000,4.000000,4.000000,4.000000,4.000000,4.000000,4.000000,100.000000,,,,,,,,,,,,,,,,
1644854636.952294,182.000000,0.000000,4238.461426,4210.512695,4218.974121,4205.000000,4206.025879,4217.563965,4207.563965,4213.846191,4221.666504,4223.717773,4218.077148,4199.487305,4224.487305,4306.153809,3639.000000,4.000000,82.000000,,,,0.000000,4.000000,4.000000,4.000000,4.000000,4.000000,4.000000,4.000000,4.000000,4.000000,4.000000,4.000000,4.000000,4.000000,4.000000,100.000000,,,,,,,,,,,,,,,,
1644854636.956234,183.000000,0.000000,4243.589844,4217.051270,4222.436035,4203.589844,4218.717773,4218.846191,4209.358887,4216.922852,4225.641113,4229.487305,4220.256348,4205.128418,4221.025879,4312.179688,2329.000000,4.000000,82.000000,,,,0.000000,4.000000,4.000000,4.000000,4.000000,4.000000,4.000000,4.000000,4.000000,4.000000,4.000000,4.000000,4.000000,4.000000,4.000000,100.000000,,,,,,,,,,,,,,,,
1644854636.960174,184.000000,0.000000,4246.922852,4220.128418,4226.666504,4211.922852,4228.461426,4219.102539,4212.051270,4220.769043,4227.179688,4234.487305,4219.615234,4209.230957,4218.333496,4314.615234,3428.000000,4.000000,82.000000,,,,0.000000,4.000000,4.000000,4.000000,4.000000,4.000000,4.000000,4.000000,4.000000,4.000000,4.000000,4.000000,4.000000,4.000000,4.000000,100.000000,,,,,,,,,,,,,,,,
1644854636.964114,185.000000,0.000000,4245.000000,4217.563965,4228.974121,4225.000000,4228.589844,4217.948730,4212.307617,4221.282227,4223.974121,4235.897461,4216.282227,4208.205078,4219.358887,4311.025879,3483.000000,4.000000,82.000000,,,,0.000000,4.000000,4.000000,4.000000,4.000000,4.000000,4.000000,4.000000,4.000000,4.000000,4.000000,4.000000,4.000000,4.000000,4.000000,100.000000,,,,,,,,,,,,,,,,
1644854636.968054,186.000000,0.000000,4238.974121,4211.538574,4228.333496,4234.615234,4221.025879,4216.410156,4208.846191,4216.666504,4217.563965,4233.461426,4212.179688,4203.717773,4225.256348,4304.871582,3639.000000,4.000000,82.000000,,,,0.000000,4.000000,4.000000,4.000000,4.000000,4.000000,4.000000,4.000000,4.000000,4.000000,4.000000,4.000000,4.000000,4.000000,4.000000,100.000000,,,,,,,,,,,,,,,,
1644854636.971994,187.000000,0.000000,4233.333496,4207.051270,4226.282227,4234.615234,4212.563965,4215.512695,4205.128418,4210.000000,4212.051270,4229.615234,4210.000000,4200.384766,4232.563965,4303.205078,2329.000000,4.000000,82.000000,,,,0.000000,4.000000,4.000000,4.000000,4.000000,4.000000,4.000000,4.000000,4.000000,4.000000,4.000000,4.000000,4.000000,4.000000,4.000000,100.000000,,,,,,,,,,,,,,,,
1644854636.975935,188.000000,0.000000,4232.948730,4207.692383,4225.000000,4226.025879,4208.846191,4215.384766,4204.743652,4205.641113,4210.897461,4226.794922,4212.948730,4201.794922,4235.384766,4309.358887,3428.000000,4.000000,82.000000,,,,0.000000,4.000000,4.000000,4.000000,4.000000,4.000000,4.000000,4.000000,4.000000,4.000000,4.000000,4.000000,4.000000,4.000000,4.000000,100.000000,,,,,,,,,,,,,,,,
1644854636.979875,189.000000,0.000000,4238.461426,4212.051270,4224.615234,4215.641113,4210.512695,4214.871582,4207.563965,4206.025879,4213.205078,4225.384766,4221.794922,4207.563965,4230.897461,4318.589844,3483.000000,4.000000,82.000000,,,,0.000000,4.000000,4.000000,4.000000,4.000000,4.000000,4.000000,4.000000,4.000000,4.000000,4.000000,4.000000,4.000000,4.000000,4.000000,100.000000,,,,,,,,,,,,,,,,
1644854636.983815,190.000000,0.000000,4246.666504,4215.641113,4223.846191,4212.051270,4214.487305,4212.820313,4209.615234,4208.846191,4215.641113,4224.615234,4232.179688,4212.948730,4222.948730,4322.436035,3639.000000,4.000000,82.000000,,,,0.000000,4.000000,4.000000,4.000000,4.000000,4.000000,4.000000,4.000000,4.000000,4.000000,4.000000,4.000000,4.000000,4.000000,4.000000,100.000000,,,,,,,,,,,,,,,,
1644854636.987755,191.000000,0.000000,4252.948730,4215.256348,4221.410156,4217.948730,4216.410156,4209.615234,4207.948730,4210.512695,4215.384766,4223.205078,4236.794922,4213.589844,4218.077148,4316.794922,2329.000000,4.000000,82.000000,,,,0.000000,4.000000,4.000000,4.000000,4.000000,4.000000,4.000000,4.000000,4.000000,4.000000,4.000000,4.000000,4.000000,4.000000,4.000000,100.000000,,,,,,,,,,,,,,,,
1644854636.991695,192.000000,0.000000,4254.102539,4211.410156,4217.436035,4227.692383,4213.077148,4207.179688,4204.230957,4208.846191,4211.794922,4220.384766,4231.153809,4207.692383,4219.487305,4305.897461,3428.000000,4.000000,82.000000,,,,0.000000,4.000000,4.000000,4.000000,4.000000,4.000000,4.000000,4.000000,4.000000,4.000000,4.000000,4.000000,4.000000,4.000000,4.000000,100.000000,,,,,,,,,,,,,,,,
1644854636.995635,193.000000,0.000000,4250.256348,4207.307617,4214.230957,4231.794922,4205.512695,4207.307617,4202.436035,4205.256348,4207.820313,4217.307617,4218.589844,4199.102539,4223.974121,4297.948730,3483.000000,4.000000,82.000000,,,,0.000000,4.000000,4.000000,4.000000,4.000000,4.000000,4.000000,4.000000,4.000000,4.000000,4.000000,4.000000,4.000000,4.000000,4.000000,100.000000,,,,,,,,,,,,,,,,
1644854636.999575,194.000000,0.000000,4244.743652,4205.897461,4213.589844,4225.769043,4199.743652,4210.512695,4204.102539,4202.948730,4206.922852,4217.051270,4208.846191,4193.717773,4225.512695,4296.538574,3639.000000,4.000000,82.000000,,,,0.000000,4.000000,4.000000,4.000000,4.000000,4.000000,4.000000,4.000000,4.000000,4.000000,4.000000,4.000000,4.000000,4.000000,4.000000,100.000000,,,,,,,,,,,,,,,,
1644854637.003515,195.000000,0.000000,4240.256348,4206.794922,4215.512695,4213.846191,4201.538574,4215.384766,4207.051270,4204.230957,4210.897461,4221.922852,4209.615234,4194.615234,4222.436035,4298.589844,2329.000000,4.000000,82.000000,,,,0.000000,4.000000,4.000000,4.000000,4.000000,4.000000,4.000000,4.000000,4.000000,4.000000,4.000000,4.000000,4.000000,4.000000,4.000000,100.000000,,,,,,,,,,,,,,,,
1644854637.007455,196.000000,0.000000,4237.307617,4207.307617,4217.948730,4205.256348,4210.641113,4218.846191,4207.692383,4207.948730,4217.820313,4230.128418,4218.974121,4199.743652,4217.563965,4298.846191,3428.000000,4.000000,82.000000,,,,0.000000,4.000000,4.000000,4.000000,4.000000,4.000000,4.000000,4.000000,4.000000,4.000000,4.000000,4.000000,4.000000,4.000000,4.000000,100.000000,,,,,,,,,,,,,,,,
1644854637.011396,197.000000,0.000000,4234.102539,4205.641113,4218.717773,4205.512695,4218.846191,4218.717773,4206.025879,4210.897461,4222.436035,4235.897461,4226.922852,4203.333496,4215.128418,4295.897461,3483.000000,4.000000,82.000000,,,,0.000000,4.000000,4.000000,4.000000,4.000000,4.000000,4.000000,4.000000,4.000000,4.000000,4.000000,4.000000,4.000000,4.000000,4.000000,100.000000,,,,,,,,,,,,,,,,
1644854637.015336,198.000000,0.000000,4229.743652,4202.948730,4217.692383,4212.820313,4218.077148,4215.256348,4204.615234,4210.897461,4221.025879,4234.358887,4225.128418,4201.538574,4216.666504,4292.563965,3639.000000,4.000000,82.000000,,,,0.000000,4.000000,4.000000,4.000000,4.000000,4.000000,4.000000,4.000000,4.000000,4.000000,4.000000,4.000000,4.000000,4.000000,4.000000,100.000000,,,,,,,,,,,,,,,,
1644854637.019276,199.000000,0.000000,4226.025879,4202.436035,4216.153809,4220.128418,4208.461426,4210.897461,4205.512695,4208.974121,4215.128418,4227.179688,4214.358887,4196.025879,4220.897461,4291.153809,2329.000000,4.000000,82.000000,,,,0.000000,4.000000,4.000000,4.000000,4.000000,4.000000,4.000000,4.000000,4.000000,4.000000,4.000000,4.000000,4.000000,4.000000,4.000000,100.000000,,,,,,,,,,,,,,,,
1644854637.023216,200.000000,0.000000,4225.897461,4206.538574,4216.153809,4221.794922,4199.615234,4208.846191,4207.820313,4207.948730,4210.769043,4221.153809,4204.743652,4192.692383,4226.025879,4292.051270,3428.000000,4.000000,82.000000,,,,0.000000,4.000000,4.000000,4.000000,4.000000,4.000000,4.000000,4.000000,4.000000,4.000000,4.000000,4.000000,4.000000,4.000000,4.000000,100.000000,,,,,,,,,,,,,,,,
1644854637.027056,201.000000,0.000000,4230.256348,4214.487305,4219.230957,4218.333496,4201.153809,4210.512695,4209.358887,4210.000000,4213.333496,4222.820313,4205.897461,4196.025879,4229.871582,4294.487305,3483.000000,4.000000,82.000000,,,,0.000000,4.000000,4.000000,4.000000,4.000000,4.000000,4.000000,4.000000,4.000000,4.000000,4.000000,4.000000,4.000000,4.000000,4.000000,100.000000,,,,,,,,,,,,,,,,
1644854637.030996,202.000000,0.000000,4237.692383,4222.436035,4224.871582,4216.282227,4213.846191,4214.615234,4210.128418,4214.871582,4222.692383,4232.436035,4218.974121,4205.256348,4230.897461,4298.077148,3639.000000,4.000000,82.000000,,,,0.000000,4.000000,4.000000,4.000000,4.000000,4.000000,4.000000,4.000000,4.000000,4.000000,4.000000,4.000000,4.000000,4.000000,4.000000,100.000000,,,,,,,,,,,,,,,,
1644854637.034936,203.000000,0.000000,4245.512695,4227.179688,4230.128418,4222.948730,4228.974121,4218.717773,4211.922852,4220.641113,4233.589844,4243.589844,4236.153809,4214.743652,4228.846191,4302.051270,2329.000000,4.000000,82.000000,,,,0.000000,4.000000,4.000000,4.000000,4.000000,4.000000,4.000000,4.000000,4.000000,4.000000,4.000000,4.000000,4.000000,4.000000,4.000000,100.000000,,,,,,,,,,,,,,,,
1644854637.038876,204.000000,0.000000,4252.692383,4228.077148,4232.051270,4238.589844,4236.922852,4220.897461,4214.871582,4224.871582,4239.615234,4249.358887,4246.538574,4219.102539,4225.512695,4304.230957,3428.000000,4.000000,82.000000,,,,0.000000,4.000000,4.000000,4.000000,4.000000,4.000000,4.000000,4.000000,4.000000,4.000000,4.000000,4.000000,4.000000,4.000000,4.000000,100.000000,,,,,,,,,,,,,,,,
1644854637.042816,205.000000,0.000000,4258.717773,4227.051270,4229.358887,4254.230957,4234.871582,4220.897461,4216.794922,4225.641113,4238.333496,4246.922852,4245.000000,4216.666504,4223.461426,4302.179688,3483.000000,4.000000,82.000000,,,,0.000000,4.000000,4.000000,4.000000,4.000000,4.000000,4.000000,4.000000,4.000000,4.000000,4.000000,4.000000,4.000000,4.000000,4.000000,100.000000,,,,,,,,,,,,,,,,
1644854637.046757,206.000000,0.000000,4262.948730,4226.282227,4224.743652,4258.974121,4227.436035,4220.000000,4215.256348,4222.563965,4232.051270,4239.102539,4235.512695,4210.000000,4223.846191,4296.025879,3639.000000,4.000000,82.000000,,,,0.000000,4.000000,4.000000,4.000000,4.000000,4.000000,4.000000,4.000000,4.000000,4.000000,4.000000,4.000000,4.000000,4.000000,4.000000,100.000000,,,,,,,,,,,,,,,,
1644854637.050697,207.000000,0.000000,4263.974121,4226.025879,4221.794922,4250.256348,4221.794922,4219.230957,4211.666504,4218.205078,4225.769043,4232.051270,4227.179688,4203.717773,4225.769043,4289.871582,2329.000000,4.000000,82.000000,,,,0.000000,4.000000,4.000000,4.000000,4.000000,4.000000,4.000000,4.000000,4.000000,4.000000,4.000000,4.000000,4.000000,4.000000,4.000000,100.000000,,,,,,,,,,,,,,,,
1644854637.054637,208.000000,0.000000,4260.641113,4224.615234,4223.589844,4236.153809,4220.897461,4218.974121,4209.487305,4215.769043,4223.589844,4230.000000,4226.282227,4201.410156,4228.077148,4288.717773,3428.000000,4.000000,82.000000,,,,0.000000,4.000000,4.000000,4.000000,4.000000,4.000000,4.000000,4.000000,4.000000,4.000000,4.000000,4.000000,4.000000,4.000000,4.000000,100.000000,,,,,,,,,,,,,,,,
1644854637.058577,209.000000,0.000000,4253.717773,4221.025879,4229.358887,4227.692383,4222.051270,4219.487305,4210.384766,4216.538574,4225.769043,4233.589844,4231.282227,4204.102539,4230.384766,4293.077148,3483.000000,4.000000,82.000000,,,,0.000000,4.000000,4.000000,4.000000,4.000000,4.000000,4.000000,4.000000,4.000000,4.000000,4.000000,4.000000,4.000000,4.000000,4.000000,100.000000,,,,,,,,,,,,,,,,
1644854637.062517,210.000000,0.000000,4246.538574,4217.179688,4235.000000,4228.461426,4220.641113,4220.256348,4211.922852,4218.974121,4229.615234,4239.743652,4235.256348,4209.743652,4232.820313,4299.487305,3639.000000,4.000000,82.000000,,,,0.000000,4.000000,4.000000,4.000000,4.000000,4.000000,4.000000,4.000000,4.000000,4.000000,4.000000,4.000000,4.000000,4.000000,4.000000,100.000000,,,,,,,,,,,,,,,,
1644854637.066457,211.000000,0.000000,4243.717773,4216.410156,4236.410156,4232.179688,4214.487305,4220.256348,4210.897461,4220.256348,4231.666504,4243.846191,4233.205078,4214.871582,4235.128418,4303.333496,2329.000000,4.000000,82.000000,,,,0.000000,4.000000,4.000000,4.000000,4.000000,4.000000,4.000000,4.000000,4.000000,4.000000,4.000000,4.000000,4.000000,4.000000,4.000000,100.000000,,,,,,,,,,,,,,,,
1644854637.070397,212.000000,0.000000,4247.307617,4219.615234,4232.692383,4229.743652,4206.922852,4218.461426,4207.563965,4219.102539,4230.128418,4243.077148,4227.820313,4216.922852,4236.794922,4302.820313,3428.000000,4.000000,82.000000,,,,0.000000,4.000000,4.000000,4.000000,4.000000,4.000000,4.000000,4.000000,4.000000,4.000000,4.000000,4.000000,4.000000,4.000000,4.000000,100.000000,,,,,,,,,,,,,,,,
1644854637.074337,213.000000,0.000000,4255.000000,4225.000000,4226.922852,4218.974121,4203.846191,4215.000000,4205.384766,4217.563965,4226.410156,4238.333496,4225.897461,4215.897461,4237.692383,4299.871582,3483.000000,4.000000,82.000000,,,,0.000000,4.000000,4.000000,4.000000,4.000000,4.000000,4.000000,4.000000,4.000000,4.000000,4.000000,4.000000,4.000000,4.000000,4.000000,100.000000,,,,,,,,,,,,,,,,
1644854637.078277,214.000000,0.000000,4261.794922,4229.487305,4223.461426,4207.563965,4208.205078,4211.922852,4207.051270,4218.077148,4223.717773,4233.974121,4232.563965,4214.230957,4238.846191,4296.410156,3639.000000,4.000000,82.000000,,,,0.000000,4.000000,4.000000,4.000000,4.000000,4.000000,4.000000,4.000000,4.000000,4.000000,4.000000,4.000000,4.000000,4.000000,4.000000,100.000000,,,,,,,,,,,,,,,,
1644854637.082218,215.000000,0.000000,4263.589844,4231.794922,4224.487305,4205.897461,4217.436035,4212.051270,4211.025879,4221.410156,4225.512695,4235.128418,4244.743652,4214.358887,4241.922852,4293.077148,2329.000000,4.000000,82.000000,,,,0.000000,4.000000,4.000000,4.000000,4.000000,4.000000,4.000000,4.000000,4.000000,4.000000,4.000000,4.000000,4.000000,4.000000,4.000000,100.000000,,,,,,,,,,,,,,,,
1644854637.086158,216.000000,0.000000,4260.384766,4232.563965,4228.974121,4218.205078,4226.025879,4216.282227,4214.487305,4225.769043,4232.179688,4242.948730,4254.230957,4216.794922,4247.692383,4289.743652,3428.000000,4.000000,82.000000,,,,0.000000,4.000000,4.000000,4.000000,4.000000,4.000000,4.000000,4.000000,4.000000,4.000000,4.000000,4.000000,4.000000,4.000000,4.000000,100.000000,,,,,,,,,,,,,,,,
1644854637.090098,217.000000,0.000000,4255.256348,4232.563965,4233.717773,4237.820313,4229.487305,4223.461426,4216.282227,4228.974121,4240.512695,4254.487305,4254.230957,4220.128418,4254.871582,4287.563965,3483.000000,4.000000,82.000000,,,,0.000000,4.000000,4.000000,4.000000,4.000000,4.000000,4.000000,4.000000,4.000000,4.000000,4.000000,4.000000,4.000000,4.000000,4.000000,100.000000,,,,,,,,,,,,,,,,
1644854637.093938,218.000000,0.000000,4251.410156,4232.051270,4236.282227,4253.205078,4227.948730,4229.487305,4217.820313,4230.256348,4245.512695,4263.846191,4245.897461,4222.436035,4259.230957,4287.692383,3639.000000,4.000000,82.000000,,,,0.000000,4.000000,4.000000,4.000000,4.000000,4.000000,4.000000,4.000000,4.000000,4.000000,4.000000,4.000000,4.000000,4.000000,4.000000,100.000000,,,,,,,,,,,,,,,,
1644854637.097878,219.000000,0.000000,4250.000000,4230.641113,4236.282227,4255.641113,4224.358887,4231.282227,4220.128418,4229.743652,4244.487305,4265.769043,4237.051270,4222.948730,4257.179688,4288.846191,2329.000000,4.000000,82.000000,,,,0.000000,4.000000,4.000000,4.000000,4.000000,4.000000,4.000000,4.000000,4.000000,4.000000,4.000000,4.000000,4.000000,4.000000,4.000000,100.000000,,,,,,,,,,,,,,,,
1644854637.101818,220.000000,0.000000,4249.871582,4227.948730,4234.230957,4246.025879,4222.436035,4228.333496,4221.410156,4227.692383,4238.333496,4259.230957,4235.641113,4221.538574,4248.333496,4288.077148,3428.000000,4.000000,82.000000,,,,0.000000,4.000000,4.000000,4.000000,4.000000,4.000000,4.000000,4.000000,4.000000,4.000000,4.000000,4.000000,4.000000,4.000000,4.000000,100.000000,,,,,,,,,,,,,,,,
1644854637.105758,221.000000,0.000000,4249.487305,4223.717773,4231.025879,4232.692383,4223.205078,4223.205078,4219.743652,4223.974121,4230.384766,4247.563965,4243.589844,4218.717773,4237.179688,4283.589844,3483.000000,4.000000,82.000000,,,,0.000000,4.000000,4.000000,4.000000,4.000000,4.000000,4.000000,4.000000,4.000000,4.000000,4.000000,4.000000,4.000000,4.000000,4.000000,100.000000,,,,,,,,,,,,,,,,
1644854637.109698,222.000000,0.000000,4247.692383,4218.589844,4228.717773,4225.000000,4225.000000,4219.871582,4216.025879,4219.871582,4224.615234,4237.051270,4254.102539,4215.641113,4230.512695,4277.948730,3639.000000,4.000000,82.000000,,,,0.000000,4.000000,4.000000,4.000000,4.000000,4.000000,4.000000,4.000000,4.000000,4.000000,4.000000,4.000000,4.000000,4.000000,4.000000,100.000000,,,,,,,,,,,,,,,,
1644854637.113638,223.000000,0.000000,4244.487305,4214.615234,4228.589844,4226.794922,4225.641113,4220.256348,4214.102539,4217.692383,4222.820313,4232.563965,4257.051270,4213.717773,4231.666504,4275.256348,2329.000000,4.000000,82.000000,,,,0.000000,4.000000,4.000000,4.000000,4.000000,4.000000,4.000000,4.000000,4.000000,4.000000,4.000000,4.000000,4.000000,4.000000,4.000000,100.000000,,,,,,,,,,,,,,,,
1644854637.117579,224.000000,0.000000,4241.025879,4213.974121,4231.025879,4233.717773,4224.230957,4223.461426,4215.769043,4218.846191,4225.000000,4235.000000,4247.179688,4213.333496,4237.820313,4277.051270,3428.000000,4.000000,82.000000,,,,0.000000,4.000000,4.000000,4.000000,4.000000,4.000000,4.000000,4.000000,4.000000,4.000000,4.000000,4.000000,4.000000,4.000000,4.000000,100.000000,,,,,,,,,,,,,,,,
1644854637.121519,225.000000,0.000000,4239.230957,4217.563965,4233.974121,4238.205078,4221.666504,4226.922852,4218.974121,4222.436035,4228.974121,4240.897461,4229.743652,4213.974121,4242.179688,4280.641113,3483.000000,4.000000,82.000000,,,,0.000000,4.000000,4.000000,4.000000,4.000000,4.000000,4.000000,4.000000,4.000000,4.000000,4.000000,4.000000,4.000000,4.000000,4.000000,100.000000,,,,,,,,,,,,,,,,
1644854637.125459,226.000000,0.000000,4240.897461,4222.820313,4235.384766,4236.794922,4218.974121,4228.077148,4220.512695,4225.897461,4232.820313,4245.384766,4216.922852,4214.487305,4239.358887,4282.051270,3639.000000,4.000000,82.000000,,,,0.000000,4.000000,4.000000,4.000000,4.000000,4.000000,4.000000,4.000000,4.000000,4.000000,4.000000,4.000000,4.000000,4.000000,4.000000,100.000000,,,,,,,,,,,,,,,,
1644854637.129399,227.000000,0.000000,4246.538574,4226.666504,4235.256348,4232.692383,4217.563965,4226.282227,4219.487305,4227.179688,4234.871582,4245.512695,4218.461426,4215.000000,4230.512695,4279.871582,2329.000000,4.000000,82.000000,,,,0.000000,4.000000,4.000000,4.000000,4.000000,4.000000,4.000000,4.000000,4.000000,4.000000,4.000000,4.000000,4.000000,4.000000,4.000000,100.000000,,,,,,,,,,,,,,,,
1644854637.133339,228.000000,0.000000,4254.102539,4228.461426,4235.256348,4232.179688,4220.128418,4223.589844,4218.974121,4226.282227,4235.256348,4242.563965,4232.436035,4215.641113,4222.307617,4276.666504,3428.000000,4.000000,82.000000,,,,0.000000,4.000000,4.000000,4.000000,4.000000,4.000000,4.000000,4.000000,4.000000,4.000000,4.000000,4.000000,4.000000,4.000000,4.000000,100.000000,,,,,,,,,,,,,,,,
1644854637.137279,229.000000,0.000000,4260.384766,4229.615234,4237.307617,4236.922852,4227.692383,4222.820313,4221.025879,4224.871582,4235.000000,4240.512695,4246.666504,4216.794922,4222.179688,4274.487305,3483.000000,4.000000,82.000000,,,,0.000000,4.000000,4.000000,4.000000,4.000000,4.000000,4.000000,4.000000,4.000000,4.000000,4.000000,4.000000,4.000000,4.000000,4.000000,100.000000,,,,,,,,,,,,,,,,
1644854637.141219,230.000000,0.000000,4263.974121,4232.307617,4241.025879,4241.410156,4237.307617,4225.384766,4224.487305,4224.487305,4235.512695,4242.051270,4248.717773,4217.820313,4231.666504,4273.333496,3639.000000,4.000000,82.000000,,,,0.000000,4.000000,4.000000,4.000000,4.000000,4.000000,4.000000,4.000000,4.000000,4.000000,4.000000,4.000000,4.000000,4.000000,4.000000,100.000000,,,,,,,,,,,,,,,,
1644854637.145159,231.000000,0.000000,4264.487305,4236.025879,4243.846191,4238.974121,4241.538574,4229.743652,4225.769043,4225.897461,4236.794922,4245.769043,4236.794922,4217.307617,4244.615234,4272.179688,2329.000000,4.000000,82.000000,,,,0.000000,4.000000,4.000000,4.000000,4.000000,4.000000,4.000000,4.000000,4.000000,4.000000,4.000000,4.000000,4.000000,4.000000,4.000000,100.000000,,,,,,,,,,,,,,,,
1644854637.149099,232.000000,0.000000,4261.922852,4237.948730,4243.077148,4228.589844,4234.102539,4232.948730,4223.846191,4227.820313,4237.692383,4247.307617,4219.871582,4214.615234,4250.769043,4271.410156,3428.000000,4.000000,82.000000,,,,0.000000,4.000000,4.000000,4.000000,4.000000,4.000000,4.000000,4.000000,4.000000,4.000000,4.000000,4.000000,4.000000,4.000000,4.000000,100.000000,,,,,,,,,,,,,,,,
1644854637.153040,233.000000,0.000000,4255.897461,4234.487305,4238.205078,4216.410156,4216.282227,4232.692383,4221.153809,4228.461426,4236.282227,4242.948730,4208.974121,4209.358887,4243.205078,4271.922852,3483.000000,4.000000,82.000000,,,,0.000000,4.000000,4.000000,4.000000,4.000000,4.000000,4.000000,4.000000,4.000000,4.000000,4.000000,4.000000,4.000000,4.000000,4.000000,100.000000,,,,,,,,,,,,,,,,
1644854637.156980,234.000000,0.000000,4246.794922,4224.743652,4230.769043,4210.897461,4198.717773,4228.846191,4220.256348,4226.282227,4231.794922,4233.974121,4208.589844,4202.692383,4224.102539,4272.051270,3639.000000,4.000000,82.000000,,,,0.000000,4.000000,4.000000,4.000000,4.000000,4.000000,4.000000,4.000000,4.000000,4.000000,4.000000,4.000000,4.000000,4.000000,4.000000,100.000000,,,,,,,,,,,,,,,,
1644854637.160920,235.000000,0.000000,4237.820313,4212.563965,4223.333496,4215.897461,4194.358887,4223.846191,4221.282227,4221.153809,4225.384766,4226.153809,4215.256348,4197.307617,4204.230957,4268.205078,2329.000000,4.000000,82.000000,,,,0.000000,4.000000,4.000000,4.000000,4.000000,4.000000,4.000000,4.000000,4.000000,4.000000,4.000000,4.000000,4.000000,4.000000,4.000000,100.000000,,,,,,,,,,,,,,,,
1644854637.164860,236.000000,0.000000,4232.820313,4204.743652,4218.461426,4228.077148,4207.563965,4220.897461,4222.051270,4215.512695,4219.615234,4225.000000,4222.948730,4195.256348,4194.871582,4259.487305,3428.000000,4.000000,82.000000,,,,0.000000,4.000000,4.000000,4.000000,4.000000,4.000000,4.000000,4.000000,4.000000,4.000000,4.000000,4.000000,4.000000,4.000000,4.000000,100.000000,,,,,,,,,,,,,,,,
1644854637.168700,237.000000,0.000000,4233.461426,4206.410156,4217.179688,4239.358887,4229.615234,4221.410156,4221.025879,4212.307617,4217.051270,4230.769043,4227.307617,4197.436035,4199.743652,4250.641113,3483.000000,4.000000,82.000000,,,,0.000000,4.000000,4.000000,4.000000,4.000000,4.000000,4.000000,4.000000,4.000000,4.000000,4.000000,4.000000,4.000000,4.000000,4.000000,100.000000,,,,,,,,,,,,,,,,
1644854637.172640,238.000000,0.000000,4237.948730,4216.666504,4219.358887,4243.461426,4244.743652,4224.615234,4219.743652,4213.205078,4218.205078,4238.846191,4227.820313,4201.666504,4213.846191,4249.230957,3639.000000,4.000000,82.000000,,,,0.000000,4.000000,4.000000,4.000000,4.000000,4.000000,4.000000,4.000000,4.000000,4.000000,4.000000,4.000000,4.000000,4.000000,4.000000,100.000000,,,,,,,,,,,,,,,,
1644854637.176580,239.000000,0.000000,4242.051270,4228.974121,4223.205078,4239.871582,4243.589844,4228.333496,4219.871582,4217.051270,4221.922852,4243.846191,4225.769043,4205.128418,4228.205078,4257.307617,2329.000000,4.000000,82.000000,,,,0.000000,4.000000,4.000000,4.000000,4.000000,4.000000,4.000000,4.000000,4.000000,4.000000,4.000000,4.000000,4.000000,4.000000,4.000000,100.000000,,,,,,,,,,,,,,,,
1644854637.180520,240.000000,0.000000,4243.333496,4235.769043,4226.922852,4233.077148,4229.615234,4230.897461,4221.410156,4221.410156,4226.153809,4243.333496,4224.102539,4206.025879,4236.922852,4268.846191,3428.000000,4.000000,82.000000,,,,0.000000,4.000000,4.000000,4.000000,4.000000,4.000000,4.000000,4.000000,4.000000,4.000000,4.000000,4.000000,4.000000,4.000000,4.000000,100.000000,,,,,,,,,,,,,,,,
1644854637.184460,241.000000,0.000000,4241.666504,4233.974121,4229.358887,4228.461426,4215.641113,4232.563965,4222.436035,4224.102539,4229.743652,4238.333496,4225.384766,4205.641113,4238.717773,4274.230957,3483.000000,4.000000,82.000000,,,,0.000000,4.000000,4.000000,4.000000,4.000000,4.000000,4.000000,4.000000,4.000000,4.000000,4.000000,4.000000,4.000000,4.000000,4.000000,100.000000,,,,,,,,,,,,,,,,
1644854637.188401,242.000000,0.000000,4237.820313,4226.410156,4230.000000,4228.205078,4212.051270,4233.589844,4222.051270,4224.743652,4231.666504,4232.179688,4228.974121,4205.512695,4234.743652,4268.589844,3639.000000,4.000000,82.000000,,,,0.000000,4.000000,4.000000,4.000000,4.000000,4.000000,4.000000,4.000000,4.000000,4.000000,4.000000,4.000000,4.000000,4.000000,4.000000,100.000000,,,,,,,,,,,,,,,,
1644854637.192341,243.000000,0.000000,4232.820313,4219.102539,4228.974121,4230.256348,4220.000000,4233.589844,4221.282227,4223.846191,4231.025879,4227.307617,4230.641113,4205.641113,4227.307617,4256.025879,2329.000000,4.000000,82.000000,,,,0.000000,4.000000,4.000000,4.000000,4.000000,4.000000,4.000000,4.000000,4.000000,4.000000,4.000000,4.000000,4.000000,4.000000,4.000000,100.000000,,,,,,,,,,,,,,,,
1644854637.196281,244.000000,0.000000,4226.922852,4216.666504,4226.794922,4230.897461,4231.282227,4231.922852,4221.025879,4221.666504,4227.692383,4224.743652,4225.000000,4203.846191,4219.358887,4245.384766,3428.000000,4.000000,82.000000,,,,0.000000,4.000000,4.000000,4.000000,4.000000,4.000000,4.000000,4.000000,4.000000,4.000000,4.000000,4.000000,4.000000,4.000000,4.000000,100.000000,,,,,,,,,,,,,,,,
1644854637.200221,245.000000,0.000000,4221.410156,4219.743652,4223.589844,4227.051270,4236.666504,4228.333496,4220.512695,4218.333496,4223.077148,4225.256348,4210.897461,4198.717773,4214.230957,4242.692383,3483.000000,4.000000,82.000000,,,,0.000000,4.000000,4.000000,4.000000,4.000000,4.000000,4.000000,4.000000,4.000000,4.000000,4.000000,4.000000,4.000000,4.000000,4.000000,100.000000,,,,,,,,,,,,,,,,
1644854637.204261,246.000000,0.000000,4218.333496,4225.000000,4219.871582,4219.487305,4232.948730,4224.487305,4218.077148,4214.615234,4220.384766,4228.461426,4193.846191,4191.794922,4213.077148,4247.179688,3639.000000,4.000000,82.000000,,,,0.000000,4.000000,4.000000,4.000000,4.000000,4.000000,4.000000,4.000000,4.000000,4.000000,4.000000,4.000000,4.000000,4.000000,4.000000,100.000000,,,,,,,,,,,,,,,,
1644854637.208201,247.000000,0.000000,4218.974121,4228.205078,4216.410156,4212.563965,4224.615234,4222.436035,4214.487305,4212.436035,4221.666504,4233.333496,4183.205078,4186.153809,4215.128418,4253.974121,2329.000000,4.000000,82.000000,,,,0.000000,4.000000,4.000000,4.000000,4.000000,4.000000,4.000000,4.000000,4.000000,4.000000,4.000000,4.000000,4.000000,4.000000,4.000000,100.000000,,,,,,,,,,,,,,,,
1644854637.212141,248.000000,0.000000,4222.948730,4226.538574,4213.974121,4210.641113,4218.589844,4222.948730,4213.077148,4213.461426,4226.410156,4237.948730,4186.282227,4184.487305,4218.846191,4258.589844,3428.000000,4.000000,82.000000,,,,0.000000,4.000000,4.000000,4.000000,4.000000,4.000000,4.000000,4.000000,4.000000,4.000000,4.000000,4.000000,4.000000,4.000000,4.000000,100.000000,,,,,,,,,,,,,,,,
1644854637.216081,249.000000,0.000000,4228.077148,4221.282227,4213.717773,4215.000000,4217.692383,4224.743652,4216.410156,4217.307617,4231.922852,4241.025879,4202.307617,4187.051270,4224.230957,4259.487305,3483.000000,4.000000,82.000000,,,,0.000000,4.000000,4.000000,4.000000,4.000000,4.000000,4.000000,4.000000,4.000000,4.000000,4.000000,4.000000,4.000000,4.000000,4.000000,100.000000,,,,,,,,,,,,,,,,
1644854637.220121,250.000000,0.000000,4232.692383,4216.922852,4216.153809,4223.077148,4218.974121,4226.538574,4222.948730,4222.051270,4235.897461,4242.692383,4223.717773,4192.436035,4231.666504,4257.563965,3639.000000,4.000000,82.000000,,,,0.000000,4.000000,4.000000,4.000000,4.000000,4.000000,4.000000,4.000000,4.000000,4.000000,4.000000,4.000000,4.000000,4.000000,4.000000,100.000000,,,,,,,,,,,,,,,,
1644854637.224061,251.000000,0.000000,4236.410156,4218.846191,4220.897461,4231.282227,4218.717773,4228.333496,4227.948730,4226.153809,4238.333496,4244.358887,4240.128418,4198.461426,4239.615234,4255.000000,2329.000000,4.000000,82.000000,,,,0.000000,4.000000,4.000000,4.000000,4.000000,4.000000,4.000000,4.000000,4.000000,4.000000,4.000000,4.000000,4.000000,4.000000,4.000000,100.000000,,,,,,,,,,,,,,,,
1644854637.228001,252.000000,0.000000,4239.487305,4228.589844,4226.922852,4237.307617,4217.948730,4231.410156,4228.589844,4228.589844,4240.641113,4247.436035,4245.897461,4203.846191,4245.384766,4254.487305,3428.000000,4.000000,82.000000,,,,0.000000,4.000000,4.000000,4.000000,4.000000,4.000000,4.000000,4.000000,4.000000,4.000000,4.000000,4.000000,4.000000,4.000000,4.000000,100.000000,,,,,,,,,,,,,,,,
1644854637.231942,253.000000,0.000000,4242.051270,4241.922852,4232.948730,4239.487305,4220.769043,4236.538574,4227.179688,4230.000000,4242.948730,4251.153809,4242.307617,4208.333496,4245.769043,4257.563965,3483.000000,4.000000,82.000000,,,,0.000000,4.000000,4.000000,4.000000,4.000000,4.000000,4.000000,4.000000,4.000000,4.000000,4.000000,4.000000,4.000000,4.000000,4.000000,100.000000,,,,,,,,,,,,,,,,
1644854637.235982,254.000000,0.000000,4242.948730,4251.153809,4237.948730,4237.820313,4229.487305,4242.436035,4227.692383,4231.025879,4244.358887,4252.692383,4236.794922,4212.307617,4239.871582,4262.051270,3639.000000,4.000000,82.000000,,,,0.000000,4.000000,4.000000,4.000000,4.000000,4.000000,4.000000,4.000000,4.000000,4.000000,4.000000,4.000000,4.000000,4.000000,4.000000,100.000000,,,,,,,,,,,,,,,,
1644854637.239922,255.000000,0.000000,4241.794922,4251.153809,4240.384766,4234.102539,4241.025879,4246.282227,4230.641113,4232.051270,4243.333496,4250.256348,4235.641113,4215.897461,4230.256348,4263.589844,112.000000,4.000000,82.000000,,,,0.000000,4.000000,4.000000,4.000000,4.000000,4.000000,4.000000,4.000000,4.000000,4.000000,4.000000,4.000000,4.000000,4.000000,4.000000,100.000000,,,,,,,,,,,,,,,,
1644854637.243862,0.000000,0.000000,4238.589844,4242.820313,4240.000000,4231.153809,4248.717773,4245.384766,4232.563965,4231.922852,4240.512695,4244.743652,4239.102539,4218.333496,4220.897461,4259.615234,3275.000000,4.000000,82.000000,,,,0.000000,4.000000,4.000000,4.000000,4.000000,4.000000,4.000000,4.000000,4.000000,4.000000,4.000000,4.000000,4.000000,4.000000,4.000000,100.000000,,,,,,,,,,,,,,,,
1644854637.247802,1.000000,0.000000,4235.128418,4231.666504,4237.563965,4230.384766,4246.794922,4239.487305,4230.256348,4230.128418,4237.563965,4239.487305,4242.051270,4218.589844,4216.153809,4252.563965,3464.000000,4.000000,82.000000,,,,0.000000,4.000000,4.000000,4.000000,4.000000,4.000000,4.000000,4.000000,4.000000,4.000000,4.000000,4.000000,4.000000,4.000000,4.000000,100.000000,,,,,,,,,,,,,,,,
1644854637.251742,2.000000,0.000000,4233.717773,4223.205078,4235.128418,4231.153809,4235.897461,4231.538574,4225.512695,4227.563965,4236.025879,4237.692383,4240.000000,4217.307617,4218.205078,4247.820313,3533.000000,4.000000,82.000000,,,,0.000000,4.000000,4.000000,4.000000,4.000000,4.000000,4.000000,4.000000,4.000000,4.000000,4.000000,4.000000,4.000000,4.000000,4.000000,100.000000,,,,,,,,,,,,,,,,
1644854637.255682,3.000000,0.000000,4236.538574,4220.769043,4235.384766,4231.922852,4223.205078,4225.769043,4222.563965,4226.025879,4236.282227,4239.871582,4234.743652,4215.769043,4227.179688,4249.358887,3531.000000,4.000000,82.000000,,,,0.000000,4.000000,4.000000,4.000000,4.000000,4.000000,4.000000,4.000000,4.000000,4.000000,4.000000,4.000000,4.000000,4.000000,4.000000,100.000000,,,,,,,,,,,,,,,,
1644854637.259622,4.000000,0.000000,4243.461426,4224.358887,4238.589844,4231.794922,4217.051270,4225.384766,4223.846191,4226.666504,4237.692383,4244.615234,4232.948730,4216.282227,4241.153809,4256.666504,3383.000000,4.000000,82.000000,,,,0.000000,4.000000,4.000000,4.000000,4.000000,4.000000,4.000000,4.000000,4.000000,4.000000,4.000000,4.000000,4.000000,4.000000,4.000000,100.000000,,,,,,,,,,,,,,,,
1644854637.263562,5.000000,0.000000,4250.897461,4231.410156,4243.077148,4231.410156,4221.410156,4230.128418,4227.051270,4228.461426,4239.358887,4249.487305,4237.820313,4219.230957,4255.256348,4265.128418,3529.000000,4.000000,82.000000,,,,0.000000,4.000000,4.000000,4.000000,4.000000,4.000000,4.000000,4.000000,4.000000,4.000000,4.000000,4.000000,4.000000,4.000000,4.000000,100.000000,,,,,,,,,,,,,,,,
1644854637.267502,6.000000,0.000000,4254.230957,4237.692383,4245.769043,4232.307617,4232.436035,4235.256348,4228.077148,4229.358887,4239.871582,4251.922852,4244.871582,4222.307617,4264.102539,4270.256348,2645.000000,4.000000,82.000000,,,,0.000000,4.000000,4.000000,4.000000,4.000000,4.000000,4.000000,4.000000,4.000000,4.000000,4.000000,4.000000,4.000000,4.000000,4.000000,100.000000,,,,,,,,,,,,,,,,
1644854637.271442,7.000000,0.000000,4252.307617,4239.358887,4244.871582,4235.897461,4241.025879,4236.282227,4226.025879,4227.948730,4237.948730,4249.358887,4245.256348,4222.692383,4263.205078,4270.256348,3060.000000,4.000000,82.000000,,,,0.000000,4.000000,4.000000,4.000000,4.000000,4.000000,4.000000,4.000000,4.000000,4.000000,4.000000,4.000000,4.000000,4.000000,4.000000,100.000000,,,,,,,,,,,,,,,,
1644854637.275383,8.000000,0.000000,4247.820313,4235.897461,4241.410156,4241.538574,4238.974121,4231.538574,4223.077148,4224.743652,4233.461426,4240.641113,4235.512695,4220.256348,4252.051270,4265.256348,3326.000000,4.000000,82.000000,,,,0.000000,4.000000,4.000000,4.000000,4.000000,4.000000,4.000000,4.000000,4.000000,4.000000,4.000000,4.000000,4.000000,4.000000,4.000000,100.000000,,,,,,,,,,,,,,,,
1644854637.279323,9.000000,0.000000,4245.128418,4230.256348,4237.820313,4246.922852,4226.666504,4224.871582,4221.410156,4221.410156,4227.948730,4228.461426,4220.769043,4217.820313,4234.487305,4256.794922,3666.000000,4.000000,82.000000,,,,0.000000,4.000000,4.000000,4.000000,4.000000,4.000000,4.000000,4.000000,4.000000,4.000000,4.000000,4.000000,4.000000,4.000000,4.000000,100.000000,,,,,,,,,,,,,,,,
1644854637.283263,10.000000,0.000000,4245.897461,4225.897461,4236.025879,4249.230957,4212.563965,4221.666504,4221.282227,4219.743652,4224.487305,4218.974121,4210.897461,4217.692383,4218.461426,4246.922852,3556.000000,4.000000,82.000000,,,,0.000000,4.000000,4.000000,4.000000,4.000000,4.000000,4.000000,4.000000,4.000000,4.000000,4.000000,4.000000,4.000000,4.000000,4.000000,100.000000,,,,,,,,,,,,,,,,
1644854637.287203,11.000000,0.000000,4247.179688,4224.871582,4236.153809,4247.692383,4206.794922,4224.487305,4221.794922,4220.512695,4224.743652,4217.948730,4213.077148,4218.974121,4211.410156,4239.615234,2269.000000,4.000000,82.000000,1,1,3,0.000000,4.000000,4.000000,4.000000,4.000000,4.000000,4.000000,4.000000,4.000000,4.000000,4.000000,4.000000,4.000000,4.000000,4.000000,100.000000,,,,,,,,,,,,,,,,
1644854637.291143,12.000000,0.000000,4244.871582,4227.179688,4237.692383,4242.179688,4212.820313,4230.512695,4222.948730,4222.563965,4227.436035,4225.641113,4225.769043,4218.974121,4215.256348,4239.487305,3465.000000,4.000000,82.000000,,,,0.000000,4.000000,4.000000,4.000000,4.000000,4.000000,4.000000,4.000000,4.000000,4.000000,4.000000,4.000000,4.000000,4.000000,4.000000,100.000000,,,,,,,,,,,,,,,,
1644854637.294983,13.000000,0.000000,4238.333496,4230.769043,4238.974121,4233.589844,4224.102539,4234.358887,4225.000000,4224.230957,4229.871582,4235.769043,4239.871582,4216.025879,4225.128418,4247.436035,3644.000000,4.000000,82.000000,,,,0.000000,4.000000,4.000000,4.000000,4.000000,4.000000,4.000000,4.000000,4.000000,4.000000,4.000000,4.000000,4.000000,4.000000,4.000000,100.000000,,,,,,,,,,,,,,,,
1644854637.298923,14.000000,0.000000,4230.384766,4232.948730,4238.077148,4223.205078,4230.512695,4232.692383,4226.410156,4224.102539,4229.743652,4240.256348,4244.871582,4210.641113,4232.948730,4257.563965,3556.000000,4.000000,82.000000,,,,0.000000,4.000000,4.000000,4.000000,4.000000,4.000000,4.000000,4.000000,4.000000,4.000000,4.000000,4.000000,4.000000,4.000000,4.000000,100.000000,,,,,,,,,,,,,,,,
1644854637.302863,15.000000,0.000000,4226.025879,4232.051270,4234.102539,4212.692383,4227.307617,4226.666504,4224.743652,4221.410156,4226.410156,4235.000000,4236.282227,4205.000000,4233.461426,4261.666504,2269.000000,4.000000,82.000000,,,,0.000000,4.000000,4.000000,4.000000,4.000000,4.000000,4.000000,4.000000,4.000000,4.000000,4.000000,4.000000,4.000000,4.000000,4.000000,100.000000,,,,,,,,,,,,,,,,
1644854637.306804,16.000000,0.000000,4227.563965,4227.563965,4228.846191,4205.512695,4217.563965,4220.128418,4220.384766,4217.051270,4221.538574,4223.974121,4218.589844,4201.153809,4228.205078,4256.282227,3465.000000,4.000000,82.000000,,,,0.000000,4.000000,4.000000,4.000000,4.000000,4.000000,4.000000,4.000000,4.000000,4.000000,4.000000,4.000000,4.000000,4.000000,4.000000,100.000000,,,,,,,,,,,,,,,,
1644854637.310844,17.000000,0.000000,4232.820313,4221.025879,4225.641113,4206.538574,4209.358887,4217.948730,4216.794922,4213.846191,4217.948730,4216.153809,4202.436035,4200.384766,4222.692383,4245.641113,3644.000000,4.000000,82.000000,,,,0.000000,4.000000,4.000000,4.000000,4.000000,4.000000,4.000000,4.000000,4.000000,4.000000,4.000000,4.000000,4.000000,4.000000,4.000000,100.000000,,,,,,,,,,,,,,,,
1644854637.314784,18.000000,0.000000,4237.820313,4214.871582,4226.538574,4217.563965,4208.461426,4221.538574,4218.205078,4214.358887,4218.589844,4218.205078,4197.307617,4202.436035,4222.436035,4238.077148,3556.000000,4.000000,82.000000,,,,0.000000,4.000000,4.000000,4.000000,4.000000,4.000000,4.000000,4.000000,4.000000,4.000000,4.000000,4.000000,4.000000,4.000000,4.000000,100.000000,,,,,,,,,,,,,,,,
1644854637.318724,19.000000,0.000000,4239.230957,4211.666504,4230.512695,4233.589844,4215.128418,4227.948730,4223.461426,4219.230957,4224.102539,4229.487305,4206.025879,4206.025879,4228.846191,4237.563965,2269.000000,4.000000,82.000000,,,,0.000000,4.000000,4.000000,4.000000,4.000000,4.000000,4.000000,4.000000,4.000000,4.000000,4.000000,4.000000,4.000000,4.000000,4.000000,100.000000,,,,,,,,,,,,,,,,
1644854637.322664,20.000000,0.000000,4236.538574,4212.179688,4233.974121,4243.846191,4224.871582,4231.794922,4227.307617,4225.512695,4232.307617,4242.948730,4223.205078,4209.487305,4237.692383,4241.922852,3465.000000,4.000000,82.000000,,,,0.000000,4.000000,4.000000,4.000000,4.000000,4.000000,4.000000,4.000000,4.000000,4.000000,4.000000,4.000000,4.000000,4.000000,4.000000,100.000000,,,,,,,,,,,,,,,,
1644854637.326604,21.000000,0.000000,4232.179688,4215.000000,4233.589844,4238.974121,4231.410156,4229.615234,4225.512695,4229.871582,4239.102539,4250.641113,4239.743652,4211.410156,4242.563965,4246.153809,3644.000000,4.000000,82.000000,,,,0.000000,4.000000,4.000000,4.000000,4.000000,4.000000,4.000000,4.000000,4.000000,4.000000,4.000000,4.000000,4.000000,4.000000,4.000000,100.000000,,,,,,,,,,,,,,,,
1644854637.330544,22.000000,0.000000,4228.589844,4217.307617,4229.487305,4220.641113,4231.666504,4222.820313,4219.615234,4230.769043,4241.153809,4249.871582,4247.179688,4211.282227,4239.743652,4247.307617,3556.000000,4.000000,82.000000,,,,0.000000,4.000000,4.000000,4.000000,4.000000,4.000000,4.000000,4.000000,4.000000,4.000000,4.000000,4.000000,4.000000,4.000000,4.000000,100.000000,,,,,,,,,,,,,,,,
1644854637.334484,23.000000,0.000000,4227.179688,4217.436035,4223.717773,4200.256348,4225.897461,4216.153809,4214.871582,4228.846191,4237.563965,4243.333496,4242.820313,4209.230957,4230.256348,4246.025879,2269.000000,4.000000,82.000000,,,,0.000000,4.000000,4.000000,4.000000,4.000000,4.000000,4.000000,4.000000,4.000000,4.000000,4.000000,4.000000,4.000000,4.000000,4.000000,100.000000,,,,,,,,,,,,,,,,
1644854637.338424,24.000000,0.000000,4226.794922,4215.897461,4219.102539,4190.384766,4217.179688,4213.461426,4213.846191,4225.256348,4230.641113,4236.538574,4230.128418,4205.256348,4219.102539,4243.333496,3465.000000,4.000000,82.000000,,,,0.000000,4.000000,4.000000,4.000000,4.000000,4.000000,4.000000,4.000000,4.000000,4.000000,4.000000,4.000000,4.000000,4.000000,4.000000,100.000000,,,,,,,,,,,,,,,,
1644854637.342364,25.000000,0.000000,4226.282227,4214.230957,4216.794922,4195.384766,4208.717773,4215.128418,4214.487305,4221.025879,4224.102539,4233.077148,4217.307617,4200.512695,4211.922852,4239.743652,3644.000000,4.000000,82.000000,,,,0.000000,4.000000,4.000000,4.000000,4.000000,4.000000,4.000000,4.000000,4.000000,4.000000,4.000000,4.000000,4.000000,4.000000,4.000000,100.000000,,,,,,,,,,,,,,,,
1644854637.346304,26.000000,0.000000,4225.897461,4213.974121,4217.051270,4210.384766,4202.436035,4217.563965,4213.333496,4217.179688,4220.769043,4232.436035,4212.563965,4196.538574,4211.282227,4235.256348,3556.000000,4.000000,82.000000,,,,0.000000,4.000000,4.000000,4.000000,4.000000,4.000000,4.000000,4.000000,4.000000,4.000000,4.000000,4.000000,4.000000,4.000000,4.000000,100.000000,,,,,,,,,,,,,,,,
1644854637.350245,27.000000,0.000000,4227.179688,4214.871582,4219.102539,4225.769043,4199.487305,4218.077148,4210.769043,4214.743652,4221.153809,4231.025879,4218.717773,4195.128418,4215.897461,4232.436035,2269.000000,4.000000,82.000000,,,,0.000000,4.000000,4.000000,4.000000,4.000000,4.000000,4.000000,4.000000,4.000000,4.000000,4.000000,4.000000,4.000000,4.000000,4.000000,100.000000,,,,,,,,,,,,,,,,
1644854637.354185,28.000000,0.000000,4230.000000,4216.153809,4221.282227,4233.333496,4201.025879,4216.153809,4209.615234,4214.743652,4223.589844,4226.666504,4231.153809,4196.922852,4222.563965,4233.589844,3465.000000,4.000000,82.000000,,,,0.000000,4.000000,4.000000,4.000000,4.000000,4.000000,4.000000,4.000000,4.000000,4.000000,4.000000,4.000000,4.000000,4.000000,4.000000,100.000000,,,,,,,,,,,,,,,,
1644854637.358125,29.000000,0.000000,4232.307617,4216.794922,4222.179688,4231.153809,4208.077148,4214.615234,4211.538574,4216.666504,4226.282227,4221.794922,4240.897461,4201.025879,4228.589844,4238.589844,3644.000000,4.000000,82.000000,,,,0.000000,4.000000,4.000000,4.000000,4.000000,4.000000,4.000000,4.000000,4.000000,4.000000,4.000000,4.000000,4.000000,4.000000,4.000000,100.000000,,,,,,,,,,,,,,,,
1644854637.362065,30.000000,0.000000,4230.512695,4216.922852,4221.282227,4223.077148,4219.102539,4215.897461,4214.358887,4218.589844,4227.563965,4221.153809,4241.794922,4204.743652,4232.179688,4242.820313,3556.000000,4.000000,82.000000,,,,0.000000,4.000000,4.000000,4.000000,4.000000,4.000000,4.000000,4.000000,4.000000,4.000000,4.000000,4.000000,4.000000,4.000000,4.000000,100.000000,,,,,,,,,,,,,,,,
1644854637.366005,31.000000,0.000000,4224.230957,4217.179688,4218.717773,4214.871582,4228.461426,4219.230957,4214.615234,4218.077148,4226.410156,4226.538574,4233.717773,4205.641113,4232.179688,4241.410156,2269.000000,4.000000,82.000000,,,,0.000000,4.000000,4.000000,4.000000,4.000000,4.000000,4.000000,4.000000,4.000000,4.000000,4.000000,4.000000,4.000000,4.000000,4.000000,100.000000,,,,,,,,,,,,,,,,
1644854637.369945,32.000000,0.000000,4216.153809,4217.692383,4215.256348,4209.487305,4229.358887,4221.538574,4211.410156,4214.487305,4222.179688,4234.102539,4220.641113,4203.333496,4228.077148,4234.615234,0.000000,4.000000,82.000000,,,,0.000000,4.000000,4.000000,4.000000,4.000000,4.000000,4.000000,4.000000,4.000000,4.000000,4.000000,4.000000,4.000000,4.000000,4.000000,100.000000,1.000000,91.666664,4.000000,4.000000,4.000000,4.000000,3.000000,4.000000,4.000000,4.000000,4.000000,4.000000,4.000000,4.000000,4.000000,4.000000
1644854637.373885,33.000000,0.000000,4211.153809,4217.692383,4212.692383,4205.897461,4220.000000,4220.512695,4207.692383,4209.358887,4216.153809,4237.307617,4207.692383,4199.487305,4221.153809,4227.307617,0.000000,4.000000,82.000000,,,,0.000000,4.000000,4.000000,4.000000,4.000000,4.000000,4.000000,4.000000,4.000000,4.000000,4.000000,4.000000,4.000000,4.000000,4.000000,100.000000,,,,,,,,,,,,,,,,
1644854637.377725,34.000000,0.000000,4212.436035,4216.666504,4212.179688,4201.410156,4206.282227,4216.410156,4205.897461,4205.769043,4211.025879,4232.563965,4200.128418,4196.538574,4215.128418,4224.230957,0.000000,4.000000,82.000000,,,,0.000000,4.000000,4.000000,4.000000,4.000000,4.000000,4.000000,4.000000,4.000000,4.000000,4.000000,4.000000,4.000000,4.000000,4.000000,100.000000,,,,,,,,,,,,,,,,
1644854637.381666,35.000000,0.000000,4219.102539,4215.256348,4213.589844,4196.538574,4196.922852,4212.307617,4206.410156,4206.025879,4210.128418,4223.333496,4201.410156,4196.538574,4213.589844,4225.641113,0.000000,4.000000,82.000000,,,,0.000000,4.000000,4.000000,4.000000,4.000000,4.000000,4.000000,4.000000,4.000000,4.000000,4.000000,4.000000,4.000000,4.000000,4.000000,100.000000,,,,,,,,,,,,,,,,
1644854637.385606,36.000000,0.000000,4226.666504,4214.230957,4215.128418,4195.000000,4196.153809,4210.897461,4207.307617,4209.743652,4213.974121,4217.307617,4211.538574,4199.615234,4216.282227,4227.948730,0.000000,4.000000,82.000000,,,,0.000000,4.000000,4.000000,4.000000,4.000000,4.000000,4.000000,4.000000,4.000000,4.000000,4.000000,4.000000,4.000000,4.000000,4.000000,100.000000,,,,,,,,,,,,,,,,
1644854637.389546,37.000000,0.000000,4229.871582,4213.205078,4215.128418,4200.128418,4201.025879,4212.563965,4207.436035,4214.358887,4220.512695,4219.615234,4225.128418,4203.717773,4219.487305,4228.461426,0.000000,4.000000,82.000000,2,1,3,0.000000,4.000000,4.000000,4.000000,4.000000,4.000000,4.000000,4.000000,4.000000,4.000000,4.000000,4.000000,4.000000,4.000000,4.000000,100.000000,,,,,,,,,,,,,,,,
1644854637.393486,38.000000,0.000000,4225.897461,4211.794922,4213.077148,4210.256348,4206.153809,4215.000000,4207.563965,4217.563965,4226.153809,4228.205078,4233.846191,4205.256348,4219.615234,4226.794922,0.000000,4.000000,82.000000,,,,0.000000,4.000000,4.000000,4.000000,4.000000,4.000000,4.000000,4.000000,4.000000,4.000000,4.000000,4.000000,4.000000,4.000000,4.000000,100.000000,,,,,,,,,,,,,,,,
1644854637.397426,39.000000,0.000000,4215.897461,4210.000000,4210.128418,4219.358887,4208.717773,4215.769043,4208.333496,4218.974121,4228.717773,4236.666504,4232.436035,4202.436035,4215.897461,4223.333496,0.000000,4.000000,82.000000,,,,0.000000,4.000000,4.000000,4.000000,4.000000,4.000000,4.000000,4.000000,4.000000,4.000000,4.000000,4.000000,4.000000,4.000000,4.000000,100.000000,,,,,,,,,,,,,,,,
1644854637.401366,40.000000,0.000000,4204.871582,4210.128418,4208.333496,4222.436035,4210.897461,4214.871582,4209.487305,4220.000000,4228.717773,4240.256348,4223.205078,4196.794922,4211.538574,4218.077148,0.000000,4.000000,82.000000,,,,0.000000,4.000000,4.000000,4.000000,4.000000,4.000000,4.000000,4.000000,4.000000,4.000000,4.000000,4.000000,4.000000,4.000000,4.000000,100.000000,,,,,,,,,,,,,,,,
1644854637.405306,41.000000,0.000000,4198.589844,4214.102539,4208.846191,4219.615234,4214.743652,4215.256348,4210.256348,4222.051270,4229.230957,4239.102539,4213.974121,4192.307617,4210.384766,4212.820313,0.000000,4.000000,82.000000,,,,0.000000,4.000000,4.000000,4.000000,4.000000,4.000000,4.000000,4.000000,4.000000,4.000000,4.000000,4.000000,4.000000,4.000000,4.000000,100.000000,,,,,,,,,,,,,,,,
1644854637.409246,42.000000,0.000000,4199.743652,4220.897461,4211.025879,4214.102539,4219.102539,4219.230957,4211.153809,4224.871582,4231.410156,4235.000000,4212.051270,4191.666504,4214.102539,4211.025879,0.000000,4.000000,82.000000,,,,0.000000,4.000000,4.000000,4.000000,4.000000,4.000000,4.000000,4.000000,4.000000,4.000000,4.000000,4.000000,4.000000,4.000000,4.000000,100.000000,,,,,,,,,,,,,,,,
1644854637.413186,43.000000,0.000000,4206.538574,4224.871582,4212.436035,4207.820313,4219.743652,4225.256348,4212.948730,4227.179688,4233.333496,4228.846191,4218.333496,4193.974121,4219.615234,4214.230957,0.000000,4.000000,82.000000,,,,0.000000,4.000000,4.000000,4.000000,4.000000,4.000000,4.000000,4.000000,4.000000,4.000000,4.000000,4.000000,4.000000,4.000000,4.000000,100.000000,,,,,,,,,,,,,,,,
1644854637.417126,44.000000,0.000000,4213.333496,4220.384766,4210.897461,4200.897461,4214.230957,4229.358887,4214.871582,4226.922852,4232.179688,4221.794922,4226.666504,4195.000000,4222.051270,4219.358887,0.000000,4.000000,82.000000,,,,0.000000,4.000000,4.000000,4.000000,4.000000,4.000000,4.000000,4.000000,4.000000,4.000000,4.000000,4.000000,4.000000,4.000000,4.000000,100.000000,,,,,,,,,,,,,,,,
1644854637.421067,45.000000,0.000000,4214.615234,4206.666504,4206.025879,4194.358887,4206.282227,4228.589844,4214.487305,4223.717773,4227.436035,4215.897461,4228.589844,4192.051270,4218.333496,4220.384766,0.000000,4.000000,82.000000,,,,0.000000,4.000000,4.000000,4.000000,4.000000,4.000000,4.000000,4.000000,4.000000,4.000000,4.000000,4.000000,4.000000,4.000000,4.000000,100.000000,,,,,,,,,,,,,,,,
1644854637.425007,46.000000,0.000000,4209.102539,4190.512695,4200.128418,4191.538574,4202.307617,4224.487305,4211.153809,4218.974121,4221.666504,4213.974121,4220.256348,4186.282227,4209.230957,4214.615234,0.000000,4.000000,82.000000,,,,0.000000,4.000000,4.000000,4.000000,4.000000,4.000000,4.000000,4.000000,4.000000,4.000000,4.000000,4.000000,4.000000,4.000000,4.000000,100.000000,,,,,,,,,,,,,,,,
1644854637.428947,47.000000,0.000000,4200.512695,4181.282227,4196.922852,4195.000000,4206.922852,4220.641113,4207.563965,4215.641113,4218.974121,4217.436035,4206.410156,4181.922852,4199.358887,4206.538574,0.000000,4.000000,82.000000,,,,0.000000,4.000000,4.000000,4.000000,4.000000,4.000000,4.000000,4.000000,4.000000,4.000000,4.000000,4.000000,4.000000,4.000000,4.000000,100.000000,,,,,,,,,,,,,,,,
1644854637.432887,48.000000,0.000000,4195.512695,4185.256348,4199.487305,4204.487305,4217.820313,4220.384766,4208.077148,4216.794922,4221.666504,4225.769043,4197.563965,4182.692383,4194.743652,4203.974121,0.000000,4.000000,82.000000,,,,0.000000,4.000000,4.000000,4.000000,4.000000,4.000000,4.000000,4.000000,4.000000,4.000000,4.000000,4.000000,4.000000,4.000000,4.000000,100.000000,,,,,,,,,,,,,,,,
1644854637.436827,49.000000,0.000000,4199.102539,4200.641113,4208.333496,4215.769043,4228.077148,4223.589844,4213.846191,4222.307617,4228.589844,4236.282227,4202.436035,4189.102539,4198.846191,4210.256348,0.000000,4.000000,82.000000,,,,0.000000,4.000000,4.000000,4.000000,4.000000,4.000000,4.000000,4.000000,4.000000,4.000000,4.000000,4.000000,4.000000,4.000000,4.000000,100.000000,,,,,,,,,,,,,,,,
1644854637.440767,50.000000,0.000000,4210.256348,4218.846191,4219.230957,4223.589844,4230.897461,4227.436035,4220.512695,4228.461426,4235.641113,4245.000000,4220.769043,4198.077148,4211.282227,4221.153809,0.000000,4.000000,82.000000,,,,0.000000,4.000000,4.000000,4.000000,4.000000,4.000000,4.000000,4.000000,4.000000,4.000000,4.000000,4.000000,4.000000,4.000000,4.000000,100.000000,,,,,,,,,,,,,,,,
1644854637.444707,51.000000,0.000000,4222.436035,4229.615234,4226.666504,4224.871582,4224.743652,4228.589844,4222.179688,4231.025879,4237.948730,4246.922852,4242.436035,4205.256348,4226.666504,4228.717773,0.000000,4.000000,82.000000,,,,0.000000,4.000000,4.000000,4.000000,4.000000,4.000000,4.000000,4.000000,4.000000,4.000000,4.000000,4.000000,4.000000,4.000000,4.000000,100.000000,,,,,,,,,,,,,,,,
1644854637.448747,52.000000,0.000000,4227.307617,4228.077148,4227.820313,4220.897461,4215.000000,4225.897461,4217.307617,4227.820313,4233.077148,4239.230957,4254.230957,4207.436035,4238.077148,4229.230957,0.000000,4.000000,82.000000,,,,0.000000,4.000000,4.000000,4.000000,4.000000,4.000000,4.000000,4.000000,4.000000,4.000000,4.000000,4.000000,4.000000,4.000000,4.000000,100.000000,,,,,,,,,,,,,,,,
1644854637.452687,53.000000,0.000000,4222.179688,4217.563965,4224.615234,4215.897461,4208.333496,4220.256348,4210.384766,4220.512695,4222.820313,4224.487305,4249.487305,4204.871582,4241.410156,4225.641113,0.000000,4.000000,82.000000,,,,0.000000,4.000000,4.000000,4.000000,4.000000,4.000000,4.000000,4.000000,4.000000,4.000000,4.000000,4.000000,4.000000,4.000000,4.000000,100.000000,,,,,,,,,,,,,,,,
1644854637.456627,54.000000,0.000000,4213.333496,4207.179688,4221.410156,4213.974121,4207.948730,4214.487305,4207.436035,4213.846191,4213.077148,4209.487305,4234.102539,4200.769043,4237.051270,4224.102539,0.000000,4.000000,82.000000,,,,0.000000,4.000000,4.000000,4.000000,4.000000,4.000000,4.000000,4.000000,4.000000,4.000000,4.000000,4.000000,4.000000,4.000000,4.000000,100.000000,,,,,,,,,,,,,,,,
1644854637.460568,55.000000,0.000000,4211.025879,4204.230957,4221.666504,4215.769043,4211.282227,4211.666504,4210.000000,4211.153809,4209.230957,4202.179688,4221.666504,4199.358887,4230.512695,4226.794922,0.000000,4.000000,82.000000,,,,0.000000,4.000000,4.000000,4.000000,4.000000,4.000000,4.000000,4.000000,4.000000,4.000000,4.000000,4.000000,4.000000,4.000000,4.000000,100.000000,,,,,,,,,,,,,,,,
1644854637.464508,56.000000,0.000000,4220.256348,4209.871582,4225.769043,4218.974121,4212.948730,4213.461426,4214.615234,4212.563965,4212.179688,4205.769043,4222.436035,4202.436035,4228.077148,4231.922852,0.000000,4.000000,82.000000,,,,0.000000,4.000000,4.000000,4.000000,4.000000,4.000000,4.000000,4.000000,4.000000,4.000000,4.000000,4.000000,4.000000,4.000000,4.000000,100.000000,,,,,,,,,,,,,,,,
1644854637.468448,57.000000,0.000000,4235.128418,4218.589844,4231.153809,4219.615234,4210.512695,4218.717773,4216.794922,4214.871582,4217.948730,4216.538574,4233.717773,4208.589844,4231.282227,4235.641113,0.000000,4.000000,82.000000,,,,0.000000,4.000000,4.000000,4.000000,4.000000,4.000000,4.000000,4.000000,4.000000,4.000000,4.000000,4.000000,4.000000,4.000000,4.000000,100.000000,,,,,,,,,,,,,,,,
1644854637.472388,58.000000,0.000000,4243.461426,4223.205078,4234.871582,4215.641113,4206.025879,4224.358887,4215.897461,4215.384766,4220.769043,4226.282227,4243.717773,4214.615234,4234.615234,4235.256348,0.000000,4.000000,82.000000,,,,0.000000,4.000000,4.000000,4.000000,4.000000,4.000000,4.000000,4.000000,4.000000,4.000000,4.000000,4.000000,4.000000,4.000000,4.000000,100.000000,,,,,,,,,,,,,,,,
1644854637.476328,59.000000,0.000000,4238.077148,4220.641113,4235.128418,4208.717773,4203.846191,4227.307617,4213.974121,4213.589844,4218.205078,4229.743652,4241.410156,4217.820313,4231.410156,4229.743652,0.000000,4.000000,82.000000,,,,0.000000,4.000000,4.000000,4.000000,4.000000,4.000000,4.000000,4.000000,4.000000,4.000000,4.000000,4.000000,4.000000,4.000000,4.000000,100.000000,,,,,,,,,,,,,,,,
1644854637.480268,60.000000,0.000000,4224.230957,4213.589844,4233.461426,4203.974121,4206.538574,4226.410156,4212.948730,4210.897461,4213.077148,4227.948730,4227.692383,4217.692383,4220.256348,4220.769043,0.000000,4.000000,82.000000,,,,0.000000,4.000000,4.000000,4.000000,4.000000,4.000000,4.000000,4.000000,4.000000,4.000000,4.000000,4.000000,4.000000,4.000000,4.000000,100.000000,,,,,,,,,,,,,,,,
1644854637.484208,61.000000,0.000000,4215.000000,4209.230957,4233.205078,4206.538574,4212.436035,4223.077148,4212.692383,4210.000000,4211.410156,4225.256348,4214.102539,4216.282227,4208.205078,4213.205078,0.000000,4.000000,82.000000,,,,0.000000,4.000000,4.000000,4.000000,4.000000,4.000000,4.000000,4.000000,4.000000,4.000000,4.000000,4.000000,4.000000,4.000000,4.000000,100.000000,,,,,,,,,,,,,,,,
1644854637.488148,62.000000,0.000000,4219.871582,4213.205078,4236.794922,4216.666504,4218.589844,4219.487305,4213.077148,4212.948730,4216.153809,4225.128418,4212.948730,4216.794922,4204.743652,4212.436035,0.000000,4.000000,82.000000,,,,0.000000,4.000000,4.000000,4.000000,4.000000,4.000000,4.000000,4.000000,4.000000,4.000000,4.000000,4.000000,4.000000,4.000000,4.000000,100.000000,,,,,,,,,,,,,,,,
1644854637.492088,63.000000,0.000000,4236.666504,4225.128418,4243.077148,4229.230957,4222.436035,4217.179688,4214.615234,4219.487305,4225.256348,4227.307617,4226.153809,4219.487305,4213.717773,4219.487305,0.000000,4.000000,82.000000,,,,0.000000,4.000000,4.000000,4.000000,4.000000,4.000000,4.000000,4.000000,4.000000,4.000000,4.000000,4.000000,4.000000,4.000000,4.000000,100.000000,,,,,,,,,,,,,,,,
1644854637.496028,64.000000,0.000000,4252.692383,4238.077148,4248.589844,4237.563965,4223.077148,4216.538574,4217.436035,4226.666504,4233.205078,4228.974121,4244.615234,4221.922852,4230.000000,4229.230957,0.000000,4.000000,82.000000,,,,0.000000,4.000000,4.000000,4.000000,4.000000,4.000000,4.000000,4.000000,4.000000,4.000000,4.000000,4.000000,4.000000,4.000000,4.000000,100.000000,,,,,,,,,,,,,,,,
1644854637.499969,65.000000,0.000000,4255.384766,4244.102539,4249.615234,4237.820313,4221.153809,4217.179688,4219.487305,4230.769043,4235.769043,4228.333496,4256.025879,4220.897461,4244.102539,4233.461426,0.000000,4.000000,82.000000,,,,0.000000,4.000000,4.000000,4.000000,4.000000,4.000000,4.000000,4.000000,4.000000,4.000000,4.000000,4.000000,4.000000,4.000000,4.000000,100.000000,,,,,,,,,,,,,,,,
1644854637.503909,66.000000,0.000000,4242.179688,4240.512695,4245.000000,4231.410156,4217.563965,4218.717773,4218.846191,4230.897461,4232.820313,4225.512695,4255.384766,4215.641113,4249.615234,4228.205078,0.000000,4.000000,82.000000,,,,0.000000,4.000000,4.000000,4.000000,4.000000,4.000000,4.000000,4.000000,4.000000,4.000000,4.000000,4.000000,4.000000,4.000000,4.000000,100.000000,,,,,,,,,,,,,,,,
1644854637.507849,67.000000,0.000000,4222.307617,4231.538574,4237.307617,4222.948730,4214.743652,4221.025879,4216.153809,4229.230957,4227.948730,4222.820313,4247.051270,4208.333496,4246.666504,4217.692383,0.000000,4.000000,82.000000,,,,0.000000,4.000000,4.000000,4.000000,4.000000,4.000000,4.000000,4.000000,4.000000,4.000000,4.000000,4.000000,4.000000,4.000000,4.000000,100.000000,,,,,,,,,,,,,,,,
1644854637.511789,68.000000,0.000000,4208.717773,4224.358887,4230.256348,4217.179688,4214.871582,4223.589844,4214.871582,4228.717773,4225.769043,4222.692383,4239.487305,4203.333496,4238.846191,4211.153809,0.000000,4.000000,82.000000,,,,0.000000,4.000000,4.000000,4.000000,4.000000,4.000000,4.000000,4.000000,4.000000,4.000000,4.000000,4.000000,4.000000,4.000000,4.000000,100.000000,,,,,,,,,,,,,,,,
1644854637.515729,69.000000,0.000000,4207.179688,4222.307617,4226.282227,4215.769043,4218.205078,4225.769043,4216.794922,4229.871582,4227.820313,4225.769043,4237.179688,4203.205078,4229.615234,4213.461426,0.000000,4.000000,82.000000,,,,0.000000,4.000000,4.000000,4.000000,4.000000,4.000000,4.000000,4.000000,4.000000,4.000000,4.000000,4.000000,4.000000,4.000000,4.000000,100.000000,,,,,,,,,,,,,,,,
1644854637.519569,70.000000,0.000000,4213.589844,4223.205078,4224.743652,4217.436035,4222.820313,4227.436035,4220.000000,4230.256348,4231.794922,4230.128418,4237.692383,4206.410156,4220.641113,4221.282227,0.000000,4.000000,82.000000,,,,0.000000,4.000000,4.000000,4.000000,4.000000,4.000000,4.000000,4.000000,4.000000,4.000000,4.000000,4.000000,4.000000,4.000000,4.000000,100.000000,,,,,,,,,,,,,,,,
1644854637.523509,71.000000,0.000000,4218.461426,4222.179688,4223.589844,4218.589844,4225.512695,4228.205078,4220.897461,4227.563965,4233.461426,4232.692383,4236.025879,4208.717773,4213.205078,4226.410156,0.000000,4.000000,82.000000,,,,0.000000,4.000000,4.000000,4.000000,4.000000,4.000000,4.000000,4.000000,4.000000,4.000000,4.000000,4.000000,4.000000,4.000000,4.000000,100.000000,,,,,,,,,,,,,,,,
1644854637.527449,72.000000,0.000000,4215.641113,4217.307617,4221.410156,4217.307617,4223.974121,4227.820313,4218.333496,4221.666504,4230.128418,4231.282227,4229.871582,4205.512695,4208.846191,4224.230957,0.000000,4.000000,82.000000,3,1,3,0.000000,4.000000,4.000000,4.000000,4.000000,4.000000,4.000000,4.000000,4.000000,4.000000,4.000000,4.000000,4.000000,4.000000,4.000000,100.000000,,,,,,,,,,,,,,,,
1644854637.531390,73.000000,0.000000,4206.666504,4211.794922,4218.974121,4214.615234,4218.589844,4226.410156,4215.512695,4215.256348,4222.820313,4225.769043,4221.153809,4196.410156,4208.974121,4217.051270,0.000000,4.000000,82.000000,,,,0.000000,4.000000,4.000000,4.000000,4.000000,4.000000,4.000000,4.000000,4.000000,4.000000,4.000000,4.000000,4.000000,4.000000,4.000000,100.000000,,,,,,,,,,,,,,,,
1644854637.535330,74.000000,0.000000,4198.717773,4210.512695,4217.820313,4213.205078,4212.692383,4224.615234,4216.153809,4212.563965,4215.512695,4217.820313,4214.230957,4186.153809,4213.333496,4209.487305,0.000000,4.000000,82.000000,,,,0.000000,4.000000,4.000000,4.000000,4.000000,4.000000,4.000000,4.000000,4.000000,4.000000,4.000000,4.000000,4.000000,4.000000,4.000000,100.000000,,,,,,,,,,,,,,,,
1644854637.539270,75.000000,0.000000,4197.820313,4215.256348,4219.230957,4214.615234,4211.282227,4223.461426,4219.871582,4214.871582,4211.794922,4210.897461,4212.051270,4180.897461,4219.102539,4203.333496,0.000000,4.000000,82.000000,,,,0.000000,4.000000,4.000000,4.000000,4.000000,4.000000,4.000000,4.000000,4.000000,4.000000,4.000000,4.000000,4.000000,4.000000,4.000000,100.000000,,,,,,,,,,,,,,,,
1644854637.543210,76.000000,0.000000,4204.487305,4223.077148,4222.179688,4218.077148,4216.794922,4223.205078,4222.436035,4219.487305,4213.077148,4208.717773,4214.358887,4184.230957,4222.436035,4197.307617,0.000000,4.000000,82.000000,,,,0.000000,4.000000,4.000000,4.000000,4.000000,4.000000,4.000000,4.000000,4.000000,4.000000,4.000000,4.000000,4.000000,4.000000,4.000000,100.000000,,,,,,,,,,,,,,,,
1644854637.547150,77.000000,0.000000,4214.871582,4228.333496,4224.615234,4220.000000,4226.153809,4223.205078,4221.410156,4222.179688,4217.692383,4212.692383,4219.230957,4194.230957,4221.794922,4191.538574,0.000000,4.000000,82.000000,,,,0.000000,4.000000,4.000000,4.000000,4.000000,4.000000,4.000000,4.000000,4.000000,4.000000,4.000000,4.000000,4.000000,4.000000,4.000000,100.000000,,,,,,,,,,,,,,,,
1644854637.551090,78.000000,0.000000,4224.615234,4228.077148,4225.897461,4218.205078,4232.692383,4223.077148,4218.589844,4221.794922,4222.692383,4220.641113,4224.871582,4205.000000,4219.615234,4189.487305,0.000000,4.000000,82.000000,,,,0.000000,4.000000,4.000000,4.000000,4.000000,4.000000,4.000000,4.000000,4.000000,4.000000,4.000000,4.000000,4.000000,4.000000,4.000000,100.000000,,,,,,,,,,,,,,,,
1644854637.555030,79.000000,0.000000,4231.153809,4224.487305,4227.692383,4215.512695,4231.794922,4223.589844,4218.589844,4220.384766,4226.025879,4228.205078,4230.769043,4212.051270,4220.641113,4195.769043,0.000000,4.000000,82.000000,,,,0.000000,4.000000,4.000000,4.000000,4.000000,4.000000,4.000000,4.000000,4.000000,4.000000,4.000000,4.000000,4.000000,4.000000,4.000000,100.000000,,,,,,,,,,,,,,,,
1644854637.558970,80.000000,0.000000,4234.102539,4222.563965,4231.282227,4216.666504,4224.615234,4226.025879,4222.948730,4221.025879,4227.948730,4232.179688,4236.410156,4214.487305,4227.820313,4210.769043,0.000000,4.000000,82.000000,,,,0.000000,4.000000,4.000000,4.000000,4.000000,4.000000,4.000000,4.000000,4.000000,4.000000,4.000000,4.000000,4.000000,4.000000,4.000000,100.000000,,,,,,,,,,,,,,,,
1644854637.562910,81.000000,0.000000,4233.461426,4225.384766,4236.025879,4222.307617,4218.205078,4230.512695,4227.692383,4224.487305,4229.358887,4232.692383,4240.769043,4214.871582,4238.717773,4228.205078,0.000000,4.000000,82.000000,,,,0.000000,4.000000,4.000000,4.000000,4.000000,4.000000,4.000000,4.000000,4.000000,4.000000,4.000000,4.000000,4.000000,4.000000,4.000000,100.000000,,,,,,,,,,,,,,,,
1644854637.566850,82.000000,0.000000,4229.871582,4230.384766,4239.102539,4226.794922,4218.846191,4234.871582,4228.589844,4228.461426,4231.410156,4231.410156,4241.922852,4215.641113,4246.538574,4239.743652,0.000000,4.000000,82.000000,,,,0.000000,4.000000,4.000000,4.000000,4.000000,4.000000,4.000000,4.000000,4.000000,4.000000,4.000000,4.000000,4.000000,4.000000,4.000000,100.000000,,,,,,,,,,,,,,,,
1644854637.570791,83.000000,0.000000,4224.230957,4231.794922,4238.589844,4223.461426,4225.897461,4236.153809,4225.512695,4229.743652,4232.948730,4230.512695,4239.615234,4217.051270,4245.641113,4240.769043,0.000000,4.000000,82.000000,,,,0.000000,4.000000,4.000000,4.000000,4.000000,4.000000,4.000000,4.000000,4.000000,4.000000,4.000000,4.000000,4.000000,4.000000,4.000000,100.000000,,,,,,,,,,,,,,,,
1644854637.574731,84.000000,0.000000,4217.692383,4226.153809,4235.256348,4211.922852,4232.948730,4233.205078,4222.051270,4227.692383,4232.563965,4229.871582,4235.384766,4217.692383,4235.641113,4233.333496,0.000000,4.000000,82.000000,,,,0.000000,4.000000,4.000000,4.000000,4.000000,4.000000,4.000000,4.000000,4.000000,4.000000,4.000000,4.000000,4.000000,4.000000,4.000000,100.000000,,,,,,,,,,,,,,,,
1644854637.578671,85.000000,0.000000,4211.922852,4216.666504,4231.282227,4200.512695,4234.102539,4227.307617,4220.512695,4223.846191,4229.615234,4228.205078,4232.436035,4216.794922,4221.922852,4223.077148,0.000000,4.000000,82.000000,,,,0.000000,4.000000,4.000000,4.000000,4.000000,4.000000,4.000000,4.000000,4.000000,4.000000,4.000000,4.000000,4.000000,4.000000,4.000000,100.000000,,,,,,,,,,,,,,,,
1644854637.582611,86.000000,0.000000,4209.102539,4210.512695,4228.717773,4199.230957,4229.615234,4221.666504,4220.000000,4221.025879,4225.512695,4225.128418,4232.820313,4215.128418,4211.666504,4214.102539,0.000000,4.000000,82.000000,,,,0.000000,4.000000,4.000000,4.000000,4.000000,4.000000,4.000000,4.000000,4.000000,4.000000,4.000000,4.000000,4.000000,4.000000,4.000000,100.000000,,,,,,,,,,,,,,,,
1644854637.586551,87.000000,0.000000,4211.282227,4212.820313,4228.589844,4210.512695,4225.512695,4218.846191,4217.948730,4220.769043,4222.692383,4222.436035,4236.410156,4215.000000,4208.974121,4208.205078,0.000000,4.000000,82.000000,,,,0.000000,4.000000,4.000000,4.000000,4.000000,4.000000,4.000000,4.000000,4.000000,4.000000,4.000000,4.000000,4.000000,4.000000,4.000000,100.000000,,,,,,,,,,,,,,,,
1644854637.590391,88.000000,0.000000,4218.589844,4221.794922,4230.769043,4227.436035,4225.769043,4219.102539,4214.615234,4222.820313,4222.948730,4223.589844,4241.153809,4216.794922,4214.102539,4204.743652,0.000000,4.000000,82.000000,,,,0.000000,4.000000,4.000000,4.000000,4.000000,4.000000,4.000000,4.000000,4.000000,4.000000,4.000000,4.000000,4.000000,4.000000,4.000000,100.000000,,,,,,,,,,,,,,,,
1644854637.594331,89.000000,0.000000,4228.333496,4231.410156,4234.358887,4238.461426,4228.461426,4221.794922,4212.692383,4226.153809,4225.641113,4230.128418,4244.487305,4218.974121,4225.256348,4203.333496,0.000000,4.000000,82.000000,,,,0.000000,4.000000,4.000000,4.000000,4.000000,4.000000,4.000000,4.000000,4.000000,4.000000,4.000000,4.000000,4.000000,4.000000,4.000000,100.000000,,,,,,,,,,,,,,,,
1644854637.598271,90.000000,0.000000,4236.538574,4236.538574,4237.692383,4236.922852,4227.563965,4225.641113,4213.974121,4229.615234,4228.846191,4239.230957,4245.256348,4218.846191,4239.102539,4203.717773,0.000000,4.000000,82.000000,,,,0.000000,4.000000,4.000000,4.000000,4.000000,4.000000,4.000000,4.000000,4.000000,4.000000,4.000000,4.000000,4.000000,4.000000,4.000000,100.000000,,,,,,,,,,,,,,,,
1644854637.602212,91.000000,0.000000,4239.230957,4235.128418,4238.461426,4225.641113,4219.743652,4229.487305,4217.179688,4231.922852,4231.153809,4245.128418,4244.487305,4215.384766,4250.769043,4206.282227,0.000000,4.000000,82.000000,,,,0.000000,4.000000,4.000000,4.000000,4.000000,4.000000,4.000000,4.000000,4.000000,4.000000,4.000000,4.000000,4.000000,4.000000,4.000000,100.000000,,,,,,,,,,,,,,,,
1644854637.606152,92.000000,0.000000,4234.230957,4228.077148,4235.641113,4213.717773,4208.717773,4231.538574,4219.102539,4232.051270,4232.436035,4243.077148,4244.487305,4210.128418,4254.743652,4210.256348,0.000000,4.000000,82.000000,,,,0.000000,4.000000,4.000000,4.000000,4.000000,4.000000,4.000000,4.000000,4.000000,4.000000,4.000000,4.000000,4.000000,4.000000,4.000000,100.000000,,,,,,,,,,,,,,,,
1644854637.610092,93.000000,0.000000,4221.666504,4217.307617,4230.256348,4208.717773,4201.794922,4231.282227,4218.846191,4230.128418,4232.563965,4233.077148,4246.282227,4206.153809,4247.820313,4214.358887,0.000000,4.000000,82.000000,,,,0.000000,4.000000,4.000000,4.000000,4.000000,4.000000,4.000000,4.000000,4.000000,4.000000,4.000000,4.000000,4.000000,4.000000,4.000000,100.000000,,,,,,,,,,,,,,,,
1644854637.614132,94.000000,0.000000,4205.769043,4205.641113,4224.615234,4211.282227,4204.487305,4229.230957,4218.205078,4227.692383,4231.282227,4221.282227,4248.333496,4205.384766,4232.179688,4216.153809,0.000000,4.000000,82.000000,,,,0.000000,4.000000,4.000000,4.000000,4.000000,4.000000,4.000000,4.000000,4.000000,4.000000,4.000000,4.000000,4.000000,4.000000,4.000000,100.000000,,,,,,,,,,,,,,,,
1644854637.618072,95.000000,0.000000,4193.461426,4197.820313,4220.897461,4215.000000,4216.025879,4227.307617,4219.102539,4225.512695,4228.333496,4215.000000,4247.563965,4207.820313,4215.256348,4213.461426,0.000000,4.000000,82.000000,,,,0.000000,4.000000,4.000000,4.000000,4.000000,4.000000,4.000000,4.000000,4.000000,4.000000,4.000000,4.000000,4.000000,4.000000,4.000000,100.000000,,,,,,,,,,,,,,,,
1644854637.622012,96.000000,0.000000,4190.256348,4197.563965,4219.871582,4213.333496,4229.615234,4226.538574,4220.641113,4223.846191,4224.487305,4218.205078,4242.051270,4210.769043,4205.897461,4206.538574,0.000000,4.000000,82.000000,,,,0.000000,4.000000,4.000000,4.000000,4.000000,4.000000,4.000000,4.000000,4.000000,4.000000,4.000000,4.000000,4.000000,4.000000,4.000000,100.000000,,,,,,,,,,,,,,,,
1644854637.625952,97.000000,0.000000,4196.538574,4204.871582,4220.384766,4205.641113,4237.563965,4227.436035,4221.538574,4222.307617,4221.794922,4227.563965,4233.205078,4211.153809,4207.820313,4199.615234,0.000000,4.000000,82.000000,,,,0.000000,4.000000,4.000000,4.000000,4.000000,4.000000,4.000000,4.000000,4.000000,4.000000,4.000000,4.000000,4.000000,4.000000,4.000000,100.000000,,,,,,,,,,,,,,,,
1644854637.629892,98.000000,0.000000,4206.794922,4215.641113,4222.179688,4197.307617,4236.666504,4229.743652,4221.666504,4221.538574,4221.794922,4235.769043,4225.384766,4207.307617,4218.974121,4197.563965,0.000000,4.000000,82.000000,,,,0.000000,4.000000,4.000000,4.000000,4.000000,4.000000,4.000000,4.000000,4.000000,4.000000,4.000000,4.000000,4.000000,4.000000,4.000000,100.000000,,,,,,,,,,,,,,,,
1644854637.633832,99.000000,0.000000,4214.487305,4224.358887,4224.871582,4194.358887,4229.871582,4232.179688,4222.692383,4221.922852,4224.102539,4237.179688,4222.820313,4201.025879,4232.436035,4201.922852,0.000000,4.000000,82.000000,,,,0.000000,4.000000,4.000000,4.000000,4.000000,4.000000,4.000000,4.000000,4.000000,4.000000,4.000000,4.000000,4.000000,4.000000,4.000000,100.000000,,,,,,,,,,,,,,,,
1644854637.637772,100.000000,0.000000,4216.666504,4227.563965,4227.436035,4197.307617,4223.589844,4233.461426,4224.743652,4223.077148,4226.282227,4232.051270,4225.512695,4195.897461,4242.051270,4207.692383,0.000000,4.000000,82.000000,,,,0.000000,4.000000,4.000000,4.000000,4.000000,4.000000,4.000000,4.000000,4.000000,4.000000,4.000000,4.000000,4.000000,4.000000,4.000000,100.000000,,,,,,,,,,,,,,,,
1644854637.641613,101.000000,0.000000,4215.128418,4226.025879,4227.563965,4201.282227,4222.307617,4232.179688,4225.384766,4223.846191,4226.153809,4225.512695,4228.846191,4194.615234,4245.000000,4207.436035,0.000000,4.000000,82.000000,,,,0.000000,4.000000,4.000000,4.000000,4.000000,4.000000,4.000000,4.000000,4.000000,4.000000,4.000000,4.000000,4.000000,4.000000,4.000000,100.000000,,,,,,,,,,,,,,,,
1644854637.645553,102.000000,0.000000,4213.333496,4222.179688,4223.589844,4202.563965,4225.384766,4228.205078,4222.051270,4222.563965,4223.717773,4221.794922,4227.820313,4197.307617,4241.282227,4198.205078,0.000000,4.000000,82.000000,,,,0.000000,4.000000,4.000000,4.000000,4.000000,4.000000,4.000000,4.000000,4.000000,4.000000,4.000000,4.000000,4.000000,4.000000,4.000000,100.000000,,,,,,,,,,,,,,,,
1644854637.649493,103.000000,0.000000,4212.692383,4218.589844,4216.025879,4201.282227,4228.077148,4223.589844,4216.153809,4219.487305,4219.871582,4220.128418,4221.666504,4201.282227,4232.820313,4185.512695,0.000000,4.000000,82.000000,,,,0.000000,4.000000,4.000000,4.000000,4.000000,4.000000,4.000000,4.000000,4.000000,4.000000,4.000000,4.000000,4.000000,4.000000,4.000000,100.000000,,,,,,,,,,,,,,,,
1644854637.653433,104.000000,0.000000,4212.307617,4216.153809,4208.077148,4201.282227,4225.769043,4220.897461,4212.051270,4216.666504,4216.666504,4217.436035,4215.128418,4202.692383,4222.179688,4178.077148,0.000000,4.000000,82.000000,,,,0.000000,4.000000,4.000000,4.000000,4.000000,4.000000,4.000000,4.000000,4.000000,4.000000,4.000000,4.000000,4.000000,4.000000,4.000000,100.000000,,,,,,,,,,,,,,,,
1644854637.657373,105.000000,0.000000,4212.179688,4215.641113,4203.589844,4205.000000,4218.974121,4221.922852,4212.307617,4215.769043,4215.641113,4212.692383,4214.743652,4199.487305,4213.205078,4178.846191,0.000000,4.000000,82.000000,,,,0.000000,4.000000,4.000000,4.000000,4.000000,4.000000,4.000000,4.000000,4.000000,4.000000,4.000000,4.000000,4.000000,4.000000,4.000000,100.000000,,,,,,,,,,,,,,,,
1644854637.661313,106.000000,0.000000,4213.589844,4217.307617,4204.615234,4211.282227,4213.205078,4226.410156,4215.256348,4217.179688,4218.205078,4209.871582,4222.820313,4193.205078,4209.615234,4183.717773,0.000000,4.000000,82.000000,,,,0.000000,4.000000,4.000000,4.000000,4.000000,4.000000,4.000000,4.000000,4.000000,4.000000,4.000000,4.000000,4.000000,4.000000,4.000000,100.000000,,,,,,,,,,,,,,,,
1644854637.665253,107.000000,0.000000,4217.307617,4220.384766,4210.641113,4216.794922,4213.974121,4231.922852,4217.692383,4219.487305,4223.717773,4213.589844,4234.871582,4187.563965,4212.692383,4186.153809,0.000000,4.000000,82.000000,,,,0.000000,4.000000,4.000000,4.000000,4.000000,4.000000,4.000000,4.000000,4.000000,4.000000,4.000000,4.000000,4.000000,4.000000,4.000000,100.000000,,,,,,,,,,,,,,,,
1644854637.669193,108.000000,0.000000,4221.025879,4223.333496,4217.692383,4218.333496,4221.153809,4235.384766,4218.333496,4221.538574,4229.230957,4223.846191,4243.333496,4185.512695,4220.897461,4184.230957,0.000000,4.000000,82.000000,,,,0.000000,4.000000,4.000000,4.000000,4.000000,4.000000,4.000000,4.000000,4.000000,4.000000,4.000000,4.000000,4.000000,4.000000,4.000000,100.000000,,,,,,,,,,,,,,,,
1644854637.673133,109.000000,0.000000,4221.666504,4224.358887,4222.051270,4215.512695,4229.487305,4234.358887,4217.948730,4222.563965,4231.410156,4235.000000,4243.205078,4187.307617,4230.769043,4181.282227,0.000000,4.000000,82.000000,,,,0.000000,4.000000,4.000000,4.000000,4.000000,4.000000,4.000000,4.000000,4.000000,4.000000,4.000000,4.000000,4.000000,4.000000,4.000000,100.000000,,,,,,,,,,,,,,,,
1644854637.677074,110.000000,0.000000,4217.692383,4223.077148,4222.436035,4211.666504,4232.692383,4229.615234,4217.436035,4222.820313,4229.358887,4240.897461,4236.410156,4190.512695,4238.333496,4180.769043,0.000000,4.000000,82.000000,,,,0.000000,4.000000,4.000000,4.000000,4.000000,4.000000,4.000000,4.000000,4.000000,4.000000,4.000000,4.000000,4.000000,4.000000,4.000000,100.000000,,,,,,,,,,,,,,,,
1644854637.681014,111.000000,0.000000,4211.153809,4220.128418,4219.871582,4210.128418,4229.487305,4224.743652,4216.410156,4222.563965,4225.641113,4240.000000,4230.384766,4193.077148,4241.153809,4182.563965,0.000000,4.000000,82.000000,,,,0.000000,4.000000,4.000000,4.000000,4.000000,4.000000,4.000000,4.000000,4.000000,4.000000,4.000000,4.000000,4.000000,4.000000,4.000000,100.000000,,,,,,,,,,,,,,,,
1644854637.684954,112.000000,0.000000,4205.641113,4216.794922,4216.922852,4210.256348,4223.205078,4223.333496,4214.358887,4223.077148,4224.358887,4236.025879,4231.025879,4194.358887,4238.461426,4182.948730,0.000000,4.000000,82.000000,,,,0.000000,4.000000,4.000000,4.000000,4.000000,4.000000,4.000000,4.000000,4.000000,4.000000,4.000000,4.000000,4.000000,4.000000,4.000000,100.000000,,,,,,,,,,,,,,,,
1644854637.688894,113.000000,0.000000,4202.692383,4214.230957,4215.384766,4208.077148,4218.589844,4226.153809,4212.948730,4224.358887,4226.794922,4233.717773,4237.563965,4195.769043,4232.051270,4179.743652,0.000000,4.000000,82.000000,,,,0.000000,4.000000,4.000000,4.000000,4.000000,4.000000,4.000000,4.000000,4.000000,4.000000,4.000000,4.000000,4.000000,4.000000,4.000000,100.000000,,,,,,,,,,,,,,,,
1644854637.692834,114.000000,0.000000,4202.051270,4213.717773,4216.410156,4201.282227,4217.307617,4229.871582,4214.487305,4225.769043,4230.641113,4234.871582,4243.717773,4198.461426,4225.128418,4174.358887,0.000000,4.000000,82.000000,,,,0.000000,4.000000,4.000000,4.000000,4.000000,4.000000,4.000000,4.000000,4.000000,4.000000,4.000000,4.000000,4.000000,4.000000,4.000000,100.000000,,,,,,,,,,,,,,,,
1644854637.696774,115.000000,0.000000,4202.307617,4215.769043,4218.589844,4192.692383,4218.077148,4231.025879,4218.846191,4225.769043,4232.051270,4237.179688,4244.487305,4202.307617,4220.769043,4169.743652,0.000000,4.000000,82.000000,,,,0.000000,4.000000,4.000000,4.000000,4.000000,4.000000,4.000000,4.000000,4.000000,4.000000,4.000000,4.000000,4.000000,4.000000,4.000000,100.000000,,,,,,,,,,,,,,,,
1644854637.700714,116.000000,0.000000,4202.051270,4219.230957,4219.358887,4188.589844,4219.358887,4228.077148,4222.948730,4223.077148,4229.230957,4236.282227,4239.615234,4204.871582,4221.410156,4167.820313,0.000000,4.000000,82.000000,,,,0.000000,4.000000,4.000000,4.000000,4.000000,4.000000,4.000000,4.000000,4.000000,4.000000,4.000000,4.000000,4.000000,4.000000,4.000000,100.000000,,,,,,,,,,,,,,,,
1644854637.704654,117.000000,0.000000,4201.410156,4220.897461,4217.051270,4192.692383,4220.512695,4223.205078,4223.333496,4218.717773,4224.230957,4230.384766,4233.205078,4203.461426,4226.666504,4168.333496,0.000000,4.000000,82.000000,,,,0.000000,4.000000,4.000000,4.000000,4.000000,4.000000,4.000000,4.000000,4.000000,4.000000,4.000000,4.000000,4.000000,4.000000,4.000000,100.000000,,,,,,,,,,,,,,,,
1644854637.708494,118.000000,0.000000,4201.025879,4217.948730,4212.563965,4202.948730,4220.897461,4220.000000,4220.512695,4215.128418,4220.128418,4221.538574,4228.333496,4197.948730,4232.820313,4170.256348,0.000000,4.000000,82.000000,,,,0.000000,4.000000,4.000000,4.000000,4.000000,4.000000,4.000000,4.000000,4.000000,4.000000,4.000000,4.000000,4.000000,4.000000,4.000000,100.000000,,,,,,,,,,,,,,,,
1644854637.712435,119.000000,0.000000,4201.153809,4210.128418,4208.717773,4212.179688,4220.128418,4219.871582,4218.205078,4214.230957,4218.846191,4214.743652,4225.512695,4190.641113,4235.384766,4172.563965,0.000000,4.000000,82.000000,,,,0.000000,4.000000,4.000000,4.000000,4.000000,4.000000,4.000000,4.000000,4.000000,4.000000,4.000000,4.000000,4.000000,4.000000,4.000000,100.000000,,,,,,,,,,,,,,,,
1644854637.716375,120.000000,0.000000,4201.282227,4200.512695,4207.179688,4214.615234,4218.077148,4222.179688,4218.717773,4215.769043,4219.230957,4212.948730,4223.846191,4185.384766,4232.051270,4173.846191,0.000000,4.000000,82.000000,,,,0.000000,4.000000,4.000000,4.000000,4.000000,4.000000,4.000000,4.000000,4.000000,4.000000,4.000000,4.000000,4.000000,4.000000,4.000000,100.000000,,,,,,,,,,,,,,,,
1644854637.720315,121.000000,0.000000,4201.282227,4194.615234,4207.436035,4209.358887,4215.512695,4224.871582,4220.641113,4217.436035,4219.358887,4215.256348,4224.102539,4185.128418,4225.256348,4173.077148,0.000000,4.000000,82.000000,,,,0.000000,4.000000,4.000000,4.000000,4.000000,4.000000,4.000000,4.000000,4.000000,4.000000,4.000000,4.000000,4.000000,4.000000,4.000000,100.000000,,,,,,,,,,,,,,,,
1644854637.724255,122.000000,0.000000,4201.922852,4197.051270,4209.102539,4201.282227,4213.461426,4225.769043,4221.025879,4217.820313,4218.846191,4218.205078,4227.820313,4190.384766,4221.025879,4171.410156,0.000000,4.000000,82.000000,,,,0.000000,4.000000,4.000000,4.000000,4.000000,4.000000,4.000000,4.000000,4.000000,4.000000,4.000000,4.000000,4.000000,4.000000,4.000000,100.000000,,,,,,,,,,,,,,,,
1644854637.728195,123.000000,0.000000,4203.461426,4207.948730,4212.051270,4195.897461,4212.820313,4224.615234,4219.615234,4217.692383,4218.205078,4219.230957,4234.358887,4198.846191,4223.333496,4172.307617,0.000000,4.000000,82.000000,,,,0.000000,4.000000,4.000000,4.000000,4.000000,4.000000,4.000000,4.000000,4.000000,4.000000,4.000000,4.000000,4.000000,4.000000,4.000000,100.000000,,,,,,,,,,,,,,,,
1644854637.732135,124.000000,0.000000,4205.256348,4221.922852,4216.153809,4196.153809,4214.487305,4222.179688,4218.974121,4218.589844,4218.846191,4218.461426,4239.230957,4206.282227,4230.384766,4177.692383,0.000000,4.000000,82.000000,,,,0.000000,4.000000,4.000000,4.000000,4.000000,4.000000,4.000000,4.000000,4.000000,4.000000,4.000000,4.000000,4.000000,4.000000,4.000000,100.000000,,,,,,,,,,,,,,,,
1644854637.736075,125.000000,0.000000,4206.025879,4231.922852,4220.128418,4201.025879,4218.589844,4220.128418,4220.897461,4221.025879,4221.025879,4218.589844,4237.948730,4208.461426,4236.025879,4185.384766,0.000000,4.000000,82.000000,,,,0.000000,4.000000,4.000000,4.000000,4.000000,4.000000,4.000000,4.000000,4.000000,4.000000,4.000000,4.000000,4.000000,4.000000,4.000000,100.000000,,,,,,,,,,,,,,,,
1644854637.740015,126.000000,0.000000,4206.153809,4234.102539,4222.179688,4206.538574,4223.205078,4219.358887,4222.820313,4222.948730,4223.717773,4220.897461,4230.000000,4204.230957,4235.769043,4189.871582,0.000000,4.000000,82.000000,,,,0.000000,4.000000,4.000000,4.000000,4.000000,4.000000,4.000000,4.000000,4.000000,4.000000,4.000000,4.000000,4.000000,4.000000,4.000000,100.000000,,,,,,,,,,,,,,,,
1644854637.743955,127.000000,0.000000,4206.922852,4229.743652,4221.538574,4208.333496,4225.384766,4219.743652,4221.410156,4222.436035,4225.128418,4224.358887,4220.128418,4196.282227,4230.384766,4187.179688,0.000000,4.000000,82.000000,,,,0.000000,4.000000,4.000000,4.000000,4.000000,4.000000,4.000000,4.000000,4.000000,4.000000,4.000000,4.000000,4.000000,4.000000,4.000000,100.000000,,,,,,,,,,,,,,,,
1644854637.747896,128.000000,0.000000,4209.358887,4222.948730,4218.974121,4204.230957,4223.717773,4219.871582,4216.410156,4219.358887,4224.102539,4226.410156,4213.461426,4189.358887,4224.743652,4178.461426,3410.000000,4.000000,82.000000,,,,0.000000,4.000000,4.000000,4.000000,4.000000,4.000000,4.000000,4.000000,4.000000,4.000000,4.000000,4.000000,4.000000,4.000000,4.000000,100.000000,,,,,,,,,,,,,,,,
1644854637.751836,129.000000,0.000000,4212.051270,4217.307617,4216.282227,4197.179688,4219.487305,4218.205078,4211.794922,4215.897461,4221.282227,4225.384766,4212.820313,4186.922852,4222.436035,4169.487305,3163.000000,4.000000,82.000000,,,,0.000000,4.000000,4.000000,4.000000,4.000000,4.000000,4.000000,4.000000,4.000000,4.000000,4.000000,4.000000,4.000000,4.000000,4.000000,100.000000,,,,,,,,,,,,,,,,
1644854637.755776,130.000000,0.000000,4212.307617,4213.461426,4215.384766,4193.205078,4215.512695,4215.384766,4211.666504,4214.743652,4219.230957,4222.179688,4218.717773,4189.743652,4223.846191,4165.512695,3542.000000,4.000000,82.000000,,,,0.000000,4.000000,4.000000,4.000000,4.000000,4.000000,4.000000,4.000000,4.000000,4.000000,4.000000,4.000000,4.000000,4.000000,4.000000,100.000000,,,,,,,,,,,,,,,,
1644854637.759716,131.000000,0.000000,4209.230957,4211.282227,4217.179688,4196.538574,4215.512695,4213.589844,4215.641113,4217.307617,4220.512695,4219.487305,4230.769043,4195.769043,4227.820313,4168.077148,3535.000000,4.000000,82.000000,,,,0.000000,4.000000,4.000000,4.000000,4.000000,4.000000,4.000000,4.000000,4.000000,4.000000,4.000000,4.000000,4.000000,4.000000,4.000000,100.000000,,,,,,,,,,,,,,,,
1644854637.763656,132.000000,0.000000,4205.769043,4212.179688,4220.512695,4205.641113,4220.384766,4214.743652,4219.487305,4222.692383,4225.641113,4220.512695,4246.153809,4202.563965,4233.461426,4175.384766,3230.000000,4.000000,82.000000,,,,0.000000,4.000000,4.000000,4.000000,4.000000,4.000000,4.000000,4.000000,4.000000,4.000000,4.000000,4.000000,4.000000,4.000000,4.000000,100.000000,,,,,,,,,,,,,,,,
1644854637.767596,133.000000,0.000000,4206.794922,4218.333496,4224.358887,4214.743652,4227.948730,4218.717773,4220.000000,4228.846191,4233.077148,4226.025879,4257.948730,4207.563965,4239.487305,4184.102539,3455.000000,4.000000,82.000000,,,,0.000000,4.000000,4.000000,4.000000,4.000000,4.000000,4.000000,4.000000,4.000000,4.000000,4.000000,4.000000,4.000000,4.000000,4.000000,100.000000,,,,,,,,,,,,,,,,
1644854637.771536,134.000000,0.000000,4215.256348,4229.358887,4228.077148,4218.333496,4232.820313,4223.077148,4218.589844,4233.974121,4240.384766,4233.846191,4258.589844,4210.256348,4243.205078,4191.282227,2441.000000,4.000000,82.000000,,,,0.000000,4.000000,4.000000,4.000000,4.000000,4.000000,4.000000,4.000000,4.000000,4.000000,4.000000,4.000000,4.000000,4.000000,4.000000,100.000000,,,,,,,,,,,,,,,,
1644854637.775476,135.000000,0.000000,4227.563965,4240.769043,4231.025879,4215.384766,4230.769043,4226.153809,4218.717773,4237.307617,4246.153809,4240.512695,4246.922852,4211.666504,4241.922852,4194.487305,3152.000000,4.000000,82.000000,,,,0.000000,4.000000,4.000000,4.000000,4.000000,4.000000,4.000000,4.000000,4.000000,4.000000,4.000000,4.000000,4.000000,4.000000,4.000000,100.000000,,,,,,,,,,,,,,,,
1644854637.779416,136.000000,0.000000,4236.153809,4246.153809,4232.563965,4209.230957,4222.307617,4226.922852,4221.410156,4239.102539,4249.615234,4243.461426,4230.641113,4212.436035,4237.051270,4192.179688,3318.000000,4.000000,82.000000,,,,0.000000,4.000000,4.000000,4.000000,4.000000,4.000000,4.000000,4.000000,4.000000,4.000000,4.000000,4.000000,4.000000,4.000000,4.000000,100.000000,,,,,,,,,,,,,,,,
1644854637.783257,137.000000,0.000000,4235.384766,4242.692383,4232.307617,4204.743652,4212.563965,4225.256348,4224.230957,4238.717773,4250.769043,4243.717773,4222.051270,4211.922852,4233.589844,4186.282227,3614.000000,4.000000,82.000000,,,,0.000000,4.000000,4.000000,4.000000,4.000000,4.000000,4.000000,4.000000,4.000000,4.000000,4.000000,4.000000,4.000000,4.000000,4.000000,100.000000,,,,,,,,,,,,,,,,
1644854637.787197,138.000000,0.000000,4226.025879,4233.077148,4230.256348,4205.641113,4207.179688,4221.922852,4224.102539,4235.641113,4248.974121,4243.205078,4228.589844,4208.717773,4236.282227,4181.410156,3543.000000,4.000000,82.000000,,,,0.000000,4.000000,4.000000,4.000000,4.000000,4.000000,4.000000,4.000000,4.000000,4.000000,4.000000,4.000000,4.000000,4.000000,4.000000,100.000000,,,,,,,,,,,,,,,,
1644854637.791137,139.000000,0.000000,4213.589844,4222.820313,4226.153809,4211.794922,4208.846191,4218.077148,4221.666504,4230.128418,4243.333496,4242.307617,4246.666504,4203.077148,4243.974121,4180.897461,2385.000000,4.000000,82.000000,,,,0.000000,4.000000,4.000000,4.000000,4.000000,4.000000,4.000000,4.000000,4.000000,4.000000,4.000000,4.000000,4.000000,4.000000,4.000000,100.000000,,,,,,,,,,,,,,,,
1644854637.795077,140.000000,0.000000,4202.948730,4215.256348,4219.743652,4218.846191,4215.384766,4215.128418,4219.230957,4223.846191,4234.487305,4238.333496,4262.692383,4196.025879,4249.871582,4183.589844,3216.000000,4.000000,82.000000,,,,0.000000,4.000000,4.000000,4.000000,4.000000,4.000000,4.000000,4.000000,4.000000,4.000000,4.000000,4.000000,4.000000,4.000000,4.000000,100.000000,,,,,,,,,,,,,,,,
1644854637.799017,141.000000,0.000000,4196.025879,4210.256348,4211.538574,4220.128418,4221.794922,4214.230957,4218.333496,4219.230957,4225.512695,4229.358887,4264.358887,4189.358887,4246.922852,4183.846191,3563.000000,4.000000,82.000000,,,,0.000000,4.000000,4.000000,4.000000,4.000000,4.000000,4.000000,4.000000,4.000000,4.000000,4.000000,4.000000,4.000000,4.000000,4.000000,100.000000,,,,,,,,,,,,,,,,
1644854637.803057,142.000000,0.000000,4192.051270,4206.538574,4203.205078,4212.948730,4224.487305,4215.000000,4217.948730,4217.820313,4220.256348,4217.436035,4250.000000,4183.589844,4234.487305,4177.563965,3543.000000,4.000000,82.000000,,,,0.000000,4.000000,4.000000,4.000000,4.000000,4.000000,4.000000,4.000000,4.000000,4.000000,4.000000,4.000000,4.000000,4.000000,4.000000,100.000000,,,,,,,,,,,,,,,,
1644854637.806997,143.000000,0.000000,4190.000000,4203.846191,4197.179688,4200.769043,4223.205078,4216.282227,4217.820313,4219.743652,4220.384766,4207.436035,4230.128418,4178.717773,4218.589844,4166.666504,2385.000000,4.000000,82.000000,,,,0.000000,4.000000,4.000000,4.000000,4.000000,4.000000,4.000000,4.000000,4.000000,4.000000,4.000000,4.000000,4.000000,4.000000,4.000000,100.000000,,,,,,,,,,,,,,,,
1644854637.810937,144.000000,0.000000,4190.384766,4204.487305,4194.615234,4191.922852,4219.871582,4217.436035,4218.461426,4222.820313,4223.974121,4203.717773,4218.589844,4174.871582,4208.077148,4158.589844,3216.000000,4.000000,82.000000,,,,0.000000,4.000000,4.000000,4.000000,4.000000,4.000000,4.000000,4.000000,4.000000,4.000000,4.000000,4.000000,4.000000,4.000000,4.000000,100.000000,,,,,,,,,,,,,,,,
1644854637.814877,145.000000,0.000000,4193.846191,4209.743652,4195.769043,4191.282227,4216.153809,4218.205078,4220.641113,4224.615234,4227.563965,4206.282227,4221.025879,4173.077148,4208.461426,4159.230957,3563.000000,4.000000,82.000000,,,,0.000000,4.000000,4.000000,4.000000,4.000000,4.000000,4.000000,4.000000,4.000000,4.000000,4.000000,4.000000,4.000000,4.000000,4.000000,100.000000,,,,,,,,,,,,,,,,
1644854637.818817,146.000000,0.000000,4198.974121,4216.794922,4199.487305,4196.025879,4212.563965,4219.102539,4222.948730,4223.717773,4228.461426,4212.051270,4230.641113,4174.230957,4218.333496,4167.051270,3543.000000,4.000000,82.000000,,,,0.000000,4.000000,4.000000,4.000000,4.000000,4.000000,4.000000,4.000000,4.000000,4.000000,4.000000,4.000000,4.000000,4.000000,4.000000,100.000000,,,,,,,,,,,,,,,,
1644854637.822758,147.000000,0.000000,4201.153809,4220.256348,4202.948730,4197.307617,4208.846191,4219.871582,4222.436035,4220.128418,4226.410156,4217.307617,4234.615234,4177.307617,4230.897461,4174.487305,2385.000000,4.000000,82.000000,,,,0.000000,4.000000,4.000000,4.000000,4.000000,4.000000,4.000000,4.000000,4.000000,4.000000,4.000000,4.000000,4.000000,4.000000,4.000000,100.000000,,,,,,,,,,,,,,,,
1644854637.826698,148.000000,0.000000,4195.897461,4216.666504,4203.205078,4188.846191,4204.743652,4219.871582,4218.461426,4215.256348,4222.692383,4218.846191,4224.871582,4179.102539,4238.461426,4175.384766,3216.000000,4.000000,82.000000,,,,0.000000,4.000000,4.000000,4.000000,4.000000,4.000000,4.000000,4.000000,4.000000,4.000000,4.000000,4.000000,4.000000,4.000000,4.000000,100.000000,,,,,,,,,,,,,,,,
1644854637.830638,149.000000,0.000000,4184.230957,4207.436035,4199.487305,4172.307617,4200.641113,4218.974121,4213.974121,4211.153809,4218.589844,4215.384766,4205.897461,4177.307617,4237.307617,4170.641113,3563.000000,4.000000,82.000000,,,,0.000000,4.000000,4.000000,4.000000,4.000000,4.000000,4.000000,4.000000,4.000000,4.000000,4.000000,4.000000,4.000000,4.000000,4.000000,100.000000,,,,,,,,,,,,,,,,
1644854637.834578,150.000000,0.000000,4173.461426,4198.974121,4194.615234,4157.307617,4197.563965,4217.179688,4212.820313,4210.000000,4215.769043,4208.333496,4192.051270,4172.948730,4229.358887,4166.794922,3543.000000,4.000000,82.000000,,,,0.000000,4.000000,4.000000,4.000000,4.000000,4.000000,4.000000,4.000000,4.000000,4.000000,4.000000,4.000000,4.000000,4.000000,4.000000,100.000000,,,,,,,,,,,,,,,,
1644854637.838518,151.000000,0.000000,4170.769043,4197.436035,4192.692383,4154.743652,4198.717773,4215.384766,4215.512695,4212.820313,4216.282227,4202.436035,4196.410156,4170.641113,4221.282227,4168.205078,2385.000000,4.000000,82.000000,,,,0.000000,4.000000,4.000000,4.000000,4.000000,4.000000,4.000000,4.000000,4.000000,4.000000,4.000000,4.000000,4.000000,4.000000,4.000000,100.000000,,,,,,,,,,,,,,,,
1644854637.842458,152.000000,0.000000,4178.205078,4203.589844,4196.282227,4169.615234,4206.282227,4215.000000,4218.846191,4218.077148,4221.153809,4203.333496,4219.871582,4174.871582,4219.615234,4172.948730,3216.000000,4.000000,82.000000,,,,0.000000,4.000000,4.000000,4.000000,4.000000,4.000000,4.000000,4.000000,4.000000,4.000000,4.000000,4.000000,4.000000,4.000000,4.000000,100.000000,,,,,,,,,,,,,,,,
1644854637.846398,153.000000,0.000000,4190.641113,4212.563965,4204.358887,4197.179688,4218.333496,4216.538574,4219.615234,4223.077148,4228.846191,4213.077148,4250.256348,4185.512695,4226.538574,4176.922852,3563.000000,4.000000,82.000000,,,,0.000000,4.000000,4.000000,4.000000,4.000000,4.000000,4.000000,4.000000,4.000000,4.000000,4.000000,4.000000,4.000000,4.000000,4.000000,100.000000,,,,,,,,,,,,,,,,
1644854637.850238,154.000000,0.000000,4200.897461,4217.948730,4213.974121,4225.384766,4228.205078,4218.846191,4217.692383,4226.153809,4235.897461,4227.692383,4271.538574,4198.077148,4239.487305,4179.358887,3543.000000,4.000000,82.000000,,,,0.000000,4.000000,4.000000,4.000000,4.000000,4.000000,4.000000,4.000000,4.000000,4.000000,4.000000,4.000000,4.000000,4.000000,4.000000,100.000000,,,,,,,,,,,,,,,,
1644854637.854178,155.000000,0.000000,4204.615234,4216.282227,4221.794922,4241.666504,4229.615234,4219.487305,4215.384766,4227.436035,4239.102539,4239.743652,4275.384766,4206.025879,4252.820313,4182.692383,2385.000000,4.000000,82.000000,,,,0.000000,4.000000,4.000000,4.000000,4.000000,4.000000,4.000000,4.000000,4.000000,4.000000,4.000000,4.000000,4.000000,4.000000,4.000000,100.000000,,,,,,,,,,,,,,,,
1644854637.858119,156.000000,0.000000,4203.333496,4210.128418,4225.769043,4240.897461,4222.948730,4217.179688,4213.589844,4227.692383,4237.692383,4244.358887,4265.512695,4206.410156,4261.282227,4188.077148,3216.000000,4.000000,82.000000,,,,0.000000,4.000000,4.000000,4.000000,4.000000,4.000000,4.000000,4.000000,4.000000,4.000000,4.000000,4.000000,4.000000,4.000000,4.000000,100.000000,,,,,,,,,,,,,,,,
1644854637.862059,157.000000,0.000000,4202.436035,4206.153809,4226.153809,4228.077148,4213.846191,4212.692383,4211.282227,4227.307617,4234.102539,4242.051270,4253.205078,4202.051270,4262.563965,4192.563965,3563.000000,4.000000,82.000000,,,,0.000000,4.000000,4.000000,4.000000,4.000000,4.000000,4.000000,4.000000,4.000000,4.000000,4.000000,4.000000,4.000000,4.000000,4.000000,100.000000,,,,,,,,,,,,,,,,
1644854637.865999,158.000000,0.000000,4206.666504,4209.871582,4225.000000,4214.358887,4208.974121,4209.358887,4207.948730,4226.282227,4232.051270,4237.948730,4248.461426,4200.128418,4258.974121,4193.077148,3543.000000,4.000000,82.000000,,,,0.000000,4.000000,4.000000,4.000000,4.000000,4.000000,4.000000,4.000000,4.000000,4.000000,4.000000,4.000000,4.000000,4.000000,4.000000,100.000000,,,,,,,,,,,,,,,,
1644854637.869939,159.000000,0.000000,4217.436035,4221.410156,4225.769043,4209.102539,4211.282227,4209.743652,4206.025879,4225.256348,4233.461426,4236.922852,4253.717773,4206.538574,4255.384766,4190.512695,2385.000000,4.000000,82.000000,,,,0.000000,4.000000,4.000000,4.000000,4.000000,4.000000,4.000000,4.000000,4.000000,4.000000,4.000000,4.000000,4.000000,4.000000,4.000000,100.000000,,,,,,,,,,,,,,,,
1644854637.873879,160.000000,0.000000,4231.410156,4236.153809,4230.384766,4214.102539,4218.589844,4214.102539,4208.333496,4225.384766,4237.436035,4240.512695,4262.563965,4219.615234,4256.282227,4189.615234,3216.000000,4.000000,82.000000,,,,0.000000,4.000000,4.000000,4.000000,4.000000,4.000000,4.000000,4.000000,4.000000,4.000000,4.000000,4.000000,4.000000,4.000000,4.000000,100.000000,1.000000,83.333336,4.000000,4.000000,4.000000,4.000000,3.000000,4.000000,4.000000,4.000000,4.000000,4.000000,3.000000,4.000000,4.000000,4.000000
1644854637.877819,161.000000,0.000000,4242.563965,4246.922852,4237.948730,4222.820313,4226.794922,4220.000000,4213.974121,4226.794922,4241.538574,4245.897461,4266.794922,4231.922852,4261.666504,4193.077148,3563.000000,4.000000,82.000000,,,,0.000000,4.000000,4.000000,4.000000,4.000000,4.000000,4.000000,4.000000,4.000000,4.000000,4.000000,4.000000,4.000000,4.000000,4.000000,100.000000,,,,,,,,,,,,,,,,
1644854637.881759,162.000000,0.000000,4244.487305,4248.974121,4244.358887,4227.436035,4231.282227,4224.358887,4218.461426,4228.205078,4243.333496,4248.846191,4262.820313,4235.897461,4267.436035,4199.230957,3543.000000,4.000000,82.000000,,,,0.000000,4.000000,4.000000,4.000000,4.000000,4.000000,4.000000,4.000000,4.000000,4.000000,4.000000,4.000000,4.000000,4.000000,4.000000,100.000000,,,,,,,,,,,,,,,,
1644854637.885699,163.000000,0.000000,4234.358887,4241.410156,4245.256348,4224.871582,4230.384766,4225.384766,4217.820313,4228.077148,4241.922852,4246.794922,4253.974121,4229.487305,4267.948730,4203.461426,2385.000000,4.000000,82.000000,,,,0.000000,4.000000,4.000000,4.000000,4.000000,4.000000,4.000000,4.000000,4.000000,4.000000,4.000000,4.000000,4.000000,4.000000,4.000000,100.000000,,,,,,,,,,,,,,,,
1644854637.889639,164.000000,0.000000,4215.897461,4227.948730,4239.358887,4218.077148,4224.615234,4223.589844,4213.333496,4225.256348,4238.077148,4240.384766,4246.538574,4216.153809,4261.282227,4203.205078,3216.000000,4.000000,82.000000,,,,0.000000,4.000000,4.000000,4.000000,4.000000,4.000000,4.000000,4.000000,4.000000,4.000000,4.000000,4.000000,4.000000,4.000000,4.000000,100.000000,,,,,,,,,,,,,,,,
1644854637.893580,165.000000,0.000000,4198.205078,4215.512695,4230.256348,4212.179688,4217.820313,4221.282227,4210.384766,4221.153809,4232.948730,4233.717773,4245.128418,4202.692383,4251.282227,4198.974121,3563.000000,4.000000,82.000000,,,,0.000000,4.000000,4.000000,4.000000,4.000000,4.000000,4.000000,4.000000,4.000000,4.000000,4.000000,4.000000,4.000000,4.000000,4.000000,100.000000,,,,,,,,,,,,,,,,
1644854637.897520,166.000000,0.000000,4190.897461,4210.384766,4222.692383,4210.128418,4214.743652,4220.384766,4212.692383,4218.205078,4228.589844,4230.769043,4249.487305,4194.230957,4243.846191,4192.436035,3543.000000,4.000000,82.000000,,,,0.000000,4.000000,4.000000,4.000000,4.000000,4.000000,4.000000,4.000000,4.000000,4.000000,4.000000,4.000000,4.000000,4.000000,4.000000,100.000000,,,,,,,,,,,,,,,,
1644854637.901460,167.000000,0.000000,4197.307617,4214.487305,4219.102539,4212.563965,4217.563965,4221.153809,4218.333496,4218.205078,4226.025879,4233.205078,4255.769043,4191.922852,4243.077148,4185.000000,2385.000000,4.000000,82.000000,,,,0.000000,4.000000,4.000000,4.000000,4.000000,4.000000,4.000000,4.000000,4.000000,4.000000,4.000000,4.000000,4.000000,4.000000,4.000000,100.000000,,,,,,,,,,,,,,,,
1644854637.905400,168.000000,0.000000,4211.666504,4223.077148,4217.563965,4217.820313,4223.974121,4222.307617,4222.436035,4220.512695,4225.769043,4238.461426,4259.102539,4192.692383,4247.948730,4178.589844,3216.000000,4.000000,82.000000,,,,0.000000,4.000000,4.000000,4.000000,4.000000,4.000000,4.000000,4.000000,4.000000,4.000000,4.000000,4.000000,4.000000,4.000000,4.000000,100.000000,,,,,,,,,,,,,,,,
1644854637.909340,169.000000,0.000000,4223.717773,4228.461426,4215.256348,4222.692383,4228.077148,4222.051270,4222.563965,4222.948730,4226.410156,4241.922852,4256.282227,4192.436035,4253.974121,4175.512695,3563.000000,4.000000,82.000000,,,,0.000000,4.000000,4.000000,4.000000,4.000000,4.000000,4.000000,4.000000,4.000000,4.000000,4.000000,4.000000,4.000000,4.000000,4.000000,100.000000,,,,,,,,,,,,,,,,
1644854637.913280,170.000000,0.000000,4224.743652,4225.128418,4210.897461,4223.461426,4225.384766,4220.128418,4220.000000,4223.205078,4226.025879,4240.000000,4248.461426,4188.846191,4256.410156,4175.897461,3543.000000,4.000000,82.000000,,,,0.000000,4.000000,4.000000,4.000000,4.000000,4.000000,4.000000,4.000000,4.000000,4.000000,4.000000,4.000000,4.000000,4.000000,4.000000,100.000000,,,,,,,,,,,,,,,,
1644854637.917220,171.000000,0.000000,4212.948730,4213.974121,4205.897461,4217.820313,4216.153809,4217.820313,4216.666504,4220.641113,4223.717773,4232.820313,4239.743652,4183.077148,4253.589844,4176.538574,2385.000000,4.000000,82.000000,,,,0.000000,4.000000,4.000000,4.000000,4.000000,4.000000,4.000000,4.000000,4.000000,4.000000,4.000000,4.000000,4.000000,4.000000,4.000000,100.000000,,,,,,,,,,,,,,,,
1644854637.921060,172.000000,0.000000,4195.000000,4201.794922,4202.307617,4206.153809,4205.897461,4216.922852,4213.589844,4215.641113,4220.641113,4224.102539,4234.358887,4177.820313,4246.538574,4173.589844,3216.000000,4.000000,82.000000,,,,0.000000,4.000000,4.000000,4.000000,4.000000,4.000000,4.000000,4.000000,4.000000,4.000000,4.000000,4.000000,4.000000,4.000000,4.000000,100.000000,,,,,,,,,,,,,,,,
1644854637.925000,173.000000,0.000000,4180.512695,4194.615234,4201.922852,4193.205078,4200.256348,4217.692383,4211.666504,4210.897461,4219.102539,4218.589844,4233.846191,4175.641113,4238.333496,4167.563965,3563.000000,4.000000,82.000000,,,,0.000000,4.000000,4.000000,4.000000,4.000000,4.000000,4.000000,4.000000,4.000000,4.000000,4.000000,4.000000,4.000000,4.000000,4.000000,100.000000,,,,,,,,,,,,,,,,
1644854637.928941,174.000000,0.000000,4176.282227,4194.358887,4204.487305,4185.897461,4201.025879,4218.846191,4212.179688,4209.230957,4220.384766,4217.820313,4235.384766,4176.666504,4231.666504,4163.846191,3543.000000,4.000000,82.000000,,,,0.000000,4.000000,4.000000,4.000000,4.000000,4.000000,4.000000,4.000000,4.000000,4.000000,4.000000,4.000000,4.000000,4.000000,4.000000,100.000000,,,,,,,,,,,,,,,,
1644854637.932881,175.000000,0.000000,4181.410156,4198.077148,4208.589844,4188.589844,4205.769043,4218.846191,4215.641113,4211.410156,4223.077148,4220.512695,4235.512695,4179.230957,4228.461426,4166.282227,2385.000000,4.000000,82.000000,,,,0.000000,4.000000,4.000000,4.000000,4.000000,4.000000,4.000000,4.000000,4.000000,4.000000,4.000000,4.000000,4.000000,4.000000,4.000000,100.000000,,,,,,,,,,,,,,,,
1644854637.936821,176.000000,0.000000,4189.871582,4201.794922,4211.666504,4200.128418,4210.897461,4217.692383,4219.487305,4215.000000,4224.487305,4223.461426,4232.948730,4181.410156,4229.102539,4172.692383,3216.000000,4.000000,82.000000,,,,0.000000,4.000000,4.000000,4.000000,4.000000,4.000000,4.000000,4.000000,4.000000,4.000000,4.000000,4.000000,4.000000,4.000000,4.000000,100.000000,,,,,,,,,,,,,,,,
1644854637.940761,177.000000,0.000000,4196.025879,4203.717773,4211.538574,4213.333496,4214.871582,4216.538574,4219.230957,4216.410156,4223.461426,4225.256348,4229.487305,4182.948730,4233.974121,4177.179688,3563.000000,4.000000,82.000000,,,,0.000000,4.000000,4.000000,4.000000,4.000000,4.000000,4.000000,4.000000,4.000000,4.000000,4.000000,4.000000,4.000000,4.000000,4.000000,100.000000,,,,,,,,,,,,,,,,
1644854637.944701,178.000000,0.000000,4198.717773,4205.512695,4209.102539,4220.256348,4218.205078,4216.538574,4213.589844,4215.000000,4221.794922,4226.794922,4228.589844,4184.743652,4242.948730,4177.051270,3543.000000,4.000000,82.000000,,,,0.000000,4.000000,4.000000,4.000000,4.000000,4.000000,4.000000,4.000000,4.000000,4.000000,4.000000,4.000000,4.000000,4.000000,4.000000,100.000000,,,,,,,,,,,,,,,,
1644854637.948641,179.000000,0.000000,4200.384766,4209.487305,4207.948730,4217.563965,4221.666504,4217.179688,4206.922852,4213.717773,4222.820313,4229.487305,4233.205078,4187.948730,4255.000000,4175.512695,2385.000000,4.000000,82.000000,,,,0.000000,4.000000,4.000000,4.000000,4.000000,4.000000,4.000000,4.000000,4.000000,4.000000,4.000000,4.000000,4.000000,4.000000,4.000000,100.000000,,,,,,,,,,,,,,,,
1644854637.952581,180.000000,0.000000,4203.846191,4216.666504,4211.410156,4210.128418,4223.846191,4217.692383,4204.615234,4215.641113,4228.077148,4233.589844,4242.436035,4192.563965,4266.282227,4177.820313,3216.000000,4.000000,82.000000,,,,0.000000,4.000000,4.000000,4.000000,4.000000,4.000000,4.000000,4.000000,4.000000,4.000000,4.000000,4.000000,4.000000,4.000000,4.000000,100.000000,,,,,,,,,,,,,,,,
1644854637.956521,181.000000,0.000000,4209.743652,4224.871582,4218.717773,4205.641113,4222.820313,4217.307617,4208.077148,4220.769043,4235.769043,4237.307617,4252.436035,4197.307617,4272.307617,4184.358887,3563.000000,4.000000,82.000000,,,,0.000000,4.000000,4.000000,4.000000,4.000000,4.000000,4.000000,4.000000,4.000000,4.000000,4.000000,4.000000,4.000000,4.000000,4.000000,100.000000,,,,,,,,,,,,,,,,
1644854637.960461,182.000000,0.000000,4215.769043,4230.641113,4225.128418,4208.717773,4217.820313,4216.153809,4212.692383,4225.641113,4242.179688,4238.846191,4258.589844,4200.256348,4270.769043,4189.871582,3543.000000,4.000000,82.000000,,,,0.000000,4.000000,4.000000,4.000000,4.000000,4.000000,4.000000,4.000000,4.000000,4.000000,4.000000,4.000000,4.000000,4.000000,4.000000,100.000000,,,,,,,,,,,,,,,,
1644854637.964402,183.000000,0.000000,4218.077148,4231.666504,4226.538574,4216.282227,4211.410156,4214.487305,4213.205078,4226.410156,4244.102539,4237.563965,4258.333496,4200.512695,4263.077148,4190.384766,2385.000000,4.000000,82.000000,,,,0.000000,4.000000,4.000000,4.000000,4.000000,4.000000,4.000000,4.000000,4.000000,4.000000,4.000000,4.000000,4.000000,4.000000,4.000000,100.000000,,,,,,,,,,,,,,,,
1644854637.968342,184.000000,0.000000,4214.230957,4227.692383,4223.333496,4221.025879,4207.436035,4213.589844,4209.358887,4222.436035,4241.025879,4233.717773,4252.436035,4198.974121,4252.436035,4186.794922,3216.000000,4.000000,82.000000,,,,0.000000,4.000000,4.000000,4.000000,4.000000,4.000000,4.000000,4.000000,4.000000,4.000000,4.000000,4.000000,4.000000,4.000000,4.000000,100.000000,,,,,,,,,,,,,,,,
1644854637.972282,185.000000,0.000000,4205.384766,4220.256348,4220.000000,4218.205078,4208.333496,4213.846191,4205.384766,4217.307617,4234.487305,4228.846191,4243.974121,4197.692383,4242.563965,4183.974121,3563.000000,4.000000,82.000000,,,,0.000000,4.000000,4.000000,4.000000,4.000000,4.000000,4.000000,4.000000,4.000000,4.000000,4.000000,4.000000,4.000000,4.000000,4.000000,100.000000,,,,,,,,,,,,,,,,
1644854637.976222,186.000000,0.000000,4196.025879,4212.948730,4220.641113,4209.615234,4212.948730,4214.871582,4205.512695,4215.128418,4228.461426,4225.641113,4236.153809,4198.205078,4235.769043,4185.128418,3543.000000,4.000000,82.000000,,,,0.000000,4.000000,4.000000,4.000000,4.000000,4.000000,4.000000,4.000000,4.000000,4.000000,4.000000,4.000000,4.000000,4.000000,4.000000,100.000000,,,,,,,,,,,,,,,,
1644854637.980162,187.000000,0.000000,4191.794922,4209.102539,4224.871582,4202.436035,4217.692383,4215.641113,4208.717773,4216.794922,4225.769043,4225.897461,4231.025879,4199.871582,4233.846191,4187.948730,2385.000000,4.000000,82.000000,,,,0.000000,4.000000,4.000000,4.000000,4.000000,4.000000,4.000000,4.000000,4.000000,4.000000,4.000000,4.000000,4.000000,4.000000,4.000000,100.000000,,,,,,,,,,,,,,,,
1644854637.984102,188.000000,0.000000,4194.615234,4210.256348,4228.974121,4202.436035,4218.205078,4215.384766,4211.666504,4219.102539,4226.153809,4228.717773,4228.077148,4201.153809,4236.153809,4187.692383,3216.000000,4.000000,82.000000,,,,0.000000,4.000000,4.000000,4.000000,4.000000,4.000000,4.000000,4.000000,4.000000,4.000000,4.000000,4.000000,4.000000,4.000000,4.000000,100.000000,,,,,,,,,,,,,,,,
1644854637.988042,189.000000,0.000000,4201.538574,4213.846191,4229.358887,4209.102539,4213.846191,4214.102539,4212.179688,4217.820313,4226.666504,4229.230957,4225.384766,4200.128418,4240.256348,4182.692383,3563.000000,4.000000,82.000000,,,,0.000000,4.000000,4.000000,4.000000,4.000000,4.000000,4.000000,4.000000,4.000000,4.000000,4.000000,4.000000,4.000000,4.000000,4.000000,100.000000,,,,,,,,,,,,,,,,
1644854637.992082,190.000000,0.000000,4206.282227,4215.128418,4225.897461,4216.794922,4207.948730,4212.820313,4211.538574,4212.051270,4224.102539,4223.589844,4222.051270,4196.538574,4243.205078,4176.153809,3543.000000,4.000000,82.000000,,,,0.000000,4.000000,4.000000,4.000000,4.000000,4.000000,4.000000,4.000000,4.000000,4.000000,4.000000,4.000000,4.000000,4.000000,4.000000,100.000000,,,,,,,,,,,,,,,,
1644854637.996022,191.000000,0.000000,4205.128418,4211.025879,4220.641113,4219.871582,4205.769043,4212.436035,4211.410156,4204.615234,4218.974121,4212.051270,4218.717773,4191.538574,4243.077148,4172.692383,2385.000000,4.000000,82.000000,,,,0.000000,4.000000,4.000000,4.000000,4.000000,4.000000,4.000000,4.000000,4.000000,4.000000,4.000000,4.000000,4.000000,4.000000,4.000000,100.000000,,,,,,,,,,,,,,,,
1644854637.999962,192.000000,0.000000,4199.487305,4203.846191,4216.153809,4217.436035,4209.743652,4213.461426,4212.051270,4200.128418,4213.974121,4201.025879,4217.692383,4187.948730,4240.512695,4174.358887,3216.000000,4.000000,82.000000,,,,0.000000,4.000000,4.000000,4.000000,4.000000,4.000000,4.000000,4.000000,4.000000,4.000000,4.000000,4.000000,4.000000,4.000000,4.000000,100.000000,,,,,,,,,,,,,,,,
1644854638.003902,193.000000,0.000000,4195.000000,4198.974121,4212.820313,4212.948730,4217.179688,4215.384766,4212.307617,4201.153809,4212.563965,4197.051270,4220.641113,4186.410156,4238.205078,4179.358887,3563.000000,4.000000,82.000000,,,,0.000000,4.000000,4.000000,4.000000,4.000000,4.000000,4.000000,4.000000,4.000000,4.000000,4.000000,4.000000,4.000000,4.000000,4.000000,100.000000,,,,,,,,,,,,,,,,
1644854638.007843,194.000000,0.000000,4196.153809,4201.025879,4210.384766,4210.384766,4222.179688,4217.051270,4212.051270,4206.538574,4214.871582,4201.794922,4227.179688,4186.025879,4238.333496,4184.871582,3543.000000,4.000000,82.000000,,,,0.000000,4.000000,4.000000,4.000000,4.000000,4.000000,4.000000,4.000000,4.000000,4.000000,4.000000,4.000000,4.000000,4.000000,4.000000,100.000000,,,,,,,,,,,,,,,,
1644854638.011783,195.000000,0.000000,4202.436035,4209.230957,4207.820313,4211.282227,4221.282227,4217.307617,4212.563965,4211.794922,4217.948730,4210.641113,4234.487305,4185.000000,4241.282227,4189.487305,2385.000000,4.000000,82.000000,,,,0.000000,4.000000,4.000000,4.000000,4.000000,4.000000,4.000000,4.000000,4.000000,4.000000,4.000000,4.000000,4.000000,4.000000,4.000000,100.000000,,,,,,,,,,,,,,,,
1644854638.015723,196.000000,0.000000,4209.102539,4218.589844,4205.128418,4213.974121,4216.538574,4216.153809,4214.358887,4212.948730,4218.974121,4217.436035,4239.230957,4183.077148,4246.282227,4193.333496,3216.000000,4.000000,82.000000,,,,0.000000,4.000000,4.000000,4.000000,4.000000,4.000000,4.000000,4.000000,4.000000,4.000000,4.000000,4.000000,4.000000,4.000000,4.000000,100.000000,,,,,,,,,,,,,,,,
1644854638.019663,197.000000,0.000000,4212.436035,4224.487305,4203.461426,4216.153809,4212.948730,4214.487305,4215.897461,4209.615234,4217.051270,4218.589844,4239.487305,4182.051270,4252.051270,4196.282227,3563.000000,4.000000,82.000000,,,,0.000000,4.000000,4.000000,4.000000,4.000000,4.000000,4.000000,4.000000,4.000000,4.000000,4.000000,4.000000,4.000000,4.000000,4.000000,100.000000,,,,,,,,,,,,,,,,
1644854638.023603,198.000000,0.000000,4212.820313,4226.410156,4204.743652,4216.794922,4213.461426,4214.102539,4215.256348,4205.641113,4214.230957,4215.128418,4236.922852,4183.461426,4258.205078,4198.205078,3543.000000,4.000000,82.000000,,,,0.000000,4.000000,4.000000,4.000000,4.000000,4.000000,4.000000,4.000000,4.000000,4.000000,4.000000,4.000000,4.000000,4.000000,4.000000,100.000000,,,,,,,,,,,,,,,,
1644854638.027543,199.000000,0.000000,4214.230957,4226.794922,4210.000000,4217.563965,4216.538574,4215.384766,4212.563965,4205.512695,4213.461426,4211.410156,4234.743652,4188.077148,4265.128418,4200.384766,2385.000000,4.000000,82.000000,,,,0.000000,4.000000,4.000000,4.000000,4.000000,4.000000,4.000000,4.000000,4.000000,4.000000,4.000000,4.000000,4.000000,4.000000,4.000000,100.000000,,,,,,,,,,,,,,,,
1644854638.031483,200.000000,0.000000,4219.871582,4228.974121,4218.205078,4221.538574,4218.077148,4217.563965,4210.641113,4210.256348,4216.025879,4211.794922,4236.282227,4194.230957,4273.333496,4205.000000,3216.000000,4.000000,82.000000,,,,0.000000,4.000000,4.000000,4.000000,4.000000,4.000000,4.000000,4.000000,4.000000,4.000000,4.000000,4.000000,4.000000,4.000000,4.000000,100.000000,,,,,,,,,,,,,,,,
1644854638.035423,201.000000,0.000000,4230.128418,4234.102539,4226.666504,4229.615234,4216.538574,4218.846191,4211.794922,4216.922852,4220.384766,4216.538574,4242.436035,4199.743652,4283.589844,4212.307617,3563.000000,4.000000,82.000000,,,,0.000000,4.000000,4.000000,4.000000,4.000000,4.000000,4.000000,4.000000,4.000000,4.000000,4.000000,4.000000,4.000000,4.000000,4.000000,100.000000,,,,,,,,,,,,,,,,
1644854638.039363,202.000000,0.000000,4242.948730,4241.666504,4233.333496,4238.717773,4213.974121,4218.461426,4215.000000,4220.897461,4224.487305,4222.948730,4252.051270,4203.461426,4296.282227,4220.256348,3543.000000,4.000000,82.000000,,,,0.000000,4.000000,4.000000,4.000000,4.000000,4.000000,4.000000,4.000000,4.000000,4.000000,4.000000,4.000000,4.000000,4.000000,4.000000,100.000000,,,,,,,,,,,,,,,,
