title:Alex-Je5Jh8g9ExAWrdopl3CGzg, start timestamp:1644854378.087624, stop timestamp:1644854404.150522, headset type:EPOCPLUS, headset serial:3B9AEBFF, headset firmware:626, channels:55, sampling rate:eeg_256, samples:6616      , version:2.1, 
Timestamp,EEG.Counter,EEG.Interpolated,EEG.AF3,EEG.F7,EEG.F3,EEG.FC5,EEG.T7,EEG.P7,EEG.O1,EEG.O2,EEG.P8,EEG.T8,EEG.FC6,EEG.F4,EEG.F8,EEG.AF4,EEG.RawCq,EEG.Battery,EEG.BatteryPercent,MarkerIndex,MarkerType,MarkerValueInt,EEG.MarkerHardware,CQ.AF3,CQ.F7,CQ.F3,CQ.FC5,CQ.T7,CQ.P7,CQ.O1,CQ.O2,CQ.P8,CQ.T8,CQ.FC6,CQ.F4,CQ.F8,CQ.AF4,CQ.Overall,EQ.SampleRateQuality,EQ.OVERALL,EQ.AF3,EQ.F7,EQ.F3,EQ.FC5,EQ.T7,EQ.P7,EQ.O1,EQ.O2,EQ.P8,EQ.T8,EQ.FC6,EQ.F4,EQ.F8,EQ.AF4
1644854378.087624,21.000000,0.000000,4243.205078,4234.871582,4250.128418,4281.794922,4247.820313,4238.077148,4231.282227,4243.333496,4244.615234,4245.769043,4253.846191,4231.538574,4225.384766,4289.871582,3301.000000,4.000000,86.000000,,,,0.000000,4.000000,4.000000,4.000000,4.000000,4.000000,4.000000,4.000000,4.000000,4.000000,4.000000,4.000000,4.000000,4.000000,4.000000,100.000000,,,,,,,,,,,,,,,,
1644854378.091464,22.000000,0.000000,4238.077148,4235.256348,4246.153809,4289.743652,4241.282227,4238.589844,4228.717773,4240.769043,4243.077148,4249.615234,4260.512695,4228.205078,4220.256348,4285.769043,3531.000000,4.000000,86.000000,,,,0.000000,4.000000,4.000000,4.000000,4.000000,4.000000,4.000000,4.000000,4.000000,4.000000,4.000000,4.000000,4.000000,4.000000,4.000000,100.000000,,,,,,,,,,,,,,,,
1644854378.095404,23.000000,0.000000,4234.487305,4232.820313,4240.128418,4293.717773,4232.563965,4235.897461,4227.307617,4234.102539,4236.538574,4246.666504,4255.769043,4220.128418,4215.000000,4285.128418,2414.000000,4.000000,86.000000,,,,0.000000,4.000000,4.000000,4.000000,4.000000,4.000000,4.000000,4.000000,4.000000,4.000000,4.000000,4.000000,4.000000,4.000000,4.000000,100.000000,,,,,,,,,,,,,,,,
1644854378.099344,24.000000,0.000000,4236.153809,4227.179688,4232.948730,4295.512695,4225.897461,4231.410156,4227.307617,4228.077148,4228.974121,4237.692383,4242.051270,4212.307617,4210.256348,4286.794922,3455.000000,4.000000,86.000000,,,,0.000000,4.000000,4.000000,4.000000,4.000000,4.000000,4.000000,4.000000,4.000000,4.000000,4.000000,4.000000,4.000000,4.000000,4.000000,100.000000,,,,,,,,,,,,,,,,
1644854378.103284,25.000000,0.000000,4243.333496,4220.769043,4226.538574,4297.179688,4224.487305,4228.205078,4227.307617,4226.025879,4225.384766,4228.846191,4226.922852,4209.102539,4207.820313,4287.563965,3301.000000,4.000000,86.000000,,,,0.000000,4.000000,4.000000,4.000000,4.000000,4.000000,4.000000,4.000000,4.000000,4.000000,4.000000,4.000000,4.000000,4.000000,4.000000,100.000000,,,,,,,,,,,,,,,,
1644854378.107224,26.000000,0.000000,4251.794922,4217.051270,4222.820313,4298.846191,4228.333496,4227.948730,4226.538574,4228.717773,4228.333496,4226.410156,4217.692383,4211.282227,4208.461426,4285.897461,3531.000000,4.000000,86.000000,,,,0.000000,4.000000,4.000000,4.000000,4.000000,4.000000,4.000000,4.000000,4.000000,4.000000,4.000000,4.000000,4.000000,4.000000,4.000000,100.000000,,,,,,,,,,,,,,,,
1644854378.111264,27.000000,0.000000,4255.000000,4217.307617,4223.333496,4297.820313,4233.974121,4230.000000,4226.538574,4234.487305,4235.769043,4231.282227,4217.051270,4216.025879,4210.641113,4283.717773,2414.000000,4.000000,86.000000,,,,0.000000,4.000000,4.000000,4.000000,4.000000,4.000000,4.000000,4.000000,4.000000,4.000000,4.000000,4.000000,4.000000,4.000000,4.000000,100.000000,,,,,,,,,,,,,,,,
1644854378.115204,28.000000,0.000000,4249.358887,4220.384766,4227.563965,4292.563965,4237.436035,4232.563965,4228.974121,4240.897461,4242.948730,4238.717773,4223.077148,4219.487305,4211.410156,4283.846191,3455.000000,4.000000,86.000000,,,,0.000000,4.000000,4.000000,4.000000,4.000000,4.000000,4.000000,4.000000,4.000000,4.000000,4.000000,4.000000,4.000000,4.000000,4.000000,100.000000,,,,,,,,,,,,,,,,
1644854378.119144,29.000000,0.000000,4237.436035,4223.717773,4233.077148,4285.384766,4237.820313,4233.461426,4232.820313,4245.256348,4245.641113,4242.820313,4231.025879,4219.487305,4209.487305,4286.025879,3301.000000,4.000000,86.000000,,,,0.000000,4.000000,4.000000,4.000000,4.000000,4.000000,4.000000,4.000000,4.000000,4.000000,4.000000,4.000000,4.000000,4.000000,4.000000,100.000000,,,,,,,,,,,,,,,,
1644854378.123085,30.000000,0.000000,4227.307617,4224.615234,4236.025879,4281.666504,4237.051270,4232.820313,4235.128418,4246.025879,4243.589844,4241.794922,4236.025879,4216.666504,4206.025879,4287.692383,3531.000000,4.000000,86.000000,,,,0.000000,4.000000,4.000000,4.000000,4.000000,4.000000,4.000000,4.000000,4.000000,4.000000,4.000000,4.000000,4.000000,4.000000,4.000000,100.000000,,,,,,,,,,,,,,,,
1644854378.127025,31.000000,0.000000,4226.794922,4223.333496,4235.128418,4284.487305,4238.205078,4231.794922,4233.846191,4243.461426,4239.358887,4237.948730,4235.000000,4212.820313,4203.974121,4286.153809,2414.000000,4.000000,86.000000,,,,0.000000,4.000000,4.000000,4.000000,4.000000,4.000000,4.000000,4.000000,4.000000,4.000000,4.000000,4.000000,4.000000,4.000000,4.000000,100.000000,,,,,,,,,,,,,,,,
1644854378.130965,32.000000,0.000000,4237.179688,4222.051270,4231.666504,4289.743652,4241.666504,4231.410156,4230.897461,4239.871582,4236.538574,4235.384766,4228.974121,4209.743652,4204.743652,4280.769043,0.000000,4.000000,86.000000,,,,0.000000,4.000000,4.000000,4.000000,4.000000,4.000000,4.000000,4.000000,4.000000,4.000000,4.000000,4.000000,4.000000,4.000000,4.000000,100.000000,,,,,,,,,,,,,,,,
1644854378.134905,33.000000,0.000000,4250.641113,4223.205078,4228.589844,4290.000000,4245.128418,4231.922852,4229.358887,4237.948730,4236.922852,4236.282227,4221.538574,4208.333496,4207.692383,4273.717773,0.000000,4.000000,86.000000,,,,0.000000,4.000000,4.000000,4.000000,4.000000,4.000000,4.000000,4.000000,4.000000,4.000000,4.000000,4.000000,4.000000,4.000000,4.000000,100.000000,,,,,,,,,,,,,,,,
1644854378.138845,34.000000,0.000000,4257.436035,4226.922852,4228.205078,4282.563965,4245.128418,4232.436035,4229.871582,4238.461426,4239.358887,4240.000000,4217.820313,4208.205078,4211.025879,4267.948730,0.000000,4.000000,86.000000,,,,0.000000,4.000000,4.000000,4.000000,4.000000,4.000000,4.000000,4.000000,4.000000,4.000000,4.000000,4.000000,4.000000,4.000000,4.000000,100.000000,,,,,,,,,,,,,,,,
1644854378.142785,35.000000,0.000000,4253.077148,4230.256348,4230.256348,4273.589844,4240.641113,4232.563965,4230.641113,4240.000000,4241.794922,4244.743652,4221.153809,4208.846191,4213.333496,4265.897461,0.000000,4.000000,86.000000,,,,0.000000,4.000000,4.000000,4.000000,4.000000,4.000000,4.000000,4.000000,4.000000,4.000000,4.000000,4.000000,4.000000,4.000000,4.000000,100.000000,,,,,,,,,,,,,,,,
1644854378.146725,36.000000,0.000000,4242.948730,4230.769043,4233.461426,4271.922852,4234.487305,4232.563965,4229.871582,4240.769043,4242.436035,4248.717773,4230.897461,4209.871582,4214.487305,4268.974121,0.000000,4.000000,86.000000,,,,0.000000,4.000000,4.000000,4.000000,4.000000,4.000000,4.000000,4.000000,4.000000,4.000000,4.000000,4.000000,4.000000,4.000000,4.000000,100.000000,,,,,,,,,,,,,,,,
1644854378.150665,37.000000,0.000000,4236.025879,4229.102539,4235.897461,4280.256348,4230.769043,4232.820313,4228.846191,4240.512695,4241.153809,4250.256348,4242.948730,4210.641113,4215.641113,4277.179688,0.000000,4.000000,86.000000,,,,0.000000,4.000000,4.000000,4.000000,4.000000,4.000000,4.000000,4.000000,4.000000,4.000000,4.000000,4.000000,4.000000,4.000000,4.000000,100.000000,,,,,,,,,,,,,,,,
1644854378.154605,38.000000,0.000000,4236.410156,4227.692383,4236.666504,4291.538574,4230.256348,4233.333496,4229.358887,4239.743652,4239.102539,4248.717773,4251.282227,4211.153809,4217.436035,4287.692383,0.000000,4.000000,86.000000,,,,0.000000,4.000000,4.000000,4.000000,4.000000,4.000000,4.000000,4.000000,4.000000,4.000000,4.000000,4.000000,4.000000,4.000000,4.000000,100.000000,,,,,,,,,,,,,,,,
1644854378.158645,39.000000,0.000000,4240.641113,4228.205078,4235.128418,4294.358887,4230.384766,4233.717773,4231.025879,4238.461426,4236.922852,4243.717773,4251.922852,4210.897461,4218.461426,4294.102539,0.000000,4.000000,86.000000,,,,0.000000,4.000000,4.000000,4.000000,4.000000,4.000000,4.000000,4.000000,4.000000,4.000000,4.000000,4.000000,4.000000,4.000000,4.000000,100.000000,,,,,,,,,,,,,,,,
1644854378.162586,40.000000,0.000000,4241.153809,4229.230957,4230.769043,4283.205078,4227.436035,4233.205078,4230.897461,4235.512695,4234.358887,4235.384766,4245.000000,4208.846191,4216.282227,4291.282227,0.000000,4.000000,86.000000,,,,0.000000,4.000000,4.000000,4.000000,4.000000,4.000000,4.000000,4.000000,4.000000,4.000000,4.000000,4.000000,4.000000,4.000000,4.000000,100.000000,,,,,,,,,,,,,,,,
1644854378.166526,41.000000,0.000000,4234.615234,4228.205078,4225.128418,4262.820313,4221.666504,4232.179688,4227.820313,4230.641113,4231.538574,4226.025879,4233.846191,4204.871582,4209.743652,4279.871582,0.000000,4.000000,86.000000,,,,0.000000,4.000000,4.000000,4.000000,4.000000,4.000000,4.000000,4.000000,4.000000,4.000000,4.000000,4.000000,4.000000,4.000000,4.000000,100.000000,,,,,,,,,,,,,,,,
1644854378.170466,42.000000,0.000000,4224.615234,4223.974121,4221.538574,4246.410156,4217.820313,4231.153809,4224.230957,4226.538574,4229.358887,4219.615234,4223.589844,4200.897461,4200.512695,4267.436035,0.000000,4.000000,86.000000,,,,0.000000,4.000000,4.000000,4.000000,4.000000,4.000000,4.000000,4.000000,4.000000,4.000000,4.000000,4.000000,4.000000,4.000000,4.000000,100.000000,,,,,,,,,,,,,,,,
1644854378.174406,43.000000,0.000000,4218.974121,4218.974121,4223.205078,4245.897461,4221.282227,4231.538574,4224.615234,4226.666504,4229.230957,4220.384766,4218.077148,4199.487305,4193.717773,4262.692383,0.000000,4.000000,86.000000,,,,0.000000,4.000000,4.000000,4.000000,4.000000,4.000000,4.000000,4.000000,4.000000,4.000000,4.000000,4.000000,4.000000,4.000000,4.000000,100.000000,,,,,,,,,,,,,,,,
1644854378.178346,44.000000,0.000000,4222.307617,4217.179688,4230.128418,4261.922852,4233.461426,4233.333496,4229.615234,4231.922852,4232.307617,4229.102539,4218.846191,4201.794922,4194.871582,4268.205078,0.000000,4.000000,86.000000,,,,0.000000,4.000000,4.000000,4.000000,4.000000,4.000000,4.000000,4.000000,4.000000,4.000000,4.000000,4.000000,4.000000,4.000000,4.000000,100.000000,,,,,,,,,,,,,,,,
1644854378.182286,45.000000,0.000000,4232.692383,4220.000000,4238.461426,4283.717773,4249.487305,4235.512695,4235.641113,4239.102539,4238.077148,4242.179688,4224.358887,4206.794922,4205.128418,4278.974121,0.000000,4.000000,86.000000,,,,0.000000,4.000000,4.000000,4.000000,4.000000,4.000000,4.000000,4.000000,4.000000,4.000000,4.000000,4.000000,4.000000,4.000000,4.000000,100.000000,,,,,,,,,,,,,,,,
1644854378.186226,46.000000,0.000000,4244.102539,4224.743652,4242.820313,4296.666504,4261.025879,4236.666504,4238.461426,4243.974121,4243.974121,4252.436035,4229.487305,4211.666504,4219.230957,4287.307617,0.000000,4.000000,86.000000,,,,0.000000,4.000000,4.000000,4.000000,4.000000,4.000000,4.000000,4.000000,4.000000,4.000000,4.000000,4.000000,4.000000,4.000000,4.000000,100.000000,,,,,,,,,,,,,,,,
1644854378.190166,47.000000,0.000000,4251.153809,4226.666504,4241.025879,4294.358887,4261.922852,4236.025879,4237.307617,4244.102539,4246.794922,4253.205078,4229.102539,4213.717773,4228.717773,4288.205078,0.000000,4.000000,86.000000,,,,0.000000,4.000000,4.000000,4.000000,4.000000,4.000000,4.000000,4.000000,4.000000,4.000000,4.000000,4.000000,4.000000,4.000000,4.000000,100.000000,,,,,,,,,,,,,,,,
1644854378.194106,48.000000,0.000000,4252.307617,4224.102539,4235.128418,4282.692383,4251.922852,4233.461426,4234.871582,4240.641113,4244.871582,4243.333496,4220.897461,4211.794922,4227.820313,4281.410156,0.000000,4.000000,86.000000,,,,0.000000,4.000000,4.000000,4.000000,4.000000,4.000000,4.000000,4.000000,4.000000,4.000000,4.000000,4.000000,4.000000,4.000000,4.000000,100.000000,,,,,,,,,,,,,,,,
1644854378.198046,49.000000,0.000000,4248.717773,4220.256348,4230.512695,4274.102539,4237.948730,4230.128418,4233.589844,4236.666504,4239.743652,4228.846191,4209.102539,4208.077148,4218.589844,4270.512695,0.000000,4.000000,86.000000,,,,0.000000,4.000000,4.000000,4.000000,4.000000,4.000000,4.000000,4.000000,4.000000,4.000000,4.000000,4.000000,4.000000,4.000000,4.000000,100.000000,,,,,,,,,,,,,,,,
1644854378.201987,50.000000,0.000000,4242.436035,4220.641113,4231.025879,4276.410156,4228.589844,4228.589844,4233.461426,4235.512695,4235.384766,4219.102539,4202.948730,4206.410156,4208.846191,4260.641113,0.000000,4.000000,86.000000,,,,0.000000,4.000000,4.000000,4.000000,4.000000,4.000000,4.000000,4.000000,4.000000,4.000000,4.000000,4.000000,4.000000,4.000000,4.000000,100.000000,,,,,,,,,,,,,,,,
1644854378.205927,51.000000,0.000000,4234.871582,4227.436035,4236.666504,4286.282227,4227.948730,4230.641113,4233.077148,4238.077148,4234.102539,4219.358887,4208.717773,4208.461426,4205.000000,4255.641113,0.000000,4.000000,86.000000,,,,0.000000,4.000000,4.000000,4.000000,4.000000,4.000000,4.000000,4.000000,4.000000,4.000000,4.000000,4.000000,4.000000,4.000000,4.000000,100.000000,,,,,,,,,,,,,,,,
1644854378.209867,52.000000,0.000000,4227.051270,4235.641113,4242.051270,4293.461426,4232.436035,4235.384766,4231.922852,4241.922852,4235.256348,4226.410156,4223.846191,4211.153809,4206.794922,4256.410156,0.000000,4.000000,86.000000,,,,0.000000,4.000000,4.000000,4.000000,4.000000,4.000000,4.000000,4.000000,4.000000,4.000000,4.000000,4.000000,4.000000,4.000000,4.000000,100.000000,,,,,,,,,,,,,,,,
1644854378.213807,53.000000,0.000000,4219.871582,4236.153809,4241.025879,4290.512695,4235.000000,4238.717773,4231.025879,4243.205078,4235.256348,4231.922852,4238.205078,4209.871582,4207.820313,4260.897461,0.000000,4.000000,86.000000,,,,0.000000,4.000000,4.000000,4.000000,4.000000,4.000000,4.000000,4.000000,4.000000,4.000000,4.000000,4.000000,4.000000,4.000000,4.000000,100.000000,,,,,,,,,,,,,,,,
1644854378.217747,54.000000,0.000000,4215.256348,4225.641113,4232.051270,4278.333496,4232.436035,4237.051270,4230.384766,4240.384766,4232.436035,4230.897461,4242.051270,4202.820313,4203.205078,4265.641113,0.000000,4.000000,86.000000,,,,0.000000,4.000000,4.000000,4.000000,4.000000,4.000000,4.000000,4.000000,4.000000,4.000000,4.000000,4.000000,4.000000,4.000000,4.000000,100.000000,1.000000,41.666668,3.000000,4.000000,4.000000,4.000000,1.000000,4.000000,4.000000,4.000000,4.000000,4.000000,3.000000,4.000000,3.000000,1.000000
1644854378.221687,55.000000,0.000000,4216.538574,4210.641113,4220.000000,4265.256348,4228.333496,4231.153809,4229.487305,4235.641113,4228.589844,4225.128418,4234.102539,4193.589844,4194.871582,4267.948730,0.000000,4.000000,86.000000,,,,0.000000,4.000000,4.000000,4.000000,4.000000,4.000000,4.000000,4.000000,4.000000,4.000000,4.000000,4.000000,4.000000,4.000000,4.000000,100.000000,,,,,,,,,,,,,,,,
1644854378.225627,56.000000,0.000000,4226.922852,4203.205078,4212.948730,4260.641113,4228.589844,4225.641113,4228.205078,4233.589844,4227.820313,4219.743652,4221.538574,4188.461426,4189.358887,4267.563965,0.000000,4.000000,86.000000,,,,0.000000,4.000000,4.000000,4.000000,4.000000,4.000000,4.000000,4.000000,4.000000,4.000000,4.000000,4.000000,4.000000,4.000000,4.000000,100.000000,,,,,,,,,,,,,,,,
1644854378.229567,57.000000,0.000000,4244.743652,4209.871582,4215.128418,4266.666504,4234.743652,4225.256348,4227.820313,4236.666504,4231.538574,4217.436035,4212.948730,4190.897461,4190.641113,4266.538574,0.000000,4.000000,86.000000,,,,0.000000,4.000000,4.000000,4.000000,4.000000,4.000000,4.000000,4.000000,4.000000,4.000000,4.000000,4.000000,4.000000,4.000000,4.000000,100.000000,,,,,,,,,,,,,,,,
1644854378.233607,58.000000,0.000000,4261.794922,4225.000000,4223.846191,4276.794922,4241.538574,4230.256348,4230.256348,4242.820313,4236.666504,4216.282227,4209.871582,4198.717773,4195.769043,4267.179688,0.000000,4.000000,86.000000,,,,0.000000,4.000000,4.000000,4.000000,4.000000,4.000000,4.000000,4.000000,4.000000,4.000000,4.000000,4.000000,4.000000,4.000000,4.000000,100.000000,,,,,,,,,,,,,,,,
1644854378.237547,59.000000,0.000000,4266.410156,4235.897461,4231.922852,4279.615234,4243.077148,4236.538574,4234.487305,4247.820313,4238.589844,4213.205078,4207.692383,4205.384766,4197.179688,4268.974121,0.000000,4.000000,86.000000,,,,0.000000,4.000000,4.000000,4.000000,4.000000,4.000000,4.000000,4.000000,4.000000,4.000000,4.000000,4.000000,4.000000,4.000000,4.000000,100.000000,,,,,,,,,,,,,,,,
1644854378.241488,60.000000,0.000000,4251.922852,4232.820313,4232.820313,4269.230957,4237.948730,4238.717773,4237.307617,4248.333496,4235.641113,4207.563965,4201.794922,4206.282227,4189.743652,4269.102539,0.000000,4.000000,86.000000,,,,0.000000,4.000000,4.000000,4.000000,4.000000,4.000000,4.000000,4.000000,4.000000,4.000000,4.000000,4.000000,4.000000,4.000000,4.000000,100.000000,,,,,,,,,,,,,,,,
1644854378.245428,61.000000,0.000000,4224.102539,4216.538574,4226.538574,4251.538574,4229.102539,4235.000000,4235.769043,4244.615234,4230.384766,4202.820313,4193.205078,4202.948730,4176.153809,4264.487305,0.000000,4.000000,86.000000,,,,0.000000,4.000000,4.000000,4.000000,4.000000,4.000000,4.000000,4.000000,4.000000,4.000000,4.000000,4.000000,4.000000,4.000000,4.000000,100.000000,,,,,,,,,,,,,,,,
1644854378.249368,62.000000,0.000000,4197.820313,4195.769043,4219.358887,4240.512695,4221.153809,4228.077148,4231.025879,4240.128418,4227.563965,4202.820313,4188.717773,4201.153809,4165.256348,4256.025879,0.000000,4.000000,86.000000,,,,0.000000,4.000000,4.000000,4.000000,4.000000,4.000000,4.000000,4.000000,4.000000,4.000000,4.000000,4.000000,4.000000,4.000000,4.000000,100.000000,,,,,,,,,,,,,,,,
1644854378.253308,63.000000,0.000000,4186.922852,4181.922852,4219.102539,4245.512695,4217.563965,4223.205078,4227.692383,4238.974121,4229.230957,4209.358887,4195.000000,4205.128418,4165.512695,4248.717773,0.000000,4.000000,86.000000,,,,0.000000,4.000000,4.000000,4.000000,4.000000,4.000000,4.000000,4.000000,4.000000,4.000000,4.000000,4.000000,4.000000,4.000000,4.000000,100.000000,,,,,,,,,,,,,,,,
1644854378.257248,64.000000,0.000000,4195.641113,4182.051270,4228.846191,4263.205078,4219.871582,4223.974121,4228.717773,4242.179688,4234.871582,4220.128418,4212.436035,4213.205078,4177.820313,4248.077148,0.000000,4.000000,86.000000,,,,0.000000,4.000000,4.000000,4.000000,4.000000,4.000000,4.000000,4.000000,4.000000,4.000000,4.000000,4.000000,4.000000,4.000000,4.000000,100.000000,,,,,,,,,,,,,,,,
1644854378.261188,65.000000,0.000000,4217.179688,4195.769043,4243.077148,4280.384766,4226.538574,4229.487305,4232.436035,4247.436035,4241.282227,4230.641113,4232.692383,4219.358887,4195.000000,4254.871582,0.000000,4.000000,86.000000,,,,0.000000,4.000000,4.000000,4.000000,4.000000,4.000000,4.000000,4.000000,4.000000,4.000000,4.000000,4.000000,4.000000,4.000000,4.000000,100.000000,,,,,,,,,,,,,,,,
1644854378.265128,66.000000,0.000000,4239.487305,4216.410156,4252.051270,4285.000000,4233.846191,4234.871582,4234.230957,4249.871582,4244.358887,4236.538574,4243.461426,4217.436035,4207.563965,4264.871582,0.000000,4.000000,86.000000,,,,0.000000,4.000000,4.000000,4.000000,4.000000,4.000000,4.000000,4.000000,4.000000,4.000000,4.000000,4.000000,4.000000,4.000000,4.000000,100.000000,,,,,,,,,,,,,,,,
1644854378.269068,67.000000,0.000000,4254.487305,4234.102539,4249.358887,4275.897461,4237.820313,4235.897461,4232.436035,4247.051270,4241.666504,4236.282227,4239.487305,4207.051270,4211.538574,4272.948730,0.000000,4.000000,86.000000,,,,0.000000,4.000000,4.000000,4.000000,4.000000,4.000000,4.000000,4.000000,4.000000,4.000000,4.000000,4.000000,4.000000,4.000000,4.000000,100.000000,,,,,,,,,,,,,,,,
1644854378.273008,68.000000,0.000000,4260.641113,4242.307617,4237.436035,4263.077148,4236.922852,4232.179688,4229.487305,4240.641113,4234.615234,4232.563965,4227.820313,4193.717773,4210.256348,4277.307617,0.000000,4.000000,86.000000,,,,0.000000,4.000000,4.000000,4.000000,4.000000,4.000000,4.000000,4.000000,4.000000,4.000000,4.000000,4.000000,4.000000,4.000000,4.000000,100.000000,,,,,,,,,,,,,,,,
1644854378.276949,69.000000,0.000000,4262.563965,4240.384766,4225.000000,4259.615234,4232.692383,4227.436035,4228.846191,4234.743652,4227.692383,4228.589844,4222.692383,4185.769043,4210.641113,4278.589844,0.000000,4.000000,86.000000,,,,0.000000,4.000000,4.000000,4.000000,4.000000,4.000000,4.000000,4.000000,4.000000,4.000000,4.000000,4.000000,4.000000,4.000000,4.000000,100.000000,,,,,,,,,,,,,,,,
1644854378.280889,70.000000,0.000000,4265.384766,4232.948730,4220.256348,4269.230957,4229.358887,4226.025879,4230.641113,4232.948730,4225.512695,4225.897461,4231.922852,4187.692383,4216.794922,4278.461426,0.000000,4.000000,86.000000,,,,0.000000,4.000000,4.000000,4.000000,4.000000,4.000000,4.000000,4.000000,4.000000,4.000000,4.000000,4.000000,4.000000,4.000000,4.000000,100.000000,,,,,,,,,,,,,,,,
1644854378.284829,71.000000,0.000000,4269.743652,4225.512695,4224.615234,4283.205078,4229.230957,4228.846191,4232.179688,4235.256348,4228.974121,4223.333496,4248.333496,4196.666504,4227.051270,4277.436035,0.000000,4.000000,86.000000,,,,0.000000,4.000000,4.000000,4.000000,4.000000,4.000000,4.000000,4.000000,4.000000,4.000000,4.000000,4.000000,4.000000,4.000000,4.000000,100.000000,,,,,,,,,,,,,,,,
1644854378.288769,72.000000,0.000000,4271.153809,4220.769043,4233.077148,4288.077148,4231.666504,4233.205078,4231.538574,4239.102539,4234.615234,4220.384766,4255.512695,4204.487305,4235.128418,4275.897461,0.000000,4.000000,86.000000,,,,0.000000,4.000000,4.000000,4.000000,4.000000,4.000000,4.000000,4.000000,4.000000,4.000000,4.000000,4.000000,4.000000,4.000000,4.000000,100.000000,,,,,,,,,,,,,,,,
1644854378.292709,73.000000,0.000000,4265.512695,4218.461426,4238.974121,4278.461426,4234.871582,4236.025879,4230.512695,4241.538574,4237.692383,4218.589844,4243.205078,4205.641113,4235.769043,4275.000000,0.000000,4.000000,86.000000,,,,0.000000,4.000000,4.000000,4.000000,4.000000,4.000000,4.000000,4.000000,4.000000,4.000000,4.000000,4.000000,4.000000,4.000000,4.000000,100.000000,,,,,,,,,,,,,,,,
1644854378.296649,74.000000,0.000000,4254.743652,4217.307617,4240.256348,4260.641113,4237.820313,4235.769043,4231.538574,4242.179688,4236.666504,4219.230957,4217.179688,4201.153809,4228.077148,4274.358887,0.000000,4.000000,86.000000,,,,0.000000,4.000000,4.000000,4.000000,4.000000,4.000000,4.000000,4.000000,4.000000,4.000000,4.000000,4.000000,4.000000,4.000000,4.000000,100.000000,,,,,,,,,,,,,,,,
1644854378.300589,75.000000,0.000000,4246.153809,4217.051270,4238.461426,4247.179688,4240.384766,4234.230957,4234.743652,4242.051270,4234.102539,4222.436035,4194.358887,4197.179688,4214.743652,4271.410156,0.000000,4.000000,86.000000,,,,0.000000,4.000000,4.000000,4.000000,4.000000,4.000000,4.000000,4.000000,4.000000,4.000000,4.000000,4.000000,4.000000,4.000000,4.000000,100.000000,,,,,,,,,,,,,,,,
1644854378.304529,76.000000,0.000000,4246.410156,4217.563965,4237.051270,4245.769043,4242.179688,4233.717773,4237.436035,4242.948730,4233.974121,4226.282227,4189.358887,4199.230957,4200.256348,4263.333496,0.000000,4.000000,86.000000,,,,0.000000,4.000000,4.000000,4.000000,4.000000,4.000000,4.000000,4.000000,4.000000,4.000000,4.000000,4.000000,4.000000,4.000000,4.000000,100.000000,,,,,,,,,,,,,,,,
1644854378.308369,77.000000,0.000000,4254.487305,4219.615234,4237.307617,4252.948730,4242.051270,4234.871582,4237.179688,4245.000000,4236.666504,4228.461426,4203.589844,4206.794922,4189.358887,4252.563965,0.000000,4.000000,86.000000,,,,0.000000,4.000000,4.000000,4.000000,4.000000,4.000000,4.000000,4.000000,4.000000,4.000000,4.000000,4.000000,4.000000,4.000000,4.000000,100.000000,,,,,,,,,,,,,,,,
1644854378.312310,78.000000,0.000000,4263.717773,4223.333496,4238.589844,4258.846191,4239.102539,4236.282227,4235.000000,4246.666504,4239.230957,4228.077148,4225.128418,4213.974121,4185.641113,4245.769043,0.000000,4.000000,86.000000,,,,0.000000,4.000000,4.000000,4.000000,4.000000,4.000000,4.000000,4.000000,4.000000,4.000000,4.000000,4.000000,4.000000,4.000000,4.000000,100.000000,,,,,,,,,,,,,,,,
1644854378.316250,79.000000,0.000000,4268.846191,4228.461426,4237.948730,4257.563965,4233.589844,4236.153809,4232.820313,4246.282227,4238.846191,4225.769043,4239.358887,4213.974121,4190.512695,4247.948730,0.000000,4.000000,86.000000,,,,0.000000,4.000000,4.000000,4.000000,4.000000,4.000000,4.000000,4.000000,4.000000,4.000000,4.000000,4.000000,4.000000,4.000000,4.000000,100.000000,,,,,,,,,,,,,,,,
1644854378.320190,80.000000,0.000000,4268.461426,4233.077148,4234.230957,4252.948730,4227.436035,4233.461426,4231.153809,4243.205078,4234.615234,4223.589844,4240.128418,4204.871582,4202.179688,4257.820313,0.000000,4.000000,86.000000,,,,0.000000,4.000000,4.000000,4.000000,4.000000,4.000000,4.000000,4.000000,4.000000,4.000000,4.000000,4.000000,4.000000,4.000000,4.000000,100.000000,,,,,,,,,,,,,,,,
1644854378.324130,81.000000,0.000000,4263.974121,4234.358887,4228.974121,4253.461426,4223.589844,4229.230957,4229.102539,4238.333496,4229.358887,4223.589844,4232.179688,4191.666504,4215.641113,4268.205078,0.000000,4.000000,86.000000,1,1,3,0.000000,4.000000,4.000000,4.000000,4.000000,4.000000,4.000000,4.000000,4.000000,4.000000,4.000000,4.000000,4.000000,4.000000,4.000000,100.000000,,,,,,,,,,,,,,,,
1644854378.328070,82.000000,0.000000,4255.641113,4231.153809,4225.897461,4262.179688,4224.358887,4225.256348,4226.538574,4233.974121,4226.025879,4226.153809,4225.128418,4181.666504,4225.256348,4272.948730,0.000000,4.000000,86.000000,,,,0.000000,4.000000,4.000000,4.000000,4.000000,4.000000,4.000000,4.000000,4.000000,4.000000,4.000000,4.000000,4.000000,4.000000,4.000000,100.000000,,,,,,,,,,,,,,,,
1644854378.332010,83.000000,0.000000,4244.230957,4224.487305,4226.922852,4271.922852,4229.230957,4223.589844,4224.871582,4232.051270,4226.153809,4229.230957,4225.512695,4179.743652,4227.307617,4269.871582,0.000000,4.000000,86.000000,,,,0.000000,4.000000,4.000000,4.000000,4.000000,4.000000,4.000000,4.000000,4.000000,4.000000,4.000000,4.000000,4.000000,4.000000,4.000000,100.000000,,,,,,,,,,,,,,,,
1644854378.335950,84.000000,0.000000,4233.461426,4218.333496,4230.641113,4271.538574,4235.256348,4225.256348,4225.128418,4233.205078,4228.974121,4229.871582,4231.410156,4185.512695,4222.820313,4260.769043,0.000000,4.000000,86.000000,,,,0.000000,4.000000,4.000000,4.000000,4.000000,4.000000,4.000000,4.000000,4.000000,4.000000,4.000000,4.000000,4.000000,4.000000,4.000000,100.000000,,,,,,,,,,,,,,,,
1644854378.339890,85.000000,0.000000,4229.102539,4215.512695,4233.077148,4256.922852,4237.948730,4229.358887,4226.025879,4235.769043,4232.948730,4227.179688,4234.871582,4195.000000,4215.512695,4249.615234,0.000000,4.000000,86.000000,,,,0.000000,4.000000,4.000000,4.000000,4.000000,4.000000,4.000000,4.000000,4.000000,4.000000,4.000000,4.000000,4.000000,4.000000,4.000000,100.000000,,,,,,,,,,,,,,,,
1644854378.343830,86.000000,0.000000,4232.948730,4216.538574,4231.922852,4235.641113,4235.000000,4232.948730,4225.256348,4236.922852,4235.897461,4223.333496,4229.743652,4202.563965,4209.615234,4241.666504,0.000000,4.000000,86.000000,,,,0.000000,4.000000,4.000000,4.000000,4.000000,4.000000,4.000000,4.000000,4.000000,4.000000,4.000000,4.000000,4.000000,4.000000,4.000000,100.000000,,,,,,,,,,,,,,,,
1644854378.347771,87.000000,0.000000,4240.384766,4219.230957,4229.230957,4222.051270,4228.333496,4233.717773,4222.820313,4236.153809,4236.922852,4221.410156,4216.666504,4204.615234,4206.025879,4241.922852,0.000000,4.000000,86.000000,,,,0.000000,4.000000,4.000000,4.000000,4.000000,4.000000,4.000000,4.000000,4.000000,4.000000,4.000000,4.000000,4.000000,4.000000,4.000000,100.000000,,,,,,,,,,,,,,,,
1644854378.351711,88.000000,0.000000,4244.615234,4221.282227,4228.589844,4226.153809,4222.179688,4231.410156,4221.153809,4235.128418,4236.282227,4222.948730,4203.589844,4200.769043,4203.333496,4251.538574,0.000000,4.000000,86.000000,,,,0.000000,4.000000,4.000000,4.000000,4.000000,4.000000,4.000000,4.000000,4.000000,4.000000,4.000000,4.000000,4.000000,4.000000,4.000000,100.000000,,,,,,,,,,,,,,,,
1644854378.355651,89.000000,0.000000,4243.205078,4222.051270,4231.282227,4245.897461,4220.512695,4228.461426,4222.436035,4235.897461,4235.000000,4226.153809,4198.589844,4194.230957,4199.743652,4264.615234,0.000000,4.000000,86.000000,,,,0.000000,4.000000,4.000000,4.000000,4.000000,4.000000,4.000000,4.000000,4.000000,4.000000,4.000000,4.000000,4.000000,4.000000,4.000000,100.000000,,,,,,,,,,,,,,,,
1644854378.359591,90.000000,0.000000,4241.794922,4223.333496,4234.743652,4266.794922,4224.615234,4227.948730,4225.512695,4238.077148,4234.487305,4228.717773,4204.487305,4189.487305,4197.307617,4272.307617,0.000000,4.000000,86.000000,,,,0.000000,4.000000,4.000000,4.000000,4.000000,4.000000,4.000000,4.000000,4.000000,4.000000,4.000000,4.000000,4.000000,4.000000,4.000000,100.000000,,,,,,,,,,,,,,,,
1644854378.363531,91.000000,0.000000,4247.948730,4227.051270,4235.769043,4273.589844,4232.307617,4230.641113,4226.794922,4239.871582,4235.256348,4229.743652,4218.333496,4188.717773,4200.769043,4270.128418,0.000000,4.000000,86.000000,,,,0.000000,4.000000,4.000000,4.000000,4.000000,4.000000,4.000000,4.000000,4.000000,4.000000,4.000000,4.000000,4.000000,4.000000,4.000000,100.000000,,,,,,,,,,,,,,,,
1644854378.367471,92.000000,0.000000,4263.205078,4233.717773,4233.077148,4262.563965,4238.589844,4234.358887,4224.871582,4240.000000,4236.666504,4230.128418,4234.743652,4190.769043,4212.051270,4262.436035,0.000000,4.000000,86.000000,,,,0.000000,4.000000,4.000000,4.000000,4.000000,4.000000,4.000000,4.000000,4.000000,4.000000,4.000000,4.000000,4.000000,4.000000,4.000000,100.000000,,,,,,,,,,,,,,,,
1644854378.371411,93.000000,0.000000,4280.512695,4241.282227,4228.846191,4244.358887,4239.230957,4236.025879,4221.794922,4238.205078,4237.051270,4231.282227,4248.589844,4193.205078,4227.051270,4258.589844,0.000000,4.000000,86.000000,,,,0.000000,4.000000,4.000000,4.000000,4.000000,4.000000,4.000000,4.000000,4.000000,4.000000,4.000000,4.000000,4.000000,4.000000,4.000000,100.000000,,,,,,,,,,,,,,,,
1644854378.375351,94.000000,0.000000,4288.846191,4245.641113,4226.666504,4233.589844,4234.487305,4234.230957,4221.153809,4235.256348,4234.871582,4232.820313,4255.256348,4194.102539,4236.922852,4262.307617,0.000000,4.000000,86.000000,,,,0.000000,4.000000,4.000000,4.000000,4.000000,4.000000,4.000000,4.000000,4.000000,4.000000,4.000000,4.000000,4.000000,4.000000,4.000000,100.000000,,,,,,,,,,,,,,,,
1644854378.379191,95.000000,0.000000,4282.179688,4243.846191,4228.077148,4236.410156,4228.461426,4230.641113,4223.333496,4232.307617,4230.769043,4233.205078,4252.436035,4193.717773,4235.769043,4268.333496,0.000000,4.000000,86.000000,,,,0.000000,4.000000,4.000000,4.000000,4.000000,4.000000,4.000000,4.000000,4.000000,4.000000,4.000000,4.000000,4.000000,4.000000,4.000000,100.000000,,,,,,,,,,,,,,,,
1644854378.383132,96.000000,0.000000,4264.487305,4235.000000,4231.666504,4246.538574,4225.897461,4228.589844,4225.641113,4230.128418,4226.538574,4230.641113,4242.436035,4193.717773,4224.358887,4267.179688,0.000000,4.000000,86.000000,,,,0.000000,4.000000,4.000000,4.000000,4.000000,4.000000,4.000000,4.000000,4.000000,4.000000,4.000000,4.000000,4.000000,4.000000,4.000000,100.000000,,,,,,,,,,,,,,,,
1644854378.387072,97.000000,0.000000,4246.922852,4222.307617,4233.846191,4252.948730,4227.179688,4229.358887,4226.153809,4228.846191,4223.846191,4224.871582,4230.512695,4194.871582,4209.487305,4255.256348,0.000000,4.000000,86.000000,,,,0.000000,4.000000,4.000000,4.000000,4.000000,4.000000,4.000000,4.000000,4.000000,4.000000,4.000000,4.000000,4.000000,4.000000,4.000000,100.000000,,,,,,,,,,,,,,,,
1644854378.391012,98.000000,0.000000,4239.615234,4211.282227,4232.563965,4249.358887,4228.974121,4231.794922,4225.512695,4229.102539,4223.589844,4217.563965,4222.563965,4195.897461,4198.589844,4239.102539,0.000000,4.000000,86.000000,,,,0.000000,4.000000,4.000000,4.000000,4.000000,4.000000,4.000000,4.000000,4.000000,4.000000,4.000000,4.000000,4.000000,4.000000,4.000000,100.000000,,,,,,,,,,,,,,,,
1644854378.394952,99.000000,0.000000,4244.487305,4208.461426,4229.102539,4239.615234,4228.205078,4233.846191,4226.025879,4231.153809,4225.769043,4212.692383,4221.794922,4196.153809,4195.897461,4229.230957,0.000000,4.000000,86.000000,,,,0.000000,4.000000,4.000000,4.000000,4.000000,4.000000,4.000000,4.000000,4.000000,4.000000,4.000000,4.000000,4.000000,4.000000,4.000000,100.000000,,,,,,,,,,,,,,,,
1644854378.398892,100.000000,0.000000,4255.384766,4216.410156,4227.307617,4232.307617,4226.153809,4234.487305,4227.692383,4234.743652,4229.615234,4214.102539,4227.179688,4196.410156,4201.410156,4231.922852,0.000000,4.000000,86.000000,,,,0.000000,4.000000,4.000000,4.000000,4.000000,4.000000,4.000000,4.000000,4.000000,4.000000,4.000000,4.000000,4.000000,4.000000,4.000000,100.000000,,,,,,,,,,,,,,,,
1644854378.402832,101.000000,0.000000,4264.615234,4232.307617,4230.512695,4233.077148,4226.538574,4233.974121,4228.589844,4238.333496,4233.717773,4222.436035,4235.128418,4198.333496,4212.179688,4245.128418,0.000000,4.000000,86.000000,,,,0.000000,4.000000,4.000000,4.000000,4.000000,4.000000,4.000000,4.000000,4.000000,4.000000,4.000000,4.000000,4.000000,4.000000,4.000000,100.000000,,,,,,,,,,,,,,,,
1644854378.406772,102.000000,0.000000,4269.230957,4247.948730,4238.077148,4239.230957,4229.358887,4233.077148,4227.436035,4239.615234,4236.025879,4232.948730,4241.410156,4202.051270,4223.333496,4260.769043,0.000000,4.000000,86.000000,,,,0.000000,4.000000,4.000000,4.000000,4.000000,4.000000,4.000000,4.000000,4.000000,4.000000,4.000000,4.000000,4.000000,4.000000,4.000000,100.000000,,,,,,,,,,,,,,,,
1644854378.410712,103.000000,0.000000,4270.512695,4254.615234,4245.384766,4244.743652,4230.897461,4232.307617,4225.512695,4238.205078,4235.256348,4238.717773,4242.692383,4205.256348,4230.512695,4270.384766,0.000000,4.000000,86.000000,,,,0.000000,4.000000,4.000000,4.000000,4.000000,4.000000,4.000000,4.000000,4.000000,4.000000,4.000000,4.000000,4.000000,4.000000,4.000000,100.000000,,,,,,,,,,,,,,,,
1644854378.414652,104.000000,0.000000,4270.256348,4248.333496,4247.692383,4246.282227,4228.333496,4231.282227,4225.128418,4235.512695,4232.179688,4235.641113,4237.563965,4205.256348,4231.282227,4269.871582,0.000000,4.000000,86.000000,,,,0.000000,4.000000,4.000000,4.000000,4.000000,4.000000,4.000000,4.000000,4.000000,4.000000,4.000000,4.000000,4.000000,4.000000,4.000000,100.000000,,,,,,,,,,,,,,,,
1644854378.418593,105.000000,0.000000,4266.794922,4233.077148,4243.205078,4245.897461,4223.205078,4229.615234,4226.153809,4233.589844,4228.846191,4226.666504,4229.102539,4201.410156,4226.538574,4261.922852,0.000000,4.000000,86.000000,,,,0.000000,4.000000,4.000000,4.000000,4.000000,4.000000,4.000000,4.000000,4.000000,4.000000,4.000000,4.000000,4.000000,4.000000,4.000000,100.000000,,,,,,,,,,,,,,,,
1644854378.422533,106.000000,0.000000,4258.589844,4217.948730,4234.487305,4246.922852,4220.641113,4228.077148,4226.410156,4233.717773,4227.948730,4218.846191,4223.077148,4196.410156,4220.128418,4252.692383,0.000000,4.000000,86.000000,,,,0.000000,4.000000,4.000000,4.000000,4.000000,4.000000,4.000000,4.000000,4.000000,4.000000,4.000000,4.000000,4.000000,4.000000,4.000000,100.000000,,,,,,,,,,,,,,,,
1644854378.426473,107.000000,0.000000,4247.692383,4211.025879,4227.051270,4249.615234,4223.846191,4228.333496,4223.974121,4235.384766,4230.256348,4217.820313,4224.743652,4194.615234,4216.538574,4248.846191,0.000000,4.000000,86.000000,,,,0.000000,4.000000,4.000000,4.000000,4.000000,4.000000,4.000000,4.000000,4.000000,4.000000,4.000000,4.000000,4.000000,4.000000,4.000000,100.000000,,,,,,,,,,,,,,,,
1644854378.430413,108.000000,0.000000,4239.358887,4214.358887,4225.512695,4250.512695,4230.256348,4230.128418,4220.641113,4236.666504,4234.487305,4223.205078,4232.436035,4197.820313,4217.436035,4253.205078,0.000000,4.000000,86.000000,,,,0.000000,4.000000,4.000000,4.000000,4.000000,4.000000,4.000000,4.000000,4.000000,4.000000,4.000000,4.000000,4.000000,4.000000,4.000000,100.000000,,,,,,,,,,,,,,,,
1644854378.434353,109.000000,0.000000,4238.333496,4222.692383,4230.384766,4245.000000,4233.333496,4232.051270,4219.102539,4236.282227,4236.794922,4229.487305,4238.333496,4203.333496,4220.128418,4262.820313,0.000000,4.000000,86.000000,,,,0.000000,4.000000,4.000000,4.000000,4.000000,4.000000,4.000000,4.000000,4.000000,4.000000,4.000000,4.000000,4.000000,4.000000,4.000000,100.000000,,,,,,,,,,,,,,,,
1644854378.438293,110.000000,0.000000,4244.615234,4229.358887,4237.436035,4233.461426,4228.717773,4231.538574,4219.871582,4233.589844,4234.615234,4231.282227,4235.000000,4205.641113,4219.487305,4270.128418,0.000000,4.000000,86.000000,,,,0.000000,4.000000,4.000000,4.000000,4.000000,4.000000,4.000000,4.000000,4.000000,4.000000,4.000000,4.000000,4.000000,4.000000,4.000000,100.000000,,,,,,,,,,,,,,,,
1644854378.442233,111.000000,0.000000,4253.205078,4231.282227,4240.769043,4221.410156,4219.230957,4227.948730,4221.153809,4229.615234,4228.589844,4227.307617,4223.461426,4201.794922,4212.563965,4268.717773,0.000000,4.000000,86.000000,,,,0.000000,4.000000,4.000000,4.000000,4.000000,4.000000,4.000000,4.000000,4.000000,4.000000,4.000000,4.000000,4.000000,4.000000,4.000000,100.000000,,,,,,,,,,,,,,,,
1644854378.446173,112.000000,0.000000,4258.077148,4231.153809,4238.205078,4216.025879,4212.051270,4223.077148,4221.282227,4226.282227,4222.179688,4220.769043,4211.794922,4193.589844,4200.384766,4258.077148,0.000000,4.000000,86.000000,,,,0.000000,4.000000,4.000000,4.000000,4.000000,4.000000,4.000000,4.000000,4.000000,4.000000,4.000000,4.000000,4.000000,4.000000,4.000000,100.000000,,,,,,,,,,,,,,,,
1644854378.450113,113.000000,0.000000,4256.922852,4233.589844,4231.922852,4220.512695,4212.307617,4220.384766,4221.153809,4224.871582,4218.461426,4215.897461,4208.205078,4186.282227,4188.461426,4245.128418,0.000000,4.000000,86.000000,,,,0.000000,4.000000,4.000000,4.000000,4.000000,4.000000,4.000000,4.000000,4.000000,4.000000,4.000000,4.000000,4.000000,4.000000,4.000000,100.000000,,,,,,,,,,,,,,,,
1644854378.453954,114.000000,0.000000,4252.051270,4239.230957,4227.051270,4231.410156,4220.128418,4221.666504,4222.307617,4225.641113,4218.205078,4214.358887,4213.589844,4182.692383,4183.077148,4237.051270,0.000000,4.000000,86.000000,2,1,3,0.000000,4.000000,4.000000,4.000000,4.000000,4.000000,4.000000,4.000000,4.000000,4.000000,4.000000,4.000000,4.000000,4.000000,4.000000,100.000000,,,,,,,,,,,,,,,,
1644854378.457894,115.000000,0.000000,4248.077148,4243.461426,4226.538574,4242.436035,4230.769043,4226.410156,4224.743652,4227.307617,4219.743652,4214.487305,4223.205078,4181.922852,4188.461426,4236.666504,0.000000,4.000000,86.000000,,,,0.000000,4.000000,4.000000,4.000000,4.000000,4.000000,4.000000,4.000000,4.000000,4.000000,4.000000,4.000000,4.000000,4.000000,4.000000,100.000000,,,,,,,,,,,,,,,,
1644854378.461834,116.000000,0.000000,4247.051270,4241.282227,4229.615234,4249.358887,4239.487305,4232.051270,4226.025879,4228.461426,4221.538574,4215.384766,4231.153809,4180.256348,4203.333496,4240.897461,0.000000,4.000000,86.000000,,,,0.000000,4.000000,4.000000,4.000000,4.000000,4.000000,4.000000,4.000000,4.000000,4.000000,4.000000,4.000000,4.000000,4.000000,4.000000,100.000000,,,,,,,,,,,,,,,,
1644854378.465774,117.000000,0.000000,4247.692383,4233.205078,4233.333496,4252.307617,4244.615234,4236.410156,4224.871582,4228.846191,4223.077148,4218.205078,4234.358887,4176.538574,4221.794922,4246.282227,0.000000,4.000000,86.000000,,,,0.000000,4.000000,4.000000,4.000000,4.000000,4.000000,4.000000,4.000000,4.000000,4.000000,4.000000,4.000000,4.000000,4.000000,4.000000,100.000000,,,,,,,,,,,,,,,,
1644854378.469714,118.000000,0.000000,4247.563965,4226.153809,4235.384766,4253.333496,4246.410156,4237.563965,4222.692383,4228.846191,4224.615234,4223.974121,4232.307617,4172.948730,4235.897461,4250.769043,0.000000,4.000000,86.000000,,,,0.000000,4.000000,4.000000,4.000000,4.000000,4.000000,4.000000,4.000000,4.000000,4.000000,4.000000,4.000000,4.000000,4.000000,4.000000,100.000000,,,,,,,,,,,,,,,,
1644854378.473654,119.000000,0.000000,4246.282227,4226.666504,4235.769043,4253.077148,4245.641113,4235.641113,4222.307617,4229.230957,4226.410156,4230.000000,4226.410156,4172.948730,4240.000000,4253.846191,0.000000,4.000000,86.000000,,,,0.000000,4.000000,4.000000,4.000000,4.000000,4.000000,4.000000,4.000000,4.000000,4.000000,4.000000,4.000000,4.000000,4.000000,4.000000,100.000000,,,,,,,,,,,,,,,,
1644854378.477594,120.000000,0.000000,4246.538574,4233.974121,4235.128418,4250.000000,4241.282227,4231.922852,4224.615234,4230.128418,4227.436035,4231.410156,4218.846191,4177.563965,4233.974121,4253.333496,0.000000,4.000000,86.000000,,,,0.000000,4.000000,4.000000,4.000000,4.000000,4.000000,4.000000,4.000000,4.000000,4.000000,4.000000,4.000000,4.000000,4.000000,4.000000,100.000000,,,,,,,,,,,,,,,,
1644854378.481534,121.000000,0.000000,4250.769043,4240.641113,4233.461426,4242.820313,4232.307617,4228.205078,4226.922852,4231.025879,4226.666504,4226.153809,4212.179688,4183.974121,4222.436035,4246.794922,0.000000,4.000000,86.000000,,,,0.000000,4.000000,4.000000,4.000000,4.000000,4.000000,4.000000,4.000000,4.000000,4.000000,4.000000,4.000000,4.000000,4.000000,4.000000,100.000000,,,,,,,,,,,,,,,,
1644854378.485474,122.000000,0.000000,4256.410156,4239.871582,4231.025879,4232.436035,4221.025879,4225.897461,4226.282227,4230.897461,4224.230957,4217.436035,4208.589844,4187.948730,4211.538574,4235.256348,0.000000,4.000000,86.000000,,,,0.000000,4.000000,4.000000,4.000000,4.000000,4.000000,4.000000,4.000000,4.000000,4.000000,4.000000,4.000000,4.000000,4.000000,4.000000,100.000000,,,,,,,,,,,,,,,,
1644854378.489415,123.000000,0.000000,4256.922852,4231.666504,4228.974121,4224.230957,4213.717773,4225.769043,4223.333496,4230.128418,4221.794922,4210.641113,4208.974121,4187.563965,4205.128418,4224.743652,0.000000,4.000000,86.000000,,,,0.000000,4.000000,4.000000,4.000000,4.000000,4.000000,4.000000,4.000000,4.000000,4.000000,4.000000,4.000000,4.000000,4.000000,4.000000,100.000000,,,,,,,,,,,,,,,,
1644854378.493355,124.000000,0.000000,4247.436035,4222.179688,4229.102539,4223.461426,4216.153809,4227.051270,4221.153809,4230.384766,4221.410156,4209.615234,4211.666504,4184.487305,4203.846191,4222.436035,0.000000,4.000000,86.000000,,,,0.000000,4.000000,4.000000,4.000000,4.000000,4.000000,4.000000,4.000000,4.000000,4.000000,4.000000,4.000000,4.000000,4.000000,4.000000,100.000000,,,,,,,,,,,,,,,,
1644854378.497295,125.000000,0.000000,4230.641113,4217.948730,4231.794922,4230.512695,4226.794922,4229.102539,4221.922852,4232.179688,4223.077148,4214.230957,4214.743652,4181.538574,4206.153809,4228.461426,0.000000,4.000000,86.000000,,,,0.000000,4.000000,4.000000,4.000000,4.000000,4.000000,4.000000,4.000000,4.000000,4.000000,4.000000,4.000000,4.000000,4.000000,4.000000,100.000000,,,,,,,,,,,,,,,,
1644854378.501235,126.000000,0.000000,4216.666504,4220.128418,4235.641113,4238.589844,4237.051270,4231.666504,4224.743652,4234.871582,4226.282227,4221.410156,4217.436035,4181.153809,4210.897461,4235.384766,0.000000,4.000000,86.000000,,,,0.000000,4.000000,4.000000,4.000000,4.000000,4.000000,4.000000,4.000000,4.000000,4.000000,4.000000,4.000000,4.000000,4.000000,4.000000,100.000000,,,,,,,,,,,,,,,,
1644854378.505175,127.000000,0.000000,4215.128418,4225.256348,4237.692383,4238.846191,4238.077148,4234.615234,4226.538574,4236.922852,4229.615234,4227.307617,4219.743652,4183.846191,4216.282227,4234.358887,0.000000,4.000000,86.000000,,,,0.000000,4.000000,4.000000,4.000000,4.000000,4.000000,4.000000,4.000000,4.000000,4.000000,4.000000,4.000000,4.000000,4.000000,4.000000,100.000000,,,,,,,,,,,,,,,,
1644854378.509115,128.000000,0.000000,4228.717773,4228.333496,4236.794922,4228.461426,4228.846191,4236.538574,4226.666504,4237.692383,4232.179688,4229.102539,4222.692383,4188.974121,4220.512695,4224.487305,3378.000000,4.000000,86.000000,,,,0.000000,4.000000,4.000000,4.000000,4.000000,4.000000,4.000000,4.000000,4.000000,4.000000,4.000000,4.000000,4.000000,4.000000,4.000000,100.000000,,,,,,,,,,,,,,,,
1644854378.513055,129.000000,0.000000,4249.743652,4228.333496,4234.615234,4214.743652,4216.666504,4235.897461,4226.666504,4238.077148,4233.589844,4227.179688,4226.666504,4195.128418,4222.307617,4213.589844,3267.000000,4.000000,86.000000,,,,0.000000,4.000000,4.000000,4.000000,4.000000,4.000000,4.000000,4.000000,4.000000,4.000000,4.000000,4.000000,4.000000,4.000000,4.000000,100.000000,,,,,,,,,,,,,,,,
1644854378.516995,130.000000,0.000000,4266.666504,4228.461426,4234.487305,4209.230957,4211.666504,4233.333496,4228.077148,4239.615234,4235.000000,4225.256348,4231.922852,4201.666504,4222.436035,4210.769043,3688.000000,4.000000,86.000000,,,,0.000000,4.000000,4.000000,4.000000,4.000000,4.000000,4.000000,4.000000,4.000000,4.000000,4.000000,4.000000,4.000000,4.000000,4.000000,100.000000,,,,,,,,,,,,,,,,
1644854378.520935,131.000000,0.000000,4271.666504,4232.820313,4238.846191,4218.589844,4217.436035,4231.153809,4230.256348,4242.820313,4237.692383,4227.563965,4238.077148,4207.307617,4223.333496,4218.589844,3536.000000,4.000000,86.000000,,,,0.000000,4.000000,4.000000,4.000000,4.000000,4.000000,4.000000,4.000000,4.000000,4.000000,4.000000,4.000000,4.000000,4.000000,4.000000,100.000000,,,,,,,,,,,,,,,,
1644854378.524776,132.000000,0.000000,4266.666504,4242.051270,4246.538574,4238.974121,4229.230957,4231.666504,4231.282227,4246.410156,4241.922852,4235.256348,4243.589844,4210.641113,4226.025879,4232.692383,3648.000000,4.000000,86.000000,,,,0.000000,4.000000,4.000000,4.000000,4.000000,4.000000,4.000000,4.000000,4.000000,4.000000,4.000000,4.000000,4.000000,4.000000,4.000000,100.000000,,,,,,,,,,,,,,,,
1644854378.528716,133.000000,0.000000,4259.871582,4251.794922,4252.948730,4258.846191,4238.846191,4235.512695,4231.153809,4248.589844,4245.128418,4244.358887,4246.025879,4210.512695,4229.487305,4246.282227,3337.000000,4.000000,86.000000,,,,0.000000,4.000000,4.000000,4.000000,4.000000,4.000000,4.000000,4.000000,4.000000,4.000000,4.000000,4.000000,4.000000,4.000000,4.000000,100.000000,,,,,,,,,,,,,,,,
1644854378.532656,134.000000,0.000000,4259.358887,4256.410156,4253.461426,4267.948730,4241.666504,4240.769043,4231.025879,4247.948730,4245.000000,4248.974121,4244.102539,4207.948730,4231.538574,4254.358887,2772.000000,4.000000,86.000000,,,,0.000000,4.000000,4.000000,4.000000,4.000000,4.000000,4.000000,4.000000,4.000000,4.000000,4.000000,4.000000,4.000000,4.000000,4.000000,100.000000,,,,,,,,,,,,,,,,
1644854378.536596,135.000000,0.000000,4266.794922,4253.589844,4247.436035,4263.846191,4239.871582,4243.846191,4231.153809,4244.230957,4241.666504,4246.666504,4240.000000,4204.487305,4231.794922,4255.384766,3022.000000,4.000000,86.000000,,,,0.000000,4.000000,4.000000,4.000000,4.000000,4.000000,4.000000,4.000000,4.000000,4.000000,4.000000,4.000000,4.000000,4.000000,4.000000,100.000000,,,,,,,,,,,,,,,,
1644854378.540536,136.000000,0.000000,4278.077148,4245.641113,4238.717773,4252.692383,4237.820313,4242.563965,4230.384766,4238.717773,4237.179688,4240.256348,4238.333496,4201.922852,4232.051270,4251.410156,3294.000000,4.000000,86.000000,,,,0.000000,4.000000,4.000000,4.000000,4.000000,4.000000,4.000000,4.000000,4.000000,4.000000,4.000000,4.000000,4.000000,4.000000,4.000000,100.000000,,,,,,,,,,,,,,,,
1644854378.544476,137.000000,0.000000,4285.641113,4237.307617,4232.436035,4243.077148,4236.922852,4237.563965,4227.563965,4234.102539,4234.871582,4235.128418,4241.025879,4200.256348,4234.358887,4246.666504,3510.000000,4.000000,86.000000,,,,0.000000,4.000000,4.000000,4.000000,4.000000,4.000000,4.000000,4.000000,4.000000,4.000000,4.000000,4.000000,4.000000,4.000000,4.000000,100.000000,,,,,,,,,,,,,,,,
1644854378.548416,138.000000,0.000000,4283.077148,4231.666504,4230.769043,4239.102539,4234.615234,4231.922852,4224.358887,4232.436035,4235.256348,4232.948730,4245.000000,4198.846191,4238.205078,4243.974121,3533.000000,4.000000,86.000000,,,,0.000000,4.000000,4.000000,4.000000,4.000000,4.000000,4.000000,4.000000,4.000000,4.000000,4.000000,4.000000,4.000000,4.000000,4.000000,100.000000,,,,,,,,,,,,,,,,
1644854378.552356,139.000000,0.000000,4268.461426,4227.820313,4231.666504,4238.717773,4227.820313,4228.589844,4223.461426,4233.974121,4236.410156,4231.025879,4243.077148,4197.820313,4240.512695,4242.563965,2395.000000,4.000000,86.000000,,,,0.000000,4.000000,4.000000,4.000000,4.000000,4.000000,4.000000,4.000000,4.000000,4.000000,4.000000,4.000000,4.000000,4.000000,4.000000,100.000000,,,,,,,,,,,,,,,,
1644854378.556296,140.000000,0.000000,4246.922852,4224.487305,4231.410156,4237.051270,4217.692383,4227.692383,4225.256348,4236.538574,4236.282227,4226.153809,4230.384766,4197.692383,4238.333496,4239.102539,3554.000000,4.000000,86.000000,,,,0.000000,4.000000,4.000000,4.000000,4.000000,4.000000,4.000000,4.000000,4.000000,4.000000,4.000000,4.000000,4.000000,4.000000,4.000000,100.000000,,,,,,,,,,,,,,,,
1644854378.560237,141.000000,0.000000,4229.102539,4223.333496,4228.205078,4230.897461,4208.717773,4228.205078,4226.666504,4237.307617,4234.487305,4219.487305,4210.512695,4198.717773,4231.794922,4231.025879,3451.000000,4.000000,86.000000,,,,0.000000,4.000000,4.000000,4.000000,4.000000,4.000000,4.000000,4.000000,4.000000,4.000000,4.000000,4.000000,4.000000,4.000000,4.000000,100.000000,,,,,,,,,,,,,,,,
1644854378.564177,142.000000,0.000000,4225.384766,4226.666504,4223.846191,4222.563965,4206.153809,4227.948730,4224.743652,4235.000000,4232.820313,4215.897461,4193.846191,4200.000000,4223.589844,4220.512695,3533.000000,4.000000,86.000000,,,,0.000000,4.000000,4.000000,4.000000,4.000000,4.000000,4.000000,4.000000,4.000000,4.000000,4.000000,4.000000,4.000000,4.000000,4.000000,100.000000,,,,,,,,,,,,,,,,
1644854378.568117,143.000000,0.000000,4237.820313,4233.974121,4222.307617,4217.692383,4211.538574,4226.666504,4220.256348,4231.025879,4232.948730,4219.230957,4191.025879,4199.615234,4217.179688,4213.205078,2395.000000,4.000000,86.000000,,,,0.000000,4.000000,4.000000,4.000000,4.000000,4.000000,4.000000,4.000000,4.000000,4.000000,4.000000,4.000000,4.000000,4.000000,4.000000,100.000000,,,,,,,,,,,,,,,,
1644854378.572057,144.000000,0.000000,4257.820313,4240.128418,4225.769043,4220.512695,4221.153809,4224.487305,4217.820313,4229.102539,4235.000000,4229.102539,4204.230957,4196.410156,4214.487305,4213.077148,3554.000000,4.000000,86.000000,,,,0.000000,4.000000,4.000000,4.000000,4.000000,4.000000,4.000000,4.000000,4.000000,4.000000,4.000000,4.000000,4.000000,4.000000,4.000000,100.000000,,,,,,,,,,,,,,,,
1644854378.575997,145.000000,0.000000,4271.025879,4240.256348,4232.820313,4230.000000,4228.717773,4222.692383,4220.384766,4231.282227,4237.179688,4240.512695,4226.025879,4191.025879,4215.769043,4218.846191,3451.000000,4.000000,86.000000,,,,0.000000,4.000000,4.000000,4.000000,4.000000,4.000000,4.000000,4.000000,4.000000,4.000000,4.000000,4.000000,4.000000,4.000000,4.000000,100.000000,,,,,,,,,,,,,,,,
1644854378.579937,146.000000,0.000000,4268.589844,4233.846191,4238.205078,4240.128418,4229.743652,4221.794922,4225.512695,4236.282227,4237.563965,4247.692383,4245.641113,4186.025879,4219.487305,4225.641113,3533.000000,4.000000,86.000000,,,,0.000000,4.000000,4.000000,4.000000,4.000000,4.000000,4.000000,4.000000,4.000000,4.000000,4.000000,4.000000,4.000000,4.000000,4.000000,100.000000,,,,,,,,,,,,,,,,
1644854378.583877,147.000000,0.000000,4253.589844,4224.358887,4237.820313,4245.256348,4224.743652,4222.179688,4228.461426,4241.025879,4235.897461,4247.436035,4255.641113,4184.102539,4222.820313,4230.128418,2395.000000,4.000000,86.000000,,,,0.000000,4.000000,4.000000,4.000000,4.000000,4.000000,4.000000,4.000000,4.000000,4.000000,4.000000,4.000000,4.000000,4.000000,4.000000,100.000000,,,,,,,,,,,,,,,,
1644854378.587817,148.000000,0.000000,4237.307617,4216.922852,4231.794922,4244.487305,4218.461426,4223.333496,4227.563965,4243.333496,4234.358887,4240.512695,4255.512695,4186.666504,4222.948730,4232.820313,3554.000000,4.000000,86.000000,,,,0.000000,4.000000,4.000000,4.000000,4.000000,4.000000,4.000000,4.000000,4.000000,4.000000,4.000000,4.000000,4.000000,4.000000,4.000000,100.000000,,,,,,,,,,,,,,,,
1644854378.591757,149.000000,0.000000,4229.102539,4213.205078,4224.230957,4241.666504,4215.256348,4225.000000,4225.512695,4243.589844,4234.743652,4231.538574,4249.230957,4192.179688,4218.974121,4235.128418,3451.000000,4.000000,86.000000,,,,0.000000,4.000000,4.000000,4.000000,4.000000,4.000000,4.000000,4.000000,4.000000,4.000000,4.000000,4.000000,4.000000,4.000000,4.000000,100.000000,,,,,,,,,,,,,,,,
1644854378.595797,150.000000,0.000000,4228.205078,4211.922852,4219.871582,4240.512695,4215.769043,4227.051270,4225.512695,4243.333496,4236.538574,4225.384766,4240.769043,4198.077148,4213.333496,4236.538574,3533.000000,4.000000,86.000000,,,,0.000000,4.000000,4.000000,4.000000,4.000000,4.000000,4.000000,4.000000,4.000000,4.000000,4.000000,4.000000,4.000000,4.000000,4.000000,100.000000,,,,,,,,,,,,,,,,
1644854378.599737,151.000000,0.000000,4227.051270,4211.538574,4221.282227,4241.025879,4217.563965,4229.615234,4227.563965,4242.692383,4238.205078,4223.589844,4231.538574,4201.282227,4210.256348,4234.615234,2395.000000,4.000000,86.000000,,,,0.000000,4.000000,4.000000,4.000000,4.000000,4.000000,4.000000,4.000000,4.000000,4.000000,4.000000,4.000000,4.000000,4.000000,4.000000,100.000000,,,,,,,,,,,,,,,,
1644854378.603678,152.000000,0.000000,4221.538574,4212.563965,4226.922852,4240.000000,4219.358887,4232.307617,4229.102539,4241.153809,4237.820313,4224.871582,4221.153809,4201.410156,4212.563965,4228.974121,3554.000000,4.000000,86.000000,,,,0.000000,4.000000,4.000000,4.000000,4.000000,4.000000,4.000000,4.000000,4.000000,4.000000,4.000000,4.000000,4.000000,4.000000,4.000000,100.000000,,,,,,,,,,,,,,,,
1644854378.607618,153.000000,0.000000,4215.897461,4216.538574,4232.820313,4235.256348,4221.410156,4234.487305,4228.589844,4238.461426,4235.128418,4226.153809,4210.128418,4200.000000,4219.358887,4222.820313,3451.000000,4.000000,86.000000,,,,0.000000,4.000000,4.000000,4.000000,4.000000,4.000000,4.000000,4.000000,4.000000,4.000000,4.000000,4.000000,4.000000,4.000000,4.000000,100.000000,,,,,,,,,,,,,,,,
1644854378.611558,154.000000,0.000000,4218.461426,4223.461426,4235.769043,4226.922852,4222.948730,4234.871582,4227.179688,4235.641113,4231.666504,4225.769043,4202.563965,4199.230957,4226.025879,4221.282227,3533.000000,4.000000,86.000000,,,,0.000000,4.000000,4.000000,4.000000,4.000000,4.000000,4.000000,4.000000,4.000000,4.000000,4.000000,4.000000,4.000000,4.000000,4.000000,100.000000,,,,,,,,,,,,,,,,
1644854378.615498,155.000000,0.000000,4232.692383,4230.000000,4234.102539,4218.717773,4221.410156,4232.436035,4226.538574,4233.846191,4228.589844,4223.717773,4203.846191,4200.128418,4227.436035,4225.769043,2395.000000,4.000000,86.000000,,,,0.000000,4.000000,4.000000,4.000000,4.000000,4.000000,4.000000,4.000000,4.000000,4.000000,4.000000,4.000000,4.000000,4.000000,4.000000,100.000000,,,,,,,,,,,,,,,,
1644854378.619438,156.000000,0.000000,4252.436035,4232.051270,4228.974121,4215.512695,4214.230957,4226.666504,4226.025879,4232.948730,4226.794922,4221.282227,4215.769043,4201.922852,4222.436035,4232.307617,3554.000000,4.000000,86.000000,,,,0.000000,4.000000,4.000000,4.000000,4.000000,4.000000,4.000000,4.000000,4.000000,4.000000,4.000000,4.000000,4.000000,4.000000,4.000000,100.000000,,,,,,,,,,,,,,,,
1644854378.623278,157.000000,0.000000,4266.025879,4227.307617,4221.666504,4220.897461,4202.948730,4218.974121,4223.589844,4232.307617,4225.769043,4219.230957,4232.436035,4202.307617,4215.000000,4234.871582,3451.000000,4.000000,86.000000,,,,0.000000,4.000000,4.000000,4.000000,4.000000,4.000000,4.000000,4.000000,4.000000,4.000000,4.000000,4.000000,4.000000,4.000000,4.000000,100.000000,,,,,,,,,,,,,,,,
1644854378.627218,158.000000,0.000000,4264.230957,4216.666504,4214.230957,4232.948730,4192.692383,4212.179688,4218.974121,4231.153809,4224.615234,4216.282227,4242.179688,4198.974121,4210.256348,4230.897461,3533.000000,4.000000,86.000000,,,,0.000000,4.000000,4.000000,4.000000,4.000000,4.000000,4.000000,4.000000,4.000000,4.000000,4.000000,4.000000,4.000000,4.000000,4.000000,100.000000,,,,,,,,,,,,,,,,
1644854378.631158,159.000000,0.000000,4247.436035,4203.974121,4208.461426,4244.743652,4189.487305,4208.205078,4214.743652,4229.615234,4221.922852,4211.666504,4237.051270,4191.025879,4210.384766,4224.487305,2395.000000,4.000000,86.000000,,,,0.000000,4.000000,4.000000,4.000000,4.000000,4.000000,4.000000,4.000000,4.000000,4.000000,4.000000,4.000000,4.000000,4.000000,4.000000,100.000000,,,,,,,,,,,,,,,,
1644854378.635099,160.000000,0.000000,4225.384766,4193.589844,4206.538574,4249.230957,4195.897461,4208.077148,4214.487305,4228.333496,4218.461426,4206.410156,4219.230957,4181.410156,4212.563965,4222.051270,3554.000000,4.000000,86.000000,,,,0.000000,4.000000,4.000000,4.000000,4.000000,4.000000,4.000000,4.000000,4.000000,4.000000,4.000000,4.000000,4.000000,4.000000,4.000000,100.000000,,,,,,,,,,,,,,,,
1644854378.639039,161.000000,0.000000,4210.641113,4188.974121,4209.358887,4244.230957,4209.358887,4211.025879,4218.077148,4228.461426,4215.897461,4203.333496,4200.000000,4175.769043,4212.563965,4225.769043,3451.000000,4.000000,86.000000,,,,0.000000,4.000000,4.000000,4.000000,4.000000,4.000000,4.000000,4.000000,4.000000,4.000000,4.000000,4.000000,4.000000,4.000000,4.000000,100.000000,,,,,,,,,,,,,,,,
1644854378.642979,162.000000,0.000000,4209.358887,4191.025879,4215.000000,4233.333496,4223.205078,4215.384766,4222.179688,4230.000000,4216.282227,4203.846191,4190.512695,4178.461426,4208.333496,4231.153809,3533.000000,4.000000,86.000000,,,,0.000000,4.000000,4.000000,4.000000,4.000000,4.000000,4.000000,4.000000,4.000000,4.000000,4.000000,4.000000,4.000000,4.000000,4.000000,100.000000,,,,,,,,,,,,,,,,
1644854378.646819,163.000000,0.000000,4218.077148,4198.205078,4220.256348,4222.692383,4229.615234,4218.846191,4223.846191,4232.563965,4219.743652,4207.179688,4193.974121,4187.948730,4202.307617,4233.589844,2395.000000,4.000000,86.000000,,,,0.000000,4.000000,4.000000,4.000000,4.000000,4.000000,4.000000,4.000000,4.000000,4.000000,4.000000,4.000000,4.000000,4.000000,4.000000,100.000000,,,,,,,,,,,,,,,,
1644854378.650759,164.000000,0.000000,4227.948730,4208.333496,4223.974121,4216.922852,4225.384766,4220.000000,4223.333496,4235.128418,4224.102539,4211.410156,4205.000000,4197.692383,4199.230957,4232.948730,3554.000000,4.000000,86.000000,,,,0.000000,4.000000,4.000000,4.000000,4.000000,4.000000,4.000000,4.000000,4.000000,4.000000,4.000000,4.000000,4.000000,4.000000,4.000000,100.000000,,,,,,,,,,,,,,,,
1644854378.654699,165.000000,0.000000,4232.436035,4219.487305,4227.051270,4216.922852,4214.615234,4219.743652,4223.461426,4236.538574,4227.051270,4215.128418,4215.128418,4201.922852,4201.794922,4231.538574,3451.000000,4.000000,86.000000,,,,0.000000,4.000000,4.000000,4.000000,4.000000,4.000000,4.000000,4.000000,4.000000,4.000000,4.000000,4.000000,4.000000,4.000000,4.000000,100.000000,,,,,,,,,,,,,,,,
1644854378.658639,166.000000,0.000000,4231.538574,4228.717773,4231.153809,4221.666504,4206.153809,4220.512695,4225.512695,4236.153809,4228.205078,4218.077148,4218.717773,4201.025879,4208.589844,4230.512695,3533.000000,4.000000,86.000000,,,,0.000000,4.000000,4.000000,4.000000,4.000000,4.000000,4.000000,4.000000,4.000000,4.000000,4.000000,4.000000,4.000000,4.000000,4.000000,100.000000,,,,,,,,,,,,,,,,
1644854378.662579,167.000000,0.000000,4230.000000,4232.563965,4236.538574,4230.000000,4206.922852,4223.717773,4228.461426,4234.102539,4228.205078,4220.128418,4216.282227,4200.384766,4215.897461,4228.077148,2395.000000,4.000000,86.000000,,,,0.000000,4.000000,4.000000,4.000000,4.000000,4.000000,4.000000,4.000000,4.000000,4.000000,4.000000,4.000000,4.000000,4.000000,4.000000,100.000000,,,,,,,,,,,,,,,,
1644854378.666519,168.000000,0.000000,4232.307617,4228.974121,4241.666504,4240.256348,4216.282227,4228.461426,4230.000000,4231.794922,4227.820313,4220.641113,4211.794922,4204.743652,4219.743652,4223.717773,3554.000000,4.000000,86.000000,,,,0.000000,4.000000,4.000000,4.000000,4.000000,4.000000,4.000000,4.000000,4.000000,4.000000,4.000000,4.000000,4.000000,4.000000,4.000000,100.000000,,,,,,,,,,,,,,,,
1644854378.670460,169.000000,0.000000,4239.102539,4220.384766,4243.846191,4249.871582,4227.179688,4231.282227,4229.871582,4230.769043,4227.179688,4219.230957,4209.743652,4213.077148,4218.589844,4220.641113,3451.000000,4.000000,86.000000,,,,0.000000,4.000000,4.000000,4.000000,4.000000,4.000000,4.000000,4.000000,4.000000,4.000000,4.000000,4.000000,4.000000,4.000000,4.000000,100.000000,,,,,,,,,,,,,,,,
1644854378.674400,170.000000,0.000000,4248.077148,4213.077148,4241.922852,4255.384766,4232.948730,4230.512695,4229.487305,4231.538574,4226.538574,4216.666504,4213.461426,4219.358887,4214.615234,4223.461426,3533.000000,4.000000,86.000000,,,,0.000000,4.000000,4.000000,4.000000,4.000000,4.000000,4.000000,4.000000,4.000000,4.000000,4.000000,4.000000,4.000000,4.000000,4.000000,100.000000,,,,,,,,,,,,,,,,
1644854378.678340,171.000000,0.000000,4256.538574,4214.487305,4236.922852,4254.615234,4232.307617,4226.794922,4229.743652,4234.230957,4227.436035,4215.512695,4223.974121,4217.820313,4212.563965,4232.948730,2395.000000,4.000000,86.000000,,,,0.000000,4.000000,4.000000,4.000000,4.000000,4.000000,4.000000,4.000000,4.000000,4.000000,4.000000,4.000000,4.000000,4.000000,4.000000,100.000000,,,,,,,,,,,,,,,,
1644854378.682280,172.000000,0.000000,4262.692383,4226.153809,4231.410156,4249.358887,4227.948730,4223.333496,4229.743652,4237.307617,4230.512695,4217.051270,4238.461426,4208.077148,4215.897461,4245.641113,3554.000000,4.000000,86.000000,,,,0.000000,4.000000,4.000000,4.000000,4.000000,4.000000,4.000000,4.000000,4.000000,4.000000,4.000000,4.000000,4.000000,4.000000,4.000000,100.000000,,,,,,,,,,,,,,,,
1644854378.686220,173.000000,0.000000,4264.743652,4241.282227,4227.692383,4244.102539,4222.307617,4221.794922,4228.974121,4238.717773,4234.615234,4220.641113,4249.615234,4194.871582,4223.717773,4256.410156,3451.000000,4.000000,86.000000,,,,0.000000,4.000000,4.000000,4.000000,4.000000,4.000000,4.000000,4.000000,4.000000,4.000000,4.000000,4.000000,4.000000,4.000000,4.000000,100.000000,,,,,,,,,,,,,,,,
1644854378.690160,174.000000,0.000000,4261.153809,4248.461426,4227.051270,4242.948730,4214.871582,4221.282227,4228.205078,4237.692383,4236.410156,4224.102539,4249.871582,4184.743652,4230.769043,4260.769043,3533.000000,4.000000,86.000000,,,,0.000000,4.000000,4.000000,4.000000,4.000000,4.000000,4.000000,4.000000,4.000000,4.000000,4.000000,4.000000,4.000000,4.000000,4.000000,100.000000,,,,,,,,,,,,,,,,
1644854378.694100,175.000000,0.000000,4253.333496,4241.282227,4229.743652,4246.025879,4205.769043,4219.871582,4228.461426,4235.256348,4234.487305,4225.641113,4238.589844,4182.820313,4232.563965,4256.410156,2395.000000,4.000000,86.000000,,,,0.000000,4.000000,4.000000,4.000000,4.000000,4.000000,4.000000,4.000000,4.000000,4.000000,4.000000,4.000000,4.000000,4.000000,4.000000,100.000000,,,,,,,,,,,,,,,,
1644854378.698040,176.000000,0.000000,4245.384766,4223.589844,4234.358887,4249.487305,4196.922852,4217.948730,4229.743652,4233.589844,4230.384766,4224.743652,4223.205078,4189.487305,4228.077148,4243.717773,3554.000000,4.000000,86.000000,,,,0.000000,4.000000,4.000000,4.000000,4.000000,4.000000,4.000000,4.000000,4.000000,4.000000,4.000000,4.000000,4.000000,4.000000,4.000000,100.000000,,,,,,,,,,,,,,,,
1644854378.701980,177.000000,0.000000,4241.538574,4206.153809,4237.692383,4248.077148,4192.307617,4217.179688,4230.256348,4233.461426,4227.307617,4222.051270,4213.461426,4200.384766,4221.153809,4227.948730,3451.000000,4.000000,86.000000,,,,0.000000,4.000000,4.000000,4.000000,4.000000,4.000000,4.000000,4.000000,4.000000,4.000000,4.000000,4.000000,4.000000,4.000000,4.000000,100.000000,,,,,,,,,,,,,,,,
1644854378.705921,178.000000,0.000000,4241.410156,4198.333496,4236.410156,4239.615234,4194.615234,4219.230957,4229.102539,4234.487305,4226.922852,4218.717773,4213.589844,4208.589844,4217.307617,4216.922852,3533.000000,4.000000,86.000000,,,,0.000000,4.000000,4.000000,4.000000,4.000000,4.000000,4.000000,4.000000,4.000000,4.000000,4.000000,4.000000,4.000000,4.000000,4.000000,100.000000,,,,,,,,,,,,,,,,
1644854378.709861,179.000000,0.000000,4241.794922,4201.666504,4229.615234,4227.307617,4202.436035,4223.717773,4227.307617,4235.641113,4228.333496,4216.538574,4220.384766,4208.717773,4220.128418,4217.051270,2395.000000,4.000000,86.000000,,,,0.000000,4.000000,4.000000,4.000000,4.000000,4.000000,4.000000,4.000000,4.000000,4.000000,4.000000,4.000000,4.000000,4.000000,4.000000,100.000000,,,,,,,,,,,,,,,,
1644854378.713801,180.000000,0.000000,4239.358887,4210.512695,4219.358887,4218.461426,4211.025879,4227.820313,4226.794922,4236.153809,4229.487305,4217.563965,4227.436035,4200.128418,4227.948730,4226.410156,3554.000000,4.000000,86.000000,,,,0.000000,4.000000,4.000000,4.000000,4.000000,4.000000,4.000000,4.000000,4.000000,4.000000,4.000000,4.000000,4.000000,4.000000,4.000000,100.000000,,,,,,,,,,,,,,,,
1644854378.717741,181.000000,0.000000,4233.846191,4217.563965,4209.230957,4218.205078,4214.871582,4228.205078,4227.051270,4236.282227,4229.230957,4221.282227,4231.282227,4187.563965,4235.512695,4235.897461,3451.000000,4.000000,86.000000,,,,0.000000,4.000000,4.000000,4.000000,4.000000,4.000000,4.000000,4.000000,4.000000,4.000000,4.000000,4.000000,4.000000,4.000000,4.000000,100.000000,,,,,,,,,,,,,,,,
1644854378.721581,182.000000,0.000000,4228.333496,4219.743652,4202.692383,4225.000000,4212.563965,4223.974121,4226.282227,4236.410156,4228.461426,4224.743652,4233.205078,4178.461426,4237.692383,4236.025879,3533.000000,4.000000,86.000000,,,,0.000000,4.000000,4.000000,4.000000,4.000000,4.000000,4.000000,4.000000,4.000000,4.000000,4.000000,4.000000,4.000000,4.000000,4.000000,100.000000,1.000000,58.333332,4.000000,4.000000,4.000000,4.000000,3.000000,4.000000,4.000000,4.000000,4.000000,4.000000,3.000000,4.000000,4.000000,1.000000
1644854378.725521,183.000000,0.000000,4225.897461,4219.102539,4202.051270,4231.410156,4208.589844,4217.948730,4223.846191,4236.794922,4228.589844,4225.769043,4237.179688,4179.230957,4233.333496,4226.282227,2395.000000,4.000000,86.000000,,,,0.000000,4.000000,4.000000,4.000000,4.000000,4.000000,4.000000,4.000000,4.000000,4.000000,4.000000,4.000000,4.000000,4.000000,4.000000,100.000000,,,,,,,,,,,,,,,,
1644854378.729461,184.000000,0.000000,4227.948730,4219.743652,4207.563965,4232.692383,4208.974121,4214.358887,4222.563965,4237.307617,4230.512695,4224.487305,4245.128418,4190.641113,4225.000000,4216.153809,3554.000000,4.000000,86.000000,,,,0.000000,4.000000,4.000000,4.000000,4.000000,4.000000,4.000000,4.000000,4.000000,4.000000,4.000000,4.000000,4.000000,4.000000,4.000000,100.000000,,,,,,,,,,,,,,,,
1644854378.733401,185.000000,0.000000,4233.333496,4223.461426,4216.282227,4230.641113,4214.871582,4215.384766,4225.000000,4237.820313,4232.436035,4223.846191,4254.487305,4206.282227,4216.794922,4216.025879,3451.000000,4.000000,86.000000,,,,0.000000,4.000000,4.000000,4.000000,4.000000,4.000000,4.000000,4.000000,4.000000,4.000000,4.000000,4.000000,4.000000,4.000000,4.000000,100.000000,,,,,,,,,,,,,,,,
1644854378.737341,186.000000,0.000000,4239.358887,4227.948730,4222.436035,4231.153809,4221.282227,4219.871582,4229.615234,4237.563965,4232.307617,4225.641113,4258.077148,4216.153809,4211.153809,4227.307617,3533.000000,4.000000,86.000000,,,,0.000000,4.000000,4.000000,4.000000,4.000000,4.000000,4.000000,4.000000,4.000000,4.000000,4.000000,4.000000,4.000000,4.000000,4.000000,100.000000,,,,,,,,,,,,,,,,
1644854378.741282,187.000000,0.000000,4243.717773,4229.743652,4221.922852,4237.179688,4222.820313,4223.974121,4231.666504,4235.512695,4229.102539,4228.846191,4250.512695,4213.846191,4209.102539,4240.897461,2395.000000,4.000000,86.000000,,,,0.000000,4.000000,4.000000,4.000000,4.000000,4.000000,4.000000,4.000000,4.000000,4.000000,4.000000,4.000000,4.000000,4.000000,4.000000,100.000000,,,,,,,,,,,,,,,,
1644854378.745222,188.000000,0.000000,4246.025879,4227.179688,4216.025879,4245.256348,4218.846191,4225.384766,4228.205078,4232.051270,4225.128418,4230.641113,4232.820313,4201.538574,4209.743652,4246.025879,3554.000000,4.000000,86.000000,,,,0.000000,4.000000,4.000000,4.000000,4.000000,4.000000,4.000000,4.000000,4.000000,4.000000,4.000000,4.000000,4.000000,4.000000,4.000000,100.000000,,,,,,,,,,,,,,,,
1644854378.749162,189.000000,0.000000,4247.820313,4223.205078,4210.769043,4249.615234,4214.743652,4225.256348,4221.922852,4229.102539,4223.461426,4229.230957,4213.974121,4188.461426,4212.563965,4239.871582,3451.000000,4.000000,86.000000,,,,0.000000,4.000000,4.000000,4.000000,4.000000,4.000000,4.000000,4.000000,4.000000,4.000000,4.000000,4.000000,4.000000,4.000000,4.000000,100.000000,,,,,,,,,,,,,,,,
1644854378.753102,190.000000,0.000000,4251.282227,4222.563965,4211.794922,4247.307617,4215.128418,4226.282227,4219.230957,4229.102539,4226.538574,4225.641113,4205.384766,4183.846191,4217.307617,4229.230957,3533.000000,4.000000,86.000000,,,,0.000000,4.000000,4.000000,4.000000,4.000000,4.000000,4.000000,4.000000,4.000000,4.000000,4.000000,4.000000,4.000000,4.000000,4.000000,100.000000,,,,,,,,,,,,,,,,
1644854378.757042,191.000000,0.000000,4257.436035,4226.922852,4220.128418,4241.922852,4219.743652,4229.487305,4222.820313,4232.436035,4232.692383,4223.589844,4212.820313,4189.743652,4224.358887,4223.974121,2395.000000,4.000000,86.000000,,,,0.000000,4.000000,4.000000,4.000000,4.000000,4.000000,4.000000,4.000000,4.000000,4.000000,4.000000,4.000000,4.000000,4.000000,4.000000,100.000000,,,,,,,,,,,,,,,,
1644854378.760982,192.000000,0.000000,4264.358887,4233.205078,4230.128418,4238.846191,4223.846191,4232.563965,4229.230957,4236.410156,4238.333496,4226.153809,4230.384766,4200.128418,4232.436035,4227.692383,3554.000000,4.000000,86.000000,,,,0.000000,4.000000,4.000000,4.000000,4.000000,4.000000,4.000000,4.000000,4.000000,4.000000,4.000000,4.000000,4.000000,4.000000,4.000000,100.000000,,,,,,,,,,,,,,,,
1644854378.764922,193.000000,0.000000,4268.077148,4235.256348,4234.743652,4241.025879,4223.846191,4232.051270,4232.692383,4237.948730,4239.743652,4232.692383,4245.128418,4206.666504,4239.743652,4236.025879,3451.000000,4.000000,86.000000,,,,0.000000,4.000000,4.000000,4.000000,4.000000,4.000000,4.000000,4.000000,4.000000,4.000000,4.000000,4.000000,4.000000,4.000000,4.000000,100.000000,,,,,,,,,,,,,,,,
1644854378.768862,194.000000,0.000000,4264.743652,4229.871582,4230.897461,4245.769043,4220.769043,4227.436035,4231.025879,4236.794922,4236.794922,4238.717773,4247.820313,4205.512695,4243.717773,4241.794922,3533.000000,4.000000,86.000000,,,,0.000000,4.000000,4.000000,4.000000,4.000000,4.000000,4.000000,4.000000,4.000000,4.000000,4.000000,4.000000,4.000000,4.000000,4.000000,100.000000,,,,,,,,,,,,,,,,
1644854378.772802,195.000000,0.000000,4254.743652,4220.000000,4222.051270,4247.563965,4218.461426,4222.051270,4227.436035,4235.384766,4232.179688,4239.358887,4239.230957,4199.871582,4242.436035,4240.256348,2395.000000,4.000000,86.000000,,,,0.000000,4.000000,4.000000,4.000000,4.000000,4.000000,4.000000,4.000000,4.000000,4.000000,4.000000,4.000000,4.000000,4.000000,4.000000,100.000000,,,,,,,,,,,,,,,,
1644854378.776743,196.000000,0.000000,4243.974121,4213.205078,4214.743652,4243.205078,4219.743652,4221.025879,4225.769043,4236.666504,4229.871582,4234.358887,4227.563965,4196.153809,4235.256348,4231.410156,3554.000000,4.000000,86.000000,,,,0.000000,4.000000,4.000000,4.000000,4.000000,4.000000,4.000000,4.000000,4.000000,4.000000,4.000000,4.000000,4.000000,4.000000,4.000000,100.000000,,,,,,,,,,,,,,,,
1644854378.780683,197.000000,0.000000,4240.256348,4216.153809,4213.461426,4235.769043,4224.615234,4225.769043,4226.538574,4240.384766,4232.307617,4228.846191,4221.794922,4197.948730,4223.461426,4219.487305,3451.000000,4.000000,86.000000,,,,0.000000,4.000000,4.000000,4.000000,4.000000,4.000000,4.000000,4.000000,4.000000,4.000000,4.000000,4.000000,4.000000,4.000000,4.000000,100.000000,,,,,,,,,,,,,,,,
1644854378.784623,198.000000,0.000000,4247.563965,4227.307617,4217.948730,4232.179688,4229.743652,4233.077148,4227.307617,4244.358887,4237.948730,4228.589844,4224.871582,4203.205078,4210.897461,4209.871582,3533.000000,4.000000,86.000000,,,,0.000000,4.000000,4.000000,4.000000,4.000000,4.000000,4.000000,4.000000,4.000000,4.000000,4.000000,4.000000,4.000000,4.000000,4.000000,100.000000,,,,,,,,,,,,,,,,
1644854378.788563,199.000000,0.000000,4262.948730,4238.974121,4223.589844,4235.641113,4230.512695,4236.922852,4226.410156,4245.384766,4242.307617,4234.615234,4232.948730,4206.794922,4203.589844,4206.794922,2395.000000,4.000000,86.000000,,,,0.000000,4.000000,4.000000,4.000000,4.000000,4.000000,4.000000,4.000000,4.000000,4.000000,4.000000,4.000000,4.000000,4.000000,4.000000,100.000000,,,,,,,,,,,,,,,,
1644854378.792603,200.000000,0.000000,4277.820313,4242.436035,4225.641113,4242.051270,4225.128418,4234.230957,4224.743652,4241.922852,4240.769043,4241.282227,4239.102539,4205.128418,4206.025879,4211.666504,3554.000000,4.000000,86.000000,,,,0.000000,4.000000,4.000000,4.000000,4.000000,4.000000,4.000000,4.000000,4.000000,4.000000,4.000000,4.000000,4.000000,4.000000,4.000000,100.000000,,,,,,,,,,,,,,,,
1644854378.796543,201.000000,0.000000,4284.358887,4236.282227,4222.948730,4243.333496,4217.692383,4227.820313,4224.102539,4235.512695,4233.333496,4241.922852,4238.974121,4199.743652,4218.077148,4221.794922,3451.000000,4.000000,86.000000,,,,0.000000,4.000000,4.000000,4.000000,4.000000,4.000000,4.000000,4.000000,4.000000,4.000000,4.000000,4.000000,4.000000,4.000000,4.000000,100.000000,,,,,,,,,,,,,,,,
1644854378.800483,202.000000,0.000000,4280.897461,4226.538574,4217.948730,4235.256348,4215.897461,4223.846191,4224.487305,4229.871582,4224.615234,4235.000000,4232.948730,4195.384766,4234.358887,4231.666504,3533.000000,4.000000,86.000000,,,,0.000000,4.000000,4.000000,4.000000,4.000000,4.000000,4.000000,4.000000,4.000000,4.000000,4.000000,4.000000,4.000000,4.000000,4.000000,100.000000,,,,,,,,,,,,,,,,
1644854378.804423,203.000000,0.000000,4271.538574,4220.128418,4214.102539,4221.410156,4222.051270,4226.410156,4225.128418,4228.333496,4220.641113,4224.871582,4226.025879,4195.000000,4246.282227,4235.897461,2395.000000,4.000000,86.000000,,,,0.000000,4.000000,4.000000,4.000000,4.000000,4.000000,4.000000,4.000000,4.000000,4.000000,4.000000,4.000000,4.000000,4.000000,4.000000,100.000000,,,,,,,,,,,,,,,,
1644854378.808363,204.000000,0.000000,4263.333496,4219.358887,4212.948730,4210.000000,4229.102539,4232.436035,4225.641113,4231.025879,4222.692383,4217.307617,4222.307617,4196.922852,4246.538574,4232.563965,3554.000000,4.000000,86.000000,,,,0.000000,4.000000,4.000000,4.000000,4.000000,4.000000,4.000000,4.000000,4.000000,4.000000,4.000000,4.000000,4.000000,4.000000,4.000000,100.000000,,,,,,,,,,,,,,,,
1644854378.812303,205.000000,0.000000,4261.153809,4220.897461,4213.333496,4208.461426,4227.307617,4235.128418,4225.897461,4234.743652,4227.051270,4213.974121,4223.077148,4197.948730,4234.358887,4224.230957,3451.000000,4.000000,86.000000,,,,0.000000,4.000000,4.000000,4.000000,4.000000,4.000000,4.000000,4.000000,4.000000,4.000000,4.000000,4.000000,4.000000,4.000000,4.000000,100.000000,,,,,,,,,,,,,,,,
1644854378.816243,206.000000,0.000000,4264.743652,4220.769043,4213.461426,4217.692383,4215.384766,4231.153809,4225.897461,4236.282227,4229.487305,4213.846191,4226.538574,4197.692383,4216.666504,4215.512695,3533.000000,4.000000,86.000000,,,,0.000000,4.000000,4.000000,4.000000,4.000000,4.000000,4.000000,4.000000,4.000000,4.000000,4.000000,4.000000,4.000000,4.000000,4.000000,100.000000,,,,,,,,,,,,,,,,
1644854378.820184,207.000000,0.000000,4269.615234,4218.974121,4213.589844,4232.436035,4203.333496,4222.820313,4225.000000,4235.256348,4229.615234,4217.051270,4231.025879,4198.589844,4205.256348,4210.897461,2395.000000,4.000000,86.000000,,,,0.000000,4.000000,4.000000,4.000000,4.000000,4.000000,4.000000,4.000000,4.000000,4.000000,4.000000,4.000000,4.000000,4.000000,4.000000,100.000000,,,,,,,,,,,,,,,,
1644854378.824124,208.000000,0.000000,4271.153809,4218.974121,4215.641113,4245.384766,4202.692383,4216.922852,4223.846191,4234.358887,4230.384766,4225.512695,4236.153809,4202.563965,4207.692383,4213.717773,3554.000000,4.000000,86.000000,,,,0.000000,4.000000,4.000000,4.000000,4.000000,4.000000,4.000000,4.000000,4.000000,4.000000,4.000000,4.000000,4.000000,4.000000,4.000000,100.000000,,,,,,,,,,,,,,,,
1644854378.828064,209.000000,0.000000,4267.948730,4222.307617,4221.410156,4251.922852,4215.384766,4217.948730,4224.615234,4236.666504,4234.487305,4238.461426,4240.256348,4208.205078,4221.025879,4223.589844,3451.000000,4.000000,86.000000,,,,0.000000,4.000000,4.000000,4.000000,4.000000,4.000000,4.000000,4.000000,4.000000,4.000000,4.000000,4.000000,4.000000,4.000000,4.000000,100.000000,,,,,,,,,,,,,,,,
1644854378.832004,210.000000,0.000000,4263.077148,4227.051270,4229.358887,4251.282227,4232.563965,4225.000000,4229.230957,4242.563965,4241.025879,4250.641113,4240.000000,4212.436035,4234.358887,4235.384766,3533.000000,4.000000,86.000000,,,,0.000000,4.000000,4.000000,4.000000,4.000000,4.000000,4.000000,4.000000,4.000000,4.000000,4.000000,4.000000,4.000000,4.000000,4.000000,100.000000,,,,,,,,,,,,,,,,
1644854378.835944,211.000000,0.000000,4262.051270,4230.128418,4235.641113,4245.512695,4243.589844,4233.205078,4236.282227,4249.743652,4246.794922,4256.282227,4234.358887,4214.358887,4239.102539,4241.410156,2395.000000,4.000000,86.000000,,,,0.000000,4.000000,4.000000,4.000000,4.000000,4.000000,4.000000,4.000000,4.000000,4.000000,4.000000,4.000000,4.000000,4.000000,4.000000,100.000000,,,,,,,,,,,,,,,,
1644854378.839884,212.000000,0.000000,4268.461426,4231.666504,4237.307617,4236.794922,4244.230957,4237.436035,4241.410156,4254.230957,4249.487305,4254.743652,4227.563965,4215.641113,4236.025879,4237.948730,3554.000000,4.000000,86.000000,,,,0.000000,4.000000,4.000000,4.000000,4.000000,4.000000,4.000000,4.000000,4.000000,4.000000,4.000000,4.000000,4.000000,4.000000,4.000000,100.000000,,,,,,,,,,,,,,,,
1644854378.843824,213.000000,0.000000,4281.153809,4234.230957,4234.871582,4227.692383,4237.307617,4236.153809,4241.153809,4254.487305,4248.461426,4250.769043,4227.179688,4219.230957,4233.589844,4229.615234,3451.000000,4.000000,86.000000,,,,0.000000,4.000000,4.000000,4.000000,4.000000,4.000000,4.000000,4.000000,4.000000,4.000000,4.000000,4.000000,4.000000,4.000000,4.000000,100.000000,,,,,,,,,,,,,,,,
1644854378.847764,214.000000,0.000000,4295.384766,4239.102539,4231.666504,4222.692383,4228.461426,4232.179688,4236.538574,4250.897461,4244.871582,4247.948730,4236.666504,4226.025879,4238.589844,4226.410156,3533.000000,4.000000,86.000000,,,,0.000000,4.000000,4.000000,4.000000,4.000000,4.000000,4.000000,4.000000,4.000000,4.000000,4.000000,4.000000,4.000000,4.000000,4.000000,100.000000,,,,,,,,,,,,,,,,
1644854378.851704,215.000000,0.000000,4305.128418,4243.077148,4230.897461,4226.794922,4222.692383,4230.512695,4232.179688,4246.025879,4240.512695,4245.512695,4251.794922,4233.974121,4248.974121,4234.230957,2395.000000,4.000000,86.000000,,,,0.000000,4.000000,4.000000,4.000000,4.000000,4.000000,4.000000,4.000000,4.000000,4.000000,4.000000,4.000000,4.000000,4.000000,4.000000,100.000000,,,,,,,,,,,,,,,,
1644854378.855645,216.000000,0.000000,4307.948730,4241.666504,4232.307617,4240.641113,4222.692383,4233.333496,4231.282227,4242.307617,4237.563965,4240.641113,4262.563965,4237.820313,4256.794922,4248.846191,3554.000000,4.000000,86.000000,,,,0.000000,4.000000,4.000000,4.000000,4.000000,4.000000,4.000000,4.000000,4.000000,4.000000,4.000000,4.000000,4.000000,4.000000,4.000000,100.000000,,,,,,,,,,,,,,,,
1644854378.859585,217.000000,0.000000,4304.743652,4233.974121,4232.563965,4256.922852,4227.692383,4238.077148,4232.563965,4240.384766,4236.666504,4233.205078,4261.922852,4232.948730,4254.871582,4259.743652,3451.000000,4.000000,86.000000,,,,0.000000,4.000000,4.000000,4.000000,4.000000,4.000000,4.000000,4.000000,4.000000,4.000000,4.000000,4.000000,4.000000,4.000000,4.000000,100.000000,,,,,,,,,,,,,,,,
1644854378.863625,218.000000,0.000000,4298.589844,4223.846191,4228.077148,4263.974121,4232.436035,4238.846191,4231.538574,4238.846191,4236.666504,4226.794922,4251.153809,4218.717773,4243.589844,4258.077148,3533.000000,4.000000,86.000000,,,,0.000000,4.000000,4.000000,4.000000,4.000000,4.000000,4.000000,4.000000,4.000000,4.000000,4.000000,4.000000,4.000000,4.000000,4.000000,100.000000,,,,,,,,,,,,,,,,
1644854378.867565,219.000000,0.000000,4291.153809,4216.922852,4219.230957,4254.743652,4231.153809,4232.436035,4226.922852,4235.641113,4235.128418,4225.128418,4237.051270,4200.384766,4228.846191,4244.102539,2395.000000,4.000000,86.000000,,,,0.000000,4.000000,4.000000,4.000000,4.000000,4.000000,4.000000,4.000000,4.000000,4.000000,4.000000,4.000000,4.000000,4.000000,4.000000,100.000000,,,,,,,,,,,,,,,,
1644854378.871505,220.000000,0.000000,4283.077148,4216.538574,4211.153809,4233.077148,4221.922852,4221.282227,4221.538574,4230.512695,4231.025879,4228.077148,4227.820313,4186.922852,4217.948730,4225.897461,3554.000000,4.000000,86.000000,,,,0.000000,4.000000,4.000000,4.000000,4.000000,4.000000,4.000000,4.000000,4.000000,4.000000,4.000000,4.000000,4.000000,4.000000,4.000000,100.000000,,,,,,,,,,,,,,,,
1644854378.875445,221.000000,0.000000,4275.384766,4221.538574,4209.615234,4212.948730,4210.128418,4212.820313,4219.743652,4225.384766,4226.666504,4232.307617,4226.794922,4184.743652,4214.871582,4213.589844,3451.000000,4.000000,86.000000,,,,0.000000,4.000000,4.000000,4.000000,4.000000,4.000000,4.000000,4.000000,4.000000,4.000000,4.000000,4.000000,4.000000,4.000000,4.000000,100.000000,,,,,,,,,,,,,,,,
1644854378.879385,222.000000,0.000000,4270.897461,4228.333496,4215.769043,4206.794922,4205.128418,4212.820313,4222.436035,4223.333496,4225.384766,4234.230957,4232.692383,4192.948730,4219.358887,4212.820313,3533.000000,4.000000,86.000000,,,,0.000000,4.000000,4.000000,4.000000,4.000000,4.000000,4.000000,4.000000,4.000000,4.000000,4.000000,4.000000,4.000000,4.000000,4.000000,100.000000,,,,,,,,,,,,,,,,
1644854378.883325,223.000000,0.000000,4272.820313,4234.230957,4224.487305,4216.922852,4213.589844,4221.410156,4227.051270,4225.512695,4227.948730,4233.717773,4240.641113,4203.974121,4228.717773,4222.051270,2395.000000,4.000000,86.000000,,,,0.000000,4.000000,4.000000,4.000000,4.000000,4.000000,4.000000,4.000000,4.000000,4.000000,4.000000,4.000000,4.000000,4.000000,4.000000,100.000000,,,,,,,,,,,,,,,,
1644854378.887265,224.000000,0.000000,4280.641113,4238.205078,4229.230957,4234.487305,4232.948730,4232.948730,4230.256348,4230.256348,4232.436035,4233.461426,4245.897461,4209.871582,4239.230957,4235.128418,3554.000000,4.000000,86.000000,,,,0.000000,4.000000,4.000000,4.000000,4.000000,4.000000,4.000000,4.000000,4.000000,4.000000,4.000000,4.000000,4.000000,4.000000,4.000000,100.000000,,,,,,,,,,,,,,,,
1644854378.891205,225.000000,0.000000,4290.256348,4240.256348,4226.538574,4246.153809,4252.563965,4240.512695,4231.410156,4235.000000,4235.512695,4236.153809,4245.256348,4207.948730,4246.410156,4244.743652,3451.000000,4.000000,86.000000,,,,0.000000,4.000000,4.000000,4.000000,4.000000,4.000000,4.000000,4.000000,4.000000,4.000000,4.000000,4.000000,4.000000,4.000000,4.000000,100.000000,,,,,,,,,,,,,,,,
1644854378.895145,226.000000,0.000000,4295.769043,4239.615234,4218.333496,4243.589844,4260.000000,4240.641113,4231.282227,4236.922852,4235.256348,4241.282227,4238.974121,4202.179688,4247.563965,4245.897461,3533.000000,4.000000,86.000000,,,,0.000000,4.000000,4.000000,4.000000,4.000000,4.000000,4.000000,4.000000,4.000000,4.000000,4.000000,4.000000,4.000000,4.000000,4.000000,100.000000,,,,,,,,,,,,,,,,
1644854378.899086,227.000000,0.000000,4295.384766,4234.615234,4210.128418,4228.333496,4249.743652,4234.743652,4230.512695,4235.384766,4232.179688,4245.128418,4230.128418,4197.692383,4242.563965,4237.820313,2395.000000,4.000000,86.000000,,,,0.000000,4.000000,4.000000,4.000000,4.000000,4.000000,4.000000,4.000000,4.000000,4.000000,4.000000,4.000000,4.000000,4.000000,4.000000,100.000000,,,,,,,,,,,,,,,,
1644854378.903026,228.000000,0.000000,4292.051270,4225.512695,4206.410156,4210.641113,4228.205078,4228.333496,4228.717773,4231.794922,4228.717773,4244.487305,4223.589844,4198.077148,4234.487305,4225.000000,3554.000000,4.000000,86.000000,,,,0.000000,4.000000,4.000000,4.000000,4.000000,4.000000,4.000000,4.000000,4.000000,4.000000,4.000000,4.000000,4.000000,4.000000,4.000000,100.000000,,,,,,,,,,,,,,,,
1644854378.906966,229.000000,0.000000,4289.487305,4216.025879,4208.717773,4201.538574,4208.974121,4226.538574,4226.410156,4228.717773,4227.307617,4239.230957,4222.948730,4203.077148,4227.307617,4215.512695,3451.000000,4.000000,86.000000,,,,0.000000,4.000000,4.000000,4.000000,4.000000,4.000000,4.000000,4.000000,4.000000,4.000000,4.000000,4.000000,4.000000,4.000000,4.000000,100.000000,,,,,,,,,,,,,,,,
1644854378.910906,230.000000,0.000000,4287.948730,4212.179688,4214.743652,4205.384766,4203.461426,4230.000000,4225.512695,4228.333496,4228.717773,4233.461426,4228.333496,4209.230957,4224.871582,4216.153809,3533.000000,4.000000,86.000000,,,,0.000000,4.000000,4.000000,4.000000,4.000000,4.000000,4.000000,4.000000,4.000000,4.000000,4.000000,4.000000,4.000000,4.000000,4.000000,100.000000,,,,,,,,,,,,,,,,
1644854378.914846,231.000000,0.000000,4284.487305,4216.666504,4220.897461,4217.820313,4213.333496,4233.846191,4226.922852,4230.256348,4231.410156,4232.436035,4237.307617,4211.794922,4228.589844,4226.666504,2395.000000,4.000000,86.000000,,,,0.000000,4.000000,4.000000,4.000000,4.000000,4.000000,4.000000,4.000000,4.000000,4.000000,4.000000,4.000000,4.000000,4.000000,4.000000,100.000000,,,,,,,,,,,,,,,,
1644854378.918786,232.000000,0.000000,4279.102539,4227.051270,4224.230957,4230.000000,4230.000000,4233.333496,4228.589844,4233.077148,4233.461426,4237.948730,4246.153809,4208.077148,4236.410156,4240.128418,3554.000000,4.000000,86.000000,,,,0.000000,4.000000,4.000000,4.000000,4.000000,4.000000,4.000000,4.000000,4.000000,4.000000,4.000000,4.000000,4.000000,4.000000,4.000000,100.000000,,,,,,,,,,,,,,,,
1644854378.922726,233.000000,0.000000,4276.922852,4236.794922,4224.102539,4235.384766,4241.153809,4228.333496,4228.077148,4235.000000,4234.230957,4245.769043,4252.436035,4200.384766,4244.487305,4248.205078,3451.000000,4.000000,86.000000,,,,0.000000,4.000000,4.000000,4.000000,4.000000,4.000000,4.000000,4.000000,4.000000,4.000000,4.000000,4.000000,4.000000,4.000000,4.000000,100.000000,,,,,,,,,,,,,,,,
1644854378.926666,234.000000,0.000000,4283.461426,4241.282227,4221.794922,4233.077148,4240.512695,4224.358887,4225.641113,4236.410156,4234.871582,4249.615234,4255.256348,4195.000000,4249.358887,4248.461426,3533.000000,4.000000,86.000000,,,,0.000000,4.000000,4.000000,4.000000,4.000000,4.000000,4.000000,4.000000,4.000000,4.000000,4.000000,4.000000,4.000000,4.000000,4.000000,100.000000,,,,,,,,,,,,,,,,
1644854378.930606,235.000000,0.000000,4297.563965,4240.000000,4219.487305,4226.922852,4231.666504,4226.282227,4224.871582,4238.974121,4237.307617,4247.563965,4256.282227,4196.025879,4250.000000,4245.641113,2395.000000,4.000000,86.000000,,,,0.000000,4.000000,4.000000,4.000000,4.000000,4.000000,4.000000,4.000000,4.000000,4.000000,4.000000,4.000000,4.000000,4.000000,4.000000,100.000000,,,,,,,,,,,,,,,,
1644854378.934547,236.000000,0.000000,4310.128418,4235.769043,4218.846191,4221.282227,4223.333496,4233.077148,4227.948730,4243.077148,4241.282227,4243.974121,4257.436035,4202.436035,4248.077148,4245.769043,3554.000000,4.000000,86.000000,,,,0.000000,4.000000,4.000000,4.000000,4.000000,4.000000,4.000000,4.000000,4.000000,4.000000,4.000000,4.000000,4.000000,4.000000,4.000000,100.000000,,,,,,,,,,,,,,,,
1644854378.938387,237.000000,0.000000,4311.538574,4230.897461,4219.743652,4218.974121,4221.794922,4238.461426,4232.436035,4246.666504,4244.487305,4244.358887,4258.589844,4209.358887,4245.512695,4249.230957,3451.000000,4.000000,86.000000,,,,0.000000,4.000000,4.000000,4.000000,4.000000,4.000000,4.000000,4.000000,4.000000,4.000000,4.000000,4.000000,4.000000,4.000000,4.000000,100.000000,,,,,,,,,,,,,,,,
1644854378.942327,238.000000,0.000000,4299.487305,4226.538574,4221.153809,4220.512695,4226.794922,4237.692383,4233.333496,4246.666504,4244.615234,4249.487305,4256.666504,4212.692383,4242.948730,4251.410156,3533.000000,4.000000,86.000000,,,,0.000000,4.000000,4.000000,4.000000,4.000000,4.000000,4.000000,4.000000,4.000000,4.000000,4.000000,4.000000,4.000000,4.000000,4.000000,100.000000,,,,,,,,,,,,,,,,
1644854378.946267,239.000000,0.000000,4281.153809,4223.333496,4222.563965,4225.512695,4233.077148,4231.410156,4228.974121,4242.436035,4241.666504,4253.974121,4247.948730,4211.922852,4239.487305,4247.563965,2395.000000,4.000000,86.000000,,,,0.000000,4.000000,4.000000,4.000000,4.000000,4.000000,4.000000,4.000000,4.000000,4.000000,4.000000,4.000000,4.000000,4.000000,4.000000,100.000000,,,,,,,,,,,,,,,,
1644854378.950207,240.000000,0.000000,4267.051270,4222.307617,4222.692383,4232.051270,4236.153809,4224.871582,4222.948730,4236.666504,4237.436035,4250.897461,4232.692383,4208.589844,4233.077148,4239.358887,3554.000000,4.000000,86.000000,,,,0.000000,4.000000,4.000000,4.000000,4.000000,4.000000,4.000000,4.000000,4.000000,4.000000,4.000000,4.000000,4.000000,4.000000,4.000000,100.000000,,,,,,,,,,,,,,,,
1644854378.954147,241.000000,0.000000,4263.077148,4223.974121,4220.641113,4236.410156,4234.615234,4222.436035,4220.384766,4232.948730,4233.461426,4239.230957,4216.538574,4204.615234,4223.333496,4231.922852,3451.000000,4.000000,86.000000,,,,0.000000,4.000000,4.000000,4.000000,4.000000,4.000000,4.000000,4.000000,4.000000,4.000000,4.000000,4.000000,4.000000,4.000000,4.000000,100.000000,,,,,,,,,,,,,,,,
1644854378.958087,242.000000,0.000000,4268.846191,4226.666504,4216.410156,4236.794922,4230.256348,4224.358887,4222.179688,4232.307617,4230.000000,4225.641113,4207.051270,4201.282227,4213.461426,4228.717773,3533.000000,4.000000,86.000000,,,,0.000000,4.000000,4.000000,4.000000,4.000000,4.000000,4.000000,4.000000,4.000000,4.000000,4.000000,4.000000,4.000000,4.000000,4.000000,100.000000,,,,,,,,,,,,,,,,
1644854378.962027,243.000000,0.000000,4279.487305,4227.563965,4212.436035,4233.974121,4225.512695,4226.922852,4225.000000,4233.205078,4227.436035,4218.717773,4208.205078,4199.615234,4209.102539,4227.436035,2395.000000,4.000000,86.000000,,,,0.000000,4.000000,4.000000,4.000000,4.000000,4.000000,4.000000,4.000000,4.000000,4.000000,4.000000,4.000000,4.000000,4.000000,4.000000,100.000000,,,,,,,,,,,,,,,,
1644854378.965967,244.000000,0.000000,4289.743652,4225.512695,4211.666504,4230.384766,4221.410156,4226.410156,4225.000000,4232.948730,4226.282227,4221.666504,4217.563965,4200.384766,4213.333496,4224.358887,3554.000000,4.000000,86.000000,,,,0.000000,4.000000,4.000000,4.000000,4.000000,4.000000,4.000000,4.000000,4.000000,4.000000,4.000000,4.000000,4.000000,4.000000,4.000000,100.000000,,,,,,,,,,,,,,,,
1644854378.969908,245.000000,0.000000,4295.128418,4222.948730,4215.897461,4227.692383,4218.717773,4221.922852,4222.692383,4231.282227,4227.307617,4229.358887,4228.205078,4202.563965,4223.717773,4218.717773,3451.000000,4.000000,86.000000,,,,0.000000,4.000000,4.000000,4.000000,4.000000,4.000000,4.000000,4.000000,4.000000,4.000000,4.000000,4.000000,4.000000,4.000000,4.000000,100.000000,,,,,,,,,,,,,,,,
1644854378.973848,246.000000,0.000000,4293.589844,4223.974121,4223.461426,4226.153809,4219.230957,4216.922852,4221.025879,4230.256348,4229.871582,4234.358887,4234.102539,4203.205078,4233.589844,4214.871582,3533.000000,4.000000,86.000000,,,,0.000000,4.000000,4.000000,4.000000,4.000000,4.000000,4.000000,4.000000,4.000000,4.000000,4.000000,4.000000,4.000000,4.000000,4.000000,100.000000,,,,,,,,,,,,,,,,
1644854378.977788,247.000000,0.000000,4286.025879,4230.128418,4230.769043,4226.282227,4224.743652,4216.410156,4221.922852,4232.179688,4233.333496,4233.717773,4234.102539,4200.128418,4237.820313,4217.692383,2395.000000,4.000000,86.000000,,,,0.000000,4.000000,4.000000,4.000000,4.000000,4.000000,4.000000,4.000000,4.000000,4.000000,4.000000,4.000000,4.000000,4.000000,4.000000,100.000000,,,,,,,,,,,,,,,,
1644854378.981728,248.000000,0.000000,4276.282227,4237.563965,4234.743652,4227.692383,4233.846191,4222.563965,4224.102539,4236.922852,4236.410156,4230.769043,4232.820313,4193.974121,4235.384766,4228.333496,3554.000000,4.000000,86.000000,,,,0.000000,4.000000,4.000000,4.000000,4.000000,4.000000,4.000000,4.000000,4.000000,4.000000,4.000000,4.000000,4.000000,4.000000,4.000000,100.000000,,,,,,,,,,,,,,,,
1644854378.985668,249.000000,0.000000,4269.358887,4240.128418,4233.717773,4228.205078,4240.769043,4232.051270,4225.512695,4242.179688,4238.589844,4231.922852,4235.512695,4187.948730,4229.487305,4243.846191,3451.000000,4.000000,86.000000,,,,0.000000,4.000000,4.000000,4.000000,4.000000,4.000000,4.000000,4.000000,4.000000,4.000000,4.000000,4.000000,4.000000,4.000000,4.000000,100.000000,,,,,,,,,,,,,,,,
1644854378.989608,250.000000,0.000000,4267.307617,4233.974121,4228.589844,4224.358887,4238.974121,4238.077148,4225.384766,4244.615234,4238.846191,4239.230957,4242.051270,4185.769043,4224.615234,4257.948730,3533.000000,4.000000,86.000000,,,,0.000000,4.000000,4.000000,4.000000,4.000000,4.000000,4.000000,4.000000,4.000000,4.000000,4.000000,4.000000,4.000000,4.000000,4.000000,100.000000,,,,,,,,,,,,,,,,
1644854378.993548,251.000000,0.000000,4268.333496,4221.282227,4221.538574,4215.128418,4227.307617,4235.769043,4224.743652,4242.179688,4235.769043,4248.077148,4246.666504,4188.077148,4223.717773,4264.358887,2395.000000,4.000000,86.000000,,,,0.000000,4.000000,4.000000,4.000000,4.000000,4.000000,4.000000,4.000000,4.000000,4.000000,4.000000,4.000000,4.000000,4.000000,4.000000,100.000000,,,,,,,,,,,,,,,,
1644854378.997488,252.000000,0.000000,4268.846191,4208.974121,4215.000000,4203.846191,4212.179688,4226.794922,4224.102539,4236.282227,4230.256348,4250.512695,4243.205078,4193.461426,4227.436035,4259.230957,3554.000000,4.000000,86.000000,,,,0.000000,4.000000,4.000000,4.000000,4.000000,4.000000,4.000000,4.000000,4.000000,4.000000,4.000000,4.000000,4.000000,4.000000,4.000000,100.000000,,,,,,,,,,,,,,,,
1644854379.001428,253.000000,0.000000,4266.666504,4204.487305,4210.769043,4197.179688,4203.589844,4217.436035,4223.205078,4230.256348,4225.384766,4242.692383,4233.077148,4199.230957,4233.589844,4244.743652,3451.000000,4.000000,86.000000,,,,0.000000,4.000000,4.000000,4.000000,4.000000,4.000000,4.000000,4.000000,4.000000,4.000000,4.000000,4.000000,4.000000,4.000000,4.000000,100.000000,,,,,,,,,,,,,,,,
1644854379.005369,254.000000,0.000000,4262.820313,4209.487305,4210.128418,4200.384766,4207.948730,4213.205078,4222.051270,4227.563965,4223.974121,4228.461426,4224.615234,4203.333496,4238.717773,4228.333496,3533.000000,4.000000,86.000000,,,,0.000000,4.000000,4.000000,4.000000,4.000000,4.000000,4.000000,4.000000,4.000000,4.000000,4.000000,4.000000,4.000000,4.000000,4.000000,100.000000,,,,,,,,,,,,,,,,
1644854379.009309,255.000000,0.000000,4260.000000,4218.461426,4212.436035,4213.461426,4223.205078,4214.743652,4221.666504,4228.974121,4226.153809,4216.922852,4225.897461,4204.743652,4239.487305,4219.615234,113.000000,4.000000,86.000000,,,,0.000000,4.000000,4.000000,4.000000,4.000000,4.000000,4.000000,4.000000,4.000000,4.000000,4.000000,4.000000,4.000000,4.000000,4.000000,100.000000,,,,,,,,,,,,,,,,
1644854379.013149,0.000000,0.000000,4260.897461,4223.461426,4215.769043,4229.871582,4239.871582,4217.948730,4223.333496,4232.692383,4229.358887,4215.384766,4236.538574,4204.102539,4234.871582,4222.563965,3412.000000,4.000000,86.000000,,,,0.000000,4.000000,4.000000,4.000000,4.000000,4.000000,4.000000,4.000000,4.000000,4.000000,4.000000,4.000000,4.000000,4.000000,4.000000,100.000000,,,,,,,,,,,,,,,,
1644854379.017089,1.000000,0.000000,4266.666504,4222.563965,4217.563965,4239.487305,4246.794922,4218.846191,4225.512695,4235.384766,4230.641113,4224.615234,4246.922852,4202.692383,4228.333496,4232.820313,3285.000000,4.000000,86.000000,,,,0.000000,4.000000,4.000000,4.000000,4.000000,4.000000,4.000000,4.000000,4.000000,4.000000,4.000000,4.000000,4.000000,4.000000,4.000000,100.000000,,,,,,,,,,,,,,,,
1644854379.021029,2.000000,0.000000,4275.897461,4221.153809,4217.051270,4235.897461,4239.615234,4217.436035,4225.897461,4235.512695,4229.615234,4238.717773,4247.820313,4201.282227,4225.000000,4241.794922,3408.000000,4.000000,86.000000,,,,0.000000,4.000000,4.000000,4.000000,4.000000,4.000000,4.000000,4.000000,4.000000,4.000000,4.000000,4.000000,4.000000,4.000000,4.000000,100.000000,,,,,,,,,,,,,,,,
1644854379.024969,3.000000,0.000000,4286.025879,4225.641113,4215.512695,4221.153809,4223.974121,4216.666504,4223.205078,4233.333496,4227.563965,4249.487305,4239.230957,4199.743652,4228.589844,4244.871582,3519.000000,4.000000,86.000000,,,,0.000000,4.000000,4.000000,4.000000,4.000000,4.000000,4.000000,4.000000,4.000000,4.000000,4.000000,4.000000,4.000000,4.000000,4.000000,100.000000,,,,,,,,,,,,,,,,
1644854379.028909,4.000000,0.000000,4295.256348,4236.025879,4215.384766,4204.743652,4211.410156,4218.717773,4219.743652,4230.769043,4225.897461,4251.410156,4229.487305,4197.436035,4238.077148,4243.974121,3514.000000,4.000000,86.000000,,,,0.000000,4.000000,4.000000,4.000000,4.000000,4.000000,4.000000,4.000000,4.000000,4.000000,4.000000,4.000000,4.000000,4.000000,4.000000,100.000000,,,,,,,,,,,,,,,,
1644854379.032849,5.000000,0.000000,4303.205078,4245.897461,4217.436035,4196.922852,4210.000000,4222.692383,4219.230957,4229.487305,4225.384766,4246.025879,4226.794922,4193.974121,4248.974121,4243.589844,3367.000000,4.000000,86.000000,,,,0.000000,4.000000,4.000000,4.000000,4.000000,4.000000,4.000000,4.000000,4.000000,4.000000,4.000000,4.000000,4.000000,4.000000,4.000000,100.000000,,,,,,,,,,,,,,,,
1644854379.036789,6.000000,0.000000,4307.820313,4248.205078,4219.871582,4201.538574,4218.077148,4225.769043,4222.307617,4229.871582,4226.153809,4238.974121,4230.128418,4189.615234,4256.922852,4244.615234,2641.000000,4.000000,86.000000,,,,0.000000,4.000000,4.000000,4.000000,4.000000,4.000000,4.000000,4.000000,4.000000,4.000000,4.000000,4.000000,4.000000,4.000000,4.000000,100.000000,,,,,,,,,,,,,,,,
1644854379.040730,7.000000,0.000000,4304.615234,4240.512695,4219.615234,4213.717773,4227.563965,4226.153809,4226.153809,4231.025879,4228.461426,4235.512695,4231.666504,4185.512695,4258.974121,4244.615234,2881.000000,4.000000,86.000000,,,,0.000000,4.000000,4.000000,4.000000,4.000000,4.000000,4.000000,4.000000,4.000000,4.000000,4.000000,4.000000,4.000000,4.000000,4.000000,100.000000,,,,,,,,,,,,,,,,
1644854379.044670,8.000000,0.000000,4290.512695,4227.179688,4215.384766,4222.948730,4231.538574,4224.230957,4227.051270,4232.307617,4231.538574,4236.410156,4225.512695,4182.948730,4254.102539,4241.666504,3143.000000,4.000000,86.000000,,,,0.000000,4.000000,4.000000,4.000000,4.000000,4.000000,4.000000,4.000000,4.000000,4.000000,4.000000,4.000000,4.000000,4.000000,4.000000,100.000000,,,,,,,,,,,,,,,,
1644854379.048610,9.000000,0.000000,4270.128418,4215.256348,4210.769043,4221.794922,4228.461426,4221.666504,4225.000000,4232.820313,4233.461426,4238.589844,4215.000000,4182.948730,4243.461426,4237.179688,3505.000000,4.000000,86.000000,,,,0.000000,4.000000,4.000000,4.000000,4.000000,4.000000,4.000000,4.000000,4.000000,4.000000,4.000000,4.000000,4.000000,4.000000,4.000000,100.000000,,,,,,,,,,,,,,,,
1644854379.052550,10.000000,0.000000,4254.871582,4209.487305,4211.025879,4210.000000,4220.769043,4220.256348,4222.692383,4232.692383,4232.692383,4237.692383,4210.256348,4185.128418,4230.512695,4234.358887,3582.000000,4.000000,86.000000,,,,0.000000,4.000000,4.000000,4.000000,4.000000,4.000000,4.000000,4.000000,4.000000,4.000000,4.000000,4.000000,4.000000,4.000000,4.000000,100.000000,,,,,,,,,,,,,,,,
1644854379.056490,11.000000,0.000000,4255.000000,4209.615234,4217.563965,4195.128418,4212.307617,4220.641113,4221.666504,4232.179688,4228.974121,4231.025879,4218.205078,4188.846191,4219.871582,4234.230957,2385.000000,4.000000,86.000000,,,,0.000000,4.000000,4.000000,4.000000,4.000000,4.000000,4.000000,4.000000,4.000000,4.000000,4.000000,4.000000,4.000000,4.000000,4.000000,100.000000,,,,,,,,,,,,,,,,
1644854379.060430,12.000000,0.000000,4269.615234,4212.820313,4226.153809,4185.897461,4206.666504,4221.922852,4221.410156,4231.538574,4224.102539,4220.641113,4236.025879,4192.692383,4215.000000,4234.230957,3296.000000,4.000000,86.000000,,,,0.000000,4.000000,4.000000,4.000000,4.000000,4.000000,4.000000,4.000000,4.000000,4.000000,4.000000,4.000000,4.000000,4.000000,4.000000,100.000000,,,,,,,,,,,,,,,,
1644854379.064370,13.000000,0.000000,4286.282227,4216.153809,4230.128418,4186.794922,4207.051270,4222.563965,4220.000000,4231.282227,4220.897461,4212.307617,4251.282227,4195.512695,4216.153809,4231.922852,3459.000000,4.000000,86.000000,,,,0.000000,4.000000,4.000000,4.000000,4.000000,4.000000,4.000000,4.000000,4.000000,4.000000,4.000000,4.000000,4.000000,4.000000,4.000000,100.000000,,,,,,,,,,,,,,,,
1644854379.068310,14.000000,0.000000,4289.871582,4218.205078,4227.307617,4196.025879,4213.589844,4221.410156,4218.077148,4231.282227,4221.410156,4211.282227,4251.153809,4196.666504,4220.128418,4227.692383,3582.000000,4.000000,86.000000,,,,0.000000,4.000000,4.000000,4.000000,4.000000,4.000000,4.000000,4.000000,4.000000,4.000000,4.000000,4.000000,4.000000,4.000000,4.000000,100.000000,,,,,,,,,,,,,,,,
1644854379.072250,15.000000,0.000000,4276.153809,4218.717773,4221.410156,4207.307617,4222.179688,4219.230957,4217.692383,4231.153809,4224.615234,4217.692383,4233.589844,4196.666504,4224.487305,4225.000000,2385.000000,4.000000,86.000000,,,,0.000000,4.000000,4.000000,4.000000,4.000000,4.000000,4.000000,4.000000,4.000000,4.000000,4.000000,4.000000,4.000000,4.000000,4.000000,100.000000,,,,,,,,,,,,,,,,
1644854379.076191,16.000000,0.000000,4255.384766,4219.743652,4218.589844,4214.615234,4226.794922,4217.436035,4219.743652,4230.641113,4227.948730,4226.794922,4211.282227,4196.794922,4228.461426,4227.051270,3296.000000,4.000000,86.000000,,,,0.000000,4.000000,4.000000,4.000000,4.000000,4.000000,4.000000,4.000000,4.000000,4.000000,4.000000,4.000000,4.000000,4.000000,4.000000,100.000000,,,,,,,,,,,,,,,,
1644854379.080131,17.000000,0.000000,4244.230957,4224.487305,4222.307617,4217.051270,4223.974121,4216.666504,4221.922852,4228.974121,4229.102539,4233.461426,4202.436035,4197.563965,4234.102539,4234.487305,3459.000000,4.000000,86.000000,,,,0.000000,4.000000,4.000000,4.000000,4.000000,4.000000,4.000000,4.000000,4.000000,4.000000,4.000000,4.000000,4.000000,4.000000,4.000000,100.000000,,,,,,,,,,,,,,,,
1644854379.084171,18.000000,0.000000,4251.666504,4233.717773,4229.743652,4217.563965,4215.128418,4216.666504,4221.538574,4226.025879,4227.307617,4234.871582,4214.358887,4199.102539,4242.051270,4243.333496,3582.000000,4.000000,86.000000,,,,0.000000,4.000000,4.000000,4.000000,4.000000,4.000000,4.000000,4.000000,4.000000,4.000000,4.000000,4.000000,4.000000,4.000000,4.000000,100.000000,,,,,,,,,,,,,,,,
1644854379.088111,19.000000,0.000000,4272.692383,4245.000000,4235.256348,4219.615234,4206.025879,4216.410156,4218.846191,4222.179688,4223.205078,4231.922852,4237.436035,4200.769043,4250.000000,4248.717773,2385.000000,4.000000,86.000000,,,,0.000000,4.000000,4.000000,4.000000,4.000000,4.000000,4.000000,4.000000,4.000000,4.000000,4.000000,4.000000,4.000000,4.000000,4.000000,100.000000,,,,,,,,,,,,,,,,
1644854379.092051,20.000000,0.000000,4295.000000,4254.358887,4235.769043,4223.333496,4204.358887,4215.512695,4216.794922,4219.230957,4218.589844,4228.461426,4252.563965,4201.922852,4253.974121,4247.820313,3296.000000,4.000000,86.000000,,,,0.000000,4.000000,4.000000,4.000000,4.000000,4.000000,4.000000,4.000000,4.000000,4.000000,4.000000,4.000000,4.000000,4.000000,4.000000,100.000000,,,,,,,,,,,,,,,,
1644854379.095991,21.000000,0.000000,4309.615234,4260.512695,4233.461426,4226.794922,4212.948730,4214.871582,4217.436035,4219.102539,4215.641113,4228.589844,4248.717773,4202.307617,4252.820313,4241.794922,3459.000000,4.000000,86.000000,,,,0.000000,4.000000,4.000000,4.000000,4.000000,4.000000,4.000000,4.000000,4.000000,4.000000,4.000000,4.000000,4.000000,4.000000,4.000000,100.000000,,,,,,,,,,,,,,,,
1644854379.099931,22.000000,0.000000,4316.025879,4264.230957,4232.436035,4229.358887,4226.794922,4215.256348,4219.102539,4221.282227,4215.000000,4232.307617,4229.871582,4201.794922,4249.230957,4234.871582,3582.000000,4.000000,86.000000,,,,0.000000,4.000000,4.000000,4.000000,4.000000,4.000000,4.000000,4.000000,4.000000,4.000000,4.000000,4.000000,4.000000,4.000000,4.000000,100.000000,,,,,,,,,,,,,,,,
1644854379.103871,23.000000,0.000000,4320.000000,4267.051270,4234.102539,4232.307617,4235.128418,4215.641113,4218.077148,4222.307617,4215.128418,4234.743652,4210.769043,4200.769043,4247.563965,4232.563965,2385.000000,4.000000,86.000000,,,,0.000000,4.000000,4.000000,4.000000,4.000000,4.000000,4.000000,4.000000,4.000000,4.000000,4.000000,4.000000,4.000000,4.000000,4.000000,100.000000,,,,,,,,,,,,,,,,
1644854379.107811,24.000000,0.000000,4327.563965,4270.256348,4237.051270,4237.563965,4230.000000,4213.205078,4213.461426,4219.871582,4213.717773,4230.769043,4205.897461,4199.358887,4250.641113,4239.230957,3296.000000,4.000000,86.000000,,,,0.000000,4.000000,4.000000,4.000000,4.000000,4.000000,4.000000,4.000000,4.000000,4.000000,4.000000,4.000000,4.000000,4.000000,4.000000,100.000000,,,,,,,,,,,,,,,,
1644854379.111751,25.000000,0.000000,4340.897461,4276.025879,4238.974121,4245.769043,4213.333496,4206.794922,4208.589844,4215.128418,4210.641113,4220.897461,4221.025879,4197.948730,4258.461426,4254.487305,3459.000000,4.000000,86.000000,,,,0.000000,4.000000,4.000000,4.000000,4.000000,4.000000,4.000000,4.000000,4.000000,4.000000,4.000000,4.000000,4.000000,4.000000,4.000000,100.000000,,,,,,,,,,,,,,,,
1644854379.115691,26.000000,0.000000,4357.820313,4285.897461,4239.358887,4255.897461,4195.641113,4199.358887,4207.563965,4211.794922,4207.563965,4210.769043,4248.846191,4197.692383,4268.717773,4272.051270,3582.000000,4.000000,86.000000,,,,0.000000,4.000000,4.000000,4.000000,4.000000,4.000000,4.000000,4.000000,4.000000,4.000000,4.000000,4.000000,4.000000,4.000000,4.000000,100.000000,,,,,,,,,,,,,,,,
1644854379.119632,27.000000,0.000000,4373.589844,4298.333496,4239.615234,4267.051270,4187.307617,4196.025879,4210.384766,4212.307617,4206.153809,4205.769043,4273.077148,4200.641113,4277.051270,4282.307617,2385.000000,4.000000,86.000000,,,,0.000000,4.000000,4.000000,4.000000,4.000000,4.000000,4.000000,4.000000,4.000000,4.000000,4.000000,4.000000,4.000000,4.000000,4.000000,100.000000,,,,,,,,,,,,,,,,
1644854379.123572,28.000000,0.000000,4384.743652,4310.128418,4242.179688,4280.769043,4191.922852,4199.487305,4214.358887,4215.128418,4206.153809,4207.436035,4277.563965,4207.563965,4278.717773,4279.358887,3296.000000,4.000000,86.000000,,,,0.000000,4.000000,4.000000,4.000000,4.000000,4.000000,4.000000,4.000000,4.000000,4.000000,4.000000,4.000000,4.000000,4.000000,4.000000,100.000000,,,,,,,,,,,,,,,,
1644854379.127512,29.000000,0.000000,4391.538574,4319.102539,4248.333496,4299.615234,4204.230957,4207.948730,4216.794922,4217.307617,4206.153809,4212.692383,4258.717773,4216.666504,4272.563965,4266.794922,3459.000000,4.000000,86.000000,,,,0.000000,4.000000,4.000000,4.000000,4.000000,4.000000,4.000000,4.000000,4.000000,4.000000,4.000000,4.000000,4.000000,4.000000,4.000000,100.000000,,,,,,,,,,,,,,,,
1644854379.131452,30.000000,0.000000,4397.436035,4325.769043,4257.307617,4323.846191,4215.384766,4215.897461,4217.948730,4218.589844,4206.153809,4217.051270,4229.102539,4225.128418,4262.820313,4255.384766,3582.000000,4.000000,86.000000,,,,0.000000,4.000000,4.000000,4.000000,4.000000,4.000000,4.000000,4.000000,4.000000,4.000000,4.000000,4.000000,4.000000,4.000000,4.000000,100.000000,,,,,,,,,,,,,,,,
1644854379.135392,31.000000,0.000000,4406.025879,4332.179688,4265.384766,4348.717773,4219.230957,4218.333496,4218.846191,4220.769043,4207.307617,4218.589844,4208.589844,4231.282227,4256.794922,4255.000000,2385.000000,4.000000,86.000000,,,,0.000000,4.000000,4.000000,4.000000,4.000000,4.000000,4.000000,4.000000,4.000000,4.000000,4.000000,4.000000,4.000000,4.000000,4.000000,100.000000,,,,,,,,,,,,,,,,
1644854379.139332,32.000000,0.000000,4418.846191,4339.358887,4268.846191,4366.282227,4215.769043,4213.846191,4219.102539,4224.615234,4210.512695,4218.974121,4210.897461,4234.743652,4260.512695,4266.153809,0.000000,4.000000,86.000000,,,,0.000000,4.000000,4.000000,4.000000,4.000000,4.000000,4.000000,4.000000,4.000000,4.000000,4.000000,4.000000,4.000000,4.000000,4.000000,100.000000,,,,,,,,,,,,,,,,
1644854379.143272,33.000000,0.000000,4435.256348,4346.666504,4265.897461,4371.025879,4209.487305,4205.128418,4217.436035,4227.948730,4214.871582,4221.282227,4233.974121,4235.512695,4275.384766,4281.025879,0.000000,4.000000,86.000000,,,,0.000000,4.000000,4.000000,4.000000,4.000000,4.000000,4.000000,4.000000,4.000000,4.000000,4.000000,4.000000,4.000000,4.000000,4.000000,100.000000,,,,,,,,,,,,,,,,
1644854379.147212,34.000000,0.000000,4454.871582,4353.461426,4257.948730,4364.615234,4204.743652,4197.051270,4214.102539,4228.205078,4218.077148,4226.666504,4262.563965,4234.230957,4297.307617,4291.666504,0.000000,4.000000,86.000000,,,,0.000000,4.000000,4.000000,4.000000,4.000000,4.000000,4.000000,4.000000,4.000000,4.000000,4.000000,4.000000,4.000000,4.000000,4.000000,100.000000,,,,,,,,,,,,,,,,
1644854379.151152,35.000000,0.000000,4479.358887,4361.922852,4249.230957,4355.256348,4203.717773,4193.974121,4212.051270,4226.025879,4219.102539,4233.846191,4281.025879,4231.538574,4320.128418,4296.282227,0.000000,4.000000,86.000000,,,,0.000000,4.000000,4.000000,4.000000,4.000000,4.000000,4.000000,4.000000,4.000000,4.000000,4.000000,4.000000,4.000000,4.000000,4.000000,100.000000,,,,,,,,,,,,,,,,
1644854379.155093,36.000000,0.000000,4510.897461,4375.897461,4244.358887,4352.179688,4205.897461,4197.436035,4213.974121,4224.102539,4218.846191,4239.871582,4284.871582,4229.230957,4338.846191,4298.333496,0.000000,4.000000,86.000000,,,,0.000000,4.000000,4.000000,4.000000,4.000000,4.000000,4.000000,4.000000,4.000000,4.000000,4.000000,4.000000,4.000000,4.000000,4.000000,100.000000,,,,,,,,,,,,,,,,
1644854379.159133,37.000000,0.000000,4547.436035,4396.153809,4245.512695,4358.974121,4209.230957,4205.897461,4218.846191,4224.230957,4219.230957,4242.179688,4281.153809,4228.589844,4351.153809,4302.436035,0.000000,4.000000,86.000000,,,,0.000000,4.000000,4.000000,4.000000,4.000000,4.000000,4.000000,4.000000,4.000000,4.000000,4.000000,4.000000,4.000000,4.000000,4.000000,100.000000,,,,,,,,,,,,,,,,
1644854379.163073,38.000000,0.000000,4580.128418,4416.666504,4250.384766,4371.538574,4211.025879,4215.384766,4223.205078,4225.769043,4220.769043,4240.000000,4278.846191,4229.871582,4356.666504,4308.333496,0.000000,4.000000,86.000000,,,,0.000000,4.000000,4.000000,4.000000,4.000000,4.000000,4.000000,4.000000,4.000000,4.000000,4.000000,4.000000,4.000000,4.000000,4.000000,100.000000,,,,,,,,,,,,,,,,
1644854379.167013,39.000000,0.000000,4597.692383,4427.820313,4254.230957,4381.153809,4210.128418,4221.025879,4224.230957,4226.922852,4222.051270,4235.000000,4280.512695,4232.307617,4355.769043,4312.563965,0.000000,4.000000,86.000000,,,,0.000000,4.000000,4.000000,4.000000,4.000000,4.000000,4.000000,4.000000,4.000000,4.000000,4.000000,4.000000,4.000000,4.000000,4.000000,100.000000,,,,,,,,,,,,,,,,
1644854379.170953,40.000000,0.000000,4595.897461,4424.615234,4254.615234,4381.666504,4208.333496,4220.897461,4222.563965,4226.153809,4221.282227,4230.897461,4282.051270,4235.512695,4349.487305,4311.794922,0.000000,4.000000,86.000000,,,,0.000000,4.000000,4.000000,4.000000,4.000000,4.000000,4.000000,4.000000,4.000000,4.000000,4.000000,4.000000,4.000000,4.000000,4.000000,100.000000,,,,,,,,,,,,,,,,
1644854379.174893,41.000000,0.000000,4581.666504,4411.794922,4252.563965,4372.948730,4208.205078,4217.179688,4221.410156,4223.461426,4219.358887,4230.897461,4280.256348,4239.615234,4340.897461,4305.769043,0.000000,4.000000,86.000000,,,,0.000000,4.000000,4.000000,4.000000,4.000000,4.000000,4.000000,4.000000,4.000000,4.000000,4.000000,4.000000,4.000000,4.000000,4.000000,100.000000,,,,,,,,,,,,,,,,
1644854379.178833,42.000000,0.000000,4568.974121,4400.128418,4251.410156,4358.205078,4211.538574,4214.358887,4221.922852,4220.000000,4218.974121,4235.000000,4276.025879,4243.974121,4334.743652,4297.563965,0.000000,4.000000,86.000000,,,,0.000000,4.000000,4.000000,4.000000,4.000000,4.000000,4.000000,4.000000,4.000000,4.000000,4.000000,4.000000,4.000000,4.000000,4.000000,100.000000,,,,,,,,,,,,,,,,
1644854379.182773,43.000000,0.000000,4569.102539,4398.333496,4252.948730,4342.563965,4217.820313,4216.410156,4223.717773,4217.820313,4222.179688,4241.025879,4273.717773,4247.563965,4335.000000,4292.179688,0.000000,4.000000,86.000000,,,,0.000000,4.000000,4.000000,4.000000,4.000000,4.000000,4.000000,4.000000,4.000000,4.000000,4.000000,4.000000,4.000000,4.000000,4.000000,100.000000,,,,,,,,,,,,,,,,
1644854379.186713,44.000000,0.000000,4583.846191,4406.538574,4256.538574,4331.025879,4226.538574,4222.820313,4226.282227,4219.615234,4228.717773,4247.436035,4276.538574,4249.102539,4343.205078,4294.102539,0.000000,4.000000,86.000000,,,,0.000000,4.000000,4.000000,4.000000,4.000000,4.000000,4.000000,4.000000,4.000000,4.000000,4.000000,4.000000,4.000000,4.000000,4.000000,100.000000,,,,,,,,,,,,,,,,
1644854379.190653,45.000000,0.000000,4605.000000,4417.948730,4259.871582,4328.974121,4236.153809,4230.256348,4230.512695,4226.410156,4236.666504,4254.102539,4284.743652,4248.589844,4357.179688,4304.743652,0.000000,4.000000,86.000000,,,,0.000000,4.000000,4.000000,4.000000,4.000000,4.000000,4.000000,4.000000,4.000000,4.000000,4.000000,4.000000,4.000000,4.000000,4.000000,100.000000,,,,,,,,,,,,,,,,
1644854379.194593,46.000000,0.000000,4621.025879,4423.846191,4261.538574,4339.615234,4243.333496,4235.128418,4236.410156,4236.153809,4243.461426,4260.384766,4294.487305,4247.692383,4371.794922,4319.487305,0.000000,4.000000,86.000000,,,,0.000000,4.000000,4.000000,4.000000,4.000000,4.000000,4.000000,4.000000,4.000000,4.000000,4.000000,4.000000,4.000000,4.000000,4.000000,100.000000,,,,,,,,,,,,,,,,
1644854379.198534,47.000000,0.000000,4623.974121,4418.846191,4261.153809,4359.615234,4245.256348,4236.410156,4241.922852,4244.871582,4247.563965,4264.487305,4300.897461,4248.205078,4381.538574,4330.128418,0.000000,4.000000,86.000000,,,,0.000000,4.000000,4.000000,4.000000,4.000000,4.000000,4.000000,4.000000,4.000000,4.000000,4.000000,4.000000,4.000000,4.000000,4.000000,100.000000,,,,,,,,,,,,,,,,
1644854379.202474,48.000000,0.000000,4614.615234,4404.230957,4259.871582,4379.230957,4243.077148,4235.769043,4244.102539,4249.487305,4249.230957,4266.282227,4302.692383,4250.000000,4382.820313,4330.000000,0.000000,4.000000,86.000000,,,,0.000000,4.000000,4.000000,4.000000,4.000000,4.000000,4.000000,4.000000,4.000000,4.000000,4.000000,4.000000,4.000000,4.000000,4.000000,100.000000,,,,,,,,,,,,,,,,
1644854379.206414,49.000000,0.000000,4599.358887,4385.512695,4258.461426,4387.948730,4240.512695,4235.384766,4242.436035,4250.256348,4249.615234,4267.692383,4302.563965,4251.025879,4376.282227,4319.358887,0.000000,4.000000,86.000000,,,,0.000000,4.000000,4.000000,4.000000,4.000000,4.000000,4.000000,4.000000,4.000000,4.000000,4.000000,4.000000,4.000000,4.000000,4.000000,100.000000,,,,,,,,,,,,,,,,
1644854379.210354,50.000000,0.000000,4583.717773,4368.461426,4256.410156,4381.025879,4239.487305,4236.794922,4239.871582,4249.358887,4249.743652,4270.256348,4302.948730,4248.589844,4365.897461,4305.128418,0.000000,4.000000,86.000000,,,,0.000000,4.000000,4.000000,4.000000,4.000000,4.000000,4.000000,4.000000,4.000000,4.000000,4.000000,4.000000,4.000000,4.000000,4.000000,100.000000,,,,,,,,,,,,,,,,
1644854379.214294,51.000000,0.000000,4567.948730,4355.256348,4253.077148,4362.820313,4238.205078,4239.102539,4240.000000,4249.102539,4249.487305,4272.436035,4302.820313,4241.794922,4356.666504,4294.102539,0.000000,4.000000,86.000000,,,,0.000000,4.000000,4.000000,4.000000,4.000000,4.000000,4.000000,4.000000,4.000000,4.000000,4.000000,4.000000,4.000000,4.000000,4.000000,100.000000,,,,,,,,,,,,,,,,
1644854379.218234,52.000000,0.000000,4550.769043,4345.897461,4248.589844,4343.077148,4234.102539,4240.384766,4242.820313,4250.128418,4248.974121,4272.563965,4299.487305,4233.333496,4351.282227,4287.948730,0.000000,4.000000,86.000000,,,,0.000000,4.000000,4.000000,4.000000,4.000000,4.000000,4.000000,4.000000,4.000000,4.000000,4.000000,4.000000,4.000000,4.000000,4.000000,100.000000,,,,,,,,,,,,,,,,
1644854379.222174,53.000000,0.000000,4532.948730,4340.641113,4244.615234,4331.794922,4228.205078,4239.487305,4245.000000,4252.563965,4249.615234,4270.897461,4292.307617,4228.205078,4348.974121,4283.589844,0.000000,4.000000,86.000000,,,,0.000000,4.000000,4.000000,4.000000,4.000000,4.000000,4.000000,4.000000,4.000000,4.000000,4.000000,4.000000,4.000000,4.000000,4.000000,100.000000,,,,,,,,,,,,,,,,
1644854379.226114,54.000000,0.000000,4517.948730,4339.743652,4243.333496,4332.179688,4223.717773,4236.666504,4244.487305,4256.666504,4253.461426,4270.256348,4284.487305,4230.256348,4346.666504,4277.820313,0.000000,4.000000,86.000000,,,,0.000000,4.000000,4.000000,4.000000,4.000000,4.000000,4.000000,4.000000,4.000000,4.000000,4.000000,4.000000,4.000000,4.000000,4.000000,100.000000,1.000000,58.333332,1.000000,3.000000,4.000000,3.000000,3.000000,4.000000,4.000000,4.000000,4.000000,4.000000,3.000000,4.000000,4.000000,4.000000
1644854379.230154,55.000000,0.000000,4508.461426,4341.794922,4245.641113,4340.512695,4223.589844,4233.846191,4242.820313,4262.307617,4260.128418,4272.692383,4279.615234,4239.487305,4340.897461,4269.871582,0.000000,4.000000,86.000000,,,,0.000000,4.000000,4.000000,4.000000,4.000000,4.000000,4.000000,4.000000,4.000000,4.000000,4.000000,4.000000,4.000000,4.000000,4.000000,100.000000,,,,,,,,,,,,,,,,
1644854379.234094,56.000000,0.000000,4504.102539,4343.846191,4250.128418,4348.589844,4228.077148,4232.436035,4242.692383,4267.948730,4266.794922,4277.692383,4279.230957,4251.025879,4330.769043,4261.538574,0.000000,4.000000,86.000000,,,,0.000000,4.000000,4.000000,4.000000,4.000000,4.000000,4.000000,4.000000,4.000000,4.000000,4.000000,4.000000,4.000000,4.000000,4.000000,100.000000,,,,,,,,,,,,,,,,
1644854379.238035,57.000000,0.000000,4501.922852,4343.077148,4254.358887,4350.897461,4235.000000,4232.436035,4244.743652,4271.025879,4270.000000,4282.563965,4282.563965,4259.102539,4318.846191,4254.615234,0.000000,4.000000,86.000000,,,,0.000000,4.000000,4.000000,4.000000,4.000000,4.000000,4.000000,4.000000,4.000000,4.000000,4.000000,4.000000,4.000000,4.000000,4.000000,100.000000,,,,,,,,,,,,,,,,
1644854379.241975,58.000000,0.000000,4498.846191,4339.230957,4255.897461,4346.282227,4240.641113,4233.077148,4246.282227,4269.743652,4268.846191,4284.871582,4288.589844,4260.897461,4309.743652,4249.743652,0.000000,4.000000,86.000000,,,,0.000000,4.000000,4.000000,4.000000,4.000000,4.000000,4.000000,4.000000,4.000000,4.000000,4.000000,4.000000,4.000000,4.000000,4.000000,100.000000,,,,,,,,,,,,,,,,
1644854379.245915,59.000000,0.000000,4493.461426,4333.333496,4254.615234,4337.820313,4241.282227,4233.461426,4245.256348,4264.487305,4264.358887,4283.205078,4295.384766,4258.205078,4305.769043,4247.563965,0.000000,4.000000,86.000000,,,,0.000000,4.000000,4.000000,4.000000,4.000000,4.000000,4.000000,4.000000,4.000000,4.000000,4.000000,4.000000,4.000000,4.000000,4.000000,100.000000,,,,,,,,,,,,,,,,
1644854379.249855,60.000000,0.000000,4486.794922,4326.794922,4251.410156,4331.153809,4235.897461,4233.589844,4242.307617,4257.179688,4258.461426,4277.307617,4299.230957,4253.589844,4305.000000,4248.974121,0.000000,4.000000,86.000000,,,,0.000000,4.000000,4.000000,4.000000,4.000000,4.000000,4.000000,4.000000,4.000000,4.000000,4.000000,4.000000,4.000000,4.000000,4.000000,100.000000,,,,,,,,,,,,,,,,
1644854379.253795,61.000000,0.000000,4481.666504,4321.153809,4247.436035,4332.179688,4228.333496,4233.846191,4240.128418,4250.769043,4252.179688,4268.589844,4294.615234,4247.179688,4303.077148,4253.717773,0.000000,4.000000,86.000000,,,,0.000000,4.000000,4.000000,4.000000,4.000000,4.000000,4.000000,4.000000,4.000000,4.000000,4.000000,4.000000,4.000000,4.000000,4.000000,100.000000,,,,,,,,,,,,,,,,
