title:Alex-Q7UEMp58NtAS9N-mpzyidg, start timestamp:1644853706.926851, stop timestamp:1644853734.325945, headset type:EPOCPLUS, headset serial:3B9AEBFF, headset firmware:626, channels:55, sampling rate:eeg_256, samples:6955      , version:2.1, 
Timestamp,EEG.Counter,EEG.Interpolated,EEG.AF3,EEG.F7,EEG.F3,EEG.FC5,EEG.T7,EEG.P7,EEG.O1,EEG.O2,EEG.P8,EEG.T8,EEG.FC6,EEG.F4,EEG.F8,EEG.AF4,EEG.RawCq,EEG.Battery,EEG.BatteryPercent,MarkerIndex,MarkerType,MarkerValueInt,EEG.MarkerHardware,CQ.AF3,CQ.F7,CQ.F3,CQ.FC5,CQ.T7,CQ.P7,CQ.O1,CQ.O2,CQ.P8,CQ.T8,CQ.FC6,CQ.F4,CQ.F8,CQ.AF4,CQ.Overall,EQ.SampleRateQuality,EQ.OVERALL,EQ.AF3,EQ.F7,EQ.F3,EQ.FC5,EQ.T7,EQ.P7,EQ.O1,EQ.O2,EQ.P8,EQ.T8,EQ.FC6,EQ.F4,EQ.F8,EQ.AF4
1644853706.926851,178.000000,0.000000,4070.384521,4163.717773,4189.358887,4078.846191,4194.102539,4200.384766,4203.333496,4205.512695,4202.692383,4187.436035,4167.436035,4183.846191,4045.256348,3992.564209,3535.000000,4.000000,86.000000,,,,0.000000,4.000000,4.000000,4.000000,4.000000,4.000000,4.000000,4.000000,4.000000,4.000000,4.000000,4.000000,4.000000,4.000000,4.000000,100.000000,,,,,,,,,,,,,,,,
1644853706.930891,179.000000,0.000000,4068.974365,4159.230957,4189.230957,4077.051270,4186.025879,4200.512695,4202.051270,4205.256348,4201.922852,4185.769043,4161.922852,4185.256348,4044.358887,3988.718018,2554.000000,4.000000,86.000000,,,,0.000000,4.000000,4.000000,4.000000,4.000000,4.000000,4.000000,4.000000,4.000000,4.000000,4.000000,4.000000,4.000000,4.000000,4.000000,100.000000,,,,,,,,,,,,,,,,
1644853706.934831,180.000000,0.000000,4069.743652,4160.128418,4192.692383,4077.051270,4178.077148,4201.666504,4200.256348,4208.461426,4203.589844,4183.974121,4156.282227,4186.410156,4048.076904,3988.589844,3516.000000,4.000000,86.000000,,,,0.000000,4.000000,4.000000,4.000000,4.000000,4.000000,4.000000,4.000000,4.000000,4.000000,4.000000,4.000000,4.000000,4.000000,4.000000,100.000000,,,,,,,,,,,,,,,,
1644853706.938772,181.000000,0.000000,4071.666748,4165.256348,4197.563965,4077.051270,4173.974121,4202.563965,4200.256348,4213.974121,4206.794922,4182.820313,4154.230957,4186.794922,4052.564209,3991.923096,3488.000000,4.000000,86.000000,,,,0.000000,4.000000,4.000000,4.000000,4.000000,4.000000,4.000000,4.000000,4.000000,4.000000,4.000000,4.000000,4.000000,4.000000,4.000000,100.000000,,,,,,,,,,,,,,,,
1644853706.942712,182.000000,0.000000,4074.230713,4171.922852,4201.410156,4074.615479,4174.615234,4202.820313,4202.692383,4219.615234,4210.897461,4184.615234,4158.205078,4186.282227,4054.487061,3995.641113,3535.000000,4.000000,86.000000,,,,0.000000,4.000000,4.000000,4.000000,4.000000,4.000000,4.000000,4.000000,4.000000,4.000000,4.000000,4.000000,4.000000,4.000000,4.000000,100.000000,,,,,,,,,,,,,,,,
1644853706.946652,183.000000,0.000000,4077.051270,4178.077148,4202.820313,4069.487061,4179.358887,4202.563965,4205.769043,4222.563965,4215.384766,4190.769043,4166.282227,4185.384766,4052.820557,3996.666748,2554.000000,4.000000,86.000000,,,,0.000000,4.000000,4.000000,4.000000,4.000000,4.000000,4.000000,4.000000,4.000000,4.000000,4.000000,4.000000,4.000000,4.000000,4.000000,100.000000,,,,,,,,,,,,,,,,
1644853706.950592,184.000000,0.000000,4079.743652,4181.922852,4201.410156,4063.846191,4185.897461,4202.436035,4207.051270,4221.922852,4218.846191,4199.487305,4173.589844,4185.384766,4049.871826,3994.102539,3516.000000,4.000000,86.000000,,,,0.000000,4.000000,4.000000,4.000000,4.000000,4.000000,4.000000,4.000000,4.000000,4.000000,4.000000,4.000000,4.000000,4.000000,4.000000,100.000000,,,,,,,,,,,,,,,,
1644853706.954532,185.000000,0.000000,4080.512939,4182.307617,4198.589844,4060.897461,4191.153809,4202.307617,4206.153809,4218.205078,4220.000000,4206.025879,4175.512695,4186.922852,4048.461426,3990.384521,3488.000000,4.000000,86.000000,,,,0.000000,4.000000,4.000000,4.000000,4.000000,4.000000,4.000000,4.000000,4.000000,4.000000,4.000000,4.000000,4.000000,4.000000,4.000000,100.000000,,,,,,,,,,,,,,,,
1644853706.958472,186.000000,0.000000,4078.205078,4179.358887,4196.282227,4063.718018,4192.948730,4201.666504,4204.743652,4213.077148,4217.563965,4206.153809,4171.410156,4189.230957,4050.256348,3988.589844,3535.000000,4.000000,86.000000,,,,0.000000,4.000000,4.000000,4.000000,4.000000,4.000000,4.000000,4.000000,4.000000,4.000000,4.000000,4.000000,4.000000,4.000000,4.000000,100.000000,,,,,,,,,,,,,,,,
1644853706.962412,187.000000,0.000000,4074.102539,4175.384766,4195.769043,4072.564209,4191.410156,4200.769043,4203.846191,4208.846191,4212.563965,4200.000000,4165.000000,4190.897461,4054.871826,3990.256348,2554.000000,4.000000,86.000000,,,,0.000000,4.000000,4.000000,4.000000,4.000000,4.000000,4.000000,4.000000,4.000000,4.000000,4.000000,4.000000,4.000000,4.000000,4.000000,100.000000,,,,,,,,,,,,,,,,
1644853706.966352,188.000000,0.000000,4071.794922,4173.461426,4196.922852,4082.692383,4189.102539,4199.871582,4202.820313,4207.051270,4208.077148,4192.436035,4161.538574,4190.769043,4059.871826,3994.487061,3516.000000,4.000000,86.000000,,,,0.000000,4.000000,4.000000,4.000000,4.000000,4.000000,4.000000,4.000000,4.000000,4.000000,4.000000,4.000000,4.000000,4.000000,4.000000,100.000000,,,,,,,,,,,,,,,,
1644853706.970292,189.000000,0.000000,4073.718018,4175.128418,4198.717773,4087.948730,4188.205078,4199.871582,4201.410156,4208.205078,4206.922852,4189.230957,4163.205078,4189.615234,4062.692383,3998.974365,3488.000000,4.000000,86.000000,,,,0.000000,4.000000,4.000000,4.000000,4.000000,4.000000,4.000000,4.000000,4.000000,4.000000,4.000000,4.000000,4.000000,4.000000,4.000000,100.000000,,,,,,,,,,,,,,,,
1644853706.974232,190.000000,0.000000,4078.718018,4177.948730,4200.128418,4085.641113,4188.974121,4200.769043,4200.512695,4211.025879,4209.487305,4192.051270,4168.717773,4188.846191,4062.179443,4001.666748,3535.000000,4.000000,86.000000,,,,0.000000,4.000000,4.000000,4.000000,4.000000,4.000000,4.000000,4.000000,4.000000,4.000000,4.000000,4.000000,4.000000,4.000000,4.000000,100.000000,,,,,,,,,,,,,,,,
1644853706.978173,191.000000,0.000000,4083.076904,4179.102539,4200.769043,4078.589844,4189.102539,4202.436035,4201.538574,4214.487305,4213.077148,4197.563965,4173.846191,4189.358887,4058.974365,4001.281982,2554.000000,4.000000,86.000000,,,,0.000000,4.000000,4.000000,4.000000,4.000000,4.000000,4.000000,4.000000,4.000000,4.000000,4.000000,4.000000,4.000000,4.000000,4.000000,100.000000,,,,,,,,,,,,,,,,
1644853706.982113,192.000000,0.000000,4083.461426,4177.436035,4200.641113,4072.820557,4186.922852,4204.358887,4204.358887,4217.436035,4215.000000,4200.897461,4174.615234,4190.897461,4056.153809,3997.307617,3516.000000,4.000000,86.000000,,,,0.000000,4.000000,4.000000,4.000000,4.000000,4.000000,4.000000,4.000000,4.000000,4.000000,4.000000,4.000000,4.000000,4.000000,4.000000,100.000000,,,,,,,,,,,,,,,,
1644853706.986053,193.000000,0.000000,4080.128174,4174.615234,4199.615234,4072.307617,4183.205078,4205.512695,4206.025879,4218.717773,4213.974121,4199.358887,4170.128418,4192.692383,4056.025635,3991.153809,3488.000000,4.000000,86.000000,,,,0.000000,4.000000,4.000000,4.000000,4.000000,4.000000,4.000000,4.000000,4.000000,4.000000,4.000000,4.000000,4.000000,4.000000,4.000000,100.000000,,,,,,,,,,,,,,,,
1644853706.989993,194.000000,0.000000,4075.897461,4172.563965,4197.307617,4075.000000,4180.256348,4205.256348,4204.615234,4217.692383,4211.025879,4194.487305,4163.077148,4193.846191,4058.846191,3985.128174,3535.000000,4.000000,86.000000,,,,0.000000,4.000000,4.000000,4.000000,4.000000,4.000000,4.000000,4.000000,4.000000,4.000000,4.000000,4.000000,4.000000,4.000000,4.000000,100.000000,,,,,,,,,,,,,,,,
1644853706.993933,195.000000,0.000000,4073.461426,4171.153809,4193.974121,4075.897461,4179.487305,4203.717773,4201.153809,4214.230957,4207.692383,4190.128418,4157.563965,4194.102539,4061.410156,3982.051270,2554.000000,4.000000,86.000000,,,,0.000000,4.000000,4.000000,4.000000,4.000000,4.000000,4.000000,4.000000,4.000000,4.000000,4.000000,4.000000,4.000000,4.000000,4.000000,100.000000,,,,,,,,,,,,,,,,
1644853706.997873,196.000000,0.000000,4073.718018,4170.000000,4190.641113,4071.794922,4181.538574,4201.410156,4198.717773,4209.615234,4205.256348,4189.358887,4155.641113,4192.948730,4060.128174,3982.179443,3516.000000,4.000000,86.000000,,,,0.000000,4.000000,4.000000,4.000000,4.000000,4.000000,4.000000,4.000000,4.000000,4.000000,4.000000,4.000000,4.000000,4.000000,4.000000,100.000000,,,,,,,,,,,,,,,,
1644853707.001913,197.000000,0.000000,4076.153809,4170.128418,4188.461426,4064.743652,4186.153809,4199.487305,4199.102539,4206.153809,4203.846191,4192.307617,4155.897461,4190.256348,4054.487061,3982.435791,3488.000000,4.000000,86.000000,,,,0.000000,4.000000,4.000000,4.000000,4.000000,4.000000,4.000000,4.000000,4.000000,4.000000,4.000000,4.000000,4.000000,4.000000,4.000000,100.000000,,,,,,,,,,,,,,,,
1644853707.005853,198.000000,0.000000,4079.743652,4173.333496,4188.461426,4059.615479,4193.333496,4198.974121,4200.769043,4205.897461,4203.974121,4196.410156,4155.256348,4187.179688,4048.333252,3979.230713,3535.000000,4.000000,86.000000,,,,0.000000,4.000000,4.000000,4.000000,4.000000,4.000000,4.000000,4.000000,4.000000,4.000000,4.000000,4.000000,4.000000,4.000000,4.000000,100.000000,,,,,,,,,,,,,,,,
1644853707.009793,199.000000,0.000000,4083.205078,4179.743652,4191.025879,4060.256348,4200.897461,4199.871582,4201.282227,4209.230957,4205.769043,4198.333496,4151.794922,4185.897461,4045.897461,3972.692383,2554.000000,4.000000,86.000000,,,,0.000000,4.000000,4.000000,4.000000,4.000000,4.000000,4.000000,4.000000,4.000000,4.000000,4.000000,4.000000,4.000000,4.000000,4.000000,100.000000,,,,,,,,,,,,,,,,
1644853707.013733,200.000000,0.000000,4085.000000,4186.410156,4194.615234,4064.871826,4205.256348,4201.410156,4200.384766,4213.846191,4208.717773,4196.025879,4146.794922,4187.307617,4048.333252,3966.538574,3516.000000,4.000000,86.000000,,,,0.000000,4.000000,4.000000,4.000000,4.000000,4.000000,4.000000,4.000000,4.000000,4.000000,4.000000,4.000000,4.000000,4.000000,4.000000,100.000000,,,,,,,,,,,,,,,,
1644853707.017674,201.000000,0.000000,4083.846191,4188.333496,4196.794922,4068.589844,4203.205078,4202.563965,4199.743652,4216.538574,4211.153809,4190.256348,4143.846191,4189.487305,4052.564209,3964.487061,3488.000000,4.000000,86.000000,,,,0.000000,4.000000,4.000000,4.000000,4.000000,4.000000,4.000000,4.000000,4.000000,4.000000,4.000000,4.000000,4.000000,4.000000,4.000000,100.000000,,,,,,,,,,,,,,,,
1644853707.021614,202.000000,0.000000,4079.358887,4182.692383,4195.256348,4066.666748,4195.128418,4202.436035,4200.769043,4215.256348,4210.769043,4183.717773,4146.025879,4189.487305,4054.230713,3966.410156,3535.000000,4.000000,86.000000,,,,0.000000,4.000000,4.000000,4.000000,4.000000,4.000000,4.000000,4.000000,4.000000,4.000000,4.000000,4.000000,4.000000,4.000000,4.000000,100.000000,,,,,,,,,,,,,,,,
1644853707.025554,203.000000,0.000000,4073.461426,4171.153809,4190.000000,4058.461426,4185.641113,4200.897461,4201.922852,4210.512695,4207.307617,4179.230957,4153.077148,4186.282227,4051.538574,3968.461426,2554.000000,4.000000,86.000000,,,,0.000000,4.000000,4.000000,4.000000,4.000000,4.000000,4.000000,4.000000,4.000000,4.000000,4.000000,4.000000,4.000000,4.000000,4.000000,100.000000,,,,,,,,,,,,,,,,
1644853707.029494,204.000000,0.000000,4068.718018,4159.615234,4183.205078,4048.205078,4180.384766,4198.717773,4201.153809,4205.000000,4202.820313,4178.077148,4161.410156,4181.025879,4047.051270,3967.179443,3516.000000,4.000000,86.000000,,,,0.000000,4.000000,4.000000,4.000000,4.000000,4.000000,4.000000,4.000000,4.000000,4.000000,4.000000,4.000000,4.000000,4.000000,4.000000,100.000000,,,,,,,,,,,,,,,,
1644853707.033434,205.000000,0.000000,4066.538574,4153.333496,4178.205078,4042.435791,4182.436035,4197.179688,4199.358887,4202.307617,4200.641113,4179.102539,4165.897461,4176.282227,4044.358887,3963.076904,3488.000000,4.000000,86.000000,,,,0.000000,4.000000,4.000000,4.000000,4.000000,4.000000,4.000000,4.000000,4.000000,4.000000,4.000000,4.000000,4.000000,4.000000,4.000000,100.000000,,,,,,,,,,,,,,,,
1644853707.037374,206.000000,0.000000,4066.538574,4153.974121,4177.563965,4045.769287,4190.641113,4196.922852,4199.102539,4204.358887,4202.051270,4180.769043,4163.333496,4174.230957,4045.512939,3959.615479,3535.000000,4.000000,86.000000,,,,0.000000,4.000000,4.000000,4.000000,4.000000,4.000000,4.000000,4.000000,4.000000,4.000000,4.000000,4.000000,4.000000,4.000000,4.000000,100.000000,,,,,,,,,,,,,,,,
1644853707.041314,207.000000,0.000000,4067.820557,4159.230957,4181.410156,4057.179443,4200.000000,4197.692383,4202.179688,4210.000000,4205.769043,4182.948730,4155.384766,4175.128418,4049.487061,3959.487061,2554.000000,4.000000,86.000000,,,,0.000000,4.000000,4.000000,4.000000,4.000000,4.000000,4.000000,4.000000,4.000000,4.000000,4.000000,4.000000,4.000000,4.000000,4.000000,100.000000,,,,,,,,,,,,,,,,
1644853707.045254,208.000000,0.000000,4070.000000,4164.871582,4187.820313,4069.743652,4205.256348,4198.974121,4206.410156,4215.769043,4209.230957,4186.025879,4147.820313,4178.077148,4053.589844,3962.179443,3516.000000,4.000000,86.000000,,,,0.000000,4.000000,4.000000,4.000000,4.000000,4.000000,4.000000,4.000000,4.000000,4.000000,4.000000,4.000000,4.000000,4.000000,4.000000,100.000000,,,,,,,,,,,,,,,,
1644853707.049194,209.000000,0.000000,4072.948730,4167.692383,4193.589844,4075.897461,4203.717773,4200.769043,4208.077148,4217.820313,4210.384766,4189.743652,4146.922852,4180.897461,4055.641113,3964.871826,3488.000000,4.000000,86.000000,,,,0.000000,4.000000,4.000000,4.000000,4.000000,4.000000,4.000000,4.000000,4.000000,4.000000,4.000000,4.000000,4.000000,4.000000,4.000000,100.000000,,,,,,,,,,,,,,,,
1644853707.053134,210.000000,0.000000,4076.025635,4167.179688,4195.897461,4072.307617,4196.666504,4202.436035,4206.410156,4215.128418,4209.230957,4192.563965,4153.461426,4181.538574,4054.487061,3966.666748,3535.000000,4.000000,86.000000,,,,0.000000,4.000000,4.000000,4.000000,4.000000,4.000000,4.000000,4.000000,4.000000,4.000000,4.000000,4.000000,4.000000,4.000000,4.000000,100.000000,,,,,,,,,,,,,,,,
1644853707.057075,211.000000,0.000000,4077.564209,4165.256348,4193.974121,4061.281982,4187.820313,4203.077148,4203.717773,4210.000000,4207.307617,4192.179688,4161.538574,4178.974121,4050.769287,3967.820557,2554.000000,4.000000,86.000000,,,,0.000000,4.000000,4.000000,4.000000,4.000000,4.000000,4.000000,4.000000,4.000000,4.000000,4.000000,4.000000,4.000000,4.000000,4.000000,100.000000,,,,,,,,,,,,,,,,
1644853707.061015,212.000000,0.000000,4075.897461,4163.461426,4189.102539,4049.230713,4182.051270,4201.666504,4202.692383,4206.410156,4206.282227,4188.077148,4163.589844,4174.358887,4047.307617,3968.718018,3516.000000,4.000000,86.000000,,,,0.000000,4.000000,4.000000,4.000000,4.000000,4.000000,4.000000,4.000000,4.000000,4.000000,4.000000,4.000000,4.000000,4.000000,4.000000,100.000000,,,,,,,,,,,,,,,,
1644853707.064955,213.000000,0.000000,4070.897461,4162.307617,4183.717773,4042.435791,4183.077148,4198.589844,4203.077148,4206.410156,4206.794922,4182.436035,4157.820313,4170.256348,4047.179443,3967.692383,3488.000000,4.000000,86.000000,,,,0.000000,4.000000,4.000000,4.000000,4.000000,4.000000,4.000000,4.000000,4.000000,4.000000,4.000000,4.000000,4.000000,4.000000,4.000000,100.000000,,,,,,,,,,,,,,,,
1644853707.068895,214.000000,0.000000,4064.358887,4160.384766,4179.102539,4043.461426,4190.512695,4195.128418,4202.436035,4208.974121,4207.948730,4179.230957,4148.077148,4168.589844,4051.025635,3963.461426,3535.000000,4.000000,86.000000,,,,0.000000,4.000000,4.000000,4.000000,4.000000,4.000000,4.000000,4.000000,4.000000,4.000000,4.000000,4.000000,4.000000,4.000000,4.000000,100.000000,,,,,,,,,,,,,,,,
1644853707.072835,215.000000,0.000000,4059.102539,4157.436035,4176.410156,4051.025635,4199.743652,4193.077148,4200.128418,4211.538574,4207.948730,4180.256348,4140.641113,4169.615234,4055.769287,3957.307617,2554.000000,4.000000,86.000000,,,,0.000000,4.000000,4.000000,4.000000,4.000000,4.000000,4.000000,4.000000,4.000000,4.000000,4.000000,4.000000,4.000000,4.000000,4.000000,100.000000,,,,,,,,,,,,,,,,
1644853707.076675,216.000000,0.000000,4058.076904,4155.512695,4176.538574,4060.128174,4203.974121,4193.589844,4198.077148,4212.563965,4206.666504,4184.358887,4138.846191,4172.692383,4057.948730,3953.589844,3516.000000,4.000000,86.000000,,,,0.000000,4.000000,4.000000,4.000000,4.000000,4.000000,4.000000,4.000000,4.000000,4.000000,4.000000,4.000000,4.000000,4.000000,4.000000,100.000000,,,,,,,,,,,,,,,,
1644853707.080615,217.000000,0.000000,4062.564209,4156.922852,4180.128418,4065.641113,4199.487305,4196.025879,4199.102539,4212.307617,4205.897461,4188.717773,4142.436035,4176.794922,4056.666748,3955.769287,3488.000000,4.000000,86.000000,,,,0.000000,4.000000,4.000000,4.000000,4.000000,4.000000,4.000000,4.000000,4.000000,4.000000,4.000000,4.000000,4.000000,4.000000,4.000000,100.000000,,,,,,,,,,,,,,,,
1644853707.084555,218.000000,0.000000,4071.538574,4162.051270,4186.666504,4064.230713,4187.563965,4198.589844,4203.077148,4212.307617,4208.205078,4191.538574,4148.589844,4181.410156,4054.358887,3963.718018,3535.000000,4.000000,86.000000,,,,0.000000,4.000000,4.000000,4.000000,4.000000,4.000000,4.000000,4.000000,4.000000,4.000000,4.000000,4.000000,4.000000,4.000000,4.000000,100.000000,,,,,,,,,,,,,,,,
1644853707.088496,219.000000,0.000000,4080.769287,4168.589844,4193.205078,4056.794922,4174.743652,4199.871582,4206.794922,4213.589844,4213.205078,4193.205078,4155.128418,4185.897461,4053.974365,3973.718018,2554.000000,4.000000,86.000000,,,,0.000000,4.000000,4.000000,4.000000,4.000000,4.000000,4.000000,4.000000,4.000000,4.000000,4.000000,4.000000,4.000000,4.000000,4.000000,100.000000,,,,,,,,,,,,,,,,
1644853707.092436,220.000000,0.000000,4086.025635,4172.692383,4196.666504,4048.205078,4168.589844,4199.615234,4207.948730,4215.641113,4218.205078,4194.743652,4161.025879,4189.230957,4056.281982,3981.281982,3516.000000,4.000000,86.000000,,,,0.000000,4.000000,4.000000,4.000000,4.000000,4.000000,4.000000,4.000000,4.000000,4.000000,4.000000,4.000000,4.000000,4.000000,4.000000,100.000000,,,,,,,,,,,,,,,,
1644853707.096376,221.000000,0.000000,4085.641113,4172.563965,4195.641113,4044.487061,4173.461426,4198.974121,4206.410156,4217.563965,4220.256348,4196.282227,4165.512695,4190.512695,4059.487061,3983.846191,3488.000000,4.000000,86.000000,,,,0.000000,4.000000,4.000000,4.000000,4.000000,4.000000,4.000000,4.000000,4.000000,4.000000,4.000000,4.000000,4.000000,4.000000,4.000000,100.000000,,,,,,,,,,,,,,,,
1644853707.100316,222.000000,0.000000,4081.666748,4169.487305,4192.051270,4048.718018,4186.794922,4198.974121,4204.102539,4218.974121,4219.102539,4197.307617,4168.077148,4189.871582,4062.051270,3982.307617,3535.000000,4.000000,86.000000,,,,0.000000,4.000000,4.000000,4.000000,4.000000,4.000000,4.000000,4.000000,4.000000,4.000000,4.000000,4.000000,4.000000,4.000000,4.000000,100.000000,,,,,,,,,,,,,,,,
1644853707.104256,223.000000,0.000000,4078.205078,4166.666504,4189.102539,4059.102539,4200.897461,4200.256348,4202.563965,4219.871582,4217.307617,4197.692383,4168.717773,4188.974121,4064.358887,3979.743652,2554.000000,4.000000,86.000000,,,,0.000000,4.000000,4.000000,4.000000,4.000000,4.000000,4.000000,4.000000,4.000000,4.000000,4.000000,4.000000,4.000000,4.000000,4.000000,100.000000,,,,,,,,,,,,,,,,
1644853707.108196,224.000000,0.000000,4077.692383,4167.051270,4188.205078,4069.358887,4208.461426,4201.922852,4201.538574,4220.384766,4217.820313,4198.461426,4168.077148,4189.102539,4067.692383,3979.102539,3516.000000,4.000000,86.000000,,,,0.000000,4.000000,4.000000,4.000000,4.000000,4.000000,4.000000,4.000000,4.000000,4.000000,4.000000,4.000000,4.000000,4.000000,4.000000,100.000000,,,,,,,,,,,,,,,,
1644853707.112136,225.000000,0.000000,4080.384521,4171.538574,4189.615234,4073.589844,4207.820313,4202.692383,4201.410156,4220.641113,4220.512695,4201.282227,4166.538574,4190.384766,4072.051270,3981.794922,3488.000000,4.000000,86.000000,,,,0.000000,4.000000,4.000000,4.000000,4.000000,4.000000,4.000000,4.000000,4.000000,4.000000,4.000000,4.000000,4.000000,4.000000,4.000000,100.000000,,,,,,,,,,,,,,,,
1644853707.116076,226.000000,0.000000,4084.358887,4177.307617,4192.179688,4070.128174,4202.692383,4201.282227,4203.077148,4220.641113,4222.436035,4205.769043,4164.871582,4192.307617,4076.025635,3986.538574,3535.000000,4.000000,86.000000,,,,0.000000,4.000000,4.000000,4.000000,4.000000,4.000000,4.000000,4.000000,4.000000,4.000000,4.000000,4.000000,4.000000,4.000000,4.000000,100.000000,,,,,,,,,,,,,,,,
1644853707.120016,227.000000,0.000000,4088.076904,4181.025879,4194.230957,4061.794922,4198.589844,4198.589844,4206.666504,4220.641113,4221.282227,4210.128418,4164.743652,4193.846191,4077.179443,3990.384521,2554.000000,4.000000,86.000000,,,,0.000000,4.000000,4.000000,4.000000,4.000000,4.000000,4.000000,4.000000,4.000000,4.000000,4.000000,4.000000,4.000000,4.000000,4.000000,100.000000,,,,,,,,,,,,,,,,
1644853707.123956,228.000000,0.000000,4090.641113,4181.025879,4194.871582,4054.358887,4197.948730,4197.563965,4210.256348,4220.384766,4217.436035,4211.794922,4167.820313,4195.384766,4075.128174,3990.000000,3516.000000,4.000000,86.000000,,,,0.000000,4.000000,4.000000,4.000000,4.000000,4.000000,4.000000,4.000000,4.000000,4.000000,4.000000,4.000000,4.000000,4.000000,4.000000,100.000000,,,,,,,,,,,,,,,,
1644853707.127897,229.000000,0.000000,4092.051270,4178.717773,4194.358887,4052.307617,4199.358887,4200.384766,4211.538574,4220.128418,4213.589844,4210.128418,4173.846191,4197.563965,4072.307617,3985.897461,3488.000000,4.000000,86.000000,,,,0.000000,4.000000,4.000000,4.000000,4.000000,4.000000,4.000000,4.000000,4.000000,4.000000,4.000000,4.000000,4.000000,4.000000,4.000000,100.000000,,,,,,,,,,,,,,,,
1644853707.131837,230.000000,0.000000,4092.435791,4177.051270,4194.743652,4057.051270,4200.384766,4206.025879,4210.128418,4220.128418,4212.307617,4206.666504,4179.871582,4200.512695,4072.692383,3982.051270,3535.000000,4.000000,86.000000,,,,0.000000,4.000000,4.000000,4.000000,4.000000,4.000000,4.000000,4.000000,4.000000,4.000000,4.000000,4.000000,4.000000,4.000000,4.000000,100.000000,,,,,,,,,,,,,,,,
1644853707.135777,231.000000,0.000000,4092.051270,4177.436035,4197.436035,4066.153809,4199.487305,4210.897461,4208.333496,4220.897461,4213.974121,4203.717773,4183.333496,4202.820313,4077.435791,3983.589844,2554.000000,4.000000,86.000000,,,,0.000000,4.000000,4.000000,4.000000,4.000000,4.000000,4.000000,4.000000,4.000000,4.000000,4.000000,4.000000,4.000000,4.000000,4.000000,100.000000,,,,,,,,,,,,,,,,
1644853707.139717,232.000000,0.000000,4090.897461,4178.974121,4201.538574,4074.871826,4197.948730,4211.410156,4208.974121,4222.051270,4216.538574,4202.820313,4183.205078,4202.563965,4083.974365,3991.025635,3516.000000,4.000000,86.000000,,,,0.000000,4.000000,4.000000,4.000000,4.000000,4.000000,4.000000,4.000000,4.000000,4.000000,4.000000,4.000000,4.000000,4.000000,4.000000,100.000000,,,,,,,,,,,,,,,,
1644853707.143657,233.000000,0.000000,4089.615479,4179.743652,4204.102539,4079.358887,4197.307617,4207.051270,4211.153809,4222.820313,4217.692383,4203.974121,4180.641113,4199.230957,4087.179443,3999.358887,3488.000000,4.000000,86.000000,,,,0.000000,4.000000,4.000000,4.000000,4.000000,4.000000,4.000000,4.000000,4.000000,4.000000,4.000000,4.000000,4.000000,4.000000,4.000000,100.000000,,,,,,,,,,,,,,,,
1644853707.147697,234.000000,0.000000,4088.718018,4179.102539,4202.692383,4078.846191,4198.333496,4201.538574,4212.051270,4221.794922,4216.922852,4205.897461,4177.436035,4194.487305,4083.846191,4002.564209,3535.000000,4.000000,86.000000,,,,0.000000,4.000000,4.000000,4.000000,4.000000,4.000000,4.000000,4.000000,4.000000,4.000000,4.000000,4.000000,4.000000,4.000000,4.000000,100.000000,,,,,,,,,,,,,,,,
1644853707.151637,235.000000,0.000000,4088.846191,4177.692383,4198.077148,4076.153809,4200.769043,4198.974121,4210.256348,4219.615234,4216.025879,4206.410156,4174.615234,4191.025879,4075.256348,3999.487061,2554.000000,4.000000,86.000000,,,,0.000000,4.000000,4.000000,4.000000,4.000000,4.000000,4.000000,4.000000,4.000000,4.000000,4.000000,4.000000,4.000000,4.000000,4.000000,100.000000,,,,,,,,,,,,,,,,
1644853707.155577,236.000000,0.000000,4090.000000,4176.794922,4194.358887,4075.384521,4203.974121,4201.025879,4208.077148,4218.461426,4216.410156,4204.487305,4171.794922,4190.512695,4066.153809,3994.230713,3516.000000,4.000000,86.000000,,,,0.000000,4.000000,4.000000,4.000000,4.000000,4.000000,4.000000,4.000000,4.000000,4.000000,4.000000,4.000000,4.000000,4.000000,4.000000,100.000000,,,,,,,,,,,,,,,,
1644853707.159517,237.000000,0.000000,4091.153809,4176.922852,4194.487305,4077.692383,4207.692383,4206.153809,4208.846191,4220.128418,4218.333496,4200.897461,4168.717773,4191.666504,4061.666748,3991.923096,3488.000000,4.000000,86.000000,,,,0.000000,4.000000,4.000000,4.000000,4.000000,4.000000,4.000000,4.000000,4.000000,4.000000,4.000000,4.000000,4.000000,4.000000,4.000000,100.000000,,,,,,,,,,,,,,,,
1644853707.163457,238.000000,0.000000,4090.897461,4177.563965,4198.077148,4079.871826,4211.025879,4211.025879,4213.077148,4224.230957,4220.384766,4197.948730,4165.384766,4191.666504,4063.974365,3993.333252,3535.000000,4.000000,86.000000,,,,0.000000,4.000000,4.000000,4.000000,4.000000,4.000000,4.000000,4.000000,4.000000,4.000000,4.000000,4.000000,4.000000,4.000000,4.000000,100.000000,,,,,,,,,,,,,,,,
1644853707.167398,239.000000,0.000000,4089.743652,4178.461426,4201.153809,4077.051270,4212.307617,4213.589844,4217.179688,4227.948730,4221.666504,4197.179688,4163.205078,4189.358887,4070.897461,3995.897461,2554.000000,4.000000,86.000000,,,,0.000000,4.000000,4.000000,4.000000,4.000000,4.000000,4.000000,4.000000,4.000000,4.000000,4.000000,4.000000,4.000000,4.000000,4.000000,100.000000,,,,,,,,,,,,,,,,
1644853707.171338,240.000000,0.000000,4089.358887,4179.358887,4200.641113,4067.307617,4210.384766,4213.333496,4217.692383,4228.333496,4222.179688,4198.333496,4164.358887,4185.897461,4077.692383,3997.307617,3516.000000,4.000000,86.000000,,,,0.000000,4.000000,4.000000,4.000000,4.000000,4.000000,4.000000,4.000000,4.000000,4.000000,4.000000,4.000000,4.000000,4.000000,4.000000,100.000000,,,,,,,,,,,,,,,,
1644853707.175278,241.000000,0.000000,4091.153809,4180.641113,4196.410156,4054.871826,4205.512695,4211.153809,4214.871582,4225.897461,4222.307617,4199.743652,4168.974121,4183.589844,4080.256348,3998.461426,3488.000000,4.000000,86.000000,,,,0.000000,4.000000,4.000000,4.000000,4.000000,4.000000,4.000000,4.000000,4.000000,4.000000,4.000000,4.000000,4.000000,4.000000,4.000000,100.000000,,,,,,,,,,,,,,,,
1644853707.179218,242.000000,0.000000,4094.871826,4181.538574,4191.538574,4046.794922,4200.256348,4208.717773,4212.307617,4222.820313,4222.179688,4199.743652,4174.230957,4183.846191,4077.692383,4001.923096,3535.000000,4.000000,86.000000,,,,0.000000,4.000000,4.000000,4.000000,4.000000,4.000000,4.000000,4.000000,4.000000,4.000000,4.000000,4.000000,4.000000,4.000000,4.000000,100.000000,,,,,,,,,,,,,,,,
1644853707.183158,243.000000,0.000000,4098.589844,4181.153809,4189.102539,4048.589844,4198.077148,4207.563965,4212.563965,4221.282227,4221.666504,4197.820313,4176.538574,4186.666504,4072.948730,4007.692383,2554.000000,4.000000,86.000000,,,,0.000000,4.000000,4.000000,4.000000,4.000000,4.000000,4.000000,4.000000,4.000000,4.000000,4.000000,4.000000,4.000000,4.000000,4.000000,100.000000,,,,,,,,,,,,,,,,
1644853707.187098,244.000000,0.000000,4100.384766,4178.974121,4190.641113,4060.128174,4202.179688,4208.333496,4214.615234,4221.153809,4221.666504,4195.641113,4175.384766,4190.128418,4069.871826,4012.435791,3516.000000,4.000000,86.000000,,,,0.000000,4.000000,4.000000,4.000000,4.000000,4.000000,4.000000,4.000000,4.000000,4.000000,4.000000,4.000000,4.000000,4.000000,4.000000,100.000000,,,,,,,,,,,,,,,,
1644853707.191038,245.000000,0.000000,4099.358887,4176.153809,4194.358887,4074.743652,4211.538574,4210.512695,4216.538574,4221.025879,4222.307617,4194.871582,4173.205078,4192.307617,4070.512939,4013.076904,3488.000000,4.000000,86.000000,,,,0.000000,4.000000,4.000000,4.000000,4.000000,4.000000,4.000000,4.000000,4.000000,4.000000,4.000000,4.000000,4.000000,4.000000,4.000000,100.000000,,,,,,,,,,,,,,,,
1644853707.194978,246.000000,0.000000,4096.153809,4173.717773,4197.436035,4083.205078,4220.641113,4212.820313,4217.307617,4220.512695,4223.205078,4195.641113,4172.820313,4191.538574,4072.692383,4009.615479,3535.000000,4.000000,86.000000,,,,0.000000,4.000000,4.000000,4.000000,4.000000,4.000000,4.000000,4.000000,4.000000,4.000000,4.000000,4.000000,4.000000,4.000000,4.000000,100.000000,,,,,,,,,,,,,,,,
1644853707.198918,247.000000,0.000000,4092.307617,4172.436035,4197.563965,4080.769287,4223.077148,4214.487305,4217.436035,4220.000000,4223.717773,4196.794922,4174.358887,4188.846191,4073.333252,4005.384521,2554.000000,4.000000,86.000000,,,,0.000000,4.000000,4.000000,4.000000,4.000000,4.000000,4.000000,4.000000,4.000000,4.000000,4.000000,4.000000,4.000000,4.000000,4.000000,100.000000,,,,,,,,,,,,,,,,
1644853707.202858,248.000000,0.000000,4089.487061,4172.820313,4194.615234,4070.384521,4216.794922,4215.000000,4217.051270,4220.128418,4223.205078,4197.051270,4176.025879,4185.897461,4071.153809,4003.333252,3516.000000,4.000000,86.000000,,,,0.000000,4.000000,4.000000,4.000000,4.000000,4.000000,4.000000,4.000000,4.000000,4.000000,4.000000,4.000000,4.000000,4.000000,4.000000,100.000000,,,,,,,,,,,,,,,,
1644853707.206799,249.000000,0.000000,4088.974365,4175.256348,4191.153809,4060.128174,4206.282227,4214.743652,4215.641113,4221.153809,4222.307617,4197.692383,4176.025879,4185.000000,4068.589844,4004.743652,3488.000000,4.000000,86.000000,,,,0.000000,4.000000,4.000000,4.000000,4.000000,4.000000,4.000000,4.000000,4.000000,4.000000,4.000000,4.000000,4.000000,4.000000,4.000000,100.000000,,,,,,,,,,,,,,,,
1644853707.210739,250.000000,0.000000,4091.410156,4179.102539,4190.256348,4057.051270,4198.717773,4215.000000,4213.717773,4223.589844,4222.948730,4200.512695,4175.128418,4187.307617,4069.230713,4009.230713,3535.000000,4.000000,86.000000,,,,0.000000,4.000000,4.000000,4.000000,4.000000,4.000000,4.000000,4.000000,4.000000,4.000000,4.000000,4.000000,4.000000,4.000000,4.000000,100.000000,,,,,,,,,,,,,,,,
1644853707.214679,251.000000,0.000000,4096.153809,4183.333496,4193.333496,4062.179443,4198.589844,4216.538574,4213.077148,4227.436035,4226.153809,4206.282227,4175.000000,4191.666504,4074.358887,4016.281982,2554.000000,4.000000,86.000000,,,,0.000000,4.000000,4.000000,4.000000,4.000000,4.000000,4.000000,4.000000,4.000000,4.000000,4.000000,4.000000,4.000000,4.000000,4.000000,100.000000,,,,,,,,,,,,,,,,
1644853707.218619,252.000000,0.000000,4101.410156,4187.051270,4199.102539,4071.153809,4205.384766,4218.461426,4215.384766,4231.922852,4230.641113,4213.461426,4176.282227,4196.538574,4081.794922,4024.615479,3516.000000,4.000000,86.000000,,,,0.000000,4.000000,4.000000,4.000000,4.000000,4.000000,4.000000,4.000000,4.000000,4.000000,4.000000,4.000000,4.000000,4.000000,4.000000,100.000000,,,,,,,,,,,,,,,,
1644853707.222659,253.000000,0.000000,4105.641113,4190.256348,4204.743652,4079.230713,4214.615234,4219.487305,4219.102539,4235.512695,4234.230957,4219.102539,4178.077148,4200.512695,4088.076904,4031.538574,3488.000000,4.000000,86.000000,,,,0.000000,4.000000,4.000000,4.000000,4.000000,4.000000,4.000000,4.000000,4.000000,4.000000,4.000000,4.000000,4.000000,4.000000,4.000000,100.000000,,,,,,,,,,,,,,,,
1644853707.226599,254.000000,0.000000,4108.717773,4192.820313,4207.436035,4084.487061,4221.282227,4218.846191,4220.384766,4236.153809,4235.256348,4221.666504,4178.846191,4203.077148,4091.794922,4034.487061,3535.000000,4.000000,86.000000,,,,0.000000,4.000000,4.000000,4.000000,4.000000,4.000000,4.000000,4.000000,4.000000,4.000000,4.000000,4.000000,4.000000,4.000000,4.000000,100.000000,,,,,,,,,,,,,,,,
1644853707.230539,255.000000,0.000000,4111.410156,4193.846191,4206.538574,4088.076904,4223.077148,4216.794922,4217.051270,4233.461426,4233.461426,4221.153809,4178.077148,4203.974121,4093.461426,4033.461426,113.000000,4.000000,86.000000,,,,0.000000,4.000000,4.000000,4.000000,4.000000,4.000000,4.000000,4.000000,4.000000,4.000000,4.000000,4.000000,4.000000,4.000000,4.000000,100.000000,,,,,,,,,,,,,,,,
1644853707.234479,0.000000,0.000000,4113.333496,4192.307617,4203.077148,4090.512939,4220.769043,4213.846191,4211.538574,4228.717773,4229.743652,4218.205078,4177.051270,4202.820313,4093.718018,4030.641113,3398.000000,4.000000,86.000000,,,,0.000000,4.000000,4.000000,4.000000,4.000000,4.000000,4.000000,4.000000,4.000000,4.000000,4.000000,4.000000,4.000000,4.000000,4.000000,100.000000,,,,,,,,,,,,,,,,
1644853707.238419,1.000000,0.000000,4113.333496,4188.333496,4199.102539,4090.000000,4217.179688,4210.897461,4208.461426,4224.487305,4226.025879,4213.461426,4177.051270,4200.128418,4092.564209,4028.461426,3434.000000,4.000000,86.000000,,,,0.000000,4.000000,4.000000,4.000000,4.000000,4.000000,4.000000,4.000000,4.000000,4.000000,4.000000,4.000000,4.000000,4.000000,4.000000,100.000000,,,,,,,,,,,,,,,,
1644853707.242359,2.000000,0.000000,4110.897461,4184.230957,4196.025879,4083.718018,4214.615234,4209.358887,4209.871582,4223.205078,4224.358887,4207.948730,4178.974121,4196.666504,4090.000000,4027.692383,3307.000000,4.000000,86.000000,,,,0.000000,4.000000,4.000000,4.000000,4.000000,4.000000,4.000000,4.000000,4.000000,4.000000,4.000000,4.000000,4.000000,4.000000,4.000000,100.000000,,,,,,,,,,,,,,,,
1644853707.246300,3.000000,0.000000,4107.307617,4182.307617,4194.487305,4072.051270,4213.205078,4209.871582,4213.846191,4225.128418,4226.410156,4203.333496,4183.333496,4194.102539,4086.281982,4027.179443,3610.000000,4.000000,86.000000,,,,0.000000,4.000000,4.000000,4.000000,4.000000,4.000000,4.000000,4.000000,4.000000,4.000000,4.000000,4.000000,4.000000,4.000000,4.000000,100.000000,,,,,,,,,,,,,,,,
1644853707.250240,4.000000,0.000000,4104.871582,4183.717773,4194.102539,4060.128174,4211.922852,4211.794922,4217.179688,4229.102539,4231.282227,4201.666504,4188.205078,4192.948730,4082.948730,4026.281982,3517.000000,4.000000,86.000000,,,,0.000000,4.000000,4.000000,4.000000,4.000000,4.000000,4.000000,4.000000,4.000000,4.000000,4.000000,4.000000,4.000000,4.000000,4.000000,100.000000,,,,,,,,,,,,,,,,
1644853707.254180,5.000000,0.000000,4105.128418,4187.179688,4195.000000,4055.769287,4209.358887,4213.717773,4218.717773,4233.461426,4236.794922,4203.717773,4191.538574,4193.333496,4082.179443,4026.025635,3332.000000,4.000000,86.000000,,,,0.000000,4.000000,4.000000,4.000000,4.000000,4.000000,4.000000,4.000000,4.000000,4.000000,4.000000,4.000000,4.000000,4.000000,4.000000,100.000000,,,,,,,,,,,,,,,,
1644853707.258120,6.000000,0.000000,4107.948730,4190.641113,4197.948730,4063.205078,4206.282227,4214.102539,4219.487305,4236.410156,4240.128418,4208.717773,4191.538574,4194.743652,4084.871826,4028.461426,2703.000000,4.000000,86.000000,,,,0.000000,4.000000,4.000000,4.000000,4.000000,4.000000,4.000000,4.000000,4.000000,4.000000,4.000000,4.000000,4.000000,4.000000,4.000000,100.000000,,,,,,,,,,,,,,,,
1644853707.262060,7.000000,0.000000,4111.282227,4192.051270,4201.922852,4079.358887,4204.358887,4212.436035,4220.384766,4236.922852,4240.128418,4214.102539,4189.230957,4196.794922,4090.000000,4033.461426,2754.000000,4.000000,86.000000,,,,0.000000,4.000000,4.000000,4.000000,4.000000,4.000000,4.000000,4.000000,4.000000,4.000000,4.000000,4.000000,4.000000,4.000000,4.000000,100.000000,,,,,,,,,,,,,,,,
1644853707.266000,8.000000,0.000000,4112.820313,4190.769043,4204.102539,4094.230713,4205.256348,4209.102539,4220.000000,4234.358887,4237.179688,4216.666504,4187.307617,4198.077148,4095.000000,4037.820557,3050.000000,4.000000,86.000000,,,,0.000000,4.000000,4.000000,4.000000,4.000000,4.000000,4.000000,4.000000,4.000000,4.000000,4.000000,4.000000,4.000000,4.000000,4.000000,100.000000,,,,,,,,,,,,,,,,
1644853707.269940,9.000000,0.000000,4111.794922,4187.436035,4201.922852,4098.717773,4207.692383,4205.641113,4216.794922,4229.358887,4232.051270,4215.000000,4186.922852,4196.538574,4097.820313,4038.333252,3520.000000,4.000000,86.000000,,,,0.000000,4.000000,4.000000,4.000000,4.000000,4.000000,4.000000,4.000000,4.000000,4.000000,4.000000,4.000000,4.000000,4.000000,4.000000,100.000000,,,,,,,,,,,,,,,,
1644853707.273880,10.000000,0.000000,4109.102539,4183.461426,4195.769043,4091.153809,4209.743652,4204.230957,4211.922852,4223.717773,4226.794922,4210.641113,4186.794922,4192.179688,4098.461426,4035.256348,3546.000000,4.000000,86.000000,,,,0.000000,4.000000,4.000000,4.000000,4.000000,4.000000,4.000000,4.000000,4.000000,4.000000,4.000000,4.000000,4.000000,4.000000,4.000000,100.000000,,,,,,,,,,,,,,,,
1644853707.277820,11.000000,0.000000,4107.179688,4180.256348,4189.487305,4078.718018,4210.256348,4205.769043,4208.333496,4219.102539,4223.717773,4206.794922,4185.128418,4187.307617,4098.205078,4032.179443,2532.000000,4.000000,86.000000,,,,0.000000,4.000000,4.000000,4.000000,4.000000,4.000000,4.000000,4.000000,4.000000,4.000000,4.000000,4.000000,4.000000,4.000000,4.000000,100.000000,,,,,,,,,,,,,,,,
1644853707.281761,12.000000,0.000000,4107.692383,4179.102539,4186.666504,4071.281982,4210.384766,4208.846191,4207.820313,4216.922852,4224.487305,4206.410156,4181.794922,4185.512695,4098.846191,4032.692383,3252.000000,4.000000,86.000000,,,,0.000000,4.000000,4.000000,4.000000,4.000000,4.000000,4.000000,4.000000,4.000000,4.000000,4.000000,4.000000,4.000000,4.000000,4.000000,100.000000,,,,,,,,,,,,,,,,
1644853707.285701,13.000000,0.000000,4110.384766,4180.897461,4188.846191,4073.205078,4212.051270,4210.897461,4209.230957,4218.205078,4228.974121,4209.743652,4179.615234,4188.077148,4100.512695,4036.923096,3488.000000,4.000000,86.000000,,,,0.000000,4.000000,4.000000,4.000000,4.000000,4.000000,4.000000,4.000000,4.000000,4.000000,4.000000,4.000000,4.000000,4.000000,4.000000,100.000000,,,,,,,,,,,,,,,,
1644853707.289641,14.000000,0.000000,4113.461426,4185.384766,4193.974121,4081.538574,4215.769043,4210.769043,4210.256348,4222.179688,4234.230957,4213.717773,4180.512695,4193.461426,4101.922852,4041.538574,3546.000000,4.000000,86.000000,,,,0.000000,4.000000,4.000000,4.000000,4.000000,4.000000,4.000000,4.000000,4.000000,4.000000,4.000000,4.000000,4.000000,4.000000,4.000000,100.000000,,,,,,,,,,,,,,,,
1644853707.293581,15.000000,0.000000,4115.000000,4190.769043,4198.846191,4089.102539,4219.487305,4209.102539,4210.128418,4227.179688,4237.307617,4214.871582,4183.974121,4198.333496,4101.538574,4043.974365,2532.000000,4.000000,86.000000,,,,0.000000,4.000000,4.000000,4.000000,4.000000,4.000000,4.000000,4.000000,4.000000,4.000000,4.000000,4.000000,4.000000,4.000000,4.000000,100.000000,,,,,,,,,,,,,,,,
1644853707.297421,16.000000,0.000000,4114.487305,4195.128418,4201.538574,4090.512939,4220.000000,4207.948730,4210.769043,4230.512695,4236.794922,4212.563965,4187.307617,4200.769043,4099.615234,4044.102539,3252.000000,4.000000,86.000000,,,,0.000000,4.000000,4.000000,4.000000,4.000000,4.000000,4.000000,4.000000,4.000000,4.000000,4.000000,4.000000,4.000000,4.000000,4.000000,100.000000,,,,,,,,,,,,,,,,
1644853707.301361,17.000000,0.000000,4113.461426,4196.794922,4202.179688,4086.153809,4216.282227,4208.589844,4212.692383,4230.000000,4233.589844,4209.487305,4188.333496,4200.641113,4097.692383,4043.205078,3488.000000,4.000000,86.000000,,,,0.000000,4.000000,4.000000,4.000000,4.000000,4.000000,4.000000,4.000000,4.000000,4.000000,4.000000,4.000000,4.000000,4.000000,4.000000,100.000000,,,,,,,,,,,,,,,,
1644853707.305301,18.000000,0.000000,4113.589844,4195.769043,4201.410156,4080.128174,4210.000000,4210.897461,4214.230957,4225.512695,4229.743652,4208.461426,4186.666504,4199.743652,4097.820313,4042.564209,3546.000000,4.000000,86.000000,,,,0.000000,4.000000,4.000000,4.000000,4.000000,4.000000,4.000000,4.000000,4.000000,4.000000,4.000000,4.000000,4.000000,4.000000,4.000000,100.000000,,,,,,,,,,,,,,,,
1644853707.309241,19.000000,0.000000,4115.256348,4192.820313,4200.384766,4076.538574,4205.384766,4212.436035,4213.461426,4219.102539,4226.666504,4209.487305,4183.974121,4199.358887,4100.000000,4042.051270,2532.000000,4.000000,86.000000,,,,0.000000,4.000000,4.000000,4.000000,4.000000,4.000000,4.000000,4.000000,4.000000,4.000000,4.000000,4.000000,4.000000,4.000000,4.000000,100.000000,,,,,,,,,,,,,,,,
1644853707.313181,20.000000,0.000000,4116.410156,4189.230957,4199.358887,4076.025635,4205.256348,4211.282227,4210.641113,4214.487305,4224.487305,4210.256348,4181.794922,4199.230957,4101.538574,4041.666748,3252.000000,4.000000,86.000000,,,,0.000000,4.000000,4.000000,4.000000,4.000000,4.000000,4.000000,4.000000,4.000000,4.000000,4.000000,4.000000,4.000000,4.000000,4.000000,100.000000,,,,,,,,,,,,,,,,
1644853707.317122,21.000000,0.000000,4115.000000,4185.512695,4197.948730,4076.025635,4209.230957,4207.179688,4208.846191,4213.846191,4222.051270,4208.589844,4180.897461,4198.461426,4099.487305,4041.410156,3488.000000,4.000000,86.000000,,,,0.000000,4.000000,4.000000,4.000000,4.000000,4.000000,4.000000,4.000000,4.000000,4.000000,4.000000,4.000000,4.000000,4.000000,4.000000,100.000000,,,,,,,,,,,,,,,,
1644853707.321062,22.000000,0.000000,4110.641113,4181.922852,4196.282227,4074.871826,4213.461426,4202.563965,4209.358887,4216.282227,4218.589844,4204.358887,4180.512695,4196.025879,4093.333252,4041.538574,3546.000000,4.000000,86.000000,1,1,2,0.000000,4.000000,4.000000,4.000000,4.000000,4.000000,4.000000,4.000000,4.000000,4.000000,4.000000,4.000000,4.000000,4.000000,4.000000,100.000000,,,,,,,,,,,,,,,,
1644853707.325002,23.000000,0.000000,4105.641113,4179.102539,4194.487305,4073.718018,4213.974121,4199.615234,4210.256348,4218.589844,4214.871582,4199.102539,4179.487305,4192.307617,4086.153809,4041.666748,2532.000000,4.000000,86.000000,,,,0.000000,4.000000,4.000000,4.000000,4.000000,4.000000,4.000000,4.000000,4.000000,4.000000,4.000000,4.000000,4.000000,4.000000,4.000000,100.000000,,,,,,,,,,,,,,,,
1644853707.328942,24.000000,0.000000,4102.692383,4177.692383,4192.820313,4074.871826,4209.102539,4198.333496,4209.102539,4218.205078,4212.436035,4194.487305,4176.538574,4188.589844,4081.923096,4041.410156,3252.000000,4.000000,86.000000,,,,0.000000,4.000000,4.000000,4.000000,4.000000,4.000000,4.000000,4.000000,4.000000,4.000000,4.000000,4.000000,4.000000,4.000000,4.000000,100.000000,,,,,,,,,,,,,,,,
1644853707.332882,25.000000,0.000000,4103.205078,4177.307617,4191.282227,4077.564209,4200.256348,4198.205078,4206.282227,4215.641113,4212.051270,4191.282227,4171.282227,4186.282227,4082.692383,4041.538574,3488.000000,4.000000,86.000000,,,,0.000000,4.000000,4.000000,4.000000,4.000000,4.000000,4.000000,4.000000,4.000000,4.000000,4.000000,4.000000,4.000000,4.000000,4.000000,100.000000,,,,,,,,,,,,,,,,
1644853707.336822,26.000000,0.000000,4106.282227,4176.538574,4190.641113,4077.307617,4191.153809,4198.589844,4205.128418,4213.846191,4213.333496,4189.358887,4165.256348,4186.153809,4086.410156,4042.051270,3546.000000,4.000000,86.000000,,,,0.000000,4.000000,4.000000,4.000000,4.000000,4.000000,4.000000,4.000000,4.000000,4.000000,4.000000,4.000000,4.000000,4.000000,4.000000,100.000000,,,,,,,,,,,,,,,,
1644853707.340762,27.000000,0.000000,4109.743652,4173.846191,4190.769043,4070.384521,4186.282227,4199.487305,4207.692383,4214.743652,4215.000000,4188.717773,4161.153809,4187.307617,4089.358887,4041.923096,2532.000000,4.000000,86.000000,,,,0.000000,4.000000,4.000000,4.000000,4.000000,4.000000,4.000000,4.000000,4.000000,4.000000,4.000000,4.000000,4.000000,4.000000,4.000000,100.000000,,,,,,,,,,,,,,,,
1644853707.344702,28.000000,0.000000,4111.282227,4169.102539,4191.153809,4059.102539,4188.205078,4201.025879,4211.794922,4217.307617,4216.025879,4189.743652,4162.051270,4188.205078,4088.974365,4038.974365,3252.000000,4.000000,86.000000,,,,0.000000,4.000000,4.000000,4.000000,4.000000,4.000000,4.000000,4.000000,4.000000,4.000000,4.000000,4.000000,4.000000,4.000000,4.000000,100.000000,1.000000,25.000000,1.000000,4.000000,4.000000,1.000000,4.000000,4.000000,4.000000,4.000000,4.000000,4.000000,4.000000,4.000000,1.000000,1.000000
1644853707.348642,29.000000,0.000000,4110.128418,4164.102539,4191.410156,4051.410156,4196.666504,4202.692383,4213.461426,4218.846191,4216.410156,4193.461426,4168.333496,4188.205078,4086.538574,4033.333252,3488.000000,4.000000,86.000000,,,,0.000000,4.000000,4.000000,4.000000,4.000000,4.000000,4.000000,4.000000,4.000000,4.000000,4.000000,4.000000,4.000000,4.000000,4.000000,100.000000,,,,,,,,,,,,,,,,
1644853707.352583,30.000000,0.000000,4107.563965,4162.051270,4191.538574,4054.358887,4208.205078,4203.974121,4211.282227,4217.307617,4216.153809,4199.487305,4177.436035,4187.820313,4084.871826,4029.230713,3546.000000,4.000000,86.000000,,,,0.000000,4.000000,4.000000,4.000000,4.000000,4.000000,4.000000,4.000000,4.000000,4.000000,4.000000,4.000000,4.000000,4.000000,4.000000,100.000000,,,,,,,,,,,,,,,,
1644853707.356523,31.000000,0.000000,4105.000000,4164.102539,4191.666504,4067.564209,4217.692383,4204.230957,4208.077148,4213.333496,4215.641113,4205.128418,4184.871582,4187.563965,4085.384521,4031.025635,2532.000000,4.000000,86.000000,,,,0.000000,4.000000,4.000000,4.000000,4.000000,4.000000,4.000000,4.000000,4.000000,4.000000,4.000000,4.000000,4.000000,4.000000,4.000000,100.000000,,,,,,,,,,,,,,,,
1644853707.360463,32.000000,0.000000,4103.589844,4170.000000,4191.410156,4083.974365,4221.538574,4203.717773,4207.307617,4209.743652,4215.000000,4207.179688,4187.179688,4187.307617,4087.307617,4039.358887,0.000000,4.000000,86.000000,,,,0.000000,4.000000,4.000000,4.000000,4.000000,4.000000,4.000000,4.000000,4.000000,4.000000,4.000000,4.000000,4.000000,4.000000,4.000000,100.000000,,,,,,,,,,,,,,,,
1644853707.364403,33.000000,0.000000,4103.974121,4177.692383,4190.512695,4095.000000,4219.358887,4202.948730,4209.230957,4209.358887,4214.871582,4205.000000,4183.461426,4186.922852,4089.487061,4048.974365,0.000000,4.000000,86.000000,,,,0.000000,4.000000,4.000000,4.000000,4.000000,4.000000,4.000000,4.000000,4.000000,4.000000,4.000000,4.000000,4.000000,4.000000,4.000000,100.000000,,,,,,,,,,,,,,,,
1644853707.368343,34.000000,0.000000,4106.153809,4184.487305,4189.102539,4096.282227,4213.333496,4202.307617,4210.641113,4211.794922,4216.025879,4202.051270,4176.025879,4186.153809,4091.410156,4053.718018,0.000000,4.000000,86.000000,,,,0.000000,4.000000,4.000000,4.000000,4.000000,4.000000,4.000000,4.000000,4.000000,4.000000,4.000000,4.000000,4.000000,4.000000,4.000000,100.000000,,,,,,,,,,,,,,,,
1644853707.372283,35.000000,0.000000,4109.871582,4186.922852,4187.692383,4089.743652,4206.794922,4201.666504,4209.487305,4214.615234,4218.717773,4202.051270,4169.230957,4185.641113,4093.076904,4051.923096,0.000000,4.000000,86.000000,,,,0.000000,4.000000,4.000000,4.000000,4.000000,4.000000,4.000000,4.000000,4.000000,4.000000,4.000000,4.000000,4.000000,4.000000,4.000000,100.000000,,,,,,,,,,,,,,,,
1644853707.376223,36.000000,0.000000,4113.333496,4183.846191,4186.538574,4080.512939,4202.307617,4200.769043,4206.794922,4216.025879,4221.794922,4205.256348,4168.077148,4185.384766,4093.974365,4047.051270,0.000000,4.000000,86.000000,,,,0.000000,4.000000,4.000000,4.000000,4.000000,4.000000,4.000000,4.000000,4.000000,4.000000,4.000000,4.000000,4.000000,4.000000,4.000000,100.000000,,,,,,,,,,,,,,,,
1644853707.380163,37.000000,0.000000,4115.256348,4177.179688,4185.769043,4072.948730,4201.410156,4199.743652,4205.897461,4216.410156,4223.974121,4208.077148,4174.230957,4185.256348,4094.358887,4044.102539,0.000000,4.000000,86.000000,,,,0.000000,4.000000,4.000000,4.000000,4.000000,4.000000,4.000000,4.000000,4.000000,4.000000,4.000000,4.000000,4.000000,4.000000,4.000000,100.000000,,,,,,,,,,,,,,,,
1644853707.384103,38.000000,0.000000,4115.384766,4171.282227,4185.256348,4068.974365,4204.615234,4199.743652,4207.820313,4217.820313,4225.128418,4207.307617,4183.717773,4185.256348,4095.256348,4044.743652,0.000000,4.000000,86.000000,,,,0.000000,4.000000,4.000000,4.000000,4.000000,4.000000,4.000000,4.000000,4.000000,4.000000,4.000000,4.000000,4.000000,4.000000,4.000000,100.000000,,,,,,,,,,,,,,,,
1644853707.388043,39.000000,0.000000,4114.871582,4169.743652,4185.128418,4067.820557,4211.153809,4201.282227,4211.153809,4221.025879,4225.512695,4203.077148,4188.589844,4186.538574,4097.820313,4046.923096,0.000000,4.000000,86.000000,,,,0.000000,4.000000,4.000000,4.000000,4.000000,4.000000,4.000000,4.000000,4.000000,4.000000,4.000000,4.000000,4.000000,4.000000,4.000000,100.000000,,,,,,,,,,,,,,,,
1644853707.391984,40.000000,0.000000,4114.487305,4172.179688,4185.769043,4068.846191,4218.461426,4204.102539,4213.461426,4224.358887,4225.000000,4198.846191,4184.102539,4190.000000,4101.666504,4048.333252,0.000000,4.000000,86.000000,,,,0.000000,4.000000,4.000000,4.000000,4.000000,4.000000,4.000000,4.000000,4.000000,4.000000,4.000000,4.000000,4.000000,4.000000,4.000000,100.000000,,,,,,,,,,,,,,,,
1644853707.395924,41.000000,0.000000,4115.128418,4174.615234,4187.179688,4072.307617,4223.205078,4206.025879,4214.358887,4225.769043,4222.820313,4197.436035,4173.077148,4194.743652,4104.487305,4049.102539,0.000000,4.000000,86.000000,,,,0.000000,4.000000,4.000000,4.000000,4.000000,4.000000,4.000000,4.000000,4.000000,4.000000,4.000000,4.000000,4.000000,4.000000,4.000000,100.000000,,,,,,,,,,,,,,,,
1644853707.399864,42.000000,0.000000,4116.538574,4174.102539,4188.974121,4078.076904,4222.179688,4205.641113,4214.871582,4224.487305,4219.230957,4198.846191,4164.358887,4198.717773,4104.102539,4050.256348,0.000000,4.000000,86.000000,,,,0.000000,4.000000,4.000000,4.000000,4.000000,4.000000,4.000000,4.000000,4.000000,4.000000,4.000000,4.000000,4.000000,4.000000,4.000000,100.000000,,,,,,,,,,,,,,,,
1644853707.403804,43.000000,0.000000,4117.179688,4170.897461,4189.743652,4083.589844,4214.358887,4203.077148,4215.512695,4221.666504,4215.769043,4200.384766,4165.384766,4199.743652,4099.358887,4051.923096,0.000000,4.000000,86.000000,,,,0.000000,4.000000,4.000000,4.000000,4.000000,4.000000,4.000000,4.000000,4.000000,4.000000,4.000000,4.000000,4.000000,4.000000,4.000000,100.000000,,,,,,,,,,,,,,,,
1644853707.407744,44.000000,0.000000,4115.512695,4167.692383,4188.717773,4084.615479,4202.307617,4200.384766,4215.128418,4219.230957,4214.102539,4200.000000,4175.769043,4197.179688,4092.435791,4053.205078,0.000000,4.000000,86.000000,,,,0.000000,4.000000,4.000000,4.000000,4.000000,4.000000,4.000000,4.000000,4.000000,4.000000,4.000000,4.000000,4.000000,4.000000,4.000000,100.000000,,,,,,,,,,,,,,,,
1644853707.411684,45.000000,0.000000,4111.538574,4166.666504,4186.410156,4079.487061,4191.282227,4199.102539,4212.820313,4219.102539,4214.743652,4197.948730,4187.179688,4192.436035,4086.410156,4053.846191,0.000000,4.000000,86.000000,,,,0.000000,4.000000,4.000000,4.000000,4.000000,4.000000,4.000000,4.000000,4.000000,4.000000,4.000000,4.000000,4.000000,4.000000,4.000000,100.000000,,,,,,,,,,,,,,,,
1644853707.415624,46.000000,0.000000,4106.794922,4167.179688,4184.487305,4072.051270,4186.025879,4199.230957,4210.000000,4220.897461,4216.538574,4195.512695,4190.128418,4187.820313,4084.230713,4054.358887,0.000000,4.000000,86.000000,,,,0.000000,4.000000,4.000000,4.000000,4.000000,4.000000,4.000000,4.000000,4.000000,4.000000,4.000000,4.000000,4.000000,4.000000,4.000000,100.000000,,,,,,,,,,,,,,,,
1644853707.419564,47.000000,0.000000,4104.102539,4167.820313,4184.743652,4068.718018,4188.717773,4199.871582,4208.717773,4222.820313,4217.820313,4193.974121,4182.051270,4185.512695,4086.923096,4054.871826,0.000000,4.000000,86.000000,,,,0.000000,4.000000,4.000000,4.000000,4.000000,4.000000,4.000000,4.000000,4.000000,4.000000,4.000000,4.000000,4.000000,4.000000,4.000000,100.000000,,,,,,,,,,,,,,,,
1644853707.423504,48.000000,0.000000,4105.769043,4168.589844,4187.307617,4072.307617,4197.051270,4200.000000,4209.871582,4222.948730,4217.563965,4193.846191,4170.128418,4186.410156,4093.589844,4055.000000,0.000000,4.000000,86.000000,,,,0.000000,4.000000,4.000000,4.000000,4.000000,4.000000,4.000000,4.000000,4.000000,4.000000,4.000000,4.000000,4.000000,4.000000,4.000000,100.000000,,,,,,,,,,,,,,,,
1644853707.427445,49.000000,0.000000,4112.436035,4170.769043,4190.512695,4078.846191,4206.794922,4199.871582,4211.794922,4220.641113,4216.666504,4195.256348,4164.871582,4188.717773,4101.538574,4055.000000,0.000000,4.000000,86.000000,,,,0.000000,4.000000,4.000000,4.000000,4.000000,4.000000,4.000000,4.000000,4.000000,4.000000,4.000000,4.000000,4.000000,4.000000,4.000000,100.000000,,,,,,,,,,,,,,,,
1644853707.431385,50.000000,0.000000,4122.179688,4174.743652,4192.436035,4082.179443,4213.589844,4200.384766,4212.436035,4217.692383,4216.410156,4196.922852,4171.153809,4189.871582,4107.179688,4056.410156,0.000000,4.000000,86.000000,,,,0.000000,4.000000,4.000000,4.000000,4.000000,4.000000,4.000000,4.000000,4.000000,4.000000,4.000000,4.000000,4.000000,4.000000,4.000000,100.000000,,,,,,,,,,,,,,,,
1644853707.435325,51.000000,0.000000,4131.025879,4178.589844,4192.179688,4080.641113,4216.153809,4201.922852,4212.051270,4216.282227,4217.692383,4197.051270,4183.846191,4188.077148,4107.820313,4060.384521,0.000000,4.000000,86.000000,,,,0.000000,4.000000,4.000000,4.000000,4.000000,4.000000,4.000000,4.000000,4.000000,4.000000,4.000000,4.000000,4.000000,4.000000,4.000000,100.000000,,,,,,,,,,,,,,,,
1644853707.439165,52.000000,0.000000,4135.384766,4180.000000,4190.512695,4077.179443,4215.384766,4203.589844,4211.922852,4216.922852,4219.230957,4195.128418,4191.794922,4184.487305,4104.102539,4065.769287,0.000000,4.000000,86.000000,,,,0.000000,4.000000,4.000000,4.000000,4.000000,4.000000,4.000000,4.000000,4.000000,4.000000,4.000000,4.000000,4.000000,4.000000,4.000000,100.000000,,,,,,,,,,,,,,,,
1644853707.443105,53.000000,0.000000,4134.487305,4178.589844,4188.846191,4076.025635,4213.717773,4204.102539,4211.922852,4218.077148,4219.487305,4193.461426,4188.077148,4182.436035,4099.358887,4068.846191,0.000000,4.000000,86.000000,,,,0.000000,4.000000,4.000000,4.000000,4.000000,4.000000,4.000000,4.000000,4.000000,4.000000,4.000000,4.000000,4.000000,4.000000,4.000000,100.000000,,,,,,,,,,,,,,,,
1644853707.447045,54.000000,0.000000,4131.025879,4176.922852,4188.846191,4078.076904,4211.282227,4202.820313,4210.512695,4217.563965,4218.333496,4194.871582,4175.641113,4184.230957,4097.820313,4067.179443,0.000000,4.000000,86.000000,,,,0.000000,4.000000,4.000000,4.000000,4.000000,4.000000,4.000000,4.000000,4.000000,4.000000,4.000000,4.000000,4.000000,4.000000,4.000000,100.000000,,,,,,,,,,,,,,,,
1644853707.450985,55.000000,0.000000,4128.717773,4177.948730,4190.641113,4082.564209,4207.436035,4200.256348,4207.051270,4214.871582,4217.436035,4200.384766,4165.512695,4189.358887,4101.410156,4062.948730,0.000000,4.000000,86.000000,,,,0.000000,4.000000,4.000000,4.000000,4.000000,4.000000,4.000000,4.000000,4.000000,4.000000,4.000000,4.000000,4.000000,4.000000,4.000000,100.000000,,,,,,,,,,,,,,,,
1644853707.454925,56.000000,0.000000,4129.615234,4182.436035,4194.358887,4087.692383,4202.307617,4197.948730,4204.102539,4212.436035,4218.717773,4206.922852,4167.179688,4195.769043,4108.717773,4062.051270,0.000000,4.000000,86.000000,,,,0.000000,4.000000,4.000000,4.000000,4.000000,4.000000,4.000000,4.000000,4.000000,4.000000,4.000000,4.000000,4.000000,4.000000,4.000000,100.000000,,,,,,,,,,,,,,,,
1644853707.458865,57.000000,0.000000,4133.205078,4187.563965,4199.102539,4091.794922,4198.717773,4197.307617,4204.871582,4212.820313,4222.948730,4210.769043,4180.897461,4201.025879,4116.410156,4067.692383,0.000000,4.000000,86.000000,,,,0.000000,4.000000,4.000000,4.000000,4.000000,4.000000,4.000000,4.000000,4.000000,4.000000,4.000000,4.000000,4.000000,4.000000,4.000000,100.000000,,,,,,,,,,,,,,,,
1644853707.462806,58.000000,0.000000,4137.179688,4189.230957,4203.846191,4093.205078,4200.000000,4198.846191,4209.487305,4216.410156,4228.461426,4211.025879,4197.307617,4204.102539,4120.769043,4077.051270,0.000000,4.000000,86.000000,,,,0.000000,4.000000,4.000000,4.000000,4.000000,4.000000,4.000000,4.000000,4.000000,4.000000,4.000000,4.000000,4.000000,4.000000,4.000000,100.000000,,,,,,,,,,,,,,,,
1644853707.466746,59.000000,0.000000,4138.974121,4186.153809,4206.410156,4091.153809,4207.307617,4202.051270,4214.230957,4220.000000,4232.563965,4209.743652,4205.769043,4205.000000,4120.000000,4083.205078,0.000000,4.000000,86.000000,,,,0.000000,4.000000,4.000000,4.000000,4.000000,4.000000,4.000000,4.000000,4.000000,4.000000,4.000000,4.000000,4.000000,4.000000,4.000000,100.000000,,,,,,,,,,,,,,,,
1644853707.470686,60.000000,0.000000,4136.794922,4180.256348,4204.743652,4085.897461,4217.179688,4204.871582,4214.871582,4220.384766,4232.179688,4208.717773,4202.820313,4203.974121,4114.487305,4081.794922,0.000000,4.000000,86.000000,2,1,2,0.000000,4.000000,4.000000,4.000000,4.000000,4.000000,4.000000,4.000000,4.000000,4.000000,4.000000,4.000000,4.000000,4.000000,4.000000,100.000000,,,,,,,,,,,,,,,,
1644853707.474626,61.000000,0.000000,4131.410156,4175.128418,4198.846191,4078.846191,4223.846191,4205.512695,4211.666504,4216.538574,4226.922852,4206.922852,4193.205078,4200.512695,4106.922852,4074.487061,0.000000,4.000000,86.000000,,,,0.000000,4.000000,4.000000,4.000000,4.000000,4.000000,4.000000,4.000000,4.000000,4.000000,4.000000,4.000000,4.000000,4.000000,4.000000,100.000000,,,,,,,,,,,,,,,,
1644853707.478566,62.000000,0.000000,4125.256348,4173.717773,4190.897461,4073.076904,4223.589844,4202.948730,4207.436035,4211.025879,4218.589844,4202.820313,4184.871582,4194.487305,4100.769043,4066.281982,0.000000,4.000000,86.000000,,,,0.000000,4.000000,4.000000,4.000000,4.000000,4.000000,4.000000,4.000000,4.000000,4.000000,4.000000,4.000000,4.000000,4.000000,4.000000,100.000000,,,,,,,,,,,,,,,,
1644853707.482506,63.000000,0.000000,4120.512695,4175.641113,4184.230957,4072.307617,4216.922852,4198.461426,4205.256348,4207.948730,4211.410156,4197.179688,4182.179688,4187.436035,4098.717773,4060.384521,0.000000,4.000000,86.000000,,,,0.000000,4.000000,4.000000,4.000000,4.000000,4.000000,4.000000,4.000000,4.000000,4.000000,4.000000,4.000000,4.000000,4.000000,4.000000,100.000000,,,,,,,,,,,,,,,,
1644853707.486446,64.000000,0.000000,4118.846191,4178.589844,4181.153809,4078.461426,4209.487305,4195.512695,4205.128418,4210.128418,4210.000000,4194.743652,4183.717773,4182.307617,4101.282227,4057.179443,0.000000,4.000000,86.000000,,,,0.000000,4.000000,4.000000,4.000000,4.000000,4.000000,4.000000,4.000000,4.000000,4.000000,4.000000,4.000000,4.000000,4.000000,4.000000,100.000000,,,,,,,,,,,,,,,,
1644853707.490386,65.000000,0.000000,4120.384766,4179.743652,4181.794922,4088.589844,4208.205078,4196.666504,4205.769043,4216.282227,4215.769043,4199.871582,4185.256348,4181.922852,4106.153809,4056.153809,0.000000,4.000000,86.000000,,,,0.000000,4.000000,4.000000,4.000000,4.000000,4.000000,4.000000,4.000000,4.000000,4.000000,4.000000,4.000000,4.000000,4.000000,4.000000,100.000000,,,,,,,,,,,,,,,,
1644853707.494326,66.000000,0.000000,4124.358887,4178.974121,4184.743652,4096.410156,4214.871582,4202.436035,4207.051270,4222.948730,4225.769043,4212.692383,4183.846191,4186.922852,4110.256348,4057.692383,0.000000,4.000000,86.000000,,,,0.000000,4.000000,4.000000,4.000000,4.000000,4.000000,4.000000,4.000000,4.000000,4.000000,4.000000,4.000000,4.000000,4.000000,4.000000,100.000000,,,,,,,,,,,,,,,,
1644853707.498267,67.000000,0.000000,4128.846191,4178.717773,4188.461426,4095.641113,4223.333496,4209.358887,4209.615234,4226.538574,4234.230957,4226.794922,4180.512695,4194.102539,4112.436035,4062.564209,0.000000,4.000000,86.000000,,,,0.000000,4.000000,4.000000,4.000000,4.000000,4.000000,4.000000,4.000000,4.000000,4.000000,4.000000,4.000000,4.000000,4.000000,4.000000,100.000000,,,,,,,,,,,,,,,,
1644853707.502207,68.000000,0.000000,4132.307617,4181.410156,4191.153809,4085.512939,4224.871582,4213.333496,4213.205078,4226.282227,4236.025879,4233.589844,4179.358887,4199.358887,4113.717773,4069.871826,0.000000,4.000000,86.000000,,,,0.000000,4.000000,4.000000,4.000000,4.000000,4.000000,4.000000,4.000000,4.000000,4.000000,4.000000,4.000000,4.000000,4.000000,4.000000,100.000000,,,,,,,,,,,,,,,,
1644853707.506147,69.000000,0.000000,4133.461426,4186.410156,4191.410156,4071.410156,4215.512695,4212.051270,4214.743652,4223.461426,4231.410156,4228.846191,4183.205078,4199.358887,4115.897461,4075.769287,0.000000,4.000000,86.000000,,,,0.000000,4.000000,4.000000,4.000000,4.000000,4.000000,4.000000,4.000000,4.000000,4.000000,4.000000,4.000000,4.000000,4.000000,4.000000,100.000000,,,,,,,,,,,,,,,,
1644853707.510087,70.000000,0.000000,4131.410156,4190.512695,4188.333496,4061.794922,4200.128418,4206.666504,4212.179688,4219.743652,4224.487305,4215.769043,4190.769043,4193.974121,4118.974121,4076.923096,0.000000,4.000000,86.000000,,,,0.000000,4.000000,4.000000,4.000000,4.000000,4.000000,4.000000,4.000000,4.000000,4.000000,4.000000,4.000000,4.000000,4.000000,4.000000,100.000000,,,,,,,,,,,,,,,,
1644853707.513927,71.000000,0.000000,4127.179688,4190.384766,4182.820313,4061.794922,4189.102539,4201.282227,4207.307617,4216.922852,4219.871582,4203.205078,4196.410156,4185.897461,4121.282227,4073.461426,0.000000,4.000000,86.000000,,,,0.000000,4.000000,4.000000,4.000000,4.000000,4.000000,4.000000,4.000000,4.000000,4.000000,4.000000,4.000000,4.000000,4.000000,4.000000,100.000000,,,,,,,,,,,,,,,,
1644853707.517867,72.000000,0.000000,4123.589844,4186.282227,4177.179688,4069.487061,4190.128418,4199.230957,4204.487305,4216.025879,4219.743652,4199.102539,4195.641113,4179.230957,4120.897461,4068.589844,0.000000,4.000000,86.000000,,,,0.000000,4.000000,4.000000,4.000000,4.000000,4.000000,4.000000,4.000000,4.000000,4.000000,4.000000,4.000000,4.000000,4.000000,4.000000,100.000000,,,,,,,,,,,,,,,,
1644853707.521807,73.000000,0.000000,4123.589844,4181.794922,4174.230957,4079.487061,4202.948730,4201.794922,4206.282227,4217.820313,4223.461426,4205.384766,4189.102539,4176.922852,4118.717773,4065.641113,0.000000,4.000000,86.000000,,,,0.000000,4.000000,4.000000,4.000000,4.000000,4.000000,4.000000,4.000000,4.000000,4.000000,4.000000,4.000000,4.000000,4.000000,4.000000,100.000000,,,,,,,,,,,,,,,,
1644853707.525747,74.000000,0.000000,4128.077148,4181.666504,4175.384766,4086.923096,4219.358887,4207.563965,4211.282227,4221.410156,4229.102539,4217.307617,4182.692383,4179.487305,4117.948730,4065.256348,0.000000,4.000000,86.000000,,,,0.000000,4.000000,4.000000,4.000000,4.000000,4.000000,4.000000,4.000000,4.000000,4.000000,4.000000,4.000000,4.000000,4.000000,4.000000,100.000000,,,,,,,,,,,,,,,,
1644853707.529687,75.000000,0.000000,4134.743652,4186.922852,4180.512695,4089.743652,4230.512695,4213.077148,4216.153809,4225.641113,4234.487305,4227.436035,4182.820313,4186.153809,4121.153809,4066.410156,0.000000,4.000000,86.000000,,,,0.000000,4.000000,4.000000,4.000000,4.000000,4.000000,4.000000,4.000000,4.000000,4.000000,4.000000,4.000000,4.000000,4.000000,4.000000,100.000000,,,,,,,,,,,,,,,,
1644853707.533628,76.000000,0.000000,4139.743652,4194.230957,4188.077148,4088.589844,4232.051270,4215.897461,4219.102539,4228.717773,4237.692383,4231.538574,4190.641113,4194.487305,4127.820313,4068.589844,0.000000,4.000000,86.000000,,,,0.000000,4.000000,4.000000,4.000000,4.000000,4.000000,4.000000,4.000000,4.000000,4.000000,4.000000,4.000000,4.000000,4.000000,4.000000,100.000000,,,,,,,,,,,,,,,,
1644853707.537568,77.000000,0.000000,4141.025879,4198.717773,4196.282227,4086.410156,4225.512695,4215.384766,4220.641113,4229.743652,4237.948730,4230.256348,4201.282227,4201.666504,4133.974121,4072.051270,0.000000,4.000000,86.000000,,,,0.000000,4.000000,4.000000,4.000000,4.000000,4.000000,4.000000,4.000000,4.000000,4.000000,4.000000,4.000000,4.000000,4.000000,4.000000,100.000000,,,,,,,,,,,,,,,,
1644853707.541508,78.000000,0.000000,4138.846191,4197.692383,4202.948730,4086.666748,4216.794922,4213.846191,4221.794922,4228.974121,4235.641113,4227.051270,4207.436035,4204.743652,4135.512695,4075.512939,0.000000,4.000000,86.000000,,,,0.000000,4.000000,4.000000,4.000000,4.000000,4.000000,4.000000,4.000000,4.000000,4.000000,4.000000,4.000000,4.000000,4.000000,4.000000,100.000000,,,,,,,,,,,,,,,,
1644853707.545448,79.000000,0.000000,4135.897461,4193.205078,4206.666504,4090.641113,4211.282227,4213.717773,4222.051270,4227.563965,4232.179688,4224.102539,4205.384766,4203.846191,4131.794922,4076.281982,0.000000,4.000000,86.000000,,,,0.000000,4.000000,4.000000,4.000000,4.000000,4.000000,4.000000,4.000000,4.000000,4.000000,4.000000,4.000000,4.000000,4.000000,4.000000,100.000000,,,,,,,,,,,,,,,,
1644853707.549388,80.000000,0.000000,4135.256348,4189.358887,4207.179688,4096.666504,4211.666504,4215.897461,4220.512695,4226.410156,4229.743652,4221.282227,4197.307617,4201.794922,4125.769043,4072.564209,0.000000,4.000000,86.000000,,,,0.000000,4.000000,4.000000,4.000000,4.000000,4.000000,4.000000,4.000000,4.000000,4.000000,4.000000,4.000000,4.000000,4.000000,4.000000,100.000000,,,,,,,,,,,,,,,,
1644853707.553328,81.000000,0.000000,4137.692383,4188.333496,4205.769043,4101.025879,4216.794922,4218.717773,4218.077148,4226.282227,4228.974121,4217.948730,4188.974121,4201.794922,4121.410156,4065.769287,0.000000,4.000000,86.000000,,,,0.000000,4.000000,4.000000,4.000000,4.000000,4.000000,4.000000,4.000000,4.000000,4.000000,4.000000,4.000000,4.000000,4.000000,4.000000,100.000000,,,,,,,,,,,,,,,,
1644853707.557268,82.000000,0.000000,4141.282227,4189.871582,4204.230957,4102.307617,4222.436035,4220.128418,4217.436035,4227.307617,4229.358887,4215.128418,4185.000000,4204.230957,4120.128418,4060.512939,0.000000,4.000000,86.000000,,,,0.000000,4.000000,4.000000,4.000000,4.000000,4.000000,4.000000,4.000000,4.000000,4.000000,4.000000,4.000000,4.000000,4.000000,4.000000,100.000000,,,,,,,,,,,,,,,,
1644853707.561208,83.000000,0.000000,4142.692383,4191.538574,4203.974121,4102.051270,4225.256348,4219.230957,4219.615234,4228.717773,4229.871582,4215.000000,4186.666504,4207.051270,4120.769043,4060.256348,0.000000,4.000000,86.000000,,,,0.000000,4.000000,4.000000,4.000000,4.000000,4.000000,4.000000,4.000000,4.000000,4.000000,4.000000,4.000000,4.000000,4.000000,4.000000,100.000000,,,,,,,,,,,,,,,,
1644853707.565148,84.000000,0.000000,4140.512695,4191.922852,4205.128418,4103.077148,4225.000000,4217.436035,4222.948730,4229.871582,4230.512695,4218.846191,4192.179688,4208.717773,4121.025879,4063.846191,0.000000,4.000000,86.000000,,,,0.000000,4.000000,4.000000,4.000000,4.000000,4.000000,4.000000,4.000000,4.000000,4.000000,4.000000,4.000000,4.000000,4.000000,4.000000,100.000000,,,,,,,,,,,,,,,,
1644853707.569089,85.000000,0.000000,4136.794922,4191.538574,4207.179688,4105.641113,4222.820313,4216.025879,4223.974121,4229.358887,4231.410156,4225.512695,4198.589844,4209.487305,4119.743652,4067.820557,0.000000,4.000000,86.000000,,,,0.000000,4.000000,4.000000,4.000000,4.000000,4.000000,4.000000,4.000000,4.000000,4.000000,4.000000,4.000000,4.000000,4.000000,4.000000,100.000000,,,,,,,,,,,,,,,,
1644853707.573129,86.000000,0.000000,4135.256348,4191.922852,4209.487305,4106.922852,4219.743652,4215.641113,4221.794922,4227.307617,4231.794922,4230.512695,4201.666504,4210.000000,4117.820313,4070.641113,0.000000,4.000000,86.000000,,,,0.000000,4.000000,4.000000,4.000000,4.000000,4.000000,4.000000,4.000000,4.000000,4.000000,4.000000,4.000000,4.000000,4.000000,4.000000,100.000000,,,,,,,,,,,,,,,,
1644853707.577069,87.000000,0.000000,4137.436035,4193.205078,4211.922852,4104.487305,4216.153809,4216.410156,4218.846191,4224.358887,4230.256348,4229.615234,4197.820313,4210.641113,4116.025879,4073.718018,0.000000,4.000000,86.000000,,,,0.000000,4.000000,4.000000,4.000000,4.000000,4.000000,4.000000,4.000000,4.000000,4.000000,4.000000,4.000000,4.000000,4.000000,4.000000,100.000000,,,,,,,,,,,,,,,,
1644853707.581009,88.000000,0.000000,4141.153809,4194.230957,4214.743652,4098.333496,4213.461426,4217.692383,4217.820313,4221.538574,4226.025879,4220.897461,4188.077148,4211.153809,4114.743652,4078.718018,0.000000,4.000000,86.000000,,,,0.000000,4.000000,4.000000,4.000000,4.000000,4.000000,4.000000,4.000000,4.000000,4.000000,4.000000,4.000000,4.000000,4.000000,4.000000,100.000000,,,,,,,,,,,,,,,,
1644853707.584949,89.000000,0.000000,4142.692383,4193.846191,4216.794922,4091.794922,4214.871582,4218.974121,4218.589844,4219.743652,4220.769043,4207.948730,4177.692383,4211.025879,4113.717773,4084.102539,0.000000,4.000000,86.000000,,,,0.000000,4.000000,4.000000,4.000000,4.000000,4.000000,4.000000,4.000000,4.000000,4.000000,4.000000,4.000000,4.000000,4.000000,4.000000,100.000000,,,,,,,,,,,,,,,,
1644853707.588989,90.000000,0.000000,4139.615234,4191.666504,4216.410156,4088.846191,4222.051270,4219.871582,4219.743652,4218.974121,4216.794922,4197.692383,4173.205078,4210.641113,4113.077148,4086.538574,0.000000,4.000000,86.000000,,,,0.000000,4.000000,4.000000,4.000000,4.000000,4.000000,4.000000,4.000000,4.000000,4.000000,4.000000,4.000000,4.000000,4.000000,4.000000,100.000000,,,,,,,,,,,,,,,,
1644853707.592929,91.000000,0.000000,4133.589844,4189.487305,4213.077148,4091.410156,4232.179688,4220.384766,4220.512695,4219.487305,4216.538574,4195.256348,4177.436035,4210.512695,4113.205078,4084.487061,0.000000,4.000000,86.000000,,,,0.000000,4.000000,4.000000,4.000000,4.000000,4.000000,4.000000,4.000000,4.000000,4.000000,4.000000,4.000000,4.000000,4.000000,4.000000,100.000000,,,,,,,,,,,,,,,,
1644853707.596869,92.000000,0.000000,4128.461426,4188.461426,4208.461426,4098.461426,4238.589844,4220.384766,4221.794922,4221.410156,4220.000000,4200.769043,4187.179688,4211.282227,4113.589844,4079.871826,0.000000,4.000000,86.000000,,,,0.000000,4.000000,4.000000,4.000000,4.000000,4.000000,4.000000,4.000000,4.000000,4.000000,4.000000,4.000000,4.000000,4.000000,4.000000,100.000000,,,,,,,,,,,,,,,,
1644853707.600809,93.000000,0.000000,4127.563965,4188.205078,4204.871582,4106.922852,4235.384766,4219.487305,4223.589844,4224.487305,4224.871582,4210.128418,4196.794922,4212.820313,4113.589844,4076.538574,0.000000,4.000000,86.000000,,,,0.000000,4.000000,4.000000,4.000000,4.000000,4.000000,4.000000,4.000000,4.000000,4.000000,4.000000,4.000000,4.000000,4.000000,4.000000,100.000000,,,,,,,,,,,,,,,,
1644853707.604749,94.000000,0.000000,4131.794922,4187.692383,4204.230957,4113.461426,4223.589844,4217.563965,4224.871582,4228.077148,4229.230957,4218.333496,4201.666504,4214.743652,4113.461426,4076.666748,0.000000,4.000000,86.000000,,,,0.000000,4.000000,4.000000,4.000000,4.000000,4.000000,4.000000,4.000000,4.000000,4.000000,4.000000,4.000000,4.000000,4.000000,4.000000,100.000000,,,,,,,,,,,,,,,,
1644853707.608689,95.000000,0.000000,4138.461426,4186.282227,4206.025879,4116.025879,4210.000000,4215.256348,4224.615234,4231.922852,4232.307617,4222.948730,4202.051270,4216.410156,4115.000000,4080.000000,0.000000,4.000000,86.000000,,,,0.000000,4.000000,4.000000,4.000000,4.000000,4.000000,4.000000,4.000000,4.000000,4.000000,4.000000,4.000000,4.000000,4.000000,4.000000,100.000000,,,,,,,,,,,,,,,,
1644853707.612629,96.000000,0.000000,4143.846191,4184.871582,4208.461426,4114.487305,4202.820313,4213.974121,4223.333496,4235.641113,4234.358887,4224.102539,4200.897461,4217.436035,4119.230957,4084.743652,0.000000,4.000000,86.000000,,,,0.000000,4.000000,4.000000,4.000000,4.000000,4.000000,4.000000,4.000000,4.000000,4.000000,4.000000,4.000000,4.000000,4.000000,4.000000,100.000000,,,,,,,,,,,,,,,,
1644853707.616470,97.000000,0.000000,4145.000000,4185.897461,4209.487305,4109.230957,4205.000000,4214.615234,4223.205078,4238.974121,4236.538574,4223.974121,4200.384766,4216.922852,4124.871582,4088.974365,0.000000,4.000000,86.000000,,,,0.000000,4.000000,4.000000,4.000000,4.000000,4.000000,4.000000,4.000000,4.000000,4.000000,4.000000,4.000000,4.000000,4.000000,4.000000,100.000000,,,,,,,,,,,,,,,,
1644853707.620410,98.000000,0.000000,4141.922852,4190.256348,4208.461426,4100.769043,4213.717773,4216.794922,4225.256348,4241.538574,4239.230957,4224.743652,4200.512695,4214.871582,4129.358887,4091.666748,0.000000,4.000000,86.000000,3,1,2,0.000000,4.000000,4.000000,4.000000,4.000000,4.000000,4.000000,4.000000,4.000000,4.000000,4.000000,4.000000,4.000000,4.000000,4.000000,100.000000,,,,,,,,,,,,,,,,
1644853707.624350,99.000000,0.000000,4137.436035,4196.153809,4205.769043,4090.897461,4223.461426,4219.230957,4227.692383,4242.051270,4241.666504,4226.794922,4199.230957,4211.794922,4130.897461,4091.666748,0.000000,4.000000,86.000000,,,,0.000000,4.000000,4.000000,4.000000,4.000000,4.000000,4.000000,4.000000,4.000000,4.000000,4.000000,4.000000,4.000000,4.000000,4.000000,100.000000,,,,,,,,,,,,,,,,
1644853707.628290,100.000000,0.000000,4134.230957,4198.974121,4202.307617,4084.102539,4229.358887,4220.384766,4227.436035,4239.871582,4242.307617,4228.461426,4195.384766,4208.333496,4129.487305,4088.461426,0.000000,4.000000,86.000000,,,,0.000000,4.000000,4.000000,4.000000,4.000000,4.000000,4.000000,4.000000,4.000000,4.000000,4.000000,4.000000,4.000000,4.000000,4.000000,100.000000,,,,,,,,,,,,,,,,
1644853707.632230,101.000000,0.000000,4132.179688,4194.358887,4198.589844,4084.487061,4229.102539,4219.358887,4224.230957,4234.871582,4239.487305,4226.538574,4189.487305,4203.589844,4126.538574,4082.564209,0.000000,4.000000,86.000000,,,,0.000000,4.000000,4.000000,4.000000,4.000000,4.000000,4.000000,4.000000,4.000000,4.000000,4.000000,4.000000,4.000000,4.000000,4.000000,100.000000,,,,,,,,,,,,,,,,
1644853707.636170,102.000000,0.000000,4128.461426,4182.563965,4195.128418,4092.820557,4222.307617,4217.051270,4220.256348,4229.358887,4233.717773,4219.871582,4183.461426,4197.179688,4122.948730,4075.897461,0.000000,4.000000,86.000000,,,,0.000000,4.000000,4.000000,4.000000,4.000000,4.000000,4.000000,4.000000,4.000000,4.000000,4.000000,4.000000,4.000000,4.000000,4.000000,100.000000,,,,,,,,,,,,,,,,
1644853707.640010,103.000000,0.000000,4122.051270,4168.717773,4192.436035,4104.102539,4211.410156,4215.128418,4218.333496,4226.153809,4227.820313,4211.025879,4180.256348,4190.384766,4119.743652,4070.512939,0.000000,4.000000,86.000000,,,,0.000000,4.000000,4.000000,4.000000,4.000000,4.000000,4.000000,4.000000,4.000000,4.000000,4.000000,4.000000,4.000000,4.000000,4.000000,100.000000,,,,,,,,,,,,,,,,
1644853707.643951,104.000000,0.000000,4115.256348,4160.769043,4190.641113,4110.897461,4201.025879,4214.871582,4218.974121,4226.666504,4225.384766,4206.282227,4181.538574,4186.410156,4117.563965,4068.076904,0.000000,4.000000,86.000000,,,,0.000000,4.000000,4.000000,4.000000,4.000000,4.000000,4.000000,4.000000,4.000000,4.000000,4.000000,4.000000,4.000000,4.000000,4.000000,100.000000,,,,,,,,,,,,,,,,
1644853707.647891,105.000000,0.000000,4112.948730,4163.205078,4190.384766,4108.333496,4196.538574,4216.025879,4219.871582,4229.487305,4227.563965,4209.743652,4186.666504,4187.179688,4117.436035,4069.743652,0.000000,4.000000,86.000000,4,1,2,0.000000,4.000000,4.000000,4.000000,4.000000,4.000000,4.000000,4.000000,4.000000,4.000000,4.000000,4.000000,4.000000,4.000000,4.000000,100.000000,,,,,,,,,,,,,,,,
1644853707.651831,106.000000,0.000000,4117.436035,4174.102539,4192.307617,4098.589844,4200.897461,4217.436035,4219.487305,4231.922852,4232.436035,4219.487305,4192.948730,4191.922852,4118.846191,4075.641113,0.000000,4.000000,86.000000,,,,0.000000,4.000000,4.000000,4.000000,4.000000,4.000000,4.000000,4.000000,4.000000,4.000000,4.000000,4.000000,4.000000,4.000000,4.000000,100.000000,,,,,,,,,,,,,,,,
1644853707.655771,107.000000,0.000000,4126.025879,4186.025879,4196.025879,4088.461426,4211.794922,4217.692383,4218.717773,4232.307617,4235.641113,4229.102539,4197.051270,4197.051270,4120.000000,4083.333252,0.000000,4.000000,86.000000,,,,0.000000,4.000000,4.000000,4.000000,4.000000,4.000000,4.000000,4.000000,4.000000,4.000000,4.000000,4.000000,4.000000,4.000000,4.000000,100.000000,,,,,,,,,,,,,,,,
1644853707.659711,108.000000,0.000000,4133.846191,4192.307617,4199.743652,4084.487061,4222.563965,4216.025879,4218.846191,4231.025879,4234.871582,4232.563965,4197.948730,4199.743652,4119.743652,4088.846191,0.000000,4.000000,86.000000,,,,0.000000,4.000000,4.000000,4.000000,4.000000,4.000000,4.000000,4.000000,4.000000,4.000000,4.000000,4.000000,4.000000,4.000000,4.000000,100.000000,,,,,,,,,,,,,,,,
1644853707.663651,109.000000,0.000000,4137.948730,4191.794922,4201.410156,4087.692383,4226.538574,4213.461426,4220.000000,4228.974121,4231.153809,4229.230957,4196.410156,4199.615234,4117.948730,4088.846191,0.000000,4.000000,86.000000,,,,0.000000,4.000000,4.000000,4.000000,4.000000,4.000000,4.000000,4.000000,4.000000,4.000000,4.000000,4.000000,4.000000,4.000000,4.000000,100.000000,,,,,,,,,,,,,,,,
1644853707.667591,110.000000,0.000000,4139.102539,4189.102539,4201.025879,4094.615479,4221.794922,4212.179688,4220.128418,4227.051270,4228.333496,4222.692383,4194.102539,4199.230957,4116.282227,4084.230713,0.000000,4.000000,86.000000,,,,0.000000,4.000000,4.000000,4.000000,4.000000,4.000000,4.000000,4.000000,4.000000,4.000000,4.000000,4.000000,4.000000,4.000000,4.000000,100.000000,,,,,,,,,,,,,,,,
1644853707.671531,111.000000,0.000000,4139.871582,4189.615234,4200.769043,4100.897461,4212.820313,4213.461426,4218.461426,4225.512695,4228.717773,4216.282227,4192.179688,4200.897461,4116.025879,4079.615479,0.000000,4.000000,86.000000,,,,0.000000,4.000000,4.000000,4.000000,4.000000,4.000000,4.000000,4.000000,4.000000,4.000000,4.000000,4.000000,4.000000,4.000000,4.000000,100.000000,,,,,,,,,,,,,,,,
1644853707.675471,112.000000,0.000000,4141.410156,4194.358887,4202.436035,4103.717773,4205.897461,4216.282227,4216.794922,4224.358887,4230.897461,4210.769043,4190.641113,4204.871582,4116.794922,4079.230713,0.000000,4.000000,86.000000,,,,0.000000,4.000000,4.000000,4.000000,4.000000,4.000000,4.000000,4.000000,4.000000,4.000000,4.000000,4.000000,4.000000,4.000000,4.000000,100.000000,,,,,,,,,,,,,,,,
1644853707.679411,113.000000,0.000000,4142.692383,4198.717773,4205.384766,4102.436035,4204.487305,4217.820313,4216.794922,4222.948730,4231.282227,4205.256348,4188.077148,4208.974121,4117.179688,4082.692383,0.000000,4.000000,86.000000,,,,0.000000,4.000000,4.000000,4.000000,4.000000,4.000000,4.000000,4.000000,4.000000,4.000000,4.000000,4.000000,4.000000,4.000000,4.000000,100.000000,,,,,,,,,,,,,,,,
1644853707.683352,114.000000,0.000000,4142.179688,4197.563965,4206.666504,4097.692383,4207.051270,4216.794922,4218.077148,4220.384766,4227.436035,4199.743652,4183.461426,4209.743652,4115.641113,4086.153809,0.000000,4.000000,86.000000,,,,0.000000,4.000000,4.000000,4.000000,4.000000,4.000000,4.000000,4.000000,4.000000,4.000000,4.000000,4.000000,4.000000,4.000000,4.000000,100.000000,,,,,,,,,,,,,,,,
1644853707.687292,115.000000,0.000000,4139.487305,4190.128418,4204.102539,4092.051270,4209.358887,4213.717773,4217.948730,4216.282227,4220.000000,4196.153809,4177.692383,4205.897461,4112.692383,4085.641113,0.000000,4.000000,86.000000,,,,0.000000,4.000000,4.000000,4.000000,4.000000,4.000000,4.000000,4.000000,4.000000,4.000000,4.000000,4.000000,4.000000,4.000000,4.000000,100.000000,,,,,,,,,,,,,,,,
1644853707.691232,116.000000,0.000000,4136.025879,4180.897461,4198.589844,4088.974365,4208.589844,4210.512695,4214.743652,4211.538574,4212.051270,4196.794922,4173.205078,4198.974121,4110.000000,4082.051270,0.000000,4.000000,86.000000,5,1,2,0.000000,4.000000,4.000000,4.000000,4.000000,4.000000,4.000000,4.000000,4.000000,4.000000,4.000000,4.000000,4.000000,4.000000,4.000000,100.000000,,,,,,,,,,,,,,,,
1644853707.695172,117.000000,0.000000,4134.230957,4176.410156,4194.102539,4091.410156,4206.282227,4208.333496,4210.384766,4208.589844,4207.692383,4200.769043,4173.717773,4193.333496,4110.512695,4080.256348,0.000000,4.000000,86.000000,,,,0.000000,4.000000,4.000000,4.000000,4.000000,4.000000,4.000000,4.000000,4.000000,4.000000,4.000000,4.000000,4.000000,4.000000,4.000000,100.000000,,,,,,,,,,,,,,,,
1644853707.699112,118.000000,0.000000,4135.384766,4179.615234,4193.846191,4098.974121,4206.794922,4208.205078,4209.102539,4210.000000,4208.846191,4205.128418,4180.256348,4192.820313,4116.153809,4083.589844,0.000000,4.000000,86.000000,,,,0.000000,4.000000,4.000000,4.000000,4.000000,4.000000,4.000000,4.000000,4.000000,4.000000,4.000000,4.000000,4.000000,4.000000,4.000000,100.000000,,,,,,,,,,,,,,,,
1644853707.703052,119.000000,0.000000,4138.589844,4188.333496,4197.436035,4107.948730,4212.820313,4210.000000,4211.922852,4215.128418,4213.717773,4206.538574,4188.717773,4197.948730,4124.102539,4090.256348,0.000000,4.000000,86.000000,,,,0.000000,4.000000,4.000000,4.000000,4.000000,4.000000,4.000000,4.000000,4.000000,4.000000,4.000000,4.000000,4.000000,4.000000,4.000000,100.000000,,,,,,,,,,,,,,,,
1644853707.706992,120.000000,0.000000,4141.410156,4196.666504,4201.153809,4112.563965,4220.897461,4212.692383,4216.410156,4220.769043,4218.717773,4204.230957,4192.820313,4204.871582,4128.589844,4095.128174,0.000000,4.000000,86.000000,,,,0.000000,4.000000,4.000000,4.000000,4.000000,4.000000,4.000000,4.000000,4.000000,4.000000,4.000000,4.000000,4.000000,4.000000,4.000000,100.000000,,,,,,,,,,,,,,,,
1644853707.710932,121.000000,0.000000,4141.794922,4199.743652,4201.410156,4109.871582,4225.128418,4214.871582,4218.846191,4222.948730,4220.897461,4201.666504,4188.846191,4208.461426,4124.615234,4094.871826,0.000000,4.000000,86.000000,,,,0.000000,4.000000,4.000000,4.000000,4.000000,4.000000,4.000000,4.000000,4.000000,4.000000,4.000000,4.000000,4.000000,4.000000,4.000000,100.000000,,,,,,,,,,,,,,,,
1644853707.714773,122.000000,0.000000,4139.487305,4196.666504,4198.461426,4103.846191,4222.948730,4215.769043,4218.589844,4220.769043,4220.384766,4202.436035,4179.871582,4206.794922,4113.333496,4091.666748,0.000000,4.000000,86.000000,,,,0.000000,4.000000,4.000000,4.000000,4.000000,4.000000,4.000000,4.000000,4.000000,4.000000,4.000000,4.000000,4.000000,4.000000,4.000000,100.000000,,,,,,,,,,,,,,,,
1644853707.718713,123.000000,0.000000,4136.282227,4191.538574,4195.512695,4102.179688,4217.948730,4215.769043,4218.333496,4217.436035,4219.871582,4208.077148,4174.230957,4202.051270,4103.205078,4090.128174,0.000000,4.000000,86.000000,,,,0.000000,4.000000,4.000000,4.000000,4.000000,4.000000,4.000000,4.000000,4.000000,4.000000,4.000000,4.000000,4.000000,4.000000,4.000000,100.000000,,,,,,,,,,,,,,,,
1644853707.722653,124.000000,0.000000,4135.384766,4189.487305,4195.769043,4108.077148,4215.512695,4215.769043,4219.615234,4216.666504,4221.538574,4215.897461,4178.205078,4197.948730,4103.589844,4091.794922,0.000000,4.000000,86.000000,,,,0.000000,4.000000,4.000000,4.000000,4.000000,4.000000,4.000000,4.000000,4.000000,4.000000,4.000000,4.000000,4.000000,4.000000,4.000000,100.000000,,,,,,,,,,,,,,,,
1644853707.726593,125.000000,0.000000,4138.717773,4193.205078,4198.846191,4115.000000,4217.436035,4216.410156,4221.538574,4220.000000,4225.769043,4222.307617,4190.512695,4197.051270,4117.179688,4094.487061,0.000000,4.000000,86.000000,,,,0.000000,4.000000,4.000000,4.000000,4.000000,4.000000,4.000000,4.000000,4.000000,4.000000,4.000000,4.000000,4.000000,4.000000,4.000000,100.000000,,,,,,,,,,,,,,,,
1644853707.730533,126.000000,0.000000,4145.641113,4200.641113,4201.794922,4112.692383,4220.641113,4218.333496,4222.307617,4225.641113,4231.538574,4225.897461,4202.692383,4199.358887,4136.794922,4094.871826,0.000000,4.000000,86.000000,,,,0.000000,4.000000,4.000000,4.000000,4.000000,4.000000,4.000000,4.000000,4.000000,4.000000,4.000000,4.000000,4.000000,4.000000,4.000000,100.000000,,,,,,,,,,,,,,,,
1644853707.734473,127.000000,0.000000,4152.436035,4207.051270,4201.794922,4097.436035,4220.384766,4220.769043,4222.436035,4230.384766,4236.538574,4227.307617,4206.282227,4202.692383,4150.769043,4092.564209,0.000000,4.000000,86.000000,,,,0.000000,4.000000,4.000000,4.000000,4.000000,4.000000,4.000000,4.000000,4.000000,4.000000,4.000000,4.000000,4.000000,4.000000,4.000000,100.000000,,,,,,,,,,,,,,,,
1644853707.738413,128.000000,0.000000,4154.487305,4208.846191,4198.461426,4077.435791,4214.743652,4222.692383,4223.461426,4231.922852,4238.589844,4227.307617,4199.615234,4204.487305,4150.897461,4089.487061,3407.000000,4.000000,86.000000,,,,0.000000,4.000000,4.000000,4.000000,4.000000,4.000000,4.000000,4.000000,4.000000,4.000000,4.000000,4.000000,4.000000,4.000000,4.000000,100.000000,,,,,,,,,,,,,,,,
1644853707.742353,129.000000,0.000000,4149.615234,4205.769043,4193.717773,4066.025635,4207.436035,4223.077148,4225.512695,4230.128418,4236.538574,4224.615234,4188.333496,4202.948730,4138.589844,4087.435791,3354.000000,4.000000,86.000000,,,,0.000000,4.000000,4.000000,4.000000,4.000000,4.000000,4.000000,4.000000,4.000000,4.000000,4.000000,4.000000,4.000000,4.000000,4.000000,100.000000,,,,,,,,,,,,,,,,
1644853707.746293,130.000000,0.000000,4139.487305,4198.974121,4189.871582,4071.538574,4204.743652,4221.538574,4225.769043,4226.410156,4231.410156,4217.820313,4180.769043,4198.589844,4123.333496,4086.153809,3468.000000,4.000000,86.000000,,,,0.000000,4.000000,4.000000,4.000000,4.000000,4.000000,4.000000,4.000000,4.000000,4.000000,4.000000,4.000000,4.000000,4.000000,4.000000,100.000000,,,,,,,,,,,,,,,,
1644853707.750233,131.000000,0.000000,4129.102539,4190.512695,4188.077148,4089.743652,4209.487305,4218.717773,4222.563965,4223.461426,4225.512695,4208.717773,4181.025879,4193.974121,4115.256348,4085.512939,3777.000000,4.000000,86.000000,,,,0.000000,4.000000,4.000000,4.000000,4.000000,4.000000,4.000000,4.000000,4.000000,4.000000,4.000000,4.000000,4.000000,4.000000,4.000000,100.000000,,,,,,,,,,,,,,,,
1644853707.754174,132.000000,0.000000,4123.846191,4182.820313,4188.205078,4107.563965,4218.461426,4216.025879,4217.820313,4222.692383,4221.922852,4201.794922,4186.538574,4191.538574,4117.820313,4086.666748,3501.000000,4.000000,86.000000,,,,0.000000,4.000000,4.000000,4.000000,4.000000,4.000000,4.000000,4.000000,4.000000,4.000000,4.000000,4.000000,4.000000,4.000000,4.000000,100.000000,,,,,,,,,,,,,,,,
1644853707.758114,133.000000,0.000000,4126.538574,4178.974121,4190.384766,4114.230957,4225.256348,4214.871582,4214.871582,4224.230957,4222.436035,4201.282227,4190.897461,4192.948730,4126.538574,4090.897461,3345.000000,4.000000,86.000000,,,,0.000000,4.000000,4.000000,4.000000,4.000000,4.000000,4.000000,4.000000,4.000000,4.000000,4.000000,4.000000,4.000000,4.000000,4.000000,100.000000,,,,,,,,,,,,,,,,
1644853707.762054,134.000000,0.000000,4135.000000,4180.512695,4193.717773,4108.589844,4226.025879,4215.641113,4214.871582,4225.769043,4226.666504,4207.692383,4189.871582,4196.922852,4133.333496,4096.538574,2865.000000,4.000000,86.000000,,,,0.000000,4.000000,4.000000,4.000000,4.000000,4.000000,4.000000,4.000000,4.000000,4.000000,4.000000,4.000000,4.000000,4.000000,4.000000,100.000000,,,,,,,,,,,,,,,,
1644853707.765994,135.000000,0.000000,4143.333496,4185.769043,4196.538574,4098.077148,4222.051270,4217.051270,4215.512695,4225.384766,4231.025879,4216.666504,4183.717773,4200.256348,4132.436035,4098.589844,2933.000000,4.000000,86.000000,,,,0.000000,4.000000,4.000000,4.000000,4.000000,4.000000,4.000000,4.000000,4.000000,4.000000,4.000000,4.000000,4.000000,4.000000,4.000000,100.000000,,,,,,,,,,,,,,,,
1644853707.769934,136.000000,0.000000,4145.384766,4190.128418,4196.922852,4089.487061,4216.153809,4217.051270,4213.974121,4221.794922,4231.794922,4222.051270,4176.666504,4198.974121,4124.487305,4092.692383,3424.000000,4.000000,86.000000,,,,0.000000,4.000000,4.000000,4.000000,4.000000,4.000000,4.000000,4.000000,4.000000,4.000000,4.000000,4.000000,4.000000,4.000000,4.000000,100.000000,,,,,,,,,,,,,,,,
1644853707.773874,137.000000,0.000000,4139.230957,4188.717773,4193.846191,4085.256348,4209.615234,4215.512695,4211.025879,4216.794922,4227.436035,4219.743652,4172.948730,4192.692383,4114.230957,4080.384521,3533.000000,4.000000,86.000000,,,,0.000000,4.000000,4.000000,4.000000,4.000000,4.000000,4.000000,4.000000,4.000000,4.000000,4.000000,4.000000,4.000000,4.000000,4.000000,100.000000,,,,,,,,,,,,,,,,
1644853707.777814,138.000000,0.000000,4128.461426,4181.025879,4188.205078,4083.846191,4202.563965,4213.974121,4209.615234,4213.077148,4219.615234,4211.282227,4173.333496,4184.615234,4106.794922,4067.564209,3741.000000,4.000000,86.000000,,,,0.000000,4.000000,4.000000,4.000000,4.000000,4.000000,4.000000,4.000000,4.000000,4.000000,4.000000,4.000000,4.000000,4.000000,4.000000,100.000000,,,,,,,,,,,,,,,,
1644853707.781754,139.000000,0.000000,4118.974121,4170.512695,4182.820313,4084.487061,4196.410156,4213.846191,4211.410156,4212.692383,4212.307617,4202.307617,4176.025879,4179.487305,4104.230957,4059.871826,2533.000000,4.000000,86.000000,,,,0.000000,4.000000,4.000000,4.000000,4.000000,4.000000,4.000000,4.000000,4.000000,4.000000,4.000000,4.000000,4.000000,4.000000,4.000000,100.000000,,,,,,,,,,,,,,,,
1644853707.785595,140.000000,0.000000,4114.743652,4162.051270,4180.128418,4087.051270,4194.230957,4215.000000,4215.256348,4215.128418,4209.487305,4198.205078,4178.717773,4180.128418,4105.128418,4057.948730,3393.000000,4.000000,86.000000,,,,0.000000,4.000000,4.000000,4.000000,4.000000,4.000000,4.000000,4.000000,4.000000,4.000000,4.000000,4.000000,4.000000,4.000000,4.000000,100.000000,,,,,,,,,,,,,,,,
1644853707.789535,141.000000,0.000000,4115.897461,4158.717773,4181.025879,4090.641113,4198.333496,4217.307617,4218.077148,4218.461426,4212.436035,4199.615234,4179.615234,4185.256348,4106.666504,4057.948730,3485.000000,4.000000,86.000000,,,,0.000000,4.000000,4.000000,4.000000,4.000000,4.000000,4.000000,4.000000,4.000000,4.000000,4.000000,4.000000,4.000000,4.000000,4.000000,100.000000,,,,,,,,,,,,,,,,
1644853707.793475,142.000000,0.000000,4119.871582,4160.512695,4183.717773,4092.692383,4207.820313,4219.871582,4218.974121,4221.410156,4219.230957,4202.948730,4177.820313,4189.871582,4106.922852,4056.538574,3741.000000,4.000000,86.000000,,,,0.000000,4.000000,4.000000,4.000000,4.000000,4.000000,4.000000,4.000000,4.000000,4.000000,4.000000,4.000000,4.000000,4.000000,4.000000,100.000000,,,,,,,,,,,,,,,,
1644853707.797415,143.000000,0.000000,4123.461426,4165.769043,4186.282227,4089.871826,4217.179688,4221.794922,4219.102539,4223.205078,4225.641113,4204.487305,4173.589844,4190.384766,4106.666504,4053.718018,2533.000000,4.000000,86.000000,,,,0.000000,4.000000,4.000000,4.000000,4.000000,4.000000,4.000000,4.000000,4.000000,4.000000,4.000000,4.000000,4.000000,4.000000,4.000000,100.000000,,,,,,,,,,,,,,,,
1644853707.801355,144.000000,0.000000,4126.025879,4172.563965,4186.922852,4081.923096,4220.769043,4222.307617,4219.358887,4223.974121,4228.077148,4204.102539,4168.589844,4186.666504,4108.205078,4051.281982,3393.000000,4.000000,86.000000,,,,0.000000,4.000000,4.000000,4.000000,4.000000,4.000000,4.000000,4.000000,4.000000,4.000000,4.000000,4.000000,4.000000,4.000000,4.000000,100.000000,,,,,,,,,,,,,,,,
1644853707.805295,145.000000,0.000000,4128.461426,4179.230957,4186.410156,4073.461426,4218.205078,4222.436035,4219.358887,4224.102539,4226.794922,4205.256348,4165.769043,4182.179688,4113.205078,4051.281982,3485.000000,4.000000,86.000000,,,,0.000000,4.000000,4.000000,4.000000,4.000000,4.000000,4.000000,4.000000,4.000000,4.000000,4.000000,4.000000,4.000000,4.000000,4.000000,100.000000,,,,,,,,,,,,,,,,
1644853707.809235,146.000000,0.000000,4132.051270,4184.615234,4187.051270,4072.948730,4213.974121,4223.333496,4218.077148,4224.358887,4224.230957,4210.256348,4167.692383,4180.897461,4120.641113,4054.487061,3741.000000,4.000000,86.000000,,,,0.000000,4.000000,4.000000,4.000000,4.000000,4.000000,4.000000,4.000000,4.000000,4.000000,4.000000,4.000000,4.000000,4.000000,4.000000,100.000000,,,,,,,,,,,,,,,,
1644853707.813175,147.000000,0.000000,4137.179688,4187.051270,4190.512695,4084.615479,4213.333496,4225.128418,4216.794922,4225.512695,4223.077148,4217.051270,4174.102539,4184.358887,4126.666504,4060.000000,2533.000000,4.000000,86.000000,,,,0.000000,4.000000,4.000000,4.000000,4.000000,4.000000,4.000000,4.000000,4.000000,4.000000,4.000000,4.000000,4.000000,4.000000,4.000000,100.000000,,,,,,,,,,,,,,,,
1644853707.817115,148.000000,0.000000,4143.077148,4186.153809,4196.666504,4103.717773,4217.692383,4227.179688,4217.692383,4228.333496,4223.846191,4220.641113,4182.051270,4190.897461,4127.948730,4066.281982,3393.000000,4.000000,86.000000,,,,0.000000,4.000000,4.000000,4.000000,4.000000,4.000000,4.000000,4.000000,4.000000,4.000000,4.000000,4.000000,4.000000,4.000000,4.000000,100.000000,,,,,,,,,,,,,,,,
1644853707.821055,149.000000,0.000000,4148.077148,4183.461426,4202.692383,4118.205078,4223.846191,4227.820313,4221.153809,4232.179688,4225.641113,4218.333496,4188.589844,4197.820313,4124.358887,4071.153809,3485.000000,4.000000,86.000000,,,,0.000000,4.000000,4.000000,4.000000,4.000000,4.000000,4.000000,4.000000,4.000000,4.000000,4.000000,4.000000,4.000000,4.000000,4.000000,100.000000,,,,,,,,,,,,,,,,
1644853707.824996,150.000000,0.000000,4150.897461,4181.922852,4205.641113,4119.358887,4226.922852,4226.153809,4224.358887,4235.384766,4228.333496,4213.333496,4193.333496,4203.589844,4119.871582,4072.820557,3741.000000,4.000000,86.000000,,,,0.000000,4.000000,4.000000,4.000000,4.000000,4.000000,4.000000,4.000000,4.000000,4.000000,4.000000,4.000000,4.000000,4.000000,4.000000,100.000000,,,,,,,,,,,,,,,,
1644853707.828936,151.000000,0.000000,4150.641113,4183.717773,4205.000000,4109.615234,4225.128418,4222.820313,4224.230957,4235.897461,4231.794922,4211.922852,4197.307617,4207.692383,4119.358887,4070.512939,2533.000000,4.000000,86.000000,,,,0.000000,4.000000,4.000000,4.000000,4.000000,4.000000,4.000000,4.000000,4.000000,4.000000,4.000000,4.000000,4.000000,4.000000,4.000000,100.000000,,,,,,,,,,,,,,,,
1644853707.832876,152.000000,0.000000,4147.307617,4187.692383,4202.948730,4098.589844,4220.641113,4219.358887,4220.512695,4233.333496,4235.384766,4217.179688,4200.769043,4209.487305,4124.871582,4066.410156,3393.000000,4.000000,86.000000,,,,0.000000,4.000000,4.000000,4.000000,4.000000,4.000000,4.000000,4.000000,4.000000,4.000000,4.000000,4.000000,4.000000,4.000000,4.000000,100.000000,,,,,,,,,,,,,,,,
1644853707.836816,153.000000,0.000000,4142.692383,4190.256348,4201.666504,4094.615479,4216.922852,4216.794922,4216.538574,4228.717773,4236.794922,4225.897461,4202.692383,4208.717773,4133.461426,4063.974365,3485.000000,4.000000,86.000000,,,,0.000000,4.000000,4.000000,4.000000,4.000000,4.000000,4.000000,4.000000,4.000000,4.000000,4.000000,4.000000,4.000000,4.000000,4.000000,100.000000,,,,,,,,,,,,,,,,
1644853707.840756,154.000000,0.000000,4139.615234,4189.358887,4201.794922,4098.205078,4216.410156,4215.897461,4215.512695,4223.974121,4234.615234,4231.922852,4201.538574,4205.512695,4140.641113,4064.615479,3741.000000,4.000000,86.000000,,,,0.000000,4.000000,4.000000,4.000000,4.000000,4.000000,4.000000,4.000000,4.000000,4.000000,4.000000,4.000000,4.000000,4.000000,4.000000,100.000000,,,,,,,,,,,,,,,,
1644853707.844696,155.000000,0.000000,4141.282227,4186.666504,4202.563965,4104.230957,4219.358887,4216.410156,4217.307617,4221.153809,4229.487305,4232.051270,4197.436035,4201.666504,4143.333496,4066.153809,2533.000000,4.000000,86.000000,,,,0.000000,4.000000,4.000000,4.000000,4.000000,4.000000,4.000000,4.000000,4.000000,4.000000,4.000000,4.000000,4.000000,4.000000,4.000000,100.000000,,,,,,,,,,,,,,,,
1644853707.848636,156.000000,0.000000,4148.077148,4186.666504,4203.077148,4107.436035,4224.358887,4217.692383,4219.230957,4221.025879,4224.743652,4227.820313,4192.563965,4200.000000,4142.179688,4066.153809,3393.000000,4.000000,86.000000,,,,0.000000,4.000000,4.000000,4.000000,4.000000,4.000000,4.000000,4.000000,4.000000,4.000000,4.000000,4.000000,4.000000,4.000000,4.000000,100.000000,1.000000,25.000000,1.000000,4.000000,4.000000,1.000000,4.000000,4.000000,4.000000,4.000000,4.000000,4.000000,4.000000,4.000000,1.000000,1.000000
1644853707.852676,157.000000,0.000000,4156.410156,4191.282227,4202.436035,4106.538574,4229.230957,4218.846191,4218.717773,4222.692383,4223.077148,4223.461426,4189.230957,4202.307617,4139.487305,4063.974365,3485.000000,4.000000,86.000000,,,,0.000000,4.000000,4.000000,4.000000,4.000000,4.000000,4.000000,4.000000,4.000000,4.000000,4.000000,4.000000,4.000000,4.000000,4.000000,100.000000,,,,,,,,,,,,,,,,
1644853707.856616,158.000000,0.000000,4161.282227,4197.692383,4200.256348,4102.692383,4231.282227,4218.589844,4216.153809,4224.358887,4224.487305,4222.051270,4187.820313,4207.179688,4136.410156,4061.666748,3741.000000,4.000000,86.000000,,,,0.000000,4.000000,4.000000,4.000000,4.000000,4.000000,4.000000,4.000000,4.000000,4.000000,4.000000,4.000000,4.000000,4.000000,4.000000,100.000000,,,,,,,,,,,,,,,,
1644853707.860556,159.000000,0.000000,4159.102539,4200.000000,4196.410156,4097.436035,4228.205078,4216.410156,4213.846191,4224.230957,4226.153809,4223.461426,4187.179688,4210.384766,4133.589844,4061.538574,2533.000000,4.000000,86.000000,,,,0.000000,4.000000,4.000000,4.000000,4.000000,4.000000,4.000000,4.000000,4.000000,4.000000,4.000000,4.000000,4.000000,4.000000,4.000000,100.000000,,,,,,,,,,,,,,,,
1644853707.864497,160.000000,0.000000,4150.769043,4194.615234,4192.179688,4092.179443,4219.743652,4213.589844,4212.436035,4221.282227,4225.512695,4224.871582,4186.153809,4208.205078,4131.410156,4063.205078,3393.000000,4.000000,86.000000,,,,0.000000,4.000000,4.000000,4.000000,4.000000,4.000000,4.000000,4.000000,4.000000,4.000000,4.000000,4.000000,4.000000,4.000000,4.000000,100.000000,,,,,,,,,,,,,,,,
1644853707.868437,161.000000,0.000000,4141.794922,4183.205078,4188.589844,4089.102539,4209.615234,4211.922852,4211.153809,4216.282227,4221.922852,4223.205078,4184.615234,4200.769043,4129.487305,4065.256348,3485.000000,4.000000,86.000000,,,,0.000000,4.000000,4.000000,4.000000,4.000000,4.000000,4.000000,4.000000,4.000000,4.000000,4.000000,4.000000,4.000000,4.000000,4.000000,100.000000,,,,,,,,,,,,,,,,
1644853707.872377,162.000000,0.000000,4136.666504,4171.794922,4186.025879,4090.384521,4203.846191,4212.436035,4209.743652,4211.025879,4216.410156,4217.436035,4183.077148,4192.051270,4127.307617,4066.538574,3741.000000,4.000000,86.000000,,,,0.000000,4.000000,4.000000,4.000000,4.000000,4.000000,4.000000,4.000000,4.000000,4.000000,4.000000,4.000000,4.000000,4.000000,4.000000,100.000000,,,,,,,,,,,,,,,,
1644853707.876317,163.000000,0.000000,4136.282227,4165.897461,4184.487305,4096.410156,4206.025879,4213.974121,4209.358887,4207.563965,4210.769043,4208.717773,4181.794922,4186.666504,4123.717773,4067.179443,2533.000000,4.000000,86.000000,,,,0.000000,4.000000,4.000000,4.000000,4.000000,4.000000,4.000000,4.000000,4.000000,4.000000,4.000000,4.000000,4.000000,4.000000,4.000000,100.000000,,,,,,,,,,,,,,,,
1644853707.880257,164.000000,0.000000,4137.307617,4166.153809,4184.358887,4103.589844,4213.333496,4215.000000,4211.538574,4206.922852,4207.179688,4199.871582,4180.256348,4186.922852,4118.846191,4067.051270,3393.000000,4.000000,86.000000,,,,0.000000,4.000000,4.000000,4.000000,4.000000,4.000000,4.000000,4.000000,4.000000,4.000000,4.000000,4.000000,4.000000,4.000000,4.000000,100.000000,,,,,,,,,,,,,,,,
1644853707.884197,165.000000,0.000000,4137.051270,4169.487305,4186.025879,4107.563965,4220.256348,4215.128418,4215.384766,4208.846191,4207.179688,4193.974121,4178.846191,4191.025879,4115.256348,4065.769287,3485.000000,4.000000,86.000000,,,,0.000000,4.000000,4.000000,4.000000,4.000000,4.000000,4.000000,4.000000,4.000000,4.000000,4.000000,4.000000,4.000000,4.000000,4.000000,100.000000,,,,,,,,,,,,,,,,
1644853707.888137,166.000000,0.000000,4135.897461,4171.922852,4189.487305,4107.563965,4222.179688,4215.641113,4218.077148,4211.666504,4210.641113,4194.230957,4179.230957,4195.769043,4116.666504,4063.589844,3741.000000,4.000000,86.000000,,,,0.000000,4.000000,4.000000,4.000000,4.000000,4.000000,4.000000,4.000000,4.000000,4.000000,4.000000,4.000000,4.000000,4.000000,4.000000,100.000000,,,,,,,,,,,,,,,,
1644853707.892077,167.000000,0.000000,4136.666504,4172.436035,4193.717773,4106.538574,4218.974121,4216.922852,4217.948730,4213.589844,4216.282227,4201.153809,4183.077148,4198.974121,4125.000000,4062.692383,2533.000000,4.000000,86.000000,,,,0.000000,4.000000,4.000000,4.000000,4.000000,4.000000,4.000000,4.000000,4.000000,4.000000,4.000000,4.000000,4.000000,4.000000,4.000000,100.000000,,,,,,,,,,,,,,,,
1644853707.896017,168.000000,0.000000,4140.897461,4172.692383,4196.794922,4106.922852,4213.589844,4218.077148,4216.282227,4213.974121,4220.769043,4211.282227,4190.128418,4200.897461,4137.179688,4065.000000,3393.000000,4.000000,86.000000,,,,0.000000,4.000000,4.000000,4.000000,4.000000,4.000000,4.000000,4.000000,4.000000,4.000000,4.000000,4.000000,4.000000,4.000000,4.000000,100.000000,,,,,,,,,,,,,,,,
1644853707.899957,169.000000,0.000000,4147.307617,4174.871582,4197.307617,4107.563965,4209.230957,4217.436035,4215.000000,4213.589844,4221.922852,4219.102539,4196.922852,4201.794922,4146.922852,4070.000000,3485.000000,4.000000,86.000000,,,,0.000000,4.000000,4.000000,4.000000,4.000000,4.000000,4.000000,4.000000,4.000000,4.000000,4.000000,4.000000,4.000000,4.000000,4.000000,100.000000,,,,,,,,,,,,,,,,
1644853707.903898,170.000000,0.000000,4153.333496,4179.230957,4195.000000,4105.256348,4207.692383,4214.358887,4214.615234,4213.077148,4219.102539,4220.641113,4198.333496,4200.769043,4148.846191,4073.718018,3741.000000,4.000000,86.000000,,,,0.000000,4.000000,4.000000,4.000000,4.000000,4.000000,4.000000,4.000000,4.000000,4.000000,4.000000,4.000000,4.000000,4.000000,4.000000,100.000000,,,,,,,,,,,,,,,,
1644853707.907838,171.000000,0.000000,4157.179688,4183.974121,4190.641113,4099.871582,4209.487305,4210.384766,4213.717773,4211.794922,4214.102539,4216.922852,4191.794922,4197.051270,4142.948730,4073.076904,2533.000000,4.000000,86.000000,,,,0.000000,4.000000,4.000000,4.000000,4.000000,4.000000,4.000000,4.000000,4.000000,4.000000,4.000000,4.000000,4.000000,4.000000,4.000000,100.000000,,,,,,,,,,,,,,,,
1644853707.911778,172.000000,0.000000,4159.358887,4187.051270,4185.769043,4094.615479,4213.717773,4207.692383,4211.794922,4209.871582,4209.487305,4211.410156,4180.128418,4191.538574,4134.487305,4069.487061,3393.000000,4.000000,86.000000,,,,0.000000,4.000000,4.000000,4.000000,4.000000,4.000000,4.000000,4.000000,4.000000,4.000000,4.000000,4.000000,4.000000,4.000000,4.000000,100.000000,,,,,,,,,,,,,,,,
1644853707.915618,173.000000,0.000000,4160.897461,4187.307617,4182.948730,4093.974365,4218.461426,4207.179688,4210.769043,4208.205078,4206.794922,4207.948730,4170.000000,4186.922852,4128.974121,4067.692383,3485.000000,4.000000,86.000000,,,,0.000000,4.000000,4.000000,4.000000,4.000000,4.000000,4.000000,4.000000,4.000000,4.000000,4.000000,4.000000,4.000000,4.000000,4.000000,100.000000,,,,,,,,,,,,,,,,
1644853707.919558,174.000000,0.000000,4163.205078,4185.384766,4183.846191,4099.230957,4222.051270,4208.461426,4212.563965,4208.461426,4206.922852,4207.051270,4166.922852,4185.641113,4128.589844,4070.384521,3741.000000,4.000000,86.000000,,,,0.000000,4.000000,4.000000,4.000000,4.000000,4.000000,4.000000,4.000000,4.000000,4.000000,4.000000,4.000000,4.000000,4.000000,4.000000,100.000000,,,,,,,,,,,,,,,,
1644853707.923498,175.000000,0.000000,4165.512695,4182.307617,4187.692383,4106.922852,4224.102539,4210.256348,4216.282227,4211.153809,4209.871582,4207.051270,4171.922852,4188.846191,4131.282227,4075.256348,2533.000000,4.000000,86.000000,,,,0.000000,4.000000,4.000000,4.000000,4.000000,4.000000,4.000000,4.000000,4.000000,4.000000,4.000000,4.000000,4.000000,4.000000,4.000000,100.000000,,,,,,,,,,,,,,,,
1644853707.927438,176.000000,0.000000,4165.897461,4178.846191,4191.666504,4109.615234,4223.846191,4211.538574,4218.461426,4215.128418,4214.487305,4206.282227,4181.153809,4194.615234,4133.205078,4077.435791,3393.000000,4.000000,86.000000,,,,0.000000,4.000000,4.000000,4.000000,4.000000,4.000000,4.000000,4.000000,4.000000,4.000000,4.000000,4.000000,4.000000,4.000000,4.000000,100.000000,,,,,,,,,,,,,,,,
1644853707.931378,177.000000,0.000000,4162.307617,4175.769043,4192.563965,4102.820313,4220.769043,4211.410156,4216.666504,4218.974121,4218.077148,4204.615234,4189.358887,4199.102539,4132.051270,4075.384521,3485.000000,4.000000,86.000000,,,,0.000000,4.000000,4.000000,4.000000,4.000000,4.000000,4.000000,4.000000,4.000000,4.000000,4.000000,4.000000,4.000000,4.000000,4.000000,100.000000,,,,,,,,,,,,,,,,
1644853707.935319,178.000000,0.000000,4155.512695,4173.974121,4190.000000,4090.000000,4215.256348,4209.615234,4212.820313,4221.410156,4218.717773,4203.461426,4192.820313,4199.615234,4128.205078,4071.794922,3741.000000,4.000000,86.000000,,,,0.000000,4.000000,4.000000,4.000000,4.000000,4.000000,4.000000,4.000000,4.000000,4.000000,4.000000,4.000000,4.000000,4.000000,4.000000,100.000000,,,,,,,,,,,,,,,,
1644853707.939259,179.000000,0.000000,4149.102539,4174.358887,4186.666504,4081.025635,4209.615234,4206.410156,4210.769043,4222.436035,4217.563965,4205.000000,4191.922852,4196.666504,4124.743652,4070.128174,2533.000000,4.000000,86.000000,,,,0.000000,4.000000,4.000000,4.000000,4.000000,4.000000,4.000000,4.000000,4.000000,4.000000,4.000000,4.000000,4.000000,4.000000,4.000000,100.000000,,,,,,,,,,,,,,,,
1644853707.943199,180.000000,0.000000,4147.179688,4177.307617,4185.384766,4084.102539,4207.563965,4203.461426,4212.051270,4222.307617,4216.666504,4210.000000,4190.128418,4193.077148,4124.743652,4071.281982,3393.000000,4.000000,86.000000,,,,0.000000,4.000000,4.000000,4.000000,4.000000,4.000000,4.000000,4.000000,4.000000,4.000000,4.000000,4.000000,4.000000,4.000000,4.000000,100.000000,,,,,,,,,,,,,,,,
1644853707.947139,181.000000,0.000000,4150.641113,4181.794922,4186.410156,4097.948730,4210.128418,4202.436035,4214.487305,4220.897461,4217.436035,4216.153809,4190.641113,4191.794922,4128.205078,4073.461426,3485.000000,4.000000,86.000000,,,,0.000000,4.000000,4.000000,4.000000,4.000000,4.000000,4.000000,4.000000,4.000000,4.000000,4.000000,4.000000,4.000000,4.000000,4.000000,100.000000,,,,,,,,,,,,,,,,
1644853707.951079,182.000000,0.000000,4156.538574,4185.897461,4187.307617,4112.820313,4213.717773,4204.102539,4215.256348,4218.589844,4218.717773,4219.615234,4192.948730,4192.692383,4131.794922,4074.487061,3741.000000,4.000000,86.000000,,,,0.000000,4.000000,4.000000,4.000000,4.000000,4.000000,4.000000,4.000000,4.000000,4.000000,4.000000,4.000000,4.000000,4.000000,4.000000,100.000000,,,,,,,,,,,,,,,,
1644853707.955019,183.000000,0.000000,4159.615234,4187.692383,4187.307617,4117.820313,4213.461426,4206.922852,4214.358887,4216.282227,4218.077148,4217.307617,4192.436035,4194.102539,4132.179688,4074.102539,2533.000000,4.000000,86.000000,,,,0.000000,4.000000,4.000000,4.000000,4.000000,4.000000,4.000000,4.000000,4.000000,4.000000,4.000000,4.000000,4.000000,4.000000,4.000000,100.000000,,,,,,,,,,,,,,,,
1644853707.958959,184.000000,0.000000,4157.307617,4186.922852,4187.820313,4110.641113,4208.333496,4209.230957,4213.974121,4215.512695,4214.871582,4210.256348,4185.512695,4194.871582,4129.487305,4073.974365,3393.000000,4.000000,86.000000,,,,0.000000,4.000000,4.000000,4.000000,4.000000,4.000000,4.000000,4.000000,4.000000,4.000000,4.000000,4.000000,4.000000,4.000000,4.000000,100.000000,,,,,,,,,,,,,,,,
1644853707.962899,185.000000,0.000000,4152.051270,4184.615234,4189.743652,4099.102539,4203.333496,4210.000000,4215.128418,4216.410156,4211.153809,4203.717773,4174.871582,4195.769043,4127.563965,4075.641113,3485.000000,4.000000,86.000000,,,,0.000000,4.000000,4.000000,4.000000,4.000000,4.000000,4.000000,4.000000,4.000000,4.000000,4.000000,4.000000,4.000000,4.000000,4.000000,100.000000,,,,,,,,,,,,,,,,
1644853707.966839,186.000000,0.000000,4149.487305,4182.820313,4192.436035,4094.358887,4204.615234,4209.358887,4216.538574,4218.333496,4210.128418,4202.179688,4167.179688,4198.205078,4130.128418,4079.358887,3741.000000,4.000000,86.000000,,,,0.000000,4.000000,4.000000,4.000000,4.000000,4.000000,4.000000,4.000000,4.000000,4.000000,4.000000,4.000000,4.000000,4.000000,4.000000,100.000000,,,,,,,,,,,,,,,,
1644853707.970779,187.000000,0.000000,4153.333496,4182.307617,4193.974121,4100.384766,4213.589844,4208.589844,4216.794922,4220.128418,4213.589844,4206.025879,4167.820313,4201.410156,4136.538574,4084.230713,2533.000000,4.000000,86.000000,,,,0.000000,4.000000,4.000000,4.000000,4.000000,4.000000,4.000000,4.000000,4.000000,4.000000,4.000000,4.000000,4.000000,4.000000,4.000000,100.000000,,,,,,,,,,,,,,,,
1644853707.974720,188.000000,0.000000,4161.794922,4183.077148,4192.820313,4111.410156,4225.384766,4207.948730,4216.666504,4221.794922,4220.512695,4210.769043,4176.282227,4202.820313,4141.794922,4088.718018,3393.000000,4.000000,86.000000,,,,0.000000,4.000000,4.000000,4.000000,4.000000,4.000000,4.000000,4.000000,4.000000,4.000000,4.000000,4.000000,4.000000,4.000000,4.000000,100.000000,,,,,,,,,,,,,,,,
1644853707.978660,189.000000,0.000000,4169.487305,4184.871582,4190.384766,4118.077148,4233.205078,4208.461426,4217.179688,4223.717773,4227.563965,4212.692383,4187.563965,4200.897461,4142.948730,4091.666748,3485.000000,4.000000,86.000000,,,,0.000000,4.000000,4.000000,4.000000,4.000000,4.000000,4.000000,4.000000,4.000000,4.000000,4.000000,4.000000,4.000000,4.000000,4.000000,100.000000,,,,,,,,,,,,,,,,
1644853707.982600,190.000000,0.000000,4172.820313,4188.077148,4189.102539,4117.051270,4233.461426,4210.512695,4218.333496,4225.769043,4231.922852,4211.794922,4196.282227,4197.436035,4141.666504,4092.307617,3741.000000,4.000000,86.000000,,,,0.000000,4.000000,4.000000,4.000000,4.000000,4.000000,4.000000,4.000000,4.000000,4.000000,4.000000,4.000000,4.000000,4.000000,4.000000,100.000000,,,,,,,,,,,,,,,,
1644853707.986540,191.000000,0.000000,4172.307617,4193.461426,4190.769043,4111.922852,4228.205078,4213.717773,4218.717773,4227.051270,4232.948730,4212.179688,4201.538574,4196.282227,4143.461426,4092.051270,2533.000000,4.000000,86.000000,,,,0.000000,4.000000,4.000000,4.000000,4.000000,4.000000,4.000000,4.000000,4.000000,4.000000,4.000000,4.000000,4.000000,4.000000,4.000000,100.000000,,,,,,,,,,,,,,,,
1644853707.990380,192.000000,0.000000,4171.538574,4200.128418,4194.871582,4108.589844,4222.179688,4216.025879,4217.436035,4227.563965,4232.692383,4217.051270,4205.512695,4200.256348,4151.922852,4094.102539,3393.000000,4.000000,86.000000,,,,0.000000,4.000000,4.000000,4.000000,4.000000,4.000000,4.000000,4.000000,4.000000,4.000000,4.000000,4.000000,4.000000,4.000000,4.000000,100.000000,,,,,,,,,,,,,,,,
1644853707.994320,193.000000,0.000000,4173.974121,4205.128418,4199.358887,4109.487305,4218.846191,4216.025879,4215.897461,4227.692383,4233.974121,4226.282227,4210.384766,4208.589844,4165.769043,4101.538574,3485.000000,4.000000,86.000000,,,,0.000000,4.000000,4.000000,4.000000,4.000000,4.000000,4.000000,4.000000,4.000000,4.000000,4.000000,4.000000,4.000000,4.000000,4.000000,100.000000,,,,,,,,,,,,,,,,
1644853707.998260,194.000000,0.000000,4179.358887,4205.256348,4202.051270,4113.077148,4218.717773,4213.974121,4215.769043,4228.333496,4237.307617,4235.384766,4215.641113,4217.179688,4179.487305,4113.717773,3741.000000,4.000000,86.000000,,,,0.000000,4.000000,4.000000,4.000000,4.000000,4.000000,4.000000,4.000000,4.000000,4.000000,4.000000,4.000000,4.000000,4.000000,4.000000,100.000000,,,,,,,,,,,,,,,,
1644853708.002200,195.000000,0.000000,4183.974121,4200.512695,4201.922852,4117.051270,4220.000000,4211.922852,4216.666504,4229.358887,4241.025879,4240.128418,4219.230957,4221.282227,4187.692383,4125.512695,2533.000000,4.000000,86.000000,,,,0.000000,4.000000,4.000000,4.000000,4.000000,4.000000,4.000000,4.000000,4.000000,4.000000,4.000000,4.000000,4.000000,4.000000,4.000000,100.000000,,,,,,,,,,,,,,,,
1644853708.006240,196.000000,0.000000,4183.846191,4193.589844,4199.358887,4119.743652,4220.256348,4211.666504,4216.410156,4230.128418,4243.077148,4239.358887,4219.102539,4220.256348,4188.846191,4130.512695,3393.000000,4.000000,86.000000,,,,0.000000,4.000000,4.000000,4.000000,4.000000,4.000000,4.000000,4.000000,4.000000,4.000000,4.000000,4.000000,4.000000,4.000000,4.000000,100.000000,,,,,,,,,,,,,,,,
1644853708.010181,197.000000,0.000000,4178.589844,4188.077148,4195.384766,4120.512695,4219.487305,4212.948730,4213.717773,4230.256348,4242.820313,4236.282227,4216.282227,4216.794922,4184.487305,4126.922852,3485.000000,4.000000,86.000000,,,,0.000000,4.000000,4.000000,4.000000,4.000000,4.000000,4.000000,4.000000,4.000000,4.000000,4.000000,4.000000,4.000000,4.000000,4.000000,100.000000,,,,,,,,,,,,,,,,
1644853708.014121,198.000000,0.000000,4172.179688,4186.410156,4191.922852,4118.846191,4218.589844,4214.487305,4211.153809,4230.000000,4241.794922,4235.384766,4213.461426,4214.615234,4178.333496,4119.487305,3741.000000,4.000000,86.000000,,,,0.000000,4.000000,4.000000,4.000000,4.000000,4.000000,4.000000,4.000000,4.000000,4.000000,4.000000,4.000000,4.000000,4.000000,4.000000,100.000000,,,,,,,,,,,,,,,,
1644853708.018061,199.000000,0.000000,4168.589844,4187.820313,4190.256348,4115.000000,4218.846191,4214.743652,4212.179688,4229.487305,4241.538574,4238.205078,4212.948730,4215.000000,4172.563965,4114.487305,2533.000000,4.000000,86.000000,,,,0.000000,4.000000,4.000000,4.000000,4.000000,4.000000,4.000000,4.000000,4.000000,4.000000,4.000000,4.000000,4.000000,4.000000,4.000000,100.000000,,,,,,,,,,,,,,,,
1644853708.022001,200.000000,0.000000,4168.846191,4188.974121,4190.641113,4110.128418,4220.512695,4213.974121,4216.794922,4229.102539,4242.307617,4242.563965,4214.743652,4215.769043,4168.717773,4114.358887,3393.000000,4.000000,86.000000,,,,0.000000,4.000000,4.000000,4.000000,4.000000,4.000000,4.000000,4.000000,4.000000,4.000000,4.000000,4.000000,4.000000,4.000000,4.000000,100.000000,,,,,,,,,,,,,,,,
1644853708.025941,201.000000,0.000000,4169.743652,4186.794922,4191.153809,4105.641113,4222.179688,4213.077148,4221.153809,4228.333496,4242.307617,4243.717773,4215.897461,4214.358887,4166.282227,4116.410156,3485.000000,4.000000,86.000000,,,,0.000000,4.000000,4.000000,4.000000,4.000000,4.000000,4.000000,4.000000,4.000000,4.000000,4.000000,4.000000,4.000000,4.000000,4.000000,100.000000,,,,,,,,,,,,,,,,
1644853708.029881,202.000000,0.000000,4168.077148,4180.384766,4190.641113,4103.077148,4222.563965,4213.077148,4221.794922,4227.436035,4240.897461,4239.102539,4213.461426,4209.871582,4165.384766,4117.179688,3741.000000,4.000000,86.000000,,,,0.000000,4.000000,4.000000,4.000000,4.000000,4.000000,4.000000,4.000000,4.000000,4.000000,4.000000,4.000000,4.000000,4.000000,4.000000,100.000000,,,,,,,,,,,,,,,,
1644853708.033821,203.000000,0.000000,4163.077148,4172.563965,4189.102539,4102.436035,4222.179688,4213.461426,4219.102539,4227.307617,4238.205078,4230.384766,4207.179688,4205.256348,4166.153809,4116.282227,2533.000000,4.000000,86.000000,,,,0.000000,4.000000,4.000000,4.000000,4.000000,4.000000,4.000000,4.000000,4.000000,4.000000,4.000000,4.000000,4.000000,4.000000,4.000000,100.000000,,,,,,,,,,,,,,,,
1644853708.037761,204.000000,0.000000,4158.077148,4167.692383,4188.461426,4103.205078,4222.436035,4214.102539,4217.436035,4228.974121,4236.410156,4223.077148,4201.153809,4203.974121,4168.974121,4116.794922,3393.000000,4.000000,86.000000,,,,0.000000,4.000000,4.000000,4.000000,4.000000,4.000000,4.000000,4.000000,4.000000,4.000000,4.000000,4.000000,4.000000,4.000000,4.000000,100.000000,,,,,,,,,,,,,,,,
1644853708.041701,205.000000,0.000000,4156.922852,4168.461426,4189.615234,4104.871582,4223.846191,4215.000000,4219.615234,4232.820313,4237.307617,4222.051270,4199.615234,4207.820313,4172.820313,4120.128418,3485.000000,4.000000,86.000000,,,,0.000000,4.000000,4.000000,4.000000,4.000000,4.000000,4.000000,4.000000,4.000000,4.000000,4.000000,4.000000,4.000000,4.000000,4.000000,100.000000,,,,,,,,,,,,,,,,
1644853708.045641,206.000000,0.000000,4160.897461,4174.615234,4192.436035,4107.179688,4224.743652,4216.410156,4224.230957,4236.922852,4241.282227,4227.692383,4204.102539,4215.000000,4175.641113,4124.615234,3741.000000,4.000000,86.000000,,,,0.000000,4.000000,4.000000,4.000000,4.000000,4.000000,4.000000,4.000000,4.000000,4.000000,4.000000,4.000000,4.000000,4.000000,4.000000,100.000000,,,,,,,,,,,,,,,,
1644853708.049582,207.000000,0.000000,4167.563965,4182.820313,4195.897461,4109.615234,4223.846191,4218.461426,4227.948730,4239.230957,4246.282227,4235.769043,4212.307617,4221.153809,4175.641113,4126.410156,2533.000000,4.000000,86.000000,,,,0.000000,4.000000,4.000000,4.000000,4.000000,4.000000,4.000000,4.000000,4.000000,4.000000,4.000000,4.000000,4.000000,4.000000,4.000000,100.000000,,,,,,,,,,,,,,,,
1644853708.053522,208.000000,0.000000,4172.820313,4188.717773,4198.717773,4112.692383,4221.410156,4220.384766,4228.461426,4238.205078,4248.846191,4240.384766,4219.743652,4223.205078,4173.589844,4125.256348,3393.000000,4.000000,86.000000,,,,0.000000,4.000000,4.000000,4.000000,4.000000,4.000000,4.000000,4.000000,4.000000,4.000000,4.000000,4.000000,4.000000,4.000000,4.000000,100.000000,,,,,,,,,,,,,,,,
1644853708.057462,209.000000,0.000000,4173.846191,4189.871582,4200.641113,4117.436035,4219.230957,4221.794922,4227.051270,4234.487305,4246.153809,4239.102539,4222.948730,4221.025879,4171.410156,4123.589844,3485.000000,4.000000,86.000000,,,,0.000000,4.000000,4.000000,4.000000,4.000000,4.000000,4.000000,4.000000,4.000000,4.000000,4.000000,4.000000,4.000000,4.000000,4.000000,100.000000,,,,,,,,,,,,,,,,
1644853708.061402,210.000000,0.000000,4170.769043,4186.922852,4202.179688,4123.717773,4219.487305,4222.051270,4225.128418,4229.743652,4238.717773,4233.589844,4220.897461,4217.179688,4170.512695,4124.230957,3741.000000,4.000000,86.000000,,,,0.000000,4.000000,4.000000,4.000000,4.000000,4.000000,4.000000,4.000000,4.000000,4.000000,4.000000,4.000000,4.000000,4.000000,4.000000,100.000000,,,,,,,,,,,,,,,,
1644853708.065342,211.000000,0.000000,4166.794922,4182.948730,4203.974121,4129.102539,4222.563965,4220.897461,4223.205078,4226.666504,4230.897461,4228.205078,4215.384766,4214.743652,4170.769043,4126.538574,2533.000000,4.000000,86.000000,,,,0.000000,4.000000,4.000000,4.000000,4.000000,4.000000,4.000000,4.000000,4.000000,4.000000,4.000000,4.000000,4.000000,4.000000,4.000000,100.000000,,,,,,,,,,,,,,,,
1644853708.069282,212.000000,0.000000,4165.128418,4180.000000,4206.410156,4130.512695,4226.538574,4218.589844,4221.025879,4226.282227,4227.179688,4227.307617,4209.358887,4215.000000,4171.794922,4128.077148,3393.000000,4.000000,86.000000,,,,0.000000,4.000000,4.000000,4.000000,4.000000,4.000000,4.000000,4.000000,4.000000,4.000000,4.000000,4.000000,4.000000,4.000000,4.000000,100.000000,,,,,,,,,,,,,,,,
1644853708.073122,213.000000,0.000000,4167.051270,4178.846191,4208.717773,4127.307617,4228.717773,4216.025879,4218.974121,4228.205078,4228.846191,4231.282227,4205.769043,4217.436035,4173.333496,4127.563965,3485.000000,4.000000,86.000000,,,,0.000000,4.000000,4.000000,4.000000,4.000000,4.000000,4.000000,4.000000,4.000000,4.000000,4.000000,4.000000,4.000000,4.000000,4.000000,100.000000,,,,,,,,,,,,,,,,
1644853708.077062,214.000000,0.000000,4171.410156,4178.589844,4209.871582,4122.307617,4227.436035,4214.871582,4219.102539,4230.897461,4233.205078,4237.307617,4205.512695,4219.743652,4175.384766,4126.025879,3741.000000,4.000000,86.000000,,,,0.000000,4.000000,4.000000,4.000000,4.000000,4.000000,4.000000,4.000000,4.000000,4.000000,4.000000,4.000000,4.000000,4.000000,4.000000,100.000000,,,,,,,,,,,,,,,,
1644853708.081003,215.000000,0.000000,4175.384766,4179.358887,4209.102539,4117.948730,4223.717773,4215.769043,4221.922852,4233.333496,4236.922852,4241.666504,4208.589844,4220.000000,4176.410156,4124.871582,2533.000000,4.000000,86.000000,,,,0.000000,4.000000,4.000000,4.000000,4.000000,4.000000,4.000000,4.000000,4.000000,4.000000,4.000000,4.000000,4.000000,4.000000,4.000000,100.000000,,,,,,,,,,,,,,,,
1644853708.084943,216.000000,0.000000,4177.563965,4181.666504,4205.897461,4115.000000,4220.897461,4218.205078,4224.871582,4234.487305,4238.077148,4242.692383,4213.846191,4218.077148,4175.641113,4124.615234,3393.000000,4.000000,86.000000,,,,0.000000,4.000000,4.000000,4.000000,4.000000,4.000000,4.000000,4.000000,4.000000,4.000000,4.000000,4.000000,4.000000,4.000000,4.000000,100.000000,,,,,,,,,,,,,,,,
1644853708.088883,217.000000,0.000000,4178.333496,4185.384766,4201.794922,4112.307617,4221.153809,4220.384766,4225.000000,4234.230957,4237.820313,4241.410156,4219.230957,4215.897461,4173.077148,4124.615234,3485.000000,4.000000,86.000000,,,,0.000000,4.000000,4.000000,4.000000,4.000000,4.000000,4.000000,4.000000,4.000000,4.000000,4.000000,4.000000,4.000000,4.000000,4.000000,100.000000,,,,,,,,,,,,,,,,
1644853708.092823,218.000000,0.000000,4178.205078,4188.846191,4198.461426,4109.102539,4223.717773,4220.769043,4222.436035,4232.307617,4237.563965,4239.487305,4221.282227,4215.128418,4170.128418,4125.256348,3741.000000,4.000000,86.000000,,,,0.000000,4.000000,4.000000,4.000000,4.000000,4.000000,4.000000,4.000000,4.000000,4.000000,4.000000,4.000000,4.000000,4.000000,4.000000,100.000000,,,,,,,,,,,,,,,,
