title:Alex-E3VcAvjAVp-pTow1u5Hs2A, start timestamp:1644854010.619828, stop timestamp:1644854036.411514, headset type:EPOCPLUS, headset serial:3B9AEBFF, headset firmware:626, channels:55, sampling rate:eeg_256, samples:6546      , version:2.1, 
Timestamp,EEG.Counter,EEG.Interpolated,EEG.AF3,EEG.F7,EEG.F3,EEG.FC5,EEG.T7,EEG.P7,EEG.O1,EEG.O2,EEG.P8,EEG.T8,EEG.FC6,EEG.F4,EEG.F8,EEG.AF4,EEG.RawCq,EEG.Battery,EEG.BatteryPercent,MarkerIndex,MarkerType,MarkerValueInt,EEG.MarkerHardware,CQ.AF3,CQ.F7,CQ.F3,CQ.FC5,CQ.T7,CQ.P7,CQ.O1,CQ.O2,CQ.P8,CQ.T8,CQ.FC6,CQ.F4,CQ.F8,CQ.AF4,CQ.Overall,EQ.SampleRateQuality,EQ.OVERALL,EQ.AF3,EQ.F7,EQ.F3,EQ.FC5,EQ.T7,EQ.P7,EQ.O1,EQ.O2,EQ.P8,EQ.T8,EQ.FC6,EQ.F4,EQ.F8,EQ.AF4
1644854010.619828,195.000000,0.000000,4215.128418,4215.512695,4210.512695,4207.436035,4214.743652,4201.538574,4211.538574,4200.256348,4208.589844,4194.230957,4204.230957,4183.461426,4229.487305,4218.205078,2466.000000,4.000000,86.000000,,,,0.000000,4.000000,4.000000,4.000000,4.000000,4.000000,4.000000,4.000000,4.000000,4.000000,4.000000,4.000000,4.000000,4.000000,4.000000,100.000000,,,,,,,,,,,,,,,,
1644854010.623868,196.000000,0.000000,4218.589844,4224.487305,4215.000000,4211.282227,4210.512695,4203.846191,4211.538574,4201.282227,4210.769043,4198.846191,4218.205078,4191.410156,4233.717773,4217.948730,3502.000000,4.000000,86.000000,,,,0.000000,4.000000,4.000000,4.000000,4.000000,4.000000,4.000000,4.000000,4.000000,4.000000,4.000000,4.000000,4.000000,4.000000,4.000000,100.000000,,,,,,,,,,,,,,,,
1644854010.627808,197.000000,0.000000,4221.153809,4236.282227,4220.000000,4218.974121,4210.000000,4210.128418,4213.717773,4205.384766,4213.461426,4207.563965,4235.000000,4202.436035,4237.436035,4223.205078,3492.000000,4.000000,86.000000,,,,0.000000,4.000000,4.000000,4.000000,4.000000,4.000000,4.000000,4.000000,4.000000,4.000000,4.000000,4.000000,4.000000,4.000000,4.000000,100.000000,,,,,,,,,,,,,,,,
1644854010.631748,198.000000,0.000000,4221.794922,4242.948730,4222.948730,4224.487305,4211.282227,4215.897461,4216.794922,4209.743652,4214.615234,4214.358887,4241.922852,4209.487305,4236.922852,4231.922852,3350.000000,4.000000,86.000000,,,,0.000000,4.000000,4.000000,4.000000,4.000000,4.000000,4.000000,4.000000,4.000000,4.000000,4.000000,4.000000,4.000000,4.000000,4.000000,100.000000,,,,,,,,,,,,,,,,
1644854010.635688,199.000000,0.000000,4220.641113,4239.615234,4222.948730,4224.487305,4212.948730,4217.051270,4218.205078,4210.897461,4213.717773,4215.769043,4233.717773,4208.589844,4232.820313,4239.102539,2466.000000,4.000000,86.000000,,,,0.000000,4.000000,4.000000,4.000000,4.000000,4.000000,4.000000,4.000000,4.000000,4.000000,4.000000,4.000000,4.000000,4.000000,4.000000,100.000000,,,,,,,,,,,,,,,,
1644854010.639628,200.000000,0.000000,4218.974121,4229.230957,4220.897461,4220.769043,4215.641113,4213.205078,4215.641113,4208.589844,4211.538574,4213.077148,4216.666504,4202.307617,4229.871582,4241.153809,3502.000000,4.000000,86.000000,,,,0.000000,4.000000,4.000000,4.000000,4.000000,4.000000,4.000000,4.000000,4.000000,4.000000,4.000000,4.000000,4.000000,4.000000,4.000000,100.000000,,,,,,,,,,,,,,,,
1644854010.643569,201.000000,0.000000,4217.563965,4219.743652,4218.205078,4217.307617,4219.230957,4206.410156,4209.871582,4205.000000,4209.487305,4210.512695,4202.307617,4196.153809,4232.436035,4238.333496,3492.000000,4.000000,86.000000,,,,0.000000,4.000000,4.000000,4.000000,4.000000,4.000000,4.000000,4.000000,4.000000,4.000000,4.000000,4.000000,4.000000,4.000000,4.000000,100.000000,,,,,,,,,,,,,,,,
1644854010.647509,202.000000,0.000000,4216.666504,4217.436035,4215.897461,4216.666504,4221.794922,4200.128418,4204.615234,4203.077148,4207.436035,4210.384766,4198.846191,4194.487305,4239.487305,4234.102539,3350.000000,4.000000,86.000000,,,,0.000000,4.000000,4.000000,4.000000,4.000000,4.000000,4.000000,4.000000,4.000000,4.000000,4.000000,4.000000,4.000000,4.000000,4.000000,100.000000,,,,,,,,,,,,,,,,
1644854010.651449,203.000000,0.000000,4215.512695,4222.436035,4215.128418,4218.589844,4220.769043,4197.179688,4203.205078,4203.461426,4204.743652,4210.000000,4205.897461,4196.410156,4245.641113,4231.025879,2466.000000,4.000000,86.000000,,,,0.000000,4.000000,4.000000,4.000000,4.000000,4.000000,4.000000,4.000000,4.000000,4.000000,4.000000,4.000000,4.000000,4.000000,4.000000,100.000000,,,,,,,,,,,,,,,,
1644854010.655389,204.000000,0.000000,4214.487305,4229.615234,4216.025879,4220.384766,4215.769043,4198.077148,4205.512695,4203.974121,4200.641113,4205.000000,4216.538574,4198.717773,4245.256348,4228.846191,3502.000000,4.000000,86.000000,,,,0.000000,4.000000,4.000000,4.000000,4.000000,4.000000,4.000000,4.000000,4.000000,4.000000,4.000000,4.000000,4.000000,4.000000,4.000000,100.000000,,,,,,,,,,,,,,,,
1644854010.659329,205.000000,0.000000,4215.000000,4234.230957,4217.820313,4219.102539,4209.743652,4200.641113,4207.820313,4202.563965,4196.282227,4194.743652,4223.205078,4198.717773,4237.820313,4225.512695,3492.000000,4.000000,86.000000,,,,0.000000,4.000000,4.000000,4.000000,4.000000,4.000000,4.000000,4.000000,4.000000,4.000000,4.000000,4.000000,4.000000,4.000000,4.000000,100.000000,,,,,,,,,,,,,,,,
1644854010.663269,206.000000,0.000000,4218.333496,4234.102539,4219.230957,4214.230957,4205.769043,4201.794922,4207.563965,4199.743652,4193.717773,4183.589844,4223.205078,4196.666504,4227.307617,4219.871582,3350.000000,4.000000,86.000000,,,,0.000000,4.000000,4.000000,4.000000,4.000000,4.000000,4.000000,4.000000,4.000000,4.000000,4.000000,4.000000,4.000000,4.000000,4.000000,100.000000,,,,,,,,,,,,,,,,
1644854010.667209,207.000000,0.000000,4222.820313,4230.128418,4220.128418,4207.692383,4204.230957,4201.025879,4206.025879,4197.948730,4194.487305,4178.333496,4219.102539,4194.615234,4219.230957,4213.717773,2466.000000,4.000000,86.000000,,,,0.000000,4.000000,4.000000,4.000000,4.000000,4.000000,4.000000,4.000000,4.000000,4.000000,4.000000,4.000000,4.000000,4.000000,4.000000,100.000000,,,,,,,,,,,,,,,,
1644854010.671149,208.000000,0.000000,4224.230957,4224.615234,4221.153809,4203.717773,4203.205078,4200.128418,4206.666504,4199.615234,4197.948730,4182.820313,4215.512695,4194.102539,4216.282227,4209.230957,3502.000000,4.000000,86.000000,,,,0.000000,4.000000,4.000000,4.000000,4.000000,4.000000,4.000000,4.000000,4.000000,4.000000,4.000000,4.000000,4.000000,4.000000,4.000000,100.000000,,,,,,,,,,,,,,,,
1644854010.675089,209.000000,0.000000,4220.000000,4220.128418,4222.307617,4206.025879,4201.794922,4201.794922,4211.025879,4204.358887,4202.563965,4195.000000,4215.128418,4195.641113,4217.820313,4206.922852,3492.000000,4.000000,86.000000,,,,0.000000,4.000000,4.000000,4.000000,4.000000,4.000000,4.000000,4.000000,4.000000,4.000000,4.000000,4.000000,4.000000,4.000000,4.000000,100.000000,,,,,,,,,,,,,,,,
1644854010.679030,210.000000,0.000000,4211.666504,4218.461426,4222.436035,4214.102539,4202.436035,4206.922852,4216.538574,4210.256348,4206.410156,4207.307617,4216.538574,4198.461426,4221.025879,4204.743652,3350.000000,4.000000,86.000000,,,,0.000000,4.000000,4.000000,4.000000,4.000000,4.000000,4.000000,4.000000,4.000000,4.000000,4.000000,4.000000,4.000000,4.000000,4.000000,100.000000,,,,,,,,,,,,,,,,
1644854010.682970,211.000000,0.000000,4204.743652,4219.871582,4220.256348,4223.205078,4207.820313,4213.077148,4219.871582,4214.871582,4208.333496,4212.563965,4216.922852,4201.153809,4223.333496,4201.794922,2466.000000,4.000000,86.000000,,,,0.000000,4.000000,4.000000,4.000000,4.000000,4.000000,4.000000,4.000000,4.000000,4.000000,4.000000,4.000000,4.000000,4.000000,4.000000,100.000000,,,,,,,,,,,,,,,,
1644854010.686910,212.000000,0.000000,4203.205078,4222.563965,4217.563965,4228.461426,4217.307617,4217.051270,4220.384766,4217.436035,4208.589844,4209.102539,4214.871582,4202.820313,4224.615234,4200.128418,3502.000000,4.000000,86.000000,,,,0.000000,4.000000,4.000000,4.000000,4.000000,4.000000,4.000000,4.000000,4.000000,4.000000,4.000000,4.000000,4.000000,4.000000,4.000000,100.000000,,,,,,,,,,,,,,,,
1644854010.690750,213.000000,0.000000,4206.922852,4223.846191,4217.051270,4228.205078,4225.256348,4217.436035,4220.000000,4218.461426,4208.461426,4201.153809,4211.794922,4202.692383,4226.025879,4202.179688,3492.000000,4.000000,86.000000,,,,0.000000,4.000000,4.000000,4.000000,4.000000,4.000000,4.000000,4.000000,4.000000,4.000000,4.000000,4.000000,4.000000,4.000000,4.000000,100.000000,,,,,,,,,,,,,,,,
1644854010.694690,214.000000,0.000000,4211.666504,4222.692383,4220.512695,4225.641113,4225.256348,4215.256348,4220.128418,4218.589844,4209.102539,4195.384766,4210.256348,4200.897461,4228.589844,4207.179688,3350.000000,4.000000,86.000000,,,,0.000000,4.000000,4.000000,4.000000,4.000000,4.000000,4.000000,4.000000,4.000000,4.000000,4.000000,4.000000,4.000000,4.000000,4.000000,100.000000,,,,,,,,,,,,,,,,
1644854010.698630,215.000000,0.000000,4212.948730,4220.384766,4226.153809,4225.000000,4216.282227,4212.563965,4220.128418,4217.563965,4210.769043,4195.384766,4211.666504,4198.333496,4231.282227,4210.641113,2466.000000,4.000000,86.000000,,,,0.000000,4.000000,4.000000,4.000000,4.000000,4.000000,4.000000,4.000000,4.000000,4.000000,4.000000,4.000000,4.000000,4.000000,4.000000,100.000000,,,,,,,,,,,,,,,,
1644854010.702570,216.000000,0.000000,4209.871582,4218.846191,4230.128418,4227.563965,4204.615234,4211.025879,4218.974121,4215.897461,4211.666504,4199.358887,4214.743652,4196.794922,4231.025879,4208.717773,3502.000000,4.000000,86.000000,,,,0.000000,4.000000,4.000000,4.000000,4.000000,4.000000,4.000000,4.000000,4.000000,4.000000,4.000000,4.000000,4.000000,4.000000,4.000000,100.000000,,,,,,,,,,,,,,,,
1644854010.706510,217.000000,0.000000,4205.512695,4218.846191,4229.615234,4230.769043,4199.102539,4210.897461,4217.307617,4214.743652,4211.153809,4202.948730,4217.948730,4197.563965,4226.153809,4201.922852,3492.000000,4.000000,86.000000,,,,0.000000,4.000000,4.000000,4.000000,4.000000,4.000000,4.000000,4.000000,4.000000,4.000000,4.000000,4.000000,4.000000,4.000000,4.000000,100.000000,,,,,,,,,,,,,,,,
1644854010.710450,218.000000,0.000000,4203.717773,4219.615234,4225.384766,4231.153809,4202.307617,4211.538574,4216.922852,4215.384766,4209.871582,4203.846191,4221.153809,4200.384766,4218.205078,4194.615234,3350.000000,4.000000,86.000000,,,,0.000000,4.000000,4.000000,4.000000,4.000000,4.000000,4.000000,4.000000,4.000000,4.000000,4.000000,4.000000,4.000000,4.000000,4.000000,100.000000,,,,,,,,,,,,,,,,
1644854010.714391,219.000000,0.000000,4206.282227,4220.512695,4220.769043,4226.794922,4209.487305,4212.051270,4217.820313,4217.307617,4209.743652,4203.461426,4224.487305,4203.333496,4212.051270,4190.512695,2466.000000,4.000000,86.000000,,,,0.000000,4.000000,4.000000,4.000000,4.000000,4.000000,4.000000,4.000000,4.000000,4.000000,4.000000,4.000000,4.000000,4.000000,4.000000,100.000000,,,,,,,,,,,,,,,,
1644854010.718331,220.000000,0.000000,4211.666504,4221.410156,4219.230957,4219.102539,4213.589844,4212.436035,4218.461426,4219.102539,4212.051270,4205.769043,4227.307617,4204.102539,4211.666504,4189.871582,3502.000000,4.000000,86.000000,,,,0.000000,4.000000,4.000000,4.000000,4.000000,4.000000,4.000000,4.000000,4.000000,4.000000,4.000000,4.000000,4.000000,4.000000,4.000000,100.000000,,,,,,,,,,,,,,,,
1644854010.722271,221.000000,0.000000,4216.922852,4221.794922,4221.794922,4211.922852,4212.948730,4213.589844,4217.692383,4219.615234,4215.897461,4212.307617,4228.077148,4202.051270,4217.436035,4191.794922,3492.000000,4.000000,86.000000,,,,0.000000,4.000000,4.000000,4.000000,4.000000,4.000000,4.000000,4.000000,4.000000,4.000000,4.000000,4.000000,4.000000,4.000000,4.000000,100.000000,,,,,,,,,,,,,,,,
1644854010.726211,222.000000,0.000000,4219.871582,4221.153809,4226.410156,4209.102539,4211.153809,4215.769043,4216.922852,4219.230957,4219.358887,4219.743652,4226.282227,4198.205078,4225.769043,4195.128418,3350.000000,4.000000,86.000000,,,,0.000000,4.000000,4.000000,4.000000,4.000000,4.000000,4.000000,4.000000,4.000000,4.000000,4.000000,4.000000,4.000000,4.000000,4.000000,100.000000,,,,,,,,,,,,,,,,
1644854010.730151,223.000000,0.000000,4219.743652,4219.743652,4229.615234,4211.794922,4212.692383,4217.563965,4218.077148,4218.717773,4220.128418,4222.948730,4222.563965,4193.974121,4232.436035,4198.846191,2466.000000,4.000000,86.000000,,,,0.000000,4.000000,4.000000,4.000000,4.000000,4.000000,4.000000,4.000000,4.000000,4.000000,4.000000,4.000000,4.000000,4.000000,4.000000,100.000000,,,,,,,,,,,,,,,,
1644854010.734091,224.000000,0.000000,4216.922852,4218.589844,4228.717773,4216.794922,4217.948730,4217.051270,4220.769043,4218.589844,4217.436035,4219.487305,4218.461426,4190.512695,4235.512695,4201.025879,3502.000000,4.000000,86.000000,,,,0.000000,4.000000,4.000000,4.000000,4.000000,4.000000,4.000000,4.000000,4.000000,4.000000,4.000000,4.000000,4.000000,4.000000,4.000000,100.000000,,,,,,,,,,,,,,,,
1644854010.738031,225.000000,0.000000,4212.563965,4218.461426,4223.846191,4219.102539,4223.077148,4213.333496,4221.666504,4218.333496,4213.333496,4212.051270,4215.128418,4188.077148,4235.769043,4199.358887,3492.000000,4.000000,86.000000,,,,0.000000,4.000000,4.000000,4.000000,4.000000,4.000000,4.000000,4.000000,4.000000,4.000000,4.000000,4.000000,4.000000,4.000000,4.000000,100.000000,,,,,,,,,,,,,,,,
1644854010.741971,226.000000,0.000000,4208.077148,4218.846191,4217.563965,4216.538574,4223.461426,4207.563965,4218.589844,4217.051270,4211.025879,4206.025879,4213.846191,4186.282227,4234.871582,4194.615234,3350.000000,4.000000,86.000000,,,,0.000000,4.000000,4.000000,4.000000,4.000000,4.000000,4.000000,4.000000,4.000000,4.000000,4.000000,4.000000,4.000000,4.000000,4.000000,100.000000,,,,,,,,,,,,,,,,
1644854010.745911,227.000000,0.000000,4204.743652,4218.333496,4212.820313,4211.666504,4217.820313,4203.077148,4213.717773,4215.384766,4211.794922,4204.358887,4215.512695,4185.897461,4233.717773,4190.384766,2466.000000,4.000000,86.000000,,,,0.000000,4.000000,4.000000,4.000000,4.000000,4.000000,4.000000,4.000000,4.000000,4.000000,4.000000,4.000000,4.000000,4.000000,4.000000,100.000000,,,,,,,,,,,,,,,,
1644854010.749852,228.000000,0.000000,4203.333496,4216.282227,4211.666504,4210.128418,4209.358887,4202.563965,4211.794922,4214.743652,4215.384766,4206.410156,4219.358887,4187.948730,4231.666504,4190.000000,3502.000000,4.000000,86.000000,,,,0.000000,4.000000,4.000000,4.000000,4.000000,4.000000,4.000000,4.000000,4.000000,4.000000,4.000000,4.000000,4.000000,4.000000,4.000000,100.000000,,,,,,,,,,,,,,,,
1644854010.753792,229.000000,0.000000,4204.743652,4213.846191,4213.846191,4214.871582,4203.205078,4207.179688,4215.641113,4216.538574,4220.128418,4210.000000,4224.102539,4192.948730,4228.974121,4193.205078,3492.000000,4.000000,86.000000,,,,0.000000,4.000000,4.000000,4.000000,4.000000,4.000000,4.000000,4.000000,4.000000,4.000000,4.000000,4.000000,4.000000,4.000000,4.000000,100.000000,,,,,,,,,,,,,,,,
1644854010.757732,230.000000,0.000000,4208.974121,4213.077148,4218.205078,4223.077148,4202.307617,4214.743652,4222.051270,4220.256348,4223.974121,4213.461426,4228.077148,4199.358887,4227.179688,4197.051270,3350.000000,4.000000,86.000000,,,,0.000000,4.000000,4.000000,4.000000,4.000000,4.000000,4.000000,4.000000,4.000000,4.000000,4.000000,4.000000,4.000000,4.000000,4.000000,100.000000,,,,,,,,,,,,,,,,
1644854010.761572,231.000000,0.000000,4214.487305,4215.512695,4222.948730,4228.974121,4205.384766,4220.897461,4225.897461,4223.589844,4225.256348,4216.025879,4231.025879,4204.230957,4228.461426,4198.717773,2466.000000,4.000000,86.000000,,,,0.000000,4.000000,4.000000,4.000000,4.000000,4.000000,4.000000,4.000000,4.000000,4.000000,4.000000,4.000000,4.000000,4.000000,4.000000,100.000000,,,,,,,,,,,,,,,,
1644854010.765512,232.000000,0.000000,4218.974121,4220.512695,4226.153809,4229.230957,4208.717773,4222.051270,4224.615234,4223.846191,4223.077148,4216.666504,4233.077148,4205.384766,4233.461426,4198.974121,3502.000000,4.000000,86.000000,,,,0.000000,4.000000,4.000000,4.000000,4.000000,4.000000,4.000000,4.000000,4.000000,4.000000,4.000000,4.000000,4.000000,4.000000,4.000000,100.000000,,,,,,,,,,,,,,,,
1644854010.769452,233.000000,0.000000,4220.256348,4225.769043,4226.922852,4224.871582,4210.000000,4217.820313,4220.769043,4221.153809,4218.589844,4214.102539,4233.461426,4203.333496,4240.128418,4199.743652,3492.000000,4.000000,86.000000,,,,0.000000,4.000000,4.000000,4.000000,4.000000,4.000000,4.000000,4.000000,4.000000,4.000000,4.000000,4.000000,4.000000,4.000000,4.000000,100.000000,,,,,,,,,,,,,,,,
1644854010.773392,234.000000,0.000000,4218.333496,4228.077148,4225.128418,4219.358887,4210.512695,4212.307617,4218.205078,4217.436035,4214.230957,4208.077148,4230.769043,4200.641113,4245.384766,4201.410156,3350.000000,4.000000,86.000000,,,,0.000000,4.000000,4.000000,4.000000,4.000000,4.000000,4.000000,4.000000,4.000000,4.000000,4.000000,4.000000,4.000000,4.000000,4.000000,100.000000,,,,,,,,,,,,,,,,
1644854010.777332,235.000000,0.000000,4215.256348,4225.897461,4222.436035,4215.897461,4212.820313,4210.000000,4217.948730,4215.384766,4212.563965,4201.666504,4225.641113,4200.256348,4246.153809,4203.205078,2466.000000,4.000000,86.000000,,,,0.000000,4.000000,4.000000,4.000000,4.000000,4.000000,4.000000,4.000000,4.000000,4.000000,4.000000,4.000000,4.000000,4.000000,4.000000,100.000000,,,,,,,,,,,,,,,,
1644854010.781272,236.000000,0.000000,4213.077148,4221.538574,4221.153809,4215.641113,4217.436035,4212.307617,4218.846191,4215.897461,4214.358887,4199.358887,4221.410156,4202.692383,4242.051270,4203.717773,3502.000000,4.000000,86.000000,,,,0.000000,4.000000,4.000000,4.000000,4.000000,4.000000,4.000000,4.000000,4.000000,4.000000,4.000000,4.000000,4.000000,4.000000,4.000000,100.000000,,,,,,,,,,,,,,,,
1644854010.785213,237.000000,0.000000,4213.333496,4218.589844,4222.179688,4217.436035,4221.282227,4216.794922,4219.358887,4217.692383,4217.692383,4203.717773,4221.153809,4205.512695,4234.358887,4202.820313,3492.000000,4.000000,86.000000,,,,0.000000,4.000000,4.000000,4.000000,4.000000,4.000000,4.000000,4.000000,4.000000,4.000000,4.000000,4.000000,4.000000,4.000000,4.000000,100.000000,,,,,,,,,,,,,,,,
1644854010.789153,238.000000,0.000000,4216.025879,4220.000000,4225.000000,4220.128418,4221.538574,4219.487305,4220.000000,4219.230957,4220.000000,4212.179688,4224.615234,4206.153809,4225.641113,4200.769043,3350.000000,4.000000,86.000000,,,,0.000000,4.000000,4.000000,4.000000,4.000000,4.000000,4.000000,4.000000,4.000000,4.000000,4.000000,4.000000,4.000000,4.000000,4.000000,100.000000,,,,,,,,,,,,,,,,
1644854010.793093,239.000000,0.000000,4218.974121,4225.000000,4227.692383,4222.692383,4219.102539,4218.077148,4221.538574,4219.743652,4219.615234,4218.589844,4228.717773,4204.358887,4218.717773,4197.563965,2466.000000,4.000000,86.000000,,,,0.000000,4.000000,4.000000,4.000000,4.000000,4.000000,4.000000,4.000000,4.000000,4.000000,4.000000,4.000000,4.000000,4.000000,4.000000,100.000000,,,,,,,,,,,,,,,,
1644854010.797033,240.000000,0.000000,4219.615234,4229.871582,4228.205078,4224.871582,4217.692383,4214.487305,4222.948730,4219.230957,4216.922852,4218.461426,4230.256348,4201.922852,4215.769043,4194.102539,3502.000000,4.000000,86.000000,,,,0.000000,4.000000,4.000000,4.000000,4.000000,4.000000,4.000000,4.000000,4.000000,4.000000,4.000000,4.000000,4.000000,4.000000,4.000000,100.000000,,,,,,,,,,,,,,,,
1644854010.800973,241.000000,0.000000,4216.282227,4231.153809,4226.538574,4226.410156,4218.589844,4212.563965,4222.436035,4217.692383,4214.102539,4211.794922,4227.820313,4200.769043,4217.179688,4192.051270,3492.000000,4.000000,86.000000,,,,0.000000,4.000000,4.000000,4.000000,4.000000,4.000000,4.000000,4.000000,4.000000,4.000000,4.000000,4.000000,4.000000,4.000000,4.000000,100.000000,,,,,,,,,,,,,,,,
1644854010.804913,242.000000,0.000000,4209.615234,4228.077148,4223.846191,4226.025879,4219.487305,4214.102539,4220.128418,4215.128418,4211.538574,4202.692383,4222.307617,4200.512695,4221.025879,4193.333496,3350.000000,4.000000,86.000000,,,,0.000000,4.000000,4.000000,4.000000,4.000000,4.000000,4.000000,4.000000,4.000000,4.000000,4.000000,4.000000,4.000000,4.000000,4.000000,100.000000,,,,,,,,,,,,,,,,
1644854010.808853,243.000000,0.000000,4202.307617,4222.436035,4221.922852,4222.436035,4216.794922,4217.179688,4218.205078,4211.794922,4208.333496,4196.410156,4215.000000,4199.230957,4224.358887,4198.333496,2466.000000,4.000000,86.000000,,,,0.000000,4.000000,4.000000,4.000000,4.000000,4.000000,4.000000,4.000000,4.000000,4.000000,4.000000,4.000000,4.000000,4.000000,4.000000,100.000000,,,,,,,,,,,,,,,,
1644854010.812793,244.000000,0.000000,4198.333496,4217.948730,4221.922852,4215.897461,4211.410156,4218.205078,4218.077148,4208.461426,4203.589844,4196.025879,4208.205078,4195.769043,4224.358887,4203.589844,3502.000000,4.000000,86.000000,,,,0.000000,4.000000,4.000000,4.000000,4.000000,4.000000,4.000000,4.000000,4.000000,4.000000,4.000000,4.000000,4.000000,4.000000,4.000000,100.000000,,,,,,,,,,,,,,,,
1644854010.816733,245.000000,0.000000,4201.538574,4217.307617,4223.589844,4208.974121,4207.563965,4215.512695,4218.717773,4206.025879,4198.974121,4200.897461,4205.641113,4191.922852,4221.025879,4205.256348,3492.000000,4.000000,86.000000,,,,0.000000,4.000000,4.000000,4.000000,4.000000,4.000000,4.000000,4.000000,4.000000,4.000000,4.000000,4.000000,4.000000,4.000000,4.000000,100.000000,,,,,,,,,,,,,,,,
1644854010.820674,246.000000,0.000000,4211.794922,4220.128418,4225.769043,4205.128418,4208.461426,4210.897461,4217.820313,4204.743652,4197.179688,4206.410156,4209.487305,4190.769043,4217.307617,4201.922852,3350.000000,4.000000,86.000000,,,,0.000000,4.000000,4.000000,4.000000,4.000000,4.000000,4.000000,4.000000,4.000000,4.000000,4.000000,4.000000,4.000000,4.000000,4.000000,100.000000,,,,,,,,,,,,,,,,
1644854010.824614,247.000000,0.000000,4224.102539,4224.230957,4227.692383,4206.282227,4212.820313,4207.820313,4215.769043,4205.000000,4199.487305,4207.948730,4218.077148,4194.230957,4216.025879,4196.282227,2466.000000,4.000000,86.000000,,,,0.000000,4.000000,4.000000,4.000000,4.000000,4.000000,4.000000,4.000000,4.000000,4.000000,4.000000,4.000000,4.000000,4.000000,4.000000,100.000000,,,,,,,,,,,,,,,,
1644854010.828554,248.000000,0.000000,4231.666504,4226.153809,4229.230957,4211.410156,4216.153809,4208.205078,4214.743652,4206.538574,4204.615234,4204.358887,4226.025879,4201.153809,4217.051270,4193.333496,3502.000000,4.000000,86.000000,,,,0.000000,4.000000,4.000000,4.000000,4.000000,4.000000,4.000000,4.000000,4.000000,4.000000,4.000000,4.000000,4.000000,4.000000,4.000000,100.000000,,,,,,,,,,,,,,,,
1644854010.832494,249.000000,0.000000,4230.256348,4224.230957,4230.128418,4216.410156,4215.512695,4210.128418,4216.410156,4208.589844,4209.230957,4199.102539,4228.974121,4206.922852,4217.436035,4195.000000,3492.000000,4.000000,86.000000,,,,0.000000,4.000000,4.000000,4.000000,4.000000,4.000000,4.000000,4.000000,4.000000,4.000000,4.000000,4.000000,4.000000,4.000000,4.000000,100.000000,,,,,,,,,,,,,,,,
1644854010.836434,250.000000,0.000000,4221.538574,4219.871582,4229.871582,4218.077148,4212.563965,4210.512695,4218.846191,4210.000000,4210.641113,4196.922852,4226.794922,4207.563965,4214.615234,4199.102539,3350.000000,4.000000,86.000000,,,,0.000000,4.000000,4.000000,4.000000,4.000000,4.000000,4.000000,4.000000,4.000000,4.000000,4.000000,4.000000,4.000000,4.000000,4.000000,100.000000,,,,,,,,,,,,,,,,
1644854010.840374,251.000000,0.000000,4212.179688,4216.282227,4228.077148,4216.153809,4210.384766,4207.948730,4218.461426,4209.487305,4208.461426,4199.102539,4222.948730,4202.563965,4209.615234,4201.666504,2466.000000,4.000000,86.000000,,,,0.000000,4.000000,4.000000,4.000000,4.000000,4.000000,4.000000,4.000000,4.000000,4.000000,4.000000,4.000000,4.000000,4.000000,4.000000,100.000000,,,,,,,,,,,,,,,,
1644854010.844314,252.000000,0.000000,4208.205078,4215.769043,4226.410156,4213.205078,4210.256348,4204.743652,4214.358887,4206.666504,4204.487305,4202.563965,4220.000000,4196.282227,4205.769043,4200.897461,3502.000000,4.000000,86.000000,,,,0.000000,4.000000,4.000000,4.000000,4.000000,4.000000,4.000000,4.000000,4.000000,4.000000,4.000000,4.000000,4.000000,4.000000,4.000000,100.000000,,,,,,,,,,,,,,,,
1644854010.848254,253.000000,0.000000,4211.410156,4217.179688,4226.794922,4211.410156,4210.769043,4203.974121,4209.615234,4202.820313,4201.153809,4203.589844,4217.692383,4193.846191,4206.025879,4199.230957,3492.000000,4.000000,86.000000,,,,0.000000,4.000000,4.000000,4.000000,4.000000,4.000000,4.000000,4.000000,4.000000,4.000000,4.000000,4.000000,4.000000,4.000000,4.000000,100.000000,,,,,,,,,,,,,,,,
1644854010.852194,254.000000,0.000000,4218.333496,4218.589844,4229.871582,4211.153809,4210.000000,4206.666504,4208.077148,4200.384766,4200.000000,4201.025879,4214.871582,4197.436035,4210.769043,4199.230957,3350.000000,4.000000,86.000000,,,,0.000000,4.000000,4.000000,4.000000,4.000000,4.000000,4.000000,4.000000,4.000000,4.000000,4.000000,4.000000,4.000000,4.000000,4.000000,100.000000,,,,,,,,,,,,,,,,
1644854010.856134,255.000000,0.000000,4224.230957,4219.871582,4233.846191,4211.666504,4207.692383,4210.769043,4210.769043,4201.538574,4201.538574,4196.922852,4212.179688,4204.871582,4218.077148,4201.410156,113.000000,4.000000,86.000000,,,,0.000000,4.000000,4.000000,4.000000,4.000000,4.000000,4.000000,4.000000,4.000000,4.000000,4.000000,4.000000,4.000000,4.000000,4.000000,100.000000,,,,,,,,,,,,,,,,
1644854010.860075,0.000000,0.000000,4226.410156,4222.307617,4235.769043,4212.948730,4205.769043,4212.948730,4214.743652,4206.025879,4205.000000,4194.743652,4211.922852,4211.666504,4224.487305,4203.589844,3430.000000,4.000000,86.000000,,,,0.000000,4.000000,4.000000,4.000000,4.000000,4.000000,4.000000,4.000000,4.000000,4.000000,4.000000,4.000000,4.000000,4.000000,4.000000,100.000000,,,,,,,,,,,,,,,,
1644854010.864015,1.000000,0.000000,4224.358887,4225.769043,4234.615234,4214.871582,4206.153809,4211.538574,4217.179688,4211.153809,4209.102539,4196.794922,4215.769043,4213.974121,4226.666504,4204.358887,3320.000000,4.000000,86.000000,,,,0.000000,4.000000,4.000000,4.000000,4.000000,4.000000,4.000000,4.000000,4.000000,4.000000,4.000000,4.000000,4.000000,4.000000,4.000000,100.000000,,,,,,,,,,,,,,,,
1644854010.867955,2.000000,0.000000,4219.615234,4227.563965,4231.922852,4216.922852,4209.230957,4208.205078,4217.563965,4214.230957,4212.179688,4202.563965,4222.563965,4211.153809,4223.974121,4205.256348,3558.000000,4.000000,86.000000,,,,0.000000,4.000000,4.000000,4.000000,4.000000,4.000000,4.000000,4.000000,4.000000,4.000000,4.000000,4.000000,4.000000,4.000000,4.000000,100.000000,,,,,,,,,,,,,,,,
1644854010.871895,3.000000,0.000000,4214.743652,4225.512695,4230.512695,4217.179688,4213.461426,4206.025879,4217.051270,4213.846191,4213.589844,4209.487305,4229.230957,4204.487305,4219.102539,4208.077148,3497.000000,4.000000,86.000000,,,,0.000000,4.000000,4.000000,4.000000,4.000000,4.000000,4.000000,4.000000,4.000000,4.000000,4.000000,4.000000,4.000000,4.000000,4.000000,100.000000,,,,,,,,,,,,,,,,
1644854010.875835,4.000000,0.000000,4212.820313,4220.897461,4231.153809,4215.384766,4217.436035,4207.692383,4216.282227,4211.282227,4213.717773,4214.102539,4233.205078,4196.922852,4215.384766,4211.794922,3643.000000,4.000000,86.000000,,,,0.000000,4.000000,4.000000,4.000000,4.000000,4.000000,4.000000,4.000000,4.000000,4.000000,4.000000,4.000000,4.000000,4.000000,4.000000,100.000000,1.000000,75.000000,4.000000,1.000000,4.000000,4.000000,4.000000,4.000000,4.000000,4.000000,4.000000,4.000000,4.000000,4.000000,4.000000,4.000000
1644854010.879775,5.000000,0.000000,4215.512695,4217.179688,4232.179688,4212.948730,4220.512695,4212.692383,4215.000000,4208.717773,4213.461426,4214.487305,4232.436035,4192.307617,4214.871582,4213.333496,3361.000000,4.000000,86.000000,,,,0.000000,4.000000,4.000000,4.000000,4.000000,4.000000,4.000000,4.000000,4.000000,4.000000,4.000000,4.000000,4.000000,4.000000,4.000000,100.000000,,,,,,,,,,,,,,,,
1644854010.883715,6.000000,0.000000,4221.666504,4217.948730,4232.563965,4212.051270,4222.563965,4217.563965,4213.846191,4208.077148,4213.974121,4211.538574,4227.179688,4193.461426,4217.692383,4211.282227,2583.000000,4.000000,86.000000,,,,0.000000,4.000000,4.000000,4.000000,4.000000,4.000000,4.000000,4.000000,4.000000,4.000000,4.000000,4.000000,4.000000,4.000000,4.000000,100.000000,,,,,,,,,,,,,,,,
1644854010.887655,7.000000,0.000000,4227.307617,4222.820313,4233.077148,4212.820313,4223.589844,4219.102539,4214.358887,4209.871582,4215.641113,4207.436035,4220.256348,4200.256348,4222.563965,4207.948730,3192.000000,4.000000,86.000000,,,,0.000000,4.000000,4.000000,4.000000,4.000000,4.000000,4.000000,4.000000,4.000000,4.000000,4.000000,4.000000,4.000000,4.000000,4.000000,100.000000,,,,,,,,,,,,,,,,
1644854010.891595,8.000000,0.000000,4228.846191,4228.717773,4235.000000,4214.102539,4223.077148,4217.692383,4217.563965,4212.948730,4217.307617,4204.743652,4215.897461,4208.717773,4227.436035,4207.307617,3271.000000,4.000000,86.000000,,,,0.000000,4.000000,4.000000,4.000000,4.000000,4.000000,4.000000,4.000000,4.000000,4.000000,4.000000,4.000000,4.000000,4.000000,4.000000,100.000000,,,,,,,,,,,,,,,,
1644854010.895536,9.000000,0.000000,4225.769043,4231.538574,4238.589844,4214.230957,4221.025879,4216.025879,4221.282227,4215.128418,4218.077148,4204.102539,4217.692383,4213.974121,4230.897461,4210.256348,3544.000000,4.000000,86.000000,,,,0.000000,4.000000,4.000000,4.000000,4.000000,4.000000,4.000000,4.000000,4.000000,4.000000,4.000000,4.000000,4.000000,4.000000,4.000000,100.000000,,,,,,,,,,,,,,,,
1644854010.899376,10.000000,0.000000,4220.769043,4229.871582,4241.794922,4213.461426,4218.589844,4216.025879,4222.307617,4215.384766,4217.563965,4205.256348,4224.871582,4213.589844,4232.179688,4214.743652,3510.000000,4.000000,86.000000,,,,0.000000,4.000000,4.000000,4.000000,4.000000,4.000000,4.000000,4.000000,4.000000,4.000000,4.000000,4.000000,4.000000,4.000000,4.000000,100.000000,,,,,,,,,,,,,,,,
1644854010.903316,11.000000,0.000000,4217.051270,4225.256348,4242.563965,4214.102539,4217.820313,4217.307617,4219.871582,4214.102539,4216.153809,4208.333496,4232.948730,4209.102539,4231.666504,4218.589844,2617.000000,4.000000,86.000000,,,,0.000000,4.000000,4.000000,4.000000,4.000000,4.000000,4.000000,4.000000,4.000000,4.000000,4.000000,4.000000,4.000000,4.000000,4.000000,100.000000,,,,,,,,,,,,,,,,
1644854010.907256,12.000000,0.000000,4216.794922,4221.025879,4240.128418,4218.077148,4218.717773,4217.051270,4215.897461,4212.563965,4214.743652,4212.948730,4236.922852,4203.461426,4230.000000,4220.641113,3481.000000,4.000000,86.000000,,,,0.000000,4.000000,4.000000,4.000000,4.000000,4.000000,4.000000,4.000000,4.000000,4.000000,4.000000,4.000000,4.000000,4.000000,4.000000,100.000000,,,,,,,,,,,,,,,,
1644854010.911196,13.000000,0.000000,4219.743652,4219.102539,4236.025879,4224.615234,4218.717773,4214.230957,4213.205078,4211.025879,4213.333496,4217.692383,4234.871582,4199.871582,4227.563965,4220.512695,3640.000000,4.000000,86.000000,,,,0.000000,4.000000,4.000000,4.000000,4.000000,4.000000,4.000000,4.000000,4.000000,4.000000,4.000000,4.000000,4.000000,4.000000,4.000000,100.000000,,,,,,,,,,,,,,,,
1644854010.915136,14.000000,0.000000,4224.743652,4220.256348,4232.179688,4230.641113,4215.256348,4210.256348,4212.563965,4209.487305,4212.307617,4220.512695,4229.102539,4199.230957,4226.282227,4217.948730,3510.000000,4.000000,86.000000,,,,0.000000,4.000000,4.000000,4.000000,4.000000,4.000000,4.000000,4.000000,4.000000,4.000000,4.000000,4.000000,4.000000,4.000000,4.000000,100.000000,,,,,,,,,,,,,,,,
1644854010.919076,15.000000,0.000000,4230.897461,4224.230957,4230.769043,4232.692383,4209.358887,4208.461426,4212.948730,4208.077148,4212.563965,4220.641113,4224.230957,4201.282227,4227.563965,4213.589844,2617.000000,4.000000,86.000000,,,,0.000000,4.000000,4.000000,4.000000,4.000000,4.000000,4.000000,4.000000,4.000000,4.000000,4.000000,4.000000,4.000000,4.000000,4.000000,100.000000,,,,,,,,,,,,,,,,
1644854010.923016,16.000000,0.000000,4237.307617,4229.871582,4232.307617,4229.358887,4206.153809,4210.384766,4213.333496,4208.205078,4215.384766,4220.256348,4222.692383,4204.615234,4231.282227,4210.128418,3481.000000,4.000000,86.000000,,,,0.000000,4.000000,4.000000,4.000000,4.000000,4.000000,4.000000,4.000000,4.000000,4.000000,4.000000,4.000000,4.000000,4.000000,4.000000,100.000000,,,,,,,,,,,,,,,,
1644854010.926956,17.000000,0.000000,4242.051270,4235.128418,4235.128418,4222.307617,4210.384766,4214.743652,4214.487305,4210.769043,4219.871582,4221.282227,4224.358887,4207.051270,4234.743652,4210.641113,3640.000000,4.000000,86.000000,,,,0.000000,4.000000,4.000000,4.000000,4.000000,4.000000,4.000000,4.000000,4.000000,4.000000,4.000000,4.000000,4.000000,4.000000,4.000000,100.000000,,,,,,,,,,,,,,,,
1644854010.930897,18.000000,0.000000,4241.922852,4238.077148,4237.051270,4215.769043,4221.025879,4218.846191,4217.563965,4214.743652,4223.846191,4223.846191,4226.538574,4206.794922,4234.743652,4214.102539,3510.000000,4.000000,86.000000,,,,0.000000,4.000000,4.000000,4.000000,4.000000,4.000000,4.000000,4.000000,4.000000,4.000000,4.000000,4.000000,4.000000,4.000000,4.000000,100.000000,,,,,,,,,,,,,,,,
1644854010.934837,19.000000,0.000000,4235.000000,4237.820313,4236.794922,4213.077148,4230.641113,4220.512695,4221.153809,4218.205078,4225.128418,4224.871582,4227.436035,4203.974121,4230.256348,4216.410156,2617.000000,4.000000,86.000000,,,,0.000000,4.000000,4.000000,4.000000,4.000000,4.000000,4.000000,4.000000,4.000000,4.000000,4.000000,4.000000,4.000000,4.000000,4.000000,100.000000,,,,,,,,,,,,,,,,
1644854010.938777,20.000000,0.000000,4222.307617,4234.230957,4234.358887,4214.743652,4231.794922,4219.615234,4222.307617,4218.974121,4223.461426,4222.051270,4227.820313,4200.512695,4223.846191,4214.102539,3481.000000,4.000000,86.000000,,,,0.000000,4.000000,4.000000,4.000000,4.000000,4.000000,4.000000,4.000000,4.000000,4.000000,4.000000,4.000000,4.000000,4.000000,4.000000,100.000000,,,,,,,,,,,,,,,,
1644854010.942717,21.000000,0.000000,4208.846191,4227.692383,4231.153809,4218.077148,4224.358887,4217.051270,4219.358887,4216.922852,4220.769043,4216.282227,4229.743652,4198.717773,4219.615234,4209.358887,3640.000000,4.000000,86.000000,,,,0.000000,4.000000,4.000000,4.000000,4.000000,4.000000,4.000000,4.000000,4.000000,4.000000,4.000000,4.000000,4.000000,4.000000,4.000000,100.000000,,,,,,,,,,,,,,,,
1644854010.946657,22.000000,0.000000,4201.153809,4220.384766,4228.974121,4219.615234,4214.871582,4214.615234,4214.487305,4214.230957,4219.102539,4210.897461,4233.461426,4199.358887,4219.871582,4207.563965,3510.000000,4.000000,86.000000,,,,0.000000,4.000000,4.000000,4.000000,4.000000,4.000000,4.000000,4.000000,4.000000,4.000000,4.000000,4.000000,4.000000,4.000000,4.000000,100.000000,,,,,,,,,,,,,,,,
1644854010.950597,23.000000,0.000000,4203.205078,4215.897461,4229.230957,4217.692383,4210.897461,4213.333496,4211.282227,4213.205078,4219.615234,4208.974121,4236.794922,4202.051270,4223.717773,4211.922852,2617.000000,4.000000,86.000000,,,,0.000000,4.000000,4.000000,4.000000,4.000000,4.000000,4.000000,4.000000,4.000000,4.000000,4.000000,4.000000,4.000000,4.000000,4.000000,100.000000,,,,,,,,,,,,,,,,
1644854010.954537,24.000000,0.000000,4214.230957,4217.436035,4232.179688,4214.230957,4214.871582,4213.974121,4211.794922,4214.230957,4221.410156,4211.410156,4237.563965,4206.025879,4227.436035,4219.230957,3481.000000,4.000000,86.000000,,,,0.000000,4.000000,4.000000,4.000000,4.000000,4.000000,4.000000,4.000000,4.000000,4.000000,4.000000,4.000000,4.000000,4.000000,4.000000,100.000000,,,,,,,,,,,,,,,,
1644854010.958477,25.000000,0.000000,4228.461426,4224.102539,4236.794922,4212.692383,4223.589844,4216.282227,4214.230957,4216.410156,4223.461426,4217.051270,4235.769043,4210.384766,4228.589844,4223.717773,3640.000000,4.000000,86.000000,,,,0.000000,4.000000,4.000000,4.000000,4.000000,4.000000,4.000000,4.000000,4.000000,4.000000,4.000000,4.000000,4.000000,4.000000,4.000000,100.000000,,,,,,,,,,,,,,,,
1644854010.962417,26.000000,0.000000,4238.974121,4232.179688,4241.025879,4216.025879,4231.666504,4219.102539,4216.153809,4218.333496,4224.743652,4223.333496,4232.692383,4213.205078,4227.179688,4222.563965,3510.000000,4.000000,86.000000,,,,0.000000,4.000000,4.000000,4.000000,4.000000,4.000000,4.000000,4.000000,4.000000,4.000000,4.000000,4.000000,4.000000,4.000000,4.000000,100.000000,,,,,,,,,,,,,,,,
1644854010.966358,27.000000,0.000000,4241.025879,4236.666504,4242.948730,4223.589844,4234.743652,4221.025879,4216.666504,4218.717773,4224.358887,4226.922852,4229.230957,4212.563965,4224.871582,4218.461426,2617.000000,4.000000,86.000000,,,,0.000000,4.000000,4.000000,4.000000,4.000000,4.000000,4.000000,4.000000,4.000000,4.000000,4.000000,4.000000,4.000000,4.000000,4.000000,100.000000,,,,,,,,,,,,,,,,
1644854010.970198,28.000000,0.000000,4234.615234,4235.641113,4241.538574,4231.666504,4230.384766,4220.256348,4216.025879,4216.666504,4221.282227,4226.282227,4223.717773,4207.948730,4222.436035,4215.641113,3481.000000,4.000000,86.000000,1,1,3,0.000000,4.000000,4.000000,4.000000,4.000000,4.000000,4.000000,4.000000,4.000000,4.000000,4.000000,4.000000,4.000000,4.000000,4.000000,100.000000,,,,,,,,,,,,,,,,
1644854010.974138,29.000000,0.000000,4223.589844,4230.769043,4236.794922,4235.256348,4219.743652,4217.179688,4214.743652,4212.051270,4215.641113,4222.307617,4215.128418,4202.307617,4219.487305,4214.487305,3640.000000,4.000000,86.000000,,,,0.000000,4.000000,4.000000,4.000000,4.000000,4.000000,4.000000,4.000000,4.000000,4.000000,4.000000,4.000000,4.000000,4.000000,4.000000,100.000000,,,,,,,,,,,,,,,,
1644854010.978078,30.000000,0.000000,4213.974121,4225.897461,4230.641113,4232.179688,4207.436035,4213.974121,4212.436035,4205.641113,4208.974121,4217.051270,4206.025879,4199.230957,4216.025879,4212.692383,3510.000000,4.000000,86.000000,,,,0.000000,4.000000,4.000000,4.000000,4.000000,4.000000,4.000000,4.000000,4.000000,4.000000,4.000000,4.000000,4.000000,4.000000,4.000000,100.000000,,,,,,,,,,,,,,,,
1644854010.982018,31.000000,0.000000,4209.743652,4223.589844,4225.512695,4224.102539,4199.615234,4213.077148,4208.846191,4200.000000,4204.102539,4211.666504,4201.538574,4199.871582,4211.666504,4208.461426,2617.000000,4.000000,86.000000,,,,0.000000,4.000000,4.000000,4.000000,4.000000,4.000000,4.000000,4.000000,4.000000,4.000000,4.000000,4.000000,4.000000,4.000000,4.000000,100.000000,,,,,,,,,,,,,,,,
1644854010.985958,32.000000,0.000000,4211.025879,4222.820313,4222.948730,4214.487305,4199.615234,4214.230957,4205.897461,4197.436035,4202.692383,4206.025879,4204.487305,4202.179688,4206.025879,4203.077148,0.000000,4.000000,86.000000,,,,0.000000,4.000000,4.000000,4.000000,4.000000,4.000000,4.000000,4.000000,4.000000,4.000000,4.000000,4.000000,4.000000,4.000000,4.000000,100.000000,,,,,,,,,,,,,,,,
1644854010.989898,33.000000,0.000000,4214.230957,4220.897461,4222.563965,4206.153809,4206.538574,4215.384766,4205.769043,4198.589844,4203.846191,4200.128418,4212.307617,4202.948730,4199.358887,4200.128418,0.000000,4.000000,86.000000,,,,0.000000,4.000000,4.000000,4.000000,4.000000,4.000000,4.000000,4.000000,4.000000,4.000000,4.000000,4.000000,4.000000,4.000000,4.000000,100.000000,,,,,,,,,,,,,,,,
1644854010.993838,34.000000,0.000000,4215.897461,4217.436035,4222.436035,4200.897461,4216.538574,4214.487305,4208.589844,4201.794922,4206.025879,4195.641113,4219.102539,4200.000000,4193.846191,4201.666504,0.000000,4.000000,86.000000,,,,0.000000,4.000000,4.000000,4.000000,4.000000,4.000000,4.000000,4.000000,4.000000,4.000000,4.000000,4.000000,4.000000,4.000000,4.000000,100.000000,,,,,,,,,,,,,,,,
1644854010.997778,35.000000,0.000000,4215.000000,4214.487305,4221.025879,4198.589844,4224.743652,4212.051270,4211.282227,4204.487305,4207.948730,4195.256348,4220.384766,4193.717773,4192.179688,4206.666504,0.000000,4.000000,86.000000,,,,0.000000,4.000000,4.000000,4.000000,4.000000,4.000000,4.000000,4.000000,4.000000,4.000000,4.000000,4.000000,4.000000,4.000000,4.000000,100.000000,,,,,,,,,,,,,,,,
1644854011.001619,36.000000,0.000000,4211.922852,4213.461426,4217.820313,4197.948730,4227.307617,4210.256348,4210.897461,4204.743652,4208.846191,4199.102539,4216.794922,4186.410156,4194.871582,4211.153809,0.000000,4.000000,86.000000,,,,0.000000,4.000000,4.000000,4.000000,4.000000,4.000000,4.000000,4.000000,4.000000,4.000000,4.000000,4.000000,4.000000,4.000000,4.000000,100.000000,,,,,,,,,,,,,,,,
1644854011.005559,37.000000,0.000000,4207.948730,4213.461426,4213.461426,4197.948730,4222.692383,4210.256348,4207.692383,4202.692383,4208.205078,4203.974121,4212.563965,4181.153809,4198.846191,4212.307617,0.000000,4.000000,86.000000,,,,0.000000,4.000000,4.000000,4.000000,4.000000,4.000000,4.000000,4.000000,4.000000,4.000000,4.000000,4.000000,4.000000,4.000000,4.000000,100.000000,,,,,,,,,,,,,,,,
1644854011.009499,38.000000,0.000000,4204.230957,4212.692383,4210.641113,4197.948730,4213.589844,4211.153809,4204.358887,4200.512695,4206.282227,4206.666504,4211.282227,4179.230957,4200.384766,4210.769043,0.000000,4.000000,86.000000,,,,0.000000,4.000000,4.000000,4.000000,4.000000,4.000000,4.000000,4.000000,4.000000,4.000000,4.000000,4.000000,4.000000,4.000000,4.000000,100.000000,,,,,,,,,,,,,,,,
1644854011.013439,39.000000,0.000000,4202.307617,4210.641113,4212.051270,4198.333496,4205.512695,4211.025879,4203.461426,4200.256348,4205.128418,4207.051270,4212.179688,4180.641113,4199.230957,4208.846191,0.000000,4.000000,86.000000,,,,0.000000,4.000000,4.000000,4.000000,4.000000,4.000000,4.000000,4.000000,4.000000,4.000000,4.000000,4.000000,4.000000,4.000000,4.000000,100.000000,,,,,,,,,,,,,,,,
1644854011.017379,40.000000,0.000000,4203.333496,4208.846191,4217.563965,4199.743652,4202.692383,4209.358887,4204.743652,4202.948730,4207.051270,4209.102539,4211.666504,4184.743652,4198.846191,4208.589844,0.000000,4.000000,86.000000,,,,0.000000,4.000000,4.000000,4.000000,4.000000,4.000000,4.000000,4.000000,4.000000,4.000000,4.000000,4.000000,4.000000,4.000000,4.000000,100.000000,,,,,,,,,,,,,,,,
1644854011.021319,41.000000,0.000000,4206.410156,4208.717773,4224.102539,4202.948730,4205.000000,4207.692383,4206.025879,4207.692383,4213.205078,4215.769043,4207.692383,4191.282227,4203.205078,4209.743652,0.000000,4.000000,86.000000,,,,0.000000,4.000000,4.000000,4.000000,4.000000,4.000000,4.000000,4.000000,4.000000,4.000000,4.000000,4.000000,4.000000,4.000000,4.000000,100.000000,,,,,,,,,,,,,,,,
1644854011.025259,42.000000,0.000000,4209.487305,4210.769043,4227.820313,4208.461426,4208.717773,4207.692383,4206.794922,4212.692383,4221.025879,4225.256348,4203.205078,4198.846191,4212.179688,4211.025879,0.000000,4.000000,86.000000,,,,0.000000,4.000000,4.000000,4.000000,4.000000,4.000000,4.000000,4.000000,4.000000,4.000000,4.000000,4.000000,4.000000,4.000000,4.000000,100.000000,,,,,,,,,,,,,,,,
1644854011.029199,43.000000,0.000000,4211.282227,4213.589844,4227.563965,4215.128418,4211.025879,4210.000000,4208.461426,4217.051270,4227.179688,4232.051270,4204.102539,4205.000000,4220.769043,4211.922852,0.000000,4.000000,86.000000,,,,0.000000,4.000000,4.000000,4.000000,4.000000,4.000000,4.000000,4.000000,4.000000,4.000000,4.000000,4.000000,4.000000,4.000000,4.000000,100.000000,,,,,,,,,,,,,,,,
1644854011.033140,44.000000,0.000000,4212.307617,4216.282227,4225.256348,4220.384766,4212.563965,4213.205078,4211.410156,4220.256348,4229.487305,4232.179688,4214.358887,4206.538574,4223.846191,4212.436035,0.000000,4.000000,86.000000,,,,0.000000,4.000000,4.000000,4.000000,4.000000,4.000000,4.000000,4.000000,4.000000,4.000000,4.000000,4.000000,4.000000,4.000000,4.000000,100.000000,,,,,,,,,,,,,,,,
1644854011.037080,45.000000,0.000000,4213.589844,4217.436035,4223.589844,4221.025879,4214.615234,4215.128418,4213.717773,4221.666504,4228.205078,4227.307617,4230.384766,4202.820313,4220.128418,4212.436035,0.000000,4.000000,86.000000,,,,0.000000,4.000000,4.000000,4.000000,4.000000,4.000000,4.000000,4.000000,4.000000,4.000000,4.000000,4.000000,4.000000,4.000000,4.000000,100.000000,,,,,,,,,,,,,,,,
1644854011.041020,46.000000,0.000000,4215.512695,4216.922852,4222.948730,4215.512695,4216.282227,4214.743652,4213.461426,4220.512695,4224.615234,4222.692383,4242.692383,4196.282227,4213.077148,4211.666504,0.000000,4.000000,86.000000,,,,0.000000,4.000000,4.000000,4.000000,4.000000,4.000000,4.000000,4.000000,4.000000,4.000000,4.000000,4.000000,4.000000,4.000000,4.000000,100.000000,,,,,,,,,,,,,,,,
1644854011.044960,47.000000,0.000000,4217.179688,4215.128418,4222.692383,4206.666504,4215.512695,4212.563965,4211.282227,4216.922852,4220.384766,4222.051270,4242.820313,4191.153809,4207.692383,4210.256348,0.000000,4.000000,86.000000,,,,0.000000,4.000000,4.000000,4.000000,4.000000,4.000000,4.000000,4.000000,4.000000,4.000000,4.000000,4.000000,4.000000,4.000000,4.000000,100.000000,,,,,,,,,,,,,,,,
1644854011.048900,48.000000,0.000000,4217.692383,4213.846191,4222.436035,4199.615234,4211.538574,4210.769043,4210.384766,4212.307617,4216.410156,4223.846191,4230.769043,4190.256348,4206.666504,4208.717773,0.000000,4.000000,86.000000,,,,0.000000,4.000000,4.000000,4.000000,4.000000,4.000000,4.000000,4.000000,4.000000,4.000000,4.000000,4.000000,4.000000,4.000000,4.000000,100.000000,,,,,,,,,,,,,,,,
1644854011.052840,49.000000,0.000000,4217.179688,4213.974121,4222.307617,4198.205078,4207.051270,4210.897461,4212.692383,4209.615234,4213.717773,4224.358887,4215.641113,4193.461426,4208.717773,4207.307617,0.000000,4.000000,86.000000,,,,0.000000,4.000000,4.000000,4.000000,4.000000,4.000000,4.000000,4.000000,4.000000,4.000000,4.000000,4.000000,4.000000,4.000000,4.000000,100.000000,,,,,,,,,,,,,,,,
1644854011.056780,50.000000,0.000000,4216.025879,4215.769043,4222.179688,4201.922852,4206.282227,4213.589844,4216.410156,4210.256348,4213.589844,4221.922852,4208.717773,4197.948730,4211.282227,4206.666504,0.000000,4.000000,86.000000,,,,0.000000,4.000000,4.000000,4.000000,4.000000,4.000000,4.000000,4.000000,4.000000,4.000000,4.000000,4.000000,4.000000,4.000000,4.000000,100.000000,,,,,,,,,,,,,,,,
1644854011.060720,51.000000,0.000000,4214.743652,4217.692383,4222.051270,4205.897461,4210.128418,4217.179688,4217.820313,4212.948730,4215.769043,4218.974121,4213.589844,4200.256348,4212.179688,4207.692383,0.000000,4.000000,86.000000,,,,0.000000,4.000000,4.000000,4.000000,4.000000,4.000000,4.000000,4.000000,4.000000,4.000000,4.000000,4.000000,4.000000,4.000000,4.000000,100.000000,,,,,,,,,,,,,,,,
1644854011.064760,52.000000,0.000000,4213.077148,4218.333496,4221.666504,4206.282227,4215.769043,4220.000000,4215.897461,4214.615234,4218.333496,4218.589844,4223.589844,4199.743652,4211.538574,4211.538574,0.000000,4.000000,86.000000,,,,0.000000,4.000000,4.000000,4.000000,4.000000,4.000000,4.000000,4.000000,4.000000,4.000000,4.000000,4.000000,4.000000,4.000000,4.000000,100.000000,,,,,,,,,,,,,,,,
1644854011.068700,53.000000,0.000000,4211.922852,4217.692383,4221.538574,4203.846191,4220.128418,4220.512695,4213.077148,4213.589844,4219.358887,4221.538574,4228.717773,4198.077148,4211.153809,4218.077148,0.000000,4.000000,86.000000,,,,0.000000,4.000000,4.000000,4.000000,4.000000,4.000000,4.000000,4.000000,4.000000,4.000000,4.000000,4.000000,4.000000,4.000000,4.000000,100.000000,,,,,,,,,,,,,,,,
1644854011.072640,54.000000,0.000000,4212.307617,4217.179688,4221.794922,4202.948730,4222.051270,4218.974121,4211.538574,4210.769043,4218.333496,4225.128418,4223.846191,4197.563965,4211.538574,4224.615234,0.000000,4.000000,86.000000,,,,0.000000,4.000000,4.000000,4.000000,4.000000,4.000000,4.000000,4.000000,4.000000,4.000000,4.000000,4.000000,4.000000,4.000000,4.000000,100.000000,,,,,,,,,,,,,,,,
1644854011.076581,55.000000,0.000000,4214.615234,4217.948730,4222.307617,4206.922852,4222.563965,4215.897461,4211.025879,4208.333496,4216.025879,4226.538574,4212.820313,4198.846191,4211.666504,4226.410156,0.000000,4.000000,86.000000,2,1,3,0.000000,4.000000,4.000000,4.000000,4.000000,4.000000,4.000000,4.000000,4.000000,4.000000,4.000000,4.000000,4.000000,4.000000,4.000000,100.000000,,,,,,,,,,,,,,,,
1644854011.080521,56.000000,0.000000,4216.666504,4218.717773,4222.307617,4213.205078,4221.922852,4212.436035,4209.487305,4207.436035,4213.974121,4224.743652,4204.102539,4200.512695,4209.615234,4221.410156,0.000000,4.000000,86.000000,,,,0.000000,4.000000,4.000000,4.000000,4.000000,4.000000,4.000000,4.000000,4.000000,4.000000,4.000000,4.000000,4.000000,4.000000,4.000000,100.000000,,,,,,,,,,,,,,,,
1644854011.084461,57.000000,0.000000,4216.153809,4217.563965,4221.794922,4215.897461,4220.000000,4210.000000,4206.666504,4207.948730,4212.563965,4221.282227,4203.846191,4201.538574,4205.897461,4213.077148,0.000000,4.000000,86.000000,,,,0.000000,4.000000,4.000000,4.000000,4.000000,4.000000,4.000000,4.000000,4.000000,4.000000,4.000000,4.000000,4.000000,4.000000,4.000000,100.000000,,,,,,,,,,,,,,,,
1644854011.088401,58.000000,0.000000,4214.102539,4215.128418,4221.410156,4210.897461,4217.820313,4209.871582,4205.256348,4209.487305,4212.307617,4219.102539,4212.307617,4202.307617,4203.589844,4208.077148,0.000000,4.000000,86.000000,,,,0.000000,4.000000,4.000000,4.000000,4.000000,4.000000,4.000000,4.000000,4.000000,4.000000,4.000000,4.000000,4.000000,4.000000,4.000000,100.000000,,,,,,,,,,,,,,,,
1644854011.092341,59.000000,0.000000,4213.717773,4213.717773,4221.410156,4200.769043,4216.666504,4212.307617,4207.051270,4210.897461,4213.205078,4219.743652,4224.871582,4202.820313,4205.769043,4210.384766,0.000000,4.000000,86.000000,,,,0.000000,4.000000,4.000000,4.000000,4.000000,4.000000,4.000000,4.000000,4.000000,4.000000,4.000000,4.000000,4.000000,4.000000,4.000000,100.000000,,,,,,,,,,,,,,,,
1644854011.096281,60.000000,0.000000,4216.922852,4214.871582,4220.641113,4193.205078,4216.282227,4215.000000,4209.743652,4211.025879,4215.000000,4223.205078,4234.102539,4202.820313,4211.794922,4217.307617,0.000000,4.000000,86.000000,,,,0.000000,4.000000,4.000000,4.000000,4.000000,4.000000,4.000000,4.000000,4.000000,4.000000,4.000000,4.000000,4.000000,4.000000,4.000000,100.000000,,,,,,,,,,,,,,,,
1644854011.100221,61.000000,0.000000,4220.897461,4217.307617,4218.589844,4193.974121,4215.384766,4215.128418,4209.871582,4208.333496,4215.897461,4226.666504,4234.102539,4200.512695,4216.922852,4222.436035,0.000000,4.000000,86.000000,,,,0.000000,4.000000,4.000000,4.000000,4.000000,4.000000,4.000000,4.000000,4.000000,4.000000,4.000000,4.000000,4.000000,4.000000,4.000000,100.000000,,,,,,,,,,,,,,,,
1644854011.104161,62.000000,0.000000,4221.538574,4218.333496,4216.025879,4201.794922,4212.179688,4211.410156,4206.538574,4202.948730,4213.589844,4227.051270,4223.717773,4195.256348,4216.410156,4222.307617,0.000000,4.000000,86.000000,,,,0.000000,4.000000,4.000000,4.000000,4.000000,4.000000,4.000000,4.000000,4.000000,4.000000,4.000000,4.000000,4.000000,4.000000,4.000000,100.000000,,,,,,,,,,,,,,,,
1644854011.108101,63.000000,0.000000,4217.051270,4216.282227,4215.128418,4210.512695,4206.922852,4205.512695,4202.820313,4197.179688,4207.948730,4222.692383,4207.820313,4188.589844,4209.358887,4218.205078,0.000000,4.000000,86.000000,,,,0.000000,4.000000,4.000000,4.000000,4.000000,4.000000,4.000000,4.000000,4.000000,4.000000,4.000000,4.000000,4.000000,4.000000,4.000000,100.000000,,,,,,,,,,,,,,,,
1644854011.112042,64.000000,0.000000,4209.487305,4211.282227,4216.282227,4213.974121,4200.769043,4200.897461,4201.794922,4193.974121,4201.794922,4214.743652,4194.358887,4183.717773,4199.358887,4213.846191,0.000000,4.000000,86.000000,,,,0.000000,4.000000,4.000000,4.000000,4.000000,4.000000,4.000000,4.000000,4.000000,4.000000,4.000000,4.000000,4.000000,4.000000,4.000000,100.000000,,,,,,,,,,,,,,,,
1644854011.115982,65.000000,0.000000,4202.820313,4205.512695,4217.563965,4211.025879,4195.769043,4199.358887,4202.436035,4193.974121,4198.077148,4206.282227,4189.487305,4183.717773,4191.538574,4210.897461,0.000000,4.000000,86.000000,,,,0.000000,4.000000,4.000000,4.000000,4.000000,4.000000,4.000000,4.000000,4.000000,4.000000,4.000000,4.000000,4.000000,4.000000,4.000000,100.000000,,,,,,,,,,,,,,,,
1644854011.119922,66.000000,0.000000,4199.615234,4201.538574,4217.307617,4205.641113,4193.717773,4200.641113,4201.794922,4195.769043,4198.077148,4199.615234,4193.461426,4189.230957,4187.948730,4208.717773,0.000000,4.000000,86.000000,,,,0.000000,4.000000,4.000000,4.000000,4.000000,4.000000,4.000000,4.000000,4.000000,4.000000,4.000000,4.000000,4.000000,4.000000,4.000000,100.000000,,,,,,,,,,,,,,,,
1644854011.123862,67.000000,0.000000,4199.615234,4200.384766,4215.897461,4202.948730,4195.128418,4202.436035,4199.230957,4197.307617,4200.512695,4196.153809,4201.410156,4197.051270,4187.436035,4206.410156,0.000000,4.000000,86.000000,,,,0.000000,4.000000,4.000000,4.000000,4.000000,4.000000,4.000000,4.000000,4.000000,4.000000,4.000000,4.000000,4.000000,4.000000,4.000000,100.000000,,,,,,,,,,,,,,,,
1644854011.127802,68.000000,0.000000,4201.025879,4200.769043,4215.128418,4204.743652,4198.846191,4202.948730,4197.179688,4197.436035,4202.692383,4195.897461,4206.666504,4202.051270,4186.922852,4205.000000,0.000000,4.000000,86.000000,,,,0.000000,4.000000,4.000000,4.000000,4.000000,4.000000,4.000000,4.000000,4.000000,4.000000,4.000000,4.000000,4.000000,4.000000,4.000000,100.000000,,,,,,,,,,,,,,,,
1644854011.131742,69.000000,0.000000,4202.179688,4200.256348,4216.025879,4208.333496,4203.589844,4201.410156,4198.461426,4196.282227,4202.820313,4198.717773,4205.769043,4201.282227,4185.256348,4206.025879,0.000000,4.000000,86.000000,,,,0.000000,4.000000,4.000000,4.000000,4.000000,4.000000,4.000000,4.000000,4.000000,4.000000,4.000000,4.000000,4.000000,4.000000,4.000000,100.000000,,,,,,,,,,,,,,,,
1644854011.135782,70.000000,0.000000,4203.461426,4197.820313,4217.179688,4209.871582,4208.717773,4199.102539,4202.179688,4194.871582,4200.897461,4202.820313,4201.025879,4195.897461,4183.717773,4209.102539,0.000000,4.000000,86.000000,,,,0.000000,4.000000,4.000000,4.000000,4.000000,4.000000,4.000000,4.000000,4.000000,4.000000,4.000000,4.000000,4.000000,4.000000,4.000000,100.000000,,,,,,,,,,,,,,,,
1644854011.139722,71.000000,0.000000,4206.410156,4196.410156,4217.436035,4207.179688,4213.589844,4198.589844,4205.000000,4194.102539,4198.846191,4205.897461,4197.307617,4190.384766,4184.102539,4211.794922,0.000000,4.000000,86.000000,,,,0.000000,4.000000,4.000000,4.000000,4.000000,4.000000,4.000000,4.000000,4.000000,4.000000,4.000000,4.000000,4.000000,4.000000,4.000000,100.000000,,,,,,,,,,,,,,,,
1644854011.143662,72.000000,0.000000,4211.025879,4199.871582,4216.282227,4200.897461,4216.922852,4201.282227,4205.000000,4195.000000,4198.205078,4206.282227,4198.461426,4188.717773,4187.436035,4212.820313,0.000000,4.000000,86.000000,,,,0.000000,4.000000,4.000000,4.000000,4.000000,4.000000,4.000000,4.000000,4.000000,4.000000,4.000000,4.000000,4.000000,4.000000,4.000000,100.000000,,,,,,,,,,,,,,,,
1644854011.147602,73.000000,0.000000,4215.384766,4208.717773,4214.871582,4192.563965,4217.051270,4206.538574,4203.974121,4197.692383,4199.102539,4204.230957,4203.974121,4191.666504,4192.307617,4213.205078,0.000000,4.000000,86.000000,,,,0.000000,4.000000,4.000000,4.000000,4.000000,4.000000,4.000000,4.000000,4.000000,4.000000,4.000000,4.000000,4.000000,4.000000,4.000000,100.000000,,,,,,,,,,,,,,,,
1644854011.151542,74.000000,0.000000,4217.051270,4218.717773,4214.615234,4183.846191,4214.358887,4211.922852,4205.000000,4201.025879,4200.897461,4202.820313,4210.641113,4196.538574,4196.538574,4215.384766,0.000000,4.000000,86.000000,,,,0.000000,4.000000,4.000000,4.000000,4.000000,4.000000,4.000000,4.000000,4.000000,4.000000,4.000000,4.000000,4.000000,4.000000,4.000000,100.000000,,,,,,,,,,,,,,,,
1644854011.155483,75.000000,0.000000,4215.769043,4223.974121,4216.153809,4177.820313,4211.922852,4214.871582,4208.205078,4203.461426,4202.948730,4205.128418,4214.743652,4199.743652,4198.589844,4219.743652,0.000000,4.000000,86.000000,,,,0.000000,4.000000,4.000000,4.000000,4.000000,4.000000,4.000000,4.000000,4.000000,4.000000,4.000000,4.000000,4.000000,4.000000,4.000000,100.000000,,,,,,,,,,,,,,,,
1644854011.159423,76.000000,0.000000,4213.974121,4222.307617,4218.333496,4177.051270,4211.922852,4215.128418,4210.512695,4203.205078,4204.487305,4211.282227,4214.871582,4199.487305,4198.333496,4224.358887,0.000000,4.000000,86.000000,,,,0.000000,4.000000,4.000000,4.000000,4.000000,4.000000,4.000000,4.000000,4.000000,4.000000,4.000000,4.000000,4.000000,4.000000,4.000000,100.000000,,,,,,,,,,,,,,,,
1644854011.163363,77.000000,0.000000,4213.974121,4216.410156,4218.974121,4183.333496,4214.743652,4213.589844,4209.487305,4200.384766,4205.256348,4217.436035,4211.666504,4195.641113,4197.051270,4226.538574,0.000000,4.000000,86.000000,,,,0.000000,4.000000,4.000000,4.000000,4.000000,4.000000,4.000000,4.000000,4.000000,4.000000,4.000000,4.000000,4.000000,4.000000,4.000000,100.000000,,,,,,,,,,,,,,,,
1644854011.167303,78.000000,0.000000,4215.384766,4210.128418,4216.410156,4195.512695,4218.077148,4211.282227,4206.282227,4196.666504,4204.358887,4218.974121,4206.282227,4189.358887,4195.769043,4225.128418,0.000000,4.000000,86.000000,,,,0.000000,4.000000,4.000000,4.000000,4.000000,4.000000,4.000000,4.000000,4.000000,4.000000,4.000000,4.000000,4.000000,4.000000,4.000000,100.000000,,,,,,,,,,,,,,,,
1644854011.171243,79.000000,0.000000,4214.743652,4206.410156,4211.538574,4209.743652,4220.128418,4209.230957,4203.846191,4195.000000,4201.666504,4214.743652,4199.871582,4182.820313,4194.615234,4220.384766,0.000000,4.000000,86.000000,,,,0.000000,4.000000,4.000000,4.000000,4.000000,4.000000,4.000000,4.000000,4.000000,4.000000,4.000000,4.000000,4.000000,4.000000,4.000000,100.000000,,,,,,,,,,,,,,,,
1644854011.175183,80.000000,0.000000,4210.641113,4205.769043,4206.922852,4220.256348,4220.512695,4208.205078,4203.717773,4196.922852,4198.974121,4207.948730,4195.000000,4179.102539,4193.589844,4213.717773,0.000000,4.000000,86.000000,,,,0.000000,4.000000,4.000000,4.000000,4.000000,4.000000,4.000000,4.000000,4.000000,4.000000,4.000000,4.000000,4.000000,4.000000,4.000000,100.000000,,,,,,,,,,,,,,,,
1644854011.179123,81.000000,0.000000,4205.256348,4207.692383,4205.256348,4222.563965,4219.615234,4208.589844,4204.871582,4201.666504,4199.487305,4203.589844,4194.871582,4180.641113,4193.205078,4207.948730,0.000000,4.000000,86.000000,,,,0.000000,4.000000,4.000000,4.000000,4.000000,4.000000,4.000000,4.000000,4.000000,4.000000,4.000000,4.000000,4.000000,4.000000,4.000000,100.000000,,,,,,,,,,,,,,,,
1644854011.183063,82.000000,0.000000,4202.948730,4210.384766,4206.666504,4216.538574,4217.307617,4210.512695,4205.384766,4207.179688,4204.230957,4204.358887,4201.410156,4187.051270,4193.205078,4206.153809,0.000000,4.000000,86.000000,,,,0.000000,4.000000,4.000000,4.000000,4.000000,4.000000,4.000000,4.000000,4.000000,4.000000,4.000000,4.000000,4.000000,4.000000,4.000000,100.000000,,,,,,,,,,,,,,,,
1644854011.187003,83.000000,0.000000,4205.384766,4211.410156,4208.589844,4206.794922,4213.077148,4212.436035,4205.000000,4210.769043,4211.025879,4209.102539,4211.410156,4194.487305,4192.948730,4210.000000,0.000000,4.000000,86.000000,,,,0.000000,4.000000,4.000000,4.000000,4.000000,4.000000,4.000000,4.000000,4.000000,4.000000,4.000000,4.000000,4.000000,4.000000,4.000000,100.000000,,,,,,,,,,,,,,,,
1644854011.190944,84.000000,0.000000,4209.102539,4209.871582,4208.589844,4197.563965,4207.179688,4212.563965,4204.615234,4210.897461,4215.128418,4213.974121,4218.461426,4198.205078,4191.410156,4216.794922,0.000000,4.000000,86.000000,,,,0.000000,4.000000,4.000000,4.000000,4.000000,4.000000,4.000000,4.000000,4.000000,4.000000,4.000000,4.000000,4.000000,4.000000,4.000000,100.000000,,,,,,,,,,,,,,,,
1644854011.194884,85.000000,0.000000,4209.615234,4207.563965,4206.922852,4189.102539,4201.922852,4210.897461,4204.743652,4208.205078,4213.333496,4215.512695,4217.820313,4196.666504,4188.846191,4221.410156,0.000000,4.000000,86.000000,,,,0.000000,4.000000,4.000000,4.000000,4.000000,4.000000,4.000000,4.000000,4.000000,4.000000,4.000000,4.000000,4.000000,4.000000,4.000000,100.000000,,,,,,,,,,,,,,,,
1644854011.198824,86.000000,0.000000,4206.666504,4207.563965,4205.512695,4181.282227,4200.769043,4208.077148,4204.487305,4203.974121,4207.179688,4214.230957,4211.538574,4193.077148,4187.563965,4221.282227,0.000000,4.000000,86.000000,,,,0.000000,4.000000,4.000000,4.000000,4.000000,4.000000,4.000000,4.000000,4.000000,4.000000,4.000000,4.000000,4.000000,4.000000,4.000000,100.000000,,,,,,,,,,,,,,,,
1644854011.202764,87.000000,0.000000,4204.102539,4210.512695,4206.794922,4176.153809,4205.256348,4206.025879,4203.333496,4200.769043,4202.179688,4212.820313,4206.410156,4190.897461,4189.615234,4218.461426,0.000000,4.000000,86.000000,,,,0.000000,4.000000,4.000000,4.000000,4.000000,4.000000,4.000000,4.000000,4.000000,4.000000,4.000000,4.000000,4.000000,4.000000,4.000000,100.000000,,,,,,,,,,,,,,,,
1644854011.206704,88.000000,0.000000,4205.641113,4213.974121,4211.153809,4177.563965,4213.461426,4205.128418,4202.820313,4200.384766,4202.948730,4213.717773,4207.436035,4191.025879,4194.487305,4217.307617,0.000000,4.000000,86.000000,,,,0.000000,4.000000,4.000000,4.000000,4.000000,4.000000,4.000000,4.000000,4.000000,4.000000,4.000000,4.000000,4.000000,4.000000,4.000000,100.000000,,,,,,,,,,,,,,,,
1644854011.210544,89.000000,0.000000,4210.897461,4214.358887,4216.410156,4186.922852,4220.256348,4205.256348,4204.102539,4202.948730,4208.974121,4216.282227,4212.692383,4191.666504,4198.846191,4219.102539,0.000000,4.000000,86.000000,,,,0.000000,4.000000,4.000000,4.000000,4.000000,4.000000,4.000000,4.000000,4.000000,4.000000,4.000000,4.000000,4.000000,4.000000,4.000000,100.000000,,,,,,,,,,,,,,,,
1644854011.214484,90.000000,0.000000,4215.897461,4210.256348,4219.358887,4200.512695,4222.179688,4205.256348,4206.794922,4206.666504,4215.512695,4218.461426,4216.153809,4190.641113,4199.487305,4220.128418,0.000000,4.000000,86.000000,,,,0.000000,4.000000,4.000000,4.000000,4.000000,4.000000,4.000000,4.000000,4.000000,4.000000,4.000000,4.000000,4.000000,4.000000,4.000000,100.000000,,,,,,,,,,,,,,,,
1644854011.218424,91.000000,0.000000,4216.794922,4203.717773,4217.948730,4211.538574,4219.358887,4204.615234,4207.948730,4208.846191,4217.436035,4219.102539,4213.974121,4187.948730,4195.897461,4216.666504,0.000000,4.000000,86.000000,,,,0.000000,4.000000,4.000000,4.000000,4.000000,4.000000,4.000000,4.000000,4.000000,4.000000,4.000000,4.000000,4.000000,4.000000,4.000000,100.000000,,,,,,,,,,,,,,,,
1644854011.222364,92.000000,0.000000,4213.717773,4198.717773,4213.077148,4215.256348,4215.384766,4203.589844,4206.282227,4208.205078,4214.102539,4219.487305,4207.563965,4185.769043,4191.538574,4209.871582,0.000000,4.000000,86.000000,,,,0.000000,4.000000,4.000000,4.000000,4.000000,4.000000,4.000000,4.000000,4.000000,4.000000,4.000000,4.000000,4.000000,4.000000,4.000000,100.000000,,,,,,,,,,,,,,,,
1644854011.226305,93.000000,0.000000,4210.256348,4198.589844,4208.333496,4211.282227,4213.205078,4203.333496,4203.589844,4206.153809,4209.358887,4221.153809,4202.563965,4186.538574,4190.128418,4205.641113,0.000000,4.000000,86.000000,,,,0.000000,4.000000,4.000000,4.000000,4.000000,4.000000,4.000000,4.000000,4.000000,4.000000,4.000000,4.000000,4.000000,4.000000,4.000000,100.000000,,,,,,,,,,,,,,,,
1644854011.230245,94.000000,0.000000,4210.128418,4204.743652,4207.692383,4203.333496,4212.820313,4204.615234,4203.589844,4205.897461,4207.307617,4224.230957,4203.589844,4191.666504,4193.461426,4208.846191,0.000000,4.000000,86.000000,,,,0.000000,4.000000,4.000000,4.000000,4.000000,4.000000,4.000000,4.000000,4.000000,4.000000,4.000000,4.000000,4.000000,4.000000,4.000000,100.000000,,,,,,,,,,,,,,,,
1644854011.234185,95.000000,0.000000,4214.358887,4214.615234,4212.307617,4195.897461,4212.051270,4207.436035,4207.436035,4208.974121,4209.487305,4226.666504,4210.641113,4199.230957,4199.871582,4217.051270,0.000000,4.000000,86.000000,,,,0.000000,4.000000,4.000000,4.000000,4.000000,4.000000,4.000000,4.000000,4.000000,4.000000,4.000000,4.000000,4.000000,4.000000,4.000000,100.000000,,,,,,,,,,,,,,,,
1644854011.238125,96.000000,0.000000,4219.358887,4222.179688,4218.205078,4190.256348,4208.717773,4209.871582,4211.666504,4212.948730,4213.461426,4226.410156,4218.461426,4205.128418,4205.256348,4222.563965,0.000000,4.000000,86.000000,,,,0.000000,4.000000,4.000000,4.000000,4.000000,4.000000,4.000000,4.000000,4.000000,4.000000,4.000000,4.000000,4.000000,4.000000,4.000000,100.000000,,,,,,,,,,,,,,,,
1644854011.242065,97.000000,0.000000,4220.384766,4221.538574,4219.871582,4185.256348,4203.461426,4209.358887,4212.307617,4214.230957,4215.769043,4223.205078,4220.897461,4205.641113,4205.641113,4219.487305,0.000000,4.000000,86.000000,,,,0.000000,4.000000,4.000000,4.000000,4.000000,4.000000,4.000000,4.000000,4.000000,4.000000,4.000000,4.000000,4.000000,4.000000,4.000000,100.000000,,,,,,,,,,,,,,,,
1644854011.246005,98.000000,0.000000,4215.512695,4211.922852,4216.025879,4180.897461,4198.846191,4205.512695,4208.974121,4211.025879,4213.974121,4218.974121,4216.538574,4201.025879,4200.384766,4209.615234,0.000000,4.000000,86.000000,,,,0.000000,4.000000,4.000000,4.000000,4.000000,4.000000,4.000000,4.000000,4.000000,4.000000,4.000000,4.000000,4.000000,4.000000,4.000000,100.000000,,,,,,,,,,,,,,,,
1644854011.249945,99.000000,0.000000,4207.820313,4199.230957,4210.128418,4179.615234,4196.922852,4200.641113,4205.384766,4205.897461,4209.230957,4216.922852,4210.000000,4195.000000,4192.692383,4200.769043,0.000000,4.000000,86.000000,,,,0.000000,4.000000,4.000000,4.000000,4.000000,4.000000,4.000000,4.000000,4.000000,4.000000,4.000000,4.000000,4.000000,4.000000,4.000000,100.000000,,,,,,,,,,,,,,,,
1644854011.253885,100.000000,0.000000,4202.948730,4191.410156,4207.436035,4185.128418,4198.077148,4197.948730,4204.358887,4202.692383,4205.256348,4218.717773,4207.948730,4192.179688,4187.948730,4199.230957,0.000000,4.000000,86.000000,,,,0.000000,4.000000,4.000000,4.000000,4.000000,4.000000,4.000000,4.000000,4.000000,4.000000,4.000000,4.000000,4.000000,4.000000,4.000000,100.000000,,,,,,,,,,,,,,,,
1644854011.257825,101.000000,0.000000,4204.871582,4192.563965,4209.230957,4198.333496,4200.769043,4198.589844,4205.256348,4203.333496,4204.871582,4222.948730,4212.436035,4194.487305,4189.871582,4204.615234,0.000000,4.000000,86.000000,,,,0.000000,4.000000,4.000000,4.000000,4.000000,4.000000,4.000000,4.000000,4.000000,4.000000,4.000000,4.000000,4.000000,4.000000,4.000000,100.000000,,,,,,,,,,,,,,,,
1644854011.261766,102.000000,0.000000,4211.410156,4199.871582,4212.307617,4214.487305,4202.820313,4200.769043,4205.769043,4206.153809,4208.205078,4226.282227,4219.358887,4199.871582,4197.051270,4211.025879,0.000000,4.000000,86.000000,,,,0.000000,4.000000,4.000000,4.000000,4.000000,4.000000,4.000000,4.000000,4.000000,4.000000,4.000000,4.000000,4.000000,4.000000,4.000000,100.000000,,,,,,,,,,,,,,,,
1644854011.265706,103.000000,0.000000,4217.307617,4206.410156,4212.820313,4224.615234,4203.077148,4201.794922,4205.256348,4208.333496,4212.436035,4226.153809,4222.436035,4204.615234,4204.230957,4212.563965,0.000000,4.000000,86.000000,,,,0.000000,4.000000,4.000000,4.000000,4.000000,4.000000,4.000000,4.000000,4.000000,4.000000,4.000000,4.000000,4.000000,4.000000,4.000000,100.000000,,,,,,,,,,,,,,,,
1644854011.269646,104.000000,0.000000,4218.717773,4207.948730,4209.487305,4222.051270,4201.025879,4201.153809,4205.384766,4208.717773,4214.615234,4223.205078,4219.487305,4205.384766,4207.692383,4207.948730,0.000000,4.000000,86.000000,,,,0.000000,4.000000,4.000000,4.000000,4.000000,4.000000,4.000000,4.000000,4.000000,4.000000,4.000000,4.000000,4.000000,4.000000,4.000000,100.000000,,,,,,,,,,,,,,,,
1644854011.273586,105.000000,0.000000,4216.153809,4205.512695,4205.128418,4208.461426,4197.948730,4200.256348,4207.179688,4207.820313,4214.487305,4220.000000,4214.230957,4202.051270,4207.820313,4201.538574,0.000000,4.000000,86.000000,,,,0.000000,4.000000,4.000000,4.000000,4.000000,4.000000,4.000000,4.000000,4.000000,4.000000,4.000000,4.000000,4.000000,4.000000,4.000000,100.000000,,,,,,,,,,,,,,,,
1644854011.277526,106.000000,0.000000,4212.436035,4202.820313,4202.948730,4194.487305,4196.922852,4200.769043,4209.358887,4207.563965,4213.461426,4220.000000,4211.666504,4196.794922,4207.307617,4198.589844,0.000000,4.000000,86.000000,,,,0.000000,4.000000,4.000000,4.000000,4.000000,4.000000,4.000000,4.000000,4.000000,4.000000,4.000000,4.000000,4.000000,4.000000,4.000000,100.000000,,,,,,,,,,,,,,,,
1644854011.281566,107.000000,0.000000,4209.230957,4203.077148,4204.358887,4191.025879,4200.769043,4202.436035,4209.487305,4208.461426,4213.589844,4224.487305,4213.589844,4192.563965,4207.563965,4201.410156,0.000000,4.000000,86.000000,,,,0.000000,4.000000,4.000000,4.000000,4.000000,4.000000,4.000000,4.000000,4.000000,4.000000,4.000000,4.000000,4.000000,4.000000,4.000000,100.000000,,,,,,,,,,,,,,,,
1644854011.285506,108.000000,0.000000,4206.282227,4206.282227,4207.820313,4199.615234,4208.717773,4204.102539,4207.436035,4210.000000,4214.487305,4231.282227,4217.307617,4191.282227,4207.436035,4208.461426,0.000000,4.000000,86.000000,,,,0.000000,4.000000,4.000000,4.000000,4.000000,4.000000,4.000000,4.000000,4.000000,4.000000,4.000000,4.000000,4.000000,4.000000,4.000000,100.000000,,,,,,,,,,,,,,,,
1644854011.289446,109.000000,0.000000,4203.077148,4210.256348,4210.897461,4211.666504,4216.025879,4203.846191,4205.256348,4210.897461,4215.000000,4236.410156,4218.461426,4192.692383,4205.256348,4215.000000,0.000000,4.000000,86.000000,,,,0.000000,4.000000,4.000000,4.000000,4.000000,4.000000,4.000000,4.000000,4.000000,4.000000,4.000000,4.000000,4.000000,4.000000,4.000000,100.000000,,,,,,,,,,,,,,,,
1644854011.293386,110.000000,0.000000,4200.384766,4211.794922,4212.179688,4217.051270,4218.461426,4201.794922,4205.128418,4210.384766,4214.230957,4236.538574,4215.641113,4195.000000,4202.051270,4217.051270,0.000000,4.000000,86.000000,,,,0.000000,4.000000,4.000000,4.000000,4.000000,4.000000,4.000000,4.000000,4.000000,4.000000,4.000000,4.000000,4.000000,4.000000,4.000000,100.000000,,,,,,,,,,,,,,,,
1644854011.297326,111.000000,0.000000,4200.000000,4209.871582,4212.307617,4212.692383,4215.256348,4199.487305,4206.794922,4208.846191,4213.461426,4231.538574,4212.307617,4196.922852,4200.512695,4213.333496,0.000000,4.000000,86.000000,,,,0.000000,4.000000,4.000000,4.000000,4.000000,4.000000,4.000000,4.000000,4.000000,4.000000,4.000000,4.000000,4.000000,4.000000,4.000000,100.000000,,,,,,,,,,,,,,,,
1644854011.301266,112.000000,0.000000,4202.563965,4205.512695,4212.692383,4203.589844,4209.743652,4199.102539,4208.461426,4208.077148,4214.615234,4225.000000,4212.948730,4197.563965,4201.922852,4206.410156,0.000000,4.000000,86.000000,,,,0.000000,4.000000,4.000000,4.000000,4.000000,4.000000,4.000000,4.000000,4.000000,4.000000,4.000000,4.000000,4.000000,4.000000,4.000000,100.000000,,,,,,,,,,,,,,,,
1644854011.305207,113.000000,0.000000,4207.692383,4201.410156,4214.230957,4197.307617,4205.384766,4201.153809,4209.358887,4209.358887,4217.948730,4221.282227,4218.461426,4196.538574,4204.615234,4200.769043,0.000000,4.000000,86.000000,,,,0.000000,4.000000,4.000000,4.000000,4.000000,4.000000,4.000000,4.000000,4.000000,4.000000,4.000000,4.000000,4.000000,4.000000,4.000000,100.000000,,,,,,,,,,,,,,,,
1644854011.309147,114.000000,0.000000,4213.205078,4199.358887,4216.153809,4197.820313,4202.948730,4205.000000,4210.128418,4212.307617,4221.282227,4221.794922,4225.256348,4193.205078,4205.384766,4199.743652,0.000000,4.000000,86.000000,,,,0.000000,4.000000,4.000000,4.000000,4.000000,4.000000,4.000000,4.000000,4.000000,4.000000,4.000000,4.000000,4.000000,4.000000,4.000000,100.000000,,,,,,,,,,,,,,,,
1644854011.313087,115.000000,0.000000,4216.666504,4198.846191,4216.666504,4203.461426,4201.282227,4209.358887,4211.153809,4214.615234,4222.307617,4224.487305,4227.820313,4187.948730,4202.307617,4202.820313,0.000000,4.000000,86.000000,,,,0.000000,4.000000,4.000000,4.000000,4.000000,4.000000,4.000000,4.000000,4.000000,4.000000,4.000000,4.000000,4.000000,4.000000,4.000000,100.000000,,,,,,,,,,,,,,,,
1644854011.317027,116.000000,0.000000,4216.410156,4199.102539,4214.487305,4209.743652,4199.487305,4213.077148,4211.666504,4214.871582,4220.897461,4226.794922,4223.589844,4183.205078,4197.436035,4206.538574,0.000000,4.000000,86.000000,,,,0.000000,4.000000,4.000000,4.000000,4.000000,4.000000,4.000000,4.000000,4.000000,4.000000,4.000000,4.000000,4.000000,4.000000,4.000000,100.000000,,,,,,,,,,,,,,,,
1644854011.320967,117.000000,0.000000,4213.077148,4199.358887,4210.769043,4213.077148,4199.487305,4215.512695,4211.153809,4213.205078,4219.358887,4227.820313,4215.000000,4182.307617,4194.615234,4208.461426,0.000000,4.000000,86.000000,,,,0.000000,4.000000,4.000000,4.000000,4.000000,4.000000,4.000000,4.000000,4.000000,4.000000,4.000000,4.000000,4.000000,4.000000,4.000000,100.000000,,,,,,,,,,,,,,,,
1644854011.324907,118.000000,0.000000,4208.589844,4200.384766,4208.205078,4213.717773,4204.102539,4216.538574,4210.641113,4212.051270,4220.128418,4228.974121,4207.179688,4186.922852,4197.307617,4209.743652,0.000000,4.000000,86.000000,,,,0.000000,4.000000,4.000000,4.000000,4.000000,4.000000,4.000000,4.000000,4.000000,4.000000,4.000000,4.000000,4.000000,4.000000,4.000000,100.000000,,,,,,,,,,,,,,,,
1644854011.328847,119.000000,0.000000,4204.871582,4201.794922,4209.102539,4214.102539,4213.205078,4216.794922,4212.436035,4213.974121,4223.589844,4231.666504,4205.000000,4195.128418,4205.000000,4212.820313,0.000000,4.000000,86.000000,,,,0.000000,4.000000,4.000000,4.000000,4.000000,4.000000,4.000000,4.000000,4.000000,4.000000,4.000000,4.000000,4.000000,4.000000,4.000000,100.000000,,,,,,,,,,,,,,,,
1644854011.332787,120.000000,0.000000,4202.179688,4202.563965,4212.563965,4215.769043,4222.436035,4216.410156,4215.897461,4218.461426,4227.948730,4235.512695,4208.717773,4202.051270,4213.974121,4217.820313,0.000000,4.000000,86.000000,,,,0.000000,4.000000,4.000000,4.000000,4.000000,4.000000,4.000000,4.000000,4.000000,4.000000,4.000000,4.000000,4.000000,4.000000,4.000000,100.000000,,,,,,,,,,,,,,,,
1644854011.336727,121.000000,0.000000,4199.615234,4202.051270,4215.512695,4217.051270,4225.769043,4216.025879,4218.077148,4222.820313,4231.025879,4238.846191,4215.256348,4203.205078,4219.743652,4220.512695,0.000000,4.000000,86.000000,,,,0.000000,4.000000,4.000000,4.000000,4.000000,4.000000,4.000000,4.000000,4.000000,4.000000,4.000000,4.000000,4.000000,4.000000,4.000000,100.000000,,,,,,,,,,,,,,,,
1644854011.340668,122.000000,0.000000,4197.436035,4200.897461,4215.000000,4215.128418,4221.282227,4215.769043,4216.410156,4224.230957,4231.538574,4240.256348,4220.512695,4197.307617,4220.384766,4217.563965,0.000000,4.000000,86.000000,,,,0.000000,4.000000,4.000000,4.000000,4.000000,4.000000,4.000000,4.000000,4.000000,4.000000,4.000000,4.000000,4.000000,4.000000,4.000000,100.000000,,,,,,,,,,,,,,,,
1644854011.344608,123.000000,0.000000,4197.692383,4200.897461,4211.922852,4209.743652,4212.692383,4215.641113,4212.436035,4222.820313,4230.641113,4240.000000,4222.948730,4188.205078,4218.077148,4211.025879,0.000000,4.000000,86.000000,,,,0.000000,4.000000,4.000000,4.000000,4.000000,4.000000,4.000000,4.000000,4.000000,4.000000,4.000000,4.000000,4.000000,4.000000,4.000000,100.000000,,,,,,,,,,,,,,,,
1644854011.348548,124.000000,0.000000,4202.563965,4203.461426,4209.743652,4205.512695,4206.538574,4215.384766,4210.641113,4221.922852,4230.384766,4239.358887,4223.589844,4182.051270,4216.666504,4207.179688,0.000000,4.000000,86.000000,,,,0.000000,4.000000,4.000000,4.000000,4.000000,4.000000,4.000000,4.000000,4.000000,4.000000,4.000000,4.000000,4.000000,4.000000,4.000000,100.000000,,,,,,,,,,,,,,,,
1644854011.352488,125.000000,0.000000,4212.179688,4208.846191,4211.794922,4206.922852,4206.794922,4215.384766,4213.846191,4223.974121,4232.307617,4239.743652,4225.000000,4183.974121,4218.461426,4210.384766,0.000000,4.000000,86.000000,,,,0.000000,4.000000,4.000000,4.000000,4.000000,4.000000,4.000000,4.000000,4.000000,4.000000,4.000000,4.000000,4.000000,4.000000,4.000000,100.000000,,,,,,,,,,,,,,,,
1644854011.356528,126.000000,0.000000,4223.589844,4215.256348,4218.077148,4213.717773,4212.307617,4216.666504,4220.000000,4228.461426,4236.282227,4241.282227,4229.102539,4193.717773,4222.436035,4217.820313,0.000000,4.000000,86.000000,,,,0.000000,4.000000,4.000000,4.000000,4.000000,4.000000,4.000000,4.000000,4.000000,4.000000,4.000000,4.000000,4.000000,4.000000,4.000000,100.000000,,,,,,,,,,,,,,,,
1644854011.360468,127.000000,0.000000,4231.794922,4219.487305,4225.000000,4220.128418,4217.692383,4219.358887,4223.846191,4232.563965,4239.743652,4244.358887,4234.871582,4205.897461,4225.000000,4222.179688,0.000000,4.000000,86.000000,,,,0.000000,4.000000,4.000000,4.000000,4.000000,4.000000,4.000000,4.000000,4.000000,4.000000,4.000000,4.000000,4.000000,4.000000,4.000000,100.000000,,,,,,,,,,,,,,,,
1644854011.364408,128.000000,0.000000,4232.948730,4219.102539,4228.461426,4220.641113,4218.461426,4221.666504,4222.179688,4233.717773,4240.512695,4247.692383,4238.077148,4213.333496,4222.692383,4218.974121,3267.000000,4.000000,86.000000,,,,0.000000,4.000000,4.000000,4.000000,4.000000,4.000000,4.000000,4.000000,4.000000,4.000000,4.000000,4.000000,4.000000,4.000000,4.000000,100.000000,,,,,,,,,,,,,,,,
1644854011.368348,129.000000,0.000000,4226.666504,4212.948730,4226.538574,4215.128418,4213.461426,4220.769043,4216.794922,4231.153809,4237.436035,4249.102539,4234.102539,4212.179688,4214.230957,4210.384766,3338.000000,4.000000,86.000000,,,,0.000000,4.000000,4.000000,4.000000,4.000000,4.000000,4.000000,4.000000,4.000000,4.000000,4.000000,4.000000,4.000000,4.000000,4.000000,100.000000,,,,,,,,,,,,,,,,
1644854011.372288,130.000000,0.000000,4216.794922,4202.692383,4221.282227,4209.871582,4206.666504,4216.410156,4211.922852,4226.025879,4231.666504,4245.769043,4221.922852,4204.102539,4202.307617,4202.692383,3545.000000,4.000000,86.000000,,,,0.000000,4.000000,4.000000,4.000000,4.000000,4.000000,4.000000,4.000000,4.000000,4.000000,4.000000,4.000000,4.000000,4.000000,4.000000,100.000000,,,,,,,,,,,,,,,,
1644854011.376228,131.000000,0.000000,4207.948730,4192.692383,4216.538574,4209.743652,4203.589844,4210.769043,4210.128418,4220.384766,4225.897461,4237.436035,4206.153809,4194.871582,4191.794922,4201.153809,3505.000000,4.000000,86.000000,,,,0.000000,4.000000,4.000000,4.000000,4.000000,4.000000,4.000000,4.000000,4.000000,4.000000,4.000000,4.000000,4.000000,4.000000,4.000000,100.000000,,,,,,,,,,,,,,,,
1644854011.380168,132.000000,0.000000,4203.974121,4187.820313,4215.512695,4212.948730,4207.563965,4207.436035,4210.769043,4216.282227,4221.794922,4227.563965,4194.871582,4189.743652,4187.948730,4206.538574,3369.000000,4.000000,86.000000,,,,0.000000,4.000000,4.000000,4.000000,4.000000,4.000000,4.000000,4.000000,4.000000,4.000000,4.000000,4.000000,4.000000,4.000000,4.000000,100.000000,1.000000,100.000000,4.000000,4.000000,4.000000,4.000000,4.000000,4.000000,4.000000,4.000000,4.000000,4.000000,4.000000,4.000000,4.000000,4.000000
1644854011.384109,133.000000,0.000000,4205.641113,4190.384766,4218.461426,4213.717773,4216.666504,4208.077148,4211.794922,4214.871582,4219.230957,4221.282227,4194.102539,4190.769043,4192.948730,4216.153809,3364.000000,4.000000,86.000000,,,,0.000000,4.000000,4.000000,4.000000,4.000000,4.000000,4.000000,4.000000,4.000000,4.000000,4.000000,4.000000,4.000000,4.000000,4.000000,100.000000,,,,,,,,,,,,,,,,
1644854011.388049,134.000000,0.000000,4210.384766,4198.589844,4224.230957,4208.333496,4225.000000,4211.794922,4212.692383,4215.769043,4217.179688,4220.769043,4203.461426,4196.025879,4204.102539,4225.641113,2617.000000,4.000000,86.000000,,,,0.000000,4.000000,4.000000,4.000000,4.000000,4.000000,4.000000,4.000000,4.000000,4.000000,4.000000,4.000000,4.000000,4.000000,4.000000,100.000000,,,,,,,,,,,,,,,,
1644854011.391989,135.000000,0.000000,4215.512695,4207.692383,4230.000000,4200.384766,4227.179688,4216.153809,4214.358887,4218.077148,4215.512695,4224.358887,4216.922852,4201.794922,4215.128418,4230.512695,2897.000000,4.000000,86.000000,,,,0.000000,4.000000,4.000000,4.000000,4.000000,4.000000,4.000000,4.000000,4.000000,4.000000,4.000000,4.000000,4.000000,4.000000,4.000000,100.000000,,,,,,,,,,,,,,,,
1644854011.395929,136.000000,0.000000,4218.974121,4213.974121,4233.589844,4197.307617,4222.563965,4218.974121,4216.282227,4220.128418,4214.871582,4228.333496,4227.179688,4204.743652,4220.641113,4228.205078,3291.000000,4.000000,86.000000,,,,0.000000,4.000000,4.000000,4.000000,4.000000,4.000000,4.000000,4.000000,4.000000,4.000000,4.000000,4.000000,4.000000,4.000000,4.000000,100.000000,,,,,,,,,,,,,,,,
1644854011.399869,137.000000,0.000000,4220.641113,4216.282227,4233.846191,4203.717773,4215.000000,4219.615234,4216.922852,4220.256348,4216.282227,4230.000000,4230.897461,4203.589844,4219.230957,4220.384766,3387.000000,4.000000,86.000000,,,,0.000000,4.000000,4.000000,4.000000,4.000000,4.000000,4.000000,4.000000,4.000000,4.000000,4.000000,4.000000,4.000000,4.000000,4.000000,100.000000,,,,,,,,,,,,,,,,
1644854011.403809,138.000000,0.000000,4220.512695,4215.897461,4231.282227,4217.948730,4209.871582,4218.589844,4215.769043,4217.692383,4218.717773,4228.589844,4229.615234,4198.846191,4213.077148,4212.179688,3529.000000,4.000000,86.000000,,,,0.000000,4.000000,4.000000,4.000000,4.000000,4.000000,4.000000,4.000000,4.000000,4.000000,4.000000,4.000000,4.000000,4.000000,4.000000,100.000000,,,,,,,,,,,,,,,,
1644854011.407749,139.000000,0.000000,4218.205078,4214.487305,4227.307617,4232.179688,4210.512695,4217.051270,4214.487305,4213.717773,4219.871582,4224.871582,4227.307617,4192.820313,4205.256348,4208.717773,2482.000000,4.000000,86.000000,,,,0.000000,4.000000,4.000000,4.000000,4.000000,4.000000,4.000000,4.000000,4.000000,4.000000,4.000000,4.000000,4.000000,4.000000,4.000000,100.000000,,,,,,,,,,,,,,,,
1644854011.411689,140.000000,0.000000,4213.717773,4213.461426,4223.205078,4238.461426,4215.384766,4215.641113,4214.743652,4210.256348,4217.563965,4220.641113,4225.384766,4187.820313,4198.717773,4210.128418,3489.000000,4.000000,86.000000,,,,0.000000,4.000000,4.000000,4.000000,4.000000,4.000000,4.000000,4.000000,4.000000,4.000000,4.000000,4.000000,4.000000,4.000000,4.000000,100.000000,,,,,,,,,,,,,,,,
1644854011.415629,141.000000,0.000000,4209.102539,4213.333496,4220.256348,4234.358887,4220.641113,4214.743652,4215.512695,4208.974121,4212.051270,4217.563965,4222.820313,4185.256348,4195.128418,4212.179688,3360.000000,4.000000,86.000000,,,,0.000000,4.000000,4.000000,4.000000,4.000000,4.000000,4.000000,4.000000,4.000000,4.000000,4.000000,4.000000,4.000000,4.000000,4.000000,100.000000,,,,,,,,,,,,,,,,
1644854011.419570,142.000000,0.000000,4207.948730,4214.230957,4219.230957,4224.871582,4223.717773,4214.743652,4214.871582,4209.615234,4207.051270,4217.051270,4218.846191,4185.256348,4196.025879,4211.025879,3529.000000,4.000000,86.000000,,,,0.000000,4.000000,4.000000,4.000000,4.000000,4.000000,4.000000,4.000000,4.000000,4.000000,4.000000,4.000000,4.000000,4.000000,4.000000,100.000000,,,,,,,,,,,,,,,,
1644854011.423510,143.000000,0.000000,4212.820313,4216.666504,4220.769043,4217.179688,4224.358887,4215.641113,4212.051270,4210.897461,4205.641113,4219.615234,4214.230957,4187.179688,4201.153809,4207.692383,2482.000000,4.000000,86.000000,,,,0.000000,4.000000,4.000000,4.000000,4.000000,4.000000,4.000000,4.000000,4.000000,4.000000,4.000000,4.000000,4.000000,4.000000,4.000000,100.000000,,,,,,,,,,,,,,,,
1644854011.427450,144.000000,0.000000,4222.051270,4220.512695,4224.487305,4214.615234,4223.461426,4216.922852,4208.974121,4211.153809,4208.333496,4223.461426,4210.641113,4190.384766,4208.205078,4207.179688,3489.000000,4.000000,86.000000,,,,0.000000,4.000000,4.000000,4.000000,4.000000,4.000000,4.000000,4.000000,4.000000,4.000000,4.000000,4.000000,4.000000,4.000000,4.000000,100.000000,,,,,,,,,,,,,,,,
1644854011.431290,145.000000,0.000000,4230.641113,4224.102539,4228.846191,4215.641113,4221.153809,4217.307617,4207.948730,4209.615234,4212.051270,4226.153809,4208.717773,4193.589844,4213.461426,4212.563965,3360.000000,4.000000,86.000000,,,,0.000000,4.000000,4.000000,4.000000,4.000000,4.000000,4.000000,4.000000,4.000000,4.000000,4.000000,4.000000,4.000000,4.000000,4.000000,100.000000,,,,,,,,,,,,,,,,
1644854011.435230,146.000000,0.000000,4233.589844,4225.512695,4231.153809,4216.922852,4216.794922,4216.538574,4208.589844,4206.794922,4213.589844,4226.410156,4208.333496,4195.512695,4214.358887,4221.025879,3529.000000,4.000000,86.000000,,,,0.000000,4.000000,4.000000,4.000000,4.000000,4.000000,4.000000,4.000000,4.000000,4.000000,4.000000,4.000000,4.000000,4.000000,4.000000,100.000000,,,,,,,,,,,,,,,,
1644854011.439170,147.000000,0.000000,4229.871582,4223.974121,4230.256348,4217.563965,4210.897461,4214.743652,4208.077148,4204.102539,4212.051270,4225.641113,4209.615234,4195.897461,4210.641113,4226.025879,2482.000000,4.000000,86.000000,,,,0.000000,4.000000,4.000000,4.000000,4.000000,4.000000,4.000000,4.000000,4.000000,4.000000,4.000000,4.000000,4.000000,4.000000,4.000000,100.000000,,,,,,,,,,,,,,,,
1644854011.443110,148.000000,0.000000,4222.692383,4220.897461,4227.436035,4218.974121,4206.410156,4213.077148,4205.384766,4202.307617,4209.102539,4225.769043,4212.820313,4195.897461,4205.512695,4224.743652,3489.000000,4.000000,86.000000,,,,0.000000,4.000000,4.000000,4.000000,4.000000,4.000000,4.000000,4.000000,4.000000,4.000000,4.000000,4.000000,4.000000,4.000000,4.000000,100.000000,,,,,,,,,,,,,,,,
1644854011.447050,149.000000,0.000000,4217.948730,4218.077148,4225.512695,4221.922852,4206.538574,4212.948730,4202.436035,4201.922852,4207.436035,4227.820313,4217.436035,4196.794922,4202.179688,4220.128418,3360.000000,4.000000,86.000000,,,,0.000000,4.000000,4.000000,4.000000,4.000000,4.000000,4.000000,4.000000,4.000000,4.000000,4.000000,4.000000,4.000000,4.000000,4.000000,100.000000,,,,,,,,,,,,,,,,
1644854011.450990,150.000000,0.000000,4219.358887,4217.563965,4226.666504,4224.743652,4212.436035,4214.358887,4202.307617,4202.563965,4208.333496,4230.256348,4222.051270,4199.743652,4202.820313,4217.948730,3529.000000,4.000000,86.000000,,,,0.000000,4.000000,4.000000,4.000000,4.000000,4.000000,4.000000,4.000000,4.000000,4.000000,4.000000,4.000000,4.000000,4.000000,4.000000,100.000000,,,,,,,,,,,,,,,,
1644854011.454931,151.000000,0.000000,4226.410156,4220.000000,4230.512695,4225.128418,4221.666504,4216.282227,4205.000000,4204.102539,4211.410156,4231.153809,4225.128418,4204.487305,4206.666504,4220.769043,2482.000000,4.000000,86.000000,,,,0.000000,4.000000,4.000000,4.000000,4.000000,4.000000,4.000000,4.000000,4.000000,4.000000,4.000000,4.000000,4.000000,4.000000,4.000000,100.000000,,,,,,,,,,,,,,,,
1644854011.458871,152.000000,0.000000,4234.615234,4223.846191,4234.102539,4223.717773,4229.102539,4217.179688,4207.692383,4206.410156,4215.384766,4229.743652,4226.153809,4208.717773,4211.794922,4226.794922,3489.000000,4.000000,86.000000,,,,0.000000,4.000000,4.000000,4.000000,4.000000,4.000000,4.000000,4.000000,4.000000,4.000000,4.000000,4.000000,4.000000,4.000000,4.000000,100.000000,,,,,,,,,,,,,,,,
1644854011.462811,153.000000,0.000000,4238.974121,4226.666504,4234.743652,4223.333496,4230.769043,4216.794922,4207.692383,4208.846191,4218.589844,4226.666504,4225.128418,4210.256348,4216.025879,4232.436035,3360.000000,4.000000,86.000000,,,,0.000000,4.000000,4.000000,4.000000,4.000000,4.000000,4.000000,4.000000,4.000000,4.000000,4.000000,4.000000,4.000000,4.000000,4.000000,100.000000,,,,,,,,,,,,,,,,
1644854011.466751,154.000000,0.000000,4237.436035,4226.794922,4232.436035,4225.641113,4227.307617,4215.897461,4206.153809,4211.666504,4220.256348,4224.358887,4223.333496,4208.461426,4217.692383,4235.897461,3529.000000,4.000000,86.000000,,,,0.000000,4.000000,4.000000,4.000000,4.000000,4.000000,4.000000,4.000000,4.000000,4.000000,4.000000,4.000000,4.000000,4.000000,4.000000,100.000000,,,,,,,,,,,,,,,,
1644854011.470691,155.000000,0.000000,4231.922852,4224.615234,4229.615234,4229.743652,4223.589844,4215.769043,4206.794922,4215.000000,4220.641113,4224.487305,4222.692383,4205.256348,4216.666504,4237.307617,2482.000000,4.000000,86.000000,,,,0.000000,4.000000,4.000000,4.000000,4.000000,4.000000,4.000000,4.000000,4.000000,4.000000,4.000000,4.000000,4.000000,4.000000,4.000000,100.000000,,,,,,,,,,,,,,,,
1644854011.474631,156.000000,0.000000,4225.512695,4222.051270,4228.205078,4233.205078,4224.230957,4216.282227,4210.384766,4218.333496,4220.641113,4227.820313,4224.743652,4203.461426,4213.974121,4236.153809,3489.000000,4.000000,86.000000,,,,0.000000,4.000000,4.000000,4.000000,4.000000,4.000000,4.000000,4.000000,4.000000,4.000000,4.000000,4.000000,4.000000,4.000000,4.000000,100.000000,,,,,,,,,,,,,,,,
1644854011.478571,157.000000,0.000000,4221.025879,4220.384766,4227.307617,4233.589844,4228.077148,4216.666504,4213.589844,4219.615234,4220.897461,4232.307617,4228.333496,4203.974121,4210.641113,4230.641113,3360.000000,4.000000,86.000000,,,,0.000000,4.000000,4.000000,4.000000,4.000000,4.000000,4.000000,4.000000,4.000000,4.000000,4.000000,4.000000,4.000000,4.000000,4.000000,100.000000,,,,,,,,,,,,,,,,
1644854011.482511,158.000000,0.000000,4218.974121,4219.102539,4224.743652,4228.974121,4228.974121,4216.153809,4213.077148,4217.307617,4220.512695,4234.615234,4229.743652,4204.615234,4207.948730,4219.615234,3529.000000,4.000000,86.000000,,,,0.000000,4.000000,4.000000,4.000000,4.000000,4.000000,4.000000,4.000000,4.000000,4.000000,4.000000,4.000000,4.000000,4.000000,4.000000,100.000000,,,,,,,,,,,,,,,,
1644854011.486451,159.000000,0.000000,4218.333496,4217.307617,4219.615234,4219.487305,4221.666504,4214.615234,4209.487305,4211.538574,4218.461426,4232.051270,4225.512695,4202.307617,4206.153809,4205.769043,2482.000000,4.000000,86.000000,,,,0.000000,4.000000,4.000000,4.000000,4.000000,4.000000,4.000000,4.000000,4.000000,4.000000,4.000000,4.000000,4.000000,4.000000,4.000000,100.000000,,,,,,,,,,,,,,,,
1644854011.490392,160.000000,0.000000,4217.692383,4214.358887,4213.717773,4208.974121,4207.948730,4212.820313,4206.153809,4205.000000,4214.358887,4226.153809,4216.666504,4195.769043,4206.025879,4193.974121,3489.000000,4.000000,86.000000,,,,0.000000,4.000000,4.000000,4.000000,4.000000,4.000000,4.000000,4.000000,4.000000,4.000000,4.000000,4.000000,4.000000,4.000000,4.000000,100.000000,,,,,,,,,,,,,,,,
1644854011.494332,161.000000,0.000000,4216.282227,4210.897461,4209.487305,4203.333496,4196.410156,4211.794922,4205.128418,4201.025879,4209.743652,4221.025879,4208.974121,4187.051270,4208.077148,4187.820313,3360.000000,4.000000,86.000000,,,,0.000000,4.000000,4.000000,4.000000,4.000000,4.000000,4.000000,4.000000,4.000000,4.000000,4.000000,4.000000,4.000000,4.000000,4.000000,100.000000,,,,,,,,,,,,,,,,
1644854011.498272,162.000000,0.000000,4214.871582,4208.205078,4208.205078,4206.153809,4195.641113,4211.794922,4206.153809,4201.282227,4207.692383,4220.256348,4207.563965,4180.384766,4212.307617,4187.436035,3529.000000,4.000000,86.000000,,,,0.000000,4.000000,4.000000,4.000000,4.000000,4.000000,4.000000,4.000000,4.000000,4.000000,4.000000,4.000000,4.000000,4.000000,4.000000,100.000000,,,,,,,,,,,,,,,,
1644854011.502212,163.000000,0.000000,4215.256348,4207.948730,4210.128418,4215.641113,4207.051270,4212.563965,4207.307617,4205.000000,4210.384766,4223.077148,4212.948730,4179.743652,4217.051270,4190.512695,2482.000000,4.000000,86.000000,,,,0.000000,4.000000,4.000000,4.000000,4.000000,4.000000,4.000000,4.000000,4.000000,4.000000,4.000000,4.000000,4.000000,4.000000,4.000000,100.000000,,,,,,,,,,,,,,,,
1644854011.506052,164.000000,0.000000,4217.948730,4210.128418,4213.717773,4225.384766,4222.948730,4213.077148,4208.333496,4209.871582,4216.153809,4225.256348,4219.615234,4185.769043,4220.128418,4195.000000,3489.000000,4.000000,86.000000,,,,0.000000,4.000000,4.000000,4.000000,4.000000,4.000000,4.000000,4.000000,4.000000,4.000000,4.000000,4.000000,4.000000,4.000000,4.000000,100.000000,,,,,,,,,,,,,,,,
1644854011.509992,165.000000,0.000000,4221.794922,4213.205078,4217.692383,4230.256348,4232.436035,4213.205078,4210.256348,4213.974121,4221.538574,4223.974121,4222.051270,4194.871582,4220.128418,4200.256348,3360.000000,4.000000,86.000000,,,,0.000000,4.000000,4.000000,4.000000,4.000000,4.000000,4.000000,4.000000,4.000000,4.000000,4.000000,4.000000,4.000000,4.000000,4.000000,100.000000,,,,,,,,,,,,,,,,
1644854011.513932,166.000000,0.000000,4224.487305,4215.512695,4220.769043,4229.871582,4230.384766,4213.589844,4212.948730,4216.410156,4223.717773,4221.282227,4219.871582,4202.051270,4217.563965,4205.641113,3529.000000,4.000000,86.000000,,,,0.000000,4.000000,4.000000,4.000000,4.000000,4.000000,4.000000,4.000000,4.000000,4.000000,4.000000,4.000000,4.000000,4.000000,4.000000,100.000000,,,,,,,,,,,,,,,,
1644854011.517872,167.000000,0.000000,4224.230957,4216.410156,4222.820313,4226.153809,4220.512695,4214.615234,4214.871582,4217.563965,4223.589844,4222.179688,4217.179688,4204.102539,4214.487305,4209.871582,2482.000000,4.000000,86.000000,,,,0.000000,4.000000,4.000000,4.000000,4.000000,4.000000,4.000000,4.000000,4.000000,4.000000,4.000000,4.000000,4.000000,4.000000,4.000000,100.000000,,,,,,,,,,,,,,,,
1644854011.521812,168.000000,0.000000,4221.666504,4216.025879,4224.487305,4221.410156,4211.794922,4216.153809,4214.230957,4218.589844,4223.333496,4228.846191,4218.846191,4202.179688,4212.307617,4212.051270,3489.000000,4.000000,86.000000,,,,0.000000,4.000000,4.000000,4.000000,4.000000,4.000000,4.000000,4.000000,4.000000,4.000000,4.000000,4.000000,4.000000,4.000000,4.000000,100.000000,,,,,,,,,,,,,,,,
1644854011.525753,169.000000,0.000000,4219.358887,4215.128418,4225.897461,4217.820313,4210.641113,4216.794922,4211.794922,4220.000000,4224.358887,4237.051270,4225.512695,4199.743652,4211.794922,4213.333496,3360.000000,4.000000,86.000000,,,,0.000000,4.000000,4.000000,4.000000,4.000000,4.000000,4.000000,4.000000,4.000000,4.000000,4.000000,4.000000,4.000000,4.000000,4.000000,100.000000,,,,,,,,,,,,,,,,
1644854011.529693,170.000000,0.000000,4220.000000,4215.256348,4227.692383,4216.410156,4217.179688,4215.897461,4210.000000,4221.666504,4226.282227,4241.153809,4233.974121,4200.512695,4213.077148,4215.512695,3529.000000,4.000000,86.000000,,,,0.000000,4.000000,4.000000,4.000000,4.000000,4.000000,4.000000,4.000000,4.000000,4.000000,4.000000,4.000000,4.000000,4.000000,4.000000,100.000000,,,,,,,,,,,,,,,,
1644854011.533633,171.000000,0.000000,4224.871582,4218.333496,4229.871582,4216.410156,4225.256348,4214.230957,4210.384766,4222.307617,4227.820313,4239.230957,4240.384766,4205.128418,4217.179688,4219.871582,2482.000000,4.000000,86.000000,,,,0.000000,4.000000,4.000000,4.000000,4.000000,4.000000,4.000000,4.000000,4.000000,4.000000,4.000000,4.000000,4.000000,4.000000,4.000000,100.000000,,,,,,,,,,,,,,,,
1644854011.537573,172.000000,0.000000,4232.820313,4224.743652,4232.307617,4215.384766,4228.717773,4213.205078,4212.179688,4220.769043,4228.205078,4235.641113,4242.563965,4211.666504,4224.102539,4225.897461,3489.000000,4.000000,86.000000,,,,0.000000,4.000000,4.000000,4.000000,4.000000,4.000000,4.000000,4.000000,4.000000,4.000000,4.000000,4.000000,4.000000,4.000000,4.000000,100.000000,,,,,,,,,,,,,,,,
1644854011.541513,173.000000,0.000000,4240.769043,4231.538574,4235.000000,4211.922852,4225.128418,4213.717773,4212.948730,4217.436035,4227.436035,4235.897461,4241.794922,4217.051270,4232.179688,4231.538574,3360.000000,4.000000,86.000000,,,,0.000000,4.000000,4.000000,4.000000,4.000000,4.000000,4.000000,4.000000,4.000000,4.000000,4.000000,4.000000,4.000000,4.000000,4.000000,100.000000,,,,,,,,,,,,,,,,
1644854011.545453,174.000000,0.000000,4245.512695,4234.871582,4237.436035,4207.563965,4217.051270,4215.384766,4212.692383,4215.000000,4226.282227,4241.282227,4239.871582,4219.871582,4237.820313,4235.641113,3529.000000,4.000000,86.000000,,,,0.000000,4.000000,4.000000,4.000000,4.000000,4.000000,4.000000,4.000000,4.000000,4.000000,4.000000,4.000000,4.000000,4.000000,4.000000,100.000000,,,,,,,,,,,,,,,,
1644854011.549393,175.000000,0.000000,4245.897461,4232.948730,4239.358887,4207.948730,4209.871582,4217.051270,4213.077148,4216.153809,4226.153809,4246.666504,4238.846191,4220.128418,4238.717773,4238.333496,2482.000000,4.000000,86.000000,,,,0.000000,4.000000,4.000000,4.000000,4.000000,4.000000,4.000000,4.000000,4.000000,4.000000,4.000000,4.000000,4.000000,4.000000,4.000000,100.000000,,,,,,,,,,,,,,,,
1644854011.553333,176.000000,0.000000,4242.948730,4227.436035,4239.871582,4217.692383,4207.820313,4217.948730,4215.384766,4221.282227,4228.077148,4247.307617,4239.487305,4218.974121,4235.897461,4240.384766,3489.000000,4.000000,86.000000,,,,0.000000,4.000000,4.000000,4.000000,4.000000,4.000000,4.000000,4.000000,4.000000,4.000000,4.000000,4.000000,4.000000,4.000000,4.000000,100.000000,,,,,,,,,,,,,,,,
1644854011.557273,177.000000,0.000000,4238.461426,4221.922852,4238.846191,4235.256348,4212.307617,4218.205078,4217.692383,4227.692383,4232.179688,4242.948730,4241.282227,4217.563965,4232.820313,4241.538574,3360.000000,4.000000,86.000000,,,,0.000000,4.000000,4.000000,4.000000,4.000000,4.000000,4.000000,4.000000,4.000000,4.000000,4.000000,4.000000,4.000000,4.000000,4.000000,100.000000,,,,,,,,,,,,,,,,
1644854011.561214,178.000000,0.000000,4234.743652,4219.230957,4236.410156,4252.563965,4221.538574,4218.205078,4217.820313,4231.282227,4236.538574,4238.589844,4242.948730,4216.025879,4232.563965,4241.922852,3529.000000,4.000000,86.000000,,,,0.000000,4.000000,4.000000,4.000000,4.000000,4.000000,4.000000,4.000000,4.000000,4.000000,4.000000,4.000000,4.000000,4.000000,4.000000,100.000000,,,,,,,,,,,,,,,,
1644854011.565154,179.000000,0.000000,4232.563965,4218.974121,4233.333496,4260.384766,4230.512695,4218.333496,4215.512695,4230.512695,4238.717773,4237.948730,4242.692383,4213.205078,4235.256348,4241.794922,2482.000000,4.000000,86.000000,,,,0.000000,4.000000,4.000000,4.000000,4.000000,4.000000,4.000000,4.000000,4.000000,4.000000,4.000000,4.000000,4.000000,4.000000,4.000000,100.000000,,,,,,,,,,,,,,,,
1644854011.569094,180.000000,0.000000,4231.666504,4218.717773,4230.769043,4254.871582,4233.589844,4217.948730,4212.820313,4226.025879,4236.922852,4240.641113,4239.615234,4207.820313,4237.307617,4241.025879,3489.000000,4.000000,86.000000,,,,0.000000,4.000000,4.000000,4.000000,4.000000,4.000000,4.000000,4.000000,4.000000,4.000000,4.000000,4.000000,4.000000,4.000000,4.000000,100.000000,,,,,,,,,,,,,,,,
1644854011.573034,181.000000,0.000000,4231.282227,4216.538574,4228.717773,4239.102539,4228.205078,4216.922852,4211.794922,4220.512695,4231.666504,4242.051270,4232.948730,4200.512695,4235.128418,4238.717773,3360.000000,4.000000,86.000000,,,,0.000000,4.000000,4.000000,4.000000,4.000000,4.000000,4.000000,4.000000,4.000000,4.000000,4.000000,4.000000,4.000000,4.000000,4.000000,100.000000,,,,,,,,,,,,,,,,
1644854011.577074,182.000000,0.000000,4231.666504,4213.846191,4227.307617,4220.641113,4217.563965,4216.410156,4212.179688,4216.538574,4225.128418,4238.846191,4224.358887,4193.205078,4228.589844,4233.589844,3529.000000,4.000000,86.000000,,,,0.000000,4.000000,4.000000,4.000000,4.000000,4.000000,4.000000,4.000000,4.000000,4.000000,4.000000,4.000000,4.000000,4.000000,4.000000,100.000000,,,,,,,,,,,,,,,,
1644854011.581014,183.000000,0.000000,4233.077148,4213.974121,4226.282227,4207.179688,4208.717773,4217.563965,4212.692383,4214.487305,4220.384766,4231.666504,4217.179688,4188.461426,4220.641113,4226.666504,2482.000000,4.000000,86.000000,,,,0.000000,4.000000,4.000000,4.000000,4.000000,4.000000,4.000000,4.000000,4.000000,4.000000,4.000000,4.000000,4.000000,4.000000,4.000000,100.000000,,,,,,,,,,,,,,,,
1644854011.584954,184.000000,0.000000,4234.358887,4218.589844,4225.512695,4204.102539,4207.436035,4220.256348,4212.563965,4213.205078,4218.077148,4224.743652,4214.358887,4187.051270,4214.871582,4221.410156,3489.000000,4.000000,86.000000,,,,0.000000,4.000000,4.000000,4.000000,4.000000,4.000000,4.000000,4.000000,4.000000,4.000000,4.000000,4.000000,4.000000,4.000000,4.000000,100.000000,,,,,,,,,,,,,,,,
1644854011.588894,185.000000,0.000000,4234.230957,4225.641113,4224.743652,4210.769043,4214.102539,4222.436035,4212.436035,4211.794922,4217.307617,4221.922852,4216.282227,4187.820313,4212.179688,4220.641113,3360.000000,4.000000,86.000000,,,,0.000000,4.000000,4.000000,4.000000,4.000000,4.000000,4.000000,4.000000,4.000000,4.000000,4.000000,4.000000,4.000000,4.000000,4.000000,100.000000,,,,,,,,,,,,,,,,
1644854011.592834,186.000000,0.000000,4231.538574,4230.641113,4223.461426,4220.000000,4224.102539,4221.666504,4212.563965,4209.358887,4215.897461,4222.948730,4220.000000,4188.077148,4210.641113,4223.846191,3529.000000,4.000000,86.000000,,,,0.000000,4.000000,4.000000,4.000000,4.000000,4.000000,4.000000,4.000000,4.000000,4.000000,4.000000,4.000000,4.000000,4.000000,4.000000,100.000000,,,,,,,,,,,,,,,,
1644854011.596674,187.000000,0.000000,4226.922852,4229.487305,4221.282227,4222.436035,4231.282227,4217.692383,4211.538574,4206.153809,4212.820313,4224.743652,4221.794922,4186.666504,4208.077148,4227.307617,2482.000000,4.000000,86.000000,,,,0.000000,4.000000,4.000000,4.000000,4.000000,4.000000,4.000000,4.000000,4.000000,4.000000,4.000000,4.000000,4.000000,4.000000,4.000000,100.000000,,,,,,,,,,,,,,,,
1644854011.600615,188.000000,0.000000,4221.666504,4221.153809,4217.692383,4213.974121,4231.794922,4212.051270,4208.461426,4202.948730,4209.230957,4224.487305,4220.769043,4184.358887,4204.615234,4227.820313,3489.000000,4.000000,86.000000,,,,0.000000,4.000000,4.000000,4.000000,4.000000,4.000000,4.000000,4.000000,4.000000,4.000000,4.000000,4.000000,4.000000,4.000000,4.000000,100.000000,,,,,,,,,,,,,,,,
1644854011.604555,189.000000,0.000000,4216.794922,4208.846191,4213.717773,4200.384766,4225.641113,4208.205078,4204.743652,4201.153809,4206.794922,4222.179688,4218.461426,4182.563965,4202.436035,4225.512695,3360.000000,4.000000,86.000000,,,,0.000000,4.000000,4.000000,4.000000,4.000000,4.000000,4.000000,4.000000,4.000000,4.000000,4.000000,4.000000,4.000000,4.000000,4.000000,100.000000,,,,,,,,,,,,,,,,
1644854011.608495,190.000000,0.000000,4213.205078,4198.077148,4211.153809,4191.794922,4215.512695,4208.333496,4203.461426,4202.051270,4207.436035,4220.128418,4217.051270,4182.179688,4203.846191,4222.948730,3529.000000,4.000000,86.000000,,,,0.000000,4.000000,4.000000,4.000000,4.000000,4.000000,4.000000,4.000000,4.000000,4.000000,4.000000,4.000000,4.000000,4.000000,4.000000,100.000000,,,,,,,,,,,,,,,,
1644854011.612435,191.000000,0.000000,4211.538574,4193.974121,4210.641113,4194.102539,4206.410156,4211.922852,4205.897461,4205.256348,4210.769043,4219.871582,4217.307617,4182.692383,4208.846191,4221.282227,2482.000000,4.000000,86.000000,,,,0.000000,4.000000,4.000000,4.000000,4.000000,4.000000,4.000000,4.000000,4.000000,4.000000,4.000000,4.000000,4.000000,4.000000,4.000000,100.000000,,,,,,,,,,,,,,,,
1644854011.616375,192.000000,0.000000,4212.051270,4197.307617,4211.282227,4204.230957,4202.692383,4216.282227,4209.358887,4209.102539,4214.358887,4220.897461,4217.563965,4183.205078,4214.358887,4219.102539,3489.000000,4.000000,86.000000,,,,0.000000,4.000000,4.000000,4.000000,4.000000,4.000000,4.000000,4.000000,4.000000,4.000000,4.000000,4.000000,4.000000,4.000000,4.000000,100.000000,,,,,,,,,,,,,,,,
1644854011.620315,193.000000,0.000000,4213.846191,4204.743652,4211.666504,4213.717773,4205.641113,4218.974121,4210.000000,4211.282227,4215.512695,4221.025879,4215.384766,4182.692383,4216.794922,4214.743652,3360.000000,4.000000,86.000000,,,,0.000000,4.000000,4.000000,4.000000,4.000000,4.000000,4.000000,4.000000,4.000000,4.000000,4.000000,4.000000,4.000000,4.000000,4.000000,100.000000,,,,,,,,,,,,,,,,
1644854011.624255,194.000000,0.000000,4215.897461,4211.794922,4211.666504,4215.128418,4211.922852,4219.102539,4207.563965,4211.025879,4213.461426,4218.974121,4210.256348,4180.641113,4214.102539,4209.615234,3529.000000,4.000000,86.000000,,,,0.000000,4.000000,4.000000,4.000000,4.000000,4.000000,4.000000,4.000000,4.000000,4.000000,4.000000,4.000000,4.000000,4.000000,4.000000,100.000000,,,,,,,,,,,,,,,,
1644854011.628195,195.000000,0.000000,4217.563965,4215.384766,4212.307617,4208.205078,4215.641113,4217.692383,4205.384766,4208.717773,4209.487305,4215.641113,4204.871582,4178.077148,4207.436035,4207.307617,2482.000000,4.000000,86.000000,,,,0.000000,4.000000,4.000000,4.000000,4.000000,4.000000,4.000000,4.000000,4.000000,4.000000,4.000000,4.000000,4.000000,4.000000,4.000000,100.000000,,,,,,,,,,,,,,,,
1644854011.632135,196.000000,0.000000,4217.948730,4215.128418,4213.974121,4198.846191,4213.461426,4215.897461,4206.282227,4205.128418,4205.512695,4212.948730,4203.333496,4176.922852,4200.384766,4210.256348,3489.000000,4.000000,86.000000,,,,0.000000,4.000000,4.000000,4.000000,4.000000,4.000000,4.000000,4.000000,4.000000,4.000000,4.000000,4.000000,4.000000,4.000000,4.000000,100.000000,,,,,,,,,,,,,,,,
1644854011.636076,197.000000,0.000000,4217.051270,4211.922852,4215.641113,4194.102539,4206.922852,4213.974121,4208.717773,4201.025879,4203.333496,4211.538574,4207.307617,4178.333496,4196.666504,4216.153809,3360.000000,4.000000,86.000000,,,,0.000000,4.000000,4.000000,4.000000,4.000000,4.000000,4.000000,4.000000,4.000000,4.000000,4.000000,4.000000,4.000000,4.000000,4.000000,100.000000,,,,,,,,,,,,,,,,
1644854011.640016,198.000000,0.000000,4215.000000,4207.948730,4215.384766,4196.922852,4200.256348,4211.538574,4209.102539,4197.692383,4202.820313,4211.025879,4214.230957,4180.897461,4197.563965,4220.128418,3529.000000,4.000000,86.000000,,,,0.000000,4.000000,4.000000,4.000000,4.000000,4.000000,4.000000,4.000000,4.000000,4.000000,4.000000,4.000000,4.000000,4.000000,4.000000,100.000000,,,,,,,,,,,,,,,,
1644854011.643956,199.000000,0.000000,4213.333496,4204.743652,4213.461426,4205.128418,4196.794922,4208.846191,4206.153809,4196.153809,4202.948730,4210.256348,4219.102539,4182.820313,4201.282227,4218.974121,2482.000000,4.000000,86.000000,,,,0.000000,4.000000,4.000000,4.000000,4.000000,4.000000,4.000000,4.000000,4.000000,4.000000,4.000000,4.000000,4.000000,4.000000,4.000000,100.000000,,,,,,,,,,,,,,,,
1644854011.647896,200.000000,0.000000,4212.692383,4202.563965,4212.692383,4213.846191,4197.820313,4207.051270,4203.077148,4197.307617,4202.948730,4208.974121,4219.102539,4183.589844,4203.974121,4213.205078,3489.000000,4.000000,86.000000,,,,0.000000,4.000000,4.000000,4.000000,4.000000,4.000000,4.000000,4.000000,4.000000,4.000000,4.000000,4.000000,4.000000,4.000000,4.000000,100.000000,,,,,,,,,,,,,,,,
1644854011.651836,201.000000,0.000000,4212.436035,4200.256348,4215.256348,4218.846191,4202.948730,4207.307617,4203.589844,4200.256348,4202.820313,4208.077148,4215.256348,4184.487305,4202.436035,4205.641113,3360.000000,4.000000,86.000000,,,,0.000000,4.000000,4.000000,4.000000,4.000000,4.000000,4.000000,4.000000,4.000000,4.000000,4.000000,4.000000,4.000000,4.000000,4.000000,100.000000,,,,,,,,,,,,,,,,
1644854011.655776,202.000000,0.000000,4210.897461,4197.692383,4220.769043,4218.333496,4210.769043,4210.000000,4207.563965,4203.077148,4202.948730,4208.589844,4211.153809,4187.179688,4196.666504,4198.974121,3529.000000,4.000000,86.000000,,,,0.000000,4.000000,4.000000,4.000000,4.000000,4.000000,4.000000,4.000000,4.000000,4.000000,4.000000,4.000000,4.000000,4.000000,4.000000,100.000000,,,,,,,,,,,,,,,,
1644854011.659716,203.000000,0.000000,4207.179688,4195.769043,4225.897461,4213.717773,4218.077148,4213.461426,4211.153809,4203.589844,4203.333496,4210.000000,4210.256348,4191.538574,4189.230957,4194.871582,2482.000000,4.000000,86.000000,,,,0.000000,4.000000,4.000000,4.000000,4.000000,4.000000,4.000000,4.000000,4.000000,4.000000,4.000000,4.000000,4.000000,4.000000,4.000000,100.000000,,,,,,,,,,,,,,,,
1644854011.663756,204.000000,0.000000,4201.922852,4196.410156,4228.333496,4207.692383,4221.666504,4215.512695,4211.410156,4201.410156,4203.846191,4211.153809,4212.436035,4195.641113,4183.461426,4194.230957,3489.000000,4.000000,86.000000,,,,0.000000,4.000000,4.000000,4.000000,4.000000,4.000000,4.000000,4.000000,4.000000,4.000000,4.000000,4.000000,4.000000,4.000000,4.000000,100.000000,,,,,,,,,,,,,,,,
1644854011.667696,205.000000,0.000000,4198.077148,4201.025879,4228.846191,4203.461426,4220.000000,4215.512695,4209.487305,4199.102539,4204.230957,4211.666504,4215.128418,4197.948730,4181.794922,4197.692383,3360.000000,4.000000,86.000000,,,,0.000000,4.000000,4.000000,4.000000,4.000000,4.000000,4.000000,4.000000,4.000000,4.000000,4.000000,4.000000,4.000000,4.000000,4.000000,100.000000,,,,,,,,,,,,,,,,
1644854011.671636,206.000000,0.000000,4199.230957,4209.358887,4230.641113,4202.436035,4215.512695,4214.487305,4208.589844,4199.358887,4205.128418,4212.436035,4215.512695,4198.077148,4184.230957,4204.358887,3529.000000,4.000000,86.000000,,,,0.000000,4.000000,4.000000,4.000000,4.000000,4.000000,4.000000,4.000000,4.000000,4.000000,4.000000,4.000000,4.000000,4.000000,4.000000,100.000000,,,,,,,,,,,,,,,,
1644854011.675576,207.000000,0.000000,4207.436035,4219.743652,4235.384766,4204.871582,4212.436035,4214.358887,4209.871582,4203.077148,4207.563965,4215.769043,4213.974121,4196.922852,4189.615234,4211.410156,2482.000000,4.000000,86.000000,,,,0.000000,4.000000,4.000000,4.000000,4.000000,4.000000,4.000000,4.000000,4.000000,4.000000,4.000000,4.000000,4.000000,4.000000,4.000000,100.000000,,,,,,,,,,,,,,,,
1644854011.679517,208.000000,0.000000,4221.794922,4229.871582,4241.666504,4210.897461,4213.974121,4215.641113,4211.666504,4208.461426,4211.922852,4221.410156,4213.974121,4196.153809,4196.922852,4216.666504,3489.000000,4.000000,86.000000,,,,0.000000,4.000000,4.000000,4.000000,4.000000,4.000000,4.000000,4.000000,4.000000,4.000000,4.000000,4.000000,4.000000,4.000000,4.000000,100.000000,,,,,,,,,,,,,,,,
1644854011.683457,209.000000,0.000000,4238.333496,4237.563965,4246.025879,4220.512695,4219.102539,4217.179688,4212.179688,4213.077148,4216.794922,4226.666504,4218.205078,4196.794922,4204.615234,4220.000000,3360.000000,4.000000,86.000000,,,,0.000000,4.000000,4.000000,4.000000,4.000000,4.000000,4.000000,4.000000,4.000000,4.000000,4.000000,4.000000,4.000000,4.000000,4.000000,100.000000,,,,,,,,,,,,,,,,
1644854011.687397,210.000000,0.000000,4251.794922,4241.410156,4246.025879,4231.153809,4223.589844,4217.820313,4211.794922,4215.769043,4220.128418,4227.436035,4225.512695,4198.846191,4210.769043,4222.820313,3529.000000,4.000000,86.000000,,,,0.000000,4.000000,4.000000,4.000000,4.000000,4.000000,4.000000,4.000000,4.000000,4.000000,4.000000,4.000000,4.000000,4.000000,4.000000,100.000000,,,,,,,,,,,,,,,,
1644854011.691337,211.000000,0.000000,4257.820313,4240.897461,4242.820313,4238.333496,4223.077148,4217.051270,4211.794922,4216.410156,4220.641113,4222.436035,4231.025879,4201.282227,4213.205078,4224.743652,2482.000000,4.000000,86.000000,,,,0.000000,4.000000,4.000000,4.000000,4.000000,4.000000,4.000000,4.000000,4.000000,4.000000,4.000000,4.000000,4.000000,4.000000,4.000000,100.000000,,,,,,,,,,,,,,,,
1644854011.695277,212.000000,0.000000,4255.256348,4236.794922,4239.615234,4238.974121,4217.692383,4215.384766,4212.051270,4215.641113,4218.717773,4214.743652,4231.410156,4203.077148,4211.153809,4223.589844,3489.000000,4.000000,86.000000,,,,0.000000,4.000000,4.000000,4.000000,4.000000,4.000000,4.000000,4.000000,4.000000,4.000000,4.000000,4.000000,4.000000,4.000000,4.000000,100.000000,,,,,,,,,,,,,,,,
1644854011.699217,213.000000,0.000000,4247.692383,4231.666504,4238.846191,4235.000000,4211.666504,4213.974121,4211.282227,4214.615234,4216.538574,4210.256348,4226.666504,4203.974121,4206.922852,4218.461426,3360.000000,4.000000,86.000000,,,,0.000000,4.000000,4.000000,4.000000,4.000000,4.000000,4.000000,4.000000,4.000000,4.000000,4.000000,4.000000,4.000000,4.000000,4.000000,100.000000,,,,,,,,,,,,,,,,
1644854011.703157,214.000000,0.000000,4241.025879,4227.563965,4240.384766,4230.769043,4210.512695,4213.846191,4209.358887,4214.487305,4216.410156,4213.077148,4221.538574,4204.358887,4204.487305,4213.077148,3529.000000,4.000000,86.000000,,,,0.000000,4.000000,4.000000,4.000000,4.000000,4.000000,4.000000,4.000000,4.000000,4.000000,4.000000,4.000000,4.000000,4.000000,4.000000,100.000000,,,,,,,,,,,,,,,,
1644854011.707097,215.000000,0.000000,4239.615234,4225.641113,4242.563965,4228.974121,4215.641113,4214.871582,4208.717773,4215.897461,4219.230957,4222.051270,4220.641113,4204.871582,4207.051270,4213.846191,2482.000000,4.000000,86.000000,,,,0.000000,4.000000,4.000000,4.000000,4.000000,4.000000,4.000000,4.000000,4.000000,4.000000,4.000000,4.000000,4.000000,4.000000,4.000000,100.000000,,,,,,,,,,,,,,,,
1644854011.711037,216.000000,0.000000,4243.461426,4225.512695,4243.333496,4229.487305,4222.692383,4216.282227,4211.153809,4218.974121,4223.589844,4232.179688,4225.128418,4205.641113,4214.358887,4223.974121,3489.000000,4.000000,86.000000,,,,0.000000,4.000000,4.000000,4.000000,4.000000,4.000000,4.000000,4.000000,4.000000,4.000000,4.000000,4.000000,4.000000,4.000000,4.000000,100.000000,,,,,,,,,,,,,,,,
1644854011.714978,217.000000,0.000000,4250.128418,4226.922852,4242.563965,4230.769043,4225.512695,4217.307617,4215.641113,4222.179688,4227.820313,4238.333496,4232.179688,4205.769043,4223.205078,4238.589844,3360.000000,4.000000,86.000000,,,,0.000000,4.000000,4.000000,4.000000,4.000000,4.000000,4.000000,4.000000,4.000000,4.000000,4.000000,4.000000,4.000000,4.000000,4.000000,100.000000,,,,,,,,,,,,,,,,
1644854011.718918,218.000000,0.000000,4256.025879,4230.128418,4240.769043,4232.563965,4221.410156,4217.692383,4218.077148,4223.205078,4230.128418,4239.230957,4237.820313,4204.487305,4230.769043,4248.333496,3529.000000,4.000000,86.000000,,,,0.000000,4.000000,4.000000,4.000000,4.000000,4.000000,4.000000,4.000000,4.000000,4.000000,4.000000,4.000000,4.000000,4.000000,4.000000,100.000000,,,,,,,,,,,,,,,,
1644854011.722858,219.000000,0.000000,4258.333496,4234.871582,4239.102539,4235.000000,4213.205078,4217.436035,4216.410156,4220.769043,4229.487305,4236.153809,4239.487305,4202.436035,4235.769043,4247.563965,2482.000000,4.000000,86.000000,,,,0.000000,4.000000,4.000000,4.000000,4.000000,4.000000,4.000000,4.000000,4.000000,4.000000,4.000000,4.000000,4.000000,4.000000,4.000000,100.000000,,,,,,,,,,,,,,,,
1644854011.726798,220.000000,0.000000,4255.128418,4239.230957,4237.436035,4237.820313,4206.538574,4216.666504,4212.820313,4216.025879,4225.897461,4231.282227,4237.051270,4200.128418,4237.948730,4238.589844,3489.000000,4.000000,86.000000,,,,0.000000,4.000000,4.000000,4.000000,4.000000,4.000000,4.000000,4.000000,4.000000,4.000000,4.000000,4.000000,4.000000,4.000000,4.000000,100.000000,,,,,,,,,,,,,,,,
1644854011.730738,221.000000,0.000000,4247.307617,4240.384766,4235.384766,4238.974121,4205.641113,4216.025879,4211.153809,4211.922852,4221.025879,4226.282227,4232.563965,4197.436035,4237.179688,4228.333496,3360.000000,4.000000,86.000000,,,,0.000000,4.000000,4.000000,4.000000,4.000000,4.000000,4.000000,4.000000,4.000000,4.000000,4.000000,4.000000,4.000000,4.000000,4.000000,100.000000,,,,,,,,,,,,,,,,
1644854011.734678,222.000000,0.000000,4238.846191,4237.948730,4233.205078,4237.820313,4210.512695,4216.153809,4213.077148,4211.025879,4217.051270,4223.205078,4228.717773,4194.615234,4234.358887,4222.307617,3529.000000,4.000000,86.000000,,,,0.000000,4.000000,4.000000,4.000000,4.000000,4.000000,4.000000,4.000000,4.000000,4.000000,4.000000,4.000000,4.000000,4.000000,4.000000,100.000000,,,,,,,,,,,,,,,,
1644854011.738618,223.000000,0.000000,4235.769043,4234.615234,4232.051270,4235.641113,4218.205078,4217.051270,4215.897461,4212.692383,4215.897461,4223.589844,4228.589844,4192.820313,4232.563965,4221.922852,2482.000000,4.000000,86.000000,,,,0.000000,4.000000,4.000000,4.000000,4.000000,4.000000,4.000000,4.000000,4.000000,4.000000,4.000000,4.000000,4.000000,4.000000,4.000000,100.000000,,,,,,,,,,,,,,,,
1644854011.742458,224.000000,0.000000,4241.538574,4234.230957,4232.948730,4234.743652,4224.487305,4218.077148,4216.410156,4214.358887,4217.051270,4227.436035,4233.589844,4193.846191,4236.794922,4226.282227,3489.000000,4.000000,86.000000,,,,0.000000,4.000000,4.000000,4.000000,4.000000,4.000000,4.000000,4.000000,4.000000,4.000000,4.000000,4.000000,4.000000,4.000000,4.000000,100.000000,,,,,,,,,,,,,,,,
1644854011.746398,225.000000,0.000000,4254.615234,4238.974121,4235.769043,4236.025879,4225.897461,4217.948730,4214.230957,4213.333496,4218.974121,4232.436035,4241.922852,4198.077148,4250.256348,4234.615234,3360.000000,4.000000,86.000000,,,,0.000000,4.000000,4.000000,4.000000,4.000000,4.000000,4.000000,4.000000,4.000000,4.000000,4.000000,4.000000,4.000000,4.000000,4.000000,100.000000,,,,,,,,,,,,,,,,
1644854011.750339,226.000000,0.000000,4269.871582,4247.436035,4240.000000,4239.487305,4220.769043,4216.025879,4211.666504,4209.871582,4219.743652,4235.769043,4251.025879,4203.589844,4271.666504,4245.897461,3529.000000,4.000000,86.000000,,,,0.000000,4.000000,4.000000,4.000000,4.000000,4.000000,4.000000,4.000000,4.000000,4.000000,4.000000,4.000000,4.000000,4.000000,4.000000,100.000000,,,,,,,,,,,,,,,,
1644854011.754279,227.000000,0.000000,4281.538574,4256.666504,4244.743652,4243.974121,4211.538574,4213.461426,4210.384766,4206.410156,4218.589844,4235.897461,4258.461426,4208.333496,4296.282227,4257.948730,2482.000000,4.000000,86.000000,,,,0.000000,4.000000,4.000000,4.000000,4.000000,4.000000,4.000000,4.000000,4.000000,4.000000,4.000000,4.000000,4.000000,4.000000,4.000000,100.000000,,,,,,,,,,,,,,,,
1644854011.758219,228.000000,0.000000,4288.077148,4263.846191,4250.128418,4248.333496,4203.589844,4212.436035,4210.128418,4205.128418,4216.410156,4233.077148,4264.230957,4212.179688,4318.974121,4267.948730,3489.000000,4.000000,86.000000,,,,0.000000,4.000000,4.000000,4.000000,4.000000,4.000000,4.000000,4.000000,4.000000,4.000000,4.000000,4.000000,4.000000,4.000000,4.000000,100.000000,,,,,,,,,,,,,,,,
1644854011.762159,229.000000,0.000000,4292.820313,4267.307617,4256.794922,4252.307617,4202.563965,4213.974121,4209.358887,4206.153809,4215.000000,4229.743652,4268.974121,4217.179688,4335.897461,4274.871582,3360.000000,4.000000,86.000000,,,,0.000000,4.000000,4.000000,4.000000,4.000000,4.000000,4.000000,4.000000,4.000000,4.000000,4.000000,4.000000,4.000000,4.000000,4.000000,100.000000,,,,,,,,,,,,,,,,
1644854011.766099,230.000000,0.000000,4300.000000,4267.948730,4264.487305,4257.436035,4209.743652,4216.666504,4208.077148,4208.333496,4215.384766,4227.820313,4273.589844,4224.487305,4346.794922,4279.743652,3529.000000,4.000000,86.000000,,,,0.000000,4.000000,4.000000,4.000000,4.000000,4.000000,4.000000,4.000000,4.000000,4.000000,4.000000,4.000000,4.000000,4.000000,4.000000,100.000000,,,,,,,,,,,,,,,,
1644854011.770039,231.000000,0.000000,4311.538574,4267.436035,4272.307617,4265.128418,4220.384766,4218.205078,4207.179688,4210.128418,4217.179688,4228.205078,4278.717773,4232.948730,4355.128418,4283.846191,2482.000000,4.000000,86.000000,,,,0.000000,4.000000,4.000000,4.000000,4.000000,4.000000,4.000000,4.000000,4.000000,4.000000,4.000000,4.000000,4.000000,4.000000,4.000000,100.000000,,,,,,,,,,,,,,,,
1644854011.773979,232.000000,0.000000,4323.846191,4266.538574,4278.461426,4273.846191,4227.563965,4216.666504,4207.179688,4210.641113,4218.974121,4230.384766,4285.000000,4239.743652,4366.410156,4288.205078,3489.000000,4.000000,86.000000,,,,0.000000,4.000000,4.000000,4.000000,4.000000,4.000000,4.000000,4.000000,4.000000,4.000000,4.000000,4.000000,4.000000,4.000000,4.000000,100.000000,,,,,,,,,,,,,,,,
1644854011.777919,233.000000,0.000000,4330.769043,4264.102539,4281.666504,4277.051270,4227.692383,4213.333496,4207.179688,4211.282227,4221.153809,4234.358887,4292.307617,4243.717773,4384.358887,4292.051270,3360.000000,4.000000,86.000000,,,,0.000000,4.000000,4.000000,4.000000,4.000000,4.000000,4.000000,4.000000,4.000000,4.000000,4.000000,4.000000,4.000000,4.000000,4.000000,100.000000,,,,,,,,,,,,,,,,
1644854011.781859,234.000000,0.000000,4328.717773,4258.717773,4282.692383,4269.102539,4223.077148,4210.641113,4206.922852,4214.230957,4225.128418,4240.384766,4298.974121,4247.051270,4408.589844,4295.641113,3529.000000,4.000000,86.000000,,,,0.000000,4.000000,4.000000,4.000000,4.000000,4.000000,4.000000,4.000000,4.000000,4.000000,4.000000,4.000000,4.000000,4.000000,4.000000,100.000000,,,,,,,,,,,,,,,,
1644854011.785800,235.000000,0.000000,4322.179688,4250.769043,4284.743652,4251.282227,4218.974121,4210.384766,4207.436035,4220.512695,4231.666504,4248.205078,4304.358887,4252.820313,4435.512695,4299.102539,2482.000000,4.000000,86.000000,,,,0.000000,4.000000,4.000000,4.000000,4.000000,4.000000,4.000000,4.000000,4.000000,4.000000,4.000000,4.000000,4.000000,4.000000,4.000000,100.000000,,,,,,,,,,,,,,,,
