title:Alex-XBnOl8bGb1lUwdDx_8JJcg, start timestamp:1644854883.584993, stop timestamp:1644854910.671434, headset type:EPOCPLUS, headset serial:3B9AEBFF, headset firmware:626, channels:55, sampling rate:eeg_256, samples:6876      , version:2.1, 
Timestamp,EEG.Counter,EEG.Interpolated,EEG.AF3,EEG.F7,EEG.F3,EEG.FC5,EEG.T7,EEG.P7,EEG.O1,EEG.O2,EEG.P8,EEG.T8,EEG.FC6,EEG.F4,EEG.F8,EEG.AF4,EEG.RawCq,EEG.Battery,EEG.BatteryPercent,MarkerIndex,MarkerType,MarkerValueInt,EEG.MarkerHardware,CQ.AF3,CQ.F7,CQ.F3,CQ.FC5,CQ.T7,CQ.P7,CQ.O1,CQ.O2,CQ.P8,CQ.T8,CQ.FC6,CQ.F4,CQ.F8,CQ.AF4,CQ.Overall,EQ.SampleRateQuality,EQ.OVERALL,EQ.AF3,EQ.F7,EQ.F3,EQ.FC5,EQ.T7,EQ.P7,EQ.O1,EQ.O2,EQ.P8,EQ.T8,EQ.FC6,EQ.F4,EQ.F8,EQ.AF4
1644854883.584993,74.000000,0.000000,4191.538574,4191.153809,4216.794922,4040.897461,4218.205078,4216.282227,4212.436035,4210.512695,4218.974121,4213.461426,4105.128418,4198.974121,4176.794922,4215.512695,0.000000,4.000000,82.000000,,,,0.000000,4.000000,4.000000,4.000000,4.000000,4.000000,4.000000,4.000000,4.000000,4.000000,4.000000,4.000000,4.000000,4.000000,4.000000,100.000000,,,,,,,,,,,,,,,,
1644854883.588833,75.000000,0.000000,4198.077148,4199.487305,4219.358887,4040.384521,4214.871582,4217.051270,4211.922852,4210.000000,4217.692383,4219.102539,4095.128174,4197.948730,4174.102539,4217.692383,0.000000,4.000000,82.000000,,,,0.000000,4.000000,4.000000,4.000000,4.000000,4.000000,4.000000,4.000000,4.000000,4.000000,4.000000,4.000000,4.000000,4.000000,4.000000,100.000000,,,,,,,,,,,,,,,,
1644854883.592773,76.000000,0.000000,4198.717773,4202.179688,4220.128418,4039.358887,4211.410156,4216.794922,4211.538574,4207.307617,4215.512695,4220.128418,4083.718018,4196.794922,4169.487305,4216.282227,0.000000,4.000000,82.000000,,,,0.000000,4.000000,4.000000,4.000000,4.000000,4.000000,4.000000,4.000000,4.000000,4.000000,4.000000,4.000000,4.000000,4.000000,4.000000,100.000000,,,,,,,,,,,,,,,,
1644854883.596714,77.000000,0.000000,4192.948730,4196.922852,4217.948730,4038.461426,4209.487305,4215.897461,4210.512695,4203.846191,4213.333496,4215.512695,4080.897461,4196.538574,4165.256348,4211.153809,0.000000,4.000000,82.000000,,,,0.000000,4.000000,4.000000,4.000000,4.000000,4.000000,4.000000,4.000000,4.000000,4.000000,4.000000,4.000000,4.000000,4.000000,4.000000,100.000000,,,,,,,,,,,,,,,,
1644854883.600654,78.000000,0.000000,4185.512695,4187.948730,4214.615234,4038.589844,4209.102539,4214.871582,4208.717773,4200.769043,4211.922852,4208.589844,4092.820557,4197.051270,4165.000000,4206.153809,0.000000,4.000000,82.000000,,,,0.000000,4.000000,4.000000,4.000000,4.000000,4.000000,4.000000,4.000000,4.000000,4.000000,4.000000,4.000000,4.000000,4.000000,4.000000,100.000000,,,,,,,,,,,,,,,,
1644854883.604594,79.000000,0.000000,4182.436035,4182.436035,4213.333496,4039.871826,4209.358887,4214.358887,4207.563965,4199.615234,4211.794922,4204.615234,4115.000000,4198.077148,4170.769043,4206.153809,0.000000,4.000000,82.000000,,,,0.000000,4.000000,4.000000,4.000000,4.000000,4.000000,4.000000,4.000000,4.000000,4.000000,4.000000,4.000000,4.000000,4.000000,4.000000,100.000000,,,,,,,,,,,,,,,,
1644854883.608534,80.000000,0.000000,4186.794922,4185.000000,4216.282227,4042.051270,4209.743652,4214.743652,4208.846191,4201.282227,4213.205078,4207.179688,4135.128418,4199.871582,4181.282227,4212.051270,0.000000,4.000000,82.000000,,,,0.000000,4.000000,4.000000,4.000000,4.000000,4.000000,4.000000,4.000000,4.000000,4.000000,4.000000,4.000000,4.000000,4.000000,4.000000,100.000000,,,,,,,,,,,,,,,,
1644854883.612474,81.000000,0.000000,4196.410156,4194.487305,4222.820313,4044.358887,4211.153809,4215.641113,4211.922852,4205.512695,4215.897461,4214.615234,4143.077148,4203.077148,4192.051270,4220.000000,0.000000,4.000000,82.000000,,,,0.000000,4.000000,4.000000,4.000000,4.000000,4.000000,4.000000,4.000000,4.000000,4.000000,4.000000,4.000000,4.000000,4.000000,4.000000,100.000000,,,,,,,,,,,,,,,,
1644854883.616414,82.000000,0.000000,4205.897461,4204.615234,4230.128418,4046.025635,4213.717773,4216.282227,4214.358887,4210.256348,4218.717773,4221.025879,4138.461426,4207.820313,4197.948730,4225.256348,0.000000,4.000000,82.000000,,,,0.000000,4.000000,4.000000,4.000000,4.000000,4.000000,4.000000,4.000000,4.000000,4.000000,4.000000,4.000000,4.000000,4.000000,4.000000,100.000000,,,,,,,,,,,,,,,,
1644854883.620354,83.000000,0.000000,4209.743652,4208.974121,4234.871582,4046.025635,4216.282227,4216.282227,4214.230957,4212.563965,4219.871582,4221.666504,4128.974121,4212.179688,4196.025879,4226.666504,0.000000,4.000000,82.000000,,,,0.000000,4.000000,4.000000,4.000000,4.000000,4.000000,4.000000,4.000000,4.000000,4.000000,4.000000,4.000000,4.000000,4.000000,4.000000,100.000000,,,,,,,,,,,,,,,,
1644854883.624294,84.000000,0.000000,4205.897461,4205.897461,4235.641113,4043.589844,4217.820313,4215.128418,4211.538574,4211.666504,4219.102539,4216.666504,4122.820313,4212.948730,4188.974121,4226.794922,0.000000,4.000000,82.000000,,,,0.000000,4.000000,4.000000,4.000000,4.000000,4.000000,4.000000,4.000000,4.000000,4.000000,4.000000,4.000000,4.000000,4.000000,4.000000,100.000000,,,,,,,,,,,,,,,,
1644854883.628234,85.000000,0.000000,4197.307617,4198.974121,4233.461426,4038.974365,4217.820313,4213.461426,4208.717773,4209.743652,4217.436035,4210.000000,4121.922852,4208.589844,4182.820313,4228.205078,0.000000,4.000000,82.000000,,,,0.000000,4.000000,4.000000,4.000000,4.000000,4.000000,4.000000,4.000000,4.000000,4.000000,4.000000,4.000000,4.000000,4.000000,4.000000,100.000000,,,,,,,,,,,,,,,,
1644854883.632175,86.000000,0.000000,4190.641113,4194.230957,4230.641113,4034.102539,4217.307617,4212.436035,4207.692383,4208.974121,4215.897461,4206.922852,4122.563965,4201.153809,4182.436035,4230.384766,0.000000,4.000000,82.000000,,,,0.000000,4.000000,4.000000,4.000000,4.000000,4.000000,4.000000,4.000000,4.000000,4.000000,4.000000,4.000000,4.000000,4.000000,4.000000,100.000000,,,,,,,,,,,,,,,,
1644854883.636115,87.000000,0.000000,4190.769043,4194.743652,4229.358887,4032.564209,4216.794922,4212.820313,4207.948730,4209.230957,4214.871582,4208.717773,4120.769043,4195.641113,4187.179688,4230.128418,0.000000,4.000000,82.000000,,,,0.000000,4.000000,4.000000,4.000000,4.000000,4.000000,4.000000,4.000000,4.000000,4.000000,4.000000,4.000000,4.000000,4.000000,4.000000,100.000000,,,,,,,,,,,,,,,,
1644854883.640055,88.000000,0.000000,4198.077148,4199.487305,4230.256348,4037.692383,4216.666504,4214.487305,4208.589844,4208.846191,4214.230957,4213.205078,4116.666504,4195.641113,4191.538574,4226.538574,0.000000,4.000000,82.000000,,,,0.000000,4.000000,4.000000,4.000000,4.000000,4.000000,4.000000,4.000000,4.000000,4.000000,4.000000,4.000000,4.000000,4.000000,4.000000,100.000000,,,,,,,,,,,,,,,,
1644854883.643995,89.000000,0.000000,4208.205078,4203.974121,4232.436035,4048.076904,4217.051270,4216.153809,4209.230957,4207.179688,4214.102539,4217.179688,4114.615234,4201.025879,4191.538574,4222.307617,0.000000,4.000000,82.000000,,,,0.000000,4.000000,4.000000,4.000000,4.000000,4.000000,4.000000,4.000000,4.000000,4.000000,4.000000,4.000000,4.000000,4.000000,4.000000,100.000000,,,,,,,,,,,,,,,,
1644854883.647935,90.000000,0.000000,4215.256348,4204.487305,4234.230957,4057.564209,4217.179688,4216.025879,4210.769043,4205.384766,4214.743652,4218.717773,4118.077148,4207.820313,4187.948730,4222.051270,0.000000,4.000000,82.000000,,,,0.000000,4.000000,4.000000,4.000000,4.000000,4.000000,4.000000,4.000000,4.000000,4.000000,4.000000,4.000000,4.000000,4.000000,4.000000,100.000000,,,,,,,,,,,,,,,,
1644854883.651875,91.000000,0.000000,4215.769043,4200.512695,4234.102539,4059.358887,4216.538574,4214.102539,4213.077148,4205.000000,4215.512695,4217.820313,4125.128418,4211.153809,4185.128418,4226.153809,0.000000,4.000000,82.000000,,,,0.000000,4.000000,4.000000,4.000000,4.000000,4.000000,4.000000,4.000000,4.000000,4.000000,4.000000,4.000000,4.000000,4.000000,4.000000,100.000000,,,,,,,,,,,,,,,,
1644854883.655815,92.000000,0.000000,4210.128418,4194.615234,4232.436035,4051.923096,4214.743652,4211.922852,4214.871582,4205.897461,4215.641113,4215.000000,4130.641113,4209.487305,4185.512695,4231.025879,0.000000,4.000000,82.000000,,,,0.000000,4.000000,4.000000,4.000000,4.000000,4.000000,4.000000,4.000000,4.000000,4.000000,4.000000,4.000000,4.000000,4.000000,4.000000,100.000000,,,,,,,,,,,,,,,,
1644854883.659655,93.000000,0.000000,4202.307617,4190.512695,4231.025879,4040.000000,4212.820313,4211.282227,4214.871582,4207.051270,4214.871582,4211.282227,4130.641113,4205.512695,4188.846191,4231.538574,0.000000,4.000000,82.000000,,,,0.000000,4.000000,4.000000,4.000000,4.000000,4.000000,4.000000,4.000000,4.000000,4.000000,4.000000,4.000000,4.000000,4.000000,4.000000,100.000000,,,,,,,,,,,,,,,,
1644854883.663595,94.000000,0.000000,4197.179688,4190.512695,4231.153809,4031.281982,4211.794922,4212.436035,4214.102539,4207.692383,4213.717773,4207.051270,4125.769043,4202.948730,4191.794922,4226.794922,0.000000,4.000000,82.000000,,,,0.000000,4.000000,4.000000,4.000000,4.000000,4.000000,4.000000,4.000000,4.000000,4.000000,4.000000,4.000000,4.000000,4.000000,4.000000,100.000000,,,,,,,,,,,,,,,,
1644854883.667536,95.000000,0.000000,4197.692383,4193.846191,4232.436035,4029.615479,4212.436035,4214.615234,4214.102539,4207.948730,4212.820313,4203.589844,4119.615234,4203.077148,4191.538574,4220.512695,0.000000,4.000000,82.000000,,,,0.000000,4.000000,4.000000,4.000000,4.000000,4.000000,4.000000,4.000000,4.000000,4.000000,4.000000,4.000000,4.000000,4.000000,4.000000,100.000000,,,,,,,,,,,,,,,,
1644854883.671476,96.000000,0.000000,4201.922852,4197.692383,4232.692383,4033.333252,4213.846191,4216.666504,4215.897461,4208.717773,4212.692383,4201.794922,4116.153809,4203.461426,4187.820313,4217.307617,0.000000,4.000000,82.000000,,,,0.000000,4.000000,4.000000,4.000000,4.000000,4.000000,4.000000,4.000000,4.000000,4.000000,4.000000,4.000000,4.000000,4.000000,4.000000,100.000000,,,,,,,,,,,,,,,,
1644854883.675416,97.000000,0.000000,4204.871582,4199.487305,4230.256348,4037.307617,4215.384766,4218.717773,4217.820313,4210.000000,4213.461426,4202.692383,4116.282227,4201.410156,4183.333496,4218.333496,0.000000,4.000000,82.000000,,,,0.000000,4.000000,4.000000,4.000000,4.000000,4.000000,4.000000,4.000000,4.000000,4.000000,4.000000,4.000000,4.000000,4.000000,4.000000,100.000000,,,,,,,,,,,,,,,,
1644854883.679356,98.000000,0.000000,4201.794922,4197.692383,4225.384766,4038.718018,4217.051270,4221.666504,4218.205078,4211.282227,4215.769043,4205.256348,4117.179688,4196.538574,4180.897461,4221.153809,0.000000,4.000000,82.000000,,,,0.000000,4.000000,4.000000,4.000000,4.000000,4.000000,4.000000,4.000000,4.000000,4.000000,4.000000,4.000000,4.000000,4.000000,4.000000,100.000000,,,,,,,,,,,,,,,,
1644854883.683296,99.000000,0.000000,4192.820313,4193.205078,4219.487305,4037.564209,4219.743652,4225.769043,4216.922852,4211.666504,4218.205078,4207.179688,4115.128418,4192.051270,4180.000000,4221.794922,0.000000,4.000000,82.000000,,,,0.000000,4.000000,4.000000,4.000000,4.000000,4.000000,4.000000,4.000000,4.000000,4.000000,4.000000,4.000000,4.000000,4.000000,4.000000,100.000000,,,,,,,,,,,,,,,,
1644854883.687236,100.000000,0.000000,4182.692383,4187.948730,4214.743652,4035.641113,4222.692383,4229.487305,4215.641113,4210.641113,4218.846191,4206.025879,4108.717773,4190.512695,4177.948730,4218.077148,0.000000,4.000000,82.000000,,,,0.000000,4.000000,4.000000,4.000000,4.000000,4.000000,4.000000,4.000000,4.000000,4.000000,4.000000,4.000000,4.000000,4.000000,4.000000,100.000000,,,,,,,,,,,,,,,,
1644854883.691176,101.000000,0.000000,4177.692383,4183.846191,4213.077148,4033.974365,4223.974121,4231.153809,4215.641113,4207.692383,4215.769043,4201.410156,4101.282227,4193.077148,4173.717773,4211.794922,0.000000,4.000000,82.000000,,,,0.000000,4.000000,4.000000,4.000000,4.000000,4.000000,4.000000,4.000000,4.000000,4.000000,4.000000,4.000000,4.000000,4.000000,4.000000,100.000000,,,,,,,,,,,,,,,,
1644854883.695116,102.000000,0.000000,4180.641113,4181.794922,4215.256348,4032.307617,4221.538574,4229.102539,4216.410156,4203.846191,4210.000000,4196.282227,4098.589844,4197.436035,4168.974121,4207.436035,0.000000,4.000000,82.000000,,,,0.000000,4.000000,4.000000,4.000000,4.000000,4.000000,4.000000,4.000000,4.000000,4.000000,4.000000,4.000000,4.000000,4.000000,4.000000,100.000000,,,,,,,,,,,,,,,,
1644854883.699056,103.000000,0.000000,4189.615234,4181.282227,4219.102539,4030.000000,4215.897461,4223.974121,4216.666504,4200.769043,4204.871582,4193.846191,4103.846191,4200.512695,4167.307617,4208.974121,0.000000,4.000000,82.000000,,,,0.000000,4.000000,4.000000,4.000000,4.000000,4.000000,4.000000,4.000000,4.000000,4.000000,4.000000,4.000000,4.000000,4.000000,4.000000,100.000000,,,,,,,,,,,,,,,,
1644854883.702997,104.000000,0.000000,4199.230957,4181.922852,4221.794922,4028.205078,4209.871582,4217.820313,4215.769043,4199.871582,4203.333496,4195.000000,4115.641113,4200.128418,4171.153809,4216.282227,0.000000,4.000000,82.000000,,,,0.000000,4.000000,4.000000,4.000000,4.000000,4.000000,4.000000,4.000000,4.000000,4.000000,4.000000,4.000000,4.000000,4.000000,4.000000,100.000000,,,,,,,,,,,,,,,,
1644854883.706937,105.000000,0.000000,4204.230957,4183.077148,4222.051270,4029.871826,4206.794922,4213.717773,4214.615234,4201.153809,4205.641113,4197.692383,4128.205078,4197.051270,4179.615234,4225.256348,0.000000,4.000000,82.000000,,,,0.000000,4.000000,4.000000,4.000000,4.000000,4.000000,4.000000,4.000000,4.000000,4.000000,4.000000,4.000000,4.000000,4.000000,4.000000,100.000000,,,,,,,,,,,,,,,,
1644854883.710877,106.000000,0.000000,4203.205078,4184.743652,4221.025879,4036.538574,4208.205078,4213.077148,4213.974121,4203.205078,4209.615234,4199.487305,4135.897461,4194.487305,4189.871582,4230.641113,0.000000,4.000000,82.000000,,,,0.000000,4.000000,4.000000,4.000000,4.000000,4.000000,4.000000,4.000000,4.000000,4.000000,4.000000,4.000000,4.000000,4.000000,4.000000,100.000000,,,,,,,,,,,,,,,,
1644854883.714817,107.000000,0.000000,4198.333496,4186.410156,4220.897461,4046.153809,4212.051270,4215.000000,4213.205078,4204.358887,4212.948730,4199.615234,4136.410156,4194.487305,4198.333496,4230.000000,0.000000,4.000000,82.000000,,,,0.000000,4.000000,4.000000,4.000000,4.000000,4.000000,4.000000,4.000000,4.000000,4.000000,4.000000,4.000000,4.000000,4.000000,4.000000,100.000000,,,,,,,,,,,,,,,,
1644854883.718757,108.000000,0.000000,4193.205078,4187.436035,4221.922852,4053.974365,4214.358887,4216.922852,4211.666504,4204.871582,4215.000000,4199.871582,4131.538574,4197.051270,4202.563965,4225.256348,0.000000,4.000000,82.000000,,,,0.000000,4.000000,4.000000,4.000000,4.000000,4.000000,4.000000,4.000000,4.000000,4.000000,4.000000,4.000000,4.000000,4.000000,4.000000,100.000000,,,,,,,,,,,,,,,,
1644854883.722697,109.000000,0.000000,4190.128418,4187.179688,4223.205078,4056.025635,4211.794922,4216.922852,4210.384766,4206.410156,4216.282227,4201.922852,4126.025879,4200.000000,4202.436035,4221.025879,0.000000,4.000000,82.000000,,,,0.000000,4.000000,4.000000,4.000000,4.000000,4.000000,4.000000,4.000000,4.000000,4.000000,4.000000,4.000000,4.000000,4.000000,4.000000,100.000000,,,,,,,,,,,,,,,,
1644854883.726637,110.000000,0.000000,4189.358887,4185.641113,4223.974121,4051.666748,4204.487305,4215.641113,4211.153809,4209.743652,4218.333496,4206.153809,4123.974121,4202.051270,4199.615234,4220.128418,0.000000,4.000000,82.000000,,,,0.000000,4.000000,4.000000,4.000000,4.000000,4.000000,4.000000,4.000000,4.000000,4.000000,4.000000,4.000000,4.000000,4.000000,4.000000,100.000000,,,,,,,,,,,,,,,,
1644854883.730477,111.000000,0.000000,4189.358887,4184.102539,4223.974121,4043.974365,4197.051270,4214.230957,4214.487305,4214.358887,4222.179688,4211.666504,4126.794922,4203.205078,4196.794922,4221.666504,0.000000,4.000000,82.000000,,,,0.000000,4.000000,4.000000,4.000000,4.000000,4.000000,4.000000,4.000000,4.000000,4.000000,4.000000,4.000000,4.000000,4.000000,4.000000,100.000000,,,,,,,,,,,,,,,,
1644854883.734417,112.000000,0.000000,4189.615234,4184.102539,4223.974121,4037.307617,4195.256348,4213.974121,4218.205078,4218.974121,4227.436035,4217.820313,4132.820313,4204.743652,4195.897461,4222.563965,0.000000,4.000000,82.000000,,,,0.000000,4.000000,4.000000,4.000000,4.000000,4.000000,4.000000,4.000000,4.000000,4.000000,4.000000,4.000000,4.000000,4.000000,4.000000,100.000000,,,,,,,,,,,,,,,,
1644854883.738358,113.000000,0.000000,4191.153809,4186.282227,4224.871582,4035.128174,4202.051270,4215.384766,4219.871582,4222.820313,4232.436035,4224.102539,4139.871582,4207.307617,4197.436035,4220.897461,0.000000,4.000000,82.000000,,,,0.000000,4.000000,4.000000,4.000000,4.000000,4.000000,4.000000,4.000000,4.000000,4.000000,4.000000,4.000000,4.000000,4.000000,4.000000,100.000000,,,,,,,,,,,,,,,,
1644854883.742298,114.000000,0.000000,4195.256348,4189.487305,4226.922852,4038.846191,4214.230957,4217.820313,4219.230957,4226.025879,4235.000000,4229.487305,4146.922852,4210.769043,4201.282227,4218.205078,0.000000,4.000000,82.000000,,,,0.000000,4.000000,4.000000,4.000000,4.000000,4.000000,4.000000,4.000000,4.000000,4.000000,4.000000,4.000000,4.000000,4.000000,4.000000,100.000000,,,,,,,,,,,,,,,,
1644854883.746238,115.000000,0.000000,4201.666504,4191.922852,4230.256348,4046.538574,4225.384766,4220.641113,4218.589844,4228.333496,4234.487305,4232.563965,4153.205078,4214.615234,4205.897461,4217.820313,0.000000,4.000000,82.000000,,,,0.000000,4.000000,4.000000,4.000000,4.000000,4.000000,4.000000,4.000000,4.000000,4.000000,4.000000,4.000000,4.000000,4.000000,4.000000,100.000000,,,,,,,,,,,,,,,,
1644854883.750178,116.000000,0.000000,4207.948730,4193.461426,4233.974121,4055.128174,4230.128418,4223.077148,4220.128418,4229.487305,4233.077148,4232.820313,4157.436035,4218.333496,4210.256348,4221.410156,0.000000,4.000000,82.000000,,,,0.000000,4.000000,4.000000,4.000000,4.000000,4.000000,4.000000,4.000000,4.000000,4.000000,4.000000,4.000000,4.000000,4.000000,4.000000,100.000000,,,,,,,,,,,,,,,,
1644854883.754118,117.000000,0.000000,4211.153809,4195.256348,4236.282227,4061.410156,4227.948730,4224.487305,4223.333496,4228.589844,4233.205078,4231.025879,4157.948730,4220.897461,4213.846191,4227.179688,0.000000,4.000000,82.000000,,,,0.000000,4.000000,4.000000,4.000000,4.000000,4.000000,4.000000,4.000000,4.000000,4.000000,4.000000,4.000000,4.000000,4.000000,4.000000,100.000000,,,,,,,,,,,,,,,,
1644854883.758058,118.000000,0.000000,4210.000000,4198.589844,4235.384766,4064.615479,4222.820313,4224.615234,4225.512695,4225.384766,4235.384766,4229.102539,4153.974121,4220.897461,4216.025879,4231.922852,0.000000,4.000000,82.000000,,,,0.000000,4.000000,4.000000,4.000000,4.000000,4.000000,4.000000,4.000000,4.000000,4.000000,4.000000,4.000000,4.000000,4.000000,4.000000,100.000000,,,,,,,,,,,,,,,,
1644854883.761998,119.000000,0.000000,4205.256348,4202.307617,4230.512695,4064.871826,4218.717773,4223.333496,4224.615234,4220.256348,4236.794922,4226.922852,4147.563965,4217.307617,4215.641113,4233.461426,0.000000,4.000000,82.000000,,,,0.000000,4.000000,4.000000,4.000000,4.000000,4.000000,4.000000,4.000000,4.000000,4.000000,4.000000,4.000000,4.000000,4.000000,4.000000,100.000000,,,,,,,,,,,,,,,,
1644854883.765938,120.000000,0.000000,4200.000000,4203.461426,4223.461426,4063.076904,4217.179688,4220.897461,4221.282227,4214.358887,4233.846191,4223.333496,4141.794922,4210.769043,4212.436035,4232.307617,0.000000,4.000000,82.000000,,,,0.000000,4.000000,4.000000,4.000000,4.000000,4.000000,4.000000,4.000000,4.000000,4.000000,4.000000,4.000000,4.000000,4.000000,4.000000,100.000000,,,,,,,,,,,,,,,,
1644854883.769878,121.000000,0.000000,4197.051270,4199.487305,4218.333496,4060.256348,4216.922852,4218.205078,4217.051270,4209.743652,4226.538574,4217.820313,4139.615234,4204.358887,4208.205078,4230.256348,0.000000,4.000000,82.000000,,,,0.000000,4.000000,4.000000,4.000000,4.000000,4.000000,4.000000,4.000000,4.000000,4.000000,4.000000,4.000000,4.000000,4.000000,4.000000,100.000000,,,,,,,,,,,,,,,,
1644854883.773819,122.000000,0.000000,4197.820313,4191.538574,4218.077148,4057.692383,4215.897461,4216.025879,4213.717773,4207.820313,4218.333496,4212.692383,4141.922852,4201.538574,4205.256348,4228.846191,0.000000,4.000000,82.000000,,,,0.000000,4.000000,4.000000,4.000000,4.000000,4.000000,4.000000,4.000000,4.000000,4.000000,4.000000,4.000000,4.000000,4.000000,4.000000,100.000000,,,,,,,,,,,,,,,,
1644854883.777759,123.000000,0.000000,4201.282227,4184.615234,4222.051270,4056.410156,4213.333496,4215.256348,4211.410156,4208.846191,4213.461426,4211.282227,4146.538574,4203.589844,4204.743652,4228.589844,0.000000,4.000000,82.000000,,,,0.000000,4.000000,4.000000,4.000000,4.000000,4.000000,4.000000,4.000000,4.000000,4.000000,4.000000,4.000000,4.000000,4.000000,4.000000,100.000000,,,,,,,,,,,,,,,,
1644854883.781699,124.000000,0.000000,4205.000000,4183.461426,4226.922852,4056.410156,4210.384766,4215.641113,4210.769043,4211.794922,4214.358887,4215.128418,4150.128418,4208.717773,4205.256348,4228.974121,0.000000,4.000000,82.000000,,,,0.000000,4.000000,4.000000,4.000000,4.000000,4.000000,4.000000,4.000000,4.000000,4.000000,4.000000,4.000000,4.000000,4.000000,4.000000,100.000000,,,,,,,,,,,,,,,,
1644854883.785639,125.000000,0.000000,4205.769043,4188.589844,4229.871582,4057.051270,4208.461426,4216.410156,4212.563965,4215.256348,4219.615234,4221.666504,4149.743652,4212.820313,4205.256348,4229.230957,0.000000,4.000000,82.000000,,,,0.000000,4.000000,4.000000,4.000000,4.000000,4.000000,4.000000,4.000000,4.000000,4.000000,4.000000,4.000000,4.000000,4.000000,4.000000,100.000000,,,,,,,,,,,,,,,,
1644854883.789579,126.000000,0.000000,4202.436035,4196.153809,4229.102539,4057.307617,4208.717773,4217.436035,4216.794922,4218.077148,4225.897461,4225.641113,4145.128418,4212.820313,4204.102539,4228.589844,0.000000,4.000000,82.000000,,,,0.000000,4.000000,4.000000,4.000000,4.000000,4.000000,4.000000,4.000000,4.000000,4.000000,4.000000,4.000000,4.000000,4.000000,4.000000,100.000000,,,,,,,,,,,,,,,,
1644854883.793519,127.000000,0.000000,4196.922852,4200.641113,4224.871582,4056.923096,4211.282227,4218.974121,4220.897461,4219.871582,4230.384766,4224.230957,4137.820313,4208.205078,4201.666504,4226.282227,0.000000,4.000000,82.000000,,,,0.000000,4.000000,4.000000,4.000000,4.000000,4.000000,4.000000,4.000000,4.000000,4.000000,4.000000,4.000000,4.000000,4.000000,4.000000,100.000000,,,,,,,,,,,,,,,,
1644854883.797359,128.000000,0.000000,4192.307617,4199.358887,4218.717773,4056.666748,4215.000000,4221.282227,4221.666504,4220.384766,4231.794922,4219.487305,4130.256348,4201.153809,4199.102539,4222.436035,3421.000000,4.000000,82.000000,,,,0.000000,4.000000,4.000000,4.000000,4.000000,4.000000,4.000000,4.000000,4.000000,4.000000,4.000000,4.000000,4.000000,4.000000,4.000000,100.000000,,,,,,,,,,,,,,,,
1644854883.801299,129.000000,0.000000,4191.153809,4194.743652,4213.589844,4056.923096,4219.230957,4224.358887,4218.717773,4220.769043,4231.282227,4216.794922,4125.512695,4195.897461,4197.307617,4218.974121,3349.000000,4.000000,82.000000,,,,0.000000,4.000000,4.000000,4.000000,4.000000,4.000000,4.000000,4.000000,4.000000,4.000000,4.000000,4.000000,4.000000,4.000000,4.000000,100.000000,,,,,,,,,,,,,,,,
1644854883.805239,130.000000,0.000000,4193.205078,4191.794922,4212.307617,4057.564209,4222.820313,4226.666504,4214.615234,4221.794922,4230.384766,4219.743652,4126.282227,4195.000000,4197.563965,4218.846191,3501.000000,4.000000,82.000000,,,,0.000000,4.000000,4.000000,4.000000,4.000000,4.000000,4.000000,4.000000,4.000000,4.000000,4.000000,4.000000,4.000000,4.000000,4.000000,100.000000,,,,,,,,,,,,,,,,
1644854883.809180,131.000000,0.000000,4196.410156,4193.717773,4215.256348,4058.205078,4224.871582,4226.922852,4212.948730,4223.333496,4229.743652,4225.897461,4133.461426,4198.205078,4199.615234,4222.948730,3540.000000,4.000000,82.000000,,,,0.000000,4.000000,4.000000,4.000000,4.000000,4.000000,4.000000,4.000000,4.000000,4.000000,4.000000,4.000000,4.000000,4.000000,4.000000,100.000000,,,,,,,,,,,,,,,,
1644854883.813120,132.000000,0.000000,4198.589844,4198.974121,4219.615234,4059.358887,4225.000000,4224.487305,4213.846191,4223.333496,4228.461426,4229.358887,4144.487305,4202.563965,4201.922852,4228.589844,3675.000000,4.000000,82.000000,,,,0.000000,4.000000,4.000000,4.000000,4.000000,4.000000,4.000000,4.000000,4.000000,4.000000,4.000000,4.000000,4.000000,4.000000,4.000000,100.000000,,,,,,,,,,,,,,,,
1644854883.817060,133.000000,0.000000,4198.717773,4202.692383,4221.794922,4061.538574,4223.717773,4221.025879,4215.256348,4220.897461,4225.384766,4226.153809,4154.230957,4204.358887,4203.205078,4231.410156,3381.000000,4.000000,82.000000,,,,0.000000,4.000000,4.000000,4.000000,4.000000,4.000000,4.000000,4.000000,4.000000,4.000000,4.000000,4.000000,4.000000,4.000000,4.000000,100.000000,,,,,,,,,,,,,,,,
1644854883.821000,134.000000,0.000000,4197.436035,4201.025879,4219.871582,4064.102539,4222.307617,4218.717773,4215.384766,4217.051270,4221.410156,4217.948730,4158.333496,4202.436035,4203.333496,4229.743652,2797.000000,4.000000,82.000000,,,,0.000000,4.000000,4.000000,4.000000,4.000000,4.000000,4.000000,4.000000,4.000000,4.000000,4.000000,4.000000,4.000000,4.000000,4.000000,100.000000,,,,,,,,,,,,,,,,
1644854883.824940,135.000000,0.000000,4196.282227,4194.358887,4215.000000,4065.256348,4221.922852,4219.102539,4214.230957,4214.615234,4218.717773,4210.897461,4155.384766,4197.436035,4202.563965,4226.153809,3031.000000,4.000000,82.000000,,,,0.000000,4.000000,4.000000,4.000000,4.000000,4.000000,4.000000,4.000000,4.000000,4.000000,4.000000,4.000000,4.000000,4.000000,4.000000,100.000000,,,,,,,,,,,,,,,,
1644854883.828880,136.000000,0.000000,4195.641113,4187.051270,4210.128418,4063.846191,4222.051270,4221.410156,4213.717773,4215.384766,4218.333496,4209.615234,4147.692383,4191.922852,4201.282227,4223.846191,3275.000000,4.000000,82.000000,,,,0.000000,4.000000,4.000000,4.000000,4.000000,4.000000,4.000000,4.000000,4.000000,4.000000,4.000000,4.000000,4.000000,4.000000,4.000000,100.000000,,,,,,,,,,,,,,,,
1644854883.832820,137.000000,0.000000,4195.769043,4183.589844,4208.077148,4060.897461,4221.282227,4223.717773,4214.487305,4218.205078,4219.615234,4213.077148,4138.974121,4187.948730,4199.871582,4223.077148,3544.000000,4.000000,82.000000,,,,0.000000,4.000000,4.000000,4.000000,4.000000,4.000000,4.000000,4.000000,4.000000,4.000000,4.000000,4.000000,4.000000,4.000000,4.000000,100.000000,,,,,,,,,,,,,,,,
1644854883.836760,138.000000,0.000000,4195.897461,4185.256348,4209.487305,4058.718018,4219.102539,4224.102539,4215.384766,4219.487305,4220.384766,4215.512695,4132.179688,4186.410156,4199.615234,4221.410156,3523.000000,4.000000,82.000000,,,,0.000000,4.000000,4.000000,4.000000,4.000000,4.000000,4.000000,4.000000,4.000000,4.000000,4.000000,4.000000,4.000000,4.000000,4.000000,100.000000,,,,,,,,,,,,,,,,
1644854883.840700,139.000000,0.000000,4194.615234,4189.230957,4212.820313,4057.307617,4215.897461,4221.922852,4214.743652,4216.025879,4218.974121,4211.153809,4128.205078,4186.538574,4201.153809,4217.563965,2529.000000,4.000000,82.000000,,,,0.000000,4.000000,4.000000,4.000000,4.000000,4.000000,4.000000,4.000000,4.000000,4.000000,4.000000,4.000000,4.000000,4.000000,4.000000,100.000000,,,,,,,,,,,,,,,,
1644854883.844641,140.000000,0.000000,4191.282227,4191.794922,4215.256348,4055.256348,4212.948730,4218.333496,4213.077148,4208.717773,4214.871582,4200.128418,4126.282227,4186.794922,4203.333496,4212.948730,3445.000000,4.000000,82.000000,,,,0.000000,4.000000,4.000000,4.000000,4.000000,4.000000,4.000000,4.000000,4.000000,4.000000,4.000000,4.000000,4.000000,4.000000,4.000000,100.000000,,,,,,,,,,,,,,,,
1644854883.848581,141.000000,0.000000,4186.153809,4191.153809,4214.615234,4051.281982,4210.897461,4215.512695,4212.436035,4201.666504,4209.615234,4188.717773,4126.410156,4187.307617,4203.589844,4210.256348,3488.000000,4.000000,82.000000,1,1,2,0.000000,4.000000,4.000000,4.000000,4.000000,4.000000,4.000000,4.000000,4.000000,4.000000,4.000000,4.000000,4.000000,4.000000,4.000000,100.000000,,,,,,,,,,,,,,,,
1644854883.852521,142.000000,0.000000,4181.025879,4188.461426,4210.897461,4046.538574,4209.871582,4215.128418,4213.077148,4198.846191,4205.769043,4184.487305,4128.974121,4188.461426,4200.769043,4210.641113,3523.000000,4.000000,82.000000,,,,0.000000,4.000000,4.000000,4.000000,4.000000,4.000000,4.000000,4.000000,4.000000,4.000000,4.000000,4.000000,4.000000,4.000000,4.000000,100.000000,,,,,,,,,,,,,,,,
1644854883.856461,143.000000,0.000000,4178.333496,4186.025879,4205.769043,4043.076904,4209.487305,4217.051270,4213.974121,4200.769043,4205.512695,4190.000000,4133.333496,4189.871582,4196.410156,4213.333496,2529.000000,4.000000,82.000000,,,,0.000000,4.000000,4.000000,4.000000,4.000000,4.000000,4.000000,4.000000,4.000000,4.000000,4.000000,4.000000,4.000000,4.000000,4.000000,100.000000,,,,,,,,,,,,,,,,
1644854883.860401,144.000000,0.000000,4178.589844,4184.487305,4202.179688,4042.692383,4209.358887,4219.487305,4214.358887,4204.487305,4208.077148,4200.512695,4136.410156,4189.871582,4193.461426,4216.794922,3445.000000,4.000000,82.000000,,,,0.000000,4.000000,4.000000,4.000000,4.000000,4.000000,4.000000,4.000000,4.000000,4.000000,4.000000,4.000000,4.000000,4.000000,4.000000,100.000000,,,,,,,,,,,,,,,,
1644854883.864341,145.000000,0.000000,4180.512695,4183.333496,4201.538574,4045.769287,4209.615234,4220.769043,4214.487305,4206.410156,4211.025879,4208.205078,4134.871582,4186.666504,4193.205078,4219.615234,3488.000000,4.000000,82.000000,,,,0.000000,4.000000,4.000000,4.000000,4.000000,4.000000,4.000000,4.000000,4.000000,4.000000,4.000000,4.000000,4.000000,4.000000,4.000000,100.000000,,,,,,,,,,,,,,,,
1644854883.868281,146.000000,0.000000,4182.051270,4181.794922,4202.692383,4051.538574,4210.256348,4220.512695,4215.384766,4205.384766,4211.282227,4208.846191,4128.717773,4180.897461,4193.974121,4220.256348,3523.000000,4.000000,82.000000,,,,0.000000,4.000000,4.000000,4.000000,4.000000,4.000000,4.000000,4.000000,4.000000,4.000000,4.000000,4.000000,4.000000,4.000000,4.000000,100.000000,,,,,,,,,,,,,,,,
1644854883.872121,147.000000,0.000000,4182.692383,4180.256348,4203.333496,4057.692383,4211.410156,4219.615234,4216.025879,4202.692383,4209.102539,4204.102539,4121.794922,4175.000000,4192.820313,4217.179688,2529.000000,4.000000,82.000000,,,,0.000000,4.000000,4.000000,4.000000,4.000000,4.000000,4.000000,4.000000,4.000000,4.000000,4.000000,4.000000,4.000000,4.000000,4.000000,100.000000,,,,,,,,,,,,,,,,
1644854883.876061,148.000000,0.000000,4183.717773,4179.487305,4202.179688,4062.051270,4213.205078,4218.589844,4215.256348,4200.769043,4207.051270,4199.230957,4118.974121,4172.179688,4189.230957,4209.871582,3445.000000,4.000000,82.000000,,,,0.000000,4.000000,4.000000,4.000000,4.000000,4.000000,4.000000,4.000000,4.000000,4.000000,4.000000,4.000000,4.000000,4.000000,4.000000,100.000000,,,,,,,,,,,,,,,,
1644854883.880002,149.000000,0.000000,4186.153809,4180.641113,4200.256348,4062.820557,4214.871582,4217.948730,4212.820313,4201.282227,4208.333496,4198.333496,4122.563965,4174.230957,4185.769043,4201.410156,3488.000000,4.000000,82.000000,,,,0.000000,4.000000,4.000000,4.000000,4.000000,4.000000,4.000000,4.000000,4.000000,4.000000,4.000000,4.000000,4.000000,4.000000,4.000000,100.000000,,,,,,,,,,,,,,,,
1644854883.883942,150.000000,0.000000,4190.000000,4182.948730,4200.256348,4060.769287,4215.641113,4218.077148,4210.897461,4204.487305,4212.692383,4201.922852,4130.256348,4180.384766,4186.282227,4197.179688,3523.000000,4.000000,82.000000,,,,0.000000,4.000000,4.000000,4.000000,4.000000,4.000000,4.000000,4.000000,4.000000,4.000000,4.000000,4.000000,4.000000,4.000000,4.000000,100.000000,,,,,,,,,,,,,,,,
1644854883.887882,151.000000,0.000000,4193.077148,4185.000000,4203.461426,4058.076904,4214.743652,4218.717773,4211.410156,4209.230957,4217.051270,4207.692383,4137.051270,4186.922852,4191.538574,4199.871582,2529.000000,4.000000,82.000000,,,,0.000000,4.000000,4.000000,4.000000,4.000000,4.000000,4.000000,4.000000,4.000000,4.000000,4.000000,4.000000,4.000000,4.000000,4.000000,100.000000,,,,,,,,,,,,,,,,
1644854883.891822,152.000000,0.000000,4192.820313,4185.384766,4208.461426,4057.307617,4212.436035,4219.615234,4214.230957,4213.589844,4218.077148,4213.717773,4139.615234,4190.256348,4198.974121,4207.692383,3445.000000,4.000000,82.000000,,,,0.000000,4.000000,4.000000,4.000000,4.000000,4.000000,4.000000,4.000000,4.000000,4.000000,4.000000,4.000000,4.000000,4.000000,4.000000,100.000000,,,,,,,,,,,,,,,,
1644854883.895762,153.000000,0.000000,4189.230957,4184.871582,4212.820313,4059.102539,4209.871582,4220.256348,4216.538574,4215.641113,4216.025879,4218.846191,4139.230957,4188.846191,4204.358887,4215.128418,3488.000000,4.000000,82.000000,,,,0.000000,4.000000,4.000000,4.000000,4.000000,4.000000,4.000000,4.000000,4.000000,4.000000,4.000000,4.000000,4.000000,4.000000,4.000000,100.000000,,,,,,,,,,,,,,,,
1644854883.899702,154.000000,0.000000,4184.615234,4185.256348,4214.871582,4062.435791,4208.589844,4220.000000,4216.538574,4214.871582,4213.077148,4221.538574,4139.102539,4184.615234,4205.512695,4218.717773,3523.000000,4.000000,82.000000,,,,0.000000,4.000000,4.000000,4.000000,4.000000,4.000000,4.000000,4.000000,4.000000,4.000000,4.000000,4.000000,4.000000,4.000000,4.000000,100.000000,,,,,,,,,,,,,,,,
1644854883.903642,155.000000,0.000000,4182.820313,4187.307617,4214.615234,4065.384521,4209.358887,4218.589844,4214.871582,4211.794922,4211.410156,4219.871582,4140.384766,4181.282227,4203.589844,4218.333496,2529.000000,4.000000,82.000000,,,,0.000000,4.000000,4.000000,4.000000,4.000000,4.000000,4.000000,4.000000,4.000000,4.000000,4.000000,4.000000,4.000000,4.000000,4.000000,100.000000,,,,,,,,,,,,,,,,
1644854883.907582,156.000000,0.000000,4185.256348,4189.743652,4213.589844,4067.435791,4211.794922,4216.922852,4213.717773,4208.589844,4211.153809,4213.461426,4140.512695,4181.666504,4202.436035,4215.641113,3445.000000,4.000000,82.000000,,,,0.000000,4.000000,4.000000,4.000000,4.000000,4.000000,4.000000,4.000000,4.000000,4.000000,4.000000,4.000000,4.000000,4.000000,4.000000,100.000000,,,,,,,,,,,,,,,,
1644854883.911522,157.000000,0.000000,4189.743652,4190.512695,4213.205078,4068.718018,4215.128418,4216.025879,4213.717773,4207.179688,4210.769043,4204.615234,4137.820313,4185.769043,4204.615234,4211.922852,3488.000000,4.000000,82.000000,,,,0.000000,4.000000,4.000000,4.000000,4.000000,4.000000,4.000000,4.000000,4.000000,4.000000,4.000000,4.000000,4.000000,4.000000,4.000000,100.000000,,,,,,,,,,,,,,,,
1644854883.915463,158.000000,0.000000,4191.922852,4189.743652,4213.717773,4068.589844,4217.307617,4216.410156,4213.589844,4207.820313,4209.487305,4198.333496,4134.358887,4190.897461,4210.128418,4207.692383,3523.000000,4.000000,82.000000,,,,0.000000,4.000000,4.000000,4.000000,4.000000,4.000000,4.000000,4.000000,4.000000,4.000000,4.000000,4.000000,4.000000,4.000000,4.000000,100.000000,,,,,,,,,,,,,,,,
1644854883.919403,159.000000,0.000000,4189.358887,4189.102539,4214.358887,4066.153809,4216.282227,4217.307617,4212.051270,4209.487305,4207.948730,4198.717773,4134.102539,4193.846191,4216.025879,4204.487305,2529.000000,4.000000,82.000000,,,,0.000000,4.000000,4.000000,4.000000,4.000000,4.000000,4.000000,4.000000,4.000000,4.000000,4.000000,4.000000,4.000000,4.000000,4.000000,100.000000,,,,,,,,,,,,,,,,
1644854883.923343,160.000000,0.000000,4184.102539,4190.256348,4213.974121,4062.051270,4210.897461,4217.563965,4209.743652,4210.641113,4207.563965,4205.384766,4138.717773,4193.589844,4218.589844,4203.717773,3445.000000,4.000000,82.000000,,,,0.000000,4.000000,4.000000,4.000000,4.000000,4.000000,4.000000,4.000000,4.000000,4.000000,4.000000,4.000000,4.000000,4.000000,4.000000,100.000000,,,,,,,,,,,,,,,,
1644854883.927283,161.000000,0.000000,4181.410156,4192.948730,4212.179688,4058.718018,4204.230957,4216.666504,4208.461426,4211.153809,4209.358887,4213.717773,4145.512695,4191.282227,4217.179688,4206.153809,3488.000000,4.000000,82.000000,,,,0.000000,4.000000,4.000000,4.000000,4.000000,4.000000,4.000000,4.000000,4.000000,4.000000,4.000000,4.000000,4.000000,4.000000,4.000000,100.000000,,,,,,,,,,,,,,,,
1644854883.931223,162.000000,0.000000,4185.256348,4195.384766,4210.384766,4058.974365,4201.794922,4215.384766,4209.230957,4211.538574,4213.461426,4218.589844,4150.641113,4189.615234,4214.743652,4209.615234,3523.000000,4.000000,82.000000,,,,0.000000,4.000000,4.000000,4.000000,4.000000,4.000000,4.000000,4.000000,4.000000,4.000000,4.000000,4.000000,4.000000,4.000000,4.000000,100.000000,,,,,,,,,,,,,,,,
1644854883.935163,163.000000,0.000000,4194.102539,4195.769043,4210.000000,4062.435791,4207.307617,4215.256348,4210.897461,4212.051270,4217.692383,4218.846191,4152.307617,4190.384766,4215.384766,4211.666504,2529.000000,4.000000,82.000000,,,,0.000000,4.000000,4.000000,4.000000,4.000000,4.000000,4.000000,4.000000,4.000000,4.000000,4.000000,4.000000,4.000000,4.000000,4.000000,100.000000,,,,,,,,,,,,,,,,
1644854883.939103,164.000000,0.000000,4202.307617,4194.358887,4211.282227,4067.051270,4217.692383,4216.282227,4212.051270,4212.436035,4219.871582,4217.436035,4150.769043,4193.717773,4219.871582,4211.922852,3445.000000,4.000000,82.000000,,,,0.000000,4.000000,4.000000,4.000000,4.000000,4.000000,4.000000,4.000000,4.000000,4.000000,4.000000,4.000000,4.000000,4.000000,4.000000,100.000000,,,,,,,,,,,,,,,,
1644854883.943143,165.000000,0.000000,4204.487305,4193.077148,4213.333496,4071.153809,4225.384766,4217.820313,4212.179688,4212.307617,4219.487305,4217.948730,4148.205078,4197.948730,4224.102539,4212.051270,3488.000000,4.000000,82.000000,,,,0.000000,4.000000,4.000000,4.000000,4.000000,4.000000,4.000000,4.000000,4.000000,4.000000,4.000000,4.000000,4.000000,4.000000,4.000000,100.000000,,,,,,,,,,,,,,,,
1644854883.947083,166.000000,0.000000,4201.025879,4193.717773,4215.256348,4074.487061,4223.974121,4218.589844,4212.436035,4211.794922,4217.436035,4220.641113,4147.051270,4200.641113,4222.948730,4213.974121,3523.000000,4.000000,82.000000,,,,0.000000,4.000000,4.000000,4.000000,4.000000,4.000000,4.000000,4.000000,4.000000,4.000000,4.000000,4.000000,4.000000,4.000000,4.000000,100.000000,,,,,,,,,,,,,,,,
1644854883.951023,167.000000,0.000000,4196.153809,4196.025879,4217.563965,4077.820557,4214.615234,4218.077148,4213.333496,4210.512695,4215.384766,4223.461426,4148.461426,4200.897461,4214.615234,4216.922852,2529.000000,4.000000,82.000000,,,,0.000000,4.000000,4.000000,4.000000,4.000000,4.000000,4.000000,4.000000,4.000000,4.000000,4.000000,4.000000,4.000000,4.000000,4.000000,100.000000,,,,,,,,,,,,,,,,
1644854883.954963,168.000000,0.000000,4195.000000,4198.461426,4220.897461,4080.769287,4204.743652,4216.922852,4214.487305,4208.717773,4214.487305,4224.487305,4152.307617,4199.615234,4203.205078,4218.461426,3445.000000,4.000000,82.000000,,,,0.000000,4.000000,4.000000,4.000000,4.000000,4.000000,4.000000,4.000000,4.000000,4.000000,4.000000,4.000000,4.000000,4.000000,4.000000,100.000000,,,,,,,,,,,,,,,,
1644854883.958904,169.000000,0.000000,4198.205078,4198.717773,4224.743652,4081.923096,4202.179688,4216.153809,4215.128418,4207.307617,4215.512695,4224.102539,4157.179688,4198.974121,4196.538574,4217.820313,3488.000000,4.000000,82.000000,,,,0.000000,4.000000,4.000000,4.000000,4.000000,4.000000,4.000000,4.000000,4.000000,4.000000,4.000000,4.000000,4.000000,4.000000,4.000000,100.000000,,,,,,,,,,,,,,,,
1644854883.962844,170.000000,0.000000,4202.820313,4196.410156,4227.307617,4080.897461,4208.589844,4216.153809,4215.641113,4207.692383,4218.461426,4224.230957,4160.769043,4199.871582,4200.897461,4217.436035,3523.000000,4.000000,82.000000,2,1,2,0.000000,4.000000,4.000000,4.000000,4.000000,4.000000,4.000000,4.000000,4.000000,4.000000,4.000000,4.000000,4.000000,4.000000,4.000000,100.000000,,,,,,,,,,,,,,,,
1644854883.966784,171.000000,0.000000,4205.128418,4193.461426,4227.563965,4078.461426,4218.589844,4217.051270,4216.282227,4210.256348,4222.436035,4225.128418,4161.410156,4201.538574,4215.769043,4220.256348,2529.000000,4.000000,82.000000,,,,0.000000,4.000000,4.000000,4.000000,4.000000,4.000000,4.000000,4.000000,4.000000,4.000000,4.000000,4.000000,4.000000,4.000000,4.000000,100.000000,,,,,,,,,,,,,,,,
1644854883.970724,172.000000,0.000000,4204.358887,4192.948730,4225.769043,4076.281982,4224.487305,4218.333496,4216.922852,4213.461426,4225.769043,4225.000000,4158.846191,4202.436035,4233.846191,4225.384766,3445.000000,4.000000,82.000000,,,,0.000000,4.000000,4.000000,4.000000,4.000000,4.000000,4.000000,4.000000,4.000000,4.000000,4.000000,4.000000,4.000000,4.000000,4.000000,100.000000,,,,,,,,,,,,,,,,
1644854883.974664,173.000000,0.000000,4203.077148,4196.153809,4223.717773,4076.153809,4221.922852,4219.230957,4216.282227,4214.743652,4227.179688,4222.307617,4154.102539,4202.051270,4245.256348,4228.461426,3488.000000,4.000000,82.000000,,,,0.000000,4.000000,4.000000,4.000000,4.000000,4.000000,4.000000,4.000000,4.000000,4.000000,4.000000,4.000000,4.000000,4.000000,4.000000,100.000000,,,,,,,,,,,,,,,,
1644854883.978604,174.000000,0.000000,4203.717773,4201.153809,4222.179688,4078.974365,4212.563965,4218.974121,4213.974121,4213.077148,4225.641113,4218.205078,4149.487305,4201.410156,4244.102539,4225.769043,3523.000000,4.000000,82.000000,,,,0.000000,4.000000,4.000000,4.000000,4.000000,4.000000,4.000000,4.000000,4.000000,4.000000,4.000000,4.000000,4.000000,4.000000,4.000000,100.000000,,,,,,,,,,,,,,,,
1644854883.982544,175.000000,0.000000,4205.512695,4203.974121,4221.794922,4084.615479,4202.692383,4217.051270,4211.538574,4209.871582,4222.051270,4215.384766,4146.794922,4201.922852,4232.307617,4217.948730,2529.000000,4.000000,82.000000,,,,0.000000,4.000000,4.000000,4.000000,4.000000,4.000000,4.000000,4.000000,4.000000,4.000000,4.000000,4.000000,4.000000,4.000000,4.000000,100.000000,,,,,,,,,,,,,,,,
1644854883.986484,176.000000,0.000000,4205.897461,4202.563965,4222.436035,4090.769287,4198.461426,4215.000000,4211.410156,4208.461426,4218.717773,4216.538574,4146.794922,4203.333496,4218.333496,4210.256348,3445.000000,4.000000,82.000000,,,,0.000000,4.000000,4.000000,4.000000,4.000000,4.000000,4.000000,4.000000,4.000000,4.000000,4.000000,4.000000,4.000000,4.000000,4.000000,100.000000,,,,,,,,,,,,,,,,
1644854883.990424,177.000000,0.000000,4203.717773,4198.717773,4223.846191,4094.358887,4202.307617,4214.871582,4214.230957,4210.256348,4218.205078,4221.410156,4149.615234,4203.846191,4210.769043,4208.205078,3488.000000,4.000000,82.000000,,,,0.000000,4.000000,4.000000,4.000000,4.000000,4.000000,4.000000,4.000000,4.000000,4.000000,4.000000,4.000000,4.000000,4.000000,4.000000,100.000000,,,,,,,,,,,,,,,,
1644854883.994365,178.000000,0.000000,4200.384766,4196.282227,4225.128418,4093.333252,4211.666504,4218.205078,4217.692383,4213.589844,4220.384766,4227.692383,4152.948730,4201.922852,4213.333496,4212.692383,3523.000000,4.000000,82.000000,,,,0.000000,4.000000,4.000000,4.000000,4.000000,4.000000,4.000000,4.000000,4.000000,4.000000,4.000000,4.000000,4.000000,4.000000,4.000000,100.000000,,,,,,,,,,,,,,,,
1644854883.998305,179.000000,0.000000,4198.846191,4197.820313,4225.641113,4088.846191,4220.641113,4223.846191,4218.846191,4215.769043,4223.461426,4232.179688,4155.256348,4198.461426,4223.077148,4219.743652,2529.000000,4.000000,82.000000,,,,0.000000,4.000000,4.000000,4.000000,4.000000,4.000000,4.000000,4.000000,4.000000,4.000000,4.000000,4.000000,4.000000,4.000000,4.000000,100.000000,,,,,,,,,,,,,,,,
1644854884.002245,180.000000,0.000000,4200.256348,4202.051270,4225.512695,4084.230713,4223.974121,4228.974121,4217.179688,4215.384766,4224.487305,4232.820313,4156.025879,4196.282227,4233.205078,4224.358887,3445.000000,4.000000,82.000000,,,,0.000000,4.000000,4.000000,4.000000,4.000000,4.000000,4.000000,4.000000,4.000000,4.000000,4.000000,4.000000,4.000000,4.000000,4.000000,100.000000,,,,,,,,,,,,,,,,
1644854884.006185,181.000000,0.000000,4203.333496,4205.641113,4225.512695,4082.435791,4220.512695,4230.256348,4214.743652,4212.563965,4221.922852,4229.871582,4156.538574,4197.179688,4237.179688,4223.974121,3488.000000,4.000000,82.000000,,,,0.000000,4.000000,4.000000,4.000000,4.000000,4.000000,4.000000,4.000000,4.000000,4.000000,4.000000,4.000000,4.000000,4.000000,4.000000,100.000000,,,,,,,,,,,,,,,,
1644854884.010125,182.000000,0.000000,4205.256348,4205.641113,4226.282227,4083.205078,4213.589844,4226.153809,4213.589844,4209.102539,4216.410156,4224.615234,4157.179688,4200.384766,4233.846191,4220.000000,3523.000000,4.000000,82.000000,,,,0.000000,4.000000,4.000000,4.000000,4.000000,4.000000,4.000000,4.000000,4.000000,4.000000,4.000000,4.000000,4.000000,4.000000,4.000000,100.000000,,,,,,,,,,,,,,,,
1644854884.014165,183.000000,0.000000,4204.615234,4202.307617,4227.307617,4084.743652,4208.077148,4219.487305,4213.589844,4206.666504,4211.153809,4219.230957,4157.051270,4203.333496,4227.820313,4216.025879,2529.000000,4.000000,82.000000,,,,0.000000,4.000000,4.000000,4.000000,4.000000,4.000000,4.000000,4.000000,4.000000,4.000000,4.000000,4.000000,4.000000,4.000000,4.000000,100.000000,,,,,,,,,,,,,,,,
1644854884.018105,184.000000,0.000000,4202.307617,4198.333496,4228.077148,4085.512939,4206.794922,4215.000000,4213.461426,4206.666504,4209.230957,4215.512695,4155.897461,4203.974121,4225.000000,4215.641113,3445.000000,4.000000,82.000000,,,,0.000000,4.000000,4.000000,4.000000,4.000000,4.000000,4.000000,4.000000,4.000000,4.000000,4.000000,4.000000,4.000000,4.000000,4.000000,100.000000,1.000000,25.000000,4.000000,4.000000,4.000000,1.000000,4.000000,4.000000,1.000000,4.000000,4.000000,4.000000,1.000000,4.000000,3.000000,4.000000
1644854884.022045,185.000000,0.000000,4200.641113,4196.922852,4228.461426,4086.153809,4209.615234,4215.897461,4213.333496,4209.743652,4211.410156,4214.743652,4155.384766,4202.307617,4226.666504,4219.230957,3488.000000,4.000000,82.000000,,,,0.000000,4.000000,4.000000,4.000000,4.000000,4.000000,4.000000,4.000000,4.000000,4.000000,4.000000,4.000000,4.000000,4.000000,4.000000,100.000000,,,,,,,,,,,,,,,,
1644854884.025985,186.000000,0.000000,4200.769043,4198.461426,4228.717773,4087.435791,4214.487305,4221.410156,4214.230957,4214.743652,4215.769043,4217.307617,4157.436035,4200.256348,4228.974121,4224.102539,3523.000000,4.000000,82.000000,,,,0.000000,4.000000,4.000000,4.000000,4.000000,4.000000,4.000000,4.000000,4.000000,4.000000,4.000000,4.000000,4.000000,4.000000,4.000000,100.000000,,,,,,,,,,,,,,,,
1644854884.029925,187.000000,0.000000,4201.666504,4200.897461,4228.077148,4089.102539,4218.077148,4227.820313,4217.179688,4219.487305,4219.871582,4222.051270,4161.666504,4200.000000,4227.307617,4226.410156,2529.000000,4.000000,82.000000,,,,0.000000,4.000000,4.000000,4.000000,4.000000,4.000000,4.000000,4.000000,4.000000,4.000000,4.000000,4.000000,4.000000,4.000000,4.000000,100.000000,,,,,,,,,,,,,,,,
1644854884.033866,188.000000,0.000000,4202.307617,4201.794922,4226.025879,4090.256348,4218.974121,4231.282227,4220.897461,4221.538574,4222.692383,4227.179688,4165.256348,4201.794922,4221.410156,4224.871582,3445.000000,4.000000,82.000000,,,,0.000000,4.000000,4.000000,4.000000,4.000000,4.000000,4.000000,4.000000,4.000000,4.000000,4.000000,4.000000,4.000000,4.000000,4.000000,100.000000,,,,,,,,,,,,,,,,
1644854884.037806,189.000000,0.000000,4201.922852,4199.871582,4222.692383,4091.666748,4217.948730,4230.641113,4222.692383,4220.128418,4224.102539,4230.128418,4165.641113,4203.589844,4215.769043,4221.025879,3488.000000,4.000000,82.000000,,,,0.000000,4.000000,4.000000,4.000000,4.000000,4.000000,4.000000,4.000000,4.000000,4.000000,4.000000,4.000000,4.000000,4.000000,4.000000,100.000000,,,,,,,,,,,,,,,,
1644854884.041746,190.000000,0.000000,4200.769043,4196.538574,4219.358887,4093.333252,4216.922852,4227.692383,4221.922852,4216.666504,4224.102539,4228.974121,4163.077148,4203.589844,4215.512695,4218.333496,3523.000000,4.000000,82.000000,,,,0.000000,4.000000,4.000000,4.000000,4.000000,4.000000,4.000000,4.000000,4.000000,4.000000,4.000000,4.000000,4.000000,4.000000,4.000000,100.000000,,,,,,,,,,,,,,,,
1644854884.045686,191.000000,0.000000,4199.615234,4194.102539,4217.692383,4093.846191,4216.794922,4225.000000,4219.743652,4213.461426,4222.179688,4224.487305,4159.615234,4201.282227,4221.538574,4218.333496,2529.000000,4.000000,82.000000,,,,0.000000,4.000000,4.000000,4.000000,4.000000,4.000000,4.000000,4.000000,4.000000,4.000000,4.000000,4.000000,4.000000,4.000000,4.000000,100.000000,,,,,,,,,,,,,,,,
1644854884.049626,192.000000,0.000000,4199.230957,4194.102539,4218.077148,4090.000000,4216.153809,4223.461426,4218.333496,4211.666504,4219.102539,4219.487305,4157.179688,4198.589844,4229.487305,4219.743652,3445.000000,4.000000,82.000000,,,,0.000000,4.000000,4.000000,4.000000,4.000000,4.000000,4.000000,4.000000,4.000000,4.000000,4.000000,4.000000,4.000000,4.000000,4.000000,100.000000,,,,,,,,,,,,,,,,
1644854884.053566,193.000000,0.000000,4199.230957,4196.025879,4218.717773,4081.666748,4214.102539,4221.922852,4217.948730,4211.666504,4216.282227,4216.922852,4156.153809,4197.179688,4233.461426,4220.128418,3488.000000,4.000000,82.000000,,,,0.000000,4.000000,4.000000,4.000000,4.000000,4.000000,4.000000,4.000000,4.000000,4.000000,4.000000,4.000000,4.000000,4.000000,4.000000,100.000000,,,,,,,,,,,,,,,,
1644854884.057506,194.000000,0.000000,4198.717773,4198.205078,4218.077148,4072.435791,4210.897461,4219.487305,4217.692383,4212.820313,4215.256348,4217.563965,4156.538574,4197.820313,4231.153809,4217.948730,3523.000000,4.000000,82.000000,,,,0.000000,4.000000,4.000000,4.000000,4.000000,4.000000,4.000000,4.000000,4.000000,4.000000,4.000000,4.000000,4.000000,4.000000,4.000000,100.000000,,,,,,,,,,,,,,,,
1644854884.061446,195.000000,0.000000,4198.077148,4198.974121,4216.025879,4067.948730,4208.077148,4216.538574,4217.051270,4214.102539,4216.025879,4219.487305,4158.205078,4199.615234,4224.743652,4214.871582,2529.000000,4.000000,82.000000,,,,0.000000,4.000000,4.000000,4.000000,4.000000,4.000000,4.000000,4.000000,4.000000,4.000000,4.000000,4.000000,4.000000,4.000000,4.000000,100.000000,,,,,,,,,,,,,,,,
1644854884.065386,196.000000,0.000000,4198.205078,4198.461426,4213.717773,4070.641113,4207.563965,4215.000000,4216.538574,4214.358887,4217.307617,4219.871582,4160.769043,4201.153809,4218.333496,4213.846191,3445.000000,4.000000,82.000000,,,,0.000000,4.000000,4.000000,4.000000,4.000000,4.000000,4.000000,4.000000,4.000000,4.000000,4.000000,4.000000,4.000000,4.000000,4.000000,100.000000,,,,,,,,,,,,,,,,
1644854884.069326,197.000000,0.000000,4199.615234,4197.692383,4212.051270,4078.846191,4209.487305,4215.641113,4216.538574,4213.589844,4217.307617,4217.307617,4162.563965,4201.025879,4214.487305,4215.641113,3488.000000,4.000000,82.000000,,,,0.000000,4.000000,4.000000,4.000000,4.000000,4.000000,4.000000,4.000000,4.000000,4.000000,4.000000,4.000000,4.000000,4.000000,4.000000,100.000000,,,,,,,,,,,,,,,,
1644854884.073267,198.000000,0.000000,4201.025879,4197.692383,4211.025879,4088.461426,4212.563965,4217.692383,4216.666504,4212.051270,4215.897461,4213.333496,4161.282227,4199.615234,4213.333496,4217.948730,3523.000000,4.000000,82.000000,,,,0.000000,4.000000,4.000000,4.000000,4.000000,4.000000,4.000000,4.000000,4.000000,4.000000,4.000000,4.000000,4.000000,4.000000,4.000000,100.000000,,,,,,,,,,,,,,,,
1644854884.077207,199.000000,0.000000,4200.000000,4197.563965,4210.641113,4095.384521,4215.512695,4219.358887,4216.153809,4211.025879,4214.615234,4211.666504,4156.025879,4198.461426,4212.948730,4217.436035,2529.000000,4.000000,82.000000,,,,0.000000,4.000000,4.000000,4.000000,4.000000,4.000000,4.000000,4.000000,4.000000,4.000000,4.000000,4.000000,4.000000,4.000000,4.000000,100.000000,,,,,,,,,,,,,,,,
1644854884.081247,200.000000,0.000000,4195.512695,4195.384766,4211.025879,4097.051270,4217.179688,4219.615234,4215.000000,4211.025879,4214.487305,4214.358887,4148.974121,4198.589844,4211.538574,4213.846191,3445.000000,4.000000,82.000000,,,,0.000000,4.000000,4.000000,4.000000,4.000000,4.000000,4.000000,4.000000,4.000000,4.000000,4.000000,4.000000,4.000000,4.000000,4.000000,100.000000,,,,,,,,,,,,,,,,
1644854884.085187,201.000000,0.000000,4189.487305,4190.256348,4212.436035,4093.846191,4217.179688,4218.589844,4214.743652,4211.666504,4216.282227,4220.384766,4143.717773,4200.256348,4209.358887,4210.384766,3488.000000,4.000000,82.000000,,,,0.000000,4.000000,4.000000,4.000000,4.000000,4.000000,4.000000,4.000000,4.000000,4.000000,4.000000,4.000000,4.000000,4.000000,4.000000,100.000000,,,,,,,,,,,,,,,,
1644854884.089127,202.000000,0.000000,4185.512695,4183.974121,4213.846191,4088.589844,4215.897461,4217.179688,4216.410156,4211.794922,4218.846191,4225.256348,4143.589844,4201.666504,4208.077148,4210.641113,3523.000000,4.000000,82.000000,3,1,2,0.000000,4.000000,4.000000,4.000000,4.000000,4.000000,4.000000,4.000000,4.000000,4.000000,4.000000,4.000000,4.000000,4.000000,4.000000,100.000000,,,,,,,,,,,,,,,,
1644854884.093067,203.000000,0.000000,4186.153809,4180.769043,4214.743652,4085.128174,4213.974121,4216.282227,4218.717773,4211.282227,4220.897461,4225.512695,4149.230957,4200.641113,4209.615234,4215.256348,2529.000000,4.000000,82.000000,,,,0.000000,4.000000,4.000000,4.000000,4.000000,4.000000,4.000000,4.000000,4.000000,4.000000,4.000000,4.000000,4.000000,4.000000,4.000000,100.000000,,,,,,,,,,,,,,,,
1644854884.097007,204.000000,0.000000,4191.153809,4183.589844,4214.358887,4084.615479,4212.051270,4216.025879,4219.358887,4210.769043,4220.897461,4220.641113,4157.179688,4196.410156,4213.717773,4221.282227,3445.000000,4.000000,82.000000,,,,0.000000,4.000000,4.000000,4.000000,4.000000,4.000000,4.000000,4.000000,4.000000,4.000000,4.000000,4.000000,4.000000,4.000000,4.000000,100.000000,,,,,,,,,,,,,,,,
1644854884.100947,205.000000,0.000000,4197.051270,4191.025879,4213.333496,4085.128174,4210.000000,4216.282227,4217.563965,4211.282227,4218.333496,4213.461426,4161.282227,4190.128418,4217.948730,4224.487305,3488.000000,4.000000,82.000000,,,,0.000000,4.000000,4.000000,4.000000,4.000000,4.000000,4.000000,4.000000,4.000000,4.000000,4.000000,4.000000,4.000000,4.000000,4.000000,100.000000,,,,,,,,,,,,,,,,
1644854884.104887,206.000000,0.000000,4200.384766,4198.333496,4212.563965,4084.615479,4208.333496,4216.666504,4215.256348,4212.820313,4214.487305,4206.666504,4158.333496,4184.871582,4219.871582,4223.077148,3523.000000,4.000000,82.000000,,,,0.000000,4.000000,4.000000,4.000000,4.000000,4.000000,4.000000,4.000000,4.000000,4.000000,4.000000,4.000000,4.000000,4.000000,4.000000,100.000000,,,,,,,,,,,,,,,,
1644854884.108827,207.000000,0.000000,4200.384766,4202.051270,4212.692383,4083.333252,4207.692383,4217.436035,4215.000000,4215.128418,4212.307617,4202.820313,4151.538574,4183.846191,4218.589844,4217.948730,2529.000000,4.000000,82.000000,,,,0.000000,4.000000,4.000000,4.000000,4.000000,4.000000,4.000000,4.000000,4.000000,4.000000,4.000000,4.000000,4.000000,4.000000,4.000000,100.000000,,,,,,,,,,,,,,,,
1644854884.112768,208.000000,0.000000,4199.615234,4202.820313,4214.230957,4083.974365,4208.846191,4219.102539,4217.051270,4217.692383,4214.487305,4203.589844,4149.871582,4188.077148,4215.128418,4212.436035,3445.000000,4.000000,82.000000,,,,0.000000,4.000000,4.000000,4.000000,4.000000,4.000000,4.000000,4.000000,4.000000,4.000000,4.000000,4.000000,4.000000,4.000000,4.000000,100.000000,,,,,,,,,,,,,,,,
1644854884.116708,209.000000,0.000000,4200.512695,4203.077148,4216.282227,4088.461426,4211.922852,4221.922852,4219.230957,4220.000000,4221.025879,4209.743652,4158.846191,4195.641113,4211.410156,4209.487305,3488.000000,4.000000,82.000000,,,,0.000000,4.000000,4.000000,4.000000,4.000000,4.000000,4.000000,4.000000,4.000000,4.000000,4.000000,4.000000,4.000000,4.000000,4.000000,100.000000,,,,,,,,,,,,,,,,
1644854884.120648,210.000000,0.000000,4203.589844,4204.102539,4218.205078,4095.384521,4216.025879,4224.743652,4219.487305,4221.282227,4228.846191,4219.230957,4174.358887,4202.820313,4208.846191,4211.153809,3523.000000,4.000000,82.000000,,,,0.000000,4.000000,4.000000,4.000000,4.000000,4.000000,4.000000,4.000000,4.000000,4.000000,4.000000,4.000000,4.000000,4.000000,4.000000,100.000000,,,,,,,,,,,,,,,,
1644854884.124588,211.000000,0.000000,4206.410156,4204.615234,4219.358887,4101.282227,4218.589844,4225.897461,4218.205078,4220.897461,4233.205078,4227.948730,4185.897461,4205.769043,4207.948730,4216.922852,2529.000000,4.000000,82.000000,,,,0.000000,4.000000,4.000000,4.000000,4.000000,4.000000,4.000000,4.000000,4.000000,4.000000,4.000000,4.000000,4.000000,4.000000,4.000000,100.000000,,,,,,,,,,,,,,,,
1644854884.128528,212.000000,0.000000,4206.025879,4202.436035,4219.487305,4103.205078,4218.589844,4225.384766,4217.051270,4218.846191,4231.025879,4231.666504,4185.384766,4203.333496,4208.717773,4223.717773,3445.000000,4.000000,82.000000,,,,0.000000,4.000000,4.000000,4.000000,4.000000,4.000000,4.000000,4.000000,4.000000,4.000000,4.000000,4.000000,4.000000,4.000000,4.000000,100.000000,,,,,,,,,,,,,,,,
1644854884.132468,213.000000,0.000000,4201.794922,4197.692383,4219.102539,4100.641113,4217.179688,4224.871582,4217.692383,4216.025879,4224.230957,4228.974121,4174.871582,4198.077148,4211.153809,4227.692383,3488.000000,4.000000,82.000000,,,,0.000000,4.000000,4.000000,4.000000,4.000000,4.000000,4.000000,4.000000,4.000000,4.000000,4.000000,4.000000,4.000000,4.000000,4.000000,100.000000,,,,,,,,,,,,,,,,
1644854884.136408,214.000000,0.000000,4195.512695,4192.948730,4218.205078,4094.487061,4217.051270,4226.025879,4219.487305,4214.102539,4217.436035,4221.922852,4162.948730,4194.358887,4215.384766,4226.538574,3523.000000,4.000000,82.000000,,,,0.000000,4.000000,4.000000,4.000000,4.000000,4.000000,4.000000,4.000000,4.000000,4.000000,4.000000,4.000000,4.000000,4.000000,4.000000,100.000000,,,,,,,,,,,,,,,,
1644854884.140348,215.000000,0.000000,4191.410156,4191.794922,4216.922852,4086.410156,4219.358887,4228.846191,4220.769043,4213.589844,4214.743652,4214.871582,4157.563965,4195.128418,4220.128418,4222.307617,2529.000000,4.000000,82.000000,,,,0.000000,4.000000,4.000000,4.000000,4.000000,4.000000,4.000000,4.000000,4.000000,4.000000,4.000000,4.000000,4.000000,4.000000,4.000000,100.000000,,,,,,,,,,,,,,,,
1644854884.144288,216.000000,0.000000,4192.307617,4194.487305,4215.384766,4079.102539,4222.179688,4230.897461,4220.897461,4214.102539,4216.666504,4210.769043,4159.487305,4198.974121,4223.717773,4218.846191,3445.000000,4.000000,82.000000,,,,0.000000,4.000000,4.000000,4.000000,4.000000,4.000000,4.000000,4.000000,4.000000,4.000000,4.000000,4.000000,4.000000,4.000000,4.000000,100.000000,,,,,,,,,,,,,,,,
1644854884.148228,217.000000,0.000000,4198.205078,4198.974121,4214.230957,4075.897461,4222.692383,4229.487305,4220.000000,4214.743652,4220.641113,4210.128418,4165.256348,4201.922852,4224.615234,4218.974121,3488.000000,4.000000,82.000000,,,,0.000000,4.000000,4.000000,4.000000,4.000000,4.000000,4.000000,4.000000,4.000000,4.000000,4.000000,4.000000,4.000000,4.000000,4.000000,100.000000,,,,,,,,,,,,,,,,
1644854884.152069,218.000000,0.000000,4206.153809,4202.179688,4214.230957,4078.589844,4220.000000,4224.871582,4218.333496,4215.769043,4224.102539,4212.179688,4171.025879,4201.410156,4223.077148,4221.794922,3523.000000,4.000000,82.000000,,,,0.000000,4.000000,4.000000,4.000000,4.000000,4.000000,4.000000,4.000000,4.000000,4.000000,4.000000,4.000000,4.000000,4.000000,4.000000,100.000000,,,,,,,,,,,,,,,,
1644854884.156009,219.000000,0.000000,4213.077148,4203.589844,4216.410156,4086.281982,4215.641113,4219.743652,4216.538574,4217.436035,4226.153809,4215.641113,4176.153809,4199.230957,4220.384766,4224.615234,2529.000000,4.000000,82.000000,,,,0.000000,4.000000,4.000000,4.000000,4.000000,4.000000,4.000000,4.000000,4.000000,4.000000,4.000000,4.000000,4.000000,4.000000,4.000000,100.000000,,,,,,,,,,,,,,,,
1644854884.159949,220.000000,0.000000,4217.051270,4204.230957,4220.641113,4094.743652,4212.307617,4218.077148,4215.641113,4220.128418,4227.692383,4219.358887,4181.538574,4199.487305,4218.717773,4226.025879,3445.000000,4.000000,82.000000,,,,0.000000,4.000000,4.000000,4.000000,4.000000,4.000000,4.000000,4.000000,4.000000,4.000000,4.000000,4.000000,4.000000,4.000000,4.000000,100.000000,,,,,,,,,,,,,,,,
1644854884.163889,221.000000,0.000000,4218.077148,4206.282227,4225.897461,4100.000000,4211.666504,4221.025879,4217.051270,4223.077148,4229.487305,4222.692383,4187.307617,4203.974121,4220.128418,4226.666504,3488.000000,4.000000,82.000000,,,,0.000000,4.000000,4.000000,4.000000,4.000000,4.000000,4.000000,4.000000,4.000000,4.000000,4.000000,4.000000,4.000000,4.000000,4.000000,100.000000,,,,,,,,,,,,,,,,
1644854884.167829,222.000000,0.000000,4217.948730,4209.743652,4231.282227,4100.384766,4214.615234,4227.051270,4220.512695,4225.000000,4231.410156,4225.897461,4191.153809,4210.512695,4225.256348,4227.948730,3523.000000,4.000000,82.000000,,,,0.000000,4.000000,4.000000,4.000000,4.000000,4.000000,4.000000,4.000000,4.000000,4.000000,4.000000,4.000000,4.000000,4.000000,4.000000,100.000000,,,,,,,,,,,,,,,,
1644854884.171769,223.000000,0.000000,4218.205078,4212.948730,4235.384766,4097.179688,4220.769043,4231.794922,4224.358887,4224.871582,4232.563965,4229.102539,4190.000000,4215.128418,4232.179688,4229.358887,2529.000000,4.000000,82.000000,,,,0.000000,4.000000,4.000000,4.000000,4.000000,4.000000,4.000000,4.000000,4.000000,4.000000,4.000000,4.000000,4.000000,4.000000,4.000000,100.000000,,,,,,,,,,,,,,,,
1644854884.175609,224.000000,0.000000,4218.846191,4213.846191,4237.179688,4092.820557,4228.077148,4232.563965,4225.512695,4222.563965,4232.051270,4230.769043,4183.077148,4215.128418,4237.820313,4229.487305,3445.000000,4.000000,82.000000,,,,0.000000,4.000000,4.000000,4.000000,4.000000,4.000000,4.000000,4.000000,4.000000,4.000000,4.000000,4.000000,4.000000,4.000000,4.000000,100.000000,,,,,,,,,,,,,,,,
1644854884.179550,225.000000,0.000000,4218.461426,4211.666504,4235.769043,4089.615479,4233.974121,4229.487305,4223.077148,4219.358887,4229.615234,4227.692383,4173.205078,4211.410156,4238.846191,4227.948730,3488.000000,4.000000,82.000000,,,,0.000000,4.000000,4.000000,4.000000,4.000000,4.000000,4.000000,4.000000,4.000000,4.000000,4.000000,4.000000,4.000000,4.000000,4.000000,100.000000,,,,,,,,,,,,,,,,
1644854884.183490,226.000000,0.000000,4215.256348,4207.436035,4231.666504,4089.358887,4235.897461,4224.615234,4219.102539,4216.538574,4225.897461,4218.461426,4165.641113,4205.897461,4234.230957,4226.282227,3523.000000,4.000000,82.000000,,,,0.000000,4.000000,4.000000,4.000000,4.000000,4.000000,4.000000,4.000000,4.000000,4.000000,4.000000,4.000000,4.000000,4.000000,4.000000,100.000000,,,,,,,,,,,,,,,,
1644854884.187430,227.000000,0.000000,4209.102539,4202.692383,4225.897461,4091.410156,4232.692383,4220.384766,4216.538574,4214.871582,4221.538574,4206.153809,4164.102539,4200.769043,4225.384766,4226.025879,2529.000000,4.000000,82.000000,,,,0.000000,4.000000,4.000000,4.000000,4.000000,4.000000,4.000000,4.000000,4.000000,4.000000,4.000000,4.000000,4.000000,4.000000,4.000000,100.000000,,,,,,,,,,,,,,,,
1644854884.191370,228.000000,0.000000,4201.922852,4198.846191,4219.743652,4092.692383,4225.512695,4217.820313,4216.282227,4214.743652,4217.307617,4196.794922,4168.717773,4196.922852,4216.153809,4226.538574,3445.000000,4.000000,82.000000,,,,0.000000,4.000000,4.000000,4.000000,4.000000,4.000000,4.000000,4.000000,4.000000,4.000000,4.000000,4.000000,4.000000,4.000000,4.000000,100.000000,,,,,,,,,,,,,,,,
1644854884.195210,229.000000,0.000000,4196.922852,4196.025879,4214.358887,4090.769287,4217.307617,4216.666504,4216.666504,4215.128418,4215.128418,4195.000000,4175.512695,4194.615234,4210.769043,4225.256348,3488.000000,4.000000,82.000000,,,,0.000000,4.000000,4.000000,4.000000,4.000000,4.000000,4.000000,4.000000,4.000000,4.000000,4.000000,4.000000,4.000000,4.000000,4.000000,100.000000,,,,,,,,,,,,,,,,
1644854884.199250,230.000000,0.000000,4196.282227,4194.358887,4211.153809,4086.538574,4211.794922,4217.051270,4215.897461,4215.384766,4216.282227,4200.512695,4180.512695,4193.974121,4210.897461,4220.384766,3523.000000,4.000000,82.000000,,,,0.000000,4.000000,4.000000,4.000000,4.000000,4.000000,4.000000,4.000000,4.000000,4.000000,4.000000,4.000000,4.000000,4.000000,4.000000,100.000000,,,,,,,,,,,,,,,,
1644854884.203190,231.000000,0.000000,4199.871582,4194.102539,4210.641113,4084.615479,4210.897461,4218.974121,4215.000000,4215.256348,4220.256348,4209.487305,4182.692383,4194.358887,4215.256348,4213.717773,2529.000000,4.000000,82.000000,,,,0.000000,4.000000,4.000000,4.000000,4.000000,4.000000,4.000000,4.000000,4.000000,4.000000,4.000000,4.000000,4.000000,4.000000,4.000000,100.000000,,,,,,,,,,,,,,,,
1644854884.207130,232.000000,0.000000,4205.384766,4195.512695,4212.179688,4088.974365,4213.589844,4222.307617,4215.769043,4215.897461,4224.743652,4217.051270,4183.333496,4194.871582,4220.384766,4209.871582,3445.000000,4.000000,82.000000,,,,0.000000,4.000000,4.000000,4.000000,4.000000,4.000000,4.000000,4.000000,4.000000,4.000000,4.000000,4.000000,4.000000,4.000000,4.000000,100.000000,,,,,,,,,,,,,,,,
1644854884.211070,233.000000,0.000000,4209.743652,4198.461426,4214.743652,4098.461426,4216.282227,4226.666504,4218.333496,4217.692383,4227.307617,4219.743652,4183.461426,4195.641113,4223.974121,4211.794922,3488.000000,4.000000,82.000000,,,,0.000000,4.000000,4.000000,4.000000,4.000000,4.000000,4.000000,4.000000,4.000000,4.000000,4.000000,4.000000,4.000000,4.000000,4.000000,100.000000,,,,,,,,,,,,,,,,
1644854884.215010,234.000000,0.000000,4211.666504,4202.051270,4216.538574,4107.436035,4216.153809,4230.384766,4220.769043,4219.743652,4226.666504,4217.436035,4182.948730,4197.307617,4225.641113,4218.077148,3523.000000,4.000000,82.000000,,,,0.000000,4.000000,4.000000,4.000000,4.000000,4.000000,4.000000,4.000000,4.000000,4.000000,4.000000,4.000000,4.000000,4.000000,4.000000,100.000000,,,,,,,,,,,,,,,,
1644854884.218951,235.000000,0.000000,4212.307617,4204.743652,4216.794922,4109.743652,4212.948730,4232.051270,4221.153809,4220.641113,4223.974121,4212.948730,4181.153809,4200.128418,4226.153809,4223.589844,2529.000000,4.000000,82.000000,,,,0.000000,4.000000,4.000000,4.000000,4.000000,4.000000,4.000000,4.000000,4.000000,4.000000,4.000000,4.000000,4.000000,4.000000,4.000000,100.000000,,,,,,,,,,,,,,,,
1644854884.222891,236.000000,0.000000,4212.948730,4205.256348,4216.025879,4103.974121,4209.102539,4231.410156,4219.871582,4220.769043,4222.307617,4210.641113,4178.589844,4202.948730,4226.282227,4224.102539,3445.000000,4.000000,82.000000,,,,0.000000,4.000000,4.000000,4.000000,4.000000,4.000000,4.000000,4.000000,4.000000,4.000000,4.000000,4.000000,4.000000,4.000000,4.000000,100.000000,,,,,,,,,,,,,,,,
1644854884.226831,237.000000,0.000000,4213.974121,4203.461426,4215.384766,4094.871826,4207.051270,4229.102539,4219.230957,4221.922852,4224.230957,4212.692383,4175.897461,4203.717773,4225.897461,4219.615234,3488.000000,4.000000,82.000000,,,,0.000000,4.000000,4.000000,4.000000,4.000000,4.000000,4.000000,4.000000,4.000000,4.000000,4.000000,4.000000,4.000000,4.000000,4.000000,100.000000,,,,,,,,,,,,,,,,
1644854884.230771,238.000000,0.000000,4214.487305,4201.025879,4216.025879,4089.230713,4208.461426,4226.666504,4220.128418,4225.000000,4229.358887,4218.205078,4173.077148,4201.794922,4225.384766,4213.461426,3523.000000,4.000000,82.000000,,,,0.000000,4.000000,4.000000,4.000000,4.000000,4.000000,4.000000,4.000000,4.000000,4.000000,4.000000,4.000000,4.000000,4.000000,4.000000,100.000000,,,,,,,,,,,,,,,,
1644854884.234711,239.000000,0.000000,4214.102539,4200.256348,4218.077148,4090.256348,4212.820313,4225.128418,4221.282227,4228.077148,4234.102539,4223.461426,4170.384766,4198.077148,4225.641113,4210.512695,2529.000000,4.000000,82.000000,,,,0.000000,4.000000,4.000000,4.000000,4.000000,4.000000,4.000000,4.000000,4.000000,4.000000,4.000000,4.000000,4.000000,4.000000,4.000000,100.000000,,,,,,,,,,,,,,,,
1644854884.238651,240.000000,0.000000,4213.974121,4202.179688,4220.256348,4096.025879,4218.333496,4224.871582,4220.897461,4228.077148,4235.512695,4224.743652,4169.615234,4194.230957,4227.692383,4213.589844,3445.000000,4.000000,82.000000,,,,0.000000,4.000000,4.000000,4.000000,4.000000,4.000000,4.000000,4.000000,4.000000,4.000000,4.000000,4.000000,4.000000,4.000000,4.000000,100.000000,,,,,,,,,,,,,,,,
1644854884.242591,241.000000,0.000000,4215.512695,4206.794922,4222.179688,4101.282227,4222.051270,4225.769043,4219.230957,4224.358887,4233.461426,4221.410156,4173.589844,4192.179688,4231.666504,4222.179688,3488.000000,4.000000,82.000000,,,,0.000000,4.000000,4.000000,4.000000,4.000000,4.000000,4.000000,4.000000,4.000000,4.000000,4.000000,4.000000,4.000000,4.000000,4.000000,100.000000,,,,,,,,,,,,,,,,
1644854884.246531,242.000000,0.000000,4219.102539,4212.436035,4224.487305,4102.436035,4222.436035,4227.179688,4218.461426,4219.487305,4231.282227,4217.179688,4182.563965,4193.974121,4236.153809,4232.563965,3523.000000,4.000000,82.000000,,,,0.000000,4.000000,4.000000,4.000000,4.000000,4.000000,4.000000,4.000000,4.000000,4.000000,4.000000,4.000000,4.000000,4.000000,4.000000,100.000000,,,,,,,,,,,,,,,,
1644854884.250471,243.000000,0.000000,4223.333496,4217.179688,4227.820313,4100.384766,4220.128418,4228.974121,4220.128418,4218.077148,4232.179688,4216.794922,4193.589844,4200.000000,4239.358887,4240.000000,2529.000000,4.000000,82.000000,,,,0.000000,4.000000,4.000000,4.000000,4.000000,4.000000,4.000000,4.000000,4.000000,4.000000,4.000000,4.000000,4.000000,4.000000,4.000000,100.000000,,,,,,,,,,,,,,,,
1644854884.254412,244.000000,0.000000,4227.307617,4219.743652,4231.794922,4098.717773,4217.820313,4230.897461,4223.205078,4221.538574,4236.666504,4222.948730,4201.794922,4208.333496,4240.384766,4241.410156,3445.000000,4.000000,82.000000,,,,0.000000,4.000000,4.000000,4.000000,4.000000,4.000000,4.000000,4.000000,4.000000,4.000000,4.000000,4.000000,4.000000,4.000000,4.000000,100.000000,,,,,,,,,,,,,,,,
1644854884.258252,245.000000,0.000000,4230.641113,4219.615234,4235.128418,4100.256348,4217.948730,4232.692383,4224.743652,4227.051270,4241.922852,4233.077148,4204.487305,4214.871582,4239.102539,4237.948730,3488.000000,4.000000,82.000000,,,,0.000000,4.000000,4.000000,4.000000,4.000000,4.000000,4.000000,4.000000,4.000000,4.000000,4.000000,4.000000,4.000000,4.000000,4.000000,100.000000,,,,,,,,,,,,,,,,
1644854884.262192,246.000000,0.000000,4233.077148,4217.436035,4236.153809,4104.743652,4220.897461,4233.589844,4223.461426,4230.384766,4243.846191,4240.384766,4201.538574,4216.538574,4235.897461,4233.846191,3523.000000,4.000000,82.000000,,,,0.000000,4.000000,4.000000,4.000000,4.000000,4.000000,4.000000,4.000000,4.000000,4.000000,4.000000,4.000000,4.000000,4.000000,4.000000,100.000000,,,,,,,,,,,,,,,,
1644854884.266132,247.000000,0.000000,4233.333496,4215.000000,4234.230957,4109.102539,4225.256348,4233.461426,4221.025879,4229.358887,4241.025879,4238.846191,4195.128418,4213.589844,4232.307617,4232.820313,2529.000000,4.000000,82.000000,,,,0.000000,4.000000,4.000000,4.000000,4.000000,4.000000,4.000000,4.000000,4.000000,4.000000,4.000000,4.000000,4.000000,4.000000,4.000000,100.000000,,,,,,,,,,,,,,,,
1644854884.270072,248.000000,0.000000,4231.282227,4214.102539,4231.025879,4111.025879,4228.717773,4232.436035,4219.358887,4225.256348,4235.769043,4228.077148,4188.077148,4208.846191,4230.000000,4234.743652,3445.000000,4.000000,82.000000,,,,0.000000,4.000000,4.000000,4.000000,4.000000,4.000000,4.000000,4.000000,4.000000,4.000000,4.000000,4.000000,4.000000,4.000000,4.000000,100.000000,,,,,,,,,,,,,,,,
1644854884.274012,249.000000,0.000000,4228.205078,4215.128418,4229.102539,4109.743652,4229.358887,4231.025879,4218.589844,4221.282227,4231.922852,4214.102539,4182.563965,4204.743652,4230.384766,4235.384766,3488.000000,4.000000,82.000000,,,,0.000000,4.000000,4.000000,4.000000,4.000000,4.000000,4.000000,4.000000,4.000000,4.000000,4.000000,4.000000,4.000000,4.000000,4.000000,100.000000,,,,,,,,,,,,,,,,
1644854884.277952,250.000000,0.000000,4226.666504,4217.563965,4229.615234,4106.922852,4227.307617,4229.615234,4218.077148,4219.615234,4231.666504,4205.897461,4178.974121,4202.436035,4232.692383,4231.282227,3523.000000,4.000000,82.000000,,,,0.000000,4.000000,4.000000,4.000000,4.000000,4.000000,4.000000,4.000000,4.000000,4.000000,4.000000,4.000000,4.000000,4.000000,4.000000,100.000000,,,,,,,,,,,,,,,,
1644854884.281892,251.000000,0.000000,4228.077148,4219.487305,4231.794922,4104.487305,4223.205078,4228.461426,4217.563965,4220.128418,4233.717773,4208.077148,4176.666504,4201.538574,4234.102539,4223.333496,2529.000000,4.000000,82.000000,,,,0.000000,4.000000,4.000000,4.000000,4.000000,4.000000,4.000000,4.000000,4.000000,4.000000,4.000000,4.000000,4.000000,4.000000,4.000000,100.000000,,,,,,,,,,,,,,,,
1644854884.285832,252.000000,0.000000,4230.256348,4219.487305,4233.205078,4103.974121,4218.333496,4227.692383,4217.948730,4222.179688,4235.128418,4217.436035,4175.769043,4202.051270,4231.666504,4215.769043,3445.000000,4.000000,82.000000,,,,0.000000,4.000000,4.000000,4.000000,4.000000,4.000000,4.000000,4.000000,4.000000,4.000000,4.000000,4.000000,4.000000,4.000000,4.000000,100.000000,,,,,,,,,,,,,,,,
1644854884.289773,253.000000,0.000000,4229.743652,4217.563965,4232.692383,4105.769043,4214.743652,4228.077148,4219.743652,4224.102539,4234.615234,4226.153809,4177.563965,4203.974121,4225.000000,4212.820313,3488.000000,4.000000,82.000000,,,,0.000000,4.000000,4.000000,4.000000,4.000000,4.000000,4.000000,4.000000,4.000000,4.000000,4.000000,4.000000,4.000000,4.000000,4.000000,100.000000,,,,,,,,,,,,,,,,
1644854884.293613,254.000000,0.000000,4224.871582,4214.487305,4230.897461,4109.230957,4214.102539,4230.256348,4222.436035,4225.000000,4233.077148,4228.461426,4182.307617,4206.282227,4217.563965,4215.000000,3523.000000,4.000000,82.000000,,,,0.000000,4.000000,4.000000,4.000000,4.000000,4.000000,4.000000,4.000000,4.000000,4.000000,4.000000,4.000000,4.000000,4.000000,4.000000,100.000000,,,,,,,,,,,,,,,,
1644854884.297553,255.000000,0.000000,4217.563965,4211.922852,4228.461426,4112.820313,4216.922852,4233.333496,4224.102539,4224.743652,4232.179688,4224.102539,4187.563965,4206.410156,4213.333496,4219.615234,112.000000,4.000000,82.000000,,,,0.000000,4.000000,4.000000,4.000000,4.000000,4.000000,4.000000,4.000000,4.000000,4.000000,4.000000,4.000000,4.000000,4.000000,4.000000,100.000000,,,,,,,,,,,,,,,,
1644854884.301493,0.000000,0.000000,4211.666504,4210.384766,4226.538574,4115.641113,4222.051270,4234.743652,4224.102539,4223.846191,4232.436035,4217.051270,4189.871582,4203.077148,4213.846191,4223.589844,3427.000000,4.000000,82.000000,,,,0.000000,4.000000,4.000000,4.000000,4.000000,4.000000,4.000000,4.000000,4.000000,4.000000,4.000000,4.000000,4.000000,4.000000,4.000000,100.000000,,,,,,,,,,,,,,,,
1644854884.305433,1.000000,0.000000,4209.743652,4210.128418,4225.128418,4116.410156,4227.179688,4232.820313,4222.948730,4222.563965,4232.692383,4211.922852,4186.922852,4197.948730,4217.179688,4225.128418,3335.000000,4.000000,82.000000,,,,0.000000,4.000000,4.000000,4.000000,4.000000,4.000000,4.000000,4.000000,4.000000,4.000000,4.000000,4.000000,4.000000,4.000000,4.000000,100.000000,,,,,,,,,,,,,,,,
1644854884.309373,2.000000,0.000000,4211.794922,4211.410156,4224.615234,4114.615234,4231.025879,4228.205078,4221.538574,4221.282227,4231.282227,4210.641113,4180.897461,4194.487305,4221.282227,4225.128418,3538.000000,4.000000,82.000000,,,,0.000000,4.000000,4.000000,4.000000,4.000000,4.000000,4.000000,4.000000,4.000000,4.000000,4.000000,4.000000,4.000000,4.000000,4.000000,100.000000,,,,,,,,,,,,,,,,
1644854884.313313,3.000000,0.000000,4215.769043,4213.717773,4224.358887,4110.256348,4232.563965,4223.333496,4220.128418,4220.128418,4228.461426,4213.077148,4176.666504,4195.384766,4225.000000,4225.256348,3379.000000,4.000000,82.000000,,,,0.000000,4.000000,4.000000,4.000000,4.000000,4.000000,4.000000,4.000000,4.000000,4.000000,4.000000,4.000000,4.000000,4.000000,4.000000,100.000000,,,,,,,,,,,,,,,,
1644854884.317253,4.000000,0.000000,4219.487305,4216.153809,4223.974121,4105.384766,4231.282227,4220.128418,4218.461426,4220.000000,4226.153809,4217.179688,4178.205078,4200.000000,4228.846191,4226.666504,3538.000000,4.000000,82.000000,,,,0.000000,4.000000,4.000000,4.000000,4.000000,4.000000,4.000000,4.000000,4.000000,4.000000,4.000000,4.000000,4.000000,4.000000,4.000000,100.000000,,,,,,,,,,,,,,,,
1644854884.321194,5.000000,0.000000,4222.307617,4217.436035,4223.077148,4103.077148,4227.179688,4219.230957,4216.410156,4221.025879,4226.282227,4220.256348,4184.358887,4205.128418,4231.794922,4229.358887,3377.000000,4.000000,82.000000,,,,0.000000,4.000000,4.000000,4.000000,4.000000,4.000000,4.000000,4.000000,4.000000,4.000000,4.000000,4.000000,4.000000,4.000000,4.000000,100.000000,,,,,,,,,,,,,,,,
1644854884.325134,6.000000,0.000000,4224.358887,4217.179688,4221.794922,4104.743652,4221.410156,4219.102539,4215.256348,4222.563965,4228.461426,4220.000000,4189.871582,4207.051270,4232.179688,4231.794922,2653.000000,4.000000,82.000000,,,,0.000000,4.000000,4.000000,4.000000,4.000000,4.000000,4.000000,4.000000,4.000000,4.000000,4.000000,4.000000,4.000000,4.000000,4.000000,100.000000,,,,,,,,,,,,,,,,
1644854884.329074,7.000000,0.000000,4225.512695,4215.641113,4220.512695,4109.358887,4216.794922,4218.461426,4215.769043,4223.205078,4230.512695,4216.538574,4190.128418,4204.743652,4228.846191,4232.179688,2914.000000,4.000000,82.000000,,,,0.000000,4.000000,4.000000,4.000000,4.000000,4.000000,4.000000,4.000000,4.000000,4.000000,4.000000,4.000000,4.000000,4.000000,4.000000,100.000000,,,,,,,,,,,,,,,,
1644854884.333014,8.000000,0.000000,4225.512695,4214.358887,4218.974121,4113.846191,4215.128418,4217.179688,4217.179688,4221.666504,4230.512695,4211.666504,4185.641113,4200.000000,4222.948730,4228.974121,3314.000000,4.000000,82.000000,,,,0.000000,4.000000,4.000000,4.000000,4.000000,4.000000,4.000000,4.000000,4.000000,4.000000,4.000000,4.000000,4.000000,4.000000,4.000000,100.000000,,,,,,,,,,,,,,,,
1644854884.336954,9.000000,0.000000,4223.717773,4214.102539,4217.436035,4115.769043,4215.897461,4216.666504,4217.563965,4218.589844,4228.077148,4207.948730,4181.922852,4196.538574,4217.948730,4222.820313,3546.000000,4.000000,82.000000,,,,0.000000,4.000000,4.000000,4.000000,4.000000,4.000000,4.000000,4.000000,4.000000,4.000000,4.000000,4.000000,4.000000,4.000000,4.000000,100.000000,,,,,,,,,,,,,,,,
1644854884.340894,10.000000,0.000000,4219.743652,4215.128418,4216.538574,4114.230957,4217.436035,4218.717773,4216.538574,4216.538574,4224.871582,4207.051270,4183.589844,4197.051270,4216.538574,4216.666504,3532.000000,4.000000,82.000000,,,,0.000000,4.000000,4.000000,4.000000,4.000000,4.000000,4.000000,4.000000,4.000000,4.000000,4.000000,4.000000,4.000000,4.000000,4.000000,100.000000,,,,,,,,,,,,,,,,
1644854884.344734,11.000000,0.000000,4215.384766,4215.897461,4216.666504,4110.641113,4218.333496,4223.461426,4216.153809,4218.461426,4223.333496,4208.717773,4190.256348,4200.897461,4218.974121,4213.589844,2256.000000,4.000000,82.000000,,,,0.000000,4.000000,4.000000,4.000000,4.000000,4.000000,4.000000,4.000000,4.000000,4.000000,4.000000,4.000000,4.000000,4.000000,4.000000,100.000000,,,,,,,,,,,,,,,,
1644854884.348674,12.000000,0.000000,4213.461426,4215.128418,4217.563965,4106.282227,4218.205078,4228.974121,4218.077148,4223.974121,4225.000000,4212.179688,4197.307617,4204.615234,4222.948730,4214.230957,3467.000000,4.000000,82.000000,,,,0.000000,4.000000,4.000000,4.000000,4.000000,4.000000,4.000000,4.000000,4.000000,4.000000,4.000000,4.000000,4.000000,4.000000,4.000000,100.000000,,,,,,,,,,,,,,,,
1644854884.352614,13.000000,0.000000,4216.153809,4212.563965,4218.333496,4102.692383,4217.179688,4232.436035,4221.538574,4230.128418,4229.102539,4216.410156,4199.487305,4205.512695,4226.025879,4217.307617,3323.000000,4.000000,82.000000,,,,0.000000,4.000000,4.000000,4.000000,4.000000,4.000000,4.000000,4.000000,4.000000,4.000000,4.000000,4.000000,4.000000,4.000000,4.000000,100.000000,,,,,,,,,,,,,,,,
1644854884.356555,14.000000,0.000000,4222.051270,4208.974121,4218.205078,4101.538574,4215.769043,4232.307617,4224.102539,4232.692383,4233.077148,4220.000000,4196.025879,4203.461426,4227.051270,4220.769043,3532.000000,4.000000,82.000000,,,,0.000000,4.000000,4.000000,4.000000,4.000000,4.000000,4.000000,4.000000,4.000000,4.000000,4.000000,4.000000,4.000000,4.000000,4.000000,100.000000,,,,,,,,,,,,,,,,
1644854884.360495,15.000000,0.000000,4226.666504,4205.897461,4217.179688,4104.615234,4214.230957,4229.615234,4224.230957,4230.384766,4235.000000,4221.538574,4190.384766,4200.897461,4226.922852,4223.589844,2256.000000,4.000000,82.000000,,,,0.000000,4.000000,4.000000,4.000000,4.000000,4.000000,4.000000,4.000000,4.000000,4.000000,4.000000,4.000000,4.000000,4.000000,4.000000,100.000000,,,,,,,,,,,,,,,,
1644854884.364435,16.000000,0.000000,4225.641113,4203.589844,4216.025879,4110.769043,4212.820313,4226.538574,4222.820313,4225.512695,4233.974121,4219.615234,4186.794922,4200.256348,4226.922852,4225.769043,3467.000000,4.000000,82.000000,,,,0.000000,4.000000,4.000000,4.000000,4.000000,4.000000,4.000000,4.000000,4.000000,4.000000,4.000000,4.000000,4.000000,4.000000,4.000000,100.000000,,,,,,,,,,,,,,,,
1644854884.368375,17.000000,0.000000,4218.589844,4201.538574,4215.769043,4115.384766,4211.025879,4225.000000,4221.025879,4221.153809,4230.897461,4213.846191,4186.538574,4201.410156,4227.307617,4227.563965,3323.000000,4.000000,82.000000,,,,0.000000,4.000000,4.000000,4.000000,4.000000,4.000000,4.000000,4.000000,4.000000,4.000000,4.000000,4.000000,4.000000,4.000000,4.000000,100.000000,,,,,,,,,,,,,,,,
1644854884.372315,18.000000,0.000000,4209.230957,4199.358887,4215.897461,4113.333496,4209.487305,4225.512695,4219.743652,4219.102539,4227.948730,4207.051270,4188.333496,4202.051270,4227.563965,4228.717773,3532.000000,4.000000,82.000000,,,,0.000000,4.000000,4.000000,4.000000,4.000000,4.000000,4.000000,4.000000,4.000000,4.000000,4.000000,4.000000,4.000000,4.000000,4.000000,100.000000,,,,,,,,,,,,,,,,
1644854884.376255,19.000000,0.000000,4203.077148,4197.563965,4215.641113,4104.102539,4210.128418,4227.051270,4218.846191,4220.000000,4227.179688,4203.589844,4190.769043,4201.025879,4228.589844,4228.846191,2256.000000,4.000000,82.000000,,,,0.000000,4.000000,4.000000,4.000000,4.000000,4.000000,4.000000,4.000000,4.000000,4.000000,4.000000,4.000000,4.000000,4.000000,4.000000,100.000000,,,,,,,,,,,,,,,,
1644854884.380195,20.000000,0.000000,4202.948730,4197.051270,4214.871582,4093.589844,4214.615234,4228.717773,4219.230957,4223.205078,4229.102539,4207.179688,4194.871582,4199.615234,4231.538574,4228.461426,3467.000000,4.000000,82.000000,,,,0.000000,4.000000,4.000000,4.000000,4.000000,4.000000,4.000000,4.000000,4.000000,4.000000,4.000000,4.000000,4.000000,4.000000,4.000000,100.000000,,,,,,,,,,,,,,,,
1644854884.384135,21.000000,0.000000,4207.563965,4198.589844,4214.615234,4089.743652,4222.051270,4230.384766,4221.538574,4227.436035,4232.436035,4216.153809,4200.897461,4199.871582,4236.538574,4228.461426,3323.000000,4.000000,82.000000,,,,0.000000,4.000000,4.000000,4.000000,4.000000,4.000000,4.000000,4.000000,4.000000,4.000000,4.000000,4.000000,4.000000,4.000000,4.000000,100.000000,,,,,,,,,,,,,,,,
1644854884.388075,22.000000,0.000000,4212.307617,4200.512695,4215.512695,4095.769287,4228.717773,4231.666504,4225.512695,4231.153809,4234.487305,4224.615234,4207.179688,4202.820313,4241.282227,4229.230957,3532.000000,4.000000,82.000000,,,,0.000000,4.000000,4.000000,4.000000,4.000000,4.000000,4.000000,4.000000,4.000000,4.000000,4.000000,4.000000,4.000000,4.000000,4.000000,100.000000,,,,,,,,,,,,,,,,
1644854884.392016,23.000000,0.000000,4214.102539,4200.769043,4217.051270,4107.692383,4230.897461,4232.563965,4228.846191,4232.692383,4234.230957,4226.666504,4210.128418,4207.436035,4243.333496,4228.974121,2256.000000,4.000000,82.000000,,,,0.000000,4.000000,4.000000,4.000000,4.000000,4.000000,4.000000,4.000000,4.000000,4.000000,4.000000,4.000000,4.000000,4.000000,4.000000,100.000000,,,,,,,,,,,,,,,,
1644854884.395856,24.000000,0.000000,4213.077148,4199.615234,4217.692383,4117.307617,4227.179688,4232.307617,4229.230957,4231.794922,4233.077148,4222.307617,4208.589844,4211.794922,4241.922852,4226.538574,3467.000000,4.000000,82.000000,,,,0.000000,4.000000,4.000000,4.000000,4.000000,4.000000,4.000000,4.000000,4.000000,4.000000,4.000000,4.000000,4.000000,4.000000,4.000000,100.000000,,,,,,,,,,,,,,,,
1644854884.399796,25.000000,0.000000,4211.794922,4199.230957,4216.282227,4118.589844,4220.256348,4231.025879,4226.538574,4230.000000,4233.589844,4216.538574,4204.615234,4214.743652,4238.589844,4222.948730,3323.000000,4.000000,82.000000,,,,0.000000,4.000000,4.000000,4.000000,4.000000,4.000000,4.000000,4.000000,4.000000,4.000000,4.000000,4.000000,4.000000,4.000000,4.000000,100.000000,,,,,,,,,,,,,,,,
1644854884.403736,26.000000,0.000000,4213.589844,4201.538574,4214.487305,4112.436035,4214.358887,4229.230957,4223.846191,4229.358887,4236.538574,4215.769043,4201.794922,4216.025879,4236.153809,4221.922852,3532.000000,4.000000,82.000000,,,,0.000000,4.000000,4.000000,4.000000,4.000000,4.000000,4.000000,4.000000,4.000000,4.000000,4.000000,4.000000,4.000000,4.000000,4.000000,100.000000,,,,,,,,,,,,,,,,
1644854884.407676,27.000000,0.000000,4218.717773,4205.769043,4214.871582,4105.256348,4212.563965,4228.077148,4223.461426,4230.897461,4240.769043,4222.307617,4203.589844,4215.641113,4237.563965,4225.384766,2256.000000,4.000000,82.000000,,,,0.000000,4.000000,4.000000,4.000000,4.000000,4.000000,4.000000,4.000000,4.000000,4.000000,4.000000,4.000000,4.000000,4.000000,4.000000,100.000000,,,,,,,,,,,,,,,,
1644854884.411616,28.000000,0.000000,4224.743652,4210.000000,4219.230957,4104.487305,4214.487305,4228.077148,4225.000000,4233.846191,4244.230957,4232.692383,4209.743652,4214.102539,4243.333496,4232.307617,3467.000000,4.000000,82.000000,,,,0.000000,4.000000,4.000000,4.000000,4.000000,4.000000,4.000000,4.000000,4.000000,4.000000,4.000000,4.000000,4.000000,4.000000,4.000000,100.000000,,,,,,,,,,,,,,,,
1644854884.415556,29.000000,0.000000,4228.077148,4212.692383,4225.641113,4111.538574,4217.820313,4229.358887,4225.641113,4236.538574,4246.410156,4240.256348,4216.922852,4212.563965,4251.282227,4239.615234,3323.000000,4.000000,82.000000,,,,0.000000,4.000000,4.000000,4.000000,4.000000,4.000000,4.000000,4.000000,4.000000,4.000000,4.000000,4.000000,4.000000,4.000000,4.000000,100.000000,,,,,,,,,,,,,,,,
1644854884.419496,30.000000,0.000000,4226.538574,4213.205078,4230.256348,4121.538574,4219.871582,4231.538574,4224.230957,4237.948730,4247.436035,4240.512695,4219.871582,4211.666504,4256.538574,4244.871582,3532.000000,4.000000,82.000000,,,,0.000000,4.000000,4.000000,4.000000,4.000000,4.000000,4.000000,4.000000,4.000000,4.000000,4.000000,4.000000,4.000000,4.000000,4.000000,100.000000,,,,,,,,,,,,,,,,
1644854884.423436,31.000000,0.000000,4220.769043,4211.922852,4230.769043,4127.179688,4219.743652,4233.333496,4221.794922,4237.307617,4247.436035,4234.358887,4215.512695,4210.769043,4255.256348,4247.692383,2256.000000,4.000000,82.000000,,,,0.000000,4.000000,4.000000,4.000000,4.000000,4.000000,4.000000,4.000000,4.000000,4.000000,4.000000,4.000000,4.000000,4.000000,4.000000,100.000000,,,,,,,,,,,,,,,,
1644854884.427377,32.000000,0.000000,4214.871582,4209.358887,4227.692383,4124.871582,4217.948730,4233.589844,4220.641113,4235.000000,4245.641113,4227.436035,4206.282227,4209.487305,4247.948730,4247.563965,0.000000,4.000000,82.000000,,,,0.000000,4.000000,4.000000,4.000000,4.000000,4.000000,4.000000,4.000000,4.000000,4.000000,4.000000,4.000000,4.000000,4.000000,4.000000,100.000000,,,,,,,,,,,,,,,,
1644854884.431317,33.000000,0.000000,4213.205078,4206.538574,4223.974121,4117.436035,4216.410156,4231.666504,4221.410156,4231.666504,4241.538574,4224.871582,4198.333496,4207.692383,4239.358887,4243.846191,0.000000,4.000000,82.000000,,,,0.000000,4.000000,4.000000,4.000000,4.000000,4.000000,4.000000,4.000000,4.000000,4.000000,4.000000,4.000000,4.000000,4.000000,4.000000,100.000000,,,,,,,,,,,,,,,,
1644854884.435257,34.000000,0.000000,4216.794922,4205.000000,4222.179688,4111.922852,4216.410156,4228.205078,4222.692383,4228.974121,4237.307617,4227.307617,4196.410156,4206.666504,4234.743652,4236.025879,0.000000,4.000000,82.000000,,,,0.000000,4.000000,4.000000,4.000000,4.000000,4.000000,4.000000,4.000000,4.000000,4.000000,4.000000,4.000000,4.000000,4.000000,4.000000,100.000000,,,,,,,,,,,,,,,,
1644854884.439197,35.000000,0.000000,4222.692383,4205.641113,4222.436035,4113.077148,4217.436035,4225.384766,4222.820313,4228.461426,4235.384766,4230.384766,4199.615234,4207.051270,4235.897461,4226.282227,0.000000,4.000000,82.000000,,,,0.000000,4.000000,4.000000,4.000000,4.000000,4.000000,4.000000,4.000000,4.000000,4.000000,4.000000,4.000000,4.000000,4.000000,4.000000,100.000000,,,,,,,,,,,,,,,,
1644854884.443137,36.000000,0.000000,4226.922852,4208.333496,4223.205078,4120.000000,4218.205078,4224.743652,4222.051270,4230.128418,4236.666504,4229.358887,4202.948730,4208.461426,4240.128418,4218.717773,0.000000,4.000000,82.000000,,,,0.000000,4.000000,4.000000,4.000000,4.000000,4.000000,4.000000,4.000000,4.000000,4.000000,4.000000,4.000000,4.000000,4.000000,4.000000,100.000000,,,,,,,,,,,,,,,,
1644854884.447077,37.000000,0.000000,4227.692383,4211.922852,4222.948730,4127.307617,4217.948730,4226.153809,4221.666504,4232.307617,4239.358887,4223.589844,4202.692383,4209.615234,4242.820313,4217.307617,0.000000,4.000000,82.000000,,,,0.000000,4.000000,4.000000,4.000000,4.000000,4.000000,4.000000,4.000000,4.000000,4.000000,4.000000,4.000000,4.000000,4.000000,4.000000,100.000000,,,,,,,,,,,,,,,,
1644854884.451017,38.000000,0.000000,4225.897461,4214.615234,4221.410156,4130.256348,4217.436035,4228.461426,4222.051270,4232.563965,4240.000000,4216.794922,4199.487305,4209.102539,4241.025879,4221.666504,0.000000,4.000000,82.000000,,,,0.000000,4.000000,4.000000,4.000000,4.000000,4.000000,4.000000,4.000000,4.000000,4.000000,4.000000,4.000000,4.000000,4.000000,4.000000,100.000000,,,,,,,,,,,,,,,,
1644854884.454957,39.000000,0.000000,4223.333496,4214.871582,4218.974121,4128.205078,4217.692383,4229.871582,4222.307617,4229.871582,4236.410156,4212.948730,4197.051270,4206.153809,4236.025879,4227.563965,0.000000,4.000000,82.000000,,,,0.000000,4.000000,4.000000,4.000000,4.000000,4.000000,4.000000,4.000000,4.000000,4.000000,4.000000,4.000000,4.000000,4.000000,4.000000,100.000000,,,,,,,,,,,,,,,,
1644854884.458897,40.000000,0.000000,4220.128418,4211.922852,4216.282227,4123.717773,4218.589844,4229.743652,4221.538574,4225.000000,4229.743652,4212.563965,4197.948730,4201.922852,4231.538574,4230.000000,0.000000,4.000000,82.000000,,,,0.000000,4.000000,4.000000,4.000000,4.000000,4.000000,4.000000,4.000000,4.000000,4.000000,4.000000,4.000000,4.000000,4.000000,4.000000,100.000000,,,,,,,,,,,,,,,,
1644854884.462738,41.000000,0.000000,4215.897461,4206.410156,4214.230957,4119.230957,4218.717773,4228.461426,4220.256348,4220.000000,4223.205078,4213.589844,4201.538574,4198.589844,4230.512695,4227.563965,0.000000,4.000000,82.000000,,,,0.000000,4.000000,4.000000,4.000000,4.000000,4.000000,4.000000,4.000000,4.000000,4.000000,4.000000,4.000000,4.000000,4.000000,4.000000,100.000000,,,,,,,,,,,,,,,,
1644854884.466678,42.000000,0.000000,4210.256348,4200.769043,4213.077148,4116.666504,4216.922852,4227.179688,4220.128418,4217.307617,4220.769043,4214.230957,4204.230957,4197.692383,4233.077148,4221.922852,0.000000,4.000000,82.000000,,,,0.000000,4.000000,4.000000,4.000000,4.000000,4.000000,4.000000,4.000000,4.000000,4.000000,4.000000,4.000000,4.000000,4.000000,4.000000,100.000000,,,,,,,,,,,,,,,,
1644854884.470618,43.000000,0.000000,4204.871582,4197.692383,4212.692383,4117.307617,4213.974121,4227.436035,4221.410156,4217.820313,4223.333496,4214.615234,4202.948730,4199.102539,4236.666504,4216.153809,0.000000,4.000000,82.000000,,,,0.000000,4.000000,4.000000,4.000000,4.000000,4.000000,4.000000,4.000000,4.000000,4.000000,4.000000,4.000000,4.000000,4.000000,4.000000,100.000000,,,,,,,,,,,,,,,,
1644854884.474558,44.000000,0.000000,4201.538574,4198.205078,4211.794922,4120.897461,4211.410156,4229.102539,4222.563965,4220.128418,4228.461426,4215.384766,4196.410156,4200.769043,4237.820313,4212.563965,0.000000,4.000000,82.000000,,,,0.000000,4.000000,4.000000,4.000000,4.000000,4.000000,4.000000,4.000000,4.000000,4.000000,4.000000,4.000000,4.000000,4.000000,4.000000,100.000000,,,,,,,,,,,,,,,,
1644854884.478598,45.000000,0.000000,4201.153809,4201.025879,4209.743652,4125.641113,4210.384766,4230.769043,4221.794922,4221.153809,4231.922852,4215.641113,4186.025879,4199.871582,4234.102539,4212.179688,0.000000,4.000000,82.000000,,,,0.000000,4.000000,4.000000,4.000000,4.000000,4.000000,4.000000,4.000000,4.000000,4.000000,4.000000,4.000000,4.000000,4.000000,4.000000,100.000000,,,,,,,,,,,,,,,,
1644854884.482538,46.000000,0.000000,4202.948730,4202.820313,4207.051270,4127.563965,4210.384766,4230.897461,4219.358887,4218.717773,4230.000000,4213.077148,4175.000000,4195.000000,4226.922852,4214.871582,0.000000,4.000000,82.000000,,,,0.000000,4.000000,4.000000,4.000000,4.000000,4.000000,4.000000,4.000000,4.000000,4.000000,4.000000,4.000000,4.000000,4.000000,4.000000,100.000000,,,,,,,,,,,,,,,,
1644854884.486478,47.000000,0.000000,4205.128418,4201.794922,4204.743652,4124.487305,4210.256348,4228.846191,4217.179688,4213.461426,4222.563965,4207.436035,4167.307617,4187.948730,4220.256348,4218.589844,0.000000,4.000000,82.000000,,,,0.000000,4.000000,4.000000,4.000000,4.000000,4.000000,4.000000,4.000000,4.000000,4.000000,4.000000,4.000000,4.000000,4.000000,4.000000,100.000000,,,,,,,,,,,,,,,,
1644854884.490418,48.000000,0.000000,4206.025879,4199.102539,4204.102539,4116.922852,4208.974121,4226.282227,4216.666504,4208.589844,4213.717773,4201.666504,4166.410156,4182.179688,4218.461426,4220.256348,0.000000,4.000000,82.000000,,,,0.000000,4.000000,4.000000,4.000000,4.000000,4.000000,4.000000,4.000000,4.000000,4.000000,4.000000,4.000000,4.000000,4.000000,4.000000,100.000000,,,,,,,,,,,,,,,,
1644854884.494358,49.000000,0.000000,4204.615234,4197.563965,4205.000000,4108.461426,4207.948730,4225.256348,4216.922852,4206.794922,4208.846191,4200.384766,4173.333496,4181.153809,4222.436035,4218.589844,0.000000,4.000000,82.000000,,,,0.000000,4.000000,4.000000,4.000000,4.000000,4.000000,4.000000,4.000000,4.000000,4.000000,4.000000,4.000000,4.000000,4.000000,4.000000,100.000000,,,,,,,,,,,,,,,,
1644854884.498298,50.000000,0.000000,4201.794922,4199.102539,4207.179688,4103.974121,4209.487305,4226.794922,4216.538574,4208.974121,4211.025879,4206.025879,4185.769043,4185.641113,4229.102539,4215.256348,0.000000,4.000000,82.000000,,,,0.000000,4.000000,4.000000,4.000000,4.000000,4.000000,4.000000,4.000000,4.000000,4.000000,4.000000,4.000000,4.000000,4.000000,4.000000,100.000000,,,,,,,,,,,,,,,,
1644854884.502239,51.000000,0.000000,4199.487305,4203.077148,4210.897461,4106.410156,4215.000000,4229.487305,4216.025879,4213.205078,4218.077148,4216.666504,4198.846191,4193.461426,4233.974121,4213.974121,0.000000,4.000000,82.000000,,,,0.000000,4.000000,4.000000,4.000000,4.000000,4.000000,4.000000,4.000000,4.000000,4.000000,4.000000,4.000000,4.000000,4.000000,4.000000,100.000000,,,,,,,,,,,,,,,,
1644854884.506179,52.000000,0.000000,4200.000000,4207.307617,4215.769043,4114.743652,4222.948730,4231.666504,4216.922852,4217.051270,4225.128418,4226.282227,4207.820313,4201.794922,4234.743652,4216.538574,0.000000,4.000000,82.000000,,,,0.000000,4.000000,4.000000,4.000000,4.000000,4.000000,4.000000,4.000000,4.000000,4.000000,4.000000,4.000000,4.000000,4.000000,4.000000,100.000000,,,,,,,,,,,,,,,,
1644854884.510119,53.000000,0.000000,4204.358887,4210.641113,4220.641113,4124.615234,4230.000000,4232.436035,4220.000000,4219.358887,4228.461426,4230.384766,4209.743652,4208.333496,4232.563965,4221.794922,0.000000,4.000000,82.000000,,,,0.000000,4.000000,4.000000,4.000000,4.000000,4.000000,4.000000,4.000000,4.000000,4.000000,4.000000,4.000000,4.000000,4.000000,4.000000,100.000000,,,,,,,,,,,,,,,,
1644854884.514059,54.000000,0.000000,4211.666504,4212.307617,4224.102539,4131.153809,4233.846191,4232.948730,4223.461426,4220.256348,4227.563965,4228.589844,4205.769043,4212.051270,4230.897461,4226.025879,0.000000,4.000000,82.000000,,,,0.000000,4.000000,4.000000,4.000000,4.000000,4.000000,4.000000,4.000000,4.000000,4.000000,4.000000,4.000000,4.000000,4.000000,4.000000,100.000000,,,,,,,,,,,,,,,,
1644854884.517999,55.000000,0.000000,4219.102539,4212.563965,4225.256348,4132.563965,4234.102539,4233.589844,4225.000000,4220.000000,4224.487305,4224.102539,4200.128418,4212.948730,4232.436035,4227.436035,0.000000,4.000000,82.000000,,,,0.000000,4.000000,4.000000,4.000000,4.000000,4.000000,4.000000,4.000000,4.000000,4.000000,4.000000,4.000000,4.000000,4.000000,4.000000,100.000000,,,,,,,,,,,,,,,,
1644854884.521939,56.000000,0.000000,4223.717773,4211.538574,4224.615234,4130.512695,4231.153809,4234.230957,4224.102539,4218.974121,4221.666504,4220.128418,4197.692383,4211.666504,4237.820313,4227.307617,0.000000,4.000000,82.000000,,,,0.000000,4.000000,4.000000,4.000000,4.000000,4.000000,4.000000,4.000000,4.000000,4.000000,4.000000,4.000000,4.000000,4.000000,4.000000,100.000000,1.000000,50.000000,4.000000,4.000000,4.000000,4.000000,4.000000,4.000000,1.000000,4.000000,4.000000,4.000000,1.000000,4.000000,4.000000,4.000000
1644854884.525879,57.000000,0.000000,4224.358887,4209.743652,4223.974121,4128.846191,4225.128418,4233.846191,4222.051270,4217.948730,4220.769043,4216.794922,4200.128418,4210.000000,4244.743652,4228.205078,0.000000,4.000000,82.000000,,,,0.000000,4.000000,4.000000,4.000000,4.000000,4.000000,4.000000,4.000000,4.000000,4.000000,4.000000,4.000000,4.000000,4.000000,4.000000,100.000000,,,,,,,,,,,,,,,,
1644854884.529819,58.000000,0.000000,4221.922852,4207.820313,4224.487305,4129.487305,4217.051270,4232.563965,4220.512695,4217.563965,4222.436035,4212.692383,4204.871582,4209.230957,4249.743652,4229.615234,0.000000,4.000000,82.000000,,,,0.000000,4.000000,4.000000,4.000000,4.000000,4.000000,4.000000,4.000000,4.000000,4.000000,4.000000,4.000000,4.000000,4.000000,4.000000,100.000000,,,,,,,,,,,,,,,,
1644854884.533859,59.000000,0.000000,4219.487305,4206.153809,4225.897461,4131.153809,4209.358887,4230.897461,4219.871582,4218.589844,4226.282227,4208.589844,4207.948730,4210.512695,4250.769043,4228.205078,0.000000,4.000000,82.000000,,,,0.000000,4.000000,4.000000,4.000000,4.000000,4.000000,4.000000,4.000000,4.000000,4.000000,4.000000,4.000000,4.000000,4.000000,4.000000,100.000000,,,,,,,,,,,,,,,,
1644854884.537799,60.000000,0.000000,4218.717773,4204.487305,4227.051270,4130.384766,4205.769043,4230.000000,4219.871582,4221.025879,4231.153809,4207.948730,4206.794922,4213.333496,4247.948730,4221.538574,0.000000,4.000000,82.000000,,,,0.000000,4.000000,4.000000,4.000000,4.000000,4.000000,4.000000,4.000000,4.000000,4.000000,4.000000,4.000000,4.000000,4.000000,4.000000,100.000000,,,,,,,,,,,,,,,,
1644854884.541740,61.000000,0.000000,4219.102539,4202.692383,4227.307617,4125.512695,4207.820313,4230.256348,4220.897461,4224.871582,4235.000000,4214.358887,4202.307617,4215.769043,4243.717773,4212.692383,0.000000,4.000000,82.000000,,,,0.000000,4.000000,4.000000,4.000000,4.000000,4.000000,4.000000,4.000000,4.000000,4.000000,4.000000,4.000000,4.000000,4.000000,4.000000,100.000000,,,,,,,,,,,,,,,,
1644854884.545680,62.000000,0.000000,4217.179688,4200.897461,4226.410156,4118.974121,4214.487305,4231.282227,4223.333496,4229.487305,4236.538574,4226.410156,4197.692383,4215.512695,4239.871582,4207.307617,0.000000,4.000000,82.000000,,,,0.000000,4.000000,4.000000,4.000000,4.000000,4.000000,4.000000,4.000000,4.000000,4.000000,4.000000,4.000000,4.000000,4.000000,4.000000,100.000000,,,,,,,,,,,,,,,,
1644854884.549620,63.000000,0.000000,4211.538574,4199.358887,4225.000000,4115.256348,4222.563965,4232.307617,4226.666504,4233.589844,4236.153809,4238.205078,4195.769043,4211.666504,4237.307617,4208.974121,0.000000,4.000000,82.000000,,,,0.000000,4.000000,4.000000,4.000000,4.000000,4.000000,4.000000,4.000000,4.000000,4.000000,4.000000,4.000000,4.000000,4.000000,4.000000,100.000000,,,,,,,,,,,,,,,,
1644854884.553460,64.000000,0.000000,4204.230957,4198.717773,4223.333496,4117.307617,4228.205078,4233.077148,4228.205078,4235.256348,4235.256348,4243.717773,4197.820313,4206.410156,4235.897461,4215.641113,0.000000,4.000000,82.000000,,,,0.000000,4.000000,4.000000,4.000000,4.000000,4.000000,4.000000,4.000000,4.000000,4.000000,4.000000,4.000000,4.000000,4.000000,4.000000,100.000000,,,,,,,,,,,,,,,,
1644854884.557400,65.000000,0.000000,4200.000000,4199.230957,4222.563965,4122.692383,4228.589844,4233.077148,4226.025879,4233.717773,4235.128418,4241.153809,4202.820313,4202.307617,4235.256348,4221.410156,0.000000,4.000000,82.000000,,,,0.000000,4.000000,4.000000,4.000000,4.000000,4.000000,4.000000,4.000000,4.000000,4.000000,4.000000,4.000000,4.000000,4.000000,4.000000,100.000000,,,,,,,,,,,,,,,,
1644854884.561340,66.000000,0.000000,4202.179688,4200.256348,4222.436035,4125.641113,4223.717773,4232.436035,4221.153809,4229.871582,4235.512695,4232.692383,4207.563965,4200.769043,4234.487305,4222.051270,0.000000,4.000000,82.000000,,,,0.000000,4.000000,4.000000,4.000000,4.000000,4.000000,4.000000,4.000000,4.000000,4.000000,4.000000,4.000000,4.000000,4.000000,4.000000,100.000000,,,,,,,,,,,,,,,,
1644854884.565280,67.000000,0.000000,4209.230957,4200.512695,4222.051270,4122.436035,4216.282227,4231.153809,4216.794922,4225.512695,4234.358887,4221.794922,4208.589844,4200.384766,4233.717773,4217.436035,0.000000,4.000000,82.000000,,,,0.000000,4.000000,4.000000,4.000000,4.000000,4.000000,4.000000,4.000000,4.000000,4.000000,4.000000,4.000000,4.000000,4.000000,4.000000,100.000000,,,,,,,,,,,,,,,,
1644854884.569220,68.000000,0.000000,4215.769043,4199.487305,4220.384766,4114.871582,4210.769043,4229.743652,4215.128418,4222.051270,4230.384766,4211.922852,4205.384766,4198.974121,4233.333496,4211.666504,0.000000,4.000000,82.000000,,,,0.000000,4.000000,4.000000,4.000000,4.000000,4.000000,4.000000,4.000000,4.000000,4.000000,4.000000,4.000000,4.000000,4.000000,4.000000,100.000000,,,,,,,,,,,,,,,,
1644854884.573160,69.000000,0.000000,4216.666504,4198.077148,4217.692383,4108.333496,4210.512695,4228.846191,4215.384766,4219.743652,4224.871582,4205.256348,4200.000000,4196.410156,4233.974121,4208.717773,0.000000,4.000000,82.000000,,,,0.000000,4.000000,4.000000,4.000000,4.000000,4.000000,4.000000,4.000000,4.000000,4.000000,4.000000,4.000000,4.000000,4.000000,4.000000,100.000000,,,,,,,,,,,,,,,,
1644854884.577101,70.000000,0.000000,4211.410156,4197.692383,4215.000000,4108.077148,4215.256348,4228.846191,4215.512695,4217.563965,4219.743652,4202.820313,4196.025879,4193.589844,4236.025879,4208.589844,0.000000,4.000000,82.000000,,,,0.000000,4.000000,4.000000,4.000000,4.000000,4.000000,4.000000,4.000000,4.000000,4.000000,4.000000,4.000000,4.000000,4.000000,4.000000,100.000000,,,,,,,,,,,,,,,,
1644854884.581041,71.000000,0.000000,4204.102539,4198.974121,4213.461426,4113.589844,4220.769043,4229.102539,4214.487305,4215.128418,4217.051270,4204.487305,4194.743652,4191.538574,4239.230957,4208.077148,0.000000,4.000000,82.000000,,,,0.000000,4.000000,4.000000,4.000000,4.000000,4.000000,4.000000,4.000000,4.000000,4.000000,4.000000,4.000000,4.000000,4.000000,4.000000,100.000000,,,,,,,,,,,,,,,,
1644854884.584981,72.000000,0.000000,4199.871582,4201.410156,4213.205078,4119.615234,4222.051270,4228.974121,4213.846191,4212.948730,4217.692383,4209.743652,4195.769043,4190.384766,4242.948730,4204.358887,0.000000,4.000000,82.000000,,,,0.000000,4.000000,4.000000,4.000000,4.000000,4.000000,4.000000,4.000000,4.000000,4.000000,4.000000,4.000000,4.000000,4.000000,4.000000,100.000000,,,,,,,,,,,,,,,,
1644854884.588921,73.000000,0.000000,4199.743652,4203.974121,4213.846191,4120.769043,4217.948730,4228.589844,4214.487305,4213.205078,4221.922852,4217.948730,4197.948730,4190.897461,4245.897461,4198.461426,0.000000,4.000000,82.000000,,,,0.000000,4.000000,4.000000,4.000000,4.000000,4.000000,4.000000,4.000000,4.000000,4.000000,4.000000,4.000000,4.000000,4.000000,4.000000,100.000000,,,,,,,,,,,,,,,,
1644854884.592861,74.000000,0.000000,4201.282227,4205.512695,4215.128418,4116.153809,4212.563965,4228.333496,4216.282227,4217.179688,4227.692383,4227.436035,4201.025879,4193.846191,4247.563965,4194.615234,0.000000,4.000000,82.000000,,,,0.000000,4.000000,4.000000,4.000000,4.000000,4.000000,4.000000,4.000000,4.000000,4.000000,4.000000,4.000000,4.000000,4.000000,4.000000,100.000000,,,,,,,,,,,,,,,,
1644854884.596801,75.000000,0.000000,4201.794922,4205.384766,4217.179688,4110.128418,4211.153809,4228.717773,4217.692383,4223.333496,4232.179688,4235.000000,4204.743652,4199.102539,4248.589844,4196.538574,0.000000,4.000000,82.000000,,,,0.000000,4.000000,4.000000,4.000000,4.000000,4.000000,4.000000,4.000000,4.000000,4.000000,4.000000,4.000000,4.000000,4.000000,4.000000,100.000000,,,,,,,,,,,,,,,,
1644854884.600741,76.000000,0.000000,4200.897461,4203.846191,4220.000000,4106.410156,4215.897461,4229.615234,4218.077148,4228.974121,4233.846191,4237.948730,4208.333496,4205.128418,4249.743652,4204.487305,0.000000,4.000000,82.000000,,,,0.000000,4.000000,4.000000,4.000000,4.000000,4.000000,4.000000,4.000000,4.000000,4.000000,4.000000,4.000000,4.000000,4.000000,4.000000,100.000000,,,,,,,,,,,,,,,,
1644854884.604681,77.000000,0.000000,4200.512695,4202.179688,4223.077148,4105.128418,4224.871582,4230.769043,4218.205078,4231.025879,4232.692383,4236.538574,4211.282227,4209.487305,4251.410156,4213.974121,0.000000,4.000000,82.000000,,,,0.000000,4.000000,4.000000,4.000000,4.000000,4.000000,4.000000,4.000000,4.000000,4.000000,4.000000,4.000000,4.000000,4.000000,4.000000,100.000000,,,,,,,,,,,,,,,,
1644854884.608721,78.000000,0.000000,4202.179688,4200.897461,4225.000000,4102.436035,4233.205078,4231.282227,4219.102539,4229.102539,4230.641113,4232.948730,4213.589844,4210.256348,4253.077148,4218.974121,0.000000,4.000000,82.000000,,,,0.000000,4.000000,4.000000,4.000000,4.000000,4.000000,4.000000,4.000000,4.000000,4.000000,4.000000,4.000000,4.000000,4.000000,4.000000,100.000000,,,,,,,,,,,,,,,,
1644854884.612661,79.000000,0.000000,4205.512695,4199.615234,4224.230957,4096.282227,4236.794922,4231.025879,4220.512695,4224.615234,4229.102539,4230.256348,4215.512695,4207.307617,4254.871582,4215.769043,0.000000,4.000000,82.000000,,,,0.000000,4.000000,4.000000,4.000000,4.000000,4.000000,4.000000,4.000000,4.000000,4.000000,4.000000,4.000000,4.000000,4.000000,4.000000,100.000000,,,,,,,,,,,,,,,,
1644854884.616602,80.000000,0.000000,4208.205078,4198.717773,4220.769043,4089.102539,4233.846191,4230.000000,4220.897461,4221.025879,4228.589844,4229.871582,4215.512695,4202.051270,4256.025879,4206.410156,0.000000,4.000000,82.000000,,,,0.000000,4.000000,4.000000,4.000000,4.000000,4.000000,4.000000,4.000000,4.000000,4.000000,4.000000,4.000000,4.000000,4.000000,4.000000,100.000000,,,,,,,,,,,,,,,,
1644854884.620542,81.000000,0.000000,4208.846191,4198.846191,4216.282227,4086.794922,4226.410156,4228.974121,4219.487305,4221.538574,4228.846191,4231.153809,4211.666504,4197.307617,4256.410156,4197.820313,0.000000,4.000000,82.000000,,,,0.000000,4.000000,4.000000,4.000000,4.000000,4.000000,4.000000,4.000000,4.000000,4.000000,4.000000,4.000000,4.000000,4.000000,4.000000,100.000000,,,,,,,,,,,,,,,,
1644854884.624482,82.000000,0.000000,4208.717773,4201.025879,4213.589844,4093.205078,4218.461426,4228.333496,4217.436035,4226.410156,4229.615234,4233.077148,4203.717773,4195.512695,4256.153809,4196.666504,0.000000,4.000000,82.000000,,,,0.000000,4.000000,4.000000,4.000000,4.000000,4.000000,4.000000,4.000000,4.000000,4.000000,4.000000,4.000000,4.000000,4.000000,4.000000,100.000000,,,,,,,,,,,,,,,,
1644854884.628422,83.000000,0.000000,4210.128418,4205.000000,4214.358887,4106.153809,4213.974121,4228.205078,4216.538574,4233.077148,4230.641113,4235.256348,4195.769043,4197.563965,4255.000000,4203.846191,0.000000,4.000000,82.000000,,,,0.000000,4.000000,4.000000,4.000000,4.000000,4.000000,4.000000,4.000000,4.000000,4.000000,4.000000,4.000000,4.000000,4.000000,4.000000,100.000000,,,,,,,,,,,,,,,,
1644854884.632362,84.000000,0.000000,4213.461426,4208.974121,4217.820313,4119.102539,4213.589844,4228.333496,4217.051270,4237.179688,4232.436035,4237.820313,4193.974121,4201.538574,4252.436035,4213.333496,0.000000,4.000000,82.000000,,,,0.000000,4.000000,4.000000,4.000000,4.000000,4.000000,4.000000,4.000000,4.000000,4.000000,4.000000,4.000000,4.000000,4.000000,4.000000,100.000000,,,,,,,,,,,,,,,,
1644854884.636302,85.000000,0.000000,4216.666504,4211.025879,4221.922852,4126.153809,4215.384766,4228.205078,4217.820313,4237.051270,4235.128418,4241.538574,4202.179688,4204.871582,4248.974121,4218.205078,0.000000,4.000000,82.000000,,,,0.000000,4.000000,4.000000,4.000000,4.000000,4.000000,4.000000,4.000000,4.000000,4.000000,4.000000,4.000000,4.000000,4.000000,4.000000,100.000000,,,,,,,,,,,,,,,,
1644854884.640242,86.000000,0.000000,4217.307617,4210.512695,4224.487305,4126.153809,4216.794922,4227.948730,4218.333496,4234.102539,4238.974121,4245.641113,4217.179688,4205.384766,4246.025879,4216.794922,0.000000,4.000000,82.000000,,,,0.000000,4.000000,4.000000,4.000000,4.000000,4.000000,4.000000,4.000000,4.000000,4.000000,4.000000,4.000000,4.000000,4.000000,4.000000,100.000000,,,,,,,,,,,,,,,,
1644854884.644182,87.000000,0.000000,4215.897461,4208.846191,4225.000000,4122.436035,4217.179688,4228.077148,4218.846191,4232.179688,4243.077148,4248.974121,4231.153809,4203.461426,4245.897461,4213.717773,0.000000,4.000000,82.000000,,,,0.000000,4.000000,4.000000,4.000000,4.000000,4.000000,4.000000,4.000000,4.000000,4.000000,4.000000,4.000000,4.000000,4.000000,4.000000,100.000000,,,,,,,,,,,,,,,,
1644854884.648122,88.000000,0.000000,4215.384766,4208.077148,4225.000000,4118.974121,4217.820313,4228.461426,4219.743652,4232.692383,4245.769043,4249.743652,4236.922852,4201.153809,4249.871582,4213.846191,0.000000,4.000000,82.000000,,,,0.000000,4.000000,4.000000,4.000000,4.000000,4.000000,4.000000,4.000000,4.000000,4.000000,4.000000,4.000000,4.000000,4.000000,4.000000,100.000000,,,,,,,,,,,,,,,,
1644854884.652062,89.000000,0.000000,4219.102539,4209.871582,4226.025879,4117.692383,4220.256348,4228.974121,4220.256348,4234.358887,4245.897461,4247.179688,4232.820313,4200.000000,4257.307617,4217.820313,0.000000,4.000000,82.000000,,,,0.000000,4.000000,4.000000,4.000000,4.000000,4.000000,4.000000,4.000000,4.000000,4.000000,4.000000,4.000000,4.000000,4.000000,4.000000,100.000000,,,,,,,,,,,,,,,,
1644854884.656003,90.000000,0.000000,4226.538574,4214.230957,4228.077148,4118.333496,4224.487305,4229.487305,4218.974121,4233.333496,4242.948730,4242.436035,4223.077148,4200.384766,4265.256348,4222.179688,0.000000,4.000000,82.000000,,,,0.000000,4.000000,4.000000,4.000000,4.000000,4.000000,4.000000,4.000000,4.000000,4.000000,4.000000,4.000000,4.000000,4.000000,4.000000,100.000000,,,,,,,,,,,,,,,,
1644854884.659943,91.000000,0.000000,4234.487305,4219.743652,4229.871582,4120.512695,4229.487305,4230.384766,4216.153809,4228.333496,4237.948730,4238.333496,4214.487305,4200.897461,4270.641113,4223.846191,0.000000,4.000000,82.000000,,,,0.000000,4.000000,4.000000,4.000000,4.000000,4.000000,4.000000,4.000000,4.000000,4.000000,4.000000,4.000000,4.000000,4.000000,4.000000,100.000000,,,,,,,,,,,,,,,,
1644854884.663883,92.000000,0.000000,4239.102539,4224.487305,4230.897461,4124.102539,4233.205078,4231.538574,4213.974121,4221.025879,4233.077148,4237.692383,4212.179688,4200.769043,4271.922852,4223.077148,0.000000,4.000000,82.000000,,,,0.000000,4.000000,4.000000,4.000000,4.000000,4.000000,4.000000,4.000000,4.000000,4.000000,4.000000,4.000000,4.000000,4.000000,4.000000,100.000000,,,,,,,,,,,,,,,,
1644854884.667823,93.000000,0.000000,4237.820313,4226.282227,4231.153809,4128.589844,4234.102539,4232.051270,4214.615234,4215.641113,4230.000000,4240.384766,4215.897461,4199.615234,4269.615234,4222.179688,0.000000,4.000000,82.000000,,,,0.000000,4.000000,4.000000,4.000000,4.000000,4.000000,4.000000,4.000000,4.000000,4.000000,4.000000,4.000000,4.000000,4.000000,4.000000,100.000000,,,,,,,,,,,,,,,,
1644854884.671763,94.000000,0.000000,4230.384766,4223.077148,4230.128418,4131.794922,4231.922852,4231.282227,4217.563965,4214.487305,4229.487305,4243.717773,4220.769043,4197.563965,4265.769043,4221.153809,0.000000,4.000000,82.000000,,,,0.000000,4.000000,4.000000,4.000000,4.000000,4.000000,4.000000,4.000000,4.000000,4.000000,4.000000,4.000000,4.000000,4.000000,4.000000,100.000000,,,,,,,,,,,,,,,,
1644854884.675703,95.000000,0.000000,4218.717773,4215.000000,4227.179688,4130.769043,4227.948730,4229.358887,4220.000000,4216.666504,4230.769043,4244.615234,4221.922852,4194.487305,4262.692383,4218.717773,0.000000,4.000000,82.000000,,,,0.000000,4.000000,4.000000,4.000000,4.000000,4.000000,4.000000,4.000000,4.000000,4.000000,4.000000,4.000000,4.000000,4.000000,4.000000,100.000000,,,,,,,,,,,,,,,,
1644854884.679643,96.000000,0.000000,4207.307617,4205.384766,4222.820313,4125.769043,4223.974121,4226.666504,4219.743652,4219.487305,4231.922852,4242.436035,4218.461426,4191.538574,4261.282227,4214.871582,0.000000,4.000000,82.000000,,,,0.000000,4.000000,4.000000,4.000000,4.000000,4.000000,4.000000,4.000000,4.000000,4.000000,4.000000,4.000000,4.000000,4.000000,4.000000,100.000000,,,,,,,,,,,,,,,,
1644854884.683583,97.000000,0.000000,4202.307617,4200.641113,4219.743652,4120.769043,4221.282227,4223.846191,4217.307617,4220.641113,4231.153809,4238.717773,4213.589844,4190.641113,4261.282227,4212.179688,0.000000,4.000000,82.000000,,,,0.000000,4.000000,4.000000,4.000000,4.000000,4.000000,4.000000,4.000000,4.000000,4.000000,4.000000,4.000000,4.000000,4.000000,4.000000,100.000000,,,,,,,,,,,,,,,,
1644854884.687424,98.000000,0.000000,4209.102539,4205.897461,4221.538574,4121.538574,4219.743652,4221.410156,4215.256348,4220.256348,4228.333496,4234.871582,4211.794922,4192.820313,4262.563965,4213.717773,0.000000,4.000000,82.000000,,,,0.000000,4.000000,4.000000,4.000000,4.000000,4.000000,4.000000,4.000000,4.000000,4.000000,4.000000,4.000000,4.000000,4.000000,4.000000,100.000000,,,,,,,,,,,,,,,,
1644854884.691364,99.000000,0.000000,4228.205078,4220.641113,4229.230957,4129.358887,4219.358887,4220.384766,4215.384766,4219.487305,4225.384766,4232.307617,4214.743652,4198.333496,4265.256348,4220.128418,0.000000,4.000000,82.000000,,,,0.000000,4.000000,4.000000,4.000000,4.000000,4.000000,4.000000,4.000000,4.000000,4.000000,4.000000,4.000000,4.000000,4.000000,4.000000,100.000000,,,,,,,,,,,,,,,,
1644854884.695304,100.000000,0.000000,4252.563965,4237.307617,4239.743652,4139.743652,4220.000000,4221.666504,4216.922852,4219.743652,4224.871582,4232.051270,4221.410156,4205.769043,4270.000000,4228.974121,0.000000,4.000000,82.000000,,,,0.000000,4.000000,4.000000,4.000000,4.000000,4.000000,4.000000,4.000000,4.000000,4.000000,4.000000,4.000000,4.000000,4.000000,4.000000,100.000000,,,,,,,,,,,,,,,,
1644854884.699244,101.000000,0.000000,4271.025879,4246.922852,4248.333496,4146.282227,4222.563965,4225.384766,4218.077148,4221.153809,4227.179688,4234.743652,4229.102539,4213.589844,4277.051270,4237.307617,0.000000,4.000000,82.000000,,,,0.000000,4.000000,4.000000,4.000000,4.000000,4.000000,4.000000,4.000000,4.000000,4.000000,4.000000,4.000000,4.000000,4.000000,4.000000,100.000000,,,,,,,,,,,,,,,,
1644854884.703184,102.000000,0.000000,4275.897461,4246.282227,4252.051270,4146.538574,4227.436035,4229.871582,4218.717773,4222.563965,4230.128418,4238.461426,4236.025879,4219.871582,4286.410156,4243.974121,0.000000,4.000000,82.000000,,,,0.000000,4.000000,4.000000,4.000000,4.000000,4.000000,4.000000,4.000000,4.000000,4.000000,4.000000,4.000000,4.000000,4.000000,4.000000,100.000000,,,,,,,,,,,,,,,,
1644854884.707124,103.000000,0.000000,4268.974121,4241.538574,4251.794922,4144.871582,4232.820313,4232.307617,4218.974121,4222.563965,4230.384766,4240.641113,4241.025879,4223.846191,4297.179688,4249.358887,0.000000,4.000000,82.000000,,,,0.000000,4.000000,4.000000,4.000000,4.000000,4.000000,4.000000,4.000000,4.000000,4.000000,4.000000,4.000000,4.000000,4.000000,4.000000,100.000000,,,,,,,,,,,,,,,,
1644854884.711064,104.000000,0.000000,4261.794922,4243.333496,4250.897461,4147.563965,4235.000000,4231.153809,4218.974121,4220.512695,4226.922852,4239.102539,4244.487305,4226.282227,4307.820313,4254.871582,0.000000,4.000000,82.000000,,,,0.000000,4.000000,4.000000,4.000000,4.000000,4.000000,4.000000,4.000000,4.000000,4.000000,4.000000,4.000000,4.000000,4.000000,4.000000,100.000000,,,,,,,,,,,,,,,,
1644854884.715004,105.000000,0.000000,4267.051270,4257.563965,4253.461426,4157.307617,4231.410156,4226.794922,4218.333496,4217.051270,4221.410156,4234.102539,4247.051270,4228.461426,4317.307617,4262.051270,0.000000,4.000000,82.000000,,,,0.000000,4.000000,4.000000,4.000000,4.000000,4.000000,4.000000,4.000000,4.000000,4.000000,4.000000,4.000000,4.000000,4.000000,4.000000,100.000000,,,,,,,,,,,,,,,,
1644854884.718944,106.000000,0.000000,4289.743652,4281.538574,4260.641113,4169.871582,4223.333496,4221.666504,4216.794922,4213.846191,4217.051270,4228.333496,4249.743652,4232.051270,4325.512695,4271.666504,0.000000,4.000000,82.000000,,,,0.000000,4.000000,4.000000,4.000000,4.000000,4.000000,4.000000,4.000000,4.000000,4.000000,4.000000,4.000000,4.000000,4.000000,4.000000,100.000000,,,,,,,,,,,,,,,,
1644854884.722884,107.000000,0.000000,4323.589844,4306.282227,4270.128418,4178.077148,4216.153809,4218.461426,4215.769043,4212.179688,4216.153809,4224.615234,4252.948730,4237.179688,4332.820313,4283.974121,0.000000,4.000000,82.000000,,,,0.000000,4.000000,4.000000,4.000000,4.000000,4.000000,4.000000,4.000000,4.000000,4.000000,4.000000,4.000000,4.000000,4.000000,4.000000,100.000000,,,,,,,,,,,,,,,,
1644854884.726825,108.000000,0.000000,4355.641113,4325.384766,4278.077148,4179.487305,4215.128418,4218.461426,4216.410156,4212.948730,4218.461426,4224.230957,4256.922852,4243.589844,4339.871582,4297.051270,0.000000,4.000000,82.000000,,,,0.000000,4.000000,4.000000,4.000000,4.000000,4.000000,4.000000,4.000000,4.000000,4.000000,4.000000,4.000000,4.000000,4.000000,4.000000,100.000000,,,,,,,,,,,,,,,,
1644854884.730765,109.000000,0.000000,4375.769043,4339.487305,4281.538574,4178.589844,4221.922852,4221.153809,4218.333496,4215.641113,4221.922852,4226.922852,4261.922852,4250.897461,4347.563965,4307.692383,0.000000,4.000000,82.000000,,,,0.000000,4.000000,4.000000,4.000000,4.000000,4.000000,4.000000,4.000000,4.000000,4.000000,4.000000,4.000000,4.000000,4.000000,4.000000,100.000000,,,,,,,,,,,,,,,,
1644854884.734705,110.000000,0.000000,4382.051270,4355.000000,4280.897461,4182.307617,4234.102539,4224.615234,4219.871582,4218.333496,4223.974121,4230.769043,4268.589844,4258.846191,4356.153809,4313.589844,0.000000,4.000000,82.000000,,,,0.000000,4.000000,4.000000,4.000000,4.000000,4.000000,4.000000,4.000000,4.000000,4.000000,4.000000,4.000000,4.000000,4.000000,4.000000,100.000000,,,,,,,,,,,,,,,,
1644854884.738645,111.000000,0.000000,4380.384766,4378.461426,4279.102539,4192.563965,4246.410156,4227.307617,4220.000000,4219.358887,4223.846191,4233.461426,4276.666504,4265.897461,4364.871582,4315.897461,0.000000,4.000000,82.000000,,,,0.000000,4.000000,4.000000,4.000000,4.000000,4.000000,4.000000,4.000000,4.000000,4.000000,4.000000,4.000000,4.000000,4.000000,4.000000,100.000000,,,,,,,,,,,,,,,,
1644854884.742585,112.000000,0.000000,4379.743652,4410.641113,4278.846191,4205.128418,4253.461426,4228.717773,4219.615234,4219.230957,4222.692383,4234.358887,4284.487305,4270.128418,4372.563965,4317.948730,0.000000,4.000000,82.000000,,,,0.000000,4.000000,4.000000,4.000000,4.000000,4.000000,4.000000,4.000000,4.000000,4.000000,4.000000,4.000000,4.000000,4.000000,4.000000,100.000000,,,,,,,,,,,,,,,,
1644854884.746525,113.000000,0.000000,4386.153809,4445.897461,4280.384766,4213.333496,4252.692383,4229.358887,4220.128418,4220.128418,4223.205078,4235.512695,4289.487305,4270.128418,4377.820313,4322.436035,0.000000,4.000000,82.000000,,,,0.000000,4.000000,4.000000,4.000000,4.000000,4.000000,4.000000,4.000000,4.000000,4.000000,4.000000,4.000000,4.000000,4.000000,4.000000,100.000000,,,,,,,,,,,,,,,,
1644854884.750465,114.000000,0.000000,4400.641113,4478.717773,4281.410156,4214.743652,4246.538574,4230.641113,4221.922852,4223.589844,4226.794922,4239.743652,4289.615234,4266.410156,4379.871582,4328.717773,0.000000,4.000000,82.000000,,,,0.000000,4.000000,4.000000,4.000000,4.000000,4.000000,4.000000,4.000000,4.000000,4.000000,4.000000,4.000000,4.000000,4.000000,4.000000,100.000000,,,,,,,,,,,,,,,,
