title:Alex-Aq8XfbFojT8xO7steIWodg, start timestamp:1644852647.387104, stop timestamp:1644852673.138435, headset type:EPOCPLUS, headset serial:3B9AEBFF, headset firmware:626, channels:55, sampling rate:eeg_256, samples:6537      , version:2.1, 
Timestamp,EEG.Counter,EEG.Interpolated,EEG.AF3,EEG.F7,EEG.F3,EEG.FC5,EEG.T7,EEG.P7,EEG.O1,EEG.O2,EEG.P8,EEG.T8,EEG.FC6,EEG.F4,EEG.F8,EEG.AF4,EEG.RawCq,EEG.Battery,EEG.BatteryPercent,MarkerIndex,MarkerType,MarkerValueInt,EEG.MarkerHardware,CQ.AF3,CQ.F7,CQ.F3,CQ.FC5,CQ.T7,CQ.P7,CQ.O1,CQ.O2,CQ.P8,CQ.T8,CQ.FC6,CQ.F4,CQ.F8,CQ.AF4,CQ.Overall,EQ.SampleRateQuality,EQ.OVERALL,EQ.AF3,EQ.F7,EQ.F3,EQ.FC5,EQ.T7,EQ.P7,EQ.O1,EQ.O2,EQ.P8,EQ.T8,EQ.FC6,EQ.F4,EQ.F8,EQ.AF4
1644852647.387104,121.000000,0.000000,4239.230957,4231.282227,4238.205078,4240.128418,4220.769043,4237.563965,4225.897461,4228.589844,4236.025879,4238.461426,4213.846191,4217.436035,4240.512695,4203.333496,0.000000,4.000000,91.000000,,,,0.000000,4.000000,4.000000,4.000000,4.000000,4.000000,4.000000,4.000000,4.000000,4.000000,4.000000,4.000000,4.000000,4.000000,4.000000,100.000000,,,,,,,,,,,,,,,,
1644852647.390945,122.000000,0.000000,4243.077148,4226.922852,4239.487305,4238.589844,4216.282227,4241.410156,4227.692383,4227.820313,4232.820313,4239.743652,4220.256348,4213.461426,4239.230957,4206.794922,0.000000,4.000000,91.000000,,,,0.000000,4.000000,4.000000,4.000000,4.000000,4.000000,4.000000,4.000000,4.000000,4.000000,4.000000,4.000000,4.000000,4.000000,4.000000,100.000000,,,,,,,,,,,,,,,,
1644852647.394885,123.000000,0.000000,4242.563965,4226.666504,4242.436035,4235.384766,4220.769043,4244.230957,4230.128418,4227.563965,4230.384766,4237.820313,4233.846191,4211.922852,4239.230957,4209.358887,0.000000,4.000000,91.000000,,,,0.000000,4.000000,4.000000,4.000000,4.000000,4.000000,4.000000,4.000000,4.000000,4.000000,4.000000,4.000000,4.000000,4.000000,4.000000,100.000000,,,,,,,,,,,,,,,,
1644852647.398825,124.000000,0.000000,4239.615234,4230.897461,4244.743652,4230.897461,4231.666504,4243.974121,4230.000000,4227.820313,4230.897461,4233.077148,4245.000000,4213.461426,4239.743652,4209.358887,0.000000,4.000000,91.000000,,,,0.000000,4.000000,4.000000,4.000000,4.000000,4.000000,4.000000,4.000000,4.000000,4.000000,4.000000,4.000000,4.000000,4.000000,4.000000,100.000000,,,,,,,,,,,,,,,,
1644852647.402765,125.000000,0.000000,4236.153809,4236.153809,4244.230957,4227.692383,4241.666504,4240.641113,4226.922852,4227.692383,4233.589844,4227.563965,4245.256348,4217.307617,4239.743652,4207.436035,0.000000,4.000000,91.000000,,,,0.000000,4.000000,4.000000,4.000000,4.000000,4.000000,4.000000,4.000000,4.000000,4.000000,4.000000,4.000000,4.000000,4.000000,4.000000,100.000000,,,,,,,,,,,,,,,,
1644852647.406705,126.000000,0.000000,4232.563965,4237.307617,4240.128418,4229.102539,4243.461426,4235.897461,4223.589844,4226.410156,4235.384766,4222.563965,4233.717773,4220.769043,4238.717773,4205.641113,0.000000,4.000000,91.000000,,,,0.000000,4.000000,4.000000,4.000000,4.000000,4.000000,4.000000,4.000000,4.000000,4.000000,4.000000,4.000000,4.000000,4.000000,4.000000,100.000000,,,,,,,,,,,,,,,,
1644852647.410645,127.000000,0.000000,4228.333496,4231.794922,4233.461426,4235.384766,4235.769043,4231.410156,4222.179688,4224.102539,4233.717773,4219.358887,4217.948730,4221.153809,4237.563965,4204.615234,0.000000,4.000000,91.000000,,,,0.000000,4.000000,4.000000,4.000000,4.000000,4.000000,4.000000,4.000000,4.000000,4.000000,4.000000,4.000000,4.000000,4.000000,4.000000,100.000000,,,,,,,,,,,,,,,,
1644852647.414585,128.000000,0.000000,4223.974121,4222.179688,4226.538574,4243.974121,4224.230957,4228.461426,4222.563965,4221.282227,4229.487305,4218.846191,4207.948730,4217.820313,4237.820313,4203.077148,3427.000000,4.000000,91.000000,,,,0.000000,4.000000,4.000000,4.000000,4.000000,4.000000,4.000000,4.000000,4.000000,4.000000,4.000000,4.000000,4.000000,4.000000,4.000000,100.000000,,,,,,,,,,,,,,,,
1644852647.418525,129.000000,0.000000,4221.538574,4213.717773,4221.538574,4249.358887,4216.794922,4227.307617,4222.307617,4219.230957,4225.512695,4220.897461,4208.846191,4212.436035,4239.358887,4199.358887,3306.000000,4.000000,91.000000,,,,0.000000,4.000000,4.000000,4.000000,4.000000,4.000000,4.000000,4.000000,4.000000,4.000000,4.000000,4.000000,4.000000,4.000000,4.000000,100.000000,,,,,,,,,,,,,,,,
1644852647.422465,130.000000,0.000000,4221.410156,4210.512695,4219.871582,4246.666504,4216.153809,4227.051270,4221.025879,4218.589844,4224.102539,4224.102539,4217.820313,4208.461426,4240.256348,4194.615234,3609.000000,4.000000,91.000000,,,,0.000000,4.000000,4.000000,4.000000,4.000000,4.000000,4.000000,4.000000,4.000000,4.000000,4.000000,4.000000,4.000000,4.000000,4.000000,100.000000,,,,,,,,,,,,,,,,
1644852647.426405,131.000000,0.000000,4221.282227,4211.794922,4220.641113,4234.743652,4218.077148,4226.794922,4220.512695,4218.974121,4225.769043,4226.410156,4226.538574,4207.820313,4237.948730,4191.538574,3523.000000,4.000000,91.000000,,,,0.000000,4.000000,4.000000,4.000000,4.000000,4.000000,4.000000,4.000000,4.000000,4.000000,4.000000,4.000000,4.000000,4.000000,4.000000,100.000000,,,,,,,,,,,,,,,,
1644852647.430346,132.000000,0.000000,4218.589844,4213.333496,4222.179688,4217.820313,4215.897461,4226.025879,4221.794922,4219.230957,4228.077148,4226.153809,4227.563965,4210.256348,4231.922852,4192.563965,3394.000000,4.000000,91.000000,,,,0.000000,4.000000,4.000000,4.000000,4.000000,4.000000,4.000000,4.000000,4.000000,4.000000,4.000000,4.000000,4.000000,4.000000,4.000000,100.000000,,,,,,,,,,,,,,,,
1644852647.434286,133.000000,0.000000,4213.205078,4211.794922,4222.307617,4203.717773,4208.589844,4224.871582,4223.205078,4217.820313,4228.717773,4224.358887,4220.512695,4213.205078,4224.743652,4196.666504,3324.000000,4.000000,91.000000,,,,0.000000,4.000000,4.000000,4.000000,4.000000,4.000000,4.000000,4.000000,4.000000,4.000000,4.000000,4.000000,4.000000,4.000000,4.000000,100.000000,,,,,,,,,,,,,,,,
1644852647.438226,134.000000,0.000000,4207.948730,4207.692383,4220.256348,4198.974121,4201.153809,4222.692383,4221.410156,4214.743652,4226.410156,4222.692383,4211.282227,4214.487305,4220.256348,4200.512695,2352.000000,4.000000,91.000000,,,,0.000000,4.000000,4.000000,4.000000,4.000000,4.000000,4.000000,4.000000,4.000000,4.000000,4.000000,4.000000,4.000000,4.000000,4.000000,100.000000,,,,,,,,,,,,,,,,
1644852647.442166,135.000000,0.000000,4206.794922,4204.487305,4217.051270,4204.487305,4200.000000,4219.102539,4216.410156,4211.153809,4221.922852,4222.179688,4206.153809,4212.307617,4220.512695,4200.512695,3154.000000,4.000000,91.000000,,,,0.000000,4.000000,4.000000,4.000000,4.000000,4.000000,4.000000,4.000000,4.000000,4.000000,4.000000,4.000000,4.000000,4.000000,4.000000,100.000000,,,,,,,,,,,,,,,,
1644852647.446106,136.000000,0.000000,4210.897461,4205.000000,4214.358887,4215.512695,4205.769043,4214.743652,4212.051270,4208.717773,4216.922852,4221.282227,4206.922852,4207.179688,4223.846191,4196.282227,3435.000000,4.000000,91.000000,,,,0.000000,4.000000,4.000000,4.000000,4.000000,4.000000,4.000000,4.000000,4.000000,4.000000,4.000000,4.000000,4.000000,4.000000,4.000000,100.000000,,,,,,,,,,,,,,,,
1644852647.450146,137.000000,0.000000,4217.820313,4208.974121,4213.717773,4226.025879,4213.589844,4211.794922,4211.794922,4207.563965,4212.563965,4217.948730,4210.384766,4201.666504,4226.410156,4189.743652,3546.000000,4.000000,91.000000,,,,0.000000,4.000000,4.000000,4.000000,4.000000,4.000000,4.000000,4.000000,4.000000,4.000000,4.000000,4.000000,4.000000,4.000000,4.000000,100.000000,,,,,,,,,,,,,,,,
1644852647.454086,138.000000,0.000000,4223.077148,4213.333496,4215.641113,4232.436035,4217.692383,4211.922852,4215.000000,4207.051270,4209.487305,4211.922852,4212.692383,4198.589844,4226.282227,4184.743652,3516.000000,4.000000,91.000000,,,,0.000000,4.000000,4.000000,4.000000,4.000000,4.000000,4.000000,4.000000,4.000000,4.000000,4.000000,4.000000,4.000000,4.000000,4.000000,100.000000,,,,,,,,,,,,,,,,
1644852647.458026,139.000000,0.000000,4223.333496,4215.512695,4219.615234,4235.256348,4216.794922,4215.128418,4217.436035,4206.282227,4207.820313,4206.410156,4212.179688,4198.974121,4224.230957,4183.589844,3420.000000,4.000000,91.000000,,,,0.000000,4.000000,4.000000,4.000000,4.000000,4.000000,4.000000,4.000000,4.000000,4.000000,4.000000,4.000000,4.000000,4.000000,4.000000,100.000000,,,,,,,,,,,,,,,,
1644852647.461966,140.000000,0.000000,4219.230957,4215.897461,4224.358887,4235.512695,4214.743652,4218.846191,4216.794922,4206.282227,4208.717773,4205.512695,4210.641113,4201.282227,4222.179688,4185.641113,3576.000000,4.000000,91.000000,,,,0.000000,4.000000,4.000000,4.000000,4.000000,4.000000,4.000000,4.000000,4.000000,4.000000,4.000000,4.000000,4.000000,4.000000,4.000000,100.000000,,,,,,,,,,,,,,,,
1644852647.465906,141.000000,0.000000,4214.615234,4216.282227,4227.948730,4232.307617,4216.025879,4220.128418,4215.256348,4208.333496,4211.922852,4210.256348,4209.102539,4203.077148,4221.282227,4187.692383,3489.000000,4.000000,91.000000,,,,0.000000,4.000000,4.000000,4.000000,4.000000,4.000000,4.000000,4.000000,4.000000,4.000000,4.000000,4.000000,4.000000,4.000000,4.000000,100.000000,,,,,,,,,,,,,,,,
1644852647.469847,142.000000,0.000000,4212.692383,4218.077148,4228.589844,4224.487305,4221.538574,4218.717773,4216.025879,4212.563965,4215.897461,4217.820313,4207.563965,4203.077148,4220.897461,4187.307617,3516.000000,4.000000,91.000000,,,,0.000000,4.000000,4.000000,4.000000,4.000000,4.000000,4.000000,4.000000,4.000000,4.000000,4.000000,4.000000,4.000000,4.000000,4.000000,100.000000,,,,,,,,,,,,,,,,
1644852647.473787,143.000000,0.000000,4214.358887,4220.512695,4225.641113,4213.717773,4228.077148,4216.410156,4219.358887,4217.563965,4218.589844,4223.589844,4205.384766,4201.410156,4220.256348,4184.743652,3420.000000,4.000000,91.000000,,,,0.000000,4.000000,4.000000,4.000000,4.000000,4.000000,4.000000,4.000000,4.000000,4.000000,4.000000,4.000000,4.000000,4.000000,4.000000,100.000000,,,,,,,,,,,,,,,,
1644852647.477727,144.000000,0.000000,4218.077148,4222.051270,4220.128418,4204.615234,4231.794922,4215.641113,4221.794922,4220.897461,4219.487305,4224.871582,4203.974121,4199.487305,4219.102539,4183.077148,3576.000000,4.000000,91.000000,,,,0.000000,4.000000,4.000000,4.000000,4.000000,4.000000,4.000000,4.000000,4.000000,4.000000,4.000000,4.000000,4.000000,4.000000,4.000000,100.000000,,,,,,,,,,,,,,,,
1644852647.481667,145.000000,0.000000,4221.410156,4221.666504,4214.743652,4202.563965,4230.256348,4216.410156,4220.512695,4221.794922,4219.615234,4222.563965,4205.128418,4198.333496,4218.717773,4184.871582,3489.000000,4.000000,91.000000,,,,0.000000,4.000000,4.000000,4.000000,4.000000,4.000000,4.000000,4.000000,4.000000,4.000000,4.000000,4.000000,4.000000,4.000000,4.000000,100.000000,,,,,,,,,,,,,,,,
1644852647.485607,146.000000,0.000000,4222.948730,4220.256348,4212.179688,4209.487305,4225.384766,4217.179688,4217.179688,4220.641113,4220.128418,4219.487305,4209.743652,4197.692383,4221.025879,4189.871582,3516.000000,4.000000,91.000000,,,,0.000000,4.000000,4.000000,4.000000,4.000000,4.000000,4.000000,4.000000,4.000000,4.000000,4.000000,4.000000,4.000000,4.000000,4.000000,100.000000,,,,,,,,,,,,,,,,
1644852647.489547,147.000000,0.000000,4222.948730,4219.871582,4213.846191,4221.922852,4220.512695,4217.179688,4215.769043,4219.230957,4221.153809,4217.948730,4216.922852,4197.692383,4226.282227,4195.769043,3420.000000,4.000000,91.000000,,,,0.000000,4.000000,4.000000,4.000000,4.000000,4.000000,4.000000,4.000000,4.000000,4.000000,4.000000,4.000000,4.000000,4.000000,4.000000,100.000000,,,,,,,,,,,,,,,,
1644852647.493487,148.000000,0.000000,4222.436035,4221.794922,4218.205078,4233.461426,4219.358887,4217.051270,4217.692383,4218.717773,4222.692383,4218.846191,4224.743652,4199.358887,4233.461426,4200.000000,3576.000000,4.000000,91.000000,,,,0.000000,4.000000,4.000000,4.000000,4.000000,4.000000,4.000000,4.000000,4.000000,4.000000,4.000000,4.000000,4.000000,4.000000,4.000000,100.000000,,,,,,,,,,,,,,,,
1644852647.497427,149.000000,0.000000,4222.948730,4225.256348,4222.692383,4238.461426,4222.307617,4218.846191,4220.641113,4218.846191,4224.743652,4221.538574,4231.922852,4203.717773,4239.871582,4201.538574,3489.000000,4.000000,91.000000,,,,0.000000,4.000000,4.000000,4.000000,4.000000,4.000000,4.000000,4.000000,4.000000,4.000000,4.000000,4.000000,4.000000,4.000000,4.000000,100.000000,,,,,,,,,,,,,,,,
1644852647.501367,150.000000,0.000000,4224.615234,4228.205078,4225.897461,4235.000000,4227.051270,4222.563965,4221.794922,4219.358887,4227.051270,4225.641113,4238.333496,4209.871582,4243.846191,4200.641113,3516.000000,4.000000,91.000000,,,,0.000000,4.000000,4.000000,4.000000,4.000000,4.000000,4.000000,4.000000,4.000000,4.000000,4.000000,4.000000,4.000000,4.000000,4.000000,100.000000,,,,,,,,,,,,,,,,
1644852647.505307,151.000000,0.000000,4226.153809,4229.102539,4228.205078,4227.307617,4231.282227,4227.179688,4221.666504,4220.128418,4229.487305,4231.025879,4242.820313,4215.512695,4245.000000,4198.205078,3420.000000,4.000000,91.000000,,,,0.000000,4.000000,4.000000,4.000000,4.000000,4.000000,4.000000,4.000000,4.000000,4.000000,4.000000,4.000000,4.000000,4.000000,4.000000,100.000000,,,,,,,,,,,,,,,,
1644852647.509248,152.000000,0.000000,4226.153809,4228.077148,4230.897461,4222.179688,4234.230957,4230.897461,4222.436035,4221.922852,4231.794922,4237.692383,4244.102539,4218.077148,4245.000000,4196.282227,3576.000000,4.000000,91.000000,,,,0.000000,4.000000,4.000000,4.000000,4.000000,4.000000,4.000000,4.000000,4.000000,4.000000,4.000000,4.000000,4.000000,4.000000,4.000000,100.000000,,,,,,,,,,,,,,,,
1644852647.513188,153.000000,0.000000,4224.615234,4227.051270,4234.102539,4223.974121,4236.153809,4233.205078,4224.358887,4224.743652,4234.615234,4244.358887,4242.436035,4217.563965,4245.512695,4196.922852,3489.000000,4.000000,91.000000,,,,0.000000,4.000000,4.000000,4.000000,4.000000,4.000000,4.000000,4.000000,4.000000,4.000000,4.000000,4.000000,4.000000,4.000000,4.000000,100.000000,,,,,,,,,,,,,,,,
1644852647.517128,154.000000,0.000000,4223.077148,4228.077148,4236.538574,4231.282227,4236.666504,4234.487305,4225.384766,4227.692383,4237.948730,4249.358887,4239.871582,4215.769043,4246.410156,4200.384766,3516.000000,4.000000,91.000000,,,,0.000000,4.000000,4.000000,4.000000,4.000000,4.000000,4.000000,4.000000,4.000000,4.000000,4.000000,4.000000,4.000000,4.000000,4.000000,100.000000,,,,,,,,,,,,,,,,
1644852647.521168,155.000000,0.000000,4222.948730,4231.025879,4237.820313,4237.436035,4234.615234,4235.000000,4223.974121,4228.717773,4240.641113,4250.384766,4237.820313,4215.384766,4245.641113,4204.615234,3420.000000,4.000000,91.000000,,,,0.000000,4.000000,4.000000,4.000000,4.000000,4.000000,4.000000,4.000000,4.000000,4.000000,4.000000,4.000000,4.000000,4.000000,4.000000,100.000000,,,,,,,,,,,,,,,,
1644852647.525108,156.000000,0.000000,4224.487305,4233.589844,4237.820313,4237.820313,4229.743652,4234.102539,4221.794922,4227.051270,4239.615234,4246.282227,4235.641113,4217.051270,4241.153809,4205.897461,3576.000000,4.000000,91.000000,,,,0.000000,4.000000,4.000000,4.000000,4.000000,4.000000,4.000000,4.000000,4.000000,4.000000,4.000000,4.000000,4.000000,4.000000,4.000000,100.000000,,,,,,,,,,,,,,,,
1644852647.529048,157.000000,0.000000,4225.897461,4233.077148,4237.179688,4232.179688,4224.487305,4231.153809,4221.025879,4223.461426,4233.589844,4238.077148,4231.410156,4219.102539,4233.461426,4202.820313,3489.000000,4.000000,91.000000,,,,0.000000,4.000000,4.000000,4.000000,4.000000,4.000000,4.000000,4.000000,4.000000,4.000000,4.000000,4.000000,4.000000,4.000000,4.000000,100.000000,,,,,,,,,,,,,,,,
1644852647.532988,158.000000,0.000000,4225.512695,4228.846191,4235.512695,4225.128418,4222.692383,4226.410156,4221.794922,4219.871582,4224.487305,4229.230957,4225.000000,4219.358887,4226.153809,4197.692383,3516.000000,4.000000,91.000000,,,,0.000000,4.000000,4.000000,4.000000,4.000000,4.000000,4.000000,4.000000,4.000000,4.000000,4.000000,4.000000,4.000000,4.000000,4.000000,100.000000,,,,,,,,,,,,,,,,
1644852647.536928,159.000000,0.000000,4223.717773,4224.102539,4233.461426,4221.153809,4226.282227,4221.666504,4222.307617,4218.077148,4217.179688,4223.589844,4218.846191,4217.307617,4223.717773,4194.743652,3420.000000,4.000000,91.000000,,,,0.000000,4.000000,4.000000,4.000000,4.000000,4.000000,4.000000,4.000000,4.000000,4.000000,4.000000,4.000000,4.000000,4.000000,4.000000,100.000000,,,,,,,,,,,,,,,,
1644852647.540868,160.000000,0.000000,4222.307617,4222.820313,4232.179688,4221.666504,4233.205078,4219.358887,4222.179688,4218.589844,4215.512695,4222.051270,4216.666504,4214.743652,4228.077148,4196.410156,3576.000000,4.000000,91.000000,,,,0.000000,4.000000,4.000000,4.000000,4.000000,4.000000,4.000000,4.000000,4.000000,4.000000,4.000000,4.000000,4.000000,4.000000,4.000000,100.000000,,,,,,,,,,,,,,,,
1644852647.544808,161.000000,0.000000,4223.974121,4226.282227,4232.820313,4225.128418,4238.717773,4221.025879,4222.820313,4220.512695,4219.358887,4222.563965,4220.128418,4214.743652,4236.025879,4200.897461,3489.000000,4.000000,91.000000,,,,0.000000,4.000000,4.000000,4.000000,4.000000,4.000000,4.000000,4.000000,4.000000,4.000000,4.000000,4.000000,4.000000,4.000000,4.000000,100.000000,,,,,,,,,,,,,,,,
1644852647.548749,162.000000,0.000000,4228.974121,4231.282227,4235.256348,4229.615234,4238.589844,4225.512695,4225.769043,4222.692383,4224.871582,4222.179688,4228.205078,4218.205078,4242.820313,4204.615234,3516.000000,4.000000,91.000000,,,,0.000000,4.000000,4.000000,4.000000,4.000000,4.000000,4.000000,4.000000,4.000000,4.000000,4.000000,4.000000,4.000000,4.000000,4.000000,100.000000,,,,,,,,,,,,,,,,
1644852647.552689,163.000000,0.000000,4234.615234,4233.846191,4237.692383,4234.743652,4232.179688,4230.512695,4229.102539,4223.846191,4228.205078,4221.025879,4237.436035,4222.948730,4245.256348,4205.256348,3420.000000,4.000000,91.000000,,,,0.000000,4.000000,4.000000,4.000000,4.000000,4.000000,4.000000,4.000000,4.000000,4.000000,4.000000,4.000000,4.000000,4.000000,4.000000,100.000000,,,,,,,,,,,,,,,,
1644852647.556629,164.000000,0.000000,4236.666504,4232.051270,4237.948730,4239.102539,4223.717773,4233.974121,4230.128418,4223.974121,4228.205078,4221.922852,4244.358887,4225.000000,4243.717773,4203.717773,3576.000000,4.000000,91.000000,,,,0.000000,4.000000,4.000000,4.000000,4.000000,4.000000,4.000000,4.000000,4.000000,4.000000,4.000000,4.000000,4.000000,4.000000,4.000000,100.000000,,,,,,,,,,,,,,,,
1644852647.560569,165.000000,0.000000,4232.307617,4226.922852,4235.384766,4240.256348,4219.102539,4235.000000,4227.948730,4223.333496,4226.794922,4225.512695,4246.153809,4222.820313,4241.025879,4202.563965,3489.000000,4.000000,91.000000,,,,0.000000,4.000000,4.000000,4.000000,4.000000,4.000000,4.000000,4.000000,4.000000,4.000000,4.000000,4.000000,4.000000,4.000000,4.000000,100.000000,,,,,,,,,,,,,,,,
1644852647.564509,166.000000,0.000000,4222.563965,4220.641113,4231.410156,4235.641113,4221.025879,4233.846191,4225.256348,4223.077148,4225.641113,4229.230957,4242.563965,4218.205078,4238.717773,4202.692383,3516.000000,4.000000,91.000000,,,,0.000000,4.000000,4.000000,4.000000,4.000000,4.000000,4.000000,4.000000,4.000000,4.000000,4.000000,4.000000,4.000000,4.000000,4.000000,100.000000,,,,,,,,,,,,,,,,
1644852647.568449,167.000000,0.000000,4212.436035,4215.128418,4228.846191,4226.282227,4227.179688,4231.410156,4225.128418,4224.743652,4225.769043,4229.487305,4236.153809,4215.256348,4236.538574,4202.436035,3420.000000,4.000000,91.000000,,,,0.000000,4.000000,4.000000,4.000000,4.000000,4.000000,4.000000,4.000000,4.000000,4.000000,4.000000,4.000000,4.000000,4.000000,4.000000,100.000000,,,,,,,,,,,,,,,,
1644852647.572389,168.000000,0.000000,4208.846191,4212.436035,4229.615234,4217.820313,4232.820313,4228.589844,4227.436035,4227.820313,4227.692383,4226.794922,4231.025879,4216.794922,4234.102539,4200.641113,3576.000000,4.000000,91.000000,,,,0.000000,4.000000,4.000000,4.000000,4.000000,4.000000,4.000000,4.000000,4.000000,4.000000,4.000000,4.000000,4.000000,4.000000,4.000000,100.000000,,,,,,,,,,,,,,,,
1644852647.576329,169.000000,0.000000,4214.743652,4213.717773,4233.077148,4216.794922,4235.128418,4226.922852,4229.230957,4230.384766,4230.897461,4225.256348,4229.743652,4221.794922,4231.666504,4198.589844,3489.000000,4.000000,91.000000,,,,0.000000,4.000000,4.000000,4.000000,4.000000,4.000000,4.000000,4.000000,4.000000,4.000000,4.000000,4.000000,4.000000,4.000000,4.000000,100.000000,,,,,,,,,,,,,,,,
1644852647.580269,170.000000,0.000000,4227.051270,4218.717773,4236.666504,4224.615234,4234.230957,4226.922852,4228.077148,4230.128418,4233.974121,4228.205078,4230.897461,4226.666504,4230.384766,4199.102539,3516.000000,4.000000,91.000000,,,,0.000000,4.000000,4.000000,4.000000,4.000000,4.000000,4.000000,4.000000,4.000000,4.000000,4.000000,4.000000,4.000000,4.000000,4.000000,100.000000,,,,,,,,,,,,,,,,
1644852647.584209,171.000000,0.000000,4237.307617,4225.000000,4237.692383,4235.384766,4232.563965,4227.692383,4225.000000,4227.307617,4234.615234,4233.205078,4230.897461,4227.692383,4230.512695,4203.846191,3420.000000,4.000000,91.000000,,,,0.000000,4.000000,4.000000,4.000000,4.000000,4.000000,4.000000,4.000000,4.000000,4.000000,4.000000,4.000000,4.000000,4.000000,4.000000,100.000000,,,,,,,,,,,,,,,,
1644852647.588150,172.000000,0.000000,4239.102539,4229.358887,4235.512695,4240.256348,4231.538574,4227.820313,4223.077148,4223.846191,4231.410156,4234.102539,4227.692383,4223.846191,4230.769043,4210.769043,3576.000000,4.000000,91.000000,,,,0.000000,4.000000,4.000000,4.000000,4.000000,4.000000,4.000000,4.000000,4.000000,4.000000,4.000000,4.000000,4.000000,4.000000,4.000000,100.000000,,,,,,,,,,,,,,,,
1644852647.592090,173.000000,0.000000,4232.307617,4229.615234,4231.922852,4235.769043,4230.769043,4226.410156,4223.077148,4221.794922,4225.897461,4228.077148,4223.461426,4217.436035,4230.641113,4215.000000,3489.000000,4.000000,91.000000,,,,0.000000,4.000000,4.000000,4.000000,4.000000,4.000000,4.000000,4.000000,4.000000,4.000000,4.000000,4.000000,4.000000,4.000000,4.000000,100.000000,,,,,,,,,,,,,,,,
1644852647.596130,174.000000,0.000000,4223.077148,4226.794922,4230.000000,4226.538574,4229.358887,4224.358887,4223.205078,4221.538574,4221.282227,4218.974121,4222.179688,4212.051270,4230.512695,4213.461426,3516.000000,4.000000,91.000000,,,,0.000000,4.000000,4.000000,4.000000,4.000000,4.000000,4.000000,4.000000,4.000000,4.000000,4.000000,4.000000,4.000000,4.000000,4.000000,100.000000,,,,,,,,,,,,,,,,
1644852647.600070,175.000000,0.000000,4218.846191,4223.846191,4231.153809,4221.282227,4226.922852,4223.205078,4221.410156,4221.666504,4220.384766,4214.358887,4226.025879,4211.153809,4232.436035,4207.692383,3420.000000,4.000000,91.000000,,,,0.000000,4.000000,4.000000,4.000000,4.000000,4.000000,4.000000,4.000000,4.000000,4.000000,4.000000,4.000000,4.000000,4.000000,4.000000,100.000000,,,,,,,,,,,,,,,,
1644852647.604010,176.000000,0.000000,4222.179688,4222.948730,4233.589844,4225.512695,4224.230957,4223.974121,4218.974121,4221.538574,4223.333496,4218.205078,4233.333496,4214.871582,4236.666504,4203.205078,3576.000000,4.000000,91.000000,,,,0.000000,4.000000,4.000000,4.000000,4.000000,4.000000,4.000000,4.000000,4.000000,4.000000,4.000000,4.000000,4.000000,4.000000,4.000000,100.000000,1.000000,100.000000,4.000000,4.000000,4.000000,4.000000,4.000000,4.000000,4.000000,4.000000,4.000000,4.000000,4.000000,4.000000,4.000000,4.000000
1644852647.607950,177.000000,0.000000,4229.743652,4224.358887,4235.512695,4236.153809,4221.794922,4225.512695,4218.589844,4221.282227,4227.307617,4226.794922,4240.128418,4220.128418,4241.538574,4205.128418,3489.000000,4.000000,91.000000,,,,0.000000,4.000000,4.000000,4.000000,4.000000,4.000000,4.000000,4.000000,4.000000,4.000000,4.000000,4.000000,4.000000,4.000000,4.000000,100.000000,,,,,,,,,,,,,,,,
1644852647.611890,178.000000,0.000000,4235.384766,4226.410156,4236.153809,4244.358887,4220.384766,4225.384766,4220.897461,4221.794922,4229.487305,4232.820313,4243.333496,4223.461426,4244.102539,4212.563965,3516.000000,4.000000,91.000000,,,,0.000000,4.000000,4.000000,4.000000,4.000000,4.000000,4.000000,4.000000,4.000000,4.000000,4.000000,4.000000,4.000000,4.000000,4.000000,100.000000,,,,,,,,,,,,,,,,
1644852647.615830,179.000000,0.000000,4234.487305,4226.794922,4237.179688,4243.205078,4220.641113,4222.179688,4223.333496,4223.077148,4229.230957,4231.794922,4241.282227,4223.846191,4242.563965,4218.846191,3420.000000,4.000000,91.000000,,,,0.000000,4.000000,4.000000,4.000000,4.000000,4.000000,4.000000,4.000000,4.000000,4.000000,4.000000,4.000000,4.000000,4.000000,4.000000,100.000000,,,,,,,,,,,,,,,,
1644852647.619770,180.000000,0.000000,4227.948730,4223.974121,4239.615234,4233.974121,4222.563965,4217.436035,4223.205078,4224.615234,4228.461426,4226.794922,4235.641113,4222.563965,4238.205078,4217.692383,3576.000000,4.000000,91.000000,,,,0.000000,4.000000,4.000000,4.000000,4.000000,4.000000,4.000000,4.000000,4.000000,4.000000,4.000000,4.000000,4.000000,4.000000,4.000000,100.000000,,,,,,,,,,,,,,,,
1644852647.623710,181.000000,0.000000,4220.641113,4218.974121,4242.948730,4224.743652,4225.769043,4214.743652,4221.666504,4226.153809,4229.230957,4224.487305,4230.256348,4221.410156,4233.717773,4209.230957,3489.000000,4.000000,91.000000,,,,0.000000,4.000000,4.000000,4.000000,4.000000,4.000000,4.000000,4.000000,4.000000,4.000000,4.000000,4.000000,4.000000,4.000000,4.000000,100.000000,,,,,,,,,,,,,,,,
1644852647.627651,182.000000,0.000000,4218.077148,4215.256348,4245.000000,4222.820313,4229.358887,4216.794922,4222.051270,4227.563965,4232.179688,4228.974121,4230.000000,4221.282227,4231.794922,4200.000000,3516.000000,4.000000,91.000000,,,,0.000000,4.000000,4.000000,4.000000,4.000000,4.000000,4.000000,4.000000,4.000000,4.000000,4.000000,4.000000,4.000000,4.000000,4.000000,100.000000,,,,,,,,,,,,,,,,
1644852647.631591,183.000000,0.000000,4221.538574,4216.282227,4244.102539,4228.205078,4232.948730,4222.692383,4225.769043,4228.589844,4235.769043,4237.948730,4236.282227,4221.153809,4233.846191,4197.820313,3420.000000,4.000000,91.000000,,,,0.000000,4.000000,4.000000,4.000000,4.000000,4.000000,4.000000,4.000000,4.000000,4.000000,4.000000,4.000000,4.000000,4.000000,4.000000,100.000000,,,,,,,,,,,,,,,,
1644852647.635531,184.000000,0.000000,4227.948730,4222.436035,4239.871582,4234.487305,4236.922852,4228.974121,4229.743652,4228.846191,4237.436035,4244.358887,4245.641113,4220.769043,4238.077148,4204.487305,3576.000000,4.000000,91.000000,,,,0.000000,4.000000,4.000000,4.000000,4.000000,4.000000,4.000000,4.000000,4.000000,4.000000,4.000000,4.000000,4.000000,4.000000,4.000000,100.000000,,,,,,,,,,,,,,,,
1644852647.639471,185.000000,0.000000,4232.051270,4229.871582,4233.077148,4235.384766,4240.769043,4232.051270,4230.128418,4227.948730,4236.410156,4242.692383,4251.153809,4219.871582,4241.666504,4213.846191,3489.000000,4.000000,91.000000,,,,0.000000,4.000000,4.000000,4.000000,4.000000,4.000000,4.000000,4.000000,4.000000,4.000000,4.000000,4.000000,4.000000,4.000000,4.000000,100.000000,,,,,,,,,,,,,,,,
1644852647.643411,186.000000,0.000000,4230.641113,4233.461426,4226.153809,4231.153809,4242.051270,4230.512695,4226.410156,4226.282227,4233.077148,4233.589844,4247.563965,4218.333496,4241.538574,4217.051270,3516.000000,4.000000,91.000000,,,,0.000000,4.000000,4.000000,4.000000,4.000000,4.000000,4.000000,4.000000,4.000000,4.000000,4.000000,4.000000,4.000000,4.000000,4.000000,100.000000,,,,,,,,,,,,,,,,
1644852647.647351,187.000000,0.000000,4224.230957,4230.769043,4221.666504,4226.538574,4238.846191,4226.794922,4222.563965,4225.128418,4229.743652,4224.487305,4235.512695,4215.769043,4237.563965,4210.384766,3420.000000,4.000000,91.000000,,,,0.000000,4.000000,4.000000,4.000000,4.000000,4.000000,4.000000,4.000000,4.000000,4.000000,4.000000,4.000000,4.000000,4.000000,4.000000,100.000000,,,,,,,,,,,,,,,,
1644852647.651291,188.000000,0.000000,4217.051270,4224.230957,4221.538574,4225.897461,4232.179688,4224.615234,4221.922852,4225.641113,4228.846191,4222.436035,4221.794922,4212.179688,4232.179688,4199.358887,3576.000000,4.000000,91.000000,,,,0.000000,4.000000,4.000000,4.000000,4.000000,4.000000,4.000000,4.000000,4.000000,4.000000,4.000000,4.000000,4.000000,4.000000,4.000000,100.000000,,,,,,,,,,,,,,,,
1644852647.655231,189.000000,0.000000,4213.974121,4218.461426,4224.358887,4228.717773,4225.769043,4225.897461,4223.461426,4227.179688,4231.025879,4228.589844,4214.230957,4208.077148,4228.846191,4193.333496,3489.000000,4.000000,91.000000,,,,0.000000,4.000000,4.000000,4.000000,4.000000,4.000000,4.000000,4.000000,4.000000,4.000000,4.000000,4.000000,4.000000,4.000000,4.000000,100.000000,,,,,,,,,,,,,,,,
1644852647.659171,190.000000,0.000000,4216.410156,4216.153809,4226.794922,4231.922852,4223.205078,4229.487305,4224.102539,4228.077148,4235.000000,4236.922852,4216.410156,4205.128418,4229.615234,4197.563965,3516.000000,4.000000,91.000000,,,,0.000000,4.000000,4.000000,4.000000,4.000000,4.000000,4.000000,4.000000,4.000000,4.000000,4.000000,4.000000,4.000000,4.000000,4.000000,100.000000,,,,,,,,,,,,,,,,
1644852647.663111,191.000000,0.000000,4221.666504,4217.307617,4226.794922,4232.820313,4225.897461,4232.563965,4222.948730,4227.820313,4238.077148,4240.384766,4224.487305,4204.871582,4233.589844,4209.230957,3420.000000,4.000000,91.000000,,,,0.000000,4.000000,4.000000,4.000000,4.000000,4.000000,4.000000,4.000000,4.000000,4.000000,4.000000,4.000000,4.000000,4.000000,4.000000,100.000000,,,,,,,,,,,,,,,,
1644852647.667052,192.000000,0.000000,4225.128418,4220.384766,4225.384766,4231.410156,4232.692383,4233.717773,4221.922852,4227.051270,4238.974121,4236.922852,4231.410156,4207.820313,4238.077148,4220.256348,3576.000000,4.000000,91.000000,,,,0.000000,4.000000,4.000000,4.000000,4.000000,4.000000,4.000000,4.000000,4.000000,4.000000,4.000000,4.000000,4.000000,4.000000,4.000000,100.000000,,,,,,,,,,,,,,,,
1644852647.670892,193.000000,0.000000,4224.358887,4224.487305,4225.384766,4229.102539,4241.025879,4234.230957,4223.077148,4227.307617,4237.948730,4230.512695,4231.666504,4212.563965,4240.128418,4222.820313,3489.000000,4.000000,91.000000,,,,0.000000,4.000000,4.000000,4.000000,4.000000,4.000000,4.000000,4.000000,4.000000,4.000000,4.000000,4.000000,4.000000,4.000000,4.000000,100.000000,,,,,,,,,,,,,,,,
1644852647.674832,194.000000,0.000000,4219.871582,4228.846191,4227.436035,4226.153809,4247.948730,4234.871582,4224.615234,4228.333496,4236.025879,4226.153809,4225.769043,4216.794922,4238.717773,4215.128418,3516.000000,4.000000,91.000000,,,,0.000000,4.000000,4.000000,4.000000,4.000000,4.000000,4.000000,4.000000,4.000000,4.000000,4.000000,4.000000,4.000000,4.000000,4.000000,100.000000,,,,,,,,,,,,,,,,
1644852647.678772,195.000000,0.000000,4215.000000,4232.051270,4229.615234,4223.205078,4250.128418,4235.256348,4223.846191,4228.461426,4233.589844,4225.897461,4218.846191,4218.205078,4235.128418,4202.692383,3420.000000,4.000000,91.000000,,,,0.000000,4.000000,4.000000,4.000000,4.000000,4.000000,4.000000,4.000000,4.000000,4.000000,4.000000,4.000000,4.000000,4.000000,4.000000,100.000000,,,,,,,,,,,,,,,,
1644852647.682712,196.000000,0.000000,4213.205078,4232.948730,4229.358887,4221.282227,4246.153809,4234.487305,4220.641113,4226.410156,4230.384766,4227.820313,4216.922852,4215.769043,4231.282227,4194.102539,3576.000000,4.000000,91.000000,,,,0.000000,4.000000,4.000000,4.000000,4.000000,4.000000,4.000000,4.000000,4.000000,4.000000,4.000000,4.000000,4.000000,4.000000,4.000000,100.000000,,,,,,,,,,,,,,,,
1644852647.686652,197.000000,0.000000,4215.641113,4231.410156,4226.282227,4222.179688,4238.589844,4232.307617,4218.589844,4223.461426,4227.307617,4228.589844,4221.538574,4210.128418,4228.974121,4195.384766,3489.000000,4.000000,91.000000,1,1,2,0.000000,4.000000,4.000000,4.000000,4.000000,4.000000,4.000000,4.000000,4.000000,4.000000,4.000000,4.000000,4.000000,4.000000,4.000000,100.000000,,,,,,,,,,,,,,,,
1644852647.690592,198.000000,0.000000,4220.897461,4228.846191,4222.948730,4226.282227,4233.205078,4230.384766,4220.641113,4221.794922,4225.641113,4227.692383,4229.358887,4204.358887,4228.205078,4205.128418,3516.000000,4.000000,91.000000,,,,0.000000,4.000000,4.000000,4.000000,4.000000,4.000000,4.000000,4.000000,4.000000,4.000000,4.000000,4.000000,4.000000,4.000000,4.000000,100.000000,,,,,,,,,,,,,,,,
1644852647.694532,199.000000,0.000000,4226.282227,4227.820313,4222.179688,4231.538574,4234.871582,4230.000000,4225.769043,4223.077148,4226.666504,4227.436035,4235.512695,4203.205078,4228.461426,4214.871582,3420.000000,4.000000,91.000000,,,,0.000000,4.000000,4.000000,4.000000,4.000000,4.000000,4.000000,4.000000,4.000000,4.000000,4.000000,4.000000,4.000000,4.000000,4.000000,100.000000,,,,,,,,,,,,,,,,
1644852647.698473,200.000000,0.000000,4229.871582,4230.000000,4224.871582,4235.128418,4243.205078,4231.922852,4230.000000,4226.794922,4230.128418,4230.384766,4237.436035,4209.615234,4229.230957,4217.051270,3576.000000,4.000000,91.000000,,,,0.000000,4.000000,4.000000,4.000000,4.000000,4.000000,4.000000,4.000000,4.000000,4.000000,4.000000,4.000000,4.000000,4.000000,4.000000,100.000000,,,,,,,,,,,,,,,,
1644852647.702413,201.000000,0.000000,4230.769043,4235.000000,4229.230957,4235.256348,4252.179688,4235.128418,4231.282227,4230.769043,4234.102539,4236.025879,4236.282227,4221.282227,4230.256348,4210.384766,3489.000000,4.000000,91.000000,,,,0.000000,4.000000,4.000000,4.000000,4.000000,4.000000,4.000000,4.000000,4.000000,4.000000,4.000000,4.000000,4.000000,4.000000,4.000000,100.000000,,,,,,,,,,,,,,,,
1644852647.706353,202.000000,0.000000,4228.717773,4238.717773,4231.794922,4232.692383,4254.487305,4237.436035,4230.769043,4232.692383,4236.153809,4240.641113,4234.358887,4231.025879,4230.512695,4200.769043,3516.000000,4.000000,91.000000,,,,0.000000,4.000000,4.000000,4.000000,4.000000,4.000000,4.000000,4.000000,4.000000,4.000000,4.000000,4.000000,4.000000,4.000000,4.000000,100.000000,,,,,,,,,,,,,,,,
1644852647.710393,203.000000,0.000000,4223.974121,4237.436035,4230.384766,4230.769043,4248.077148,4237.051270,4230.512695,4231.410156,4234.871582,4240.769043,4232.692383,4232.051270,4229.230957,4195.641113,3420.000000,4.000000,91.000000,,,,0.000000,4.000000,4.000000,4.000000,4.000000,4.000000,4.000000,4.000000,4.000000,4.000000,4.000000,4.000000,4.000000,4.000000,4.000000,100.000000,,,,,,,,,,,,,,,,
1644852647.714333,204.000000,0.000000,4217.948730,4230.256348,4225.256348,4231.538574,4236.410156,4233.589844,4230.384766,4227.436035,4230.641113,4235.641113,4231.410156,4223.461426,4226.922852,4198.205078,3576.000000,4.000000,91.000000,,,,0.000000,4.000000,4.000000,4.000000,4.000000,4.000000,4.000000,4.000000,4.000000,4.000000,4.000000,4.000000,4.000000,4.000000,4.000000,100.000000,,,,,,,,,,,,,,,,
1644852647.718273,205.000000,0.000000,4212.948730,4220.641113,4219.358887,4233.589844,4226.153809,4228.077148,4228.205078,4222.820313,4225.769043,4228.205078,4230.641113,4211.538574,4225.128418,4205.384766,3489.000000,4.000000,91.000000,,,,0.000000,4.000000,4.000000,4.000000,4.000000,4.000000,4.000000,4.000000,4.000000,4.000000,4.000000,4.000000,4.000000,4.000000,4.000000,100.000000,,,,,,,,,,,,,,,,
1644852647.722213,206.000000,0.000000,4210.641113,4213.205078,4216.666504,4233.461426,4221.794922,4222.051270,4223.974121,4219.871582,4222.051270,4222.948730,4229.615234,4203.846191,4225.641113,4211.153809,3516.000000,4.000000,91.000000,,,,0.000000,4.000000,4.000000,4.000000,4.000000,4.000000,4.000000,4.000000,4.000000,4.000000,4.000000,4.000000,4.000000,4.000000,4.000000,100.000000,,,,,,,,,,,,,,,,
1644852647.726153,207.000000,0.000000,4210.641113,4211.538574,4218.589844,4229.102539,4223.589844,4217.563965,4220.769043,4220.256348,4220.641113,4221.153809,4226.794922,4204.230957,4227.436035,4211.282227,3420.000000,4.000000,91.000000,,,,0.000000,4.000000,4.000000,4.000000,4.000000,4.000000,4.000000,4.000000,4.000000,4.000000,4.000000,4.000000,4.000000,4.000000,4.000000,100.000000,,,,,,,,,,,,,,,,
1644852647.730093,208.000000,0.000000,4212.179688,4214.743652,4222.436035,4223.077148,4228.077148,4215.512695,4221.153809,4223.461426,4220.897461,4220.641113,4221.538574,4210.000000,4228.333496,4205.897461,3576.000000,4.000000,91.000000,,,,0.000000,4.000000,4.000000,4.000000,4.000000,4.000000,4.000000,4.000000,4.000000,4.000000,4.000000,4.000000,4.000000,4.000000,4.000000,100.000000,,,,,,,,,,,,,,,,
1644852647.734033,209.000000,0.000000,4214.615234,4219.230957,4223.717773,4220.384766,4231.025879,4215.897461,4223.589844,4226.538574,4221.794922,4218.205078,4215.256348,4215.769043,4226.153809,4199.615234,3489.000000,4.000000,91.000000,,,,0.000000,4.000000,4.000000,4.000000,4.000000,4.000000,4.000000,4.000000,4.000000,4.000000,4.000000,4.000000,4.000000,4.000000,4.000000,100.000000,,,,,,,,,,,,,,,,
1644852647.737974,210.000000,0.000000,4217.179688,4222.179688,4220.256348,4223.205078,4231.025879,4217.179688,4224.230957,4226.794922,4222.692383,4213.461426,4210.128418,4217.051270,4221.410156,4197.692383,3516.000000,4.000000,91.000000,,,,0.000000,4.000000,4.000000,4.000000,4.000000,4.000000,4.000000,4.000000,4.000000,4.000000,4.000000,4.000000,4.000000,4.000000,4.000000,100.000000,,,,,,,,,,,,,,,,
1644852647.741914,211.000000,0.000000,4218.461426,4222.179688,4214.615234,4228.077148,4229.743652,4217.692383,4221.153809,4223.589844,4222.563965,4209.230957,4207.436035,4213.461426,4215.769043,4201.794922,3420.000000,4.000000,91.000000,,,,0.000000,4.000000,4.000000,4.000000,4.000000,4.000000,4.000000,4.000000,4.000000,4.000000,4.000000,4.000000,4.000000,4.000000,4.000000,100.000000,,,,,,,,,,,,,,,,
1644852647.745854,212.000000,0.000000,4216.922852,4220.000000,4211.794922,4229.102539,4229.358887,4216.410156,4216.794922,4219.102539,4220.641113,4207.692383,4206.794922,4207.820313,4211.153809,4208.077148,3576.000000,4.000000,91.000000,,,,0.000000,4.000000,4.000000,4.000000,4.000000,4.000000,4.000000,4.000000,4.000000,4.000000,4.000000,4.000000,4.000000,4.000000,4.000000,100.000000,,,,,,,,,,,,,,,,
1644852647.749794,213.000000,0.000000,4212.179688,4216.794922,4213.974121,4223.974121,4229.358887,4214.358887,4215.641113,4216.025879,4217.179688,4209.358887,4206.922852,4203.333496,4208.846191,4210.128418,3489.000000,4.000000,91.000000,,,,0.000000,4.000000,4.000000,4.000000,4.000000,4.000000,4.000000,4.000000,4.000000,4.000000,4.000000,4.000000,4.000000,4.000000,4.000000,100.000000,,,,,,,,,,,,,,,,
1644852647.753734,214.000000,0.000000,4206.025879,4213.846191,4218.717773,4216.794922,4228.333496,4213.333496,4219.102539,4214.871582,4213.461426,4213.205078,4207.436035,4201.666504,4209.487305,4204.358887,3516.000000,4.000000,91.000000,,,,0.000000,4.000000,4.000000,4.000000,4.000000,4.000000,4.000000,4.000000,4.000000,4.000000,4.000000,4.000000,4.000000,4.000000,4.000000,100.000000,,,,,,,,,,,,,,,,
1644852647.757674,215.000000,0.000000,4201.666504,4212.051270,4221.153809,4213.846191,4226.153809,4214.871582,4223.846191,4214.743652,4211.538574,4218.205078,4209.230957,4202.179688,4212.820313,4193.846191,3420.000000,4.000000,91.000000,,,,0.000000,4.000000,4.000000,4.000000,4.000000,4.000000,4.000000,4.000000,4.000000,4.000000,4.000000,4.000000,4.000000,4.000000,4.000000,100.000000,,,,,,,,,,,,,,,,
1644852647.761614,216.000000,0.000000,4200.641113,4211.282227,4219.358887,4217.436035,4224.743652,4218.077148,4226.410156,4213.974121,4211.794922,4222.051270,4212.563965,4202.948730,4216.666504,4185.769043,3576.000000,4.000000,91.000000,,,,0.000000,4.000000,4.000000,4.000000,4.000000,4.000000,4.000000,4.000000,4.000000,4.000000,4.000000,4.000000,4.000000,4.000000,4.000000,100.000000,,,,,,,,,,,,,,,,
1644852647.765554,217.000000,0.000000,4201.153809,4210.512695,4214.487305,4224.743652,4225.641113,4220.897461,4226.025879,4212.820313,4212.563965,4221.410156,4216.538574,4202.051270,4217.436035,4185.641113,3489.000000,4.000000,91.000000,,,,0.000000,4.000000,4.000000,4.000000,4.000000,4.000000,4.000000,4.000000,4.000000,4.000000,4.000000,4.000000,4.000000,4.000000,4.000000,100.000000,,,,,,,,,,,,,,,,
1644852647.769494,218.000000,0.000000,4200.641113,4209.102539,4210.000000,4231.410156,4228.846191,4220.897461,4224.102539,4212.051270,4212.179688,4214.358887,4218.333496,4200.000000,4213.589844,4192.051270,3516.000000,4.000000,91.000000,,,,0.000000,4.000000,4.000000,4.000000,4.000000,4.000000,4.000000,4.000000,4.000000,4.000000,4.000000,4.000000,4.000000,4.000000,4.000000,100.000000,,,,,,,,,,,,,,,,
1644852647.773434,219.000000,0.000000,4198.846191,4208.974121,4208.205078,4235.512695,4232.692383,4217.692383,4222.307617,4212.563965,4210.384766,4202.820313,4216.025879,4198.717773,4206.794922,4198.717773,3420.000000,4.000000,91.000000,,,,0.000000,4.000000,4.000000,4.000000,4.000000,4.000000,4.000000,4.000000,4.000000,4.000000,4.000000,4.000000,4.000000,4.000000,4.000000,100.000000,,,,,,,,,,,,,,,,
1644852647.777375,220.000000,0.000000,4197.948730,4212.179688,4209.230957,4237.179688,4235.128418,4214.487305,4221.025879,4214.358887,4209.358887,4192.563965,4210.384766,4199.487305,4201.282227,4200.512695,3576.000000,4.000000,91.000000,,,,0.000000,4.000000,4.000000,4.000000,4.000000,4.000000,4.000000,4.000000,4.000000,4.000000,4.000000,4.000000,4.000000,4.000000,4.000000,100.000000,,,,,,,,,,,,,,,,
1644852647.781315,221.000000,0.000000,4200.128418,4218.846191,4211.538574,4236.538574,4235.512695,4215.000000,4220.641113,4217.436035,4211.282227,4189.743652,4204.871582,4201.666504,4200.384766,4198.077148,3489.000000,4.000000,91.000000,,,,0.000000,4.000000,4.000000,4.000000,4.000000,4.000000,4.000000,4.000000,4.000000,4.000000,4.000000,4.000000,4.000000,4.000000,4.000000,100.000000,,,,,,,,,,,,,,,,
1644852647.785155,222.000000,0.000000,4205.256348,4225.897461,4214.230957,4232.307617,4235.000000,4220.256348,4222.563965,4222.051270,4216.794922,4196.666504,4202.436035,4204.358887,4204.230957,4196.538574,3516.000000,4.000000,91.000000,,,,0.000000,4.000000,4.000000,4.000000,4.000000,4.000000,4.000000,4.000000,4.000000,4.000000,4.000000,4.000000,4.000000,4.000000,4.000000,100.000000,,,,,,,,,,,,,,,,
1644852647.789095,223.000000,0.000000,4211.153809,4229.487305,4216.410156,4224.102539,4234.743652,4226.922852,4226.794922,4227.436035,4223.717773,4210.256348,4204.358887,4207.307617,4211.410156,4200.000000,3420.000000,4.000000,91.000000,2,1,2,0.000000,4.000000,4.000000,4.000000,4.000000,4.000000,4.000000,4.000000,4.000000,4.000000,4.000000,4.000000,4.000000,4.000000,4.000000,100.000000,,,,,,,,,,,,,,,,
1644852647.793035,224.000000,0.000000,4215.000000,4228.974121,4217.948730,4213.717773,4235.000000,4230.512695,4230.512695,4231.922852,4229.871582,4223.846191,4209.487305,4211.153809,4220.256348,4209.230957,3576.000000,4.000000,91.000000,,,,0.000000,4.000000,4.000000,4.000000,4.000000,4.000000,4.000000,4.000000,4.000000,4.000000,4.000000,4.000000,4.000000,4.000000,4.000000,100.000000,,,,,,,,,,,,,,,,
1644852647.796975,225.000000,0.000000,4215.769043,4226.025879,4219.102539,4206.794922,4235.384766,4229.487305,4230.384766,4234.102539,4234.102539,4232.307617,4215.769043,4215.897461,4229.743652,4220.641113,3489.000000,4.000000,91.000000,,,,0.000000,4.000000,4.000000,4.000000,4.000000,4.000000,4.000000,4.000000,4.000000,4.000000,4.000000,4.000000,4.000000,4.000000,4.000000,100.000000,,,,,,,,,,,,,,,,
1644852647.800915,226.000000,0.000000,4214.230957,4223.333496,4220.000000,4208.846191,4235.384766,4225.897461,4226.410156,4233.974121,4235.512695,4235.000000,4221.410156,4219.615234,4237.820313,4228.461426,3516.000000,4.000000,91.000000,,,,0.000000,4.000000,4.000000,4.000000,4.000000,4.000000,4.000000,4.000000,4.000000,4.000000,4.000000,4.000000,4.000000,4.000000,4.000000,100.000000,,,,,,,,,,,,,,,,
1644852647.804855,227.000000,0.000000,4211.794922,4222.051270,4220.512695,4219.743652,4234.615234,4222.563965,4222.436035,4233.461426,4234.358887,4234.487305,4225.256348,4220.641113,4241.025879,4227.948730,3420.000000,4.000000,91.000000,,,,0.000000,4.000000,4.000000,4.000000,4.000000,4.000000,4.000000,4.000000,4.000000,4.000000,4.000000,4.000000,4.000000,4.000000,4.000000,100.000000,,,,,,,,,,,,,,,,
1644852647.808796,228.000000,0.000000,4210.512695,4221.666504,4220.256348,4233.333496,4233.205078,4221.153809,4222.436035,4233.461426,4232.051270,4233.461426,4226.922852,4218.846191,4237.692383,4217.948730,3576.000000,4.000000,91.000000,,,,0.000000,4.000000,4.000000,4.000000,4.000000,4.000000,4.000000,4.000000,4.000000,4.000000,4.000000,4.000000,4.000000,4.000000,4.000000,100.000000,,,,,,,,,,,,,,,,
1644852647.812736,229.000000,0.000000,4211.282227,4221.282227,4218.846191,4241.666504,4232.179688,4221.666504,4225.897461,4233.717773,4230.641113,4233.589844,4227.051270,4216.282227,4229.487305,4203.717773,3489.000000,4.000000,91.000000,,,,0.000000,4.000000,4.000000,4.000000,4.000000,4.000000,4.000000,4.000000,4.000000,4.000000,4.000000,4.000000,4.000000,4.000000,4.000000,100.000000,,,,,,,,,,,,,,,,
1644852647.816676,230.000000,0.000000,4214.230957,4220.897461,4216.922852,4241.410156,4233.333496,4222.692383,4228.461426,4233.205078,4231.282227,4233.974121,4226.794922,4214.743652,4221.282227,4193.077148,3516.000000,4.000000,91.000000,,,,0.000000,4.000000,4.000000,4.000000,4.000000,4.000000,4.000000,4.000000,4.000000,4.000000,4.000000,4.000000,4.000000,4.000000,4.000000,100.000000,,,,,,,,,,,,,,,,
1644852647.820616,231.000000,0.000000,4217.563965,4221.922852,4215.897461,4235.128418,4236.794922,4223.589844,4227.179688,4231.538574,4233.589844,4233.205078,4226.153809,4214.743652,4217.948730,4192.436035,3420.000000,4.000000,91.000000,,,,0.000000,4.000000,4.000000,4.000000,4.000000,4.000000,4.000000,4.000000,4.000000,4.000000,4.000000,4.000000,4.000000,4.000000,4.000000,100.000000,,,,,,,,,,,,,,,,
1644852647.824556,232.000000,0.000000,4219.230957,4224.615234,4216.666504,4228.461426,4241.282227,4224.358887,4224.358887,4229.743652,4235.512695,4230.128418,4225.256348,4215.769043,4221.025879,4201.282227,3576.000000,4.000000,91.000000,,,,0.000000,4.000000,4.000000,4.000000,4.000000,4.000000,4.000000,4.000000,4.000000,4.000000,4.000000,4.000000,4.000000,4.000000,4.000000,100.000000,,,,,,,,,,,,,,,,
1644852647.828496,233.000000,0.000000,4217.948730,4228.077148,4219.102539,4225.256348,4244.102539,4225.256348,4223.846191,4229.615234,4235.128418,4226.410156,4224.615234,4216.666504,4228.333496,4214.230957,3489.000000,4.000000,91.000000,,,,0.000000,4.000000,4.000000,4.000000,4.000000,4.000000,4.000000,4.000000,4.000000,4.000000,4.000000,4.000000,4.000000,4.000000,4.000000,100.000000,,,,,,,,,,,,,,,,
1644852647.832436,234.000000,0.000000,4213.846191,4230.897461,4221.025879,4225.384766,4243.974121,4226.153809,4226.666504,4231.025879,4232.820313,4225.256348,4224.871582,4216.794922,4235.256348,4224.871582,3516.000000,4.000000,91.000000,,,,0.000000,4.000000,4.000000,4.000000,4.000000,4.000000,4.000000,4.000000,4.000000,4.000000,4.000000,4.000000,4.000000,4.000000,4.000000,100.000000,,,,,,,,,,,,,,,,
1644852647.836376,235.000000,0.000000,4209.487305,4231.153809,4221.025879,4225.641113,4241.794922,4226.025879,4229.487305,4232.051270,4230.641113,4228.205078,4225.512695,4216.153809,4238.461426,4229.871582,3420.000000,4.000000,91.000000,,,,0.000000,4.000000,4.000000,4.000000,4.000000,4.000000,4.000000,4.000000,4.000000,4.000000,4.000000,4.000000,4.000000,4.000000,4.000000,100.000000,,,,,,,,,,,,,,,,
1644852647.840316,236.000000,0.000000,4207.692383,4228.589844,4219.102539,4223.717773,4239.230957,4224.230957,4228.974121,4230.769043,4230.384766,4233.077148,4225.000000,4215.128418,4237.179688,4229.230957,3576.000000,4.000000,91.000000,,,,0.000000,4.000000,4.000000,4.000000,4.000000,4.000000,4.000000,4.000000,4.000000,4.000000,4.000000,4.000000,4.000000,4.000000,4.000000,100.000000,,,,,,,,,,,,,,,,
1644852647.844157,237.000000,0.000000,4209.871582,4224.102539,4217.051270,4220.128418,4236.922852,4220.641113,4225.769043,4226.922852,4231.538574,4235.384766,4221.794922,4214.358887,4233.333496,4224.615234,3489.000000,4.000000,91.000000,,,,0.000000,4.000000,4.000000,4.000000,4.000000,4.000000,4.000000,4.000000,4.000000,4.000000,4.000000,4.000000,4.000000,4.000000,4.000000,100.000000,,,,,,,,,,,,,,,,
1644852647.848097,238.000000,0.000000,4214.102539,4219.743652,4215.897461,4216.666504,4233.717773,4216.538574,4223.461426,4222.563965,4231.410156,4232.307617,4216.282227,4214.230957,4230.128418,4217.563965,3516.000000,4.000000,91.000000,,,,0.000000,4.000000,4.000000,4.000000,4.000000,4.000000,4.000000,4.000000,4.000000,4.000000,4.000000,4.000000,4.000000,4.000000,4.000000,100.000000,,,,,,,,,,,,,,,,
1644852647.852037,239.000000,0.000000,4216.153809,4217.563965,4216.025879,4214.487305,4229.102539,4213.974121,4223.846191,4219.871582,4228.461426,4225.641113,4211.025879,4214.487305,4228.717773,4210.512695,3420.000000,4.000000,91.000000,,,,0.000000,4.000000,4.000000,4.000000,4.000000,4.000000,4.000000,4.000000,4.000000,4.000000,4.000000,4.000000,4.000000,4.000000,4.000000,100.000000,,,,,,,,,,,,,,,,
1644852647.855977,240.000000,0.000000,4213.589844,4218.717773,4216.410156,4213.461426,4223.717773,4213.974121,4224.743652,4219.615234,4223.333496,4219.487305,4209.743652,4214.230957,4228.717773,4205.769043,3576.000000,4.000000,91.000000,,,,0.000000,4.000000,4.000000,4.000000,4.000000,4.000000,4.000000,4.000000,4.000000,4.000000,4.000000,4.000000,4.000000,4.000000,4.000000,100.000000,,,,,,,,,,,,,,,,
1644852647.859917,241.000000,0.000000,4207.692383,4221.922852,4216.666504,4214.230957,4220.128418,4216.025879,4223.333496,4221.025879,4219.230957,4217.563965,4214.102539,4213.717773,4228.717773,4203.846191,3489.000000,4.000000,91.000000,,,,0.000000,4.000000,4.000000,4.000000,4.000000,4.000000,4.000000,4.000000,4.000000,4.000000,4.000000,4.000000,4.000000,4.000000,4.000000,100.000000,,,,,,,,,,,,,,,,
1644852647.863857,242.000000,0.000000,4202.948730,4224.871582,4216.538574,4218.461426,4220.769043,4218.205078,4219.871582,4222.692383,4218.589844,4220.256348,4222.307617,4213.846191,4228.205078,4203.205078,3516.000000,4.000000,91.000000,,,,0.000000,4.000000,4.000000,4.000000,4.000000,4.000000,4.000000,4.000000,4.000000,4.000000,4.000000,4.000000,4.000000,4.000000,4.000000,100.000000,,,,,,,,,,,,,,,,
1644852647.867797,243.000000,0.000000,4203.333496,4225.512695,4216.666504,4226.538574,4225.897461,4218.461426,4217.436035,4224.102539,4221.410156,4224.358887,4230.128418,4215.512695,4227.436035,4201.794922,3420.000000,4.000000,91.000000,,,,0.000000,4.000000,4.000000,4.000000,4.000000,4.000000,4.000000,4.000000,4.000000,4.000000,4.000000,4.000000,4.000000,4.000000,4.000000,100.000000,,,,,,,,,,,,,,,,
1644852647.871737,244.000000,0.000000,4208.717773,4223.717773,4217.179688,4234.615234,4233.077148,4216.794922,4218.589844,4225.384766,4225.384766,4225.641113,4233.974121,4218.333496,4226.794922,4200.256348,3576.000000,4.000000,91.000000,,,,0.000000,4.000000,4.000000,4.000000,4.000000,4.000000,4.000000,4.000000,4.000000,4.000000,4.000000,4.000000,4.000000,4.000000,4.000000,100.000000,,,,,,,,,,,,,,,,
1644852647.875677,245.000000,0.000000,4214.358887,4220.641113,4217.692383,4236.794922,4239.102539,4215.128418,4221.922852,4226.922852,4228.205078,4222.692383,4233.077148,4219.871582,4226.282227,4200.897461,3489.000000,4.000000,91.000000,,,,0.000000,4.000000,4.000000,4.000000,4.000000,4.000000,4.000000,4.000000,4.000000,4.000000,4.000000,4.000000,4.000000,4.000000,4.000000,100.000000,,,,,,,,,,,,,,,,
1644852647.879618,246.000000,0.000000,4215.384766,4218.589844,4217.948730,4230.512695,4241.666504,4215.128418,4224.615234,4228.461426,4229.102539,4218.205078,4228.974121,4218.205078,4225.641113,4205.000000,3516.000000,4.000000,91.000000,,,,0.000000,4.000000,4.000000,4.000000,4.000000,4.000000,4.000000,4.000000,4.000000,4.000000,4.000000,4.000000,4.000000,4.000000,4.000000,100.000000,,,,,,,,,,,,,,,,
1644852647.883558,247.000000,0.000000,4210.897461,4218.205078,4217.820313,4219.230957,4240.128418,4216.794922,4225.897461,4229.743652,4229.358887,4216.282227,4224.102539,4213.589844,4224.615234,4210.256348,3420.000000,4.000000,91.000000,,,,0.000000,4.000000,4.000000,4.000000,4.000000,4.000000,4.000000,4.000000,4.000000,4.000000,4.000000,4.000000,4.000000,4.000000,4.000000,100.000000,,,,,,,,,,,,,,,,
1644852647.887498,248.000000,0.000000,4203.974121,4219.230957,4217.436035,4210.512695,4236.282227,4219.230957,4226.794922,4230.256348,4229.615234,4218.846191,4219.743652,4207.820313,4223.846191,4213.717773,3576.000000,4.000000,91.000000,,,,0.000000,4.000000,4.000000,4.000000,4.000000,4.000000,4.000000,4.000000,4.000000,4.000000,4.000000,4.000000,4.000000,4.000000,4.000000,100.000000,,,,,,,,,,,,,,,,
1644852647.891438,249.000000,0.000000,4199.871582,4220.128418,4216.666504,4209.615234,4232.692383,4221.538574,4228.077148,4229.358887,4228.974121,4223.846191,4216.538574,4203.077148,4223.846191,4213.974121,3489.000000,4.000000,91.000000,,,,0.000000,4.000000,4.000000,4.000000,4.000000,4.000000,4.000000,4.000000,4.000000,4.000000,4.000000,4.000000,4.000000,4.000000,4.000000,100.000000,,,,,,,,,,,,,,,,
1644852647.895378,250.000000,0.000000,4200.512695,4219.615234,4215.897461,4215.128418,4231.666504,4222.563965,4228.205078,4226.666504,4226.282227,4227.563965,4214.615234,4200.256348,4224.871582,4212.692383,3516.000000,4.000000,91.000000,,,,0.000000,4.000000,4.000000,4.000000,4.000000,4.000000,4.000000,4.000000,4.000000,4.000000,4.000000,4.000000,4.000000,4.000000,4.000000,100.000000,,,,,,,,,,,,,,,,
1644852647.899318,251.000000,0.000000,4203.589844,4217.820313,4215.256348,4220.512695,4232.436035,4221.794922,4225.512695,4222.307617,4222.179688,4227.563965,4213.333496,4198.974121,4227.307617,4212.563965,3420.000000,4.000000,91.000000,,,,0.000000,4.000000,4.000000,4.000000,4.000000,4.000000,4.000000,4.000000,4.000000,4.000000,4.000000,4.000000,4.000000,4.000000,4.000000,100.000000,,,,,,,,,,,,,,,,
1644852647.903158,252.000000,0.000000,4204.358887,4216.538574,4215.256348,4221.282227,4232.692383,4219.743652,4221.282227,4218.589844,4219.358887,4223.589844,4212.307617,4199.102539,4230.000000,4214.358887,3576.000000,4.000000,91.000000,,,,0.000000,4.000000,4.000000,4.000000,4.000000,4.000000,4.000000,4.000000,4.000000,4.000000,4.000000,4.000000,4.000000,4.000000,4.000000,100.000000,,,,,,,,,,,,,,,,
1644852647.907098,253.000000,0.000000,4201.410156,4217.563965,4216.153809,4218.589844,4230.128418,4217.820313,4218.974121,4217.948730,4219.743652,4218.461426,4211.794922,4200.256348,4231.538574,4216.794922,3489.000000,4.000000,91.000000,,,,0.000000,4.000000,4.000000,4.000000,4.000000,4.000000,4.000000,4.000000,4.000000,4.000000,4.000000,4.000000,4.000000,4.000000,4.000000,100.000000,,,,,,,,,,,,,,,,
1644852647.911038,254.000000,0.000000,4198.461426,4221.153809,4217.563965,4216.922852,4225.384766,4217.179688,4219.871582,4221.153809,4222.692383,4216.666504,4211.666504,4202.820313,4230.384766,4217.436035,3516.000000,4.000000,91.000000,,,,0.000000,4.000000,4.000000,4.000000,4.000000,4.000000,4.000000,4.000000,4.000000,4.000000,4.000000,4.000000,4.000000,4.000000,4.000000,100.000000,,,,,,,,,,,,,,,,
1644852647.914979,255.000000,0.000000,4201.538574,4225.641113,4218.589844,4217.948730,4222.307617,4217.436035,4221.794922,4225.897461,4226.282227,4219.871582,4212.436035,4206.794922,4226.922852,4214.743652,114.000000,4.000000,91.000000,,,,0.000000,4.000000,4.000000,4.000000,4.000000,4.000000,4.000000,4.000000,4.000000,4.000000,4.000000,4.000000,4.000000,4.000000,4.000000,100.000000,,,,,,,,,,,,,,,,
1644852647.918919,0.000000,0.000000,4211.410156,4228.077148,4218.589844,4220.128418,4224.871582,4217.563965,4221.922852,4228.717773,4228.589844,4225.384766,4215.256348,4212.179688,4223.333496,4208.589844,3418.000000,4.000000,91.000000,,,,0.000000,4.000000,4.000000,4.000000,4.000000,4.000000,4.000000,4.000000,4.000000,4.000000,4.000000,4.000000,4.000000,4.000000,4.000000,100.000000,,,,,,,,,,,,,,,,
1644852647.922859,1.000000,0.000000,4222.563965,4226.666504,4217.692383,4221.153809,4232.820313,4216.794922,4220.384766,4227.692383,4228.589844,4228.205078,4220.769043,4217.820313,4221.025879,4200.897461,3287.000000,4.000000,91.000000,,,,0.000000,4.000000,4.000000,4.000000,4.000000,4.000000,4.000000,4.000000,4.000000,4.000000,4.000000,4.000000,4.000000,4.000000,4.000000,100.000000,,,,,,,,,,,,,,,,
1644852647.926799,2.000000,0.000000,4226.794922,4221.922852,4216.538574,4220.512695,4240.897461,4215.897461,4219.487305,4223.846191,4226.794922,4225.000000,4226.922852,4220.769043,4219.615234,4195.256348,3589.000000,4.000000,91.000000,,,,0.000000,4.000000,4.000000,4.000000,4.000000,4.000000,4.000000,4.000000,4.000000,4.000000,4.000000,4.000000,4.000000,4.000000,4.000000,100.000000,,,,,,,,,,,,,,,,
1644852647.930739,3.000000,0.000000,4221.025879,4216.153809,4215.641113,4219.230957,4243.077148,4215.128418,4221.025879,4220.128418,4225.000000,4217.307617,4229.871582,4218.717773,4218.461426,4195.000000,3510.000000,4.000000,91.000000,,,,0.000000,4.000000,4.000000,4.000000,4.000000,4.000000,4.000000,4.000000,4.000000,4.000000,4.000000,4.000000,4.000000,4.000000,4.000000,100.000000,,,,,,,,,,,,,,,,
1644852647.934679,4.000000,0.000000,4209.102539,4212.436035,4215.128418,4217.692383,4237.436035,4214.487305,4222.563965,4218.205078,4224.358887,4210.384766,4227.179688,4211.666504,4218.461426,4200.512695,3208.000000,4.000000,91.000000,,,,0.000000,4.000000,4.000000,4.000000,4.000000,4.000000,4.000000,4.000000,4.000000,4.000000,4.000000,4.000000,4.000000,4.000000,4.000000,100.000000,,,,,,,,,,,,,,,,
1644852647.938619,5.000000,0.000000,4198.205078,4211.666504,4214.871582,4214.871582,4227.307617,4214.102539,4221.410156,4218.205078,4225.000000,4209.487305,4220.384766,4203.333496,4220.769043,4207.051270,3310.000000,4.000000,91.000000,,,,0.000000,4.000000,4.000000,4.000000,4.000000,4.000000,4.000000,4.000000,4.000000,4.000000,4.000000,4.000000,4.000000,4.000000,4.000000,100.000000,,,,,,,,,,,,,,,,
1644852647.942559,6.000000,0.000000,4193.589844,4212.948730,4214.615234,4210.512695,4218.461426,4214.615234,4217.948730,4219.230957,4225.641113,4215.641113,4213.974121,4198.461426,4224.615234,4208.461426,2172.000000,4.000000,91.000000,,,,0.000000,4.000000,4.000000,4.000000,4.000000,4.000000,4.000000,4.000000,4.000000,4.000000,4.000000,4.000000,4.000000,4.000000,4.000000,100.000000,,,,,,,,,,,,,,,,
1644852647.946499,7.000000,0.000000,4195.769043,4215.256348,4215.128418,4206.025879,4215.641113,4216.153809,4215.769043,4220.769043,4225.641113,4224.743652,4211.025879,4199.743652,4227.179688,4201.666504,3012.000000,4.000000,91.000000,,,,0.000000,4.000000,4.000000,4.000000,4.000000,4.000000,4.000000,4.000000,4.000000,4.000000,4.000000,4.000000,4.000000,4.000000,4.000000,100.000000,,,,,,,,,,,,,,,,
1644852647.950440,8.000000,0.000000,4201.794922,4218.333496,4216.282227,4204.358887,4221.153809,4218.461426,4217.563965,4222.692383,4225.512695,4230.512695,4212.436035,4205.512695,4226.153809,4190.000000,3056.000000,4.000000,91.000000,,,,0.000000,4.000000,4.000000,4.000000,4.000000,4.000000,4.000000,4.000000,4.000000,4.000000,4.000000,4.000000,4.000000,4.000000,4.000000,100.000000,,,,,,,,,,,,,,,,
1644852647.954380,9.000000,0.000000,4208.077148,4222.820313,4217.563965,4207.051270,4232.307617,4221.153809,4221.666504,4224.487305,4226.794922,4231.153809,4217.051270,4210.769043,4222.948730,4180.641113,3543.000000,4.000000,91.000000,,,,0.000000,4.000000,4.000000,4.000000,4.000000,4.000000,4.000000,4.000000,4.000000,4.000000,4.000000,4.000000,4.000000,4.000000,4.000000,100.000000,,,,,,,,,,,,,,,,
1644852647.958320,10.000000,0.000000,4212.307617,4228.589844,4217.692383,4212.820313,4243.205078,4223.589844,4224.230957,4225.256348,4229.743652,4229.358887,4223.077148,4211.666504,4221.666504,4180.512695,3515.000000,4.000000,91.000000,,,,0.000000,4.000000,4.000000,4.000000,4.000000,4.000000,4.000000,4.000000,4.000000,4.000000,4.000000,4.000000,4.000000,4.000000,4.000000,100.000000,,,,,,,,,,,,,,,,
1644852647.962260,11.000000,0.000000,4214.615234,4233.717773,4216.538574,4218.205078,4246.538574,4225.256348,4223.589844,4225.128418,4233.077148,4228.333496,4227.820313,4208.077148,4225.000000,4191.410156,3168.000000,4.000000,91.000000,,,,0.000000,4.000000,4.000000,4.000000,4.000000,4.000000,4.000000,4.000000,4.000000,4.000000,4.000000,4.000000,4.000000,4.000000,4.000000,100.000000,,,,,,,,,,,,,,,,
1644852647.966200,12.000000,0.000000,4215.641113,4235.512695,4216.153809,4220.384766,4239.871582,4225.256348,4222.179688,4225.128418,4234.358887,4228.077148,4228.077148,4202.563965,4231.025879,4208.205078,3518.000000,4.000000,91.000000,,,,0.000000,4.000000,4.000000,4.000000,4.000000,4.000000,4.000000,4.000000,4.000000,4.000000,4.000000,4.000000,4.000000,4.000000,4.000000,100.000000,,,,,,,,,,,,,,,,
1644852647.970040,13.000000,0.000000,4216.025879,4232.179688,4218.461426,4220.000000,4227.307617,4223.461426,4222.948730,4225.384766,4232.436035,4226.153809,4222.436035,4199.102539,4235.897461,4221.538574,3484.000000,4.000000,91.000000,,,,0.000000,4.000000,4.000000,4.000000,4.000000,4.000000,4.000000,4.000000,4.000000,4.000000,4.000000,4.000000,4.000000,4.000000,4.000000,100.000000,,,,,,,,,,,,,,,,
1644852647.973980,14.000000,0.000000,4215.641113,4225.384766,4222.948730,4219.358887,4218.077148,4221.153809,4225.256348,4225.641113,4228.717773,4222.820313,4213.205078,4200.000000,4236.282227,4223.077148,3515.000000,4.000000,91.000000,,,,0.000000,4.000000,4.000000,4.000000,4.000000,4.000000,4.000000,4.000000,4.000000,4.000000,4.000000,4.000000,4.000000,4.000000,4.000000,100.000000,,,,,,,,,,,,,,,,
1644852647.977920,15.000000,0.000000,4213.974121,4219.358887,4226.025879,4220.384766,4219.871582,4220.000000,4226.538574,4225.256348,4226.025879,4220.897461,4206.410156,4204.230957,4232.179688,4212.051270,3168.000000,4.000000,91.000000,,,,0.000000,4.000000,4.000000,4.000000,4.000000,4.000000,4.000000,4.000000,4.000000,4.000000,4.000000,4.000000,4.000000,4.000000,4.000000,100.000000,,,,,,,,,,,,,,,,
1644852647.981860,16.000000,0.000000,4210.512695,4217.563965,4224.358887,4222.820313,4232.307617,4221.153809,4225.512695,4225.000000,4225.769043,4222.692383,4207.307617,4208.205078,4226.410156,4195.256348,3518.000000,4.000000,91.000000,,,,0.000000,4.000000,4.000000,4.000000,4.000000,4.000000,4.000000,4.000000,4.000000,4.000000,4.000000,4.000000,4.000000,4.000000,4.000000,100.000000,,,,,,,,,,,,,,,,
1644852647.985801,17.000000,0.000000,4205.512695,4219.743652,4218.077148,4223.974121,4246.922852,4224.102539,4223.846191,4225.384766,4227.307617,4227.307617,4215.384766,4208.717773,4222.179688,4182.820313,3484.000000,4.000000,91.000000,,,,0.000000,4.000000,4.000000,4.000000,4.000000,4.000000,4.000000,4.000000,4.000000,4.000000,4.000000,4.000000,4.000000,4.000000,4.000000,100.000000,,,,,,,,,,,,,,,,
1644852647.989741,18.000000,0.000000,4199.615234,4222.692383,4211.153809,4222.051270,4252.820313,4227.436035,4224.230957,4226.538574,4228.846191,4230.512695,4225.000000,4205.641113,4221.025879,4179.487305,3515.000000,4.000000,91.000000,,,,0.000000,4.000000,4.000000,4.000000,4.000000,4.000000,4.000000,4.000000,4.000000,4.000000,4.000000,4.000000,4.000000,4.000000,4.000000,100.000000,,,,,,,,,,,,,,,,
1644852647.993681,19.000000,0.000000,4194.743652,4223.461426,4208.205078,4218.461426,4246.153809,4229.615234,4226.282227,4227.948730,4230.000000,4229.358887,4229.487305,4201.025879,4222.436035,4182.692383,3168.000000,4.000000,91.000000,,,,0.000000,4.000000,4.000000,4.000000,4.000000,4.000000,4.000000,4.000000,4.000000,4.000000,4.000000,4.000000,4.000000,4.000000,4.000000,100.000000,,,,,,,,,,,,,,,,
1644852647.997621,20.000000,0.000000,4193.333496,4221.922852,4210.256348,4215.512695,4232.948730,4230.256348,4227.692383,4228.717773,4231.025879,4224.615234,4225.769043,4198.077148,4223.974121,4185.897461,3518.000000,4.000000,91.000000,,,,0.000000,4.000000,4.000000,4.000000,4.000000,4.000000,4.000000,4.000000,4.000000,4.000000,4.000000,4.000000,4.000000,4.000000,4.000000,100.000000,,,,,,,,,,,,,,,,
1644852648.001661,21.000000,0.000000,4196.922852,4219.871582,4214.871582,4214.358887,4223.846191,4230.128418,4227.307617,4228.589844,4232.307617,4220.384766,4216.025879,4198.077148,4223.205078,4185.128418,3484.000000,4.000000,91.000000,,,,0.000000,4.000000,4.000000,4.000000,4.000000,4.000000,4.000000,4.000000,4.000000,4.000000,4.000000,4.000000,4.000000,4.000000,4.000000,100.000000,,,,,,,,,,,,,,,,
1644852648.005601,22.000000,0.000000,4204.358887,4219.102539,4218.333496,4214.102539,4225.769043,4229.743652,4226.666504,4228.205078,4233.205078,4219.230957,4206.153809,4200.512695,4219.871582,4181.666504,3515.000000,4.000000,91.000000,,,,0.000000,4.000000,4.000000,4.000000,4.000000,4.000000,4.000000,4.000000,4.000000,4.000000,4.000000,4.000000,4.000000,4.000000,4.000000,100.000000,,,,,,,,,,,,,,,,
1644852648.009541,23.000000,0.000000,4212.307617,4220.256348,4218.974121,4213.461426,4236.538574,4229.615234,4227.563965,4229.230957,4233.205078,4220.128418,4202.307617,4203.717773,4217.051270,4180.641113,3168.000000,4.000000,91.000000,,,,0.000000,4.000000,4.000000,4.000000,4.000000,4.000000,4.000000,4.000000,4.000000,4.000000,4.000000,4.000000,4.000000,4.000000,4.000000,100.000000,,,,,,,,,,,,,,,,
1644852648.013481,24.000000,0.000000,4217.692383,4223.717773,4217.948730,4213.461426,4248.717773,4230.897461,4229.230957,4232.051270,4233.205078,4220.897461,4207.436035,4206.538574,4218.846191,4185.512695,3518.000000,4.000000,91.000000,,,,0.000000,4.000000,4.000000,4.000000,4.000000,4.000000,4.000000,4.000000,4.000000,4.000000,4.000000,4.000000,4.000000,4.000000,4.000000,100.000000,,,,,,,,,,,,,,,,
1644852648.017421,25.000000,0.000000,4220.769043,4229.358887,4218.205078,4216.025879,4255.128418,4233.589844,4229.871582,4235.769043,4235.128418,4221.153809,4218.077148,4208.333496,4227.051270,4195.512695,3484.000000,4.000000,91.000000,,,,0.000000,4.000000,4.000000,4.000000,4.000000,4.000000,4.000000,4.000000,4.000000,4.000000,4.000000,4.000000,4.000000,4.000000,4.000000,100.000000,,,,,,,,,,,,,,,,
1644852648.021361,26.000000,0.000000,4222.692383,4236.025879,4221.794922,4220.769043,4253.846191,4236.794922,4228.461426,4238.589844,4239.102539,4221.922852,4226.282227,4209.358887,4238.333496,4205.769043,3515.000000,4.000000,91.000000,,,,0.000000,4.000000,4.000000,4.000000,4.000000,4.000000,4.000000,4.000000,4.000000,4.000000,4.000000,4.000000,4.000000,4.000000,4.000000,100.000000,,,,,,,,,,,,,,,,
1644852648.025302,27.000000,0.000000,4223.461426,4240.384766,4227.692383,4224.230957,4248.461426,4238.205078,4227.436035,4240.128418,4243.333496,4224.102539,4226.025879,4209.358887,4247.179688,4210.128418,3168.000000,4.000000,91.000000,,,,0.000000,4.000000,4.000000,4.000000,4.000000,4.000000,4.000000,4.000000,4.000000,4.000000,4.000000,4.000000,4.000000,4.000000,4.000000,100.000000,,,,,,,,,,,,,,,,
1644852648.029242,28.000000,0.000000,4221.025879,4238.974121,4232.692383,4223.205078,4244.615234,4237.179688,4228.974121,4240.769043,4245.897461,4228.077148,4218.717773,4208.461426,4248.974121,4206.538574,3518.000000,4.000000,91.000000,,,,0.000000,4.000000,4.000000,4.000000,4.000000,4.000000,4.000000,4.000000,4.000000,4.000000,4.000000,4.000000,4.000000,4.000000,4.000000,100.000000,,,,,,,,,,,,,,,,
1644852648.033182,29.000000,0.000000,4214.615234,4231.922852,4234.102539,4218.589844,4244.871582,4235.897461,4232.179688,4241.025879,4245.769043,4233.077148,4211.538574,4207.051270,4244.230957,4198.205078,3484.000000,4.000000,91.000000,,,,0.000000,4.000000,4.000000,4.000000,4.000000,4.000000,4.000000,4.000000,4.000000,4.000000,4.000000,4.000000,4.000000,4.000000,4.000000,100.000000,,,,,,,,,,,,,,,,
1644852648.037122,30.000000,0.000000,4207.436035,4223.846191,4231.922852,4215.256348,4247.948730,4237.051270,4233.589844,4240.641113,4243.974121,4237.307617,4210.769043,4207.179688,4237.692383,4191.794922,3515.000000,4.000000,91.000000,,,,0.000000,4.000000,4.000000,4.000000,4.000000,4.000000,4.000000,4.000000,4.000000,4.000000,4.000000,4.000000,4.000000,4.000000,4.000000,100.000000,,,,,,,,,,,,,,,,
1644852648.041062,31.000000,0.000000,4205.384766,4220.897461,4228.974121,4217.563965,4250.384766,4240.384766,4231.538574,4240.000000,4242.179688,4239.102539,4216.666504,4209.871582,4235.000000,4192.051270,3168.000000,4.000000,91.000000,,,,0.000000,4.000000,4.000000,4.000000,4.000000,4.000000,4.000000,4.000000,4.000000,4.000000,4.000000,4.000000,4.000000,4.000000,4.000000,100.000000,,,,,,,,,,,,,,,,
1644852648.045002,32.000000,0.000000,4211.410156,4225.897461,4228.205078,4225.256348,4250.384766,4243.205078,4228.717773,4239.615234,4241.410156,4238.333496,4224.615234,4214.871582,4238.846191,4198.461426,0.000000,4.000000,91.000000,,,,0.000000,4.000000,4.000000,4.000000,4.000000,4.000000,4.000000,4.000000,4.000000,4.000000,4.000000,4.000000,4.000000,4.000000,4.000000,100.000000,,,,,,,,,,,,,,,,
1644852648.048942,33.000000,0.000000,4222.436035,4235.897461,4231.282227,4233.717773,4248.974121,4243.717773,4228.846191,4240.641113,4242.436035,4237.179688,4229.487305,4220.384766,4247.820313,4206.410156,0.000000,4.000000,91.000000,,,,0.000000,4.000000,4.000000,4.000000,4.000000,4.000000,4.000000,4.000000,4.000000,4.000000,4.000000,4.000000,4.000000,4.000000,4.000000,100.000000,,,,,,,,,,,,,,,,
1644852648.052882,34.000000,0.000000,4231.922852,4245.000000,4236.282227,4237.692383,4248.461426,4242.563965,4232.179688,4243.205078,4245.128418,4238.589844,4230.769043,4224.743652,4257.948730,4211.025879,0.000000,4.000000,91.000000,,,,0.000000,4.000000,4.000000,4.000000,4.000000,4.000000,4.000000,4.000000,4.000000,4.000000,4.000000,4.000000,4.000000,4.000000,4.000000,100.000000,,,,,,,,,,,,,,,,
1644852648.056822,35.000000,0.000000,4234.615234,4247.820313,4239.487305,4235.256348,4249.615234,4241.153809,4235.128418,4245.641113,4248.717773,4242.820313,4231.025879,4226.666504,4265.384766,4211.153809,0.000000,4.000000,91.000000,,,,0.000000,4.000000,4.000000,4.000000,4.000000,4.000000,4.000000,4.000000,4.000000,4.000000,4.000000,4.000000,4.000000,4.000000,4.000000,100.000000,,,,,,,,,,,,,,,,
1644852648.060762,36.000000,0.000000,4230.769043,4243.333496,4238.077148,4229.102539,4250.128418,4240.128418,4234.615234,4246.410156,4251.538574,4246.922852,4232.563965,4225.897461,4267.179688,4208.461426,0.000000,4.000000,91.000000,,,,0.000000,4.000000,4.000000,4.000000,4.000000,4.000000,4.000000,4.000000,4.000000,4.000000,4.000000,4.000000,4.000000,4.000000,4.000000,100.000000,,,,,,,,,,,,,,,,
1644852648.064703,37.000000,0.000000,4224.102539,4234.615234,4232.436035,4223.077148,4246.666504,4239.358887,4231.538574,4244.743652,4252.051270,4246.922852,4235.641113,4222.692383,4263.205078,4204.743652,0.000000,4.000000,91.000000,,,,0.000000,4.000000,4.000000,4.000000,4.000000,4.000000,4.000000,4.000000,4.000000,4.000000,4.000000,4.000000,4.000000,4.000000,4.000000,100.000000,,,,,,,,,,,,,,,,
1644852648.068643,38.000000,0.000000,4218.974121,4226.153809,4226.025879,4219.358887,4239.358887,4238.205078,4230.000000,4241.794922,4249.487305,4241.794922,4238.461426,4218.077148,4256.025879,4200.256348,0.000000,4.000000,91.000000,,,,0.000000,4.000000,4.000000,4.000000,4.000000,4.000000,4.000000,4.000000,4.000000,4.000000,4.000000,4.000000,4.000000,4.000000,4.000000,100.000000,,,,,,,,,,,,,,,,
1644852648.072483,39.000000,0.000000,4216.666504,4221.282227,4222.563965,4217.436035,4232.563965,4237.307617,4231.666504,4239.358887,4245.512695,4234.230957,4239.871582,4213.717773,4249.871582,4194.743652,0.000000,4.000000,91.000000,,,,0.000000,4.000000,4.000000,4.000000,4.000000,4.000000,4.000000,4.000000,4.000000,4.000000,4.000000,4.000000,4.000000,4.000000,4.000000,100.000000,,,,,,,,,,,,,,,,
1644852648.076423,40.000000,0.000000,4216.410156,4220.512695,4223.205078,4216.410156,4232.307617,4237.692383,4234.230957,4239.230957,4243.077148,4229.102539,4239.487305,4211.794922,4248.461426,4190.256348,0.000000,4.000000,91.000000,,,,0.000000,4.000000,4.000000,4.000000,4.000000,4.000000,4.000000,4.000000,4.000000,4.000000,4.000000,4.000000,4.000000,4.000000,4.000000,100.000000,,,,,,,,,,,,,,,,
1644852648.080363,41.000000,0.000000,4216.538574,4221.922852,4226.153809,4216.025879,4240.512695,4240.128418,4234.871582,4241.153809,4244.615234,4229.102539,4238.333496,4213.077148,4252.563965,4190.128418,0.000000,4.000000,91.000000,,,,0.000000,4.000000,4.000000,4.000000,4.000000,4.000000,4.000000,4.000000,4.000000,4.000000,4.000000,4.000000,4.000000,4.000000,4.000000,100.000000,,,,,,,,,,,,,,,,
1644852648.084303,42.000000,0.000000,4216.922852,4223.461426,4228.461426,4216.794922,4253.205078,4244.102539,4233.974121,4244.487305,4249.487305,4233.333496,4237.692383,4216.666504,4259.358887,4195.512695,0.000000,4.000000,91.000000,,,,0.000000,4.000000,4.000000,4.000000,4.000000,4.000000,4.000000,4.000000,4.000000,4.000000,4.000000,4.000000,4.000000,4.000000,4.000000,100.000000,,,,,,,,,,,,,,,,
1644852648.088243,43.000000,0.000000,4218.333496,4224.487305,4228.717773,4218.589844,4262.692383,4247.436035,4233.974121,4247.692383,4254.487305,4239.487305,4238.589844,4219.871582,4263.717773,4205.000000,0.000000,4.000000,91.000000,,,,0.000000,4.000000,4.000000,4.000000,4.000000,4.000000,4.000000,4.000000,4.000000,4.000000,4.000000,4.000000,4.000000,4.000000,4.000000,100.000000,,,,,,,,,,,,,,,,
1644852648.092084,44.000000,0.000000,4221.666504,4225.512695,4227.563965,4220.384766,4263.077148,4248.461426,4235.769043,4249.487305,4256.666504,4245.384766,4240.512695,4220.769043,4263.077148,4214.102539,0.000000,4.000000,91.000000,,,,0.000000,4.000000,4.000000,4.000000,4.000000,4.000000,4.000000,4.000000,4.000000,4.000000,4.000000,4.000000,4.000000,4.000000,4.000000,100.000000,,,,,,,,,,,,,,,,
1644852648.096024,45.000000,0.000000,4225.897461,4226.922852,4226.538574,4221.282227,4254.615234,4246.410156,4237.051270,4248.717773,4255.000000,4250.641113,4242.436035,4219.230957,4258.717773,4218.974121,0.000000,4.000000,91.000000,,,,0.000000,4.000000,4.000000,4.000000,4.000000,4.000000,4.000000,4.000000,4.000000,4.000000,4.000000,4.000000,4.000000,4.000000,4.000000,100.000000,,,,,,,,,,,,,,,,
1644852648.099964,46.000000,0.000000,4227.948730,4228.077148,4226.794922,4222.051270,4242.563965,4241.922852,4235.512695,4245.000000,4250.769043,4254.230957,4242.307617,4216.666504,4254.615234,4217.436035,0.000000,4.000000,91.000000,,,,0.000000,4.000000,4.000000,4.000000,4.000000,4.000000,4.000000,4.000000,4.000000,4.000000,4.000000,4.000000,4.000000,4.000000,4.000000,100.000000,,,,,,,,,,,,,,,,
1644852648.103904,47.000000,0.000000,4225.641113,4227.692383,4227.948730,4225.128418,4234.230957,4236.922852,4231.922852,4240.256348,4245.897461,4255.128418,4238.974121,4214.487305,4253.846191,4210.897461,0.000000,4.000000,91.000000,,,,0.000000,4.000000,4.000000,4.000000,4.000000,4.000000,4.000000,4.000000,4.000000,4.000000,4.000000,4.000000,4.000000,4.000000,4.000000,100.000000,,,,,,,,,,,,,,,,
1644852648.107844,48.000000,0.000000,4220.384766,4226.282227,4229.230957,4230.641113,4233.333496,4233.333496,4229.358887,4236.410156,4242.948730,4253.077148,4232.820313,4214.230957,4256.410156,4202.692383,0.000000,4.000000,91.000000,,,,0.000000,4.000000,4.000000,4.000000,4.000000,4.000000,4.000000,4.000000,4.000000,4.000000,4.000000,4.000000,4.000000,4.000000,4.000000,100.000000,1.000000,100.000000,4.000000,4.000000,4.000000,4.000000,4.000000,4.000000,4.000000,4.000000,4.000000,4.000000,4.000000,4.000000,4.000000,4.000000
1644852648.111784,49.000000,0.000000,4216.153809,4226.538574,4230.641113,4235.512695,4238.589844,4232.051270,4229.487305,4234.743652,4242.692383,4250.000000,4226.282227,4216.666504,4259.871582,4197.179688,0.000000,4.000000,91.000000,,,,0.000000,4.000000,4.000000,4.000000,4.000000,4.000000,4.000000,4.000000,4.000000,4.000000,4.000000,4.000000,4.000000,4.000000,4.000000,100.000000,,,,,,,,,,,,,,,,
1644852648.115624,50.000000,0.000000,4216.794922,4229.871582,4232.692383,4236.153809,4245.384766,4232.436035,4230.641113,4235.256348,4244.871582,4248.333496,4222.692383,4222.436035,4261.922852,4196.153809,0.000000,4.000000,91.000000,,,,0.000000,4.000000,4.000000,4.000000,4.000000,4.000000,4.000000,4.000000,4.000000,4.000000,4.000000,4.000000,4.000000,4.000000,4.000000,100.000000,,,,,,,,,,,,,,,,
1644852648.119564,51.000000,0.000000,4221.922852,4235.000000,4234.871582,4231.794922,4249.102539,4232.692383,4230.256348,4237.179688,4247.948730,4248.461426,4223.205078,4230.000000,4262.051270,4198.846191,0.000000,4.000000,91.000000,,,,0.000000,4.000000,4.000000,4.000000,4.000000,4.000000,4.000000,4.000000,4.000000,4.000000,4.000000,4.000000,4.000000,4.000000,4.000000,100.000000,,,,,,,,,,,,,,,,
1644852648.123504,52.000000,0.000000,4227.820313,4238.333496,4236.410156,4226.410156,4248.205078,4231.666504,4228.717773,4238.974121,4250.256348,4247.820313,4227.051270,4235.897461,4260.897461,4203.205078,0.000000,4.000000,91.000000,,,,0.000000,4.000000,4.000000,4.000000,4.000000,4.000000,4.000000,4.000000,4.000000,4.000000,4.000000,4.000000,4.000000,4.000000,4.000000,100.000000,,,,,,,,,,,,,,,,
1644852648.127445,53.000000,0.000000,4230.384766,4237.179688,4237.179688,4225.000000,4243.717773,4230.384766,4228.333496,4239.743652,4249.743652,4243.846191,4230.897461,4236.666504,4259.615234,4208.077148,0.000000,4.000000,91.000000,,,,0.000000,4.000000,4.000000,4.000000,4.000000,4.000000,4.000000,4.000000,4.000000,4.000000,4.000000,4.000000,4.000000,4.000000,4.000000,100.000000,,,,,,,,,,,,,,,,
1644852648.131385,54.000000,0.000000,4228.974121,4232.820313,4237.307617,4228.205078,4238.589844,4229.871582,4230.256348,4238.974121,4246.282227,4236.794922,4232.179688,4231.538574,4259.102539,4213.461426,0.000000,4.000000,91.000000,,,,0.000000,4.000000,4.000000,4.000000,4.000000,4.000000,4.000000,4.000000,4.000000,4.000000,4.000000,4.000000,4.000000,4.000000,4.000000,100.000000,,,,,,,,,,,,,,,,
1644852648.135325,55.000000,0.000000,4226.410156,4228.461426,4237.051270,4231.538574,4236.153809,4230.512695,4232.692383,4237.051270,4241.282227,4230.000000,4231.666504,4224.102539,4258.717773,4218.205078,0.000000,4.000000,91.000000,,,,0.000000,4.000000,4.000000,4.000000,4.000000,4.000000,4.000000,4.000000,4.000000,4.000000,4.000000,4.000000,4.000000,4.000000,4.000000,100.000000,,,,,,,,,,,,,,,,
1644852648.139265,56.000000,0.000000,4225.641113,4226.666504,4237.051270,4229.487305,4238.077148,4231.794922,4233.461426,4235.000000,4237.820313,4227.948730,4232.179688,4219.230957,4257.563965,4220.128418,0.000000,4.000000,91.000000,,,,0.000000,4.000000,4.000000,4.000000,4.000000,4.000000,4.000000,4.000000,4.000000,4.000000,4.000000,4.000000,4.000000,4.000000,4.000000,100.000000,,,,,,,,,,,,,,,,
1644852648.143205,57.000000,0.000000,4227.820313,4227.307617,4237.563965,4221.538574,4241.794922,4233.077148,4233.077148,4233.974121,4237.051270,4231.282227,4234.871582,4219.358887,4255.897461,4217.692383,0.000000,4.000000,91.000000,,,,0.000000,4.000000,4.000000,4.000000,4.000000,4.000000,4.000000,4.000000,4.000000,4.000000,4.000000,4.000000,4.000000,4.000000,4.000000,100.000000,,,,,,,,,,,,,,,,
1644852648.147145,58.000000,0.000000,4232.051270,4228.974121,4238.717773,4213.846191,4243.077148,4233.846191,4233.205078,4234.358887,4238.205078,4237.563965,4238.333496,4222.820313,4256.025879,4212.948730,0.000000,4.000000,91.000000,,,,0.000000,4.000000,4.000000,4.000000,4.000000,4.000000,4.000000,4.000000,4.000000,4.000000,4.000000,4.000000,4.000000,4.000000,4.000000,100.000000,,,,,,,,,,,,,,,,
1644852648.151085,59.000000,0.000000,4237.692383,4230.512695,4240.128418,4214.487305,4239.871582,4233.974121,4234.358887,4235.769043,4239.487305,4242.948730,4240.000000,4225.641113,4260.000000,4210.384766,0.000000,4.000000,91.000000,,,,0.000000,4.000000,4.000000,4.000000,4.000000,4.000000,4.000000,4.000000,4.000000,4.000000,4.000000,4.000000,4.000000,4.000000,4.000000,100.000000,,,,,,,,,,,,,,,,
1644852648.155025,60.000000,0.000000,4242.820313,4231.794922,4240.641113,4225.897461,4234.743652,4233.589844,4234.230957,4236.538574,4240.384766,4245.641113,4238.461426,4225.384766,4266.666504,4213.205078,0.000000,4.000000,91.000000,,,,0.000000,4.000000,4.000000,4.000000,4.000000,4.000000,4.000000,4.000000,4.000000,4.000000,4.000000,4.000000,4.000000,4.000000,4.000000,100.000000,,,,,,,,,,,,,,,,
1644852648.158965,61.000000,0.000000,4244.358887,4232.563965,4239.102539,4240.897461,4232.436035,4233.077148,4231.410156,4235.769043,4241.025879,4246.410156,4234.487305,4222.307617,4271.282227,4218.974121,0.000000,4.000000,91.000000,,,,0.000000,4.000000,4.000000,4.000000,4.000000,4.000000,4.000000,4.000000,4.000000,4.000000,4.000000,4.000000,4.000000,4.000000,4.000000,100.000000,,,,,,,,,,,,,,,,
1644852648.162906,62.000000,0.000000,4239.615234,4231.922852,4235.512695,4248.717773,4235.512695,4233.077148,4227.692383,4234.102539,4240.769043,4246.282227,4229.615234,4218.846191,4268.974121,4221.922852,0.000000,4.000000,91.000000,,,,0.000000,4.000000,4.000000,4.000000,4.000000,4.000000,4.000000,4.000000,4.000000,4.000000,4.000000,4.000000,4.000000,4.000000,4.000000,100.000000,,,,,,,,,,,,,,,,
1644852648.166846,63.000000,0.000000,4230.128418,4229.871582,4231.538574,4243.589844,4241.922852,4232.948730,4226.410156,4232.692383,4239.230957,4245.256348,4225.128418,4216.666504,4259.358887,4218.333496,0.000000,4.000000,91.000000,,,,0.000000,4.000000,4.000000,4.000000,4.000000,4.000000,4.000000,4.000000,4.000000,4.000000,4.000000,4.000000,4.000000,4.000000,4.000000,100.000000,,,,,,,,,,,,,,,,
1644852648.170786,64.000000,0.000000,4222.051270,4227.436035,4228.974121,4230.000000,4246.410156,4231.922852,4227.948730,4232.051270,4236.666504,4242.307617,4221.922852,4215.769043,4247.820313,4209.358887,0.000000,4.000000,91.000000,,,,0.000000,4.000000,4.000000,4.000000,4.000000,4.000000,4.000000,4.000000,4.000000,4.000000,4.000000,4.000000,4.000000,4.000000,4.000000,100.000000,,,,,,,,,,,,,,,,
1644852648.174826,65.000000,0.000000,4222.563965,4226.794922,4228.974121,4217.692383,4245.128418,4229.358887,4229.230957,4230.897461,4233.461426,4236.538574,4220.000000,4214.615234,4241.153809,4200.769043,0.000000,4.000000,91.000000,,,,0.000000,4.000000,4.000000,4.000000,4.000000,4.000000,4.000000,4.000000,4.000000,4.000000,4.000000,4.000000,4.000000,4.000000,4.000000,100.000000,,,,,,,,,,,,,,,,
1644852648.178766,66.000000,0.000000,4232.563965,4228.589844,4230.769043,4213.846191,4237.436035,4225.897461,4226.794922,4227.948730,4229.743652,4228.205078,4218.846191,4212.179688,4242.436035,4197.563965,0.000000,4.000000,91.000000,,,,0.000000,4.000000,4.000000,4.000000,4.000000,4.000000,4.000000,4.000000,4.000000,4.000000,4.000000,4.000000,4.000000,4.000000,4.000000,100.000000,,,,,,,,,,,,,,,,
1644852648.182706,67.000000,0.000000,4245.384766,4231.410156,4233.077148,4218.333496,4226.410156,4222.563965,4221.410156,4223.589844,4226.025879,4219.743652,4218.077148,4208.717773,4248.461426,4201.410156,0.000000,4.000000,91.000000,,,,0.000000,4.000000,4.000000,4.000000,4.000000,4.000000,4.000000,4.000000,4.000000,4.000000,4.000000,4.000000,4.000000,4.000000,4.000000,100.000000,,,,,,,,,,,,,,,,
1644852648.186646,68.000000,0.000000,4252.307617,4231.922852,4234.743652,4225.384766,4216.794922,4221.153809,4217.436035,4220.000000,4223.846191,4215.128418,4218.333496,4206.025879,4253.717773,4209.487305,0.000000,4.000000,91.000000,,,,0.000000,4.000000,4.000000,4.000000,4.000000,4.000000,4.000000,4.000000,4.000000,4.000000,4.000000,4.000000,4.000000,4.000000,4.000000,100.000000,,,,,,,,,,,,,,,,
1644852648.190586,69.000000,0.000000,4249.615234,4228.589844,4236.410156,4228.333496,4213.846191,4222.436035,4217.948730,4219.487305,4224.615234,4217.436035,4220.512695,4206.153809,4255.128418,4217.563965,0.000000,4.000000,91.000000,,,,0.000000,4.000000,4.000000,4.000000,4.000000,4.000000,4.000000,4.000000,4.000000,4.000000,4.000000,4.000000,4.000000,4.000000,4.000000,100.000000,,,,,,,,,,,,,,,,
1644852648.194526,70.000000,0.000000,4241.282227,4223.461426,4238.589844,4225.384766,4218.974121,4225.256348,4221.538574,4222.307617,4228.333496,4226.410156,4225.256348,4209.102539,4254.102539,4222.307617,0.000000,4.000000,91.000000,,,,0.000000,4.000000,4.000000,4.000000,4.000000,4.000000,4.000000,4.000000,4.000000,4.000000,4.000000,4.000000,4.000000,4.000000,4.000000,100.000000,,,,,,,,,,,,,,,,
1644852648.198466,71.000000,0.000000,4235.000000,4221.922852,4240.897461,4220.384766,4228.974121,4227.563965,4224.230957,4226.153809,4233.461426,4236.666504,4230.897461,4213.717773,4254.487305,4223.461426,0.000000,4.000000,91.000000,,,,0.000000,4.000000,4.000000,4.000000,4.000000,4.000000,4.000000,4.000000,4.000000,4.000000,4.000000,4.000000,4.000000,4.000000,4.000000,100.000000,,,,,,,,,,,,,,,,
1644852648.202406,72.000000,0.000000,4236.666504,4229.230957,4242.948730,4219.230957,4237.307617,4228.461426,4224.743652,4228.205078,4236.794922,4242.179688,4234.743652,4217.820313,4258.333496,4223.205078,0.000000,4.000000,91.000000,,,,0.000000,4.000000,4.000000,4.000000,4.000000,4.000000,4.000000,4.000000,4.000000,4.000000,4.000000,4.000000,4.000000,4.000000,4.000000,100.000000,,,,,,,,,,,,,,,,
1644852648.206347,73.000000,0.000000,4246.153809,4245.256348,4244.358887,4225.000000,4238.717773,4228.333496,4224.871582,4227.948730,4236.538574,4239.743652,4234.871582,4219.615234,4263.846191,4223.974121,0.000000,4.000000,91.000000,,,,0.000000,4.000000,4.000000,4.000000,4.000000,4.000000,4.000000,4.000000,4.000000,4.000000,4.000000,4.000000,4.000000,4.000000,4.000000,100.000000,,,,,,,,,,,,,,,,
1644852648.210287,74.000000,0.000000,4257.051270,4262.692383,4244.487305,4235.512695,4233.974121,4228.333496,4226.025879,4226.666504,4233.461426,4232.051270,4231.538574,4219.487305,4267.948730,4226.153809,0.000000,4.000000,91.000000,,,,0.000000,4.000000,4.000000,4.000000,4.000000,4.000000,4.000000,4.000000,4.000000,4.000000,4.000000,4.000000,4.000000,4.000000,4.000000,100.000000,,,,,,,,,,,,,,,,
1644852648.214227,75.000000,0.000000,4261.153809,4271.025879,4242.307617,4244.358887,4228.077148,4229.230957,4226.666504,4226.025879,4230.512695,4225.769043,4227.948730,4218.205078,4269.230957,4228.589844,0.000000,4.000000,91.000000,,,,0.000000,4.000000,4.000000,4.000000,4.000000,4.000000,4.000000,4.000000,4.000000,4.000000,4.000000,4.000000,4.000000,4.000000,4.000000,100.000000,,,,,,,,,,,,,,,,
1644852648.218167,76.000000,0.000000,4255.000000,4265.128418,4237.948730,4246.922852,4226.153809,4230.384766,4224.615234,4226.153809,4230.769043,4226.922852,4227.820313,4217.179688,4269.487305,4230.000000,0.000000,4.000000,91.000000,,,,0.000000,4.000000,4.000000,4.000000,4.000000,4.000000,4.000000,4.000000,4.000000,4.000000,4.000000,4.000000,4.000000,4.000000,4.000000,100.000000,,,,,,,,,,,,,,,,
1644852648.222107,77.000000,0.000000,4243.461426,4250.512695,4234.102539,4243.589844,4228.589844,4230.000000,4220.512695,4227.051270,4234.615234,4235.128418,4232.307617,4217.307617,4270.769043,4231.025879,0.000000,4.000000,91.000000,,,,0.000000,4.000000,4.000000,4.000000,4.000000,4.000000,4.000000,4.000000,4.000000,4.000000,4.000000,4.000000,4.000000,4.000000,4.000000,100.000000,,,,,,,,,,,,,,,,
1644852648.226047,78.000000,0.000000,4237.692383,4241.410156,4234.743652,4238.717773,4232.436035,4226.538574,4217.948730,4228.205078,4239.230957,4243.974121,4238.846191,4218.974121,4273.974121,4233.974121,0.000000,4.000000,91.000000,,,,0.000000,4.000000,4.000000,4.000000,4.000000,4.000000,4.000000,4.000000,4.000000,4.000000,4.000000,4.000000,4.000000,4.000000,4.000000,100.000000,,,,,,,,,,,,,,,,
1644852648.229987,79.000000,0.000000,4246.410156,4249.615234,4241.666504,4237.307617,4233.717773,4220.512695,4218.589844,4228.974121,4240.769043,4245.512695,4243.461426,4221.410156,4277.051270,4239.871582,0.000000,4.000000,91.000000,,,,0.000000,4.000000,4.000000,4.000000,4.000000,4.000000,4.000000,4.000000,4.000000,4.000000,4.000000,4.000000,4.000000,4.000000,4.000000,100.000000,,,,,,,,,,,,,,,,
1644852648.233927,80.000000,0.000000,4268.589844,4276.025879,4252.179688,4241.538574,4230.897461,4214.871582,4220.256348,4228.461426,4237.692383,4237.948730,4244.743652,4223.974121,4278.846191,4247.051270,0.000000,4.000000,91.000000,,,,0.000000,4.000000,4.000000,4.000000,4.000000,4.000000,4.000000,4.000000,4.000000,4.000000,4.000000,4.000000,4.000000,4.000000,4.000000,100.000000,,,,,,,,,,,,,,,,
1644852648.237867,81.000000,0.000000,4294.615234,4309.743652,4261.153809,4249.871582,4225.897461,4213.333496,4219.358887,4226.410156,4231.794922,4226.794922,4243.974121,4225.769043,4280.000000,4253.846191,0.000000,4.000000,91.000000,,,,0.000000,4.000000,4.000000,4.000000,4.000000,4.000000,4.000000,4.000000,4.000000,4.000000,4.000000,4.000000,4.000000,4.000000,4.000000,100.000000,,,,,,,,,,,,,,,,
1644852648.241808,82.000000,0.000000,4313.333496,4336.666504,4265.769043,4258.717773,4222.692383,4217.563965,4216.666504,4224.358887,4227.820313,4220.384766,4245.128418,4227.563965,4283.589844,4260.384766,0.000000,4.000000,91.000000,,,,0.000000,4.000000,4.000000,4.000000,4.000000,4.000000,4.000000,4.000000,4.000000,4.000000,4.000000,4.000000,4.000000,4.000000,4.000000,100.000000,,,,,,,,,,,,,,,,
1644852648.245748,83.000000,0.000000,4320.000000,4350.000000,4267.563965,4265.000000,4225.256348,4225.769043,4215.897461,4224.615234,4228.717773,4222.820313,4250.000000,4230.384766,4291.794922,4268.205078,0.000000,4.000000,91.000000,,,,0.000000,4.000000,4.000000,4.000000,4.000000,4.000000,4.000000,4.000000,4.000000,4.000000,4.000000,4.000000,4.000000,4.000000,4.000000,100.000000,,,,,,,,,,,,,,,,
1644852648.249588,84.000000,0.000000,4317.436035,4353.717773,4269.615234,4267.436035,4233.333496,4233.205078,4219.743652,4227.692383,4233.717773,4230.641113,4256.794922,4234.487305,4304.487305,4278.205078,0.000000,4.000000,91.000000,,,,0.000000,4.000000,4.000000,4.000000,4.000000,4.000000,4.000000,4.000000,4.000000,4.000000,4.000000,4.000000,4.000000,4.000000,4.000000,100.000000,,,,,,,,,,,,,,,,
1644852648.253528,85.000000,0.000000,4313.077148,4359.358887,4273.717773,4266.666504,4242.051270,4235.897461,4226.025879,4231.282227,4237.948730,4235.641113,4261.025879,4239.230957,4317.436035,4287.436035,0.000000,4.000000,91.000000,,,,0.000000,4.000000,4.000000,4.000000,4.000000,4.000000,4.000000,4.000000,4.000000,4.000000,4.000000,4.000000,4.000000,4.000000,4.000000,100.000000,,,,,,,,,,,,,,,,
1644852648.257468,86.000000,0.000000,4313.461426,4376.666504,4279.102539,4264.743652,4244.871582,4232.948730,4229.615234,4232.307617,4237.563965,4232.692383,4259.743652,4243.589844,4325.256348,4292.307617,0.000000,4.000000,91.000000,,,,0.000000,4.000000,4.000000,4.000000,4.000000,4.000000,4.000000,4.000000,4.000000,4.000000,4.000000,4.000000,4.000000,4.000000,4.000000,100.000000,,,,,,,,,,,,,,,,
1644852648.261408,87.000000,0.000000,4321.666504,4407.051270,4283.846191,4264.487305,4238.846191,4227.307617,4228.333496,4229.615234,4232.051270,4223.974121,4254.487305,4246.922852,4324.358887,4291.538574,0.000000,4.000000,91.000000,,,,0.000000,4.000000,4.000000,4.000000,4.000000,4.000000,4.000000,4.000000,4.000000,4.000000,4.000000,4.000000,4.000000,4.000000,4.000000,100.000000,,,,,,,,,,,,,,,,
1644852648.265348,88.000000,0.000000,4337.307617,4443.717773,4287.563965,4267.436035,4226.794922,4223.077148,4225.256348,4225.256348,4225.000000,4217.179688,4249.615234,4248.974121,4316.410156,4288.205078,0.000000,4.000000,91.000000,,,,0.000000,4.000000,4.000000,4.000000,4.000000,4.000000,4.000000,4.000000,4.000000,4.000000,4.000000,4.000000,4.000000,4.000000,4.000000,100.000000,,,,,,,,,,,,,,,,
1644852648.269288,89.000000,0.000000,4357.820313,4477.307617,4290.897461,4272.948730,4216.282227,4222.692383,4224.230957,4222.436035,4220.384766,4217.820313,4248.717773,4250.000000,4307.179688,4287.436035,0.000000,4.000000,91.000000,,,,0.000000,4.000000,4.000000,4.000000,4.000000,4.000000,4.000000,4.000000,4.000000,4.000000,4.000000,4.000000,4.000000,4.000000,4.000000,100.000000,,,,,,,,,,,,,,,,
1644852648.273228,90.000000,0.000000,4378.974121,4502.692383,4294.615234,4279.871582,4215.000000,4225.897461,4225.769043,4222.692383,4219.615234,4224.487305,4253.077148,4250.641113,4303.333496,4292.692383,0.000000,4.000000,91.000000,,,,0.000000,4.000000,4.000000,4.000000,4.000000,4.000000,4.000000,4.000000,4.000000,4.000000,4.000000,4.000000,4.000000,4.000000,4.000000,100.000000,,,,,,,,,,,,,,,,
1644852648.277169,91.000000,0.000000,4396.794922,4519.743652,4297.820313,4286.666504,4225.384766,4229.743652,4226.922852,4224.871582,4221.666504,4230.769043,4261.153809,4252.307617,4307.563965,4302.820313,0.000000,4.000000,91.000000,,,,0.000000,4.000000,4.000000,4.000000,4.000000,4.000000,4.000000,4.000000,4.000000,4.000000,4.000000,4.000000,4.000000,4.000000,4.000000,100.000000,,,,,,,,,,,,,,,,
1644852648.281109,92.000000,0.000000,4408.461426,4531.025879,4299.102539,4292.051270,4242.307617,4231.794922,4225.769043,4226.666504,4224.102539,4230.769043,4270.384766,4255.384766,4315.769043,4312.692383,0.000000,4.000000,91.000000,,,,0.000000,4.000000,4.000000,4.000000,4.000000,4.000000,4.000000,4.000000,4.000000,4.000000,4.000000,4.000000,4.000000,4.000000,4.000000,100.000000,,,,,,,,,,,,,,,,
1644852648.285049,93.000000,0.000000,4413.205078,4539.743652,4297.563965,4293.974121,4256.025879,4231.538574,4223.717773,4227.179688,4225.128418,4223.846191,4276.666504,4258.974121,4320.000000,4317.051270,0.000000,4.000000,91.000000,,,,0.000000,4.000000,4.000000,4.000000,4.000000,4.000000,4.000000,4.000000,4.000000,4.000000,4.000000,4.000000,4.000000,4.000000,4.000000,100.000000,,,,,,,,,,,,,,,,
1644852648.288989,94.000000,0.000000,4414.358887,4548.974121,4294.358887,4292.051270,4259.615234,4230.512695,4223.846191,4227.051270,4225.000000,4215.641113,4276.410156,4260.897461,4315.256348,4314.487305,0.000000,4.000000,91.000000,,,,0.000000,4.000000,4.000000,4.000000,4.000000,4.000000,4.000000,4.000000,4.000000,4.000000,4.000000,4.000000,4.000000,4.000000,4.000000,100.000000,,,,,,,,,,,,,,,,
1644852648.292929,95.000000,0.000000,4417.563965,4561.666504,4291.538574,4288.333496,4253.461426,4230.384766,4226.282227,4227.051270,4225.000000,4213.974121,4268.846191,4259.230957,4304.358887,4308.077148,0.000000,4.000000,91.000000,,,,0.000000,4.000000,4.000000,4.000000,4.000000,4.000000,4.000000,4.000000,4.000000,4.000000,4.000000,4.000000,4.000000,4.000000,4.000000,100.000000,,,,,,,,,,,,,,,,
1644852648.296869,96.000000,0.000000,4428.589844,4578.717773,4290.641113,4285.384766,4243.846191,4231.153809,4227.820313,4227.051270,4226.153809,4221.666504,4257.436035,4253.846191,4295.128418,4302.692383,0.000000,4.000000,91.000000,,,,0.000000,4.000000,4.000000,4.000000,4.000000,4.000000,4.000000,4.000000,4.000000,4.000000,4.000000,4.000000,4.000000,4.000000,4.000000,100.000000,,,,,,,,,,,,,,,,
1644852648.300809,97.000000,0.000000,4448.205078,4597.820313,4290.769043,4283.846191,4237.179688,4230.641113,4225.641113,4226.025879,4227.051270,4232.948730,4246.794922,4245.897461,4294.102539,4299.871582,0.000000,4.000000,91.000000,,,,0.000000,4.000000,4.000000,4.000000,4.000000,4.000000,4.000000,4.000000,4.000000,4.000000,4.000000,4.000000,4.000000,4.000000,4.000000,100.000000,,,,,,,,,,,,,,,,
1644852648.304749,98.000000,0.000000,4469.487305,4613.461426,4289.358887,4281.538574,4235.641113,4227.051270,4220.641113,4223.717773,4224.871582,4236.794922,4240.384766,4237.307617,4300.000000,4296.922852,0.000000,4.000000,91.000000,,,,0.000000,4.000000,4.000000,4.000000,4.000000,4.000000,4.000000,4.000000,4.000000,4.000000,4.000000,4.000000,4.000000,4.000000,4.000000,100.000000,,,,,,,,,,,,,,,,
1644852648.308689,99.000000,0.000000,4482.820313,4621.282227,4283.717773,4275.641113,4236.025879,4221.025879,4216.153809,4220.384766,4218.589844,4227.307617,4237.436035,4230.000000,4305.769043,4289.871582,0.000000,4.000000,91.000000,,,,0.000000,4.000000,4.000000,4.000000,4.000000,4.000000,4.000000,4.000000,4.000000,4.000000,4.000000,4.000000,4.000000,4.000000,4.000000,100.000000,,,,,,,,,,,,,,,,
1644852648.312530,100.000000,0.000000,4483.717773,4622.820313,4275.128418,4267.692383,4234.615234,4216.025879,4215.000000,4217.436035,4211.538574,4209.743652,4236.153809,4225.897461,4304.615234,4279.102539,0.000000,4.000000,91.000000,,,,0.000000,4.000000,4.000000,4.000000,4.000000,4.000000,4.000000,4.000000,4.000000,4.000000,4.000000,4.000000,4.000000,4.000000,4.000000,100.000000,,,,,,,,,,,,,,,,
1644852648.316470,101.000000,0.000000,4476.922852,4624.871582,4267.948730,4262.692383,4231.282227,4215.128418,4216.538574,4216.538574,4209.487305,4197.051270,4235.000000,4226.282227,4296.666504,4270.000000,0.000000,4.000000,91.000000,,,,0.000000,4.000000,4.000000,4.000000,4.000000,4.000000,4.000000,4.000000,4.000000,4.000000,4.000000,4.000000,4.000000,4.000000,4.000000,100.000000,,,,,,,,,,,,,,,,
1644852648.320410,102.000000,0.000000,4473.077148,4634.102539,4267.051270,4265.128418,4229.358887,4218.333496,4218.077148,4218.589844,4215.128418,4198.205078,4235.128418,4230.000000,4288.461426,4268.461426,0.000000,4.000000,91.000000,,,,0.000000,4.000000,4.000000,4.000000,4.000000,4.000000,4.000000,4.000000,4.000000,4.000000,4.000000,4.000000,4.000000,4.000000,4.000000,100.000000,,,,,,,,,,,,,,,,
1644852648.324350,103.000000,0.000000,4479.102539,4650.641113,4272.051270,4273.974121,4231.666504,4222.051270,4218.205078,4222.307617,4224.871582,4212.051270,4237.948730,4233.589844,4286.666504,4274.487305,0.000000,4.000000,91.000000,,,,0.000000,4.000000,4.000000,4.000000,4.000000,4.000000,4.000000,4.000000,4.000000,4.000000,4.000000,4.000000,4.000000,4.000000,4.000000,100.000000,,,,,,,,,,,,,,,,
1644852648.328290,104.000000,0.000000,4492.948730,4667.436035,4277.051270,4282.820313,4237.436035,4222.307617,4217.179688,4225.000000,4231.922852,4229.487305,4243.205078,4233.589844,4292.820313,4281.794922,0.000000,4.000000,91.000000,,,,0.000000,4.000000,4.000000,4.000000,4.000000,4.000000,4.000000,4.000000,4.000000,4.000000,4.000000,4.000000,4.000000,4.000000,4.000000,100.000000,,,,,,,,,,,,,,,,
1644852648.332230,105.000000,0.000000,4505.897461,4676.025879,4274.871582,4284.615234,4242.307617,4218.461426,4215.256348,4224.487305,4231.410156,4241.538574,4247.948730,4229.102539,4301.282227,4281.922852,0.000000,4.000000,91.000000,,,,0.000000,4.000000,4.000000,4.000000,4.000000,4.000000,4.000000,4.000000,4.000000,4.000000,4.000000,4.000000,4.000000,4.000000,4.000000,100.000000,,,,,,,,,,,,,,,,
1644852648.336170,106.000000,0.000000,4509.743652,4673.846191,4264.358887,4278.205078,4242.051270,4213.461426,4212.563965,4220.256348,4224.358887,4243.846191,4248.589844,4222.051270,4304.102539,4271.794922,0.000000,4.000000,91.000000,,,,0.000000,4.000000,4.000000,4.000000,4.000000,4.000000,4.000000,4.000000,4.000000,4.000000,4.000000,4.000000,4.000000,4.000000,4.000000,100.000000,,,,,,,,,,,,,,,,
1644852648.340110,107.000000,0.000000,4503.461426,4665.769043,4250.512695,4267.948730,4235.256348,4211.025879,4209.871582,4214.358887,4215.769043,4237.820313,4242.692383,4216.025879,4297.436035,4257.051270,0.000000,4.000000,91.000000,,,,0.000000,4.000000,4.000000,4.000000,4.000000,4.000000,4.000000,4.000000,4.000000,4.000000,4.000000,4.000000,4.000000,4.000000,4.000000,100.000000,,,,,,,,,,,,,,,,
1644852648.344050,108.000000,0.000000,4493.589844,4659.487305,4241.538574,4260.256348,4224.358887,4211.538574,4208.974121,4210.000000,4210.641113,4226.666504,4231.025879,4213.077148,4283.589844,4246.282227,0.000000,4.000000,91.000000,,,,0.000000,4.000000,4.000000,4.000000,4.000000,4.000000,4.000000,4.000000,4.000000,4.000000,4.000000,4.000000,4.000000,4.000000,4.000000,100.000000,,,,,,,,,,,,,,,,
1644852648.347991,109.000000,0.000000,4487.948730,4659.358887,4241.922852,4257.051270,4214.871582,4212.820313,4211.153809,4208.846191,4210.384766,4213.717773,4217.563965,4213.461426,4268.205078,4243.461426,0.000000,4.000000,91.000000,,,,0.000000,4.000000,4.000000,4.000000,4.000000,4.000000,4.000000,4.000000,4.000000,4.000000,4.000000,4.000000,4.000000,4.000000,4.000000,100.000000,,,,,,,,,,,,,,,,
1644852648.351931,110.000000,0.000000,4488.974121,4664.487305,4248.717773,4255.128418,4211.794922,4212.051270,4214.230957,4210.128418,4212.820313,4202.436035,4207.692383,4215.512695,4256.410156,4243.461426,0.000000,4.000000,91.000000,,,,0.000000,4.000000,4.000000,4.000000,4.000000,4.000000,4.000000,4.000000,4.000000,4.000000,4.000000,4.000000,4.000000,4.000000,4.000000,100.000000,,,,,,,,,,,,,,,,
1644852648.355871,111.000000,0.000000,4492.948730,4669.487305,4254.615234,4250.641113,4215.256348,4208.846191,4214.487305,4211.153809,4214.358887,4196.666504,4205.256348,4216.025879,4249.358887,4238.333496,0.000000,4.000000,91.000000,,,,0.000000,4.000000,4.000000,4.000000,4.000000,4.000000,4.000000,4.000000,4.000000,4.000000,4.000000,4.000000,4.000000,4.000000,4.000000,100.000000,,,,,,,,,,,,,,,,
1644852648.359711,112.000000,0.000000,4493.589844,4670.384766,4253.974121,4242.948730,4220.512695,4205.512695,4210.641113,4210.128418,4212.692383,4198.205078,4208.717773,4212.692383,4244.487305,4224.743652,0.000000,4.000000,91.000000,,,,0.000000,4.000000,4.000000,4.000000,4.000000,4.000000,4.000000,4.000000,4.000000,4.000000,4.000000,4.000000,4.000000,4.000000,4.000000,100.000000,,,,,,,,,,,,,,,,
1644852648.363651,113.000000,0.000000,4487.692383,4666.666504,4246.922852,4236.282227,4222.436035,4204.358887,4206.410156,4207.307617,4207.948730,4204.743652,4212.436035,4205.384766,4238.974121,4208.205078,0.000000,4.000000,91.000000,,,,0.000000,4.000000,4.000000,4.000000,4.000000,4.000000,4.000000,4.000000,4.000000,4.000000,4.000000,4.000000,4.000000,4.000000,4.000000,100.000000,,,,,,,,,,,,,,,,
1644852648.367591,114.000000,0.000000,4478.333496,4661.794922,4239.102539,4235.000000,4219.615234,4206.282227,4206.153809,4204.487305,4202.436035,4210.128418,4211.538574,4197.179688,4232.563965,4198.974121,0.000000,4.000000,91.000000,,,,0.000000,4.000000,4.000000,4.000000,4.000000,4.000000,4.000000,4.000000,4.000000,4.000000,4.000000,4.000000,4.000000,4.000000,4.000000,100.000000,,,,,,,,,,,,,,,,
1644852648.371531,115.000000,0.000000,4471.922852,4659.358887,4235.512695,4239.743652,4215.641113,4208.717773,4210.128418,4203.589844,4199.487305,4209.102539,4206.153809,4193.205078,4227.563965,4202.948730,0.000000,4.000000,91.000000,,,,0.000000,4.000000,4.000000,4.000000,4.000000,4.000000,4.000000,4.000000,4.000000,4.000000,4.000000,4.000000,4.000000,4.000000,4.000000,100.000000,,,,,,,,,,,,,,,,
1644852648.375372,116.000000,0.000000,4473.846191,4661.410156,4237.820313,4247.051270,4214.615234,4209.230957,4213.846191,4204.358887,4200.000000,4201.538574,4200.512695,4195.769043,4227.179688,4217.692383,0.000000,4.000000,91.000000,,,,0.000000,4.000000,4.000000,4.000000,4.000000,4.000000,4.000000,4.000000,4.000000,4.000000,4.000000,4.000000,4.000000,4.000000,4.000000,100.000000,,,,,,,,,,,,,,,,
1644852648.379312,117.000000,0.000000,4483.717773,4666.282227,4243.589844,4251.922852,4217.563965,4207.051270,4213.077148,4205.256348,4203.077148,4192.563965,4197.692383,4202.436035,4231.538574,4233.974121,0.000000,4.000000,91.000000,,,,0.000000,4.000000,4.000000,4.000000,4.000000,4.000000,4.000000,4.000000,4.000000,4.000000,4.000000,4.000000,4.000000,4.000000,4.000000,100.000000,,,,,,,,,,,,,,,,
1644852648.383252,118.000000,0.000000,4495.256348,4670.641113,4248.846191,4252.051270,4221.538574,4203.589844,4208.974121,4205.256348,4205.641113,4188.205078,4196.922852,4206.666504,4237.051270,4242.563965,0.000000,4.000000,91.000000,,,,0.000000,4.000000,4.000000,4.000000,4.000000,4.000000,4.000000,4.000000,4.000000,4.000000,4.000000,4.000000,4.000000,4.000000,4.000000,100.000000,,,,,,,,,,,,,,,,
1644852648.387192,119.000000,0.000000,4500.384766,4670.897461,4250.512695,4248.589844,4222.051270,4201.025879,4205.897461,4204.230957,4205.641113,4189.743652,4195.897461,4203.846191,4239.102539,4239.871582,0.000000,4.000000,91.000000,,,,0.000000,4.000000,4.000000,4.000000,4.000000,4.000000,4.000000,4.000000,4.000000,4.000000,4.000000,4.000000,4.000000,4.000000,4.000000,100.000000,,,,,,,,,,,,,,,,
1644852648.391132,120.000000,0.000000,4494.871582,4665.384766,4248.461426,4246.282227,4217.820313,4200.512695,4206.025879,4203.205078,4203.205078,4193.205078,4193.589844,4194.871582,4234.230957,4228.077148,0.000000,4.000000,91.000000,,,,0.000000,4.000000,4.000000,4.000000,4.000000,4.000000,4.000000,4.000000,4.000000,4.000000,4.000000,4.000000,4.000000,4.000000,4.000000,100.000000,,,,,,,,,,,,,,,,
1644852648.394972,121.000000,0.000000,4479.615234,4655.512695,4244.487305,4248.205078,4212.692383,4201.538574,4207.563965,4203.077148,4200.512695,4192.692383,4191.025879,4185.512695,4222.307617,4212.307617,0.000000,4.000000,91.000000,,,,0.000000,4.000000,4.000000,4.000000,4.000000,4.000000,4.000000,4.000000,4.000000,4.000000,4.000000,4.000000,4.000000,4.000000,4.000000,100.000000,,,,,,,,,,,,,,,,
1644852648.398912,122.000000,0.000000,4460.000000,4644.230957,4241.794922,4252.563965,4211.666504,4202.692383,4207.436035,4204.743652,4199.871582,4186.922852,4189.871582,4181.922852,4206.282227,4197.307617,0.000000,4.000000,91.000000,,,,0.000000,4.000000,4.000000,4.000000,4.000000,4.000000,4.000000,4.000000,4.000000,4.000000,4.000000,4.000000,4.000000,4.000000,4.000000,100.000000,,,,,,,,,,,,,,,,
1644852648.402852,123.000000,0.000000,4441.666504,4634.743652,4242.436035,4253.333496,4215.000000,4203.205078,4206.410156,4208.077148,4201.922852,4180.769043,4191.025879,4186.025879,4192.051270,4186.153809,0.000000,4.000000,91.000000,,,,0.000000,4.000000,4.000000,4.000000,4.000000,4.000000,4.000000,4.000000,4.000000,4.000000,4.000000,4.000000,4.000000,4.000000,4.000000,100.000000,,,,,,,,,,,,,,,,
1644852648.406792,124.000000,0.000000,4428.333496,4629.358887,4246.282227,4246.794922,4218.333496,4203.333496,4207.692383,4212.307617,4205.641113,4181.666504,4194.358887,4194.615234,4186.025879,4181.794922,0.000000,4.000000,91.000000,,,,0.000000,4.000000,4.000000,4.000000,4.000000,4.000000,4.000000,4.000000,4.000000,4.000000,4.000000,4.000000,4.000000,4.000000,4.000000,100.000000,,,,,,,,,,,,,,,,
1644852648.410733,125.000000,0.000000,4421.282227,4628.846191,4250.641113,4236.410156,4216.922852,4203.974121,4212.179688,4215.897461,4209.743652,4192.307617,4198.974121,4201.922852,4191.666504,4185.769043,0.000000,4.000000,91.000000,,,,0.000000,4.000000,4.000000,4.000000,4.000000,4.000000,4.000000,4.000000,4.000000,4.000000,4.000000,4.000000,4.000000,4.000000,4.000000,100.000000,,,,,,,,,,,,,,,,
1644852648.414673,126.000000,0.000000,4420.128418,4632.179688,4252.692383,4230.512695,4211.538574,4205.512695,4216.410156,4217.563965,4213.205078,4207.820313,4203.717773,4204.358887,4207.051270,4197.948730,0.000000,4.000000,91.000000,,,,0.000000,4.000000,4.000000,4.000000,4.000000,4.000000,4.000000,4.000000,4.000000,4.000000,4.000000,4.000000,4.000000,4.000000,4.000000,100.000000,,,,,,,,,,,,,,,,
1644852648.418613,127.000000,0.000000,4423.717773,4636.410156,4250.897461,4234.358887,4206.922852,4206.538574,4216.922852,4216.538574,4215.256348,4219.358887,4206.922852,4202.692383,4225.128418,4213.717773,0.000000,4.000000,91.000000,,,,0.000000,4.000000,4.000000,4.000000,4.000000,4.000000,4.000000,4.000000,4.000000,4.000000,4.000000,4.000000,4.000000,4.000000,4.000000,100.000000,,,,,,,,,,,,,,,,
1644852648.422553,128.000000,0.000000,4428.974121,4637.307617,4246.794922,4245.128418,4206.922852,4205.128418,4213.589844,4214.358887,4215.897461,4222.051270,4207.436035,4199.871582,4237.948730,4225.512695,3414.000000,4.000000,91.000000,,,,0.000000,4.000000,4.000000,4.000000,4.000000,4.000000,4.000000,4.000000,4.000000,4.000000,4.000000,4.000000,4.000000,4.000000,4.000000,100.000000,,,,,,,,,,,,,,,,
1644852648.426493,129.000000,0.000000,4432.179688,4633.333496,4243.717773,4255.384766,4211.410156,4201.538574,4210.384766,4213.589844,4215.128418,4217.948730,4206.025879,4198.589844,4241.538574,4227.307617,3313.000000,4.000000,91.000000,,,,0.000000,4.000000,4.000000,4.000000,4.000000,4.000000,4.000000,4.000000,4.000000,4.000000,4.000000,4.000000,4.000000,4.000000,4.000000,100.000000,,,,,,,,,,,,,,,,
1644852648.430433,130.000000,0.000000,4430.641113,4627.051270,4244.102539,4260.000000,4216.666504,4198.205078,4210.000000,4215.384766,4213.333496,4213.205078,4204.487305,4198.846191,4237.692383,4219.743652,3524.000000,4.000000,91.000000,,,,0.000000,4.000000,4.000000,4.000000,4.000000,4.000000,4.000000,4.000000,4.000000,4.000000,4.000000,4.000000,4.000000,4.000000,4.000000,100.000000,,,,,,,,,,,,,,,,
1644852648.434273,131.000000,0.000000,4424.743652,4622.563965,4246.794922,4258.077148,4219.487305,4198.205078,4211.922852,4218.974121,4212.563965,4211.666504,4204.615234,4198.461426,4230.897461,4210.256348,3487.000000,4.000000,91.000000,,,,0.000000,4.000000,4.000000,4.000000,4.000000,4.000000,4.000000,4.000000,4.000000,4.000000,4.000000,4.000000,4.000000,4.000000,4.000000,100.000000,,,,,,,,,,,,,,,,
1644852648.438213,132.000000,0.000000,4417.563965,4621.282227,4247.948730,4252.436035,4220.128418,4202.179688,4213.846191,4221.922852,4213.846191,4212.179688,4205.769043,4195.769043,4224.487305,4206.153809,3625.000000,4.000000,91.000000,,,,0.000000,4.000000,4.000000,4.000000,4.000000,4.000000,4.000000,4.000000,4.000000,4.000000,4.000000,4.000000,4.000000,4.000000,4.000000,100.000000,,,,,,,,,,,,,,,,
1644852648.442154,133.000000,0.000000,4412.563965,4620.897461,4245.384766,4246.025879,4220.641113,4208.846191,4215.256348,4222.948730,4216.666504,4210.512695,4206.153809,4191.282227,4218.846191,4206.922852,3305.000000,4.000000,91.000000,,,,0.000000,4.000000,4.000000,4.000000,4.000000,4.000000,4.000000,4.000000,4.000000,4.000000,4.000000,4.000000,4.000000,4.000000,4.000000,100.000000,,,,,,,,,,,,,,,,
1644852648.446094,134.000000,0.000000,4410.384766,4617.436035,4240.384766,4240.769043,4222.307617,4215.512695,4217.436035,4222.948730,4219.743652,4204.743652,4203.846191,4188.461426,4212.436035,4205.512695,2370.000000,4.000000,91.000000,,,,0.000000,4.000000,4.000000,4.000000,4.000000,4.000000,4.000000,4.000000,4.000000,4.000000,4.000000,4.000000,4.000000,4.000000,4.000000,100.000000,,,,,,,,,,,,,,,,
1644852648.450034,135.000000,0.000000,4409.743652,4608.461426,4236.794922,4237.563965,4223.461426,4219.615234,4220.641113,4223.589844,4221.282227,4197.948730,4199.487305,4190.128418,4204.871582,4196.282227,3155.000000,4.000000,91.000000,,,,0.000000,4.000000,4.000000,4.000000,4.000000,4.000000,4.000000,4.000000,4.000000,4.000000,4.000000,4.000000,4.000000,4.000000,4.000000,100.000000,,,,,,,,,,,,,,,,
1644852648.453974,136.000000,0.000000,4408.974121,4595.641113,4237.307617,4236.153809,4221.922852,4220.256348,4222.692383,4224.743652,4221.538574,4196.282227,4195.641113,4196.153809,4198.589844,4181.025879,3172.000000,4.000000,91.000000,,,,0.000000,4.000000,4.000000,4.000000,4.000000,4.000000,4.000000,4.000000,4.000000,4.000000,4.000000,4.000000,4.000000,4.000000,4.000000,100.000000,,,,,,,,,,,,,,,,
1644852648.457914,137.000000,0.000000,4408.333496,4583.461426,4240.897461,4236.025879,4218.333496,4218.333496,4221.410156,4225.512695,4221.410156,4203.205078,4194.871582,4202.436035,4197.820313,4169.743652,3543.000000,4.000000,91.000000,,,,0.000000,4.000000,4.000000,4.000000,4.000000,4.000000,4.000000,4.000000,4.000000,4.000000,4.000000,4.000000,4.000000,4.000000,4.000000,100.000000,,,,,,,,,,,,,,,,
1644852648.461854,138.000000,0.000000,4410.000000,4575.512695,4244.102539,4237.563965,4216.538574,4215.897461,4217.820313,4225.256348,4222.307617,4216.282227,4198.589844,4204.230957,4205.512695,4172.307617,3517.000000,4.000000,91.000000,,,,0.000000,4.000000,4.000000,4.000000,4.000000,4.000000,4.000000,4.000000,4.000000,4.000000,4.000000,4.000000,4.000000,4.000000,4.000000,100.000000,,,,,,,,,,,,,,,,
1644852648.465794,139.000000,0.000000,4414.615234,4571.922852,4244.230957,4241.922852,4219.871582,4215.128418,4215.769043,4225.512695,4224.230957,4228.461426,4206.025879,4199.871582,4220.128418,4189.743652,3603.000000,4.000000,91.000000,,,,0.000000,4.000000,4.000000,4.000000,4.000000,4.000000,4.000000,4.000000,4.000000,4.000000,4.000000,4.000000,4.000000,4.000000,4.000000,100.000000,,,,,,,,,,,,,,,,
1644852648.469734,140.000000,0.000000,4419.871582,4570.512695,4241.410156,4248.974121,4227.307617,4216.153809,4217.051270,4226.922852,4226.153809,4233.205078,4213.974121,4191.794922,4235.384766,4212.563965,3465.000000,4.000000,91.000000,,,,0.000000,4.000000,4.000000,4.000000,4.000000,4.000000,4.000000,4.000000,4.000000,4.000000,4.000000,4.000000,4.000000,4.000000,4.000000,100.000000,,,,,,,,,,,,,,,,
1644852648.473674,141.000000,0.000000,4421.153809,4568.333496,4238.461426,4255.512695,4233.333496,4217.820313,4219.743652,4228.974121,4227.179688,4228.205078,4219.102539,4184.358887,4243.077148,4227.179688,3711.000000,4.000000,91.000000,,,,0.000000,4.000000,4.000000,4.000000,4.000000,4.000000,4.000000,4.000000,4.000000,4.000000,4.000000,4.000000,4.000000,4.000000,4.000000,100.000000,,,,,,,,,,,,,,,,
1644852648.477614,142.000000,0.000000,4416.282227,4564.358887,4237.563965,4256.666504,4232.179688,4218.205078,4220.256348,4229.230957,4226.922852,4217.436035,4218.974121,4180.897461,4237.692383,4225.128418,3517.000000,4.000000,91.000000,,,,0.000000,4.000000,4.000000,4.000000,4.000000,4.000000,4.000000,4.000000,4.000000,4.000000,4.000000,4.000000,4.000000,4.000000,4.000000,100.000000,,,,,,,,,,,,,,,,
1644852648.481555,143.000000,0.000000,4406.410156,4558.461426,4238.717773,4250.000000,4222.692383,4216.538574,4217.563965,4226.538574,4225.512695,4207.307617,4213.717773,4181.666504,4220.769043,4207.948730,3603.000000,4.000000,91.000000,,,,0.000000,4.000000,4.000000,4.000000,4.000000,4.000000,4.000000,4.000000,4.000000,4.000000,4.000000,4.000000,4.000000,4.000000,4.000000,100.000000,,,,,,,,,,,,,,,,
1644852648.485495,144.000000,0.000000,4396.282227,4552.051270,4239.102539,4238.717773,4210.769043,4213.846191,4214.487305,4222.051270,4222.948730,4202.436035,4205.256348,4184.358887,4199.871582,4186.025879,3465.000000,4.000000,91.000000,,,,0.000000,4.000000,4.000000,4.000000,4.000000,4.000000,4.000000,4.000000,4.000000,4.000000,4.000000,4.000000,4.000000,4.000000,4.000000,100.000000,,,,,,,,,,,,,,,,
1644852648.489435,145.000000,0.000000,4391.153809,4547.436035,4236.922852,4229.487305,4204.102539,4211.922852,4214.230957,4219.102539,4219.743652,4202.948730,4196.794922,4186.153809,4185.128418,4170.512695,3711.000000,4.000000,91.000000,,,,0.000000,4.000000,4.000000,4.000000,4.000000,4.000000,4.000000,4.000000,4.000000,4.000000,4.000000,4.000000,4.000000,4.000000,4.000000,100.000000,,,,,,,,,,,,,,,,
1644852648.493375,146.000000,0.000000,4394.615234,4546.153809,4233.589844,4226.666504,4206.025879,4212.563965,4216.538574,4219.743652,4216.922852,4206.282227,4191.794922,4186.410156,4183.333496,4168.589844,3517.000000,4.000000,91.000000,,,,0.000000,4.000000,4.000000,4.000000,4.000000,4.000000,4.000000,4.000000,4.000000,4.000000,4.000000,4.000000,4.000000,4.000000,4.000000,100.000000,,,,,,,,,,,,,,,,
1644852648.497315,147.000000,0.000000,4406.025879,4547.307617,4233.077148,4230.641113,4213.846191,4215.256348,4218.589844,4223.333496,4215.512695,4210.000000,4192.307617,4186.282227,4195.256348,4179.230957,3603.000000,4.000000,91.000000,,,,0.000000,4.000000,4.000000,4.000000,4.000000,4.000000,4.000000,4.000000,4.000000,4.000000,4.000000,4.000000,4.000000,4.000000,4.000000,100.000000,,,,,,,,,,,,,,,,
1644852648.501255,148.000000,0.000000,4419.358887,4547.436035,4237.436035,4239.358887,4221.922852,4217.820313,4218.461426,4226.922852,4215.512695,4212.436035,4196.794922,4186.922852,4214.102539,4194.871582,3465.000000,4.000000,91.000000,,,,0.000000,4.000000,4.000000,4.000000,4.000000,4.000000,4.000000,4.000000,4.000000,4.000000,4.000000,4.000000,4.000000,4.000000,4.000000,100.000000,,,,,,,,,,,,,,,,
1644852648.505195,149.000000,0.000000,4426.025879,4543.333496,4244.743652,4249.102539,4225.384766,4217.948730,4217.307617,4227.820313,4215.384766,4212.436035,4201.025879,4188.205078,4229.102539,4206.922852,3711.000000,4.000000,91.000000,,,,0.000000,4.000000,4.000000,4.000000,4.000000,4.000000,4.000000,4.000000,4.000000,4.000000,4.000000,4.000000,4.000000,4.000000,4.000000,100.000000,,,,,,,,,,,,,,,,
1644852648.509035,150.000000,0.000000,4420.641113,4534.615234,4250.128418,4254.871582,4224.358887,4215.512695,4217.051270,4225.512695,4214.487305,4209.487305,4201.922852,4188.589844,4232.051270,4210.128418,3517.000000,4.000000,91.000000,,,,0.000000,4.000000,4.000000,4.000000,4.000000,4.000000,4.000000,4.000000,4.000000,4.000000,4.000000,4.000000,4.000000,4.000000,4.000000,100.000000,,,,,,,,,,,,,,,,
1644852648.512976,151.000000,0.000000,4405.897461,4525.256348,4249.743652,4251.794922,4223.461426,4213.205078,4217.692383,4222.307617,4213.333496,4204.743652,4201.410156,4188.077148,4222.820313,4204.102539,3603.000000,4.000000,91.000000,,,,0.000000,4.000000,4.000000,4.000000,4.000000,4.000000,4.000000,4.000000,4.000000,4.000000,4.000000,4.000000,4.000000,4.000000,4.000000,100.000000,,,,,,,,,,,,,,,,
1644852648.516916,152.000000,0.000000,4390.769043,4520.256348,4244.358887,4240.384766,4227.179688,4214.487305,4217.948730,4220.897461,4214.358887,4201.410156,4203.333496,4187.692383,4208.461426,4192.692383,3465.000000,4.000000,91.000000,,,,0.000000,4.000000,4.000000,4.000000,4.000000,4.000000,4.000000,4.000000,4.000000,4.000000,4.000000,4.000000,4.000000,4.000000,4.000000,100.000000,,,,,,,,,,,,,,,,
1644852648.520856,153.000000,0.000000,4383.333496,4521.666504,4239.230957,4228.461426,4234.230957,4219.615234,4217.692383,4222.436035,4217.307617,4202.051270,4208.589844,4188.974121,4197.179688,4181.538574,3711.000000,4.000000,91.000000,,,,0.000000,4.000000,4.000000,4.000000,4.000000,4.000000,4.000000,4.000000,4.000000,4.000000,4.000000,4.000000,4.000000,4.000000,4.000000,100.000000,,,,,,,,,,,,,,,,
1644852648.524796,154.000000,0.000000,4385.384766,4525.384766,4238.461426,4224.743652,4236.794922,4225.769043,4218.077148,4224.743652,4219.358887,4205.128418,4212.692383,4191.025879,4192.307617,4175.384766,3517.000000,4.000000,91.000000,,,,0.000000,4.000000,4.000000,4.000000,4.000000,4.000000,4.000000,4.000000,4.000000,4.000000,4.000000,4.000000,4.000000,4.000000,4.000000,100.000000,,,,,,,,,,,,,,,,
1644852648.528736,155.000000,0.000000,4390.512695,4524.487305,4240.384766,4231.282227,4228.077148,4228.077148,4219.358887,4223.589844,4216.794922,4206.922852,4209.743652,4190.641113,4192.179688,4176.153809,3603.000000,4.000000,91.000000,,,,0.000000,4.000000,4.000000,4.000000,4.000000,4.000000,4.000000,4.000000,4.000000,4.000000,4.000000,4.000000,4.000000,4.000000,4.000000,100.000000,,,,,,,,,,,,,,,,
1644852648.532676,156.000000,0.000000,4391.794922,4516.410156,4239.871582,4241.410156,4212.563965,4224.102539,4219.615234,4216.794922,4209.230957,4205.897461,4200.256348,4185.384766,4194.358887,4182.563965,3465.000000,4.000000,91.000000,,,,0.000000,4.000000,4.000000,4.000000,4.000000,4.000000,4.000000,4.000000,4.000000,4.000000,4.000000,4.000000,4.000000,4.000000,4.000000,100.000000,,,,,,,,,,,,,,,,
1644852648.536616,157.000000,0.000000,4388.589844,4506.153809,4234.358887,4246.666504,4205.128418,4217.179688,4217.436035,4208.461426,4202.051270,4205.384766,4191.282227,4177.051270,4199.871582,4192.307617,3711.000000,4.000000,91.000000,,,,0.000000,4.000000,4.000000,4.000000,4.000000,4.000000,4.000000,4.000000,4.000000,4.000000,4.000000,4.000000,4.000000,4.000000,4.000000,100.000000,,,,,,,,,,,,,,,,
1644852648.540556,158.000000,0.000000,4386.282227,4500.897461,4227.051270,4244.102539,4216.025879,4213.077148,4214.615234,4205.769043,4201.410156,4208.717773,4189.871582,4171.794922,4209.871582,4201.922852,3517.000000,4.000000,91.000000,,,,0.000000,4.000000,4.000000,4.000000,4.000000,4.000000,4.000000,4.000000,4.000000,4.000000,4.000000,4.000000,4.000000,4.000000,4.000000,100.000000,,,,,,,,,,,,,,,,
1644852648.544496,159.000000,0.000000,4389.230957,4501.025879,4223.589844,4237.820313,4237.436035,4214.358887,4214.102539,4211.153809,4207.692383,4213.717773,4195.769043,4172.692383,4220.641113,4207.051270,3603.000000,4.000000,91.000000,,,,0.000000,4.000000,4.000000,4.000000,4.000000,4.000000,4.000000,4.000000,4.000000,4.000000,4.000000,4.000000,4.000000,4.000000,4.000000,100.000000,,,,,,,,,,,,,,,,
1644852648.548436,160.000000,0.000000,4393.717773,4498.717773,4225.897461,4233.461426,4247.436035,4217.307617,4216.410156,4219.358887,4214.487305,4212.692383,4201.538574,4177.051270,4223.589844,4203.461426,3465.000000,4.000000,91.000000,,,,0.000000,4.000000,4.000000,4.000000,4.000000,4.000000,4.000000,4.000000,4.000000,4.000000,4.000000,4.000000,4.000000,4.000000,4.000000,100.000000,,,,,,,,,,,,,,,,
1644852648.552377,161.000000,0.000000,4391.153809,4485.769043,4229.615234,4232.692383,4230.641113,4216.922852,4218.333496,4222.051270,4213.974121,4201.153809,4200.769043,4178.717773,4213.077148,4190.641113,3711.000000,4.000000,91.000000,,,,0.000000,4.000000,4.000000,4.000000,4.000000,4.000000,4.000000,4.000000,4.000000,4.000000,4.000000,4.000000,4.000000,4.000000,4.000000,100.000000,,,,,,,,,,,,,,,,
