title:Alex-Vt5FMLwYdSjgYxXAplEWcg, start timestamp:1645707394.620704, stop timestamp:1645707420.524699, headset type:EPOCPLUS, headset serial:3B9AEBFF, headset firmware:626, channels:55, sampling rate:eeg_256, samples:6576      , version:2.1, 
Timestamp,EEG.Counter,EEG.Interpolated,EEG.AF3,EEG.F7,EEG.F3,EEG.FC5,EEG.T7,EEG.P7,EEG.O1,EEG.O2,EEG.P8,EEG.T8,EEG.FC6,EEG.F4,EEG.F8,EEG.AF4,EEG.RawCq,EEG.Battery,EEG.BatteryPercent,MarkerIndex,MarkerType,MarkerValueInt,EEG.MarkerHardware,CQ.AF3,CQ.F7,CQ.F3,CQ.FC5,CQ.T7,CQ.P7,CQ.O1,CQ.O2,CQ.P8,CQ.T8,CQ.FC6,CQ.F4,CQ.F8,CQ.AF4,CQ.Overall,EQ.SampleRateQuality,EQ.OVERALL,EQ.AF3,EQ.F7,EQ.F3,EQ.FC5,EQ.T7,EQ.P7,EQ.O1,EQ.O2,EQ.P8,EQ.T8,EQ.FC6,EQ.F4,EQ.F8,EQ.AF4
1645707394.620704,53.000000,0.000000,4192.820313,4216.794922,4207.179688,4208.205078,4199.871582,4204.230957,4201.153809,4199.102539,4201.538574,4207.051270,4202.563965,4186.666504,4187.436035,4196.666504,0.000000,4.000000,95.000000,,,,0.000000,4.000000,4.000000,4.000000,4.000000,4.000000,4.000000,4.000000,4.000000,4.000000,4.000000,4.000000,4.000000,4.000000,4.000000,100.000000,,,,,,,,,,,,,,,,
1645707394.624744,54.000000,0.000000,4186.153809,4211.666504,4205.000000,4206.922852,4198.205078,4202.820313,4200.897461,4196.794922,4196.410156,4201.282227,4195.769043,4178.846191,4183.077148,4191.666504,0.000000,4.000000,95.000000,,,,0.000000,4.000000,4.000000,4.000000,4.000000,4.000000,4.000000,4.000000,4.000000,4.000000,4.000000,4.000000,4.000000,4.000000,4.000000,100.000000,,,,,,,,,,,,,,,,
1645707394.628684,55.000000,0.000000,4182.692383,4206.410156,4201.410156,4200.641113,4194.743652,4199.871582,4198.589844,4194.487305,4190.128418,4192.563965,4187.820313,4171.282227,4177.179688,4182.692383,0.000000,4.000000,95.000000,,,,0.000000,4.000000,4.000000,4.000000,4.000000,4.000000,4.000000,4.000000,4.000000,4.000000,4.000000,4.000000,4.000000,4.000000,4.000000,100.000000,,,,,,,,,,,,,,,,
1645707394.632624,56.000000,0.000000,4184.358887,4205.769043,4198.077148,4195.512695,4192.436035,4198.461426,4195.769043,4193.333496,4186.538574,4186.922852,4184.743652,4168.205078,4173.974121,4176.538574,0.000000,4.000000,95.000000,,,,0.000000,4.000000,4.000000,4.000000,4.000000,4.000000,4.000000,4.000000,4.000000,4.000000,4.000000,4.000000,4.000000,4.000000,4.000000,100.000000,,,,,,,,,,,,,,,,
1645707394.636564,57.000000,0.000000,4189.358887,4210.000000,4196.282227,4195.384766,4192.820313,4199.871582,4194.871582,4194.102539,4187.563965,4187.051270,4188.205078,4171.410156,4175.384766,4178.205078,0.000000,4.000000,95.000000,,,,0.000000,4.000000,4.000000,4.000000,4.000000,4.000000,4.000000,4.000000,4.000000,4.000000,4.000000,4.000000,4.000000,4.000000,4.000000,100.000000,,,,,,,,,,,,,,,,
1645707394.640504,58.000000,0.000000,4193.205078,4214.743652,4196.153809,4198.974121,4195.512695,4202.436035,4197.307617,4196.538574,4191.410156,4191.153809,4194.743652,4179.358887,4179.615234,4185.384766,0.000000,4.000000,95.000000,,,,0.000000,4.000000,4.000000,4.000000,4.000000,4.000000,4.000000,4.000000,4.000000,4.000000,4.000000,4.000000,4.000000,4.000000,4.000000,100.000000,,,,,,,,,,,,,,,,
1645707394.644445,59.000000,0.000000,4192.820313,4215.641113,4196.794922,4201.794922,4199.358887,4203.333496,4200.897461,4199.743652,4195.000000,4196.282227,4199.487305,4188.077148,4183.846191,4191.922852,0.000000,4.000000,95.000000,,,,0.000000,4.000000,4.000000,4.000000,4.000000,4.000000,4.000000,4.000000,4.000000,4.000000,4.000000,4.000000,4.000000,4.000000,4.000000,100.000000,,,,,,,,,,,,,,,,
1645707394.648385,60.000000,0.000000,4189.487305,4212.820313,4197.820313,4200.512695,4202.948730,4201.666504,4202.307617,4202.820313,4196.922852,4201.410156,4200.256348,4194.230957,4186.410156,4193.333496,0.000000,4.000000,95.000000,,,,0.000000,4.000000,4.000000,4.000000,4.000000,4.000000,4.000000,4.000000,4.000000,4.000000,4.000000,4.000000,4.000000,4.000000,4.000000,100.000000,,,,,,,,,,,,,,,,
1645707394.652325,61.000000,0.000000,4187.179688,4209.871582,4199.743652,4196.410156,4204.743652,4198.846191,4200.256348,4206.410156,4197.692383,4206.666504,4198.974121,4196.025879,4187.948730,4191.025879,0.000000,4.000000,95.000000,,,,0.000000,4.000000,4.000000,4.000000,4.000000,4.000000,4.000000,4.000000,4.000000,4.000000,4.000000,4.000000,4.000000,4.000000,4.000000,100.000000,,,,,,,,,,,,,,,,
1645707394.656265,62.000000,0.000000,4188.717773,4209.743652,4202.307617,4193.077148,4203.461426,4196.538574,4197.179688,4210.641113,4198.461426,4211.538574,4198.461426,4194.358887,4189.102539,4188.717773,0.000000,4.000000,95.000000,,,,0.000000,4.000000,4.000000,4.000000,4.000000,4.000000,4.000000,4.000000,4.000000,4.000000,4.000000,4.000000,4.000000,4.000000,4.000000,100.000000,,,,,,,,,,,,,,,,
1645707394.660205,63.000000,0.000000,4193.077148,4212.179688,4204.102539,4194.102539,4199.743652,4195.641113,4196.025879,4214.487305,4199.230957,4213.974121,4200.384766,4191.794922,4190.000000,4189.102539,0.000000,4.000000,95.000000,,,,0.000000,4.000000,4.000000,4.000000,4.000000,4.000000,4.000000,4.000000,4.000000,4.000000,4.000000,4.000000,4.000000,4.000000,4.000000,100.000000,,,,,,,,,,,,,,,,
1645707394.664145,64.000000,0.000000,4197.563965,4214.615234,4203.589844,4199.615234,4196.922852,4196.410156,4197.692383,4216.025879,4199.487305,4212.563965,4204.230957,4190.897461,4191.410156,4191.282227,0.000000,4.000000,95.000000,,,,0.000000,4.000000,4.000000,4.000000,4.000000,4.000000,4.000000,4.000000,4.000000,4.000000,4.000000,4.000000,4.000000,4.000000,4.000000,100.000000,,,,,,,,,,,,,,,,
1645707394.668085,65.000000,0.000000,4199.871582,4215.769043,4201.025879,4206.794922,4198.077148,4198.717773,4200.128418,4214.102539,4198.461426,4208.333496,4208.205078,4191.153809,4194.102539,4192.820313,0.000000,4.000000,95.000000,,,,0.000000,4.000000,4.000000,4.000000,4.000000,4.000000,4.000000,4.000000,4.000000,4.000000,4.000000,4.000000,4.000000,4.000000,4.000000,100.000000,,,,,,,,,,,,,,,,
1645707394.672025,66.000000,0.000000,4199.487305,4215.512695,4198.333496,4211.153809,4202.436035,4201.025879,4200.897461,4210.384766,4197.051270,4204.102539,4210.000000,4190.897461,4198.077148,4192.051270,0.000000,4.000000,95.000000,,,,0.000000,4.000000,4.000000,4.000000,4.000000,4.000000,4.000000,4.000000,4.000000,4.000000,4.000000,4.000000,4.000000,4.000000,4.000000,100.000000,,,,,,,,,,,,,,,,
1645707394.675965,67.000000,0.000000,4197.563965,4214.871582,4198.205078,4209.615234,4205.384766,4201.410156,4199.487305,4207.820313,4196.538574,4202.307617,4208.589844,4188.974121,4201.153809,4189.743652,0.000000,4.000000,95.000000,,,,0.000000,4.000000,4.000000,4.000000,4.000000,4.000000,4.000000,4.000000,4.000000,4.000000,4.000000,4.000000,4.000000,4.000000,4.000000,100.000000,,,,,,,,,,,,,,,,
1645707394.679905,68.000000,0.000000,4196.410156,4215.000000,4201.538574,4204.358887,4203.717773,4199.358887,4197.563965,4207.820313,4197.051270,4204.230957,4205.256348,4186.794922,4201.666504,4189.230957,0.000000,4.000000,95.000000,,,,0.000000,4.000000,4.000000,4.000000,4.000000,4.000000,4.000000,4.000000,4.000000,4.000000,4.000000,4.000000,4.000000,4.000000,4.000000,100.000000,,,,,,,,,,,,,,,,
1645707394.683846,69.000000,0.000000,4198.077148,4216.410156,4206.538574,4201.025879,4199.358887,4196.666504,4196.794922,4209.102539,4197.692383,4208.589844,4203.333496,4186.922852,4200.256348,4194.487305,0.000000,4.000000,95.000000,,,,0.000000,4.000000,4.000000,4.000000,4.000000,4.000000,4.000000,4.000000,4.000000,4.000000,4.000000,4.000000,4.000000,4.000000,4.000000,100.000000,,,,,,,,,,,,,,,,
1645707394.687786,70.000000,0.000000,4201.794922,4218.846191,4209.743652,4202.820313,4197.179688,4196.282227,4197.692383,4208.974121,4197.692383,4213.205078,4205.128418,4190.897461,4198.717773,4205.256348,0.000000,4.000000,95.000000,,,,0.000000,4.000000,4.000000,4.000000,4.000000,4.000000,4.000000,4.000000,4.000000,4.000000,4.000000,4.000000,4.000000,4.000000,4.000000,100.000000,,,,,,,,,,,,,,,,
1645707394.691726,71.000000,0.000000,4203.974121,4220.512695,4208.846191,4207.948730,4200.256348,4198.717773,4199.230957,4206.538574,4196.410156,4216.025879,4209.615234,4197.948730,4197.820313,4215.384766,0.000000,4.000000,95.000000,,,,0.000000,4.000000,4.000000,4.000000,4.000000,4.000000,4.000000,4.000000,4.000000,4.000000,4.000000,4.000000,4.000000,4.000000,4.000000,100.000000,,,,,,,,,,,,,,,,
1645707394.695666,72.000000,0.000000,4200.769043,4218.974121,4203.974121,4211.538574,4206.153809,4202.179688,4200.897461,4203.846191,4194.615234,4215.897461,4212.820313,4204.615234,4196.666504,4216.666504,0.000000,4.000000,95.000000,,,,0.000000,4.000000,4.000000,4.000000,4.000000,4.000000,4.000000,4.000000,4.000000,4.000000,4.000000,4.000000,4.000000,4.000000,4.000000,100.000000,,,,,,,,,,,,,,,,
1645707394.699706,73.000000,0.000000,4192.820313,4213.846191,4197.820313,4210.769043,4210.256348,4203.974121,4202.436035,4203.589844,4193.461426,4213.461426,4211.025879,4206.794922,4194.487305,4206.282227,0.000000,4.000000,95.000000,,,,0.000000,4.000000,4.000000,4.000000,4.000000,4.000000,4.000000,4.000000,4.000000,4.000000,4.000000,4.000000,4.000000,4.000000,4.000000,100.000000,,,,,,,,,,,,,,,,
1645707394.703646,74.000000,0.000000,4185.641113,4207.820313,4192.948730,4207.051270,4209.615234,4203.461426,4203.333496,4206.538574,4194.615234,4210.769043,4205.256348,4203.077148,4192.563965,4191.410156,0.000000,4.000000,95.000000,,,,0.000000,4.000000,4.000000,4.000000,4.000000,4.000000,4.000000,4.000000,4.000000,4.000000,4.000000,4.000000,4.000000,4.000000,4.000000,100.000000,,,,,,,,,,,,,,,,
1645707394.707586,75.000000,0.000000,4184.871582,4204.743652,4191.025879,4204.102539,4205.128418,4201.666504,4202.563965,4210.384766,4197.692383,4209.615234,4199.871582,4195.641113,4193.461426,4182.692383,0.000000,4.000000,95.000000,,,,0.000000,4.000000,4.000000,4.000000,4.000000,4.000000,4.000000,4.000000,4.000000,4.000000,4.000000,4.000000,4.000000,4.000000,4.000000,100.000000,,,,,,,,,,,,,,,,
1645707394.711526,76.000000,0.000000,4191.153809,4205.897461,4192.051270,4203.589844,4200.000000,4199.743652,4199.871582,4211.794922,4200.641113,4209.102539,4198.717773,4189.102539,4197.436035,4184.358887,0.000000,4.000000,95.000000,,,,0.000000,4.000000,4.000000,4.000000,4.000000,4.000000,4.000000,4.000000,4.000000,4.000000,4.000000,4.000000,4.000000,4.000000,4.000000,100.000000,,,,,,,,,,,,,,,,
1645707394.715466,77.000000,0.000000,4198.846191,4208.846191,4195.256348,4204.358887,4197.051270,4198.589844,4196.922852,4209.871582,4201.410156,4207.436035,4201.666504,4187.051270,4200.897461,4190.897461,0.000000,4.000000,95.000000,,,,0.000000,4.000000,4.000000,4.000000,4.000000,4.000000,4.000000,4.000000,4.000000,4.000000,4.000000,4.000000,4.000000,4.000000,4.000000,100.000000,,,,,,,,,,,,,,,,
1645707394.719406,78.000000,0.000000,4202.051270,4210.769043,4199.743652,4204.615234,4197.307617,4198.461426,4196.538574,4207.563965,4200.000000,4203.717773,4205.769043,4189.230957,4199.230957,4193.717773,0.000000,4.000000,95.000000,,,,0.000000,4.000000,4.000000,4.000000,4.000000,4.000000,4.000000,4.000000,4.000000,4.000000,4.000000,4.000000,4.000000,4.000000,4.000000,100.000000,,,,,,,,,,,,,,,,
1645707394.723347,79.000000,0.000000,4199.230957,4211.282227,4204.358887,4203.717773,4200.384766,4200.128418,4200.128418,4207.692383,4198.589844,4200.897461,4209.358887,4192.563965,4191.153809,4189.743652,0.000000,4.000000,95.000000,,,,0.000000,4.000000,4.000000,4.000000,4.000000,4.000000,4.000000,4.000000,4.000000,4.000000,4.000000,4.000000,4.000000,4.000000,4.000000,100.000000,,,,,,,,,,,,,,,,
1645707394.727287,80.000000,0.000000,4195.256348,4211.922852,4208.205078,4202.948730,4204.743652,4203.717773,4205.641113,4211.025879,4199.487305,4202.948730,4212.436035,4193.589844,4180.128418,4184.615234,0.000000,4.000000,95.000000,,,,0.000000,4.000000,4.000000,4.000000,4.000000,4.000000,4.000000,4.000000,4.000000,4.000000,4.000000,4.000000,4.000000,4.000000,4.000000,100.000000,,,,,,,,,,,,,,,,
1645707394.731227,81.000000,0.000000,4195.384766,4214.102539,4210.641113,4204.230957,4208.974121,4208.333496,4209.871582,4215.897461,4202.692383,4210.769043,4215.384766,4192.051270,4172.307617,4186.410156,0.000000,4.000000,95.000000,,,,0.000000,4.000000,4.000000,4.000000,4.000000,4.000000,4.000000,4.000000,4.000000,4.000000,4.000000,4.000000,4.000000,4.000000,4.000000,100.000000,,,,,,,,,,,,,,,,
1645707394.735167,82.000000,0.000000,4200.256348,4217.051270,4212.051270,4208.205078,4211.666504,4211.410156,4211.153809,4219.615234,4205.641113,4219.871582,4216.666504,4190.769043,4171.794922,4196.794922,0.000000,4.000000,95.000000,,,,0.000000,4.000000,4.000000,4.000000,4.000000,4.000000,4.000000,4.000000,4.000000,4.000000,4.000000,4.000000,4.000000,4.000000,4.000000,100.000000,,,,,,,,,,,,,,,,
1645707394.739107,83.000000,0.000000,4205.897461,4218.205078,4212.692383,4212.692383,4212.179688,4211.282227,4210.128418,4220.512695,4206.025879,4224.871582,4214.102539,4192.179688,4177.692383,4209.358887,0.000000,4.000000,95.000000,,,,0.000000,4.000000,4.000000,4.000000,4.000000,4.000000,4.000000,4.000000,4.000000,4.000000,4.000000,4.000000,4.000000,4.000000,4.000000,100.000000,,,,,,,,,,,,,,,,
1645707394.743047,84.000000,0.000000,4207.563965,4215.897461,4212.307617,4214.615234,4211.153809,4208.461426,4208.589844,4218.077148,4203.333496,4223.077148,4207.692383,4195.256348,4185.000000,4214.615234,0.000000,4.000000,95.000000,,,,0.000000,4.000000,4.000000,4.000000,4.000000,4.000000,4.000000,4.000000,4.000000,4.000000,4.000000,4.000000,4.000000,4.000000,4.000000,100.000000,,,,,,,,,,,,,,,,
1645707394.746987,85.000000,0.000000,4203.461426,4210.641113,4209.743652,4211.153809,4209.487305,4205.897461,4207.051270,4212.948730,4198.974121,4216.410156,4200.512695,4196.410156,4188.589844,4208.461426,0.000000,4.000000,95.000000,,,,0.000000,4.000000,4.000000,4.000000,4.000000,4.000000,4.000000,4.000000,4.000000,4.000000,4.000000,4.000000,4.000000,4.000000,4.000000,100.000000,,,,,,,,,,,,,,,,
1645707394.750927,86.000000,0.000000,4195.641113,4204.743652,4204.487305,4203.205078,4208.077148,4205.256348,4205.256348,4207.307617,4195.256348,4208.333496,4195.769043,4192.948730,4186.666504,4195.128418,0.000000,4.000000,95.000000,,,,0.000000,4.000000,4.000000,4.000000,4.000000,4.000000,4.000000,4.000000,4.000000,4.000000,4.000000,4.000000,4.000000,4.000000,4.000000,100.000000,,,,,,,,,,,,,,,,
1645707394.754867,87.000000,0.000000,4188.461426,4201.025879,4198.461426,4195.000000,4206.538574,4206.025879,4203.461426,4203.589844,4193.717773,4201.666504,4195.256348,4186.153809,4182.051270,4183.589844,0.000000,4.000000,95.000000,,,,0.000000,4.000000,4.000000,4.000000,4.000000,4.000000,4.000000,4.000000,4.000000,4.000000,4.000000,4.000000,4.000000,4.000000,4.000000,100.000000,,,,,,,,,,,,,,,,
1645707394.758807,88.000000,0.000000,4185.897461,4201.794922,4194.487305,4191.794922,4205.128418,4207.051270,4202.563965,4203.333496,4194.871582,4197.563965,4198.717773,4179.743652,4179.230957,4180.512695,0.000000,4.000000,95.000000,,,,0.000000,4.000000,4.000000,4.000000,4.000000,4.000000,4.000000,4.000000,4.000000,4.000000,4.000000,4.000000,4.000000,4.000000,4.000000,100.000000,,,,,,,,,,,,,,,,
1645707394.762748,89.000000,0.000000,4190.128418,4207.179688,4194.358887,4196.025879,4204.487305,4208.077148,4202.820313,4205.769043,4197.692383,4197.051270,4204.487305,4177.692383,4181.794922,4186.538574,0.000000,4.000000,95.000000,,,,0.000000,4.000000,4.000000,4.000000,4.000000,4.000000,4.000000,4.000000,4.000000,4.000000,4.000000,4.000000,4.000000,4.000000,4.000000,100.000000,,,,,,,,,,,,,,,,
1645707394.766688,90.000000,0.000000,4200.000000,4214.487305,4196.666504,4204.743652,4205.256348,4209.615234,4203.461426,4208.333496,4200.769043,4201.153809,4210.641113,4181.410156,4189.871582,4196.666504,0.000000,4.000000,95.000000,,,,0.000000,4.000000,4.000000,4.000000,4.000000,4.000000,4.000000,4.000000,4.000000,4.000000,4.000000,4.000000,4.000000,4.000000,4.000000,100.000000,,,,,,,,,,,,,,,,
1645707394.770528,91.000000,0.000000,4210.641113,4219.102539,4199.230957,4211.922852,4206.538574,4211.282227,4203.077148,4209.871582,4202.436035,4208.974121,4214.615234,4188.205078,4200.256348,4204.743652,0.000000,4.000000,95.000000,,,,0.000000,4.000000,4.000000,4.000000,4.000000,4.000000,4.000000,4.000000,4.000000,4.000000,4.000000,4.000000,4.000000,4.000000,4.000000,100.000000,,,,,,,,,,,,,,,,
1645707394.774468,92.000000,0.000000,4215.769043,4217.051270,4200.384766,4212.436035,4207.179688,4212.051270,4201.922852,4210.256348,4202.692383,4217.051270,4213.717773,4192.820313,4208.205078,4207.179688,0.000000,4.000000,95.000000,,,,0.000000,4.000000,4.000000,4.000000,4.000000,4.000000,4.000000,4.000000,4.000000,4.000000,4.000000,4.000000,4.000000,4.000000,4.000000,100.000000,1.000000,83.333336,4.000000,4.000000,4.000000,4.000000,4.000000,4.000000,4.000000,4.000000,2.000000,4.000000,4.000000,4.000000,4.000000,4.000000
1645707394.778408,93.000000,0.000000,4211.666504,4208.717773,4200.384766,4206.025879,4206.153809,4211.153809,4201.538574,4210.641113,4201.794922,4220.256348,4208.333496,4191.282227,4210.384766,4203.589844,0.000000,4.000000,95.000000,,,,0.000000,4.000000,4.000000,4.000000,4.000000,4.000000,4.000000,4.000000,4.000000,4.000000,4.000000,4.000000,4.000000,4.000000,4.000000,100.000000,,,,,,,,,,,,,,,,
1645707394.782348,94.000000,0.000000,4200.641113,4199.487305,4199.102539,4196.666504,4203.974121,4209.358887,4202.179688,4211.282227,4201.025879,4217.307617,4202.307617,4184.102539,4207.179688,4196.922852,0.000000,4.000000,95.000000,,,,0.000000,4.000000,4.000000,4.000000,4.000000,4.000000,4.000000,4.000000,4.000000,4.000000,4.000000,4.000000,4.000000,4.000000,4.000000,100.000000,,,,,,,,,,,,,,,,
1645707394.786288,95.000000,0.000000,4190.384766,4195.769043,4196.922852,4190.000000,4202.051270,4208.333496,4203.077148,4211.538574,4201.153809,4211.410156,4200.641113,4176.025879,4202.307617,4191.410156,0.000000,4.000000,95.000000,,,,0.000000,4.000000,4.000000,4.000000,4.000000,4.000000,4.000000,4.000000,4.000000,4.000000,4.000000,4.000000,4.000000,4.000000,4.000000,100.000000,,,,,,,,,,,,,,,,
1645707394.790228,96.000000,0.000000,4188.205078,4200.128418,4194.615234,4190.000000,4201.538574,4208.717773,4202.948730,4211.282227,4202.692383,4207.436035,4204.871582,4172.436035,4199.230957,4190.512695,0.000000,4.000000,95.000000,,,,0.000000,4.000000,4.000000,4.000000,4.000000,4.000000,4.000000,4.000000,4.000000,4.000000,4.000000,4.000000,4.000000,4.000000,4.000000,100.000000,,,,,,,,,,,,,,,,
1645707394.794169,97.000000,0.000000,4194.871582,4208.461426,4193.717773,4196.410156,4201.922852,4209.487305,4202.436035,4211.538574,4205.256348,4207.436035,4211.666504,4174.615234,4198.846191,4194.615234,0.000000,4.000000,95.000000,,,,0.000000,4.000000,4.000000,4.000000,4.000000,4.000000,4.000000,4.000000,4.000000,4.000000,4.000000,4.000000,4.000000,4.000000,4.000000,100.000000,,,,,,,,,,,,,,,,
1645707394.798109,98.000000,0.000000,4203.974121,4214.102539,4195.128418,4205.256348,4202.051270,4209.743652,4203.205078,4213.846191,4207.051270,4209.743652,4215.769043,4180.512695,4199.615234,4200.384766,0.000000,4.000000,95.000000,,,,0.000000,4.000000,4.000000,4.000000,4.000000,4.000000,4.000000,4.000000,4.000000,4.000000,4.000000,4.000000,4.000000,4.000000,4.000000,100.000000,,,,,,,,,,,,,,,,
1645707394.802049,99.000000,0.000000,4207.307617,4213.333496,4197.692383,4211.922852,4201.922852,4209.487305,4206.025879,4218.461426,4206.922852,4212.307617,4214.743652,4187.436035,4200.641113,4203.717773,0.000000,4.000000,95.000000,,,,0.000000,4.000000,4.000000,4.000000,4.000000,4.000000,4.000000,4.000000,4.000000,4.000000,4.000000,4.000000,4.000000,4.000000,4.000000,100.000000,,,,,,,,,,,,,,,,
1645707394.805989,100.000000,0.000000,4202.692383,4209.102539,4199.743652,4213.589844,4202.820313,4210.256348,4209.615234,4222.820313,4205.769043,4214.871582,4211.025879,4194.230957,4202.563965,4202.820313,0.000000,4.000000,95.000000,,,,0.000000,4.000000,4.000000,4.000000,4.000000,4.000000,4.000000,4.000000,4.000000,4.000000,4.000000,4.000000,4.000000,4.000000,4.000000,100.000000,,,,,,,,,,,,,,,,
1645707394.809929,101.000000,0.000000,4195.384766,4206.922852,4199.871582,4211.410156,4206.025879,4212.563965,4211.538574,4224.358887,4205.256348,4218.077148,4209.102539,4200.256348,4206.410156,4199.871582,0.000000,4.000000,95.000000,,,,0.000000,4.000000,4.000000,4.000000,4.000000,4.000000,4.000000,4.000000,4.000000,4.000000,4.000000,4.000000,4.000000,4.000000,4.000000,100.000000,,,,,,,,,,,,,,,,
1645707394.813869,102.000000,0.000000,4192.948730,4209.487305,4198.589844,4208.333496,4210.128418,4214.487305,4211.410156,4222.051270,4206.025879,4221.282227,4211.410156,4203.717773,4211.538574,4197.563965,0.000000,4.000000,95.000000,,,,0.000000,4.000000,4.000000,4.000000,4.000000,4.000000,4.000000,4.000000,4.000000,4.000000,4.000000,4.000000,4.000000,4.000000,4.000000,100.000000,,,,,,,,,,,,,,,,
1645707394.817809,103.000000,0.000000,4198.974121,4215.000000,4197.563965,4206.922852,4212.051270,4214.102539,4210.384766,4217.820313,4207.563965,4222.307617,4216.410156,4202.948730,4215.641113,4197.563965,0.000000,4.000000,95.000000,,,,0.000000,4.000000,4.000000,4.000000,4.000000,4.000000,4.000000,4.000000,4.000000,4.000000,4.000000,4.000000,4.000000,4.000000,4.000000,100.000000,,,,,,,,,,,,,,,,
1645707394.821749,104.000000,0.000000,4210.384766,4219.230957,4198.205078,4207.436035,4210.641113,4211.153809,4210.256348,4214.358887,4208.077148,4220.384766,4220.512695,4198.077148,4217.179688,4199.487305,0.000000,4.000000,95.000000,,,,0.000000,4.000000,4.000000,4.000000,4.000000,4.000000,4.000000,4.000000,4.000000,4.000000,4.000000,4.000000,4.000000,4.000000,4.000000,100.000000,,,,,,,,,,,,,,,,
1645707394.825689,105.000000,0.000000,4220.512695,4219.743652,4200.128418,4208.974121,4207.820313,4208.077148,4210.512695,4212.948730,4207.307617,4216.922852,4221.410156,4191.922852,4216.794922,4202.692383,0.000000,4.000000,95.000000,,,,0.000000,4.000000,4.000000,4.000000,4.000000,4.000000,4.000000,4.000000,4.000000,4.000000,4.000000,4.000000,4.000000,4.000000,4.000000,100.000000,,,,,,,,,,,,,,,,
1645707394.829629,106.000000,0.000000,4223.717773,4217.307617,4201.410156,4210.641113,4206.025879,4207.563965,4210.000000,4212.436035,4205.769043,4213.974121,4219.230957,4187.692383,4216.025879,4206.282227,0.000000,4.000000,95.000000,,,,0.000000,4.000000,4.000000,4.000000,4.000000,4.000000,4.000000,4.000000,4.000000,4.000000,4.000000,4.000000,4.000000,4.000000,4.000000,100.000000,,,,,,,,,,,,,,,,
1645707394.833570,107.000000,0.000000,4219.487305,4214.230957,4200.769043,4212.563965,4205.769043,4209.615234,4208.077148,4211.153809,4204.102539,4212.692383,4215.512695,4187.051270,4214.743652,4208.333496,0.000000,4.000000,95.000000,,,,0.000000,4.000000,4.000000,4.000000,4.000000,4.000000,4.000000,4.000000,4.000000,4.000000,4.000000,4.000000,4.000000,4.000000,4.000000,100.000000,,,,,,,,,,,,,,,,
1645707394.837510,108.000000,0.000000,4212.563965,4212.563965,4198.461426,4213.846191,4204.871582,4212.051270,4206.282227,4208.974121,4203.077148,4212.307617,4212.179688,4189.358887,4211.538574,4206.794922,0.000000,4.000000,95.000000,,,,0.000000,4.000000,4.000000,4.000000,4.000000,4.000000,4.000000,4.000000,4.000000,4.000000,4.000000,4.000000,4.000000,4.000000,4.000000,100.000000,,,,,,,,,,,,,,,,
1645707394.841350,109.000000,0.000000,4208.974121,4213.205078,4196.282227,4213.974121,4202.051270,4212.436035,4206.282227,4207.436035,4201.922852,4211.922852,4210.512695,4191.538574,4206.153809,4202.051270,0.000000,4.000000,95.000000,,,,0.000000,4.000000,4.000000,4.000000,4.000000,4.000000,4.000000,4.000000,4.000000,4.000000,4.000000,4.000000,4.000000,4.000000,4.000000,100.000000,,,,,,,,,,,,,,,,
1645707394.845290,110.000000,0.000000,4211.153809,4215.769043,4195.512695,4212.307617,4198.589844,4210.512695,4207.563965,4207.436035,4200.384766,4210.769043,4209.871582,4191.410156,4201.538574,4197.820313,0.000000,4.000000,95.000000,,,,0.000000,4.000000,4.000000,4.000000,4.000000,4.000000,4.000000,4.000000,4.000000,4.000000,4.000000,4.000000,4.000000,4.000000,4.000000,100.000000,,,,,,,,,,,,,,,,
1645707394.849230,111.000000,0.000000,4215.769043,4218.333496,4195.897461,4208.974121,4196.922852,4208.589844,4208.461426,4208.333496,4198.589844,4208.589844,4208.589844,4188.974121,4200.512695,4197.563965,0.000000,4.000000,95.000000,,,,0.000000,4.000000,4.000000,4.000000,4.000000,4.000000,4.000000,4.000000,4.000000,4.000000,4.000000,4.000000,4.000000,4.000000,4.000000,100.000000,,,,,,,,,,,,,,,,
1645707394.853170,112.000000,0.000000,4217.307617,4218.205078,4196.538574,4204.230957,4198.333496,4208.205078,4207.948730,4208.974121,4197.051270,4205.000000,4205.897461,4186.410156,4203.077148,4200.641113,0.000000,4.000000,95.000000,,,,0.000000,4.000000,4.000000,4.000000,4.000000,4.000000,4.000000,4.000000,4.000000,4.000000,4.000000,4.000000,4.000000,4.000000,4.000000,100.000000,,,,,,,,,,,,,,,,
1645707394.857110,113.000000,0.000000,4213.205078,4214.743652,4196.538574,4199.487305,4201.538574,4208.846191,4206.922852,4208.846191,4195.897461,4200.256348,4202.179688,4185.897461,4205.384766,4203.846191,0.000000,4.000000,95.000000,,,,0.000000,4.000000,4.000000,4.000000,4.000000,4.000000,4.000000,4.000000,4.000000,4.000000,4.000000,4.000000,4.000000,4.000000,4.000000,100.000000,,,,,,,,,,,,,,,,
1645707394.861050,114.000000,0.000000,4206.666504,4210.512695,4195.512695,4197.051270,4204.743652,4209.102539,4207.051270,4208.974121,4195.769043,4196.282227,4200.128418,4187.948730,4204.743652,4203.717773,0.000000,4.000000,95.000000,,,,0.000000,4.000000,4.000000,4.000000,4.000000,4.000000,4.000000,4.000000,4.000000,4.000000,4.000000,4.000000,4.000000,4.000000,4.000000,100.000000,,,,,,,,,,,,,,,,
1645707394.864991,115.000000,0.000000,4203.205078,4208.846191,4193.846191,4198.717773,4207.436035,4209.358887,4208.461426,4211.025879,4197.436035,4196.153809,4202.051270,4191.538574,4202.051270,4199.743652,0.000000,4.000000,95.000000,,,,0.000000,4.000000,4.000000,4.000000,4.000000,4.000000,4.000000,4.000000,4.000000,4.000000,4.000000,4.000000,4.000000,4.000000,4.000000,100.000000,,,,,,,,,,,,,,,,
1645707394.868931,116.000000,0.000000,4205.000000,4210.512695,4192.692383,4203.589844,4209.743652,4211.025879,4210.384766,4215.128418,4201.153809,4201.410156,4208.333496,4194.871582,4200.256348,4193.846191,0.000000,4.000000,95.000000,,,,0.000000,4.000000,4.000000,4.000000,4.000000,4.000000,4.000000,4.000000,4.000000,4.000000,4.000000,4.000000,4.000000,4.000000,4.000000,100.000000,,,,,,,,,,,,,,,,
1645707394.872871,117.000000,0.000000,4208.974121,4212.820313,4192.692383,4208.205078,4211.025879,4214.358887,4211.666504,4219.743652,4205.000000,4208.974121,4215.000000,4196.666504,4200.769043,4188.461426,0.000000,4.000000,95.000000,,,,0.000000,4.000000,4.000000,4.000000,4.000000,4.000000,4.000000,4.000000,4.000000,4.000000,4.000000,4.000000,4.000000,4.000000,4.000000,100.000000,,,,,,,,,,,,,,,,
1645707394.876811,118.000000,0.000000,4209.615234,4212.307617,4193.974121,4208.589844,4210.000000,4218.077148,4212.692383,4223.205078,4207.051270,4213.974121,4216.922852,4196.666504,4202.307617,4186.025879,0.000000,4.000000,95.000000,,,,0.000000,4.000000,4.000000,4.000000,4.000000,4.000000,4.000000,4.000000,4.000000,4.000000,4.000000,4.000000,4.000000,4.000000,4.000000,100.000000,,,,,,,,,,,,,,,,
1645707394.880751,119.000000,0.000000,4205.641113,4209.102539,4195.128418,4203.974121,4206.538574,4219.615234,4213.846191,4224.230957,4206.794922,4213.461426,4212.179688,4195.512695,4202.563965,4188.717773,0.000000,4.000000,95.000000,,,,0.000000,4.000000,4.000000,4.000000,4.000000,4.000000,4.000000,4.000000,4.000000,4.000000,4.000000,4.000000,4.000000,4.000000,4.000000,100.000000,,,,,,,,,,,,,,,,
1645707394.884691,120.000000,0.000000,4200.641113,4206.538574,4194.487305,4197.179688,4202.692383,4218.077148,4214.487305,4221.794922,4205.512695,4208.974121,4204.102539,4193.205078,4200.897461,4196.153809,0.000000,4.000000,95.000000,,,,0.000000,4.000000,4.000000,4.000000,4.000000,4.000000,4.000000,4.000000,4.000000,4.000000,4.000000,4.000000,4.000000,4.000000,4.000000,100.000000,,,,,,,,,,,,,,,,
1645707394.888631,121.000000,0.000000,4199.358887,4206.410156,4191.666504,4192.179688,4200.641113,4214.230957,4213.077148,4216.538574,4204.615234,4204.230957,4198.589844,4188.846191,4197.563965,4203.846191,0.000000,4.000000,95.000000,,,,0.000000,4.000000,4.000000,4.000000,4.000000,4.000000,4.000000,4.000000,4.000000,4.000000,4.000000,4.000000,4.000000,4.000000,4.000000,100.000000,,,,,,,,,,,,,,,,
1645707394.892571,122.000000,0.000000,4201.410156,4206.922852,4187.436035,4190.512695,4200.384766,4209.871582,4208.974121,4210.000000,4203.717773,4201.666504,4198.461426,4182.436035,4193.846191,4204.743652,0.000000,4.000000,95.000000,,,,0.000000,4.000000,4.000000,4.000000,4.000000,4.000000,4.000000,4.000000,4.000000,4.000000,4.000000,4.000000,4.000000,4.000000,4.000000,100.000000,,,,,,,,,,,,,,,,
1645707394.896511,123.000000,0.000000,4201.538574,4204.230957,4184.615234,4190.769043,4199.615234,4206.410156,4203.974121,4204.615234,4202.307617,4200.128418,4201.153809,4176.538574,4190.897461,4195.256348,0.000000,4.000000,95.000000,,,,0.000000,4.000000,4.000000,4.000000,4.000000,4.000000,4.000000,4.000000,4.000000,4.000000,4.000000,4.000000,4.000000,4.000000,4.000000,100.000000,,,,,,,,,,,,,,,,
1645707394.900451,124.000000,0.000000,4196.153809,4197.692383,4185.000000,4190.897461,4196.922852,4205.000000,4201.282227,4202.051270,4200.384766,4197.820313,4202.563965,4174.358887,4189.871582,4179.743652,0.000000,4.000000,95.000000,,,,0.000000,4.000000,4.000000,4.000000,4.000000,4.000000,4.000000,4.000000,4.000000,4.000000,4.000000,4.000000,4.000000,4.000000,4.000000,100.000000,,,,,,,,,,,,,,,,
1645707394.904392,125.000000,0.000000,4187.692383,4191.025879,4188.461426,4191.025879,4193.974121,4205.769043,4201.666504,4201.922852,4199.102539,4194.487305,4201.025879,4177.307617,4191.153809,4168.974121,0.000000,4.000000,95.000000,,,,0.000000,4.000000,4.000000,4.000000,4.000000,4.000000,4.000000,4.000000,4.000000,4.000000,4.000000,4.000000,4.000000,4.000000,4.000000,100.000000,,,,,,,,,,,,,,,,
1645707394.908432,126.000000,0.000000,4182.948730,4189.358887,4193.077148,4192.948730,4193.333496,4208.077148,4203.717773,4202.692383,4199.102539,4193.077148,4198.333496,4182.948730,4193.717773,4170.512695,0.000000,4.000000,95.000000,,,,0.000000,4.000000,4.000000,4.000000,4.000000,4.000000,4.000000,4.000000,4.000000,4.000000,4.000000,4.000000,4.000000,4.000000,4.000000,100.000000,,,,,,,,,,,,,,,,
1645707394.912372,127.000000,0.000000,4186.922852,4194.358887,4197.436035,4196.538574,4195.128418,4210.256348,4205.641113,4203.333496,4200.128418,4195.769043,4196.922852,4187.436035,4194.871582,4182.820313,0.000000,4.000000,95.000000,,,,0.000000,4.000000,4.000000,4.000000,4.000000,4.000000,4.000000,4.000000,4.000000,4.000000,4.000000,4.000000,4.000000,4.000000,4.000000,100.000000,,,,,,,,,,,,,,,,
1645707394.916312,128.000000,0.000000,4197.563965,4202.307617,4201.282227,4198.333496,4197.563965,4210.769043,4206.794922,4204.230957,4200.897461,4201.025879,4197.436035,4188.589844,4193.205078,4196.282227,3236.000000,4.000000,95.000000,,,,0.000000,4.000000,4.000000,4.000000,4.000000,4.000000,4.000000,4.000000,4.000000,4.000000,4.000000,4.000000,4.000000,4.000000,4.000000,100.000000,,,,,,,,,,,,,,,,
1645707394.920252,129.000000,0.000000,4209.102539,4207.436035,4205.384766,4195.641113,4198.717773,4209.358887,4207.692383,4205.897461,4200.897461,4205.384766,4198.717773,4187.436035,4190.000000,4203.077148,3335.000000,4.000000,95.000000,,,,0.000000,4.000000,4.000000,4.000000,4.000000,4.000000,4.000000,4.000000,4.000000,4.000000,4.000000,4.000000,4.000000,4.000000,4.000000,100.000000,,,,,,,,,,,,,,,,
1645707394.924192,130.000000,0.000000,4216.538574,4207.692383,4209.487305,4190.128418,4198.974121,4207.948730,4208.077148,4207.563965,4200.641113,4206.282227,4201.282227,4186.922852,4189.358887,4202.563965,3305.000000,4.000000,95.000000,,,,0.000000,4.000000,4.000000,4.000000,4.000000,4.000000,4.000000,4.000000,4.000000,4.000000,4.000000,4.000000,4.000000,4.000000,4.000000,100.000000,,,,,,,,,,,,,,,,
1645707394.928132,131.000000,0.000000,4219.102539,4204.615234,4213.333496,4187.307617,4200.256348,4208.589844,4207.436035,4208.205078,4200.769043,4204.487305,4205.897461,4190.128418,4195.000000,4199.487305,3481.000000,4.000000,95.000000,,,,0.000000,4.000000,4.000000,4.000000,4.000000,4.000000,4.000000,4.000000,4.000000,4.000000,4.000000,4.000000,4.000000,4.000000,4.000000,100.000000,,,,,,,,,,,,,,,,
1645707394.932072,132.000000,0.000000,4219.102539,4201.794922,4217.436035,4190.769043,4202.948730,4211.153809,4206.153809,4207.307617,4201.410156,4203.077148,4212.307617,4197.563965,4205.897461,4198.461426,3303.000000,4.000000,95.000000,,,,0.000000,4.000000,4.000000,4.000000,4.000000,4.000000,4.000000,4.000000,4.000000,4.000000,4.000000,4.000000,4.000000,4.000000,4.000000,100.000000,,,,,,,,,,,,,,,,
1645707394.936012,133.000000,0.000000,4218.205078,4200.641113,4222.179688,4199.102539,4205.256348,4213.846191,4206.025879,4206.153809,4201.922852,4204.230957,4217.307617,4205.641113,4217.307617,4201.025879,3460.000000,4.000000,95.000000,,,,0.000000,4.000000,4.000000,4.000000,4.000000,4.000000,4.000000,4.000000,4.000000,4.000000,4.000000,4.000000,4.000000,4.000000,4.000000,100.000000,,,,,,,,,,,,,,,,
1645707394.939952,134.000000,0.000000,4216.025879,4201.153809,4226.666504,4206.666504,4204.871582,4214.743652,4208.333496,4206.410156,4201.666504,4208.461426,4217.692383,4209.487305,4224.102539,4205.897461,2716.000000,4.000000,95.000000,,,,0.000000,4.000000,4.000000,4.000000,4.000000,4.000000,4.000000,4.000000,4.000000,4.000000,4.000000,4.000000,4.000000,4.000000,4.000000,100.000000,,,,,,,,,,,,,,,,
1645707394.943893,135.000000,0.000000,4212.820313,4202.436035,4229.102539,4209.102539,4201.538574,4214.102539,4212.307617,4208.077148,4201.282227,4214.358887,4214.743652,4206.282227,4224.743652,4210.256348,2762.000000,4.000000,95.000000,,,,0.000000,4.000000,4.000000,4.000000,4.000000,4.000000,4.000000,4.000000,4.000000,4.000000,4.000000,4.000000,4.000000,4.000000,4.000000,100.000000,,,,,,,,,,,,,,,,
1645707394.947833,136.000000,0.000000,4210.256348,4204.871582,4228.461426,4206.025879,4198.461426,4213.333496,4215.000000,4210.256348,4201.666504,4219.615234,4212.948730,4198.589844,4220.897461,4212.179688,1387.000000,4.000000,95.000000,,,,0.000000,4.000000,4.000000,4.000000,4.000000,4.000000,4.000000,4.000000,4.000000,4.000000,4.000000,4.000000,4.000000,4.000000,4.000000,100.000000,,,,,,,,,,,,,,,,
1645707394.951773,137.000000,0.000000,4210.256348,4208.589844,4226.025879,4201.666504,4198.461426,4213.333496,4214.487305,4211.922852,4203.077148,4221.666504,4215.641113,4191.282227,4215.512695,4211.538574,3313.000000,4.000000,95.000000,,,,0.000000,4.000000,4.000000,4.000000,4.000000,4.000000,4.000000,4.000000,4.000000,4.000000,4.000000,4.000000,4.000000,4.000000,4.000000,100.000000,,,,,,,,,,,,,,,,
1645707394.955713,138.000000,0.000000,4212.820313,4212.948730,4223.846191,4200.256348,4201.538574,4213.717773,4211.538574,4213.589844,4205.000000,4219.358887,4220.384766,4188.717773,4210.769043,4210.512695,3158.000000,4.000000,95.000000,,,,0.000000,4.000000,4.000000,4.000000,4.000000,4.000000,4.000000,4.000000,4.000000,4.000000,4.000000,4.000000,4.000000,4.000000,4.000000,100.000000,,,,,,,,,,,,,,,,
1645707394.959653,139.000000,0.000000,4215.897461,4216.410156,4222.563965,4203.589844,4204.615234,4213.717773,4208.974121,4215.512695,4206.794922,4213.846191,4221.538574,4191.153809,4207.563965,4210.641113,3470.000000,4.000000,95.000000,,,,0.000000,4.000000,4.000000,4.000000,4.000000,4.000000,4.000000,4.000000,4.000000,4.000000,4.000000,4.000000,4.000000,4.000000,4.000000,100.000000,,,,,,,,,,,,,,,,
1645707394.963593,140.000000,0.000000,4217.692383,4217.820313,4221.025879,4210.000000,4205.128418,4213.333496,4208.333496,4217.563965,4207.436035,4209.230957,4217.179688,4195.256348,4206.538574,4211.794922,3198.000000,4.000000,95.000000,,,,0.000000,4.000000,4.000000,4.000000,4.000000,4.000000,4.000000,4.000000,4.000000,4.000000,4.000000,4.000000,4.000000,4.000000,4.000000,100.000000,,,,,,,,,,,,,,,,
1645707394.967533,141.000000,0.000000,4217.692383,4216.794922,4217.179688,4215.384766,4202.948730,4212.948730,4208.461426,4218.333496,4206.410156,4208.974121,4210.641113,4197.436035,4207.948730,4212.051270,3278.000000,4.000000,95.000000,,,,0.000000,4.000000,4.000000,4.000000,4.000000,4.000000,4.000000,4.000000,4.000000,4.000000,4.000000,4.000000,4.000000,4.000000,4.000000,100.000000,,,,,,,,,,,,,,,,
1645707394.971473,142.000000,0.000000,4216.666504,4213.974121,4211.410156,4216.410156,4199.615234,4212.179688,4207.563965,4217.051270,4204.615234,4212.692383,4207.307617,4195.897461,4211.025879,4208.846191,3158.000000,4.000000,95.000000,,,,0.000000,4.000000,4.000000,4.000000,4.000000,4.000000,4.000000,4.000000,4.000000,4.000000,4.000000,4.000000,4.000000,4.000000,4.000000,100.000000,,,,,,,,,,,,,,,,
1645707394.975413,143.000000,0.000000,4214.358887,4209.743652,4206.025879,4211.282227,4195.769043,4210.641113,4205.000000,4214.230957,4202.948730,4216.410156,4209.102539,4191.410156,4213.077148,4200.897461,3470.000000,4.000000,95.000000,,,,0.000000,4.000000,4.000000,4.000000,4.000000,4.000000,4.000000,4.000000,4.000000,4.000000,4.000000,4.000000,4.000000,4.000000,4.000000,100.000000,,,,,,,,,,,,,,,,
1645707394.979353,144.000000,0.000000,4209.487305,4204.615234,4203.205078,4202.179688,4192.051270,4207.563965,4202.436035,4211.025879,4201.794922,4215.897461,4213.077148,4185.512695,4211.153809,4190.256348,3198.000000,4.000000,95.000000,,,,0.000000,4.000000,4.000000,4.000000,4.000000,4.000000,4.000000,4.000000,4.000000,4.000000,4.000000,4.000000,4.000000,4.000000,4.000000,100.000000,,,,,,,,,,,,,,,,
1645707394.983194,145.000000,0.000000,4202.051270,4199.358887,4203.333496,4193.589844,4189.487305,4203.846191,4200.769043,4208.205078,4201.153809,4211.410156,4214.871582,4180.641113,4205.000000,4181.794922,3278.000000,4.000000,95.000000,,,,0.000000,4.000000,4.000000,4.000000,4.000000,4.000000,4.000000,4.000000,4.000000,4.000000,4.000000,4.000000,4.000000,4.000000,4.000000,100.000000,,,,,,,,,,,,,,,,
1645707394.987134,146.000000,0.000000,4194.230957,4196.153809,4204.743652,4189.230957,4190.128418,4201.666504,4200.128418,4206.794922,4200.641113,4206.794922,4212.563965,4180.128418,4198.717773,4180.897461,3158.000000,4.000000,95.000000,,,,0.000000,4.000000,4.000000,4.000000,4.000000,4.000000,4.000000,4.000000,4.000000,4.000000,4.000000,4.000000,4.000000,4.000000,4.000000,100.000000,,,,,,,,,,,,,,,,
1645707394.991074,147.000000,0.000000,4189.358887,4196.538574,4206.153809,4189.871582,4193.974121,4202.692383,4200.641113,4207.563965,4201.282227,4206.153809,4208.461426,4185.512695,4197.692383,4189.230957,3470.000000,4.000000,95.000000,,,,0.000000,4.000000,4.000000,4.000000,4.000000,4.000000,4.000000,4.000000,4.000000,4.000000,4.000000,4.000000,4.000000,4.000000,4.000000,100.000000,,,,,,,,,,,,,,,,
1645707394.995014,148.000000,0.000000,4190.128418,4200.128418,4207.692383,4192.563965,4198.717773,4206.153809,4202.179688,4210.256348,4203.333496,4209.743652,4206.025879,4194.487305,4202.820313,4203.717773,3198.000000,4.000000,95.000000,,,,0.000000,4.000000,4.000000,4.000000,4.000000,4.000000,4.000000,4.000000,4.000000,4.000000,4.000000,4.000000,4.000000,4.000000,4.000000,100.000000,,,,,,,,,,,,,,,,
1645707394.998954,149.000000,0.000000,4196.025879,4204.358887,4209.358887,4194.871582,4201.025879,4208.846191,4204.487305,4213.717773,4205.641113,4215.000000,4207.948730,4201.410156,4210.256348,4217.436035,3278.000000,4.000000,95.000000,,,,0.000000,4.000000,4.000000,4.000000,4.000000,4.000000,4.000000,4.000000,4.000000,4.000000,4.000000,4.000000,4.000000,4.000000,4.000000,100.000000,,,,,,,,,,,,,,,,
1645707395.002894,150.000000,0.000000,4204.230957,4206.922852,4211.025879,4196.410156,4199.871582,4208.205078,4206.410156,4216.153809,4206.410156,4218.974121,4213.846191,4201.666504,4213.717773,4223.333496,3158.000000,4.000000,95.000000,,,,0.000000,4.000000,4.000000,4.000000,4.000000,4.000000,4.000000,4.000000,4.000000,4.000000,4.000000,4.000000,4.000000,4.000000,4.000000,100.000000,,,,,,,,,,,,,,,,
1645707395.006834,151.000000,0.000000,4211.153809,4207.051270,4212.692383,4199.487305,4197.563965,4205.384766,4206.666504,4216.410156,4205.256348,4220.512695,4220.641113,4196.538574,4209.871582,4218.077148,3470.000000,4.000000,95.000000,,,,0.000000,4.000000,4.000000,4.000000,4.000000,4.000000,4.000000,4.000000,4.000000,4.000000,4.000000,4.000000,4.000000,4.000000,4.000000,100.000000,,,,,,,,,,,,,,,,
1645707395.010774,152.000000,0.000000,4214.358887,4206.025879,4214.743652,4205.256348,4197.436035,4203.717773,4205.000000,4215.512695,4204.102539,4220.512695,4224.743652,4191.922852,4199.743652,4204.743652,3198.000000,4.000000,95.000000,,,,0.000000,4.000000,4.000000,4.000000,4.000000,4.000000,4.000000,4.000000,4.000000,4.000000,4.000000,4.000000,4.000000,4.000000,4.000000,100.000000,,,,,,,,,,,,,,,,
1645707395.014715,153.000000,0.000000,4213.974121,4206.025879,4217.436035,4211.666504,4201.153809,4205.384766,4203.846191,4215.256348,4204.871582,4220.256348,4223.974121,4192.563965,4187.692383,4191.025879,3278.000000,4.000000,95.000000,,,,0.000000,4.000000,4.000000,4.000000,4.000000,4.000000,4.000000,4.000000,4.000000,4.000000,4.000000,4.000000,4.000000,4.000000,4.000000,100.000000,,,,,,,,,,,,,,,,
1645707395.018655,154.000000,0.000000,4212.051270,4207.563965,4220.512695,4214.743652,4206.666504,4209.743652,4206.025879,4217.051270,4207.307617,4220.256348,4220.128418,4198.461426,4178.461426,4184.615234,3158.000000,4.000000,95.000000,,,,0.000000,4.000000,4.000000,4.000000,4.000000,4.000000,4.000000,4.000000,4.000000,4.000000,4.000000,4.000000,4.000000,4.000000,4.000000,100.000000,,,,,,,,,,,,,,,,
1645707395.022595,155.000000,0.000000,4212.307617,4210.512695,4223.461426,4212.563965,4211.153809,4214.358887,4211.794922,4220.256348,4209.743652,4220.769043,4217.051270,4206.025879,4176.153809,4188.846191,3470.000000,4.000000,95.000000,,,,0.000000,4.000000,4.000000,4.000000,4.000000,4.000000,4.000000,4.000000,4.000000,4.000000,4.000000,4.000000,4.000000,4.000000,4.000000,100.000000,,,,,,,,,,,,,,,,
1645707395.026535,156.000000,0.000000,4216.666504,4214.615234,4225.641113,4207.692383,4212.948730,4217.820313,4217.820313,4222.563965,4210.512695,4222.436035,4218.077148,4211.282227,4182.307617,4201.794922,3198.000000,4.000000,95.000000,,,,0.000000,4.000000,4.000000,4.000000,4.000000,4.000000,4.000000,4.000000,4.000000,4.000000,4.000000,4.000000,4.000000,4.000000,4.000000,100.000000,,,,,,,,,,,,,,,,
1645707395.030475,157.000000,0.000000,4224.102539,4219.615234,4227.307617,4205.512695,4212.307617,4219.487305,4220.384766,4222.820313,4209.615234,4225.897461,4223.461426,4212.179688,4195.256348,4218.461426,3278.000000,4.000000,95.000000,,,,0.000000,4.000000,4.000000,4.000000,4.000000,4.000000,4.000000,4.000000,4.000000,4.000000,4.000000,4.000000,4.000000,4.000000,4.000000,100.000000,,,,,,,,,,,,,,,,
1645707395.034415,158.000000,0.000000,4231.025879,4224.487305,4229.102539,4209.230957,4209.487305,4219.615234,4218.717773,4222.436035,4208.974121,4230.641113,4230.384766,4209.615234,4209.615234,4231.538574,3158.000000,4.000000,95.000000,,,,0.000000,4.000000,4.000000,4.000000,4.000000,4.000000,4.000000,4.000000,4.000000,4.000000,4.000000,4.000000,4.000000,4.000000,4.000000,100.000000,,,,,,,,,,,,,,,,
1645707395.038355,159.000000,0.000000,4233.077148,4226.666504,4231.153809,4216.410156,4205.256348,4218.589844,4215.512695,4224.230957,4209.871582,4233.974121,4235.384766,4206.538574,4219.487305,4235.128418,3470.000000,4.000000,95.000000,,,,0.000000,4.000000,4.000000,4.000000,4.000000,4.000000,4.000000,4.000000,4.000000,4.000000,4.000000,4.000000,4.000000,4.000000,4.000000,100.000000,,,,,,,,,,,,,,,,
1645707395.042295,160.000000,0.000000,4228.461426,4223.589844,4232.820313,4221.153809,4200.641113,4217.436035,4213.846191,4228.846191,4211.666504,4234.102539,4236.666504,4206.410156,4221.538574,4228.077148,3198.000000,4.000000,95.000000,,,,0.000000,4.000000,4.000000,4.000000,4.000000,4.000000,4.000000,4.000000,4.000000,4.000000,4.000000,4.000000,4.000000,4.000000,4.000000,100.000000,,,,,,,,,,,,,,,,
1645707395.046235,161.000000,0.000000,4218.717773,4215.512695,4232.948730,4219.230957,4197.307617,4216.794922,4214.615234,4233.846191,4212.948730,4230.769043,4233.974121,4210.769043,4216.538574,4215.000000,3278.000000,4.000000,95.000000,,,,0.000000,4.000000,4.000000,4.000000,4.000000,4.000000,4.000000,4.000000,4.000000,4.000000,4.000000,4.000000,4.000000,4.000000,4.000000,100.000000,,,,,,,,,,,,,,,,
1645707395.050175,162.000000,0.000000,4208.974121,4205.512695,4230.384766,4211.025879,4196.025879,4216.666504,4215.384766,4234.615234,4211.922852,4225.769043,4228.717773,4216.666504,4208.461426,4202.563965,3158.000000,4.000000,95.000000,,,,0.000000,4.000000,4.000000,4.000000,4.000000,4.000000,4.000000,4.000000,4.000000,4.000000,4.000000,4.000000,4.000000,4.000000,4.000000,100.000000,,,,,,,,,,,,,,,,
1645707395.054016,163.000000,0.000000,4203.974121,4198.205078,4225.769043,4201.153809,4195.641113,4215.769043,4214.102539,4229.487305,4208.461426,4220.897461,4222.179688,4219.102539,4202.563965,4194.743652,3470.000000,4.000000,95.000000,,,,0.000000,4.000000,4.000000,4.000000,4.000000,4.000000,4.000000,4.000000,4.000000,4.000000,4.000000,4.000000,4.000000,4.000000,4.000000,100.000000,,,,,,,,,,,,,,,,
1645707395.057956,164.000000,0.000000,4205.384766,4196.538574,4221.282227,4195.000000,4195.000000,4213.461426,4210.897461,4220.897461,4203.717773,4216.538574,4216.922852,4215.000000,4202.179688,4192.051270,3198.000000,4.000000,95.000000,,,,0.000000,4.000000,4.000000,4.000000,4.000000,4.000000,4.000000,4.000000,4.000000,4.000000,4.000000,4.000000,4.000000,4.000000,4.000000,100.000000,,,,,,,,,,,,,,,,
1645707395.061896,165.000000,0.000000,4211.153809,4200.641113,4219.230957,4195.641113,4194.230957,4210.384766,4207.563965,4213.717773,4200.384766,4213.461426,4215.384766,4207.051270,4208.077148,4194.358887,3278.000000,4.000000,95.000000,1,1,3,0.000000,4.000000,4.000000,4.000000,4.000000,4.000000,4.000000,4.000000,4.000000,4.000000,4.000000,4.000000,4.000000,4.000000,4.000000,100.000000,,,,,,,,,,,,,,,,
1645707395.065836,166.000000,0.000000,4217.948730,4207.436035,4220.641113,4201.538574,4194.615234,4208.589844,4205.384766,4211.666504,4200.256348,4212.563965,4219.871582,4201.794922,4218.333496,4202.051270,3158.000000,4.000000,95.000000,,,,0.000000,4.000000,4.000000,4.000000,4.000000,4.000000,4.000000,4.000000,4.000000,4.000000,4.000000,4.000000,4.000000,4.000000,4.000000,100.000000,,,,,,,,,,,,,,,,
1645707395.069676,167.000000,0.000000,4223.717773,4212.820313,4225.000000,4208.077148,4196.922852,4209.358887,4204.743652,4214.230957,4202.948730,4214.487305,4229.615234,4204.358887,4230.000000,4214.743652,3470.000000,4.000000,95.000000,,,,0.000000,4.000000,4.000000,4.000000,4.000000,4.000000,4.000000,4.000000,4.000000,4.000000,4.000000,4.000000,4.000000,4.000000,4.000000,100.000000,,,,,,,,,,,,,,,,
1645707395.073616,168.000000,0.000000,4228.077148,4213.461426,4231.025879,4210.512695,4199.871582,4211.282227,4205.769043,4218.589844,4205.769043,4218.333496,4241.025879,4214.871582,4238.974121,4229.358887,3198.000000,4.000000,95.000000,,,,0.000000,4.000000,4.000000,4.000000,4.000000,4.000000,4.000000,4.000000,4.000000,4.000000,4.000000,4.000000,4.000000,4.000000,4.000000,100.000000,,,,,,,,,,,,,,,,
1645707395.077556,169.000000,0.000000,4232.307617,4209.487305,4237.051270,4207.948730,4201.794922,4212.692383,4208.205078,4221.410156,4206.153809,4221.538574,4248.974121,4228.717773,4243.077148,4241.794922,3278.000000,4.000000,95.000000,,,,0.000000,4.000000,4.000000,4.000000,4.000000,4.000000,4.000000,4.000000,4.000000,4.000000,4.000000,4.000000,4.000000,4.000000,4.000000,100.000000,,,,,,,,,,,,,,,,
1645707395.081497,170.000000,0.000000,4237.051270,4204.743652,4241.282227,4204.358887,4202.051270,4212.692383,4210.897461,4221.153809,4204.230957,4222.563965,4251.025879,4240.000000,4242.692383,4249.487305,3158.000000,4.000000,95.000000,,,,0.000000,4.000000,4.000000,4.000000,4.000000,4.000000,4.000000,4.000000,4.000000,4.000000,4.000000,4.000000,4.000000,4.000000,4.000000,100.000000,,,,,,,,,,,,,,,,
1645707395.085437,171.000000,0.000000,4242.179688,4204.102539,4241.922852,4204.743652,4202.179688,4212.179688,4211.922852,4217.820313,4202.051270,4222.179688,4247.948730,4244.230957,4240.641113,4251.666504,3470.000000,4.000000,95.000000,,,,0.000000,4.000000,4.000000,4.000000,4.000000,4.000000,4.000000,4.000000,4.000000,4.000000,4.000000,4.000000,4.000000,4.000000,4.000000,100.000000,,,,,,,,,,,,,,,,
1645707395.089377,172.000000,0.000000,4245.384766,4207.692383,4238.974121,4209.487305,4202.436035,4211.666504,4209.871582,4212.948730,4201.153809,4222.179688,4243.077148,4240.256348,4238.846191,4249.230957,3198.000000,4.000000,95.000000,,,,0.000000,4.000000,4.000000,4.000000,4.000000,4.000000,4.000000,4.000000,4.000000,4.000000,4.000000,4.000000,4.000000,4.000000,4.000000,100.000000,,,,,,,,,,,,,,,,
1645707395.093317,173.000000,0.000000,4244.358887,4210.641113,4233.717773,4213.589844,4201.153809,4210.256348,4205.384766,4208.461426,4201.153809,4222.179688,4238.333496,4230.769043,4237.179688,4243.589844,3278.000000,4.000000,95.000000,,,,0.000000,4.000000,4.000000,4.000000,4.000000,4.000000,4.000000,4.000000,4.000000,4.000000,4.000000,4.000000,4.000000,4.000000,4.000000,100.000000,,,,,,,,,,,,,,,,
1645707395.097257,174.000000,0.000000,4238.333496,4207.948730,4228.589844,4210.641113,4196.153809,4207.179688,4201.794922,4206.025879,4200.897461,4221.025879,4234.615234,4221.794922,4234.230957,4236.410156,3158.000000,4.000000,95.000000,,,,0.000000,4.000000,4.000000,4.000000,4.000000,4.000000,4.000000,4.000000,4.000000,4.000000,4.000000,4.000000,4.000000,4.000000,4.000000,100.000000,,,,,,,,,,,,,,,,
1645707395.101197,175.000000,0.000000,4230.256348,4200.000000,4225.384766,4199.871582,4188.461426,4203.461426,4201.153809,4206.538574,4199.871582,4218.077148,4231.922852,4218.846191,4230.000000,4230.769043,3470.000000,4.000000,95.000000,,,,0.000000,4.000000,4.000000,4.000000,4.000000,4.000000,4.000000,4.000000,4.000000,4.000000,4.000000,4.000000,4.000000,4.000000,4.000000,100.000000,,,,,,,,,,,,,,,,
1645707395.105137,176.000000,0.000000,4224.487305,4192.563965,4224.358887,4187.436035,4182.692383,4201.922852,4203.333496,4208.717773,4199.230957,4215.512695,4230.897461,4222.820313,4226.410156,4228.461426,3198.000000,4.000000,95.000000,,,,0.000000,4.000000,4.000000,4.000000,4.000000,4.000000,4.000000,4.000000,4.000000,4.000000,4.000000,4.000000,4.000000,4.000000,4.000000,100.000000,,,,,,,,,,,,,,,,
1645707395.109077,177.000000,0.000000,4224.102539,4191.282227,4225.000000,4182.051270,4182.948730,4203.974121,4206.282227,4211.153809,4199.487305,4216.153809,4232.179688,4229.615234,4226.025879,4228.846191,3278.000000,4.000000,95.000000,,,,0.000000,4.000000,4.000000,4.000000,4.000000,4.000000,4.000000,4.000000,4.000000,4.000000,4.000000,4.000000,4.000000,4.000000,4.000000,100.000000,,,,,,,,,,,,,,,,
1645707395.113017,178.000000,0.000000,4227.948730,4195.641113,4227.563965,4187.948730,4189.102539,4208.077148,4208.333496,4213.717773,4200.384766,4219.871582,4234.871582,4233.717773,4228.333496,4229.102539,3158.000000,4.000000,95.000000,,,,0.000000,4.000000,4.000000,4.000000,4.000000,4.000000,4.000000,4.000000,4.000000,4.000000,4.000000,4.000000,4.000000,4.000000,4.000000,100.000000,,,,,,,,,,,,,,,,
1645707395.116957,179.000000,0.000000,4231.666504,4200.128418,4231.794922,4201.025879,4196.153809,4211.410156,4209.743652,4217.051270,4201.153809,4223.846191,4236.538574,4233.077148,4230.897461,4227.307617,3470.000000,4.000000,95.000000,,,,0.000000,4.000000,4.000000,4.000000,4.000000,4.000000,4.000000,4.000000,4.000000,4.000000,4.000000,4.000000,4.000000,4.000000,4.000000,100.000000,,,,,,,,,,,,,,,,
1645707395.120898,180.000000,0.000000,4232.436035,4201.025879,4236.666504,4213.077148,4199.743652,4212.179688,4211.794922,4221.153809,4201.153809,4225.128418,4235.512695,4230.000000,4231.153809,4224.615234,3198.000000,4.000000,95.000000,,,,0.000000,4.000000,4.000000,4.000000,4.000000,4.000000,4.000000,4.000000,4.000000,4.000000,4.000000,4.000000,4.000000,4.000000,4.000000,100.000000,,,,,,,,,,,,,,,,
1645707395.124838,181.000000,0.000000,4231.153809,4199.102539,4240.128418,4217.179688,4198.589844,4211.282227,4213.846191,4225.000000,4200.897461,4223.974121,4232.307617,4228.205078,4229.615234,4224.230957,3278.000000,4.000000,95.000000,,,,0.000000,4.000000,4.000000,4.000000,4.000000,4.000000,4.000000,4.000000,4.000000,4.000000,4.000000,4.000000,4.000000,4.000000,4.000000,100.000000,,,,,,,,,,,,,,,,
1645707395.128778,182.000000,0.000000,4230.641113,4198.461426,4240.641113,4212.820313,4195.897461,4210.128418,4214.358887,4226.794922,4201.410156,4222.820313,4229.230957,4228.717773,4228.205078,4228.205078,3158.000000,4.000000,95.000000,,,,0.000000,4.000000,4.000000,4.000000,4.000000,4.000000,4.000000,4.000000,4.000000,4.000000,4.000000,4.000000,4.000000,4.000000,4.000000,100.000000,,,,,,,,,,,,,,,,
1645707395.132718,183.000000,0.000000,4231.794922,4201.666504,4238.974121,4204.487305,4194.102539,4209.358887,4212.436035,4225.897461,4203.077148,4222.948730,4227.692383,4230.256348,4227.436035,4235.128418,3470.000000,4.000000,95.000000,,,,0.000000,4.000000,4.000000,4.000000,4.000000,4.000000,4.000000,4.000000,4.000000,4.000000,4.000000,4.000000,4.000000,4.000000,4.000000,100.000000,,,,,,,,,,,,,,,,
1645707395.136558,184.000000,0.000000,4232.692383,4207.179688,4237.179688,4198.333496,4193.589844,4208.333496,4209.102539,4222.948730,4204.615234,4222.692383,4227.692383,4230.641113,4225.769043,4240.897461,3198.000000,4.000000,95.000000,,,,0.000000,4.000000,4.000000,4.000000,4.000000,4.000000,4.000000,4.000000,4.000000,4.000000,4.000000,4.000000,4.000000,4.000000,4.000000,100.000000,,,,,,,,,,,,,,,,
1645707395.140498,185.000000,0.000000,4231.153809,4211.538574,4236.922852,4197.692383,4193.589844,4206.410156,4206.794922,4219.102539,4203.974121,4219.743652,4228.077148,4229.230957,4221.410156,4241.153809,3278.000000,4.000000,95.000000,,,,0.000000,4.000000,4.000000,4.000000,4.000000,4.000000,4.000000,4.000000,4.000000,4.000000,4.000000,4.000000,4.000000,4.000000,4.000000,100.000000,,,,,,,,,,,,,,,,
1645707395.144438,186.000000,0.000000,4227.563965,4211.794922,4237.179688,4201.025879,4193.589844,4204.358887,4205.769043,4214.615234,4200.641113,4213.974121,4228.333496,4226.922852,4215.256348,4234.102539,3158.000000,4.000000,95.000000,2,1,3,0.000000,4.000000,4.000000,4.000000,4.000000,4.000000,4.000000,4.000000,4.000000,4.000000,4.000000,4.000000,4.000000,4.000000,4.000000,100.000000,,,,,,,,,,,,,,,,
1645707395.148378,187.000000,0.000000,4223.717773,4207.051270,4236.282227,4203.846191,4194.230957,4203.717773,4205.000000,4210.128418,4196.666504,4207.820313,4228.077148,4225.000000,4210.256348,4221.538574,3470.000000,4.000000,95.000000,,,,0.000000,4.000000,4.000000,4.000000,4.000000,4.000000,4.000000,4.000000,4.000000,4.000000,4.000000,4.000000,4.000000,4.000000,4.000000,100.000000,,,,,,,,,,,,,,,,
1645707395.152319,188.000000,0.000000,4220.769043,4198.717773,4233.461426,4202.692383,4195.384766,4204.743652,4203.589844,4206.538574,4194.615234,4204.102539,4226.538574,4224.102539,4208.717773,4209.230957,3198.000000,4.000000,95.000000,,,,0.000000,4.000000,4.000000,4.000000,4.000000,4.000000,4.000000,4.000000,4.000000,4.000000,4.000000,4.000000,4.000000,4.000000,4.000000,100.000000,,,,,,,,,,,,,,,,
1645707395.156259,189.000000,0.000000,4218.077148,4190.128418,4230.128418,4197.948730,4196.282227,4206.153809,4201.922852,4205.384766,4195.384766,4203.717773,4223.717773,4223.846191,4210.256348,4203.461426,3278.000000,4.000000,95.000000,,,,0.000000,4.000000,4.000000,4.000000,4.000000,4.000000,4.000000,4.000000,4.000000,4.000000,4.000000,4.000000,4.000000,4.000000,4.000000,100.000000,,,,,,,,,,,,,,,,
1645707395.160199,190.000000,0.000000,4215.384766,4185.512695,4227.820313,4193.461426,4196.153809,4206.153809,4201.282227,4206.410156,4197.179688,4206.153809,4221.153809,4222.820313,4212.692383,4206.410156,3158.000000,4.000000,95.000000,,,,0.000000,4.000000,4.000000,4.000000,4.000000,4.000000,4.000000,4.000000,4.000000,4.000000,4.000000,4.000000,4.000000,4.000000,4.000000,100.000000,,,,,,,,,,,,,,,,
1645707395.164139,191.000000,0.000000,4214.230957,4186.794922,4227.179688,4193.077148,4195.384766,4204.487305,4201.666504,4207.948730,4196.666504,4210.000000,4221.153809,4220.128418,4214.358887,4215.769043,3470.000000,4.000000,95.000000,,,,0.000000,4.000000,4.000000,4.000000,4.000000,4.000000,4.000000,4.000000,4.000000,4.000000,4.000000,4.000000,4.000000,4.000000,4.000000,100.000000,,,,,,,,,,,,,,,,
1645707395.168079,192.000000,0.000000,4215.897461,4192.179688,4227.948730,4197.692383,4195.128418,4202.820313,4201.794922,4207.307617,4193.205078,4213.974121,4224.487305,4216.666504,4215.384766,4225.769043,3198.000000,4.000000,95.000000,,,,0.000000,4.000000,4.000000,4.000000,4.000000,4.000000,4.000000,4.000000,4.000000,4.000000,4.000000,4.000000,4.000000,4.000000,4.000000,100.000000,,,,,,,,,,,,,,,,
1645707395.172019,193.000000,0.000000,4218.974121,4198.077148,4229.743652,4204.615234,4196.153809,4202.820313,4201.794922,4204.230957,4188.589844,4216.666504,4228.717773,4214.487305,4216.666504,4230.512695,3278.000000,4.000000,95.000000,,,,0.000000,4.000000,4.000000,4.000000,4.000000,4.000000,4.000000,4.000000,4.000000,4.000000,4.000000,4.000000,4.000000,4.000000,4.000000,100.000000,,,,,,,,,,,,,,,,
1645707395.175959,194.000000,0.000000,4220.384766,4202.307617,4232.820313,4210.769043,4198.461426,4204.615234,4203.077148,4201.282227,4186.025879,4216.538574,4230.512695,4216.025879,4218.717773,4227.820313,3158.000000,4.000000,95.000000,,,,0.000000,4.000000,4.000000,4.000000,4.000000,4.000000,4.000000,4.000000,4.000000,4.000000,4.000000,4.000000,4.000000,4.000000,4.000000,100.000000,,,,,,,,,,,,,,,,
1645707395.179899,195.000000,0.000000,4219.487305,4205.769043,4237.436035,4214.487305,4201.794922,4207.563965,4206.794922,4201.794922,4187.051270,4214.230957,4228.846191,4221.538574,4221.025879,4220.384766,3470.000000,4.000000,95.000000,,,,0.000000,4.000000,4.000000,4.000000,4.000000,4.000000,4.000000,4.000000,4.000000,4.000000,4.000000,4.000000,4.000000,4.000000,4.000000,100.000000,,,,,,,,,,,,,,,,
1645707395.183839,196.000000,0.000000,4218.717773,4210.256348,4242.692383,4215.512695,4205.769043,4210.897461,4211.410156,4206.410156,4191.025879,4213.205078,4227.179688,4229.230957,4222.820313,4214.102539,3198.000000,4.000000,95.000000,,,,0.000000,4.000000,4.000000,4.000000,4.000000,4.000000,4.000000,4.000000,4.000000,4.000000,4.000000,4.000000,4.000000,4.000000,4.000000,100.000000,,,,,,,,,,,,,,,,
1645707395.187779,197.000000,0.000000,4221.153809,4215.641113,4246.794922,4214.615234,4209.102539,4214.102539,4213.589844,4212.307617,4195.512695,4216.922852,4228.717773,4235.384766,4224.358887,4214.871582,3278.000000,4.000000,95.000000,,,,0.000000,4.000000,4.000000,4.000000,4.000000,4.000000,4.000000,4.000000,4.000000,4.000000,4.000000,4.000000,4.000000,4.000000,4.000000,100.000000,,,,,,,,,,,,,,,,
1645707395.191720,198.000000,0.000000,4226.153809,4218.717773,4248.461426,4212.820313,4210.897461,4216.025879,4211.666504,4215.897461,4198.205078,4224.743652,4233.974121,4237.307617,4225.512695,4223.077148,3158.000000,4.000000,95.000000,,,,0.000000,4.000000,4.000000,4.000000,4.000000,4.000000,4.000000,4.000000,4.000000,4.000000,4.000000,4.000000,4.000000,4.000000,4.000000,100.000000,,,,,,,,,,,,,,,,
1645707395.195660,199.000000,0.000000,4229.743652,4217.179688,4248.077148,4211.282227,4210.641113,4215.769043,4207.692383,4216.153809,4198.589844,4232.051270,4239.358887,4234.871582,4225.897461,4232.948730,3470.000000,4.000000,95.000000,,,,0.000000,4.000000,4.000000,4.000000,4.000000,4.000000,4.000000,4.000000,4.000000,4.000000,4.000000,4.000000,4.000000,4.000000,4.000000,100.000000,,,,,,,,,,,,,,,,
1645707395.199600,200.000000,0.000000,4228.333496,4211.538574,4246.538574,4211.410156,4209.230957,4212.820313,4205.384766,4214.871582,4197.436035,4233.846191,4241.153809,4231.025879,4225.384766,4237.692383,3198.000000,4.000000,95.000000,,,,0.000000,4.000000,4.000000,4.000000,4.000000,4.000000,4.000000,4.000000,4.000000,4.000000,4.000000,4.000000,4.000000,4.000000,4.000000,100.000000,,,,,,,,,,,,,,,,
1645707395.203540,201.000000,0.000000,4223.077148,4205.897461,4244.487305,4213.846191,4208.846191,4209.358887,4206.666504,4214.358887,4196.538574,4230.769043,4238.589844,4229.358887,4225.000000,4235.512695,3278.000000,4.000000,95.000000,,,,0.000000,4.000000,4.000000,4.000000,4.000000,4.000000,4.000000,4.000000,4.000000,4.000000,4.000000,4.000000,4.000000,4.000000,4.000000,100.000000,,,,,,,,,,,,,,,,
1645707395.207480,202.000000,0.000000,4218.333496,4204.102539,4242.179688,4217.051270,4210.256348,4208.077148,4209.871582,4215.641113,4197.436035,4227.051270,4234.487305,4231.666504,4226.025879,4231.153809,3158.000000,4.000000,95.000000,,,,0.000000,4.000000,4.000000,4.000000,4.000000,4.000000,4.000000,4.000000,4.000000,4.000000,4.000000,4.000000,4.000000,4.000000,4.000000,100.000000,,,,,,,,,,,,,,,,
1645707395.211320,203.000000,0.000000,4218.077148,4206.282227,4240.128418,4217.820313,4212.179688,4210.000000,4212.692383,4217.692383,4200.128418,4226.538574,4232.179688,4235.641113,4228.846191,4230.512695,3470.000000,4.000000,95.000000,,,,0.000000,4.000000,4.000000,4.000000,4.000000,4.000000,4.000000,4.000000,4.000000,4.000000,4.000000,4.000000,4.000000,4.000000,4.000000,100.000000,,,,,,,,,,,,,,,,
1645707395.215260,204.000000,0.000000,4221.794922,4209.102539,4238.717773,4214.743652,4211.666504,4213.205078,4214.358887,4219.230957,4202.820313,4228.205078,4232.307617,4237.692383,4231.794922,4234.615234,3198.000000,4.000000,95.000000,,,,0.000000,4.000000,4.000000,4.000000,4.000000,4.000000,4.000000,4.000000,4.000000,4.000000,4.000000,4.000000,4.000000,4.000000,4.000000,100.000000,,,,,,,,,,,,,,,,
1645707395.219200,205.000000,0.000000,4225.512695,4209.230957,4238.333496,4209.743652,4207.692383,4215.128418,4215.641113,4219.743652,4202.948730,4228.205078,4233.589844,4235.128418,4232.436035,4238.205078,3278.000000,4.000000,95.000000,,,,0.000000,4.000000,4.000000,4.000000,4.000000,4.000000,4.000000,4.000000,4.000000,4.000000,4.000000,4.000000,4.000000,4.000000,4.000000,100.000000,,,,,,,,,,,,,,,,
1645707395.223141,206.000000,0.000000,4226.025879,4206.410156,4238.461426,4206.538574,4202.179688,4214.743652,4216.666504,4218.846191,4200.000000,4223.974121,4234.358887,4228.333496,4229.743652,4236.282227,3158.000000,4.000000,95.000000,,,,0.000000,4.000000,4.000000,4.000000,4.000000,4.000000,4.000000,4.000000,4.000000,4.000000,4.000000,4.000000,4.000000,4.000000,4.000000,100.000000,,,,,,,,,,,,,,,,
1645707395.227081,207.000000,0.000000,4222.692383,4203.589844,4238.717773,4207.692383,4199.102539,4212.948730,4216.538574,4216.794922,4195.641113,4216.922852,4234.102539,4221.153809,4224.615234,4228.717773,3470.000000,4.000000,95.000000,,,,0.000000,4.000000,4.000000,4.000000,4.000000,4.000000,4.000000,4.000000,4.000000,4.000000,4.000000,4.000000,4.000000,4.000000,4.000000,100.000000,,,,,,,,,,,,,,,,
1645707395.231021,208.000000,0.000000,4217.179688,4203.461426,4238.589844,4212.307617,4200.128418,4211.282227,4214.615234,4214.102539,4192.307617,4210.512695,4232.692383,4217.692383,4219.487305,4219.615234,3198.000000,4.000000,95.000000,,,,0.000000,4.000000,4.000000,4.000000,4.000000,4.000000,4.000000,4.000000,4.000000,4.000000,4.000000,4.000000,4.000000,4.000000,4.000000,100.000000,,,,,,,,,,,,,,,,
1645707395.234961,209.000000,0.000000,4211.538574,4206.153809,4238.461426,4217.179688,4203.333496,4209.743652,4211.794922,4211.410156,4191.025879,4207.948730,4229.871582,4218.974121,4216.025879,4213.461426,3278.000000,4.000000,95.000000,,,,0.000000,4.000000,4.000000,4.000000,4.000000,4.000000,4.000000,4.000000,4.000000,4.000000,4.000000,4.000000,4.000000,4.000000,4.000000,100.000000,,,,,,,,,,,,,,,,
1645707395.238901,210.000000,0.000000,4207.436035,4209.102539,4238.205078,4218.974121,4205.128418,4207.692383,4210.000000,4209.487305,4191.410156,4210.128418,4225.897461,4221.922852,4214.743652,4211.922852,3158.000000,4.000000,95.000000,,,,0.000000,4.000000,4.000000,4.000000,4.000000,4.000000,4.000000,4.000000,4.000000,4.000000,4.000000,4.000000,4.000000,4.000000,4.000000,100.000000,,,,,,,,,,,,,,,,
1645707395.242841,211.000000,0.000000,4206.025879,4209.358887,4237.436035,4216.538574,4204.615234,4205.897461,4210.128418,4208.461426,4191.794922,4215.897461,4222.436035,4223.589844,4216.025879,4214.743652,3470.000000,4.000000,95.000000,,,,0.000000,4.000000,4.000000,4.000000,4.000000,4.000000,4.000000,4.000000,4.000000,4.000000,4.000000,4.000000,4.000000,4.000000,4.000000,100.000000,,,,,,,,,,,,,,,,
1645707395.246781,212.000000,0.000000,4207.179688,4206.922852,4236.025879,4211.538574,4203.717773,4206.153809,4211.025879,4207.948730,4191.922852,4222.820313,4222.692383,4222.820313,4219.615234,4220.000000,3198.000000,4.000000,95.000000,,,,0.000000,4.000000,4.000000,4.000000,4.000000,4.000000,4.000000,4.000000,4.000000,4.000000,4.000000,4.000000,4.000000,4.000000,4.000000,100.000000,,,,,,,,,,,,,,,,
1645707395.250721,213.000000,0.000000,4210.512695,4204.615234,4234.615234,4207.051270,4205.256348,4208.974121,4211.666504,4207.820313,4192.179688,4227.948730,4227.692383,4221.922852,4224.230957,4225.641113,3278.000000,4.000000,95.000000,,,,0.000000,4.000000,4.000000,4.000000,4.000000,4.000000,4.000000,4.000000,4.000000,4.000000,4.000000,4.000000,4.000000,4.000000,4.000000,100.000000,,,,,,,,,,,,,,,,
1645707395.254661,214.000000,0.000000,4213.846191,4205.256348,4234.871582,4205.641113,4209.230957,4213.077148,4212.179688,4208.846191,4192.948730,4229.230957,4235.000000,4223.333496,4228.205078,4228.846191,3158.000000,4.000000,95.000000,,,,0.000000,4.000000,4.000000,4.000000,4.000000,4.000000,4.000000,4.000000,4.000000,4.000000,4.000000,4.000000,4.000000,4.000000,4.000000,100.000000,,,,,,,,,,,,,,,,
1645707395.258601,215.000000,0.000000,4215.769043,4208.974121,4237.051270,4207.948730,4212.948730,4216.153809,4213.461426,4211.666504,4194.230957,4227.307617,4240.128418,4226.666504,4230.128418,4228.846191,3470.000000,4.000000,95.000000,,,,0.000000,4.000000,4.000000,4.000000,4.000000,4.000000,4.000000,4.000000,4.000000,4.000000,4.000000,4.000000,4.000000,4.000000,4.000000,100.000000,,,,,,,,,,,,,,,,
1645707395.262542,216.000000,0.000000,4216.538574,4212.820313,4239.230957,4212.307617,4213.974121,4216.794922,4214.615234,4214.871582,4195.512695,4225.256348,4240.769043,4229.743652,4231.025879,4226.922852,3198.000000,4.000000,95.000000,,,,0.000000,4.000000,4.000000,4.000000,4.000000,4.000000,4.000000,4.000000,4.000000,4.000000,4.000000,4.000000,4.000000,4.000000,4.000000,100.000000,,,,,,,,,,,,,,,,
1645707395.266482,217.000000,0.000000,4217.307617,4213.717773,4239.487305,4215.897461,4213.077148,4215.384766,4213.205078,4216.282227,4196.410156,4226.153809,4237.820313,4230.897461,4232.307617,4225.000000,3278.000000,4.000000,95.000000,,,,0.000000,4.000000,4.000000,4.000000,4.000000,4.000000,4.000000,4.000000,4.000000,4.000000,4.000000,4.000000,4.000000,4.000000,4.000000,100.000000,,,,,,,,,,,,,,,,
1645707395.270422,218.000000,0.000000,4218.461426,4210.769043,4237.436035,4216.794922,4212.307617,4212.948730,4208.205078,4215.000000,4196.538574,4230.000000,4234.743652,4230.512695,4234.487305,4224.230957,3158.000000,4.000000,95.000000,,,,0.000000,4.000000,4.000000,4.000000,4.000000,4.000000,4.000000,4.000000,4.000000,4.000000,4.000000,4.000000,4.000000,4.000000,4.000000,100.000000,,,,,,,,,,,,,,,,
1645707395.274362,219.000000,0.000000,4218.205078,4206.153809,4234.358887,4213.974121,4212.436035,4210.384766,4202.179688,4212.820313,4195.897461,4234.102539,4233.205078,4230.769043,4235.384766,4223.333496,3470.000000,4.000000,95.000000,,,,0.000000,4.000000,4.000000,4.000000,4.000000,4.000000,4.000000,4.000000,4.000000,4.000000,4.000000,4.000000,4.000000,4.000000,4.000000,100.000000,,,,,,,,,,,,,,,,
1645707395.278302,220.000000,0.000000,4214.102539,4202.436035,4232.307617,4208.077148,4212.179688,4207.948730,4199.230957,4212.051270,4195.384766,4235.512695,4232.436035,4232.179688,4232.820313,4221.794922,3198.000000,4.000000,95.000000,,,,0.000000,4.000000,4.000000,4.000000,4.000000,4.000000,4.000000,4.000000,4.000000,4.000000,4.000000,4.000000,4.000000,4.000000,4.000000,100.000000,1.000000,83.333336,4.000000,4.000000,4.000000,4.000000,4.000000,4.000000,4.000000,4.000000,2.000000,4.000000,4.000000,4.000000,4.000000,4.000000
1645707395.282342,221.000000,0.000000,4206.282227,4201.666504,4231.410156,4201.666504,4210.512695,4205.769043,4201.538574,4214.230957,4195.769043,4233.589844,4230.897461,4232.692383,4226.666504,4220.000000,3278.000000,4.000000,95.000000,,,,0.000000,4.000000,4.000000,4.000000,4.000000,4.000000,4.000000,4.000000,4.000000,4.000000,4.000000,4.000000,4.000000,4.000000,4.000000,100.000000,,,,,,,,,,,,,,,,
1645707395.286282,222.000000,0.000000,4197.820313,4203.846191,4230.769043,4198.717773,4207.820313,4204.615234,4206.794922,4218.205078,4197.563965,4229.102539,4228.077148,4229.871582,4219.743652,4218.974121,3158.000000,4.000000,95.000000,,,,0.000000,4.000000,4.000000,4.000000,4.000000,4.000000,4.000000,4.000000,4.000000,4.000000,4.000000,4.000000,4.000000,4.000000,4.000000,100.000000,,,,,,,,,,,,,,,,
1645707395.290222,223.000000,0.000000,4193.205078,4207.051270,4229.102539,4200.897461,4205.641113,4205.128418,4210.897461,4221.922852,4200.641113,4224.487305,4225.384766,4223.974121,4215.512695,4218.077148,3470.000000,4.000000,95.000000,,,,0.000000,4.000000,4.000000,4.000000,4.000000,4.000000,4.000000,4.000000,4.000000,4.000000,4.000000,4.000000,4.000000,4.000000,4.000000,100.000000,,,,,,,,,,,,,,,,
1645707395.294162,224.000000,0.000000,4193.974121,4208.589844,4226.538574,4206.153809,4204.102539,4206.666504,4211.410156,4223.589844,4203.846191,4221.025879,4223.333496,4218.717773,4214.743652,4215.256348,3198.000000,4.000000,95.000000,,,,0.000000,4.000000,4.000000,4.000000,4.000000,4.000000,4.000000,4.000000,4.000000,4.000000,4.000000,4.000000,4.000000,4.000000,4.000000,100.000000,,,,,,,,,,,,,,,,
1645707395.298102,225.000000,0.000000,4197.563965,4207.179688,4223.974121,4209.615234,4202.436035,4207.820313,4209.615234,4222.307617,4204.487305,4219.743652,4221.153809,4216.538574,4216.153809,4209.487305,3278.000000,4.000000,95.000000,,,,0.000000,4.000000,4.000000,4.000000,4.000000,4.000000,4.000000,4.000000,4.000000,4.000000,4.000000,4.000000,4.000000,4.000000,4.000000,100.000000,,,,,,,,,,,,,,,,
1645707395.302043,226.000000,0.000000,4199.743652,4203.077148,4222.051270,4207.436035,4200.256348,4207.051270,4207.436035,4218.461426,4201.282227,4219.743652,4218.077148,4216.410156,4218.077148,4203.333496,3158.000000,4.000000,95.000000,,,,0.000000,4.000000,4.000000,4.000000,4.000000,4.000000,4.000000,4.000000,4.000000,4.000000,4.000000,4.000000,4.000000,4.000000,4.000000,100.000000,,,,,,,,,,,,,,,,
1645707395.305983,227.000000,0.000000,4198.589844,4198.461426,4220.384766,4200.512695,4198.205078,4204.358887,4206.410156,4212.948730,4195.512695,4219.871582,4215.384766,4215.897461,4219.871582,4201.410156,3470.000000,4.000000,95.000000,,,,0.000000,4.000000,4.000000,4.000000,4.000000,4.000000,4.000000,4.000000,4.000000,4.000000,4.000000,4.000000,4.000000,4.000000,4.000000,100.000000,,,,,,,,,,,,,,,,
1645707395.309923,228.000000,0.000000,4196.025879,4195.256348,4218.846191,4194.487305,4197.692383,4201.538574,4206.282227,4208.077148,4190.512695,4219.230957,4215.128418,4213.333496,4221.153809,4206.282227,3198.000000,4.000000,95.000000,,,,0.000000,4.000000,4.000000,4.000000,4.000000,4.000000,4.000000,4.000000,4.000000,4.000000,4.000000,4.000000,4.000000,4.000000,4.000000,100.000000,,,,,,,,,,,,,,,,
1645707395.313863,229.000000,0.000000,4194.871582,4193.846191,4217.436035,4194.487305,4199.230957,4200.512695,4207.436035,4206.666504,4188.589844,4217.948730,4217.692383,4209.615234,4220.897461,4216.538574,3278.000000,4.000000,95.000000,,,,0.000000,4.000000,4.000000,4.000000,4.000000,4.000000,4.000000,4.000000,4.000000,4.000000,4.000000,4.000000,4.000000,4.000000,4.000000,100.000000,,,,,,,,,,,,,,,,
1645707395.317803,230.000000,0.000000,4197.179688,4193.333496,4216.794922,4199.487305,4201.410156,4201.666504,4209.615234,4208.717773,4189.230957,4216.922852,4220.641113,4206.794922,4218.077148,4226.153809,3158.000000,4.000000,95.000000,,,,0.000000,4.000000,4.000000,4.000000,4.000000,4.000000,4.000000,4.000000,4.000000,4.000000,4.000000,4.000000,4.000000,4.000000,4.000000,100.000000,,,,,,,,,,,,,,,,
1645707395.321743,231.000000,0.000000,4201.410156,4192.820313,4216.794922,4203.205078,4203.077148,4203.974121,4212.179688,4211.666504,4190.897461,4217.051270,4220.512695,4206.153809,4212.820313,4228.717773,3470.000000,4.000000,95.000000,,,,0.000000,4.000000,4.000000,4.000000,4.000000,4.000000,4.000000,4.000000,4.000000,4.000000,4.000000,4.000000,4.000000,4.000000,4.000000,100.000000,,,,,,,,,,,,,,,,
1645707395.325683,232.000000,0.000000,4204.230957,4192.051270,4216.666504,4200.000000,4204.358887,4206.153809,4213.205078,4211.666504,4191.666504,4218.974121,4215.769043,4207.307617,4207.436035,4221.153809,3198.000000,4.000000,95.000000,,,,0.000000,4.000000,4.000000,4.000000,4.000000,4.000000,4.000000,4.000000,4.000000,4.000000,4.000000,4.000000,4.000000,4.000000,4.000000,100.000000,,,,,,,,,,,,,,,,
1645707395.329623,233.000000,0.000000,4202.820313,4191.282227,4215.641113,4191.153809,4205.000000,4206.794922,4211.410156,4207.820313,4191.410156,4222.051270,4208.333496,4208.717773,4204.102539,4205.512695,3278.000000,4.000000,95.000000,,,,0.000000,4.000000,4.000000,4.000000,4.000000,4.000000,4.000000,4.000000,4.000000,4.000000,4.000000,4.000000,4.000000,4.000000,4.000000,100.000000,,,,,,,,,,,,,,,,
1645707395.333563,234.000000,0.000000,4196.666504,4190.000000,4213.974121,4182.820313,4204.358887,4205.256348,4207.820313,4203.205078,4190.128418,4223.974121,4201.282227,4207.948730,4203.974121,4189.615234,3158.000000,4.000000,95.000000,,,,0.000000,4.000000,4.000000,4.000000,4.000000,4.000000,4.000000,4.000000,4.000000,4.000000,4.000000,4.000000,4.000000,4.000000,4.000000,100.000000,,,,,,,,,,,,,,,,
1645707395.337503,235.000000,0.000000,4188.846191,4187.307617,4212.692383,4181.025879,4202.051270,4202.820313,4205.128418,4201.666504,4188.589844,4223.077148,4198.205078,4205.000000,4206.538574,4182.436035,3470.000000,4.000000,95.000000,,,,0.000000,4.000000,4.000000,4.000000,4.000000,4.000000,4.000000,4.000000,4.000000,4.000000,4.000000,4.000000,4.000000,4.000000,4.000000,100.000000,,,,,,,,,,,,,,,,
1645707395.341444,236.000000,0.000000,4184.743652,4184.487305,4212.436035,4186.666504,4199.230957,4201.410156,4205.256348,4204.358887,4187.563965,4220.384766,4201.666504,4202.563965,4210.384766,4188.846191,3198.000000,4.000000,95.000000,,,,0.000000,4.000000,4.000000,4.000000,4.000000,4.000000,4.000000,4.000000,4.000000,4.000000,4.000000,4.000000,4.000000,4.000000,4.000000,100.000000,,,,,,,,,,,,,,,,
1645707395.345384,237.000000,0.000000,4188.717773,4185.256348,4214.102539,4195.512695,4198.717773,4202.948730,4207.563965,4209.230957,4187.820313,4220.384766,4211.538574,4204.487305,4213.974121,4205.000000,3278.000000,4.000000,95.000000,,,,0.000000,4.000000,4.000000,4.000000,4.000000,4.000000,4.000000,4.000000,4.000000,4.000000,4.000000,4.000000,4.000000,4.000000,4.000000,100.000000,,,,,,,,,,,,,,,,
1645707395.349324,238.000000,0.000000,4199.743652,4191.538574,4217.948730,4202.051270,4201.666504,4207.692383,4210.000000,4212.948730,4189.615234,4226.153809,4224.230957,4211.538574,4215.256348,4220.769043,3158.000000,4.000000,95.000000,,,,0.000000,4.000000,4.000000,4.000000,4.000000,4.000000,4.000000,4.000000,4.000000,4.000000,4.000000,4.000000,4.000000,4.000000,4.000000,100.000000,,,,,,,,,,,,,,,,
1645707395.353264,239.000000,0.000000,4211.153809,4200.641113,4223.077148,4203.589844,4205.769043,4212.307617,4211.153809,4214.102539,4192.051270,4235.897461,4233.846191,4219.743652,4211.282227,4226.922852,3470.000000,4.000000,95.000000,,,,0.000000,4.000000,4.000000,4.000000,4.000000,4.000000,4.000000,4.000000,4.000000,4.000000,4.000000,4.000000,4.000000,4.000000,4.000000,100.000000,,,,,,,,,,,,,,,,
1645707395.357304,240.000000,0.000000,4215.000000,4205.897461,4226.794922,4201.025879,4207.179688,4212.948730,4211.025879,4213.205078,4193.717773,4243.461426,4235.641113,4222.948730,4200.897461,4222.436035,3198.000000,4.000000,95.000000,,,,0.000000,4.000000,4.000000,4.000000,4.000000,4.000000,4.000000,4.000000,4.000000,4.000000,4.000000,4.000000,4.000000,4.000000,4.000000,100.000000,,,,,,,,,,,,,,,,
1645707395.361244,241.000000,0.000000,4208.717773,4203.846191,4226.153809,4198.333496,4204.487305,4208.589844,4210.256348,4211.282227,4192.948730,4243.205078,4229.358887,4218.077148,4187.436035,4212.820313,3278.000000,4.000000,95.000000,,,,0.000000,4.000000,4.000000,4.000000,4.000000,4.000000,4.000000,4.000000,4.000000,4.000000,4.000000,4.000000,4.000000,4.000000,4.000000,100.000000,,,,,,,,,,,,,,,,
1645707395.365184,242.000000,0.000000,4197.051270,4197.436035,4220.641113,4198.077148,4200.256348,4202.692383,4208.846191,4209.358887,4190.128418,4235.641113,4220.128418,4207.563965,4177.563965,4205.000000,3158.000000,4.000000,95.000000,,,,0.000000,4.000000,4.000000,4.000000,4.000000,4.000000,4.000000,4.000000,4.000000,4.000000,4.000000,4.000000,4.000000,4.000000,4.000000,100.000000,,,,,,,,,,,,,,,,
1645707395.369124,243.000000,0.000000,4188.846191,4193.205078,4213.333496,4199.871582,4198.333496,4199.615234,4206.666504,4207.820313,4187.307617,4227.307617,4213.589844,4198.717773,4177.051270,4201.153809,3470.000000,4.000000,95.000000,,,,0.000000,4.000000,4.000000,4.000000,4.000000,4.000000,4.000000,4.000000,4.000000,4.000000,4.000000,4.000000,4.000000,4.000000,4.000000,100.000000,,,,,,,,,,,,,,,,
1645707395.373064,244.000000,0.000000,4189.615234,4194.743652,4209.358887,4201.282227,4200.000000,4201.025879,4204.358887,4208.077148,4187.051270,4225.256348,4212.307617,4197.307617,4185.384766,4199.102539,3198.000000,4.000000,95.000000,,,,0.000000,4.000000,4.000000,4.000000,4.000000,4.000000,4.000000,4.000000,4.000000,4.000000,4.000000,4.000000,4.000000,4.000000,4.000000,100.000000,,,,,,,,,,,,,,,,
1645707395.377004,245.000000,0.000000,4198.589844,4200.000000,4211.794922,4200.897461,4203.205078,4204.358887,4203.461426,4211.282227,4190.000000,4231.153809,4214.487305,4203.589844,4197.051270,4196.922852,3278.000000,4.000000,95.000000,,,,0.000000,4.000000,4.000000,4.000000,4.000000,4.000000,4.000000,4.000000,4.000000,4.000000,4.000000,4.000000,4.000000,4.000000,4.000000,100.000000,,,,,,,,,,,,,,,,
1645707395.380945,246.000000,0.000000,4209.230957,4204.230957,4219.358887,4201.025879,4205.256348,4206.538574,4204.743652,4217.436035,4194.358887,4240.897461,4216.922852,4212.692383,4206.538574,4195.769043,3158.000000,4.000000,95.000000,,,,0.000000,4.000000,4.000000,4.000000,4.000000,4.000000,4.000000,4.000000,4.000000,4.000000,4.000000,4.000000,4.000000,4.000000,4.000000,100.000000,,,,,,,,,,,,,,,,
1645707395.384885,247.000000,0.000000,4214.871582,4205.128418,4227.179688,4203.974121,4205.897461,4206.410156,4207.179688,4223.846191,4197.563965,4249.102539,4218.717773,4218.589844,4212.563965,4199.871582,3470.000000,4.000000,95.000000,,,,0.000000,4.000000,4.000000,4.000000,4.000000,4.000000,4.000000,4.000000,4.000000,4.000000,4.000000,4.000000,4.000000,4.000000,4.000000,100.000000,,,,,,,,,,,,,,,,
1645707395.388825,248.000000,0.000000,4212.820313,4203.717773,4231.025879,4209.230957,4206.538574,4204.871582,4208.717773,4227.051270,4197.820313,4252.307617,4220.512695,4218.077148,4216.922852,4211.153809,3198.000000,4.000000,95.000000,,,,0.000000,4.000000,4.000000,4.000000,4.000000,4.000000,4.000000,4.000000,4.000000,4.000000,4.000000,4.000000,4.000000,4.000000,4.000000,100.000000,,,,,,,,,,,,,,,,
1645707395.392765,249.000000,0.000000,4204.871582,4202.563965,4229.615234,4211.794922,4207.179688,4202.948730,4207.948730,4225.256348,4194.743652,4250.256348,4221.922852,4211.282227,4220.512695,4225.128418,3278.000000,4.000000,95.000000,,,,0.000000,4.000000,4.000000,4.000000,4.000000,4.000000,4.000000,4.000000,4.000000,4.000000,4.000000,4.000000,4.000000,4.000000,4.000000,100.000000,,,,,,,,,,,,,,,,
1645707395.396705,250.000000,0.000000,4195.769043,4202.436035,4225.384766,4207.051270,4206.282227,4200.512695,4205.897461,4219.615234,4190.128418,4244.871582,4222.179688,4202.051270,4221.922852,4233.333496,3158.000000,4.000000,95.000000,,,,0.000000,4.000000,4.000000,4.000000,4.000000,4.000000,4.000000,4.000000,4.000000,4.000000,4.000000,4.000000,4.000000,4.000000,4.000000,100.000000,,,,,,,,,,,,,,,,
1645707395.400645,251.000000,0.000000,4189.487305,4202.563965,4221.666504,4196.922852,4202.820313,4198.077148,4204.487305,4213.333496,4186.922852,4238.974121,4220.256348,4195.384766,4219.230957,4229.102539,3470.000000,4.000000,95.000000,,,,0.000000,4.000000,4.000000,4.000000,4.000000,4.000000,4.000000,4.000000,4.000000,4.000000,4.000000,4.000000,4.000000,4.000000,4.000000,100.000000,,,,,,,,,,,,,,,,
1645707395.404585,252.000000,0.000000,4187.820313,4202.051270,4220.256348,4189.358887,4198.717773,4196.282227,4204.358887,4209.230957,4187.051270,4235.769043,4217.179688,4194.743652,4213.846191,4214.743652,3198.000000,4.000000,95.000000,,,,0.000000,4.000000,4.000000,4.000000,4.000000,4.000000,4.000000,4.000000,4.000000,4.000000,4.000000,4.000000,4.000000,4.000000,4.000000,100.000000,,,,,,,,,,,,,,,,
1645707395.408525,253.000000,0.000000,4190.384766,4200.256348,4220.512695,4191.794922,4197.179688,4196.282227,4204.358887,4208.205078,4189.743652,4237.179688,4213.846191,4199.358887,4210.000000,4199.102539,3278.000000,4.000000,95.000000,,,,0.000000,4.000000,4.000000,4.000000,4.000000,4.000000,4.000000,4.000000,4.000000,4.000000,4.000000,4.000000,4.000000,4.000000,4.000000,100.000000,,,,,,,,,,,,,,,,
1645707395.412465,254.000000,0.000000,4194.230957,4197.948730,4221.794922,4203.077148,4199.871582,4197.692383,4203.333496,4208.461426,4191.538574,4241.538574,4210.384766,4205.256348,4210.897461,4191.025879,3158.000000,4.000000,95.000000,,,,0.000000,4.000000,4.000000,4.000000,4.000000,4.000000,4.000000,4.000000,4.000000,4.000000,4.000000,4.000000,4.000000,4.000000,4.000000,100.000000,,,,,,,,,,,,,,,,
1645707395.416405,255.000000,0.000000,4196.666504,4196.410156,4223.717773,4214.102539,4204.871582,4199.102539,4202.179688,4208.461426,4189.487305,4244.743652,4206.538574,4208.461426,4215.641113,4192.820313,115.000000,4.000000,95.000000,,,,0.000000,4.000000,4.000000,4.000000,4.000000,4.000000,4.000000,4.000000,4.000000,4.000000,4.000000,4.000000,4.000000,4.000000,4.000000,100.000000,,,,,,,,,,,,,,,,
1645707395.420346,0.000000,0.000000,4197.179688,4197.563965,4226.153809,4216.538574,4209.615234,4200.000000,4202.436035,4207.948730,4184.743652,4243.461426,4202.948730,4208.333496,4220.512695,4200.512695,3203.000000,4.000000,95.000000,,,,0.000000,4.000000,4.000000,4.000000,4.000000,4.000000,4.000000,4.000000,4.000000,4.000000,4.000000,4.000000,4.000000,4.000000,4.000000,100.000000,,,,,,,,,,,,,,,,
1645707395.424286,1.000000,0.000000,4198.077148,4202.436035,4227.692383,4210.000000,4212.820313,4200.769043,4204.230957,4207.436035,4181.282227,4237.820313,4201.922852,4207.179688,4222.179688,4208.717773,3332.000000,4.000000,95.000000,,,,0.000000,4.000000,4.000000,4.000000,4.000000,4.000000,4.000000,4.000000,4.000000,4.000000,4.000000,4.000000,4.000000,4.000000,4.000000,100.000000,,,,,,,,,,,,,,,,
1645707395.428226,2.000000,0.000000,4201.025879,4209.230957,4227.179688,4201.538574,4214.102539,4202.820313,4206.538574,4207.307617,4181.794922,4231.025879,4204.487305,4207.948730,4219.871582,4214.358887,3623.000000,4.000000,95.000000,,,,0.000000,4.000000,4.000000,4.000000,4.000000,4.000000,4.000000,4.000000,4.000000,4.000000,4.000000,4.000000,4.000000,4.000000,4.000000,100.000000,,,,,,,,,,,,,,,,
1645707395.432066,3.000000,0.000000,4205.000000,4213.589844,4224.230957,4197.948730,4213.846191,4205.769043,4207.948730,4207.051270,4185.128418,4226.025879,4208.717773,4211.410156,4215.256348,4215.897461,3478.000000,4.000000,95.000000,,,,0.000000,4.000000,4.000000,4.000000,4.000000,4.000000,4.000000,4.000000,4.000000,4.000000,4.000000,4.000000,4.000000,4.000000,4.000000,100.000000,,,,,,,,,,,,,,,,
1645707395.436006,4.000000,0.000000,4207.051270,4212.692383,4221.025879,4200.512695,4212.692383,4207.820313,4209.102539,4207.307617,4187.692383,4223.846191,4211.922852,4216.922852,4210.256348,4211.922852,3476.000000,4.000000,95.000000,,,,0.000000,4.000000,4.000000,4.000000,4.000000,4.000000,4.000000,4.000000,4.000000,4.000000,4.000000,4.000000,4.000000,4.000000,4.000000,100.000000,,,,,,,,,,,,,,,,
1645707395.439946,5.000000,0.000000,4205.769043,4207.820313,4220.641113,4205.512695,4211.666504,4208.461426,4210.641113,4208.846191,4186.666504,4225.000000,4212.692383,4222.179688,4206.794922,4203.333496,3431.000000,4.000000,95.000000,,,,0.000000,4.000000,4.000000,4.000000,4.000000,4.000000,4.000000,4.000000,4.000000,4.000000,4.000000,4.000000,4.000000,4.000000,4.000000,100.000000,,,,,,,,,,,,,,,,
1645707395.443886,6.000000,0.000000,4203.589844,4203.589844,4223.974121,4208.717773,4212.307617,4208.717773,4212.179688,4211.666504,4183.333496,4229.871582,4212.563965,4225.384766,4206.153809,4195.128418,2890.000000,4.000000,95.000000,,,,0.000000,4.000000,4.000000,4.000000,4.000000,4.000000,4.000000,4.000000,4.000000,4.000000,4.000000,4.000000,4.000000,4.000000,4.000000,100.000000,,,,,,,,,,,,,,,,
1645707395.447826,7.000000,0.000000,4203.589844,4202.948730,4229.230957,4208.717773,4214.871582,4209.871582,4212.307617,4215.256348,4181.794922,4238.461426,4213.333496,4225.512695,4209.102539,4194.102539,2884.000000,4.000000,95.000000,,,,0.000000,4.000000,4.000000,4.000000,4.000000,4.000000,4.000000,4.000000,4.000000,4.000000,4.000000,4.000000,4.000000,4.000000,4.000000,100.000000,,,,,,,,,,,,,,,,
1645707395.451767,8.000000,0.000000,4206.153809,4205.000000,4233.461426,4207.179688,4217.563965,4211.410156,4210.769043,4218.589844,4184.615234,4248.205078,4215.128418,4223.333496,4214.743652,4202.436035,1528.000000,4.000000,95.000000,,,,0.000000,4.000000,4.000000,4.000000,4.000000,4.000000,4.000000,4.000000,4.000000,4.000000,4.000000,4.000000,4.000000,4.000000,4.000000,100.000000,,,,,,,,,,,,,,,,
1645707395.455707,9.000000,0.000000,4207.948730,4207.307617,4235.000000,4206.282227,4217.051270,4211.410156,4208.589844,4221.025879,4191.153809,4254.615234,4215.641113,4220.512695,4221.282227,4214.871582,3294.000000,4.000000,95.000000,,,,0.000000,4.000000,4.000000,4.000000,4.000000,4.000000,4.000000,4.000000,4.000000,4.000000,4.000000,4.000000,4.000000,4.000000,4.000000,100.000000,,,,,,,,,,,,,,,,
1645707395.459647,10.000000,0.000000,4205.512695,4208.333496,4233.589844,4206.666504,4212.179688,4208.589844,4207.692383,4221.666504,4197.051270,4255.128418,4214.102539,4219.230957,4226.922852,4223.077148,3156.000000,4.000000,95.000000,,,,0.000000,4.000000,4.000000,4.000000,4.000000,4.000000,4.000000,4.000000,4.000000,4.000000,4.000000,4.000000,4.000000,4.000000,4.000000,100.000000,,,,,,,,,,,,,,,,
1645707395.463587,11.000000,0.000000,4199.230957,4208.333496,4229.871582,4207.051270,4205.384766,4204.615234,4208.461426,4220.256348,4198.589844,4252.179688,4212.692383,4220.128418,4230.641113,4222.948730,3457.000000,4.000000,95.000000,,,,0.000000,4.000000,4.000000,4.000000,4.000000,4.000000,4.000000,4.000000,4.000000,4.000000,4.000000,4.000000,4.000000,4.000000,4.000000,100.000000,,,,,,,,,,,,,,,,
1645707395.467527,12.000000,0.000000,4192.692383,4208.589844,4225.512695,4205.897461,4201.025879,4202.051270,4209.358887,4216.922852,4195.897461,4251.025879,4214.487305,4222.179688,4232.436035,4217.820313,3484.000000,4.000000,95.000000,,,,0.000000,4.000000,4.000000,4.000000,4.000000,4.000000,4.000000,4.000000,4.000000,4.000000,4.000000,4.000000,4.000000,4.000000,4.000000,100.000000,,,,,,,,,,,,,,,,
1645707395.471467,13.000000,0.000000,4189.871582,4208.461426,4221.922852,4203.333496,4201.153809,4202.307617,4208.589844,4212.948730,4191.410156,4253.205078,4219.102539,4223.205078,4231.794922,4213.077148,3260.000000,4.000000,95.000000,,,,0.000000,4.000000,4.000000,4.000000,4.000000,4.000000,4.000000,4.000000,4.000000,4.000000,4.000000,4.000000,4.000000,4.000000,4.000000,100.000000,,,,,,,,,,,,,,,,
1645707395.475407,14.000000,0.000000,4191.153809,4207.563965,4220.384766,4201.410156,4203.846191,4204.615234,4207.051270,4210.641113,4188.846191,4256.153809,4223.333496,4221.922852,4228.461426,4211.794922,3156.000000,4.000000,95.000000,,,,0.000000,4.000000,4.000000,4.000000,4.000000,4.000000,4.000000,4.000000,4.000000,4.000000,4.000000,4.000000,4.000000,4.000000,4.000000,100.000000,,,,,,,,,,,,,,,,
1645707395.479347,15.000000,0.000000,4194.487305,4205.897461,4221.025879,4202.051270,4206.025879,4206.282227,4206.153809,4211.282227,4189.615234,4256.410156,4223.589844,4219.871582,4223.333496,4213.333496,3457.000000,4.000000,95.000000,,,,0.000000,4.000000,4.000000,4.000000,4.000000,4.000000,4.000000,4.000000,4.000000,4.000000,4.000000,4.000000,4.000000,4.000000,4.000000,100.000000,,,,,,,,,,,,,,,,
1645707395.483287,16.000000,0.000000,4198.589844,4205.256348,4222.820313,4205.641113,4206.666504,4206.666504,4207.051270,4214.871582,4192.307617,4255.512695,4220.256348,4220.128418,4219.230957,4215.769043,3484.000000,4.000000,95.000000,,,,0.000000,4.000000,4.000000,4.000000,4.000000,4.000000,4.000000,4.000000,4.000000,4.000000,4.000000,4.000000,4.000000,4.000000,4.000000,100.000000,,,,,,,,,,,,,,,,
1645707395.487227,17.000000,0.000000,4202.820313,4207.179688,4225.512695,4210.384766,4207.563965,4206.794922,4208.589844,4219.102539,4195.000000,4257.307617,4217.563965,4224.871582,4219.615234,4218.589844,3260.000000,4.000000,95.000000,,,,0.000000,4.000000,4.000000,4.000000,4.000000,4.000000,4.000000,4.000000,4.000000,4.000000,4.000000,4.000000,4.000000,4.000000,4.000000,100.000000,,,,,,,,,,,,,,,,
1645707395.491168,18.000000,0.000000,4207.436035,4211.025879,4229.230957,4213.461426,4210.256348,4208.461426,4210.128418,4221.922852,4196.538574,4264.102539,4220.128418,4234.487305,4225.384766,4223.205078,3156.000000,4.000000,95.000000,,,,0.000000,4.000000,4.000000,4.000000,4.000000,4.000000,4.000000,4.000000,4.000000,4.000000,4.000000,4.000000,4.000000,4.000000,4.000000,100.000000,,,,,,,,,,,,,,,,
1645707395.495108,19.000000,0.000000,4211.153809,4214.230957,4233.846191,4213.846191,4214.230957,4211.666504,4211.922852,4222.820313,4197.179688,4273.077148,4228.077148,4246.153809,4233.846191,4230.641113,3457.000000,4.000000,95.000000,,,,0.000000,4.000000,4.000000,4.000000,4.000000,4.000000,4.000000,4.000000,4.000000,4.000000,4.000000,4.000000,4.000000,4.000000,4.000000,100.000000,,,,,,,,,,,,,,,,
1645707395.499048,20.000000,0.000000,4213.333496,4214.358887,4237.307617,4211.538574,4216.025879,4214.358887,4214.358887,4222.820313,4197.436035,4278.974121,4237.051270,4255.000000,4239.743652,4239.871582,3484.000000,4.000000,95.000000,,,,0.000000,4.000000,4.000000,4.000000,4.000000,4.000000,4.000000,4.000000,4.000000,4.000000,4.000000,4.000000,4.000000,4.000000,4.000000,100.000000,,,,,,,,,,,,,,,,
1645707395.502988,21.000000,0.000000,4214.102539,4210.897461,4237.179688,4207.820313,4213.333496,4214.743652,4216.153809,4222.307617,4197.179688,4279.487305,4241.025879,4256.922852,4239.871582,4246.410156,3260.000000,4.000000,95.000000,,,,0.000000,4.000000,4.000000,4.000000,4.000000,4.000000,4.000000,4.000000,4.000000,4.000000,4.000000,4.000000,4.000000,4.000000,4.000000,100.000000,,,,,,,,,,,,,,,,
1645707395.506828,22.000000,0.000000,4214.487305,4205.897461,4233.077148,4203.974121,4207.563965,4212.563965,4215.769043,4220.769043,4196.025879,4276.666504,4237.820313,4251.922852,4234.615234,4244.743652,3156.000000,4.000000,95.000000,,,,0.000000,4.000000,4.000000,4.000000,4.000000,4.000000,4.000000,4.000000,4.000000,4.000000,4.000000,4.000000,4.000000,4.000000,4.000000,100.000000,,,,,,,,,,,,,,,,
1645707395.510768,23.000000,0.000000,4214.615234,4202.307617,4227.692383,4201.410156,4202.307617,4209.743652,4212.692383,4217.692383,4193.717773,4274.230957,4230.256348,4243.974121,4228.077148,4233.846191,3457.000000,4.000000,95.000000,,,,0.000000,4.000000,4.000000,4.000000,4.000000,4.000000,4.000000,4.000000,4.000000,4.000000,4.000000,4.000000,4.000000,4.000000,4.000000,100.000000,,,,,,,,,,,,,,,,
1645707395.514708,24.000000,0.000000,4213.333496,4202.179688,4225.256348,4201.922852,4200.000000,4208.589844,4209.487305,4214.102539,4190.769043,4273.974121,4223.461426,4238.333496,4224.102539,4218.974121,3484.000000,4.000000,95.000000,,,,0.000000,4.000000,4.000000,4.000000,4.000000,4.000000,4.000000,4.000000,4.000000,4.000000,4.000000,4.000000,4.000000,4.000000,4.000000,100.000000,,,,,,,,,,,,,,,,
1645707395.518648,25.000000,0.000000,4209.358887,4205.128418,4227.692383,4205.641113,4200.641113,4209.487305,4208.974121,4211.153809,4188.589844,4274.487305,4221.025879,4237.436035,4224.102539,4208.846191,3260.000000,4.000000,95.000000,,,,0.000000,4.000000,4.000000,4.000000,4.000000,4.000000,4.000000,4.000000,4.000000,4.000000,4.000000,4.000000,4.000000,4.000000,4.000000,100.000000,,,,,,,,,,,,,,,,
1645707395.522589,26.000000,0.000000,4203.077148,4209.102539,4232.563965,4211.025879,4202.179688,4211.794922,4211.794922,4209.871582,4188.077148,4274.358887,4223.461426,4239.871582,4226.538574,4209.487305,3156.000000,4.000000,95.000000,,,,0.000000,4.000000,4.000000,4.000000,4.000000,4.000000,4.000000,4.000000,4.000000,4.000000,4.000000,4.000000,4.000000,4.000000,4.000000,100.000000,,,,,,,,,,,,,,,,
1645707395.526529,27.000000,0.000000,4196.538574,4212.051270,4236.153809,4215.384766,4203.461426,4213.974121,4215.512695,4210.000000,4189.230957,4274.358887,4228.333496,4242.692383,4229.102539,4218.333496,3457.000000,4.000000,95.000000,,,,0.000000,4.000000,4.000000,4.000000,4.000000,4.000000,4.000000,4.000000,4.000000,4.000000,4.000000,4.000000,4.000000,4.000000,4.000000,100.000000,,,,,,,,,,,,,,,,
1645707395.530469,28.000000,0.000000,4193.077148,4212.948730,4236.153809,4217.051270,4204.615234,4214.615234,4216.922852,4210.769043,4190.641113,4275.641113,4232.436035,4242.948730,4229.871582,4227.179688,3484.000000,4.000000,95.000000,,,,0.000000,4.000000,4.000000,4.000000,4.000000,4.000000,4.000000,4.000000,4.000000,4.000000,4.000000,4.000000,4.000000,4.000000,4.000000,100.000000,,,,,,,,,,,,,,,,
1645707395.534409,29.000000,0.000000,4194.358887,4212.051270,4233.846191,4215.512695,4205.641113,4213.589844,4215.384766,4211.794922,4190.641113,4277.820313,4232.436035,4239.230957,4228.077148,4228.846191,3260.000000,4.000000,95.000000,,,,0.000000,4.000000,4.000000,4.000000,4.000000,4.000000,4.000000,4.000000,4.000000,4.000000,4.000000,4.000000,4.000000,4.000000,4.000000,100.000000,,,,,,,,,,,,,,,,
1645707395.538349,30.000000,0.000000,4199.487305,4210.000000,4231.025879,4210.769043,4206.282227,4211.794922,4213.205078,4212.563965,4188.333496,4277.948730,4227.307617,4232.563965,4224.743652,4223.333496,3156.000000,4.000000,95.000000,,,,0.000000,4.000000,4.000000,4.000000,4.000000,4.000000,4.000000,4.000000,4.000000,4.000000,4.000000,4.000000,4.000000,4.000000,4.000000,100.000000,,,,,,,,,,,,,,,,
1645707395.542289,31.000000,0.000000,4205.000000,4207.436035,4229.615234,4204.743652,4206.922852,4210.384766,4212.563965,4212.051270,4184.871582,4273.974121,4218.846191,4225.769043,4221.794922,4216.666504,3457.000000,4.000000,95.000000,,,,0.000000,4.000000,4.000000,4.000000,4.000000,4.000000,4.000000,4.000000,4.000000,4.000000,4.000000,4.000000,4.000000,4.000000,4.000000,100.000000,,,,,,,,,,,,,,,,
1645707395.546229,32.000000,0.000000,4207.051270,4205.769043,4229.743652,4200.256348,4208.205078,4210.512695,4213.077148,4209.615234,4182.179688,4267.436035,4210.641113,4222.436035,4220.641113,4214.743652,0.000000,4.000000,95.000000,,,,0.000000,4.000000,4.000000,4.000000,4.000000,4.000000,4.000000,4.000000,4.000000,4.000000,4.000000,4.000000,4.000000,4.000000,4.000000,100.000000,,,,,,,,,,,,,,,,
1645707395.550169,33.000000,0.000000,4204.230957,4206.025879,4231.282227,4200.384766,4210.641113,4211.666504,4212.692383,4205.641113,4181.922852,4262.051270,4206.922852,4224.871582,4221.538574,4218.077148,0.000000,4.000000,95.000000,,,,0.000000,4.000000,4.000000,4.000000,4.000000,4.000000,4.000000,4.000000,4.000000,4.000000,4.000000,4.000000,4.000000,4.000000,4.000000,100.000000,,,,,,,,,,,,,,,,
1645707395.554109,34.000000,0.000000,4199.871582,4208.717773,4234.230957,4205.897461,4212.948730,4212.436035,4211.153809,4202.820313,4183.974121,4262.179688,4210.000000,4233.077148,4223.846191,4223.333496,0.000000,4.000000,95.000000,,,,0.000000,4.000000,4.000000,4.000000,4.000000,4.000000,4.000000,4.000000,4.000000,4.000000,4.000000,4.000000,4.000000,4.000000,4.000000,100.000000,,,,,,,,,,,,,,,,
1645707395.558049,35.000000,0.000000,4199.102539,4213.333496,4238.333496,4214.102539,4214.230957,4211.794922,4209.487305,4203.846191,4187.307617,4268.974121,4219.230957,4244.102539,4226.666504,4226.922852,0.000000,4.000000,95.000000,,,,0.000000,4.000000,4.000000,4.000000,4.000000,4.000000,4.000000,4.000000,4.000000,4.000000,4.000000,4.000000,4.000000,4.000000,4.000000,100.000000,,,,,,,,,,,,,,,,
1645707395.561990,36.000000,0.000000,4205.769043,4218.974121,4242.692383,4221.153809,4214.487305,4210.256348,4209.230957,4209.102539,4190.897461,4279.743652,4231.282227,4254.102539,4230.256348,4228.461426,0.000000,4.000000,95.000000,,,,0.000000,4.000000,4.000000,4.000000,4.000000,4.000000,4.000000,4.000000,4.000000,4.000000,4.000000,4.000000,4.000000,4.000000,4.000000,100.000000,,,,,,,,,,,,,,,,
1645707395.565930,37.000000,0.000000,4218.333496,4223.974121,4246.538574,4224.871582,4215.256348,4209.743652,4210.000000,4215.641113,4193.846191,4288.846191,4242.436035,4259.615234,4234.871582,4230.897461,0.000000,4.000000,95.000000,,,,0.000000,4.000000,4.000000,4.000000,4.000000,4.000000,4.000000,4.000000,4.000000,4.000000,4.000000,4.000000,4.000000,4.000000,4.000000,100.000000,,,,,,,,,,,,,,,,
1645707395.569870,38.000000,0.000000,4230.256348,4226.794922,4248.589844,4225.512695,4216.794922,4211.153809,4210.384766,4219.487305,4195.128418,4291.666504,4249.230957,4260.256348,4239.615234,4237.179688,0.000000,4.000000,95.000000,,,,0.000000,4.000000,4.000000,4.000000,4.000000,4.000000,4.000000,4.000000,4.000000,4.000000,4.000000,4.000000,4.000000,4.000000,4.000000,100.000000,,,,,,,,,,,,,,,,
1645707395.573810,39.000000,0.000000,4234.358887,4226.538574,4248.846191,4224.358887,4217.948730,4213.205078,4210.256348,4218.974121,4193.461426,4287.563965,4249.487305,4257.307617,4242.436035,4246.282227,0.000000,4.000000,95.000000,,,,0.000000,4.000000,4.000000,4.000000,4.000000,4.000000,4.000000,4.000000,4.000000,4.000000,4.000000,4.000000,4.000000,4.000000,4.000000,100.000000,,,,,,,,,,,,,,,,
1645707395.577750,40.000000,0.000000,4227.948730,4223.205078,4247.692383,4222.563965,4217.820313,4214.102539,4210.256348,4215.256348,4189.230957,4280.384766,4243.846191,4252.051270,4241.666504,4252.948730,0.000000,4.000000,95.000000,,,,0.000000,4.000000,4.000000,4.000000,4.000000,4.000000,4.000000,4.000000,4.000000,4.000000,4.000000,4.000000,4.000000,4.000000,4.000000,100.000000,,,,,,,,,,,,,,,,
1645707395.581590,41.000000,0.000000,4215.256348,4219.230957,4245.384766,4220.897461,4216.794922,4213.333496,4211.666504,4210.897461,4185.000000,4276.153809,4235.769043,4246.410156,4238.461426,4252.436035,0.000000,4.000000,95.000000,,,,0.000000,4.000000,4.000000,4.000000,4.000000,4.000000,4.000000,4.000000,4.000000,4.000000,4.000000,4.000000,4.000000,4.000000,4.000000,100.000000,,,,,,,,,,,,,,,,
1645707395.585530,42.000000,0.000000,4205.128418,4217.051270,4242.179688,4219.615234,4216.922852,4211.666504,4213.589844,4208.205078,4183.589844,4278.974121,4230.128418,4243.333496,4235.512695,4244.871582,0.000000,4.000000,95.000000,,,,0.000000,4.000000,4.000000,4.000000,4.000000,4.000000,4.000000,4.000000,4.000000,4.000000,4.000000,4.000000,4.000000,4.000000,4.000000,100.000000,,,,,,,,,,,,,,,,
1645707395.589470,43.000000,0.000000,4203.974121,4217.692383,4238.846191,4218.974121,4218.589844,4210.897461,4214.615234,4208.205078,4185.512695,4288.077148,4229.230957,4244.230957,4235.384766,4235.384766,0.000000,4.000000,95.000000,,,,0.000000,4.000000,4.000000,4.000000,4.000000,4.000000,4.000000,4.000000,4.000000,4.000000,4.000000,4.000000,4.000000,4.000000,4.000000,100.000000,,,,,,,,,,,,,,,,
1645707395.593411,44.000000,0.000000,4210.897461,4218.974121,4236.282227,4218.077148,4219.230957,4211.153809,4214.102539,4209.871582,4188.589844,4297.051270,4231.025879,4247.563965,4237.563965,4228.974121,0.000000,4.000000,95.000000,,,,0.000000,4.000000,4.000000,4.000000,4.000000,4.000000,4.000000,4.000000,4.000000,4.000000,4.000000,4.000000,4.000000,4.000000,4.000000,100.000000,,,,,,,,,,,,,,,,
1645707395.597351,45.000000,0.000000,4218.461426,4217.563965,4235.384766,4216.025879,4216.153809,4211.666504,4212.820313,4211.666504,4190.128418,4298.974121,4231.794922,4249.487305,4239.230957,4226.666504,0.000000,4.000000,95.000000,,,,0.000000,4.000000,4.000000,4.000000,4.000000,4.000000,4.000000,4.000000,4.000000,4.000000,4.000000,4.000000,4.000000,4.000000,4.000000,100.000000,,,,,,,,,,,,,,,,
1645707395.601291,46.000000,0.000000,4219.615234,4212.051270,4235.000000,4212.820313,4209.102539,4211.538574,4211.666504,4211.538574,4188.717773,4291.922852,4229.230957,4246.922852,4237.820313,4226.666504,0.000000,4.000000,95.000000,,,,0.000000,4.000000,4.000000,4.000000,4.000000,4.000000,4.000000,4.000000,4.000000,4.000000,4.000000,4.000000,4.000000,4.000000,4.000000,100.000000,,,,,,,,,,,,,,,,
1645707395.605231,47.000000,0.000000,4214.102539,4205.512695,4233.589844,4210.128418,4202.436035,4211.282227,4211.025879,4208.717773,4185.769043,4280.897461,4225.256348,4240.256348,4234.102539,4228.077148,0.000000,4.000000,95.000000,,,,0.000000,4.000000,4.000000,4.000000,4.000000,4.000000,4.000000,4.000000,4.000000,4.000000,4.000000,4.000000,4.000000,4.000000,4.000000,100.000000,,,,,,,,,,,,,,,,
1645707395.609171,48.000000,0.000000,4207.820313,4202.436035,4230.512695,4209.615234,4200.384766,4211.153809,4210.128418,4204.230957,4183.717773,4273.333496,4223.589844,4233.077148,4229.487305,4230.897461,0.000000,4.000000,95.000000,,,,0.000000,4.000000,4.000000,4.000000,4.000000,4.000000,4.000000,4.000000,4.000000,4.000000,4.000000,4.000000,4.000000,4.000000,4.000000,100.000000,,,,,,,,,,,,,,,,
1645707395.613111,49.000000,0.000000,4206.282227,4204.230957,4226.922852,4210.256348,4203.846191,4210.769043,4209.358887,4200.512695,4183.717773,4273.205078,4225.384766,4229.230957,4224.743652,4233.717773,0.000000,4.000000,95.000000,,,,0.000000,4.000000,4.000000,4.000000,4.000000,4.000000,4.000000,4.000000,4.000000,4.000000,4.000000,4.000000,4.000000,4.000000,4.000000,100.000000,,,,,,,,,,,,,,,,
1645707395.617051,50.000000,0.000000,4209.743652,4207.820313,4225.256348,4210.256348,4209.358887,4209.230957,4209.358887,4200.000000,4184.871582,4278.461426,4228.205078,4231.025879,4218.974121,4233.205078,0.000000,4.000000,95.000000,,,,0.000000,4.000000,4.000000,4.000000,4.000000,4.000000,4.000000,4.000000,4.000000,4.000000,4.000000,4.000000,4.000000,4.000000,4.000000,100.000000,,,,,,,,,,,,,,,,
1645707395.620991,51.000000,0.000000,4213.717773,4209.487305,4226.794922,4208.717773,4212.820313,4207.179688,4209.871582,4203.205078,4185.384766,4285.000000,4229.358887,4237.563965,4211.922852,4228.333496,0.000000,4.000000,95.000000,,,,0.000000,4.000000,4.000000,4.000000,4.000000,4.000000,4.000000,4.000000,4.000000,4.000000,4.000000,4.000000,4.000000,4.000000,4.000000,100.000000,,,,,,,,,,,,,,,,
1645707395.624931,52.000000,0.000000,4213.974121,4207.563965,4230.256348,4208.077148,4212.307617,4206.025879,4209.487305,4208.077148,4185.128418,4289.743652,4228.589844,4245.384766,4206.025879,4222.179688,0.000000,4.000000,95.000000,,,,0.000000,4.000000,4.000000,4.000000,4.000000,4.000000,4.000000,4.000000,4.000000,4.000000,4.000000,4.000000,4.000000,4.000000,4.000000,100.000000,,,,,,,,,,,,,,,,
1645707395.628871,53.000000,0.000000,4209.743652,4204.102539,4232.948730,4209.871582,4208.974121,4207.051270,4207.820313,4212.051270,4185.512695,4292.179688,4228.077148,4250.256348,4205.128418,4220.897461,0.000000,4.000000,95.000000,,,,0.000000,4.000000,4.000000,4.000000,4.000000,4.000000,4.000000,4.000000,4.000000,4.000000,4.000000,4.000000,4.000000,4.000000,4.000000,100.000000,,,,,,,,,,,,,,,,
1645707395.632812,54.000000,0.000000,4203.717773,4201.794922,4232.948730,4212.563965,4205.000000,4209.230957,4205.897461,4213.846191,4187.692383,4293.333496,4229.743652,4250.000000,4211.282227,4228.077148,0.000000,4.000000,95.000000,,,,0.000000,4.000000,4.000000,4.000000,4.000000,4.000000,4.000000,4.000000,4.000000,4.000000,4.000000,4.000000,4.000000,4.000000,4.000000,100.000000,,,,,,,,,,,,,,,,
1645707395.636752,55.000000,0.000000,4200.384766,4202.692383,4230.769043,4212.820313,4202.436035,4210.128418,4206.282227,4214.743652,4191.538574,4294.358887,4233.589844,4246.538574,4222.563965,4241.153809,0.000000,4.000000,95.000000,,,,0.000000,4.000000,4.000000,4.000000,4.000000,4.000000,4.000000,4.000000,4.000000,4.000000,4.000000,4.000000,4.000000,4.000000,4.000000,100.000000,,,,,,,,,,,,,,,,
1645707395.640692,56.000000,0.000000,4202.820313,4206.410156,4229.102539,4210.000000,4202.307617,4208.589844,4209.615234,4216.025879,4195.384766,4296.153809,4238.077148,4243.846191,4234.615234,4252.436035,0.000000,4.000000,95.000000,,,,0.000000,4.000000,4.000000,4.000000,4.000000,4.000000,4.000000,4.000000,4.000000,4.000000,4.000000,4.000000,4.000000,4.000000,4.000000,100.000000,,,,,,,,,,,,,,,,
1645707395.644632,57.000000,0.000000,4211.410156,4211.282227,4229.871582,4207.051270,4204.743652,4205.769043,4213.077148,4217.179688,4197.179688,4299.358887,4241.410156,4245.000000,4242.692383,4255.512695,0.000000,4.000000,95.000000,,,,0.000000,4.000000,4.000000,4.000000,4.000000,4.000000,4.000000,4.000000,4.000000,4.000000,4.000000,4.000000,4.000000,4.000000,4.000000,100.000000,,,,,,,,,,,,,,,,
1645707395.648572,58.000000,0.000000,4222.179688,4214.102539,4233.077148,4208.077148,4208.205078,4203.974121,4212.692383,4216.025879,4195.897461,4302.820313,4242.948730,4248.974121,4244.871582,4250.128418,0.000000,4.000000,95.000000,,,,0.000000,4.000000,4.000000,4.000000,4.000000,4.000000,4.000000,4.000000,4.000000,4.000000,4.000000,4.000000,4.000000,4.000000,4.000000,100.000000,,,,,,,,,,,,,,,,
1645707395.652612,59.000000,0.000000,4228.461426,4212.307617,4236.025879,4213.333496,4209.743652,4203.589844,4207.692383,4211.410156,4192.051270,4303.846191,4241.794922,4252.436035,4242.051270,4242.436035,0.000000,4.000000,95.000000,,,,0.000000,4.000000,4.000000,4.000000,4.000000,4.000000,4.000000,4.000000,4.000000,4.000000,4.000000,4.000000,4.000000,4.000000,4.000000,100.000000,,,,,,,,,,,,,,,,
1645707395.656552,60.000000,0.000000,4226.153809,4206.538574,4237.051270,4219.358887,4207.820313,4203.333496,4201.410156,4204.615234,4186.666504,4300.641113,4237.820313,4252.563965,4236.922852,4238.974121,0.000000,4.000000,95.000000,,,,0.000000,4.000000,4.000000,4.000000,4.000000,4.000000,4.000000,4.000000,4.000000,4.000000,4.000000,4.000000,4.000000,4.000000,4.000000,100.000000,,,,,,,,,,,,,,,,
1645707395.660492,61.000000,0.000000,4217.948730,4200.769043,4236.153809,4221.794922,4203.974121,4201.922852,4198.461426,4198.589844,4181.922852,4294.487305,4232.820313,4249.743652,4233.461426,4241.538574,0.000000,4.000000,95.000000,,,,0.000000,4.000000,4.000000,4.000000,4.000000,4.000000,4.000000,4.000000,4.000000,4.000000,4.000000,4.000000,4.000000,4.000000,4.000000,100.000000,,,,,,,,,,,,,,,,
1645707395.664432,62.000000,0.000000,4211.025879,4201.025879,4235.000000,4220.000000,4201.922852,4200.128418,4200.769043,4196.666504,4180.128418,4289.871582,4230.000000,4246.794922,4235.000000,4247.563965,0.000000,4.000000,95.000000,,,,0.000000,4.000000,4.000000,4.000000,4.000000,4.000000,4.000000,4.000000,4.000000,4.000000,4.000000,4.000000,4.000000,4.000000,4.000000,100.000000,,,,,,,,,,,,,,,,
1645707395.668372,63.000000,0.000000,4211.538574,4209.743652,4235.512695,4216.922852,4204.743652,4201.025879,4206.025879,4199.743652,4182.436035,4291.410156,4231.153809,4246.025879,4242.820313,4252.179688,0.000000,4.000000,95.000000,,,,0.000000,4.000000,4.000000,4.000000,4.000000,4.000000,4.000000,4.000000,4.000000,4.000000,4.000000,4.000000,4.000000,4.000000,4.000000,100.000000,,,,,,,,,,,,,,,,
1645707395.672313,64.000000,0.000000,4219.487305,4222.692383,4238.333496,4215.897461,4211.794922,4206.153809,4210.897461,4206.410156,4188.205078,4298.974121,4235.897461,4247.307617,4253.717773,4252.179688,0.000000,4.000000,95.000000,,,,0.000000,4.000000,4.000000,4.000000,4.000000,4.000000,4.000000,4.000000,4.000000,4.000000,4.000000,4.000000,4.000000,4.000000,4.000000,100.000000,,,,,,,,,,,,,,,,
1645707395.676253,65.000000,0.000000,4228.717773,4231.666504,4242.179688,4217.563965,4218.589844,4213.846191,4213.589844,4213.974121,4194.230957,4307.820313,4241.025879,4248.846191,4262.820313,4247.948730,0.000000,4.000000,95.000000,,,,0.000000,4.000000,4.000000,4.000000,4.000000,4.000000,4.000000,4.000000,4.000000,4.000000,4.000000,4.000000,4.000000,4.000000,4.000000,100.000000,,,,,,,,,,,,,,,,
1645707395.680193,66.000000,0.000000,4233.333496,4231.410156,4245.000000,4220.384766,4221.282227,4220.384766,4215.128418,4219.871582,4197.692383,4312.820313,4243.974121,4249.487305,4266.282227,4243.077148,0.000000,4.000000,95.000000,,,,0.000000,4.000000,4.000000,4.000000,4.000000,4.000000,4.000000,4.000000,4.000000,4.000000,4.000000,4.000000,4.000000,4.000000,4.000000,100.000000,,,,,,,,,,,,,,,,
1645707395.684133,67.000000,0.000000,4232.307617,4225.128418,4244.743652,4222.820313,4220.128418,4223.077148,4216.025879,4222.307617,4197.692383,4312.820313,4244.743652,4249.487305,4265.128418,4242.051270,0.000000,4.000000,95.000000,,,,0.000000,4.000000,4.000000,4.000000,4.000000,4.000000,4.000000,4.000000,4.000000,4.000000,4.000000,4.000000,4.000000,4.000000,4.000000,100.000000,,,,,,,,,,,,,,,,
1645707395.688073,68.000000,0.000000,4228.077148,4220.128418,4241.538574,4224.230957,4218.461426,4222.051270,4216.153809,4220.897461,4196.282227,4311.025879,4244.743652,4248.846191,4263.205078,4246.025879,0.000000,4.000000,95.000000,,,,0.000000,4.000000,4.000000,4.000000,4.000000,4.000000,4.000000,4.000000,4.000000,4.000000,4.000000,4.000000,4.000000,4.000000,4.000000,100.000000,,,,,,,,,,,,,,,,
1645707395.692013,69.000000,0.000000,4223.589844,4220.128418,4237.563965,4224.743652,4218.333496,4218.461426,4215.128418,4216.922852,4196.282227,4310.000000,4243.717773,4247.692383,4262.692383,4252.307617,0.000000,4.000000,95.000000,,,,0.000000,4.000000,4.000000,4.000000,4.000000,4.000000,4.000000,4.000000,4.000000,4.000000,4.000000,4.000000,4.000000,4.000000,4.000000,100.000000,,,,,,,,,,,,,,,,
1645707395.695953,70.000000,0.000000,4220.128418,4221.410156,4235.512695,4224.230957,4218.205078,4213.589844,4213.077148,4212.820313,4197.948730,4308.846191,4240.256348,4246.282227,4262.948730,4256.538574,0.000000,4.000000,95.000000,,,,0.000000,4.000000,4.000000,4.000000,4.000000,4.000000,4.000000,4.000000,4.000000,4.000000,4.000000,4.000000,4.000000,4.000000,4.000000,100.000000,,,,,,,,,,,,,,,,
1645707395.699893,71.000000,0.000000,4218.333496,4218.333496,4235.897461,4222.820313,4215.769043,4208.974121,4210.769043,4210.000000,4199.102539,4305.000000,4235.128418,4245.384766,4262.179688,4257.563965,0.000000,4.000000,95.000000,,,,0.000000,4.000000,4.000000,4.000000,4.000000,4.000000,4.000000,4.000000,4.000000,4.000000,4.000000,4.000000,4.000000,4.000000,4.000000,100.000000,,,,,,,,,,,,,,,,
1645707395.703833,72.000000,0.000000,4220.384766,4211.153809,4237.820313,4220.641113,4211.153809,4206.153809,4208.717773,4208.461426,4197.948730,4298.717773,4232.948730,4246.538574,4261.794922,4258.205078,0.000000,4.000000,95.000000,,,,0.000000,4.000000,4.000000,4.000000,4.000000,4.000000,4.000000,4.000000,4.000000,4.000000,4.000000,4.000000,4.000000,4.000000,4.000000,100.000000,,,,,,,,,,,,,,,,
1645707395.707773,73.000000,0.000000,4228.589844,4206.282227,4240.384766,4218.846191,4207.307617,4206.153809,4206.538574,4207.307617,4194.871582,4293.461426,4237.820313,4251.025879,4264.358887,4261.538574,0.000000,4.000000,95.000000,,,,0.000000,4.000000,4.000000,4.000000,4.000000,4.000000,4.000000,4.000000,4.000000,4.000000,4.000000,4.000000,4.000000,4.000000,4.000000,100.000000,,,,,,,,,,,,,,,,
1645707395.711714,74.000000,0.000000,4240.512695,4209.615234,4243.974121,4218.589844,4206.282227,4207.436035,4203.974121,4206.538574,4192.051270,4292.820313,4248.717773,4258.461426,4270.512695,4266.410156,0.000000,4.000000,95.000000,,,,0.000000,4.000000,4.000000,4.000000,4.000000,4.000000,4.000000,4.000000,4.000000,4.000000,4.000000,4.000000,4.000000,4.000000,4.000000,100.000000,,,,,,,,,,,,,,,,
1645707395.715654,75.000000,0.000000,4249.487305,4220.512695,4248.846191,4221.025879,4207.436035,4207.692383,4201.666504,4206.282227,4191.538574,4296.538574,4258.589844,4267.051270,4277.563965,4268.077148,0.000000,4.000000,95.000000,,,,0.000000,4.000000,4.000000,4.000000,4.000000,4.000000,4.000000,4.000000,4.000000,4.000000,4.000000,4.000000,4.000000,4.000000,4.000000,100.000000,,,,,,,,,,,,,,,,
1645707395.719594,76.000000,0.000000,4250.000000,4233.717773,4254.615234,4226.794922,4208.077148,4205.256348,4200.256348,4205.769043,4192.692383,4301.153809,4261.025879,4273.717773,4282.307617,4265.128418,0.000000,4.000000,95.000000,,,,0.000000,4.000000,4.000000,4.000000,4.000000,4.000000,4.000000,4.000000,4.000000,4.000000,4.000000,4.000000,4.000000,4.000000,4.000000,100.000000,,,,,,,,,,,,,,,,
1645707395.723534,77.000000,0.000000,4244.487305,4243.333496,4258.974121,4234.230957,4206.666504,4200.769043,4199.487305,4202.948730,4193.333496,4303.461426,4256.025879,4276.794922,4285.256348,4263.846191,0.000000,4.000000,95.000000,,,,0.000000,4.000000,4.000000,4.000000,4.000000,4.000000,4.000000,4.000000,4.000000,4.000000,4.000000,4.000000,4.000000,4.000000,4.000000,100.000000,,,,,,,,,,,,,,,,
1645707395.727374,78.000000,0.000000,4242.436035,4248.077148,4260.128418,4240.769043,4203.846191,4196.538574,4197.820313,4197.436035,4192.051270,4303.333496,4249.743652,4277.051270,4289.615234,4274.102539,0.000000,4.000000,95.000000,,,,0.000000,4.000000,4.000000,4.000000,4.000000,4.000000,4.000000,4.000000,4.000000,4.000000,4.000000,4.000000,4.000000,4.000000,4.000000,100.000000,,,,,,,,,,,,,,,,
1645707395.731314,79.000000,0.000000,4250.897461,4249.102539,4258.461426,4243.717773,4201.282227,4193.974121,4195.256348,4192.051270,4189.615234,4303.461426,4248.589844,4277.051270,4297.563965,4298.205078,0.000000,4.000000,95.000000,,,,0.000000,4.000000,4.000000,4.000000,4.000000,4.000000,4.000000,4.000000,4.000000,4.000000,4.000000,4.000000,4.000000,4.000000,4.000000,100.000000,,,,,,,,,,,,,,,,
1645707395.735254,80.000000,0.000000,4267.948730,4248.205078,4257.051270,4242.692383,4199.871582,4192.692383,4193.077148,4191.025879,4188.333496,4306.153809,4254.230957,4278.717773,4307.307617,4326.410156,0.000000,4.000000,95.000000,,,,0.000000,4.000000,4.000000,4.000000,4.000000,4.000000,4.000000,4.000000,4.000000,4.000000,4.000000,4.000000,4.000000,4.000000,4.000000,100.000000,,,,,,,,,,,,,,,,
1645707395.739194,81.000000,0.000000,4283.974121,4245.769043,4259.358887,4239.615234,4199.743652,4191.666504,4193.077148,4196.538574,4189.102539,4311.282227,4263.077148,4282.179688,4313.974121,4343.717773,0.000000,4.000000,95.000000,,,,0.000000,4.000000,4.000000,4.000000,4.000000,4.000000,4.000000,4.000000,4.000000,4.000000,4.000000,4.000000,4.000000,4.000000,4.000000,100.000000,,,,,,,,,,,,,,,,
1645707395.743135,82.000000,0.000000,4290.512695,4242.948730,4266.153809,4237.307617,4200.897461,4190.641113,4194.487305,4205.897461,4191.538574,4316.410156,4271.153809,4286.666504,4315.384766,4343.589844,0.000000,4.000000,95.000000,,,,0.000000,4.000000,4.000000,4.000000,4.000000,4.000000,4.000000,4.000000,4.000000,4.000000,4.000000,4.000000,4.000000,4.000000,4.000000,100.000000,,,,,,,,,,,,,,,,
1645707395.747075,83.000000,0.000000,4286.922852,4241.282227,4275.000000,4238.461426,4203.077148,4191.153809,4195.512695,4213.205078,4194.102539,4319.615234,4276.666504,4291.794922,4313.589844,4333.205078,0.000000,4.000000,95.000000,,,,0.000000,4.000000,4.000000,4.000000,4.000000,4.000000,4.000000,4.000000,4.000000,4.000000,4.000000,4.000000,4.000000,4.000000,4.000000,100.000000,,,,,,,,,,,,,,,,
1645707395.751015,84.000000,0.000000,4279.615234,4242.692383,4281.922852,4242.436035,4205.384766,4193.333496,4195.128418,4213.974121,4195.256348,4319.743652,4280.512695,4297.051270,4313.205078,4325.897461,0.000000,4.000000,95.000000,,,,0.000000,4.000000,4.000000,4.000000,4.000000,4.000000,4.000000,4.000000,4.000000,4.000000,4.000000,4.000000,4.000000,4.000000,4.000000,100.000000,,,,,,,,,,,,,,,,
1645707395.754955,85.000000,0.000000,4275.641113,4246.666504,4284.230957,4246.025879,4205.384766,4195.769043,4194.871582,4208.974121,4194.743652,4317.692383,4283.589844,4300.769043,4316.666504,4328.974121,0.000000,4.000000,95.000000,,,,0.000000,4.000000,4.000000,4.000000,4.000000,4.000000,4.000000,4.000000,4.000000,4.000000,4.000000,4.000000,4.000000,4.000000,4.000000,100.000000,,,,,,,,,,,,,,,,
1645707395.758895,86.000000,0.000000,4277.692383,4251.282227,4281.153809,4245.897461,4202.179688,4196.666504,4196.538574,4202.692383,4193.333496,4315.128418,4285.384766,4300.897461,4322.820313,4339.230957,0.000000,4.000000,95.000000,,,,0.000000,4.000000,4.000000,4.000000,4.000000,4.000000,4.000000,4.000000,4.000000,4.000000,4.000000,4.000000,4.000000,4.000000,4.000000,100.000000,,,,,,,,,,,,,,,,
1645707395.762835,87.000000,0.000000,4283.974121,4254.871582,4274.358887,4242.307617,4197.307617,4196.282227,4200.256348,4199.102539,4192.307617,4315.128418,4285.128418,4296.666504,4328.461426,4347.307617,0.000000,4.000000,95.000000,,,,0.000000,4.000000,4.000000,4.000000,4.000000,4.000000,4.000000,4.000000,4.000000,4.000000,4.000000,4.000000,4.000000,4.000000,4.000000,100.000000,,,,,,,,,,,,,,,,
1645707395.766775,88.000000,0.000000,4291.153809,4256.538574,4266.153809,4238.589844,4194.487305,4196.410156,4203.333496,4199.230957,4192.436035,4319.743652,4283.333496,4289.615234,4331.538574,4347.307617,0.000000,4.000000,95.000000,,,,0.000000,4.000000,4.000000,4.000000,4.000000,4.000000,4.000000,4.000000,4.000000,4.000000,4.000000,4.000000,4.000000,4.000000,4.000000,100.000000,,,,,,,,,,,,,,,,
1645707395.770715,89.000000,0.000000,4296.410156,4255.384766,4259.871582,4238.077148,4195.641113,4198.461426,4203.974121,4201.922852,4193.974121,4327.436035,4281.282227,4283.974121,4331.922852,4340.384766,0.000000,4.000000,95.000000,,,,0.000000,4.000000,4.000000,4.000000,4.000000,4.000000,4.000000,4.000000,4.000000,4.000000,4.000000,4.000000,4.000000,4.000000,4.000000,100.000000,,,,,,,,,,,,,,,,
1645707395.774655,90.000000,0.000000,4297.692383,4251.410156,4258.077148,4241.153809,4200.128418,4202.051270,4203.205078,4205.641113,4195.769043,4333.717773,4279.743652,4283.717773,4330.641113,4332.692383,0.000000,4.000000,95.000000,,,,0.000000,4.000000,4.000000,4.000000,4.000000,4.000000,4.000000,4.000000,4.000000,4.000000,4.000000,4.000000,4.000000,4.000000,4.000000,100.000000,,,,,,,,,,,,,,,,
1645707395.778595,91.000000,0.000000,4293.717773,4246.025879,4260.128418,4244.615234,4205.128418,4205.769043,4203.077148,4209.102539,4196.794922,4335.384766,4279.358887,4289.230957,4328.589844,4329.615234,0.000000,4.000000,95.000000,,,,0.000000,4.000000,4.000000,4.000000,4.000000,4.000000,4.000000,4.000000,4.000000,4.000000,4.000000,4.000000,4.000000,4.000000,4.000000,100.000000,,,,,,,,,,,,,,,,
1645707395.782536,92.000000,0.000000,4284.358887,4240.384766,4262.692383,4244.871582,4208.333496,4208.205078,4204.743652,4211.538574,4197.307617,4332.948730,4279.871582,4296.538574,4326.025879,4331.153809,0.000000,4.000000,95.000000,,,,0.000000,4.000000,4.000000,4.000000,4.000000,4.000000,4.000000,4.000000,4.000000,4.000000,4.000000,4.000000,4.000000,4.000000,4.000000,100.000000,1.000000,100.000000,4.000000,4.000000,4.000000,4.000000,4.000000,4.000000,4.000000,4.000000,4.000000,4.000000,4.000000,4.000000,4.000000,4.000000
1645707395.786476,93.000000,0.000000,4271.025879,4233.717773,4262.051270,4240.512695,4209.102539,4208.974121,4206.666504,4212.563965,4197.563965,4329.743652,4280.384766,4299.615234,4323.077148,4332.692383,0.000000,4.000000,95.000000,,,,0.000000,4.000000,4.000000,4.000000,4.000000,4.000000,4.000000,4.000000,4.000000,4.000000,4.000000,4.000000,4.000000,4.000000,4.000000,100.000000,,,,,,,,,,,,,,,,
