title:Alex-nAMHektqXsaEgIeFIeDsbQ, start timestamp:1644852865.211210, stop timestamp:1644852891.471469, headset type:EPOCPLUS, headset serial:3B9AEBFF, headset firmware:626, channels:55, sampling rate:eeg_256, samples:6665      , version:2.1, 
Timestamp,EEG.Counter,EEG.Interpolated,EEG.AF3,EEG.F7,EEG.F3,EEG.FC5,EEG.T7,EEG.P7,EEG.O1,EEG.O2,EEG.P8,EEG.T8,EEG.FC6,EEG.F4,EEG.F8,EEG.AF4,EEG.RawCq,EEG.Battery,EEG.BatteryPercent,MarkerIndex,MarkerType,MarkerValueInt,EEG.MarkerHardware,CQ.AF3,CQ.F7,CQ.F3,CQ.FC5,CQ.T7,CQ.P7,CQ.O1,CQ.O2,CQ.P8,CQ.T8,CQ.FC6,CQ.F4,CQ.F8,CQ.AF4,CQ.Overall,EQ.SampleRateQuality,EQ.OVERALL,EQ.AF3,EQ.F7,EQ.F3,EQ.FC5,EQ.T7,EQ.P7,EQ.O1,EQ.O2,EQ.P8,EQ.T8,EQ.FC6,EQ.F4,EQ.F8,EQ.AF4
1644852865.211210,107.000000,0.000000,4195.512695,4147.820313,4222.563965,4179.615234,4200.769043,4213.717773,4214.871582,4227.307617,4250.000000,4239.358887,4208.717773,4208.846191,4217.820313,4211.410156,0.000000,4.000000,91.000000,,,,0.000000,4.000000,4.000000,4.000000,4.000000,4.000000,4.000000,4.000000,4.000000,4.000000,4.000000,4.000000,4.000000,4.000000,4.000000,100.000000,,,,,,,,,,,,,,,,
1644852865.215250,108.000000,0.000000,4201.538574,4145.384766,4219.743652,4191.666504,4195.769043,4212.692383,4211.282227,4222.820313,4243.461426,4227.692383,4198.589844,4204.871582,4217.563965,4208.589844,0.000000,4.000000,91.000000,,,,0.000000,4.000000,4.000000,4.000000,4.000000,4.000000,4.000000,4.000000,4.000000,4.000000,4.000000,4.000000,4.000000,4.000000,4.000000,100.000000,,,,,,,,,,,,,,,,
1644852865.219190,109.000000,0.000000,4206.794922,4143.205078,4216.153809,4198.717773,4193.077148,4215.384766,4207.436035,4221.153809,4241.666504,4223.846191,4192.948730,4199.871582,4222.563965,4204.615234,0.000000,4.000000,91.000000,,,,0.000000,4.000000,4.000000,4.000000,4.000000,4.000000,4.000000,4.000000,4.000000,4.000000,4.000000,4.000000,4.000000,4.000000,4.000000,100.000000,,,,,,,,,,,,,,,,
1644852865.223131,110.000000,0.000000,4209.358887,4143.846191,4213.974121,4199.615234,4193.974121,4220.384766,4207.692383,4224.102539,4245.512695,4228.974121,4196.922852,4196.922852,4229.487305,4203.846191,0.000000,4.000000,91.000000,,,,0.000000,4.000000,4.000000,4.000000,4.000000,4.000000,4.000000,4.000000,4.000000,4.000000,4.000000,4.000000,4.000000,4.000000,4.000000,100.000000,,,,,,,,,,,,,,,,
1644852865.227071,111.000000,0.000000,4210.512695,4149.102539,4215.128418,4194.615234,4199.871582,4224.615234,4213.333496,4231.282227,4253.846191,4240.384766,4209.743652,4199.230957,4235.000000,4208.846191,0.000000,4.000000,91.000000,,,,0.000000,4.000000,4.000000,4.000000,4.000000,4.000000,4.000000,4.000000,4.000000,4.000000,4.000000,4.000000,4.000000,4.000000,4.000000,100.000000,,,,,,,,,,,,,,,,
1644852865.231011,112.000000,0.000000,4212.563965,4157.179688,4219.871582,4185.384766,4209.615234,4226.025879,4220.769043,4239.487305,4263.717773,4252.563965,4224.487305,4208.461426,4237.948730,4218.205078,0.000000,4.000000,91.000000,,,,0.000000,4.000000,4.000000,4.000000,4.000000,4.000000,4.000000,4.000000,4.000000,4.000000,4.000000,4.000000,4.000000,4.000000,4.000000,100.000000,,,,,,,,,,,,,,,,
1644852865.234951,113.000000,0.000000,4215.128418,4164.487305,4225.897461,4174.743652,4217.051270,4224.871582,4224.358887,4245.128418,4271.410156,4260.897461,4233.717773,4221.922852,4238.846191,4225.897461,0.000000,4.000000,91.000000,,,,0.000000,4.000000,4.000000,4.000000,4.000000,4.000000,4.000000,4.000000,4.000000,4.000000,4.000000,4.000000,4.000000,4.000000,4.000000,100.000000,,,,,,,,,,,,,,,,
1644852865.238891,114.000000,0.000000,4215.897461,4167.692383,4230.256348,4166.410156,4216.153809,4223.205078,4222.948730,4245.897461,4274.230957,4263.846191,4234.358887,4233.717773,4239.487305,4227.436035,0.000000,4.000000,91.000000,,,,0.000000,4.000000,4.000000,4.000000,4.000000,4.000000,4.000000,4.000000,4.000000,4.000000,4.000000,4.000000,4.000000,4.000000,4.000000,100.000000,,,,,,,,,,,,,,,,
1644852865.242831,115.000000,0.000000,4213.205078,4166.153809,4231.025879,4163.717773,4206.025879,4222.563965,4219.358887,4243.077148,4272.179688,4263.717773,4229.871582,4237.563965,4241.025879,4223.461426,0.000000,4.000000,91.000000,,,,0.000000,4.000000,4.000000,4.000000,4.000000,4.000000,4.000000,4.000000,4.000000,4.000000,4.000000,4.000000,4.000000,4.000000,4.000000,100.000000,,,,,,,,,,,,,,,,
1644852865.246771,116.000000,0.000000,4208.333496,4162.436035,4228.205078,4168.205078,4193.717773,4223.461426,4217.307617,4239.102539,4268.333496,4264.102539,4226.025879,4231.153809,4243.333496,4219.743652,0.000000,4.000000,91.000000,,,,0.000000,4.000000,4.000000,4.000000,4.000000,4.000000,4.000000,4.000000,4.000000,4.000000,4.000000,4.000000,4.000000,4.000000,4.000000,100.000000,,,,,,,,,,,,,,,,
1644852865.250711,117.000000,0.000000,4204.743652,4159.615234,4223.717773,4179.230957,4188.717773,4224.871582,4216.666504,4236.282227,4265.897461,4266.922852,4226.282227,4217.820313,4245.256348,4221.666504,0.000000,4.000000,91.000000,,,,0.000000,4.000000,4.000000,4.000000,4.000000,4.000000,4.000000,4.000000,4.000000,4.000000,4.000000,4.000000,4.000000,4.000000,4.000000,100.000000,,,,,,,,,,,,,,,,
1644852865.254651,118.000000,0.000000,4204.871582,4158.846191,4219.615234,4193.077148,4196.153809,4225.000000,4215.641113,4235.641113,4266.410156,4270.641113,4229.102539,4204.743652,4244.615234,4229.358887,0.000000,4.000000,91.000000,,,,0.000000,4.000000,4.000000,4.000000,4.000000,4.000000,4.000000,4.000000,4.000000,4.000000,4.000000,4.000000,4.000000,4.000000,4.000000,100.000000,,,,,,,,,,,,,,,,
1644852865.258591,119.000000,0.000000,4208.333496,4159.871582,4218.461426,4204.102539,4210.769043,4222.820313,4214.230957,4237.179688,4268.333496,4272.820313,4231.025879,4198.461426,4240.641113,4237.179688,0.000000,4.000000,91.000000,,,,0.000000,4.000000,4.000000,4.000000,4.000000,4.000000,4.000000,4.000000,4.000000,4.000000,4.000000,4.000000,4.000000,4.000000,4.000000,100.000000,,,,,,,,,,,,,,,,
1644852865.262532,120.000000,0.000000,4213.461426,4161.153809,4220.512695,4207.179688,4221.282227,4219.102539,4214.230957,4239.743652,4268.846191,4271.153809,4230.512695,4200.897461,4234.230957,4238.717773,0.000000,4.000000,91.000000,,,,0.000000,4.000000,4.000000,4.000000,4.000000,4.000000,4.000000,4.000000,4.000000,4.000000,4.000000,4.000000,4.000000,4.000000,4.000000,100.000000,,,,,,,,,,,,,,,,
1644852865.266472,121.000000,0.000000,4218.077148,4162.179688,4223.974121,4200.512695,4219.230957,4216.153809,4216.282227,4241.282227,4266.410156,4265.512695,4228.717773,4209.615234,4228.077148,4232.820313,0.000000,4.000000,91.000000,,,,0.000000,4.000000,4.000000,4.000000,4.000000,4.000000,4.000000,4.000000,4.000000,4.000000,4.000000,4.000000,4.000000,4.000000,4.000000,100.000000,,,,,,,,,,,,,,,,
1644852865.270412,122.000000,0.000000,4219.487305,4163.077148,4225.769043,4188.461426,4206.794922,4215.384766,4217.692383,4239.358887,4261.538574,4257.307617,4226.153809,4218.846191,4225.641113,4223.717773,0.000000,4.000000,91.000000,,,,0.000000,4.000000,4.000000,4.000000,4.000000,4.000000,4.000000,4.000000,4.000000,4.000000,4.000000,4.000000,4.000000,4.000000,4.000000,100.000000,,,,,,,,,,,,,,,,
1644852865.274352,123.000000,0.000000,4216.153809,4163.461426,4224.230957,4178.717773,4194.615234,4216.922852,4216.153809,4233.974121,4256.794922,4249.615234,4221.794922,4222.948730,4228.589844,4217.179688,0.000000,4.000000,91.000000,,,,0.000000,4.000000,4.000000,4.000000,4.000000,4.000000,4.000000,4.000000,4.000000,4.000000,4.000000,4.000000,4.000000,4.000000,4.000000,100.000000,,,,,,,,,,,,,,,,
1644852865.278292,124.000000,0.000000,4208.589844,4162.948730,4220.128418,4178.846191,4191.153809,4219.102539,4212.051270,4227.948730,4254.230957,4245.256348,4214.358887,4219.871582,4235.641113,4215.000000,0.000000,4.000000,91.000000,,,,0.000000,4.000000,4.000000,4.000000,4.000000,4.000000,4.000000,4.000000,4.000000,4.000000,4.000000,4.000000,4.000000,4.000000,4.000000,100.000000,,,,,,,,,,,,,,,,
1644852865.282232,125.000000,0.000000,4200.256348,4161.538574,4216.025879,4189.102539,4195.897461,4220.128418,4209.358887,4225.256348,4254.615234,4245.000000,4205.384766,4211.538574,4242.820313,4215.641113,0.000000,4.000000,91.000000,,,,0.000000,4.000000,4.000000,4.000000,4.000000,4.000000,4.000000,4.000000,4.000000,4.000000,4.000000,4.000000,4.000000,4.000000,4.000000,100.000000,,,,,,,,,,,,,,,,
1644852865.286172,126.000000,0.000000,4195.769043,4159.743652,4214.743652,4202.563965,4200.897461,4218.717773,4210.256348,4226.794922,4256.538574,4247.051270,4198.846191,4202.692383,4246.025879,4216.922852,0.000000,4.000000,91.000000,,,,0.000000,4.000000,4.000000,4.000000,4.000000,4.000000,4.000000,4.000000,4.000000,4.000000,4.000000,4.000000,4.000000,4.000000,4.000000,100.000000,,,,,,,,,,,,,,,,
1644852865.290012,127.000000,0.000000,4196.282227,4158.589844,4215.897461,4209.230957,4199.230957,4215.256348,4212.948730,4230.256348,4258.205078,4248.333496,4199.102539,4197.436035,4243.846191,4217.436035,0.000000,4.000000,91.000000,,,,0.000000,4.000000,4.000000,4.000000,4.000000,4.000000,4.000000,4.000000,4.000000,4.000000,4.000000,4.000000,4.000000,4.000000,4.000000,100.000000,,,,,,,,,,,,,,,,
1644852865.293953,128.000000,0.000000,4199.358887,4157.692383,4216.410156,4202.692383,4191.025879,4210.897461,4213.205078,4231.538574,4257.820313,4247.051270,4207.179688,4196.410156,4238.077148,4217.179688,3421.000000,4.000000,91.000000,,,,0.000000,4.000000,4.000000,4.000000,4.000000,4.000000,4.000000,4.000000,4.000000,4.000000,4.000000,4.000000,4.000000,4.000000,4.000000,100.000000,,,,,,,,,,,,,,,,
1644852865.297893,129.000000,0.000000,4200.512695,4156.282227,4214.102539,4185.384766,4182.563965,4206.922852,4210.000000,4228.717773,4255.128418,4243.846191,4218.589844,4197.948730,4230.641113,4216.153809,3319.000000,4.000000,91.000000,,,,0.000000,4.000000,4.000000,4.000000,4.000000,4.000000,4.000000,4.000000,4.000000,4.000000,4.000000,4.000000,4.000000,4.000000,4.000000,100.000000,,,,,,,,,,,,,,,,
1644852865.301833,130.000000,0.000000,4198.589844,4155.000000,4210.512695,4167.948730,4181.153809,4204.487305,4206.410156,4223.717773,4250.769043,4240.641113,4226.410156,4199.487305,4223.846191,4213.717773,3535.000000,4.000000,91.000000,,,,0.000000,4.000000,4.000000,4.000000,4.000000,4.000000,4.000000,4.000000,4.000000,4.000000,4.000000,4.000000,4.000000,4.000000,4.000000,100.000000,,,,,,,,,,,,,,,,
1644852865.305773,131.000000,0.000000,4196.794922,4155.897461,4210.512695,4162.563965,4189.487305,4204.871582,4206.410156,4220.384766,4247.051270,4240.256348,4227.051270,4200.128418,4219.487305,4210.384766,3525.000000,4.000000,91.000000,,,,0.000000,4.000000,4.000000,4.000000,4.000000,4.000000,4.000000,4.000000,4.000000,4.000000,4.000000,4.000000,4.000000,4.000000,4.000000,100.000000,,,,,,,,,,,,,,,,
1644852865.309713,132.000000,0.000000,4199.871582,4161.282227,4217.051270,4174.358887,4203.974121,4208.333496,4209.871582,4221.538574,4246.410156,4244.871582,4223.846191,4201.153809,4219.487305,4209.230957,3369.000000,4.000000,91.000000,,,,0.000000,4.000000,4.000000,4.000000,4.000000,4.000000,4.000000,4.000000,4.000000,4.000000,4.000000,4.000000,4.000000,4.000000,4.000000,100.000000,,,,,,,,,,,,,,,,
1644852865.313653,133.000000,0.000000,4208.077148,4170.641113,4228.077148,4195.256348,4217.692383,4213.717773,4213.589844,4225.897461,4249.743652,4253.589844,4223.589844,4203.461426,4224.871582,4213.589844,3319.000000,4.000000,91.000000,,,,0.000000,4.000000,4.000000,4.000000,4.000000,4.000000,4.000000,4.000000,4.000000,4.000000,4.000000,4.000000,4.000000,4.000000,4.000000,100.000000,,,,,,,,,,,,,,,,
1644852865.317593,134.000000,0.000000,4217.307617,4179.871582,4237.179688,4210.641113,4224.871582,4218.077148,4214.487305,4230.384766,4254.871582,4262.948730,4229.871582,4206.153809,4234.230957,4224.230957,2551.000000,4.000000,91.000000,,,,0.000000,4.000000,4.000000,4.000000,4.000000,4.000000,4.000000,4.000000,4.000000,4.000000,4.000000,4.000000,4.000000,4.000000,4.000000,100.000000,,,,,,,,,,,,,,,,
1644852865.321533,135.000000,0.000000,4222.307617,4183.974121,4238.846191,4211.282227,4223.589844,4218.589844,4212.820313,4232.307617,4258.846191,4267.692383,4238.717773,4207.051270,4243.589844,4236.410156,2792.000000,4.000000,91.000000,,,,0.000000,4.000000,4.000000,4.000000,4.000000,4.000000,4.000000,4.000000,4.000000,4.000000,4.000000,4.000000,4.000000,4.000000,4.000000,100.000000,,,,,,,,,,,,,,,,
1644852865.325473,136.000000,0.000000,4220.769043,4181.153809,4232.692383,4200.769043,4215.897461,4215.256348,4210.256348,4230.641113,4259.230957,4264.615234,4240.641113,4206.153809,4248.717773,4242.948730,3292.000000,4.000000,91.000000,,,,0.000000,4.000000,4.000000,4.000000,4.000000,4.000000,4.000000,4.000000,4.000000,4.000000,4.000000,4.000000,4.000000,4.000000,4.000000,100.000000,,,,,,,,,,,,,,,,
1644852865.329413,137.000000,0.000000,4215.384766,4174.230957,4223.717773,4190.384766,4205.512695,4210.512695,4207.820313,4226.538574,4256.282227,4254.743652,4230.512695,4205.384766,4247.307617,4239.358887,3535.000000,4.000000,91.000000,,,,0.000000,4.000000,4.000000,4.000000,4.000000,4.000000,4.000000,4.000000,4.000000,4.000000,4.000000,4.000000,4.000000,4.000000,4.000000,100.000000,,,,,,,,,,,,,,,,
1644852865.333354,138.000000,0.000000,4210.512695,4168.974121,4218.333496,4188.205078,4196.282227,4207.307617,4205.128418,4222.820313,4252.307617,4244.487305,4212.692383,4207.563965,4241.025879,4227.563965,3560.000000,4.000000,91.000000,,,,0.000000,4.000000,4.000000,4.000000,4.000000,4.000000,4.000000,4.000000,4.000000,4.000000,4.000000,4.000000,4.000000,4.000000,4.000000,100.000000,,,,,,,,,,,,,,,,
1644852865.337294,139.000000,0.000000,4210.000000,4168.846191,4220.128418,4193.077148,4190.128418,4206.410156,4202.436035,4221.666504,4250.000000,4239.615234,4198.461426,4212.820313,4233.333496,4214.871582,3252.000000,4.000000,91.000000,,,,0.000000,4.000000,4.000000,4.000000,4.000000,4.000000,4.000000,4.000000,4.000000,4.000000,4.000000,4.000000,4.000000,4.000000,4.000000,100.000000,,,,,,,,,,,,,,,,
1644852865.341234,140.000000,0.000000,4213.846191,4172.179688,4226.794922,4197.692383,4187.820313,4206.794922,4201.410156,4222.948730,4249.358887,4241.538574,4196.666504,4217.563965,4227.436035,4208.974121,3453.000000,4.000000,91.000000,,,,0.000000,4.000000,4.000000,4.000000,4.000000,4.000000,4.000000,4.000000,4.000000,4.000000,4.000000,4.000000,4.000000,4.000000,4.000000,100.000000,,,,,,,,,,,,,,,,
1644852865.345174,141.000000,0.000000,4218.974121,4174.615234,4232.948730,4196.794922,4189.102539,4206.538574,4203.333496,4224.358887,4248.589844,4247.307617,4206.922852,4217.692383,4225.000000,4212.692383,3322.000000,4.000000,91.000000,,,,0.000000,4.000000,4.000000,4.000000,4.000000,4.000000,4.000000,4.000000,4.000000,4.000000,4.000000,4.000000,4.000000,4.000000,4.000000,100.000000,,,,,,,,,,,,,,,,
1644852865.349114,142.000000,0.000000,4222.436035,4173.846191,4233.974121,4192.307617,4193.461426,4205.128418,4206.666504,4223.589844,4246.794922,4252.948730,4220.897461,4211.922852,4226.282227,4222.820313,3560.000000,4.000000,91.000000,,,,0.000000,4.000000,4.000000,4.000000,4.000000,4.000000,4.000000,4.000000,4.000000,4.000000,4.000000,4.000000,4.000000,4.000000,4.000000,100.000000,,,,,,,,,,,,,,,,
1644852865.353054,143.000000,0.000000,4224.230957,4172.051270,4230.384766,4189.743652,4199.871582,4203.461426,4208.461426,4220.384766,4244.358887,4255.512695,4229.102539,4203.974121,4230.641113,4232.820313,3252.000000,4.000000,91.000000,,,,0.000000,4.000000,4.000000,4.000000,4.000000,4.000000,4.000000,4.000000,4.000000,4.000000,4.000000,4.000000,4.000000,4.000000,4.000000,100.000000,,,,,,,,,,,,,,,,
1644852865.356994,144.000000,0.000000,4225.256348,4172.692383,4226.282227,4192.051270,4205.000000,4202.179688,4207.179688,4216.025879,4242.307617,4254.102539,4227.563965,4199.230957,4235.384766,4237.563965,3453.000000,4.000000,91.000000,,,,0.000000,4.000000,4.000000,4.000000,4.000000,4.000000,4.000000,4.000000,4.000000,4.000000,4.000000,4.000000,4.000000,4.000000,4.000000,100.000000,,,,,,,,,,,,,,,,
1644852865.360934,145.000000,0.000000,4225.256348,4176.025879,4225.384766,4195.897461,4205.897461,4201.153809,4203.974121,4212.948730,4240.769043,4248.461426,4218.461426,4199.743652,4236.794922,4236.282227,3322.000000,4.000000,91.000000,,,,0.000000,4.000000,4.000000,4.000000,4.000000,4.000000,4.000000,4.000000,4.000000,4.000000,4.000000,4.000000,4.000000,4.000000,4.000000,100.000000,,,,,,,,,,,,,,,,
1644852865.364974,146.000000,0.000000,4222.179688,4179.358887,4227.948730,4196.410156,4202.692383,4200.000000,4202.051270,4212.692383,4238.974121,4240.641113,4208.077148,4203.077148,4232.820313,4231.666504,3560.000000,4.000000,91.000000,,,,0.000000,4.000000,4.000000,4.000000,4.000000,4.000000,4.000000,4.000000,4.000000,4.000000,4.000000,4.000000,4.000000,4.000000,4.000000,100.000000,,,,,,,,,,,,,,,,
1644852865.368914,147.000000,0.000000,4215.769043,4180.256348,4231.410156,4192.307617,4199.230957,4199.102539,4202.820313,4214.743652,4237.051270,4234.358887,4202.436035,4205.512695,4225.128418,4226.922852,3252.000000,4.000000,91.000000,,,,0.000000,4.000000,4.000000,4.000000,4.000000,4.000000,4.000000,4.000000,4.000000,4.000000,4.000000,4.000000,4.000000,4.000000,4.000000,100.000000,,,,,,,,,,,,,,,,
1644852865.372855,148.000000,0.000000,4208.974121,4178.974121,4233.333496,4187.563965,4199.871582,4200.128418,4205.641113,4218.077148,4236.666504,4233.077148,4204.615234,4205.256348,4218.589844,4223.077148,3453.000000,4.000000,91.000000,,,,0.000000,4.000000,4.000000,4.000000,4.000000,4.000000,4.000000,4.000000,4.000000,4.000000,4.000000,4.000000,4.000000,4.000000,4.000000,100.000000,,,,,,,,,,,,,,,,
1644852865.376795,149.000000,0.000000,4206.410156,4177.051270,4233.846191,4186.025879,4204.102539,4204.358887,4208.974121,4221.410156,4238.589844,4235.641113,4211.410156,4204.102539,4216.794922,4219.487305,3322.000000,4.000000,91.000000,,,,0.000000,4.000000,4.000000,4.000000,4.000000,4.000000,4.000000,4.000000,4.000000,4.000000,4.000000,4.000000,4.000000,4.000000,4.000000,100.000000,,,,,,,,,,,,,,,,
1644852865.380735,150.000000,0.000000,4208.205078,4175.641113,4234.102539,4187.051270,4207.307617,4210.897461,4212.436035,4224.102539,4241.922852,4237.948730,4215.641113,4203.974121,4219.487305,4214.743652,3560.000000,4.000000,91.000000,,,,0.000000,4.000000,4.000000,4.000000,4.000000,4.000000,4.000000,4.000000,4.000000,4.000000,4.000000,4.000000,4.000000,4.000000,4.000000,100.000000,,,,,,,,,,,,,,,,
1644852865.384675,151.000000,0.000000,4209.743652,4174.487305,4234.358887,4186.666504,4204.487305,4216.794922,4216.025879,4225.512695,4244.358887,4237.179688,4212.179688,4205.256348,4222.563965,4208.846191,3252.000000,4.000000,91.000000,,,,0.000000,4.000000,4.000000,4.000000,4.000000,4.000000,4.000000,4.000000,4.000000,4.000000,4.000000,4.000000,4.000000,4.000000,4.000000,100.000000,,,,,,,,,,,,,,,,
1644852865.388515,152.000000,0.000000,4206.025879,4173.205078,4233.461426,4182.051270,4196.410156,4219.743652,4218.589844,4225.512695,4244.615234,4235.128418,4203.077148,4205.897461,4222.692383,4203.077148,3453.000000,4.000000,91.000000,,,,0.000000,4.000000,4.000000,4.000000,4.000000,4.000000,4.000000,4.000000,4.000000,4.000000,4.000000,4.000000,4.000000,4.000000,4.000000,100.000000,,,,,,,,,,,,,,,,
1644852865.392455,153.000000,0.000000,4198.077148,4172.820313,4230.384766,4174.230957,4190.256348,4219.358887,4218.333496,4224.743652,4243.205078,4235.897461,4196.282227,4203.846191,4220.000000,4201.282227,3322.000000,4.000000,91.000000,1,1,3,0.000000,4.000000,4.000000,4.000000,4.000000,4.000000,4.000000,4.000000,4.000000,4.000000,4.000000,4.000000,4.000000,4.000000,4.000000,100.000000,,,,,,,,,,,,,,,,
1644852865.396395,154.000000,0.000000,4192.436035,4175.128418,4226.538574,4168.717773,4192.948730,4217.948730,4215.769043,4224.743652,4242.051270,4241.282227,4197.307617,4199.615234,4217.307617,4205.897461,3560.000000,4.000000,91.000000,,,,0.000000,4.000000,4.000000,4.000000,4.000000,4.000000,4.000000,4.000000,4.000000,4.000000,4.000000,4.000000,4.000000,4.000000,4.000000,100.000000,,,,,,,,,,,,,,,,
1644852865.400335,155.000000,0.000000,4195.897461,4180.512695,4224.871582,4170.256348,4205.256348,4218.077148,4214.102539,4226.794922,4243.205078,4248.717773,4204.615234,4195.641113,4218.589844,4216.666504,3252.000000,4.000000,91.000000,,,,0.000000,4.000000,4.000000,4.000000,4.000000,4.000000,4.000000,4.000000,4.000000,4.000000,4.000000,4.000000,4.000000,4.000000,4.000000,100.000000,,,,,,,,,,,,,,,,
1644852865.404275,156.000000,0.000000,4208.589844,4186.922852,4227.820313,4178.846191,4220.769043,4221.025879,4216.153809,4231.153809,4247.051270,4254.358887,4211.153809,4195.128418,4224.615234,4228.589844,3453.000000,4.000000,91.000000,,,,0.000000,4.000000,4.000000,4.000000,4.000000,4.000000,4.000000,4.000000,4.000000,4.000000,4.000000,4.000000,4.000000,4.000000,4.000000,100.000000,,,,,,,,,,,,,,,,
1644852865.408216,157.000000,0.000000,4222.692383,4190.641113,4233.589844,4188.974121,4230.384766,4225.128418,4220.769043,4235.641113,4252.051270,4256.153809,4211.538574,4198.461426,4233.205078,4235.641113,3322.000000,4.000000,91.000000,,,,0.000000,4.000000,4.000000,4.000000,4.000000,4.000000,4.000000,4.000000,4.000000,4.000000,4.000000,4.000000,4.000000,4.000000,4.000000,100.000000,,,,,,,,,,,,,,,,
1644852865.412156,158.000000,0.000000,4229.102539,4188.205078,4237.692383,4193.461426,4229.871582,4227.179688,4223.333496,4237.563965,4255.769043,4255.641113,4206.794922,4202.692383,4239.102539,4233.333496,3560.000000,4.000000,91.000000,,,,0.000000,4.000000,4.000000,4.000000,4.000000,4.000000,4.000000,4.000000,4.000000,4.000000,4.000000,4.000000,4.000000,4.000000,4.000000,100.000000,,,,,,,,,,,,,,,,
1644852865.416096,159.000000,0.000000,4223.717773,4179.871582,4236.282227,4189.871582,4222.307617,4224.871582,4221.025879,4235.641113,4256.025879,4254.615234,4202.436035,4203.717773,4237.820313,4223.205078,3252.000000,4.000000,91.000000,,,,0.000000,4.000000,4.000000,4.000000,4.000000,4.000000,4.000000,4.000000,4.000000,4.000000,4.000000,4.000000,4.000000,4.000000,4.000000,100.000000,,,,,,,,,,,,,,,,
1644852865.420036,160.000000,0.000000,4210.897461,4169.487305,4230.256348,4181.794922,4215.000000,4218.974121,4215.897461,4231.282227,4253.077148,4253.333496,4204.487305,4200.897461,4228.717773,4210.641113,3453.000000,4.000000,91.000000,,,,0.000000,4.000000,4.000000,4.000000,4.000000,4.000000,4.000000,4.000000,4.000000,4.000000,4.000000,4.000000,4.000000,4.000000,4.000000,100.000000,,,,,,,,,,,,,,,,
1644852865.423976,161.000000,0.000000,4199.102539,4161.666504,4223.974121,4175.897461,4212.692383,4213.589844,4212.820313,4227.563965,4248.717773,4250.384766,4213.717773,4196.666504,4216.282227,4201.666504,3322.000000,4.000000,91.000000,,,,0.000000,4.000000,4.000000,4.000000,4.000000,4.000000,4.000000,4.000000,4.000000,4.000000,4.000000,4.000000,4.000000,4.000000,4.000000,100.000000,,,,,,,,,,,,,,,,
1644852865.427816,162.000000,0.000000,4194.743652,4158.974121,4222.051270,4175.641113,4214.358887,4212.051270,4213.589844,4226.794922,4245.384766,4245.128418,4225.128418,4195.128418,4207.307617,4198.717773,3560.000000,4.000000,91.000000,,,,0.000000,4.000000,4.000000,4.000000,4.000000,4.000000,4.000000,4.000000,4.000000,4.000000,4.000000,4.000000,4.000000,4.000000,4.000000,100.000000,,,,,,,,,,,,,,,,
1644852865.431756,163.000000,0.000000,4197.436035,4160.384766,4224.871582,4179.871582,4214.102539,4214.230957,4215.384766,4228.077148,4244.743652,4239.743652,4230.128418,4198.077148,4206.922852,4200.128418,3252.000000,4.000000,91.000000,,,,0.000000,4.000000,4.000000,4.000000,4.000000,4.000000,4.000000,4.000000,4.000000,4.000000,4.000000,4.000000,4.000000,4.000000,4.000000,100.000000,,,,,,,,,,,,,,,,
1644852865.435696,164.000000,0.000000,4201.538574,4163.077148,4229.615234,4184.743652,4207.820313,4217.051270,4215.256348,4228.846191,4246.282227,4237.179688,4223.846191,4203.333496,4214.102539,4201.794922,3453.000000,4.000000,91.000000,,,,0.000000,4.000000,4.000000,4.000000,4.000000,4.000000,4.000000,4.000000,4.000000,4.000000,4.000000,4.000000,4.000000,4.000000,4.000000,100.000000,,,,,,,,,,,,,,,,
1644852865.439637,165.000000,0.000000,4200.256348,4165.000000,4233.205078,4186.794922,4197.563965,4217.820313,4213.717773,4228.333496,4248.717773,4239.871582,4209.102539,4206.538574,4223.461426,4202.179688,3322.000000,4.000000,91.000000,,,,0.000000,4.000000,4.000000,4.000000,4.000000,4.000000,4.000000,4.000000,4.000000,4.000000,4.000000,4.000000,4.000000,4.000000,4.000000,100.000000,,,,,,,,,,,,,,,,
1644852865.443577,166.000000,0.000000,4193.205078,4166.794922,4234.871582,4185.641113,4190.897461,4216.153809,4214.102539,4227.820313,4251.153809,4246.922852,4195.769043,4205.512695,4228.846191,4201.666504,3560.000000,4.000000,91.000000,,,,0.000000,4.000000,4.000000,4.000000,4.000000,4.000000,4.000000,4.000000,4.000000,4.000000,4.000000,4.000000,4.000000,4.000000,4.000000,100.000000,,,,,,,,,,,,,,,,
1644852865.447517,167.000000,0.000000,4186.666504,4170.256348,4235.769043,4182.948730,4194.358887,4214.230957,4217.179688,4228.846191,4253.205078,4255.384766,4193.461426,4201.666504,4228.205078,4200.641113,3252.000000,4.000000,91.000000,,,,0.000000,4.000000,4.000000,4.000000,4.000000,4.000000,4.000000,4.000000,4.000000,4.000000,4.000000,4.000000,4.000000,4.000000,4.000000,100.000000,,,,,,,,,,,,,,,,
1644852865.451457,168.000000,0.000000,4187.436035,4175.641113,4237.179688,4180.000000,4207.179688,4214.102539,4220.512695,4231.153809,4254.358887,4262.051270,4203.974121,4198.717773,4223.333496,4198.205078,3453.000000,4.000000,91.000000,,,,0.000000,4.000000,4.000000,4.000000,4.000000,4.000000,4.000000,4.000000,4.000000,4.000000,4.000000,4.000000,4.000000,4.000000,4.000000,100.000000,,,,,,,,,,,,,,,,
1644852865.455397,169.000000,0.000000,4195.897461,4179.871582,4238.974121,4177.179688,4220.512695,4216.153809,4220.384766,4232.307617,4253.846191,4264.102539,4218.461426,4198.974121,4218.333496,4193.333496,3322.000000,4.000000,91.000000,,,,0.000000,4.000000,4.000000,4.000000,4.000000,4.000000,4.000000,4.000000,4.000000,4.000000,4.000000,4.000000,4.000000,4.000000,4.000000,100.000000,,,,,,,,,,,,,,,,
1644852865.459337,170.000000,0.000000,4206.153809,4179.615234,4239.230957,4174.615234,4225.512695,4218.717773,4216.922852,4230.000000,4250.000000,4259.230957,4223.846191,4201.666504,4216.282227,4187.051270,3560.000000,4.000000,91.000000,,,,0.000000,4.000000,4.000000,4.000000,4.000000,4.000000,4.000000,4.000000,4.000000,4.000000,4.000000,4.000000,4.000000,4.000000,4.000000,100.000000,,,,,,,,,,,,,,,,
1644852865.463277,171.000000,0.000000,4211.153809,4174.102539,4237.179688,4172.820313,4221.538574,4219.230957,4213.205078,4224.743652,4242.948730,4248.205078,4214.871582,4203.205078,4217.948730,4183.077148,3252.000000,4.000000,91.000000,,,,0.000000,4.000000,4.000000,4.000000,4.000000,4.000000,4.000000,4.000000,4.000000,4.000000,4.000000,4.000000,4.000000,4.000000,4.000000,100.000000,,,,,,,,,,,,,,,,
1644852865.467217,172.000000,0.000000,4208.974121,4166.666504,4233.461426,4172.692383,4215.128418,4217.051270,4211.922852,4219.358887,4235.256348,4235.384766,4198.461426,4200.897461,4221.922852,4184.871582,3453.000000,4.000000,91.000000,,,,0.000000,4.000000,4.000000,4.000000,4.000000,4.000000,4.000000,4.000000,4.000000,4.000000,4.000000,4.000000,4.000000,4.000000,4.000000,100.000000,,,,,,,,,,,,,,,,
1644852865.471157,173.000000,0.000000,4203.846191,4161.410156,4230.128418,4173.461426,4212.820313,4213.717773,4212.307617,4216.922852,4230.512695,4226.794922,4188.333496,4195.897461,4225.256348,4192.820313,3322.000000,4.000000,91.000000,,,,0.000000,4.000000,4.000000,4.000000,4.000000,4.000000,4.000000,4.000000,4.000000,4.000000,4.000000,4.000000,4.000000,4.000000,4.000000,100.000000,,,,,,,,,,,,,,,,
1644852865.475097,174.000000,0.000000,4200.256348,4160.128418,4228.333496,4174.102539,4213.333496,4211.025879,4211.922852,4217.436035,4230.641113,4226.153809,4192.436035,4191.666504,4225.384766,4202.051270,3560.000000,4.000000,91.000000,,,,0.000000,4.000000,4.000000,4.000000,4.000000,4.000000,4.000000,4.000000,4.000000,4.000000,4.000000,4.000000,4.000000,4.000000,4.000000,100.000000,,,,,,,,,,,,,,,,
1644852865.479038,175.000000,0.000000,4199.487305,4161.282227,4228.333496,4173.974121,4210.128418,4209.615234,4210.128418,4218.846191,4234.358887,4230.897461,4205.897461,4191.153809,4220.641113,4204.487305,3252.000000,4.000000,91.000000,,,,0.000000,4.000000,4.000000,4.000000,4.000000,4.000000,4.000000,4.000000,4.000000,4.000000,4.000000,4.000000,4.000000,4.000000,4.000000,100.000000,,,,,,,,,,,,,,,,
1644852865.482978,176.000000,0.000000,4199.358887,4162.307617,4230.000000,4173.717773,4199.743652,4208.974121,4209.102539,4219.743652,4237.948730,4235.512695,4216.282227,4195.000000,4212.563965,4196.153809,3453.000000,4.000000,91.000000,,,,0.000000,4.000000,4.000000,4.000000,4.000000,4.000000,4.000000,4.000000,4.000000,4.000000,4.000000,4.000000,4.000000,4.000000,4.000000,100.000000,,,,,,,,,,,,,,,,
1644852865.486918,177.000000,0.000000,4197.563965,4162.179688,4232.692383,4173.589844,4186.666504,4208.205078,4209.871582,4220.384766,4239.358887,4236.153809,4215.384766,4201.025879,4204.871582,4181.410156,3322.000000,4.000000,91.000000,,,,0.000000,4.000000,4.000000,4.000000,4.000000,4.000000,4.000000,4.000000,4.000000,4.000000,4.000000,4.000000,4.000000,4.000000,4.000000,100.000000,,,,,,,,,,,,,,,,
1644852865.490858,178.000000,0.000000,4194.743652,4161.922852,4235.769043,4172.820313,4180.384766,4206.794922,4211.282227,4221.282227,4238.717773,4234.230957,4205.897461,4206.025879,4201.922852,4170.897461,3560.000000,4.000000,91.000000,,,,0.000000,4.000000,4.000000,4.000000,4.000000,4.000000,4.000000,4.000000,4.000000,4.000000,4.000000,4.000000,4.000000,4.000000,4.000000,100.000000,,,,,,,,,,,,,,,,
1644852865.494798,179.000000,0.000000,4193.717773,4163.461426,4238.333496,4170.512695,4186.282227,4205.128418,4211.282227,4222.436035,4238.461426,4234.230957,4196.922852,4207.948730,4206.153809,4174.358887,3252.000000,4.000000,91.000000,,,,0.000000,4.000000,4.000000,4.000000,4.000000,4.000000,4.000000,4.000000,4.000000,4.000000,4.000000,4.000000,4.000000,4.000000,4.000000,100.000000,,,,,,,,,,,,,,,,
1644852865.498638,180.000000,0.000000,4197.179688,4168.077148,4240.256348,4168.205078,4200.384766,4204.615234,4209.743652,4223.589844,4239.743652,4238.974121,4194.871582,4207.051270,4216.410156,4192.563965,3453.000000,4.000000,91.000000,,,,0.000000,4.000000,4.000000,4.000000,4.000000,4.000000,4.000000,4.000000,4.000000,4.000000,4.000000,4.000000,4.000000,4.000000,4.000000,100.000000,,,,,,,,,,,,,,,,
1644852865.502578,181.000000,0.000000,4204.615234,4175.256348,4242.179688,4169.102539,4213.589844,4206.922852,4209.230957,4224.615234,4242.179688,4246.666504,4198.974121,4206.282227,4228.846191,4215.384766,3322.000000,4.000000,91.000000,,,,0.000000,4.000000,4.000000,4.000000,4.000000,4.000000,4.000000,4.000000,4.000000,4.000000,4.000000,4.000000,4.000000,4.000000,4.000000,100.000000,,,,,,,,,,,,,,,,
1644852865.506518,182.000000,0.000000,4213.589844,4183.717773,4244.230957,4175.897461,4220.128418,4211.922852,4210.897461,4225.256348,4244.487305,4252.436035,4203.333496,4208.077148,4238.974121,4229.743652,3560.000000,4.000000,91.000000,,,,0.000000,4.000000,4.000000,4.000000,4.000000,4.000000,4.000000,4.000000,4.000000,4.000000,4.000000,4.000000,4.000000,4.000000,4.000000,100.000000,,,,,,,,,,,,,,,,
1644852865.510459,183.000000,0.000000,4220.512695,4191.794922,4246.153809,4187.692383,4221.153809,4217.051270,4212.948730,4225.512695,4246.153809,4252.563965,4204.358887,4212.820313,4243.846191,4228.846191,3252.000000,4.000000,91.000000,,,,0.000000,4.000000,4.000000,4.000000,4.000000,4.000000,4.000000,4.000000,4.000000,4.000000,4.000000,4.000000,4.000000,4.000000,4.000000,100.000000,,,,,,,,,,,,,,,,
1644852865.514499,184.000000,0.000000,4223.717773,4197.948730,4246.666504,4199.487305,4220.641113,4219.487305,4212.948730,4225.256348,4247.563965,4247.436035,4203.333496,4217.307617,4243.205078,4216.282227,3453.000000,4.000000,91.000000,,,,0.000000,4.000000,4.000000,4.000000,4.000000,4.000000,4.000000,4.000000,4.000000,4.000000,4.000000,4.000000,4.000000,4.000000,4.000000,100.000000,,,,,,,,,,,,,,,,
1644852865.518439,185.000000,0.000000,4223.333496,4199.871582,4244.487305,4205.000000,4220.512695,4217.436035,4210.512695,4224.102539,4248.333496,4241.282227,4203.205078,4217.563965,4238.333496,4201.410156,3322.000000,4.000000,91.000000,,,,0.000000,4.000000,4.000000,4.000000,4.000000,4.000000,4.000000,4.000000,4.000000,4.000000,4.000000,4.000000,4.000000,4.000000,4.000000,100.000000,,,,,,,,,,,,,,,,
1644852865.522379,186.000000,0.000000,4221.153809,4195.897461,4239.871582,4201.282227,4218.717773,4212.436035,4207.948730,4221.922852,4247.179688,4238.846191,4205.128418,4211.922852,4231.922852,4193.461426,3560.000000,4.000000,91.000000,,,,0.000000,4.000000,4.000000,4.000000,4.000000,4.000000,4.000000,4.000000,4.000000,4.000000,4.000000,4.000000,4.000000,4.000000,4.000000,100.000000,,,,,,,,,,,,,,,,
1644852865.526319,187.000000,0.000000,4219.102539,4187.436035,4235.256348,4190.641113,4212.820313,4207.563965,4207.051270,4219.871582,4243.461426,4241.666504,4207.563965,4203.333496,4226.666504,4195.512695,3252.000000,4.000000,91.000000,,,,0.000000,4.000000,4.000000,4.000000,4.000000,4.000000,4.000000,4.000000,4.000000,4.000000,4.000000,4.000000,4.000000,4.000000,4.000000,100.000000,,,,,,,,,,,,,,,,
1644852865.530259,188.000000,0.000000,4217.948730,4178.974121,4233.333496,4178.205078,4204.487305,4206.282227,4207.692383,4218.974121,4238.846191,4247.692383,4208.589844,4196.794922,4224.615234,4204.615234,3453.000000,4.000000,91.000000,2,1,3,0.000000,4.000000,4.000000,4.000000,4.000000,4.000000,4.000000,4.000000,4.000000,4.000000,4.000000,4.000000,4.000000,4.000000,4.000000,100.000000,,,,,,,,,,,,,,,,
1644852865.534199,189.000000,0.000000,4217.436035,4175.384766,4235.512695,4168.717773,4198.974121,4209.102539,4208.333496,4219.871582,4236.025879,4252.179688,4208.205078,4196.025879,4225.128418,4213.589844,3322.000000,4.000000,91.000000,,,,0.000000,4.000000,4.000000,4.000000,4.000000,4.000000,4.000000,4.000000,4.000000,4.000000,4.000000,4.000000,4.000000,4.000000,4.000000,100.000000,,,,,,,,,,,,,,,,
1644852865.538139,190.000000,0.000000,4216.025879,4177.563965,4240.512695,4164.358887,4200.128418,4213.974121,4208.717773,4221.794922,4236.410156,4251.410156,4207.051270,4200.000000,4224.871582,4214.743652,3560.000000,4.000000,91.000000,,,,0.000000,4.000000,4.000000,4.000000,4.000000,4.000000,4.000000,4.000000,4.000000,4.000000,4.000000,4.000000,4.000000,4.000000,4.000000,100.000000,,,,,,,,,,,,,,,,
1644852865.542079,191.000000,0.000000,4212.179688,4181.538574,4244.615234,4165.512695,4206.794922,4217.436035,4210.256348,4223.461426,4239.102539,4245.897461,4205.512695,4204.230957,4220.769043,4205.256348,3252.000000,4.000000,91.000000,,,,0.000000,4.000000,4.000000,4.000000,4.000000,4.000000,4.000000,4.000000,4.000000,4.000000,4.000000,4.000000,4.000000,4.000000,4.000000,100.000000,,,,,,,,,,,,,,,,
1644852865.546019,192.000000,0.000000,4205.897461,4182.051270,4245.256348,4171.666504,4213.205078,4217.820313,4213.205078,4223.974121,4241.538574,4239.487305,4203.205078,4204.358887,4212.820313,4189.358887,3453.000000,4.000000,91.000000,,,,0.000000,4.000000,4.000000,4.000000,4.000000,4.000000,4.000000,4.000000,4.000000,4.000000,4.000000,4.000000,4.000000,4.000000,4.000000,100.000000,,,,,,,,,,,,,,,,
1644852865.549959,193.000000,0.000000,4198.974121,4177.692383,4242.051270,4180.897461,4214.102539,4216.153809,4216.025879,4222.948730,4242.051270,4236.282227,4200.128418,4200.769043,4205.384766,4176.922852,3322.000000,4.000000,91.000000,,,,0.000000,4.000000,4.000000,4.000000,4.000000,4.000000,4.000000,4.000000,4.000000,4.000000,4.000000,4.000000,4.000000,4.000000,4.000000,100.000000,,,,,,,,,,,,,,,,
1644852865.553900,194.000000,0.000000,4195.384766,4172.307617,4237.948730,4188.717773,4209.615234,4214.871582,4216.538574,4221.153809,4240.641113,4237.179688,4197.563965,4197.436035,4203.974121,4176.922852,3560.000000,4.000000,91.000000,,,,0.000000,4.000000,4.000000,4.000000,4.000000,4.000000,4.000000,4.000000,4.000000,4.000000,4.000000,4.000000,4.000000,4.000000,4.000000,100.000000,,,,,,,,,,,,,,,,
1644852865.557840,195.000000,0.000000,4197.307617,4171.282227,4236.025879,4189.615234,4204.102539,4215.256348,4214.743652,4220.000000,4238.974121,4240.256348,4197.692383,4198.461426,4211.025879,4190.512695,3252.000000,4.000000,91.000000,,,,0.000000,4.000000,4.000000,4.000000,4.000000,4.000000,4.000000,4.000000,4.000000,4.000000,4.000000,4.000000,4.000000,4.000000,4.000000,100.000000,,,,,,,,,,,,,,,,
1644852865.561780,196.000000,0.000000,4203.974121,4176.282227,4237.307617,4181.794922,4202.436035,4216.282227,4213.077148,4220.512695,4238.717773,4243.077148,4202.051270,4203.589844,4222.563965,4210.384766,3453.000000,4.000000,91.000000,,,,0.000000,4.000000,4.000000,4.000000,4.000000,4.000000,4.000000,4.000000,4.000000,4.000000,4.000000,4.000000,4.000000,4.000000,4.000000,100.000000,,,,,,,,,,,,,,,,
1644852865.565720,197.000000,0.000000,4211.410156,4184.487305,4239.871582,4168.974121,4205.512695,4216.282227,4213.589844,4222.051270,4240.256348,4244.358887,4209.487305,4209.743652,4232.179688,4226.153809,3322.000000,4.000000,91.000000,,,,0.000000,4.000000,4.000000,4.000000,4.000000,4.000000,4.000000,4.000000,4.000000,4.000000,4.000000,4.000000,4.000000,4.000000,4.000000,100.000000,,,,,,,,,,,,,,,,
1644852865.569660,198.000000,0.000000,4216.153809,4190.256348,4240.512695,4157.948730,4209.871582,4215.256348,4215.769043,4223.205078,4242.692383,4245.128418,4215.769043,4212.692383,4235.256348,4230.512695,3560.000000,4.000000,91.000000,,,,0.000000,4.000000,4.000000,4.000000,4.000000,4.000000,4.000000,4.000000,4.000000,4.000000,4.000000,4.000000,4.000000,4.000000,4.000000,100.000000,,,,,,,,,,,,,,,,
1644852865.573600,199.000000,0.000000,4216.153809,4189.487305,4238.077148,4153.717773,4211.538574,4214.358887,4216.666504,4223.205078,4244.487305,4246.666504,4216.538574,4211.153809,4232.307617,4223.205078,3252.000000,4.000000,91.000000,,,,0.000000,4.000000,4.000000,4.000000,4.000000,4.000000,4.000000,4.000000,4.000000,4.000000,4.000000,4.000000,4.000000,4.000000,4.000000,100.000000,,,,,,,,,,,,,,,,
1644852865.577540,200.000000,0.000000,4211.922852,4181.153809,4234.230957,4156.666504,4208.589844,4214.615234,4215.256348,4222.307617,4244.487305,4248.717773,4209.743652,4206.794922,4226.282227,4209.230957,3453.000000,4.000000,91.000000,,,,0.000000,4.000000,4.000000,4.000000,4.000000,4.000000,4.000000,4.000000,4.000000,4.000000,4.000000,4.000000,4.000000,4.000000,4.000000,100.000000,,,,,,,,,,,,,,,,
1644852865.581380,201.000000,0.000000,4204.743652,4168.461426,4231.666504,4162.563965,4202.692383,4215.000000,4212.948730,4221.282227,4241.922852,4249.102539,4198.589844,4202.436035,4220.256348,4195.641113,3322.000000,4.000000,91.000000,,,,0.000000,4.000000,4.000000,4.000000,4.000000,4.000000,4.000000,4.000000,4.000000,4.000000,4.000000,4.000000,4.000000,4.000000,4.000000,100.000000,,,,,,,,,,,,,,,,
1644852865.585321,202.000000,0.000000,4196.794922,4156.922852,4231.153809,4166.025879,4196.794922,4213.974121,4211.666504,4220.384766,4237.820313,4245.769043,4188.589844,4199.487305,4215.384766,4187.051270,3560.000000,4.000000,91.000000,,,,0.000000,4.000000,4.000000,4.000000,4.000000,4.000000,4.000000,4.000000,4.000000,4.000000,4.000000,4.000000,4.000000,4.000000,4.000000,100.000000,,,,,,,,,,,,,,,,
1644852865.589261,203.000000,0.000000,4190.512695,4152.051270,4232.179688,4165.128418,4194.358887,4211.153809,4211.538574,4219.230957,4234.230957,4240.128418,4184.358887,4197.307617,4212.179688,4185.128418,3252.000000,4.000000,91.000000,,,,0.000000,4.000000,4.000000,4.000000,4.000000,4.000000,4.000000,4.000000,4.000000,4.000000,4.000000,4.000000,4.000000,4.000000,4.000000,100.000000,,,,,,,,,,,,,,,,
1644852865.593201,204.000000,0.000000,4189.102539,4156.922852,4234.358887,4162.307617,4197.436035,4208.461426,4211.666504,4218.461426,4233.717773,4236.153809,4186.282227,4196.282227,4211.410156,4188.846191,3453.000000,4.000000,91.000000,,,,0.000000,4.000000,4.000000,4.000000,4.000000,4.000000,4.000000,4.000000,4.000000,4.000000,4.000000,4.000000,4.000000,4.000000,4.000000,100.000000,,,,,,,,,,,,,,,,
1644852865.597141,205.000000,0.000000,4194.102539,4170.384766,4238.333496,4162.820313,4205.641113,4207.948730,4211.794922,4219.230957,4237.179688,4237.307617,4191.538574,4197.563965,4212.307617,4195.641113,3322.000000,4.000000,91.000000,,,,0.000000,4.000000,4.000000,4.000000,4.000000,4.000000,4.000000,4.000000,4.000000,4.000000,4.000000,4.000000,4.000000,4.000000,4.000000,100.000000,,,,,,,,,,,,,,,,
1644852865.601081,206.000000,0.000000,4204.102539,4186.794922,4244.487305,4170.128418,4215.384766,4210.256348,4213.077148,4222.307617,4242.051270,4242.051270,4196.153809,4201.153809,4212.563965,4202.436035,3560.000000,4.000000,91.000000,,,,0.000000,4.000000,4.000000,4.000000,4.000000,4.000000,4.000000,4.000000,4.000000,4.000000,4.000000,4.000000,4.000000,4.000000,4.000000,100.000000,,,,,,,,,,,,,,,,
1644852865.605021,207.000000,0.000000,4214.487305,4199.102539,4251.025879,4182.563965,4220.641113,4214.102539,4215.512695,4225.897461,4244.102539,4245.256348,4197.436035,4204.871582,4208.205078,4206.538574,3252.000000,4.000000,91.000000,,,,0.000000,4.000000,4.000000,4.000000,4.000000,4.000000,4.000000,4.000000,4.000000,4.000000,4.000000,4.000000,4.000000,4.000000,4.000000,100.000000,,,,,,,,,,,,,,,,
1644852865.608961,208.000000,0.000000,4219.871582,4203.205078,4254.230957,4193.846191,4217.307617,4217.179688,4217.051270,4226.538574,4240.384766,4241.666504,4193.846191,4204.743652,4197.307617,4205.641113,3453.000000,4.000000,91.000000,,,,0.000000,4.000000,4.000000,4.000000,4.000000,4.000000,4.000000,4.000000,4.000000,4.000000,4.000000,4.000000,4.000000,4.000000,4.000000,100.000000,,,,,,,,,,,,,,,,
1644852865.612901,209.000000,0.000000,4218.333496,4199.487305,4251.666504,4197.563965,4207.948730,4218.077148,4215.641113,4221.922852,4232.179688,4231.410156,4185.128418,4198.974121,4182.307617,4199.358887,3322.000000,4.000000,91.000000,,,,0.000000,4.000000,4.000000,4.000000,4.000000,4.000000,4.000000,4.000000,4.000000,4.000000,4.000000,4.000000,4.000000,4.000000,4.000000,100.000000,,,,,,,,,,,,,,,,
1644852865.616841,210.000000,0.000000,4211.538574,4192.563965,4244.358887,4192.820313,4200.897461,4217.051270,4212.051270,4213.846191,4223.717773,4219.871582,4172.948730,4189.230957,4169.102539,4189.615234,3560.000000,4.000000,91.000000,,,,0.000000,4.000000,4.000000,4.000000,4.000000,4.000000,4.000000,4.000000,4.000000,4.000000,4.000000,4.000000,4.000000,4.000000,4.000000,100.000000,,,,,,,,,,,,,,,,
1644852865.620781,211.000000,0.000000,4203.461426,4189.102539,4237.051270,4184.230957,4202.820313,4215.641113,4209.743652,4207.563965,4219.358887,4213.077148,4160.897461,4179.358887,4161.794922,4181.410156,3252.000000,4.000000,91.000000,,,,0.000000,4.000000,4.000000,4.000000,4.000000,4.000000,4.000000,4.000000,4.000000,4.000000,4.000000,4.000000,4.000000,4.000000,4.000000,100.000000,,,,,,,,,,,,,,,,
1644852865.624722,212.000000,0.000000,4197.692383,4192.948730,4233.717773,4178.333496,4212.948730,4215.256348,4211.153809,4206.538574,4220.000000,4212.820313,4152.436035,4173.333496,4160.641113,4178.589844,3453.000000,4.000000,91.000000,,,,0.000000,4.000000,4.000000,4.000000,4.000000,4.000000,4.000000,4.000000,4.000000,4.000000,4.000000,4.000000,4.000000,4.000000,4.000000,100.000000,,,,,,,,,,,,,,,,
1644852865.628662,213.000000,0.000000,4195.641113,4202.307617,4234.871582,4177.563965,4223.205078,4216.025879,4214.487305,4209.615234,4222.179688,4215.641113,4149.230957,4172.436035,4161.025879,4180.512695,3322.000000,4.000000,91.000000,,,,0.000000,4.000000,4.000000,4.000000,4.000000,4.000000,4.000000,4.000000,4.000000,4.000000,4.000000,4.000000,4.000000,4.000000,4.000000,100.000000,,,,,,,,,,,,,,,,
1644852865.632602,214.000000,0.000000,4196.282227,4211.153809,4236.922852,4180.128418,4224.871582,4217.179688,4214.743652,4211.794922,4221.666504,4215.641113,4149.615234,4174.743652,4157.563965,4182.948730,3560.000000,4.000000,91.000000,,,,0.000000,4.000000,4.000000,4.000000,4.000000,4.000000,4.000000,4.000000,4.000000,4.000000,4.000000,4.000000,4.000000,4.000000,4.000000,100.000000,1.000000,91.666664,4.000000,4.000000,4.000000,4.000000,3.000000,4.000000,4.000000,4.000000,4.000000,4.000000,4.000000,4.000000,4.000000,4.000000
1644852865.636542,215.000000,0.000000,4197.051270,4213.717773,4236.025879,4182.820313,4217.820313,4217.563965,4209.871582,4210.000000,4216.922852,4209.871582,4150.128418,4176.153809,4149.102539,4182.307617,3252.000000,4.000000,91.000000,,,,0.000000,4.000000,4.000000,4.000000,4.000000,4.000000,4.000000,4.000000,4.000000,4.000000,4.000000,4.000000,4.000000,4.000000,4.000000,100.000000,,,,,,,,,,,,,,,,
1644852865.640482,216.000000,0.000000,4195.897461,4209.487305,4231.538574,4185.384766,4210.128418,4216.666504,4203.333496,4205.384766,4210.384766,4201.153809,4147.436035,4174.230957,4138.461426,4179.102539,3453.000000,4.000000,91.000000,,,,0.000000,4.000000,4.000000,4.000000,4.000000,4.000000,4.000000,4.000000,4.000000,4.000000,4.000000,4.000000,4.000000,4.000000,4.000000,100.000000,,,,,,,,,,,,,,,,
1644852865.644422,217.000000,0.000000,4193.333496,4203.077148,4226.153809,4188.461426,4210.769043,4214.230957,4200.256348,4201.538574,4205.512695,4194.871582,4141.282227,4169.487305,4130.256348,4175.897461,3322.000000,4.000000,91.000000,,,,0.000000,4.000000,4.000000,4.000000,4.000000,4.000000,4.000000,4.000000,4.000000,4.000000,4.000000,4.000000,4.000000,4.000000,4.000000,100.000000,,,,,,,,,,,,,,,,
1644852865.648362,218.000000,0.000000,4190.256348,4198.974121,4223.717773,4191.666504,4220.000000,4211.025879,4201.538574,4201.025879,4204.358887,4193.461426,4134.102539,4165.128418,4126.794922,4173.461426,3560.000000,4.000000,91.000000,,,,0.000000,4.000000,4.000000,4.000000,4.000000,4.000000,4.000000,4.000000,4.000000,4.000000,4.000000,4.000000,4.000000,4.000000,4.000000,100.000000,,,,,,,,,,,,,,,,
1644852865.652202,219.000000,0.000000,4186.922852,4197.307617,4224.871582,4192.820313,4228.846191,4207.820313,4203.589844,4202.179688,4205.641113,4193.974121,4128.974121,4163.589844,4127.051270,4169.871582,3252.000000,4.000000,91.000000,,,,0.000000,4.000000,4.000000,4.000000,4.000000,4.000000,4.000000,4.000000,4.000000,4.000000,4.000000,4.000000,4.000000,4.000000,4.000000,100.000000,,,,,,,,,,,,,,,,
1644852865.656143,220.000000,0.000000,4183.077148,4195.128418,4227.436035,4191.025879,4227.307617,4205.128418,4202.692383,4201.538574,4206.538574,4191.282227,4127.563965,4165.000000,4128.589844,4163.333496,3453.000000,4.000000,91.000000,3,1,3,0.000000,4.000000,4.000000,4.000000,4.000000,4.000000,4.000000,4.000000,4.000000,4.000000,4.000000,4.000000,4.000000,4.000000,4.000000,100.000000,,,,,,,,,,,,,,,,
1644852865.660083,221.000000,0.000000,4179.871582,4190.769043,4229.102539,4187.179688,4214.871582,4204.230957,4200.384766,4198.205078,4204.871582,4185.000000,4129.358887,4167.563965,4129.230957,4156.153809,3322.000000,4.000000,91.000000,,,,0.000000,4.000000,4.000000,4.000000,4.000000,4.000000,4.000000,4.000000,4.000000,4.000000,4.000000,4.000000,4.000000,4.000000,4.000000,100.000000,,,,,,,,,,,,,,,,
1644852865.664023,222.000000,0.000000,4181.025879,4187.436035,4230.512695,4182.051270,4201.666504,4206.666504,4200.512695,4195.256348,4201.922852,4181.153809,4133.974121,4170.641113,4128.717773,4152.820313,3560.000000,4.000000,91.000000,,,,0.000000,4.000000,4.000000,4.000000,4.000000,4.000000,4.000000,4.000000,4.000000,4.000000,4.000000,4.000000,4.000000,4.000000,4.000000,100.000000,,,,,,,,,,,,,,,,
1644852865.667963,223.000000,0.000000,4189.871582,4190.128418,4233.846191,4175.641113,4198.717773,4211.538574,4204.743652,4196.666504,4201.153809,4185.769043,4141.282227,4173.846191,4127.563965,4155.897461,3252.000000,4.000000,91.000000,,,,0.000000,4.000000,4.000000,4.000000,4.000000,4.000000,4.000000,4.000000,4.000000,4.000000,4.000000,4.000000,4.000000,4.000000,4.000000,100.000000,,,,,,,,,,,,,,,,
1644852865.671903,224.000000,0.000000,4205.256348,4200.128418,4239.487305,4168.333496,4207.179688,4216.538574,4209.487305,4202.563965,4204.358887,4198.077148,4150.384766,4176.538574,4125.897461,4163.589844,3453.000000,4.000000,91.000000,,,,0.000000,4.000000,4.000000,4.000000,4.000000,4.000000,4.000000,4.000000,4.000000,4.000000,4.000000,4.000000,4.000000,4.000000,4.000000,100.000000,,,,,,,,,,,,,,,,
1644852865.675843,225.000000,0.000000,4220.000000,4212.692383,4244.871582,4162.692383,4217.436035,4218.589844,4210.641113,4208.717773,4209.871582,4209.871582,4158.846191,4177.051270,4123.589844,4170.512695,3322.000000,4.000000,91.000000,,,,0.000000,4.000000,4.000000,4.000000,4.000000,4.000000,4.000000,4.000000,4.000000,4.000000,4.000000,4.000000,4.000000,4.000000,4.000000,100.000000,,,,,,,,,,,,,,,,
1644852865.679783,226.000000,0.000000,4225.769043,4220.769043,4246.922852,4163.461426,4218.589844,4216.666504,4207.436035,4210.000000,4213.461426,4213.077148,4163.846191,4174.615234,4121.282227,4173.205078,3560.000000,4.000000,91.000000,,,,0.000000,4.000000,4.000000,4.000000,4.000000,4.000000,4.000000,4.000000,4.000000,4.000000,4.000000,4.000000,4.000000,4.000000,4.000000,100.000000,,,,,,,,,,,,,,,,
1644852865.683723,227.000000,0.000000,4219.615234,4220.769043,4244.615234,4172.692383,4209.615234,4212.948730,4203.717773,4205.384766,4212.179688,4207.179688,4164.615234,4171.282227,4121.538574,4172.820313,3252.000000,4.000000,91.000000,,,,0.000000,4.000000,4.000000,4.000000,4.000000,4.000000,4.000000,4.000000,4.000000,4.000000,4.000000,4.000000,4.000000,4.000000,4.000000,100.000000,,,,,,,,,,,,,,,,
1644852865.687663,228.000000,0.000000,4207.179688,4216.025879,4240.256348,4186.794922,4200.000000,4210.641113,4202.692383,4199.102539,4207.948730,4199.102539,4163.461426,4170.641113,4128.461426,4175.000000,3453.000000,4.000000,91.000000,,,,0.000000,4.000000,4.000000,4.000000,4.000000,4.000000,4.000000,4.000000,4.000000,4.000000,4.000000,4.000000,4.000000,4.000000,4.000000,100.000000,,,,,,,,,,,,,,,,
1644852865.691603,229.000000,0.000000,4198.205078,4212.948730,4237.436035,4197.820313,4201.282227,4211.922852,4204.487305,4196.153809,4205.641113,4196.922852,4162.820313,4174.743652,4142.820313,4184.102539,3322.000000,4.000000,91.000000,,,,0.000000,4.000000,4.000000,4.000000,4.000000,4.000000,4.000000,4.000000,4.000000,4.000000,4.000000,4.000000,4.000000,4.000000,4.000000,100.000000,,,,,,,,,,,,,,,,
1644852865.695544,230.000000,0.000000,4199.358887,4215.000000,4237.692383,4200.256348,4215.384766,4215.769043,4206.538574,4198.846191,4207.692383,4202.179688,4163.077148,4181.153809,4160.256348,4198.589844,3560.000000,4.000000,91.000000,,,,0.000000,4.000000,4.000000,4.000000,4.000000,4.000000,4.000000,4.000000,4.000000,4.000000,4.000000,4.000000,4.000000,4.000000,4.000000,100.000000,,,,,,,,,,,,,,,,
1644852865.699484,231.000000,0.000000,4208.333496,4220.128418,4239.871582,4194.358887,4231.666504,4218.846191,4207.948730,4205.000000,4212.436035,4208.974121,4162.051270,4185.000000,4172.563965,4211.025879,3252.000000,4.000000,91.000000,,,,0.000000,4.000000,4.000000,4.000000,4.000000,4.000000,4.000000,4.000000,4.000000,4.000000,4.000000,4.000000,4.000000,4.000000,4.000000,100.000000,,,,,,,,,,,,,,,,
1644852865.703424,232.000000,0.000000,4216.794922,4222.820313,4241.922852,4185.384766,4236.025879,4217.948730,4209.102539,4210.128418,4215.641113,4210.128418,4157.820313,4183.077148,4173.461426,4213.077148,3453.000000,4.000000,91.000000,,,,0.000000,4.000000,4.000000,4.000000,4.000000,4.000000,4.000000,4.000000,4.000000,4.000000,4.000000,4.000000,4.000000,4.000000,4.000000,100.000000,,,,,,,,,,,,,,,,
1644852865.707364,233.000000,0.000000,4217.563965,4218.974121,4242.307617,4180.384766,4223.974121,4212.563965,4209.743652,4211.410156,4214.871582,4203.974121,4151.025879,4176.410156,4163.205078,4202.820313,3322.000000,4.000000,91.000000,,,,0.000000,4.000000,4.000000,4.000000,4.000000,4.000000,4.000000,4.000000,4.000000,4.000000,4.000000,4.000000,4.000000,4.000000,4.000000,100.000000,,,,,,,,,,,,,,,,
1644852865.711304,234.000000,0.000000,4210.128418,4209.230957,4240.512695,4184.102539,4205.512695,4205.256348,4208.974121,4208.846191,4210.641113,4194.487305,4144.487305,4168.461426,4148.589844,4185.897461,3560.000000,4.000000,91.000000,,,,0.000000,4.000000,4.000000,4.000000,4.000000,4.000000,4.000000,4.000000,4.000000,4.000000,4.000000,4.000000,4.000000,4.000000,4.000000,100.000000,,,,,,,,,,,,,,,,
1644852865.715244,235.000000,0.000000,4200.512695,4198.846191,4236.666504,4194.487305,4195.256348,4199.743652,4207.051270,4204.615234,4205.512695,4187.820313,4141.025879,4162.948730,4137.563965,4171.794922,3252.000000,4.000000,91.000000,,,,0.000000,4.000000,4.000000,4.000000,4.000000,4.000000,4.000000,4.000000,4.000000,4.000000,4.000000,4.000000,4.000000,4.000000,4.000000,100.000000,,,,,,,,,,,,,,,,
1644852865.719184,236.000000,0.000000,4196.025879,4193.461426,4231.666504,4203.589844,4199.358887,4198.205078,4206.282227,4200.897461,4201.538574,4187.051270,4141.794922,4161.282227,4134.230957,4166.153809,3453.000000,4.000000,91.000000,,,,0.000000,4.000000,4.000000,4.000000,4.000000,4.000000,4.000000,4.000000,4.000000,4.000000,4.000000,4.000000,4.000000,4.000000,4.000000,100.000000,,,,,,,,,,,,,,,,
1644852865.723224,237.000000,0.000000,4198.717773,4194.871582,4227.051270,4202.051270,4210.256348,4199.743652,4208.077148,4198.974121,4199.358887,4190.128418,4145.897461,4162.436035,4135.641113,4167.820313,3322.000000,4.000000,91.000000,,,,0.000000,4.000000,4.000000,4.000000,4.000000,4.000000,4.000000,4.000000,4.000000,4.000000,4.000000,4.000000,4.000000,4.000000,4.000000,100.000000,,,,,,,,,,,,,,,,
1644852865.727164,238.000000,0.000000,4205.000000,4199.743652,4225.000000,4188.461426,4215.384766,4202.307617,4211.025879,4198.974121,4198.846191,4192.948730,4151.410156,4164.358887,4136.025879,4171.666504,3560.000000,4.000000,91.000000,,,,0.000000,4.000000,4.000000,4.000000,4.000000,4.000000,4.000000,4.000000,4.000000,4.000000,4.000000,4.000000,4.000000,4.000000,4.000000,100.000000,,,,,,,,,,,,,,,,
1644852865.731104,239.000000,0.000000,4208.974121,4203.589844,4226.025879,4171.410156,4208.846191,4204.102539,4211.666504,4199.615234,4200.128418,4194.102539,4156.025879,4166.025879,4131.538574,4173.974121,3252.000000,4.000000,91.000000,,,,0.000000,4.000000,4.000000,4.000000,4.000000,4.000000,4.000000,4.000000,4.000000,4.000000,4.000000,4.000000,4.000000,4.000000,4.000000,100.000000,,,,,,,,,,,,,,,,
1644852865.735045,240.000000,0.000000,4208.077148,4204.743652,4229.230957,4162.820313,4196.538574,4204.615234,4208.333496,4200.128418,4202.692383,4195.512695,4158.077148,4167.436035,4124.102539,4175.384766,3453.000000,4.000000,91.000000,,,,0.000000,4.000000,4.000000,4.000000,4.000000,4.000000,4.000000,4.000000,4.000000,4.000000,4.000000,4.000000,4.000000,4.000000,4.000000,100.000000,,,,,,,,,,,,,,,,
1644852865.738985,241.000000,0.000000,4204.615234,4204.230957,4232.948730,4167.820313,4189.230957,4204.102539,4203.717773,4200.384766,4205.769043,4199.871582,4156.538574,4168.846191,4119.487305,4177.692383,3322.000000,4.000000,91.000000,,,,0.000000,4.000000,4.000000,4.000000,4.000000,4.000000,4.000000,4.000000,4.000000,4.000000,4.000000,4.000000,4.000000,4.000000,4.000000,100.000000,,,,,,,,,,,,,,,,
1644852865.742925,242.000000,0.000000,4202.563965,4204.871582,4235.512695,4181.153809,4192.307617,4203.589844,4202.051270,4201.153809,4207.948730,4206.410156,4152.436035,4170.769043,4122.948730,4179.871582,3560.000000,4.000000,91.000000,,,,0.000000,4.000000,4.000000,4.000000,4.000000,4.000000,4.000000,4.000000,4.000000,4.000000,4.000000,4.000000,4.000000,4.000000,4.000000,100.000000,,,,,,,,,,,,,,,,
1644852865.746865,243.000000,0.000000,4204.743652,4207.692383,4236.282227,4193.589844,4202.820313,4204.102539,4204.487305,4202.948730,4208.717773,4211.410156,4148.589844,4173.461426,4135.769043,4180.384766,3252.000000,4.000000,91.000000,,,,0.000000,4.000000,4.000000,4.000000,4.000000,4.000000,4.000000,4.000000,4.000000,4.000000,4.000000,4.000000,4.000000,4.000000,4.000000,100.000000,,,,,,,,,,,,,,,,
1644852865.750805,244.000000,0.000000,4210.641113,4211.666504,4236.025879,4200.512695,4214.487305,4207.051270,4208.461426,4205.256348,4209.615234,4211.794922,4148.461426,4177.563965,4154.230957,4180.128418,3453.000000,4.000000,91.000000,,,,0.000000,4.000000,4.000000,4.000000,4.000000,4.000000,4.000000,4.000000,4.000000,4.000000,4.000000,4.000000,4.000000,4.000000,4.000000,100.000000,,,,,,,,,,,,,,,,
1644852865.754745,245.000000,0.000000,4216.794922,4214.615234,4235.897461,4203.717773,4223.461426,4212.307617,4210.641113,4207.948730,4211.922852,4209.230957,4155.000000,4183.077148,4171.666504,4182.563965,3322.000000,4.000000,91.000000,,,,0.000000,4.000000,4.000000,4.000000,4.000000,4.000000,4.000000,4.000000,4.000000,4.000000,4.000000,4.000000,4.000000,4.000000,4.000000,100.000000,,,,,,,,,,,,,,,,
1644852865.758685,246.000000,0.000000,4219.487305,4214.358887,4237.051270,4204.871582,4227.692383,4217.692383,4210.512695,4210.641113,4215.128418,4207.179688,4166.025879,4188.205078,4181.538574,4189.615234,3560.000000,4.000000,91.000000,,,,0.000000,4.000000,4.000000,4.000000,4.000000,4.000000,4.000000,4.000000,4.000000,4.000000,4.000000,4.000000,4.000000,4.000000,4.000000,100.000000,,,,,,,,,,,,,,,,
1644852865.762625,247.000000,0.000000,4216.410156,4209.871582,4238.717773,4202.820313,4225.000000,4219.743652,4210.000000,4212.307617,4216.922852,4206.794922,4175.128418,4189.358887,4181.153809,4198.205078,3252.000000,4.000000,91.000000,,,,0.000000,4.000000,4.000000,4.000000,4.000000,4.000000,4.000000,4.000000,4.000000,4.000000,4.000000,4.000000,4.000000,4.000000,4.000000,100.000000,,,,,,,,,,,,,,,,
1644852865.766565,248.000000,0.000000,4209.230957,4202.179688,4238.974121,4194.487305,4214.871582,4216.666504,4209.743652,4211.666504,4214.615234,4206.410156,4175.641113,4184.487305,4173.205078,4202.436035,3453.000000,4.000000,91.000000,,,,0.000000,4.000000,4.000000,4.000000,4.000000,4.000000,4.000000,4.000000,4.000000,4.000000,4.000000,4.000000,4.000000,4.000000,4.000000,100.000000,,,,,,,,,,,,,,,,
1644852865.770505,249.000000,0.000000,4201.153809,4195.384766,4237.051270,4180.512695,4201.025879,4210.128418,4208.589844,4208.333496,4208.974121,4204.358887,4167.436035,4176.282227,4163.205078,4198.974121,3322.000000,4.000000,91.000000,,,,0.000000,4.000000,4.000000,4.000000,4.000000,4.000000,4.000000,4.000000,4.000000,4.000000,4.000000,4.000000,4.000000,4.000000,4.000000,100.000000,,,,,,,,,,,,,,,,
1644852865.774446,250.000000,0.000000,4196.153809,4193.846191,4234.615234,4168.077148,4190.641113,4204.102539,4205.256348,4204.358887,4203.717773,4201.666504,4158.333496,4171.153809,4156.538574,4189.743652,3560.000000,4.000000,91.000000,,,,0.000000,4.000000,4.000000,4.000000,4.000000,4.000000,4.000000,4.000000,4.000000,4.000000,4.000000,4.000000,4.000000,4.000000,4.000000,100.000000,,,,,,,,,,,,,,,,
1644852865.778386,251.000000,0.000000,4196.282227,4198.974121,4234.743652,4166.025879,4189.102539,4202.563965,4201.922852,4203.333496,4203.077148,4201.410156,4158.717773,4173.589844,4155.000000,4181.410156,3252.000000,4.000000,91.000000,,,,0.000000,4.000000,4.000000,4.000000,4.000000,4.000000,4.000000,4.000000,4.000000,4.000000,4.000000,4.000000,4.000000,4.000000,4.000000,100.000000,,,,,,,,,,,,,,,,
1644852865.782326,252.000000,0.000000,4201.538574,4207.563965,4239.230957,4177.692383,4197.051270,4206.794922,4202.051270,4208.205078,4209.102539,4205.769043,4171.794922,4182.307617,4157.820313,4180.256348,3453.000000,4.000000,91.000000,,,,0.000000,4.000000,4.000000,4.000000,4.000000,4.000000,4.000000,4.000000,4.000000,4.000000,4.000000,4.000000,4.000000,4.000000,4.000000,100.000000,,,,,,,,,,,,,,,,
1644852865.786266,253.000000,0.000000,4209.487305,4214.743652,4247.179688,4197.179688,4210.384766,4214.102539,4207.051270,4217.563965,4219.358887,4214.871582,4189.487305,4191.538574,4163.077148,4187.692383,3322.000000,4.000000,91.000000,,,,0.000000,4.000000,4.000000,4.000000,4.000000,4.000000,4.000000,4.000000,4.000000,4.000000,4.000000,4.000000,4.000000,4.000000,4.000000,100.000000,,,,,,,,,,,,,,,,
1644852865.790206,254.000000,0.000000,4217.051270,4217.563965,4254.102539,4212.179688,4223.717773,4220.256348,4213.974121,4226.410156,4228.333496,4225.641113,4198.205078,4195.897461,4168.846191,4199.487305,3560.000000,4.000000,91.000000,,,,0.000000,4.000000,4.000000,4.000000,4.000000,4.000000,4.000000,4.000000,4.000000,4.000000,4.000000,4.000000,4.000000,4.000000,4.000000,100.000000,,,,,,,,,,,,,,,,
1644852865.794146,255.000000,0.000000,4221.538574,4216.666504,4255.769043,4213.461426,4232.179688,4221.794922,4217.692383,4229.358887,4231.922852,4233.461426,4190.641113,4194.615234,4172.820313,4208.974121,114.000000,4.000000,91.000000,,,,0.000000,4.000000,4.000000,4.000000,4.000000,4.000000,4.000000,4.000000,4.000000,4.000000,4.000000,4.000000,4.000000,4.000000,4.000000,100.000000,,,,,,,,,,,,,,,,
1644852865.797986,0.000000,0.000000,4221.025879,4214.358887,4252.051270,4200.641113,4233.077148,4218.846191,4215.897461,4225.000000,4229.102539,4233.717773,4171.538574,4191.153809,4172.436035,4211.025879,3523.000000,4.000000,91.000000,,,,0.000000,4.000000,4.000000,4.000000,4.000000,4.000000,4.000000,4.000000,4.000000,4.000000,4.000000,4.000000,4.000000,4.000000,4.000000,100.000000,,,,,,,,,,,,,,,,
1644852865.801926,1.000000,0.000000,4216.025879,4211.922852,4246.666504,4183.717773,4227.179688,4214.230957,4210.897461,4216.794922,4222.307617,4225.384766,4154.102539,4189.743652,4167.692383,4205.384766,3305.000000,4.000000,91.000000,,,,0.000000,4.000000,4.000000,4.000000,4.000000,4.000000,4.000000,4.000000,4.000000,4.000000,4.000000,4.000000,4.000000,4.000000,4.000000,100.000000,,,,,,,,,,,,,,,,
1644852865.805867,2.000000,0.000000,4210.000000,4209.487305,4244.487305,4175.000000,4218.846191,4211.538574,4206.666504,4210.000000,4214.871582,4213.077148,4149.871582,4191.410156,4161.922852,4197.051270,3536.000000,4.000000,91.000000,,,,0.000000,4.000000,4.000000,4.000000,4.000000,4.000000,4.000000,4.000000,4.000000,4.000000,4.000000,4.000000,4.000000,4.000000,4.000000,100.000000,,,,,,,,,,,,,,,,
1644852865.809807,3.000000,0.000000,4207.051270,4207.307617,4247.179688,4179.358887,4213.974121,4212.436035,4205.384766,4207.563965,4210.128418,4204.743652,4161.410156,4193.974121,4160.897461,4192.563965,3531.000000,4.000000,91.000000,,,,0.000000,4.000000,4.000000,4.000000,4.000000,4.000000,4.000000,4.000000,4.000000,4.000000,4.000000,4.000000,4.000000,4.000000,4.000000,100.000000,,,,,,,,,,,,,,,,
1644852865.813747,4.000000,0.000000,4209.230957,4207.179688,4252.436035,4190.769043,4213.974121,4215.512695,4205.512695,4208.333496,4209.358887,4205.512695,4180.897461,4194.615234,4167.307617,4195.641113,3488.000000,4.000000,91.000000,,,,0.000000,4.000000,4.000000,4.000000,4.000000,4.000000,4.000000,4.000000,4.000000,4.000000,4.000000,4.000000,4.000000,4.000000,4.000000,100.000000,,,,,,,,,,,,,,,,
1644852865.817687,5.000000,0.000000,4215.128418,4210.000000,4256.282227,4199.102539,4215.256348,4217.820313,4206.025879,4209.615234,4211.025879,4213.333496,4196.282227,4192.051270,4176.922852,4203.846191,3387.000000,4.000000,91.000000,,,,0.000000,4.000000,4.000000,4.000000,4.000000,4.000000,4.000000,4.000000,4.000000,4.000000,4.000000,4.000000,4.000000,4.000000,4.000000,100.000000,,,,,,,,,,,,,,,,
1644852865.821627,6.000000,0.000000,4220.897461,4214.358887,4256.666504,4199.230957,4212.179688,4217.948730,4206.538574,4209.615234,4212.307617,4220.000000,4199.102539,4187.307617,4181.282227,4211.410156,2648.000000,4.000000,91.000000,,,,0.000000,4.000000,4.000000,4.000000,4.000000,4.000000,4.000000,4.000000,4.000000,4.000000,4.000000,4.000000,4.000000,4.000000,4.000000,100.000000,,,,,,,,,,,,,,,,
1644852865.825567,7.000000,0.000000,4224.230957,4217.051270,4253.589844,4194.615234,4203.717773,4216.410156,4207.820313,4208.205078,4210.897461,4218.589844,4190.384766,4183.333496,4175.256348,4213.589844,3062.000000,4.000000,91.000000,,,,0.000000,4.000000,4.000000,4.000000,4.000000,4.000000,4.000000,4.000000,4.000000,4.000000,4.000000,4.000000,4.000000,4.000000,4.000000,100.000000,,,,,,,,,,,,,,,,
1644852865.829507,8.000000,0.000000,4224.871582,4216.153809,4249.102539,4191.922852,4194.743652,4215.000000,4208.846191,4206.410156,4207.307617,4209.358887,4178.974121,4182.436035,4162.307617,4210.256348,3268.000000,4.000000,91.000000,,,,0.000000,4.000000,4.000000,4.000000,4.000000,4.000000,4.000000,4.000000,4.000000,4.000000,4.000000,4.000000,4.000000,4.000000,4.000000,100.000000,,,,,,,,,,,,,,,,
1644852865.833447,9.000000,0.000000,4223.205078,4212.436035,4246.282227,4193.589844,4192.692383,4214.871582,4208.589844,4205.512695,4204.358887,4200.128418,4172.820313,4184.615234,4152.307617,4205.128418,3517.000000,4.000000,91.000000,,,,0.000000,4.000000,4.000000,4.000000,4.000000,4.000000,4.000000,4.000000,4.000000,4.000000,4.000000,4.000000,4.000000,4.000000,4.000000,100.000000,,,,,,,,,,,,,,,,
1644852865.837387,10.000000,0.000000,4220.128418,4208.333496,4247.051270,4196.666504,4200.128418,4215.512695,4207.307617,4206.282227,4204.102539,4197.820313,4173.461426,4188.333496,4152.307617,4202.179688,3541.000000,4.000000,91.000000,,,,0.000000,4.000000,4.000000,4.000000,4.000000,4.000000,4.000000,4.000000,4.000000,4.000000,4.000000,4.000000,4.000000,4.000000,4.000000,100.000000,,,,,,,,,,,,,,,,
1644852865.841327,11.000000,0.000000,4217.307617,4205.897461,4250.769043,4196.410156,4212.820313,4215.641113,4206.666504,4208.461426,4206.153809,4203.077148,4174.871582,4191.922852,4161.025879,4202.820313,3395.000000,4.000000,91.000000,,,,0.000000,4.000000,4.000000,4.000000,4.000000,4.000000,4.000000,4.000000,4.000000,4.000000,4.000000,4.000000,4.000000,4.000000,4.000000,100.000000,,,,,,,,,,,,,,,,
1644852865.845268,12.000000,0.000000,4216.282227,4205.769043,4254.102539,4191.282227,4222.692383,4214.871582,4208.077148,4210.769043,4208.205078,4209.871582,4171.282227,4193.974121,4169.743652,4204.358887,3420.000000,4.000000,91.000000,,,,0.000000,4.000000,4.000000,4.000000,4.000000,4.000000,4.000000,4.000000,4.000000,4.000000,4.000000,4.000000,4.000000,4.000000,4.000000,100.000000,,,,,,,,,,,,,,,,
1644852865.849208,13.000000,0.000000,4216.922852,4207.051270,4253.974121,4183.589844,4223.205078,4213.589844,4209.615234,4211.666504,4209.102539,4212.307617,4163.077148,4194.230957,4170.769043,4203.077148,3460.000000,4.000000,91.000000,,,,0.000000,4.000000,4.000000,4.000000,4.000000,4.000000,4.000000,4.000000,4.000000,4.000000,4.000000,4.000000,4.000000,4.000000,4.000000,100.000000,,,,,,,,,,,,,,,,
1644852865.853148,14.000000,0.000000,4217.563965,4208.077148,4250.384766,4178.077148,4214.615234,4212.179688,4208.333496,4210.641113,4209.230957,4209.102539,4155.897461,4191.922852,4164.358887,4197.563965,3541.000000,4.000000,91.000000,,,,0.000000,4.000000,4.000000,4.000000,4.000000,4.000000,4.000000,4.000000,4.000000,4.000000,4.000000,4.000000,4.000000,4.000000,4.000000,100.000000,,,,,,,,,,,,,,,,
1644852865.857088,15.000000,0.000000,4216.538574,4208.461426,4246.153809,4178.205078,4203.717773,4211.025879,4203.974121,4209.487305,4210.128418,4204.615234,4156.282227,4187.820313,4157.692383,4191.410156,3395.000000,4.000000,91.000000,,,,0.000000,4.000000,4.000000,4.000000,4.000000,4.000000,4.000000,4.000000,4.000000,4.000000,4.000000,4.000000,4.000000,4.000000,4.000000,100.000000,,,,,,,,,,,,,,,,
1644852865.861028,16.000000,0.000000,4214.487305,4209.102539,4245.128418,4184.487305,4198.846191,4211.282227,4200.641113,4210.897461,4213.077148,4204.358887,4166.153809,4183.974121,4158.589844,4191.025879,3420.000000,4.000000,91.000000,,,,0.000000,4.000000,4.000000,4.000000,4.000000,4.000000,4.000000,4.000000,4.000000,4.000000,4.000000,4.000000,4.000000,4.000000,4.000000,100.000000,,,,,,,,,,,,,,,,
1644852865.864968,17.000000,0.000000,4213.974121,4210.897461,4248.717773,4193.461426,4204.102539,4213.333496,4202.436035,4215.769043,4217.948730,4211.025879,4181.282227,4182.692383,4167.948730,4201.025879,3460.000000,4.000000,91.000000,,,,0.000000,4.000000,4.000000,4.000000,4.000000,4.000000,4.000000,4.000000,4.000000,4.000000,4.000000,4.000000,4.000000,4.000000,4.000000,100.000000,,,,,,,,,,,,,,,,
1644852865.868908,18.000000,0.000000,4217.307617,4213.846191,4253.589844,4200.000000,4215.128418,4216.666504,4208.333496,4221.666504,4222.820313,4221.666504,4193.717773,4184.487305,4179.615234,4218.461426,3541.000000,4.000000,91.000000,,,,0.000000,4.000000,4.000000,4.000000,4.000000,4.000000,4.000000,4.000000,4.000000,4.000000,4.000000,4.000000,4.000000,4.000000,4.000000,100.000000,,,,,,,,,,,,,,,,
1644852865.872948,19.000000,0.000000,4224.102539,4216.025879,4255.256348,4200.256348,4222.820313,4219.615234,4212.820313,4224.102539,4224.871582,4230.128418,4197.179688,4187.820313,4185.128418,4233.205078,3395.000000,4.000000,91.000000,,,,0.000000,4.000000,4.000000,4.000000,4.000000,4.000000,4.000000,4.000000,4.000000,4.000000,4.000000,4.000000,4.000000,4.000000,4.000000,100.000000,,,,,,,,,,,,,,,,
1644852865.876888,20.000000,0.000000,4231.025879,4215.128418,4251.410156,4195.128418,4220.897461,4220.641113,4211.666504,4220.384766,4222.307617,4231.025879,4190.256348,4189.871582,4181.794922,4235.256348,3420.000000,4.000000,91.000000,,,,0.000000,4.000000,4.000000,4.000000,4.000000,4.000000,4.000000,4.000000,4.000000,4.000000,4.000000,4.000000,4.000000,4.000000,4.000000,100.000000,,,,,,,,,,,,,,,,
1644852865.880828,21.000000,0.000000,4232.820313,4209.743652,4243.974121,4189.230957,4211.410156,4218.974121,4206.538574,4212.563965,4216.025879,4224.230957,4177.179688,4188.846191,4173.461426,4222.948730,3460.000000,4.000000,91.000000,,,,0.000000,4.000000,4.000000,4.000000,4.000000,4.000000,4.000000,4.000000,4.000000,4.000000,4.000000,4.000000,4.000000,4.000000,4.000000,100.000000,,,,,,,,,,,,,,,,
1644852865.884769,22.000000,0.000000,4226.025879,4202.307617,4237.436035,4186.153809,4202.436035,4215.512695,4202.436035,4205.512695,4209.102539,4213.717773,4165.641113,4185.000000,4167.563965,4205.256348,3541.000000,4.000000,91.000000,,,,0.000000,4.000000,4.000000,4.000000,4.000000,4.000000,4.000000,4.000000,4.000000,4.000000,4.000000,4.000000,4.000000,4.000000,4.000000,100.000000,,,,,,,,,,,,,,,,
1644852865.888709,23.000000,0.000000,4213.333496,4197.179688,4234.871582,4185.384766,4201.153809,4212.179688,4202.307617,4203.333496,4205.384766,4204.615234,4161.538574,4179.871582,4167.563965,4193.974121,3395.000000,4.000000,91.000000,,,,0.000000,4.000000,4.000000,4.000000,4.000000,4.000000,4.000000,4.000000,4.000000,4.000000,4.000000,4.000000,4.000000,4.000000,4.000000,100.000000,,,,,,,,,,,,,,,,
1644852865.892649,24.000000,0.000000,4201.666504,4197.692383,4236.025879,4184.230957,4208.589844,4211.410156,4204.871582,4205.769043,4206.025879,4200.000000,4166.153809,4175.384766,4171.282227,4195.512695,3420.000000,4.000000,91.000000,,,,0.000000,4.000000,4.000000,4.000000,4.000000,4.000000,4.000000,4.000000,4.000000,4.000000,4.000000,4.000000,4.000000,4.000000,4.000000,100.000000,,,,,,,,,,,,,,,,
1644852865.896589,25.000000,0.000000,4197.307617,4203.205078,4237.948730,4181.922852,4219.743652,4214.230957,4207.307617,4209.871582,4208.974121,4200.384766,4175.641113,4172.820313,4173.077148,4205.769043,3460.000000,4.000000,91.000000,,,,0.000000,4.000000,4.000000,4.000000,4.000000,4.000000,4.000000,4.000000,4.000000,4.000000,4.000000,4.000000,4.000000,4.000000,4.000000,100.000000,,,,,,,,,,,,,,,,
1644852865.900529,26.000000,0.000000,4201.922852,4209.358887,4237.563965,4180.000000,4227.179688,4218.205078,4208.077148,4211.538574,4210.128418,4203.846191,4182.692383,4172.820313,4169.871582,4214.615234,3541.000000,4.000000,91.000000,,,,0.000000,4.000000,4.000000,4.000000,4.000000,4.000000,4.000000,4.000000,4.000000,4.000000,4.000000,4.000000,4.000000,4.000000,4.000000,100.000000,,,,,,,,,,,,,,,,
1644852865.904469,27.000000,0.000000,4210.769043,4211.666504,4234.102539,4179.871582,4226.282227,4219.743652,4207.436035,4210.000000,4207.051270,4206.922852,4182.051270,4174.487305,4163.974121,4213.846191,3395.000000,4.000000,91.000000,,,,0.000000,4.000000,4.000000,4.000000,4.000000,4.000000,4.000000,4.000000,4.000000,4.000000,4.000000,4.000000,4.000000,4.000000,4.000000,100.000000,,,,,,,,,,,,,,,,
1644852865.908409,28.000000,0.000000,4216.794922,4208.974121,4230.000000,4180.641113,4217.436035,4216.666504,4205.897461,4206.410156,4201.025879,4207.948730,4172.820313,4176.922852,4160.641113,4203.717773,3420.000000,4.000000,91.000000,,,,0.000000,4.000000,4.000000,4.000000,4.000000,4.000000,4.000000,4.000000,4.000000,4.000000,4.000000,4.000000,4.000000,4.000000,4.000000,100.000000,,,,,,,,,,,,,,,,
1644852865.912349,29.000000,0.000000,4216.282227,4203.974121,4228.846191,4181.153809,4205.000000,4210.769043,4203.846191,4204.102539,4196.153809,4207.051270,4160.128418,4179.230957,4162.948730,4192.692383,3460.000000,4.000000,91.000000,,,,0.000000,4.000000,4.000000,4.000000,4.000000,4.000000,4.000000,4.000000,4.000000,4.000000,4.000000,4.000000,4.000000,4.000000,4.000000,100.000000,,,,,,,,,,,,,,,,
1644852865.916289,30.000000,0.000000,4211.922852,4200.000000,4232.820313,4180.769043,4195.128418,4206.282227,4202.307617,4204.487305,4195.769043,4205.769043,4151.666504,4181.282227,4169.487305,4190.128418,3541.000000,4.000000,91.000000,,,,0.000000,4.000000,4.000000,4.000000,4.000000,4.000000,4.000000,4.000000,4.000000,4.000000,4.000000,4.000000,4.000000,4.000000,4.000000,100.000000,,,,,,,,,,,,,,,,
1644852865.920229,31.000000,0.000000,4208.974121,4199.487305,4240.384766,4180.256348,4192.179688,4206.282227,4203.333496,4207.179688,4200.000000,4205.128418,4152.820313,4183.461426,4175.128418,4198.974121,3395.000000,4.000000,91.000000,,,,0.000000,4.000000,4.000000,4.000000,4.000000,4.000000,4.000000,4.000000,4.000000,4.000000,4.000000,4.000000,4.000000,4.000000,4.000000,100.000000,,,,,,,,,,,,,,,,
1644852865.924170,32.000000,0.000000,4210.128418,4202.948730,4247.436035,4180.769043,4197.820313,4210.769043,4207.692383,4210.000000,4206.025879,4204.871582,4162.692383,4186.153809,4175.641113,4212.563965,0.000000,4.000000,91.000000,,,,0.000000,4.000000,4.000000,4.000000,4.000000,4.000000,4.000000,4.000000,4.000000,4.000000,4.000000,4.000000,4.000000,4.000000,4.000000,100.000000,,,,,,,,,,,,,,,,
1644852865.928110,33.000000,0.000000,4213.461426,4208.461426,4249.615234,4183.717773,4209.871582,4216.794922,4213.077148,4211.153809,4210.000000,4204.871582,4174.230957,4188.589844,4171.153809,4221.025879,0.000000,4.000000,91.000000,,,,0.000000,4.000000,4.000000,4.000000,4.000000,4.000000,4.000000,4.000000,4.000000,4.000000,4.000000,4.000000,4.000000,4.000000,4.000000,100.000000,,,,,,,,,,,,,,,,
1644852865.932050,34.000000,0.000000,4215.128418,4212.563965,4245.897461,4188.974121,4222.948730,4220.512695,4215.641113,4210.384766,4210.256348,4205.128418,4179.743652,4189.615234,4165.897461,4218.333496,0.000000,4.000000,91.000000,,,,0.000000,4.000000,4.000000,4.000000,4.000000,4.000000,4.000000,4.000000,4.000000,4.000000,4.000000,4.000000,4.000000,4.000000,4.000000,100.000000,,,,,,,,,,,,,,,,
1644852865.935990,35.000000,0.000000,4213.589844,4212.692383,4239.102539,4194.615234,4230.641113,4220.128418,4213.589844,4208.846191,4207.179688,4205.512695,4176.153809,4188.205078,4163.974121,4207.563965,0.000000,4.000000,91.000000,,,,0.000000,4.000000,4.000000,4.000000,4.000000,4.000000,4.000000,4.000000,4.000000,4.000000,4.000000,4.000000,4.000000,4.000000,4.000000,100.000000,,,,,,,,,,,,,,,,
1644852865.939930,36.000000,0.000000,4209.615234,4208.077148,4234.615234,4197.692383,4229.230957,4217.051270,4209.743652,4208.205078,4203.333496,4205.128418,4166.794922,4184.871582,4166.666504,4198.461426,0.000000,4.000000,91.000000,,,,0.000000,4.000000,4.000000,4.000000,4.000000,4.000000,4.000000,4.000000,4.000000,4.000000,4.000000,4.000000,4.000000,4.000000,4.000000,100.000000,,,,,,,,,,,,,,,,
1644852865.943870,37.000000,0.000000,4206.410156,4201.666504,4235.897461,4197.692383,4220.897461,4213.717773,4208.205078,4209.487305,4201.922852,4203.974121,4159.102539,4181.922852,4172.051270,4199.615234,0.000000,4.000000,91.000000,,,,0.000000,4.000000,4.000000,4.000000,4.000000,4.000000,4.000000,4.000000,4.000000,4.000000,4.000000,4.000000,4.000000,4.000000,4.000000,100.000000,,,,,,,,,,,,,,,,
1644852865.947710,38.000000,0.000000,4207.051270,4198.846191,4241.794922,4196.025879,4211.282227,4212.692383,4209.743652,4212.179688,4204.743652,4203.717773,4158.717773,4182.179688,4177.692383,4211.410156,0.000000,4.000000,91.000000,,,,0.000000,4.000000,4.000000,4.000000,4.000000,4.000000,4.000000,4.000000,4.000000,4.000000,4.000000,4.000000,4.000000,4.000000,4.000000,100.000000,,,,,,,,,,,,,,,,
1644852865.951650,39.000000,0.000000,4213.205078,4203.077148,4247.307617,4195.256348,4206.025879,4214.102539,4211.538574,4215.000000,4210.769043,4206.025879,4166.922852,4186.666504,4182.692383,4226.282227,0.000000,4.000000,91.000000,,,,0.000000,4.000000,4.000000,4.000000,4.000000,4.000000,4.000000,4.000000,4.000000,4.000000,4.000000,4.000000,4.000000,4.000000,4.000000,100.000000,,,,,,,,,,,,,,,,
1644852865.955591,40.000000,0.000000,4222.692383,4212.563965,4248.846191,4196.282227,4206.538574,4217.051270,4211.282227,4217.051270,4216.922852,4210.512695,4180.128418,4193.717773,4187.692383,4235.256348,0.000000,4.000000,91.000000,,,,0.000000,4.000000,4.000000,4.000000,4.000000,4.000000,4.000000,4.000000,4.000000,4.000000,4.000000,4.000000,4.000000,4.000000,4.000000,100.000000,,,,,,,,,,,,,,,,
1644852865.959531,41.000000,0.000000,4230.641113,4221.410156,4247.436035,4198.205078,4211.153809,4219.230957,4209.871582,4218.589844,4220.000000,4214.358887,4192.051270,4200.000000,4192.179688,4235.128418,0.000000,4.000000,91.000000,,,,0.000000,4.000000,4.000000,4.000000,4.000000,4.000000,4.000000,4.000000,4.000000,4.000000,4.000000,4.000000,4.000000,4.000000,4.000000,100.000000,,,,,,,,,,,,,,,,
1644852865.963471,42.000000,0.000000,4233.077148,4224.102539,4247.307617,4199.487305,4216.153809,4218.974121,4209.871582,4220.128418,4218.461426,4215.769043,4197.692383,4203.077148,4194.358887,4229.230957,0.000000,4.000000,91.000000,,,,0.000000,4.000000,4.000000,4.000000,4.000000,4.000000,4.000000,4.000000,4.000000,4.000000,4.000000,4.000000,4.000000,4.000000,4.000000,100.000000,,,,,,,,,,,,,,,,
1644852865.967411,43.000000,0.000000,4229.871582,4220.512695,4251.025879,4200.128418,4218.461426,4215.641113,4211.794922,4221.025879,4213.589844,4214.871582,4195.128418,4203.077148,4192.179688,4223.077148,0.000000,4.000000,91.000000,,,,0.000000,4.000000,4.000000,4.000000,4.000000,4.000000,4.000000,4.000000,4.000000,4.000000,4.000000,4.000000,4.000000,4.000000,4.000000,100.000000,,,,,,,,,,,,,,,,
1644852865.971351,44.000000,0.000000,4224.230957,4215.256348,4256.282227,4201.410156,4217.820313,4210.641113,4213.077148,4220.641113,4208.717773,4213.717773,4187.692383,4202.051270,4186.025879,4219.487305,0.000000,4.000000,91.000000,,,,0.000000,4.000000,4.000000,4.000000,4.000000,4.000000,4.000000,4.000000,4.000000,4.000000,4.000000,4.000000,4.000000,4.000000,4.000000,100.000000,,,,,,,,,,,,,,,,
1644852865.975291,45.000000,0.000000,4220.000000,4213.077148,4258.846191,4203.461426,4215.256348,4205.641113,4210.769043,4218.205078,4206.282227,4213.974121,4180.769043,4202.051270,4179.230957,4217.436035,0.000000,4.000000,91.000000,,,,0.000000,4.000000,4.000000,4.000000,4.000000,4.000000,4.000000,4.000000,4.000000,4.000000,4.000000,4.000000,4.000000,4.000000,4.000000,100.000000,,,,,,,,,,,,,,,,
1644852865.979231,46.000000,0.000000,4218.589844,4215.256348,4256.666504,4204.102539,4211.538574,4202.051270,4205.897461,4214.102539,4206.666504,4215.384766,4177.563965,4202.436035,4175.512695,4216.025879,0.000000,4.000000,91.000000,,,,0.000000,4.000000,4.000000,4.000000,4.000000,4.000000,4.000000,4.000000,4.000000,4.000000,4.000000,4.000000,4.000000,4.000000,4.000000,100.000000,,,,,,,,,,,,,,,,
1644852865.983171,47.000000,0.000000,4219.871582,4218.974121,4251.922852,4201.922852,4206.922852,4201.025879,4202.436035,4210.256348,4207.820313,4216.025879,4178.589844,4201.282227,4176.538574,4216.538574,0.000000,4.000000,91.000000,,,,0.000000,4.000000,4.000000,4.000000,4.000000,4.000000,4.000000,4.000000,4.000000,4.000000,4.000000,4.000000,4.000000,4.000000,4.000000,100.000000,,,,,,,,,,,,,,,,
1644852865.987111,48.000000,0.000000,4223.077148,4221.282227,4249.358887,4198.846191,4203.077148,4203.205078,4203.333496,4208.205078,4207.692383,4214.871582,4182.820313,4198.077148,4181.666504,4222.307617,0.000000,4.000000,91.000000,,,,0.000000,4.000000,4.000000,4.000000,4.000000,4.000000,4.000000,4.000000,4.000000,4.000000,4.000000,4.000000,4.000000,4.000000,4.000000,100.000000,,,,,,,,,,,,,,,,
1644852865.991151,49.000000,0.000000,4227.692383,4222.051270,4251.282227,4198.974121,4202.820313,4208.077148,4207.948730,4207.820313,4206.282227,4213.461426,4189.358887,4195.897461,4188.461426,4233.589844,0.000000,4.000000,91.000000,,,,0.000000,4.000000,4.000000,4.000000,4.000000,4.000000,4.000000,4.000000,4.000000,4.000000,4.000000,4.000000,4.000000,4.000000,4.000000,100.000000,,,,,,,,,,,,,,,,
1644852865.995091,50.000000,0.000000,4232.948730,4222.820313,4256.410156,4203.333496,4208.589844,4213.589844,4212.948730,4208.205078,4205.128418,4213.589844,4196.666504,4198.461426,4194.230957,4245.641113,0.000000,4.000000,91.000000,,,,0.000000,4.000000,4.000000,4.000000,4.000000,4.000000,4.000000,4.000000,4.000000,4.000000,4.000000,4.000000,4.000000,4.000000,4.000000,100.000000,,,,,,,,,,,,,,,,
1644852865.999032,51.000000,0.000000,4237.820313,4225.512695,4261.025879,4208.974121,4219.358887,4217.563965,4215.897461,4208.461426,4205.641113,4216.538574,4201.282227,4206.794922,4196.666504,4251.025879,0.000000,4.000000,91.000000,,,,0.000000,4.000000,4.000000,4.000000,4.000000,4.000000,4.000000,4.000000,4.000000,4.000000,4.000000,4.000000,4.000000,4.000000,4.000000,100.000000,,,,,,,,,,,,,,,,
1644852866.002972,52.000000,0.000000,4241.282227,4228.974121,4262.051270,4212.436035,4229.743652,4218.846191,4216.666504,4209.102539,4206.922852,4220.769043,4200.128418,4216.410156,4195.000000,4246.794922,0.000000,4.000000,91.000000,,,,0.000000,4.000000,4.000000,4.000000,4.000000,4.000000,4.000000,4.000000,4.000000,4.000000,4.000000,4.000000,4.000000,4.000000,4.000000,100.000000,,,,,,,,,,,,,,,,
1644852866.006912,53.000000,0.000000,4242.948730,4229.615234,4258.205078,4211.794922,4232.307617,4218.077148,4216.282227,4209.871582,4207.692383,4222.820313,4193.461426,4220.384766,4190.897461,4236.538574,0.000000,4.000000,91.000000,,,,0.000000,4.000000,4.000000,4.000000,4.000000,4.000000,4.000000,4.000000,4.000000,4.000000,4.000000,4.000000,4.000000,4.000000,4.000000,100.000000,,,,,,,,,,,,,,,,
1644852866.010852,54.000000,0.000000,4242.436035,4225.769043,4251.538574,4207.307617,4223.589844,4217.051270,4214.615234,4210.000000,4207.179688,4220.641113,4185.769043,4214.743652,4187.436035,4227.307617,0.000000,4.000000,91.000000,,,,0.000000,4.000000,4.000000,4.000000,4.000000,4.000000,4.000000,4.000000,4.000000,4.000000,4.000000,4.000000,4.000000,4.000000,4.000000,100.000000,,,,,,,,,,,,,,,,
1644852866.014792,55.000000,0.000000,4239.230957,4219.615234,4245.000000,4201.282227,4207.307617,4216.538574,4211.794922,4208.974121,4205.641113,4215.512695,4182.563965,4202.436035,4187.563965,4224.615234,0.000000,4.000000,91.000000,,,,0.000000,4.000000,4.000000,4.000000,4.000000,4.000000,4.000000,4.000000,4.000000,4.000000,4.000000,4.000000,4.000000,4.000000,4.000000,100.000000,,,,,,,,,,,,,,,,
1644852866.018732,56.000000,0.000000,4234.102539,4215.769043,4241.794922,4195.641113,4193.461426,4216.666504,4209.615234,4207.692383,4203.846191,4211.282227,4186.666504,4190.897461,4191.538574,4228.974121,0.000000,4.000000,91.000000,,,,0.000000,4.000000,4.000000,4.000000,4.000000,4.000000,4.000000,4.000000,4.000000,4.000000,4.000000,4.000000,4.000000,4.000000,4.000000,100.000000,,,,,,,,,,,,,,,,
1644852866.022672,57.000000,0.000000,4228.589844,4217.051270,4242.692383,4191.922852,4191.025879,4216.410156,4210.512695,4207.948730,4203.589844,4211.538574,4195.128418,4186.794922,4196.922852,4236.025879,0.000000,4.000000,91.000000,,,,0.000000,4.000000,4.000000,4.000000,4.000000,4.000000,4.000000,4.000000,4.000000,4.000000,4.000000,4.000000,4.000000,4.000000,4.000000,100.000000,,,,,,,,,,,,,,,,
1644852866.026612,58.000000,0.000000,4225.128418,4221.922852,4246.410156,4189.615234,4201.410156,4215.512695,4214.230957,4210.256348,4205.512695,4216.666504,4202.563965,4191.153809,4200.384766,4240.256348,0.000000,4.000000,91.000000,,,,0.000000,4.000000,4.000000,4.000000,4.000000,4.000000,4.000000,4.000000,4.000000,4.000000,4.000000,4.000000,4.000000,4.000000,4.000000,100.000000,,,,,,,,,,,,,,,,
1644852866.030552,59.000000,0.000000,4225.128418,4226.794922,4249.615234,4188.077148,4217.563965,4214.487305,4217.307617,4213.589844,4209.487305,4223.077148,4205.256348,4199.487305,4200.256348,4238.717773,0.000000,4.000000,91.000000,,,,0.000000,4.000000,4.000000,4.000000,4.000000,4.000000,4.000000,4.000000,4.000000,4.000000,4.000000,4.000000,4.000000,4.000000,4.000000,100.000000,,,,,,,,,,,,,,,,
1644852866.034493,60.000000,0.000000,4228.077148,4228.974121,4250.000000,4187.179688,4230.384766,4214.358887,4216.922852,4216.794922,4214.487305,4226.794922,4203.205078,4205.641113,4197.563965,4233.589844,0.000000,4.000000,91.000000,,,,0.000000,4.000000,4.000000,4.000000,4.000000,4.000000,4.000000,4.000000,4.000000,4.000000,4.000000,4.000000,4.000000,4.000000,4.000000,100.000000,,,,,,,,,,,,,,,,
1644852866.038433,61.000000,0.000000,4232.436035,4228.589844,4247.179688,4188.077148,4234.871582,4215.512695,4214.230957,4218.717773,4218.589844,4226.153809,4198.846191,4206.153809,4195.128418,4229.230957,0.000000,4.000000,91.000000,,,,0.000000,4.000000,4.000000,4.000000,4.000000,4.000000,4.000000,4.000000,4.000000,4.000000,4.000000,4.000000,4.000000,4.000000,4.000000,100.000000,,,,,,,,,,,,,,,,
1644852866.042373,62.000000,0.000000,4235.769043,4227.051270,4242.692383,4191.025879,4231.025879,4217.179688,4212.948730,4219.871582,4220.128418,4222.820313,4194.230957,4202.307617,4195.384766,4229.871582,0.000000,4.000000,91.000000,,,,0.000000,4.000000,4.000000,4.000000,4.000000,4.000000,4.000000,4.000000,4.000000,4.000000,4.000000,4.000000,4.000000,4.000000,4.000000,100.000000,,,,,,,,,,,,,,,,
1644852866.046313,63.000000,0.000000,4236.282227,4224.743652,4238.589844,4195.000000,4222.436035,4218.333496,4215.256348,4220.384766,4218.333496,4219.358887,4190.769043,4197.307617,4198.974121,4235.897461,0.000000,4.000000,91.000000,,,,0.000000,4.000000,4.000000,4.000000,4.000000,4.000000,4.000000,4.000000,4.000000,4.000000,4.000000,4.000000,4.000000,4.000000,4.000000,100.000000,,,,,,,,,,,,,,,,
1644852866.050253,64.000000,0.000000,4233.205078,4221.025879,4236.538574,4198.589844,4213.461426,4218.461426,4218.333496,4220.256348,4214.871582,4217.948730,4188.974121,4194.487305,4203.589844,4244.358887,0.000000,4.000000,91.000000,,,,0.000000,4.000000,4.000000,4.000000,4.000000,4.000000,4.000000,4.000000,4.000000,4.000000,4.000000,4.000000,4.000000,4.000000,4.000000,100.000000,,,,,,,,,,,,,,,,
1644852866.054193,65.000000,0.000000,4227.436035,4215.512695,4236.922852,4201.666504,4207.692383,4217.307617,4217.563965,4218.717773,4212.307617,4218.974121,4188.589844,4194.358887,4205.512695,4249.871582,0.000000,4.000000,91.000000,,,,0.000000,4.000000,4.000000,4.000000,4.000000,4.000000,4.000000,4.000000,4.000000,4.000000,4.000000,4.000000,4.000000,4.000000,4.000000,100.000000,,,,,,,,,,,,,,,,
1644852866.058133,66.000000,0.000000,4221.282227,4209.358887,4239.358887,4204.102539,4205.897461,4215.256348,4212.307617,4215.256348,4211.153809,4220.769043,4189.615234,4195.512695,4202.307617,4248.461426,0.000000,4.000000,91.000000,,,,0.000000,4.000000,4.000000,4.000000,4.000000,4.000000,4.000000,4.000000,4.000000,4.000000,4.000000,4.000000,4.000000,4.000000,4.000000,100.000000,,,,,,,,,,,,,,,,
1644852866.062073,67.000000,0.000000,4218.333496,4206.410156,4242.436035,4204.871582,4206.538574,4213.205078,4206.794922,4211.922852,4210.641113,4221.666504,4192.307617,4197.179688,4195.897461,4240.512695,0.000000,4.000000,91.000000,,,,0.000000,4.000000,4.000000,4.000000,4.000000,4.000000,4.000000,4.000000,4.000000,4.000000,4.000000,4.000000,4.000000,4.000000,4.000000,100.000000,,,,,,,,,,,,,,,,
1644852866.065913,68.000000,0.000000,4220.384766,4209.871582,4245.512695,4201.794922,4207.820313,4212.692383,4206.282227,4211.153809,4209.487305,4220.512695,4197.563965,4199.743652,4191.794922,4230.641113,0.000000,4.000000,91.000000,,,,0.000000,4.000000,4.000000,4.000000,4.000000,4.000000,4.000000,4.000000,4.000000,4.000000,4.000000,4.000000,4.000000,4.000000,4.000000,100.000000,,,,,,,,,,,,,,,,
1644852866.069854,69.000000,0.000000,4226.282227,4218.589844,4248.205078,4194.871582,4209.358887,4215.256348,4211.410156,4213.974121,4208.461426,4218.846191,4204.230957,4203.077148,4194.358887,4225.897461,0.000000,4.000000,91.000000,,,,0.000000,4.000000,4.000000,4.000000,4.000000,4.000000,4.000000,4.000000,4.000000,4.000000,4.000000,4.000000,4.000000,4.000000,4.000000,100.000000,,,,,,,,,,,,,,,,
1644852866.073794,70.000000,0.000000,4232.051270,4226.538574,4250.000000,4187.051270,4211.538574,4220.256348,4217.692383,4218.717773,4209.102539,4219.230957,4208.461426,4205.512695,4201.666504,4230.000000,0.000000,4.000000,91.000000,,,,0.000000,4.000000,4.000000,4.000000,4.000000,4.000000,4.000000,4.000000,4.000000,4.000000,4.000000,4.000000,4.000000,4.000000,4.000000,100.000000,,,,,,,,,,,,,,,,
1644852866.077734,71.000000,0.000000,4233.846191,4227.692383,4250.000000,4182.692383,4213.846191,4225.128418,4220.769043,4222.051270,4211.538574,4222.692383,4206.538574,4204.358887,4207.307617,4240.512695,0.000000,4.000000,91.000000,,,,0.000000,4.000000,4.000000,4.000000,4.000000,4.000000,4.000000,4.000000,4.000000,4.000000,4.000000,4.000000,4.000000,4.000000,4.000000,100.000000,,,,,,,,,,,,,,,,
1644852866.081674,72.000000,0.000000,4230.897461,4221.922852,4248.077148,4182.948730,4214.871582,4226.794922,4219.615234,4221.666504,4213.846191,4227.307617,4198.461426,4198.333496,4205.769043,4250.512695,0.000000,4.000000,91.000000,,,,0.000000,4.000000,4.000000,4.000000,4.000000,4.000000,4.000000,4.000000,4.000000,4.000000,4.000000,4.000000,4.000000,4.000000,4.000000,100.000000,,,,,,,,,,,,,,,,
1644852866.085614,73.000000,0.000000,4225.641113,4214.743652,4245.128418,4185.897461,4214.615234,4223.846191,4215.769043,4217.307617,4214.615234,4229.743652,4189.230957,4189.871582,4198.205078,4253.461426,0.000000,4.000000,91.000000,,,,0.000000,4.000000,4.000000,4.000000,4.000000,4.000000,4.000000,4.000000,4.000000,4.000000,4.000000,4.000000,4.000000,4.000000,4.000000,100.000000,,,,,,,,,,,,,,,,
1644852866.089554,74.000000,0.000000,4222.307617,4212.436035,4242.563965,4188.333496,4214.358887,4218.717773,4211.666504,4210.897461,4213.333496,4228.205078,4185.128418,4184.230957,4191.666504,4248.717773,0.000000,4.000000,91.000000,,,,0.000000,4.000000,4.000000,4.000000,4.000000,4.000000,4.000000,4.000000,4.000000,4.000000,4.000000,4.000000,4.000000,4.000000,4.000000,100.000000,,,,,,,,,,,,,,,,
1644852866.093494,75.000000,0.000000,4223.077148,4216.282227,4241.410156,4189.102539,4216.153809,4215.641113,4208.461426,4205.769043,4211.282227,4224.102539,4188.974121,4185.000000,4192.820313,4242.179688,0.000000,4.000000,91.000000,,,,0.000000,4.000000,4.000000,4.000000,4.000000,4.000000,4.000000,4.000000,4.000000,4.000000,4.000000,4.000000,4.000000,4.000000,4.000000,100.000000,,,,,,,,,,,,,,,,
1644852866.097434,76.000000,0.000000,4227.563965,4221.538574,4241.666504,4188.974121,4220.256348,4217.307617,4207.307617,4204.487305,4210.128418,4220.769043,4198.333496,4191.538574,4202.563965,4239.871582,0.000000,4.000000,91.000000,,,,0.000000,4.000000,4.000000,4.000000,4.000000,4.000000,4.000000,4.000000,4.000000,4.000000,4.000000,4.000000,4.000000,4.000000,4.000000,100.000000,,,,,,,,,,,,,,,,
1644852866.101374,77.000000,0.000000,4232.436035,4221.922852,4242.692383,4189.358887,4225.000000,4223.077148,4209.487305,4207.179688,4211.282227,4220.769043,4207.179688,4199.230957,4215.641113,4242.948730,0.000000,4.000000,91.000000,,,,0.000000,4.000000,4.000000,4.000000,4.000000,4.000000,4.000000,4.000000,4.000000,4.000000,4.000000,4.000000,4.000000,4.000000,4.000000,100.000000,,,,,,,,,,,,,,,,
1644852866.105315,78.000000,0.000000,4233.461426,4215.128418,4243.589844,4192.436035,4227.436035,4229.230957,4214.230957,4211.666504,4214.743652,4225.000000,4210.769043,4202.948730,4225.000000,4246.025879,0.000000,4.000000,91.000000,,,,0.000000,4.000000,4.000000,4.000000,4.000000,4.000000,4.000000,4.000000,4.000000,4.000000,4.000000,4.000000,4.000000,4.000000,4.000000,100.000000,,,,,,,,,,,,,,,,
1644852866.109255,79.000000,0.000000,4229.230957,4205.256348,4243.717773,4198.589844,4225.512695,4232.051270,4218.333496,4215.512695,4219.102539,4231.794922,4208.589844,4201.025879,4227.179688,4243.589844,0.000000,4.000000,91.000000,,,,0.000000,4.000000,4.000000,4.000000,4.000000,4.000000,4.000000,4.000000,4.000000,4.000000,4.000000,4.000000,4.000000,4.000000,4.000000,100.000000,,,,,,,,,,,,,,,,
1644852866.113195,80.000000,0.000000,4221.922852,4198.974121,4242.948730,4205.256348,4219.743652,4230.641113,4218.461426,4216.538574,4222.179688,4237.436035,4204.102539,4196.025879,4223.717773,4235.384766,0.000000,4.000000,91.000000,,,,0.000000,4.000000,4.000000,4.000000,4.000000,4.000000,4.000000,4.000000,4.000000,4.000000,4.000000,4.000000,4.000000,4.000000,4.000000,100.000000,,,,,,,,,,,,,,,,
1644852866.117135,81.000000,0.000000,4215.897461,4199.615234,4241.922852,4207.436035,4213.205078,4226.025879,4215.000000,4215.000000,4222.179688,4238.974121,4201.025879,4192.436035,4218.461426,4226.922852,0.000000,4.000000,91.000000,,,,0.000000,4.000000,4.000000,4.000000,4.000000,4.000000,4.000000,4.000000,4.000000,4.000000,4.000000,4.000000,4.000000,4.000000,4.000000,100.000000,,,,,,,,,,,,,,,,
1644852866.121075,82.000000,0.000000,4213.846191,4204.358887,4241.282227,4201.794922,4210.000000,4220.641113,4211.538574,4212.692383,4218.846191,4235.256348,4200.897461,4192.692383,4215.000000,4223.333496,0.000000,4.000000,91.000000,,,,0.000000,4.000000,4.000000,4.000000,4.000000,4.000000,4.000000,4.000000,4.000000,4.000000,4.000000,4.000000,4.000000,4.000000,4.000000,100.000000,,,,,,,,,,,,,,,,
1644852866.125015,83.000000,0.000000,4215.769043,4207.820313,4241.538574,4191.410156,4212.563965,4217.051270,4211.666504,4211.922852,4213.974121,4228.717773,4202.820313,4196.153809,4213.974121,4225.769043,0.000000,4.000000,91.000000,,,,0.000000,4.000000,4.000000,4.000000,4.000000,4.000000,4.000000,4.000000,4.000000,4.000000,4.000000,4.000000,4.000000,4.000000,4.000000,100.000000,,,,,,,,,,,,,,,,
1644852866.128955,84.000000,0.000000,4219.230957,4207.051270,4241.666504,4183.589844,4220.256348,4216.153809,4214.487305,4213.846191,4210.384766,4223.846191,4205.128418,4199.871582,4214.615234,4230.641113,0.000000,4.000000,91.000000,,,,0.000000,4.000000,4.000000,4.000000,4.000000,4.000000,4.000000,4.000000,4.000000,4.000000,4.000000,4.000000,4.000000,4.000000,4.000000,100.000000,,,,,,,,,,,,,,,,
1644852866.132895,85.000000,0.000000,4222.692383,4203.205078,4241.538574,4183.461426,4229.102539,4217.820313,4216.794922,4217.563965,4210.897461,4224.358887,4207.436035,4201.794922,4216.282227,4234.230957,0.000000,4.000000,91.000000,,,,0.000000,4.000000,4.000000,4.000000,4.000000,4.000000,4.000000,4.000000,4.000000,4.000000,4.000000,4.000000,4.000000,4.000000,4.000000,100.000000,,,,,,,,,,,,,,,,
1644852866.136835,86.000000,0.000000,4226.025879,4200.641113,4242.051270,4189.487305,4233.717773,4221.282227,4216.794922,4221.538574,4215.641113,4230.769043,4210.384766,4202.436035,4218.846191,4235.641113,0.000000,4.000000,91.000000,,,,0.000000,4.000000,4.000000,4.000000,4.000000,4.000000,4.000000,4.000000,4.000000,4.000000,4.000000,4.000000,4.000000,4.000000,4.000000,100.000000,1.000000,91.666664,4.000000,4.000000,4.000000,4.000000,3.000000,4.000000,4.000000,4.000000,4.000000,4.000000,4.000000,4.000000,4.000000,4.000000
1644852866.140676,87.000000,0.000000,4228.846191,4202.563965,4244.102539,4195.384766,4230.897461,4225.512695,4216.410156,4224.487305,4221.922852,4239.358887,4214.358887,4203.589844,4222.563965,4236.410156,0.000000,4.000000,91.000000,,,,0.000000,4.000000,4.000000,4.000000,4.000000,4.000000,4.000000,4.000000,4.000000,4.000000,4.000000,4.000000,4.000000,4.000000,4.000000,100.000000,,,,,,,,,,,,,,,,
1644852866.144616,88.000000,0.000000,4229.615234,4208.461426,4247.307617,4194.743652,4222.692383,4229.230957,4217.948730,4225.897461,4226.153809,4244.743652,4218.461426,4205.897461,4226.282227,4236.666504,0.000000,4.000000,91.000000,,,,0.000000,4.000000,4.000000,4.000000,4.000000,4.000000,4.000000,4.000000,4.000000,4.000000,4.000000,4.000000,4.000000,4.000000,4.000000,100.000000,,,,,,,,,,,,,,,,
1644852866.148556,89.000000,0.000000,4226.922852,4213.589844,4249.487305,4186.410156,4215.128418,4231.282227,4221.025879,4225.000000,4225.512695,4243.333496,4220.641113,4207.436035,4227.820313,4234.871582,0.000000,4.000000,91.000000,,,,0.000000,4.000000,4.000000,4.000000,4.000000,4.000000,4.000000,4.000000,4.000000,4.000000,4.000000,4.000000,4.000000,4.000000,4.000000,100.000000,,,,,,,,,,,,,,,,
1644852866.152496,90.000000,0.000000,4220.897461,4213.589844,4248.077148,4174.230957,4213.205078,4231.666504,4222.563965,4221.282227,4220.897461,4235.769043,4220.128418,4206.666504,4225.897461,4229.102539,0.000000,4.000000,91.000000,,,,0.000000,4.000000,4.000000,4.000000,4.000000,4.000000,4.000000,4.000000,4.000000,4.000000,4.000000,4.000000,4.000000,4.000000,4.000000,100.000000,,,,,,,,,,,,,,,,
1644852866.156436,91.000000,0.000000,4213.846191,4207.307617,4242.563965,4164.230957,4216.666504,4231.153809,4221.153809,4216.153809,4215.128418,4226.025879,4217.179688,4202.820313,4221.410156,4219.871582,0.000000,4.000000,91.000000,,,,0.000000,4.000000,4.000000,4.000000,4.000000,4.000000,4.000000,4.000000,4.000000,4.000000,4.000000,4.000000,4.000000,4.000000,4.000000,100.000000,,,,,,,,,,,,,,,,
1644852866.160376,92.000000,0.000000,4208.846191,4197.563965,4235.256348,4160.256348,4220.512695,4230.128418,4219.230957,4211.666504,4210.641113,4218.205078,4212.692383,4196.666504,4217.307617,4209.743652,0.000000,4.000000,91.000000,,,,0.000000,4.000000,4.000000,4.000000,4.000000,4.000000,4.000000,4.000000,4.000000,4.000000,4.000000,4.000000,4.000000,4.000000,4.000000,100.000000,,,,,,,,,,,,,,,,
1644852866.164216,93.000000,0.000000,4206.794922,4188.974121,4229.358887,4162.307617,4219.871582,4228.589844,4219.230957,4209.487305,4208.846191,4213.974121,4208.077148,4191.025879,4216.794922,4201.794922,0.000000,4.000000,91.000000,,,,0.000000,4.000000,4.000000,4.000000,4.000000,4.000000,4.000000,4.000000,4.000000,4.000000,4.000000,4.000000,4.000000,4.000000,4.000000,100.000000,,,,,,,,,,,,,,,,
1644852866.168156,94.000000,0.000000,4207.051270,4185.769043,4227.692383,4168.077148,4214.358887,4226.282227,4221.025879,4209.615234,4209.358887,4213.717773,4205.641113,4189.102539,4221.410156,4197.948730,0.000000,4.000000,91.000000,,,,0.000000,4.000000,4.000000,4.000000,4.000000,4.000000,4.000000,4.000000,4.000000,4.000000,4.000000,4.000000,4.000000,4.000000,4.000000,100.000000,,,,,,,,,,,,,,,,
1644852866.172097,95.000000,0.000000,4209.102539,4190.384766,4230.128418,4174.615234,4209.230957,4223.589844,4221.666504,4210.641113,4211.282227,4216.922852,4207.179688,4192.307617,4230.897461,4198.846191,0.000000,4.000000,91.000000,,,,0.000000,4.000000,4.000000,4.000000,4.000000,4.000000,4.000000,4.000000,4.000000,4.000000,4.000000,4.000000,4.000000,4.000000,4.000000,100.000000,,,,,,,,,,,,,,,,
1644852866.175937,96.000000,0.000000,4212.820313,4201.666504,4235.256348,4180.769043,4209.615234,4221.282227,4219.487305,4212.436035,4214.102539,4223.461426,4213.205078,4199.230957,4243.077148,4203.717773,0.000000,4.000000,91.000000,,,,0.000000,4.000000,4.000000,4.000000,4.000000,4.000000,4.000000,4.000000,4.000000,4.000000,4.000000,4.000000,4.000000,4.000000,4.000000,100.000000,,,,,,,,,,,,,,,,
1644852866.179877,97.000000,0.000000,4218.974121,4215.512695,4241.025879,4187.948730,4216.410156,4220.384766,4216.538574,4215.000000,4217.820313,4231.794922,4221.666504,4206.794922,4255.769043,4211.410156,0.000000,4.000000,91.000000,,,,0.000000,4.000000,4.000000,4.000000,4.000000,4.000000,4.000000,4.000000,4.000000,4.000000,4.000000,4.000000,4.000000,4.000000,4.000000,100.000000,,,,,,,,,,,,,,,,
1644852866.183817,98.000000,0.000000,4227.307617,4226.282227,4245.897461,4196.538574,4225.000000,4220.512695,4216.153809,4218.461426,4221.410156,4239.615234,4229.102539,4212.051270,4266.666504,4219.487305,0.000000,4.000000,91.000000,,,,0.000000,4.000000,4.000000,4.000000,4.000000,4.000000,4.000000,4.000000,4.000000,4.000000,4.000000,4.000000,4.000000,4.000000,4.000000,100.000000,,,,,,,,,,,,,,,,
1644852866.187757,99.000000,0.000000,4236.922852,4230.769043,4249.615234,4204.358887,4229.743652,4220.769043,4218.333496,4221.410156,4223.589844,4244.358887,4233.461426,4214.487305,4275.384766,4226.922852,0.000000,4.000000,91.000000,,,,0.000000,4.000000,4.000000,4.000000,4.000000,4.000000,4.000000,4.000000,4.000000,4.000000,4.000000,4.000000,4.000000,4.000000,4.000000,100.000000,,,,,,,,,,,,,,,,
1644852866.191697,100.000000,0.000000,4247.051270,4230.000000,4252.948730,4207.948730,4228.974121,4220.256348,4220.512695,4222.051270,4223.589844,4245.641113,4236.025879,4215.769043,4284.230957,4234.230957,0.000000,4.000000,91.000000,,,,0.000000,4.000000,4.000000,4.000000,4.000000,4.000000,4.000000,4.000000,4.000000,4.000000,4.000000,4.000000,4.000000,4.000000,4.000000,100.000000,,,,,,,,,,,,,,,,
1644852866.195637,101.000000,0.000000,4257.692383,4228.717773,4257.179688,4205.384766,4225.000000,4219.487305,4220.384766,4219.871582,4222.051270,4244.743652,4239.615234,4219.230957,4297.307617,4243.589844,0.000000,4.000000,91.000000,,,,0.000000,4.000000,4.000000,4.000000,4.000000,4.000000,4.000000,4.000000,4.000000,4.000000,4.000000,4.000000,4.000000,4.000000,4.000000,100.000000,,,,,,,,,,,,,,,,
1644852866.199577,102.000000,0.000000,4268.333496,4231.410156,4263.205078,4199.615234,4220.256348,4219.358887,4218.717773,4217.179688,4220.128418,4243.205078,4246.153809,4226.538574,4317.179688,4257.563965,0.000000,4.000000,91.000000,,,,0.000000,4.000000,4.000000,4.000000,4.000000,4.000000,4.000000,4.000000,4.000000,4.000000,4.000000,4.000000,4.000000,4.000000,4.000000,100.000000,,,,,,,,,,,,,,,,
1644852866.203517,103.000000,0.000000,4278.077148,4238.846191,4270.512695,4195.769043,4216.153809,4220.512695,4217.948730,4216.538574,4218.077148,4241.666504,4254.102539,4236.410156,4343.077148,4277.179688,0.000000,4.000000,91.000000,,,,0.000000,4.000000,4.000000,4.000000,4.000000,4.000000,4.000000,4.000000,4.000000,4.000000,4.000000,4.000000,4.000000,4.000000,4.000000,100.000000,,,,,,,,,,,,,,,,
1644852866.207458,104.000000,0.000000,4286.794922,4248.589844,4277.820313,4197.436035,4214.102539,4222.179688,4218.461426,4218.717773,4216.025879,4240.512695,4260.897461,4246.153809,4370.897461,4303.205078,0.000000,4.000000,91.000000,,,,0.000000,4.000000,4.000000,4.000000,4.000000,4.000000,4.000000,4.000000,4.000000,4.000000,4.000000,4.000000,4.000000,4.000000,4.000000,100.000000,,,,,,,,,,,,,,,,
1644852866.211398,105.000000,0.000000,4296.025879,4257.307617,4284.743652,4204.230957,4216.153809,4222.820313,4218.077148,4222.179688,4214.615234,4240.897461,4265.512695,4253.846191,4397.820313,4336.025879,0.000000,4.000000,91.000000,,,,0.000000,4.000000,4.000000,4.000000,4.000000,4.000000,4.000000,4.000000,4.000000,4.000000,4.000000,4.000000,4.000000,4.000000,4.000000,100.000000,,,,,,,,,,,,,,,,
1644852866.215238,106.000000,0.000000,4307.948730,4264.102539,4291.410156,4213.461426,4222.307617,4221.666504,4215.384766,4224.102539,4214.487305,4243.077148,4269.743652,4259.615234,4424.230957,4376.025879,0.000000,4.000000,91.000000,,,,0.000000,4.000000,4.000000,4.000000,4.000000,4.000000,4.000000,4.000000,4.000000,4.000000,4.000000,4.000000,4.000000,4.000000,4.000000,100.000000,,,,,,,,,,,,,,,,
1644852866.219178,107.000000,0.000000,4323.333496,4268.846191,4296.538574,4222.820313,4228.717773,4218.589844,4211.922852,4222.948730,4215.384766,4246.282227,4275.641113,4264.102539,4452.307617,4421.922852,0.000000,4.000000,91.000000,,,,0.000000,4.000000,4.000000,4.000000,4.000000,4.000000,4.000000,4.000000,4.000000,4.000000,4.000000,4.000000,4.000000,4.000000,4.000000,100.000000,,,,,,,,,,,,,,,,
1644852866.223118,108.000000,0.000000,4339.487305,4271.410156,4298.717773,4231.282227,4230.128418,4214.743652,4210.641113,4219.487305,4215.512695,4247.692383,4283.205078,4267.563965,4483.589844,4471.538574,0.000000,4.000000,91.000000,,,,0.000000,4.000000,4.000000,4.000000,4.000000,4.000000,4.000000,4.000000,4.000000,4.000000,4.000000,4.000000,4.000000,4.000000,4.000000,100.000000,,,,,,,,,,,,,,,,
1644852866.227058,109.000000,0.000000,4352.179688,4271.794922,4297.820313,4237.051270,4224.871582,4211.794922,4212.307617,4216.794922,4214.615234,4246.025879,4290.256348,4269.871582,4518.846191,4524.358887,0.000000,4.000000,91.000000,,,,0.000000,4.000000,4.000000,4.000000,4.000000,4.000000,4.000000,4.000000,4.000000,4.000000,4.000000,4.000000,4.000000,4.000000,4.000000,100.000000,,,,,,,,,,,,,,,,
1644852866.230998,110.000000,0.000000,4357.692383,4271.410156,4296.153809,4238.717773,4217.820313,4211.666504,4215.128418,4217.692383,4214.358887,4243.333496,4295.512695,4272.692383,4560.512695,4582.436035,0.000000,4.000000,91.000000,,,,0.000000,4.000000,4.000000,4.000000,4.000000,4.000000,4.000000,4.000000,4.000000,4.000000,4.000000,4.000000,4.000000,4.000000,4.000000,100.000000,,,,,,,,,,,,,,,,
1644852866.234938,111.000000,0.000000,4356.538574,4272.307617,4296.794922,4235.641113,4215.256348,4215.000000,4216.538574,4222.179688,4217.436035,4243.333496,4300.128418,4277.563965,4614.871582,4647.436035,0.000000,4.000000,91.000000,,,,0.000000,4.000000,4.000000,4.000000,4.000000,4.000000,4.000000,4.000000,4.000000,4.000000,4.000000,4.000000,4.000000,4.000000,4.000000,100.000000,,,,,,,,,,,,,,,,
1644852866.238879,112.000000,0.000000,4352.051270,4275.256348,4301.282227,4229.230957,4219.358887,4220.000000,4216.410156,4227.820313,4223.717773,4248.589844,4306.538574,4283.461426,4690.769043,4717.563965,0.000000,4.000000,91.000000,,,,0.000000,4.000000,4.000000,4.000000,4.000000,4.000000,4.000000,4.000000,4.000000,4.000000,4.000000,4.000000,4.000000,4.000000,4.000000,100.000000,,,,,,,,,,,,,,,,
1644852866.242819,113.000000,0.000000,4347.307617,4278.205078,4307.820313,4222.563965,4226.666504,4223.589844,4216.410156,4231.153809,4229.615234,4257.179688,4315.384766,4286.794922,4794.743652,4784.871582,0.000000,4.000000,91.000000,,,,0.000000,4.000000,4.000000,4.000000,4.000000,4.000000,4.000000,4.000000,4.000000,4.000000,4.000000,4.000000,4.000000,4.000000,4.000000,100.000000,,,,,,,,,,,,,,,,
1644852866.246759,114.000000,0.000000,4344.102539,4277.820313,4312.179688,4218.077148,4231.282227,4223.461426,4216.922852,4230.384766,4231.282227,4264.358887,4323.077148,4283.846191,4922.051270,4837.820313,0.000000,4.000000,91.000000,,,,0.000000,4.000000,4.000000,4.000000,4.000000,4.000000,4.000000,4.000000,4.000000,4.000000,4.000000,4.000000,4.000000,4.000000,4.000000,100.000000,,,,,,,,,,,,,,,,
1644852866.250699,115.000000,0.000000,4342.692383,4272.179688,4309.743652,4216.153809,4230.512695,4219.871582,4216.666504,4226.025879,4227.692383,4265.641113,4324.230957,4274.871582,5053.333496,4868.589844,0.000000,4.000000,91.000000,,,,0.000000,4.000000,4.000000,4.000000,4.000000,4.000000,4.000000,4.000000,4.000000,4.000000,4.000000,4.000000,4.000000,4.000000,4.000000,100.000000,,,,,,,,,,,,,,,,
1644852866.254639,116.000000,0.000000,4342.051270,4262.820313,4299.871582,4216.666504,4225.512695,4215.128418,4214.743652,4220.769043,4221.282227,4260.897461,4316.410156,4266.025879,5159.230957,4879.230957,0.000000,4.000000,91.000000,,,,0.000000,4.000000,4.000000,4.000000,4.000000,4.000000,4.000000,4.000000,4.000000,4.000000,4.000000,4.000000,4.000000,4.000000,4.000000,100.000000,,,,,,,,,,,,,,,,
1644852866.258579,117.000000,0.000000,4338.846191,4253.846191,4287.307617,4218.589844,4219.871582,4212.307617,4212.307617,4217.436035,4216.025879,4254.102539,4303.589844,4264.230957,5216.538574,4883.077148,0.000000,4.000000,91.000000,,,,0.000000,4.000000,4.000000,4.000000,4.000000,4.000000,4.000000,4.000000,4.000000,4.000000,4.000000,4.000000,4.000000,4.000000,4.000000,100.000000,,,,,,,,,,,,,,,,
1644852866.262519,118.000000,0.000000,4329.230957,4248.974121,4279.871582,4221.153809,4217.051270,4212.563965,4211.922852,4217.692383,4214.615234,4250.000000,4294.871582,4271.025879,5223.077148,4896.922852,0.000000,4.000000,91.000000,,,,0.000000,4.000000,4.000000,4.000000,4.000000,4.000000,4.000000,4.000000,4.000000,4.000000,4.000000,4.000000,4.000000,4.000000,4.000000,100.000000,,,,,,,,,,,,,,,,
1644852866.266459,119.000000,0.000000,4313.589844,4248.717773,4281.794922,4222.692383,4218.846191,4215.000000,4214.230957,4221.794922,4216.794922,4250.000000,4298.333496,4280.769043,5199.358887,4930.512695,0.000000,4.000000,91.000000,,,,0.000000,4.000000,4.000000,4.000000,4.000000,4.000000,4.000000,4.000000,4.000000,4.000000,4.000000,4.000000,4.000000,4.000000,4.000000,100.000000,,,,,,,,,,,,,,,,
1644852866.270399,120.000000,0.000000,4298.461426,4250.641113,4290.000000,4221.282227,4223.589844,4217.179688,4216.666504,4227.179688,4220.384766,4252.051270,4314.871582,4285.256348,5174.615234,4978.461426,0.000000,4.000000,91.000000,,,,0.000000,4.000000,4.000000,4.000000,4.000000,4.000000,4.000000,4.000000,4.000000,4.000000,4.000000,4.000000,4.000000,4.000000,4.000000,100.000000,,,,,,,,,,,,,,,,
1644852866.274339,121.000000,0.000000,4292.563965,4250.769043,4296.282227,4216.025879,4225.256348,4217.307617,4216.538574,4230.769043,4222.436035,4252.307617,4336.153809,4280.384766,5167.436035,5023.333496,0.000000,4.000000,91.000000,,,,0.000000,4.000000,4.000000,4.000000,4.000000,4.000000,4.000000,4.000000,4.000000,4.000000,4.000000,4.000000,4.000000,4.000000,4.000000,100.000000,,,,,,,,,,,,,,,,
1644852866.278280,122.000000,0.000000,4299.487305,4246.538574,4293.846191,4207.948730,4217.948730,4215.384766,4213.974121,4230.769043,4221.410156,4248.589844,4349.615234,4268.717773,5179.230957,5048.974121,0.000000,4.000000,91.000000,,,,0.000000,4.000000,4.000000,4.000000,4.000000,4.000000,4.000000,4.000000,4.000000,4.000000,4.000000,4.000000,4.000000,4.000000,4.000000,100.000000,,,,,,,,,,,,,,,,
1644852866.282220,123.000000,0.000000,4315.384766,4238.846191,4282.948730,4199.871582,4202.436035,4212.179688,4212.179688,4228.205078,4217.692383,4242.820313,4347.436035,4256.666504,5200.256348,5052.563965,0.000000,4.000000,91.000000,,,,0.000000,4.000000,4.000000,4.000000,4.000000,4.000000,4.000000,4.000000,4.000000,4.000000,4.000000,4.000000,4.000000,4.000000,4.000000,100.000000,,,,,,,,,,,,,,,,
1644852866.286160,124.000000,0.000000,4331.794922,4233.077148,4270.769043,4195.256348,4187.563965,4209.102539,4213.461426,4225.641113,4213.589844,4239.230957,4332.436035,4250.641113,5221.153809,5047.179688,0.000000,4.000000,91.000000,,,,0.000000,4.000000,4.000000,4.000000,4.000000,4.000000,4.000000,4.000000,4.000000,4.000000,4.000000,4.000000,4.000000,4.000000,4.000000,100.000000,,,,,,,,,,,,,,,,
1644852866.290000,125.000000,0.000000,4341.025879,4234.230957,4264.743652,4195.641113,4183.974121,4207.436035,4216.282227,4225.000000,4211.794922,4241.666504,4315.769043,4252.436035,5238.205078,5051.410156,0.000000,4.000000,91.000000,,,,0.000000,4.000000,4.000000,4.000000,4.000000,4.000000,4.000000,4.000000,4.000000,4.000000,4.000000,4.000000,4.000000,4.000000,4.000000,100.000000,,,,,,,,,,,,,,,,
1644852866.293940,126.000000,0.000000,4340.000000,4241.666504,4266.538574,4200.897461,4195.384766,4207.307617,4217.307617,4225.641113,4212.692383,4249.102539,4306.922852,4257.436035,5249.871582,5072.948730,0.000000,4.000000,91.000000,,,,0.000000,4.000000,4.000000,4.000000,4.000000,4.000000,4.000000,4.000000,4.000000,4.000000,4.000000,4.000000,4.000000,4.000000,4.000000,100.000000,,,,,,,,,,,,,,,,
1644852866.297880,127.000000,0.000000,4329.615234,4248.205078,4270.769043,4209.102539,4215.641113,4207.563965,4215.128418,4225.769043,4213.974121,4256.025879,4306.025879,4258.717773,5251.922852,5102.051270,0.000000,4.000000,91.000000,,,,0.000000,4.000000,4.000000,4.000000,4.000000,4.000000,4.000000,4.000000,4.000000,4.000000,4.000000,4.000000,4.000000,4.000000,4.000000,100.000000,,,,,,,,,,,,,,,,
1644852866.301820,128.000000,0.000000,4314.102539,4245.897461,4270.128418,4216.282227,4232.051270,4206.794922,4212.307617,4224.615234,4212.820313,4256.282227,4305.512695,4252.820313,5240.641113,5118.589844,3428.000000,4.000000,91.000000,,,,0.000000,4.000000,4.000000,4.000000,4.000000,4.000000,4.000000,4.000000,4.000000,4.000000,4.000000,4.000000,4.000000,4.000000,4.000000,100.000000,,,,,,,,,,,,,,,,
1644852866.305760,129.000000,0.000000,4299.615234,4233.974121,4262.820313,4219.487305,4234.487305,4205.256348,4211.538574,4223.589844,4209.230957,4249.230957,4298.974121,4242.436035,5219.743652,5108.461426,3328.000000,4.000000,91.000000,,,,0.000000,4.000000,4.000000,4.000000,4.000000,4.000000,4.000000,4.000000,4.000000,4.000000,4.000000,4.000000,4.000000,4.000000,4.000000,100.000000,,,,,,,,,,,,,,,,
1644852866.309701,130.000000,0.000000,4291.282227,4219.487305,4252.563965,4217.563965,4222.948730,4204.487305,4213.333496,4223.846191,4206.025879,4240.000000,4288.077148,4234.102539,5202.563965,5074.871582,3633.000000,4.000000,91.000000,,,,0.000000,4.000000,4.000000,4.000000,4.000000,4.000000,4.000000,4.000000,4.000000,4.000000,4.000000,4.000000,4.000000,4.000000,4.000000,100.000000,,,,,,,,,,,,,,,,
1644852866.313641,131.000000,0.000000,4290.512695,4211.410156,4245.512695,4212.051270,4207.179688,4206.025879,4215.256348,4225.512695,4205.897461,4235.641113,4280.384766,4232.051270,5203.974121,5035.128418,3369.000000,4.000000,91.000000,,,,0.000000,4.000000,4.000000,4.000000,4.000000,4.000000,4.000000,4.000000,4.000000,4.000000,4.000000,4.000000,4.000000,4.000000,4.000000,100.000000,,,,,,,,,,,,,,,,
1644852866.317581,132.000000,0.000000,4294.358887,4212.436035,4244.743652,4205.256348,4198.974121,4208.846191,4216.282227,4227.436035,4208.846191,4238.717773,4281.025879,4235.641113,5227.051270,5007.307617,3502.000000,4.000000,91.000000,,,,0.000000,4.000000,4.000000,4.000000,4.000000,4.000000,4.000000,4.000000,4.000000,4.000000,4.000000,4.000000,4.000000,4.000000,4.000000,100.000000,,,,,,,,,,,,,,,,
1644852866.321521,133.000000,0.000000,4297.692383,4218.589844,4249.102539,4199.230957,4201.922852,4211.282227,4216.794922,4228.974121,4212.436035,4245.384766,4287.307617,4240.769043,5258.461426,4996.922852,3090.000000,4.000000,91.000000,,,,0.000000,4.000000,4.000000,4.000000,4.000000,4.000000,4.000000,4.000000,4.000000,4.000000,4.000000,4.000000,4.000000,4.000000,4.000000,100.000000,,,,,,,,,,,,,,,,
1644852866.325461,134.000000,0.000000,4297.179688,4223.846191,4254.102539,4194.743652,4208.333496,4211.538574,4218.077148,4229.358887,4213.717773,4249.230957,4290.769043,4244.358887,5276.794922,4996.410156,2393.000000,4.000000,91.000000,,,,0.000000,4.000000,4.000000,4.000000,4.000000,4.000000,4.000000,4.000000,4.000000,4.000000,4.000000,4.000000,4.000000,4.000000,4.000000,100.000000,,,,,,,,,,,,,,,,
1644852866.329401,135.000000,0.000000,4291.922852,4224.358887,4256.025879,4192.436035,4208.461426,4210.384766,4219.358887,4228.077148,4211.922852,4246.922852,4285.897461,4245.641113,5268.333496,4993.846191,3072.000000,4.000000,91.000000,,,,0.000000,4.000000,4.000000,4.000000,4.000000,4.000000,4.000000,4.000000,4.000000,4.000000,4.000000,4.000000,4.000000,4.000000,4.000000,100.000000,,,,,,,,,,,,,,,,
1644852866.333341,136.000000,0.000000,4282.563965,4220.256348,4254.102539,4192.948730,4199.743652,4209.230957,4218.974121,4225.256348,4208.717773,4240.641113,4275.641113,4244.230957,5239.358887,4982.948730,3353.000000,4.000000,91.000000,,,,0.000000,4.000000,4.000000,4.000000,4.000000,4.000000,4.000000,4.000000,4.000000,4.000000,4.000000,4.000000,4.000000,4.000000,4.000000,100.000000,,,,,,,,,,,,,,,,
1644852866.337281,137.000000,0.000000,4270.769043,4214.358887,4251.282227,4196.025879,4189.871582,4209.230957,4216.666504,4222.307617,4206.153809,4235.769043,4268.205078,4239.487305,5210.769043,4966.922852,3519.000000,4.000000,91.000000,,,,0.000000,4.000000,4.000000,4.000000,4.000000,4.000000,4.000000,4.000000,4.000000,4.000000,4.000000,4.000000,4.000000,4.000000,4.000000,100.000000,,,,,,,,,,,,,,,,
1644852866.341221,138.000000,0.000000,4260.641113,4209.871582,4251.153809,4200.256348,4190.128418,4209.743652,4215.000000,4220.897461,4205.384766,4234.743652,4268.974121,4232.307617,5201.794922,4954.358887,3463.000000,4.000000,91.000000,,,,0.000000,4.000000,4.000000,4.000000,4.000000,4.000000,4.000000,4.000000,4.000000,4.000000,4.000000,4.000000,4.000000,4.000000,4.000000,100.000000,,,,,,,,,,,,,,,,
1644852866.345161,139.000000,0.000000,4256.922852,4209.230957,4254.102539,4203.974121,4204.871582,4210.128418,4216.025879,4222.307617,4206.282227,4236.282227,4275.641113,4226.282227,5215.384766,4950.897461,3369.000000,4.000000,91.000000,,,,0.000000,4.000000,4.000000,4.000000,4.000000,4.000000,4.000000,4.000000,4.000000,4.000000,4.000000,4.000000,4.000000,4.000000,4.000000,100.000000,,,,,,,,,,,,,,,,
1644852866.349102,140.000000,0.000000,4261.666504,4212.820313,4257.179688,4206.794922,4226.666504,4210.128418,4218.461426,4224.615234,4207.051270,4236.410156,4279.358887,4225.641113,5237.179688,4954.358887,3455.000000,4.000000,91.000000,,,,0.000000,4.000000,4.000000,4.000000,4.000000,4.000000,4.000000,4.000000,4.000000,4.000000,4.000000,4.000000,4.000000,4.000000,4.000000,100.000000,,,,,,,,,,,,,,,,
1644852866.353042,141.000000,0.000000,4271.538574,4218.333496,4256.282227,4209.102539,4241.410156,4209.743652,4219.102539,4224.487305,4205.769043,4231.922852,4273.077148,4230.512695,5248.846191,4956.410156,3477.000000,4.000000,91.000000,,,,0.000000,4.000000,4.000000,4.000000,4.000000,4.000000,4.000000,4.000000,4.000000,4.000000,4.000000,4.000000,4.000000,4.000000,4.000000,100.000000,,,,,,,,,,,,,,,,
1644852866.356882,142.000000,0.000000,4279.487305,4222.051270,4250.641113,4210.256348,4240.897461,4208.589844,4216.538574,4220.384766,4201.410156,4222.307617,4256.794922,4235.641113,5241.794922,4949.871582,3463.000000,4.000000,91.000000,,,,0.000000,4.000000,4.000000,4.000000,4.000000,4.000000,4.000000,4.000000,4.000000,4.000000,4.000000,4.000000,4.000000,4.000000,4.000000,100.000000,,,,,,,,,,,,,,,,
1644852866.360822,143.000000,0.000000,4279.871582,4221.666504,4243.205078,4208.589844,4228.589844,4207.436035,4213.717773,4214.102539,4194.871582,4210.256348,4238.717773,4235.256348,5220.256348,4932.948730,3369.000000,4.000000,91.000000,,,,0.000000,4.000000,4.000000,4.000000,4.000000,4.000000,4.000000,4.000000,4.000000,4.000000,4.000000,4.000000,4.000000,4.000000,4.000000,100.000000,,,,,,,,,,,,,,,,
1644852866.364762,144.000000,0.000000,4272.436035,4217.307617,4238.077148,4203.846191,4215.000000,4207.563965,4213.461426,4209.487305,4189.358887,4201.666504,4230.000000,4227.692383,5195.256348,4909.358887,3455.000000,4.000000,91.000000,,,,0.000000,4.000000,4.000000,4.000000,4.000000,4.000000,4.000000,4.000000,4.000000,4.000000,4.000000,4.000000,4.000000,4.000000,4.000000,100.000000,,,,,,,,,,,,,,,,
1644852866.368702,145.000000,0.000000,4261.282227,4210.769043,4237.820313,4198.717773,4207.051270,4210.641113,4215.897461,4209.230957,4188.333496,4201.538574,4235.897461,4217.179688,5176.153809,4884.871582,3477.000000,4.000000,91.000000,,,,0.000000,4.000000,4.000000,4.000000,4.000000,4.000000,4.000000,4.000000,4.000000,4.000000,4.000000,4.000000,4.000000,4.000000,4.000000,100.000000,,,,,,,,,,,,,,,,
1644852866.372742,146.000000,0.000000,4251.922852,4204.871582,4241.666504,4197.307617,4204.871582,4215.384766,4218.077148,4212.692383,4192.820313,4210.128418,4252.051270,4210.384766,5165.769043,4862.692383,3463.000000,4.000000,91.000000,,,,0.000000,4.000000,4.000000,4.000000,4.000000,4.000000,4.000000,4.000000,4.000000,4.000000,4.000000,4.000000,4.000000,4.000000,4.000000,100.000000,,,,,,,,,,,,,,,,
1644852866.376682,147.000000,0.000000,4248.461426,4202.179688,4246.153809,4200.897461,4204.615234,4218.974121,4217.692383,4217.563965,4200.384766,4222.179688,4268.077148,4211.922852,5161.282227,4841.922852,3369.000000,4.000000,91.000000,,,,0.000000,4.000000,4.000000,4.000000,4.000000,4.000000,4.000000,4.000000,4.000000,4.000000,4.000000,4.000000,4.000000,4.000000,4.000000,100.000000,,,,,,,,,,,,,,,,
