title:Alex-IDoVThu20rhpHJ-m211mdw, start timestamp:1644853013.533639, stop timestamp:1644853040.282372, headset type:EPOCPLUS, headset serial:3B9AEBFF, headset firmware:626, channels:55, sampling rate:eeg_256, samples:6789      , version:2.1, 
Timestamp,EEG.Counter,EEG.Interpolated,EEG.AF3,EEG.F7,EEG.F3,EEG.FC5,EEG.T7,EEG.P7,EEG.O1,EEG.O2,EEG.P8,EEG.T8,EEG.FC6,EEG.F4,EEG.F8,EEG.AF4,EEG.RawCq,EEG.Battery,EEG.BatteryPercent,MarkerIndex,MarkerType,MarkerValueInt,EEG.MarkerHardware,CQ.AF3,CQ.F7,CQ.F3,CQ.FC5,CQ.T7,CQ.P7,CQ.O1,CQ.O2,CQ.P8,CQ.T8,CQ.FC6,CQ.F4,CQ.F8,CQ.AF4,CQ.Overall,EQ.SampleRateQuality,EQ.OVERALL,EQ.AF3,EQ.F7,EQ.F3,EQ.FC5,EQ.T7,EQ.P7,EQ.O1,EQ.O2,EQ.P8,EQ.T8,EQ.FC6,EQ.F4,EQ.F8,EQ.AF4
1644853013.533639,56.000000,0.000000,4253.846191,4219.871582,4235.897461,4235.897461,4231.538574,4230.897461,4222.179688,4230.641113,4236.282227,4226.410156,4249.358887,4226.538574,4237.948730,4066.794922,0.000000,4.000000,91.000000,,,,0.000000,4.000000,4.000000,4.000000,4.000000,4.000000,4.000000,4.000000,4.000000,4.000000,4.000000,4.000000,4.000000,4.000000,4.000000,100.000000,,,,,,,,,,,,,,,,
1644853013.537679,57.000000,0.000000,4262.692383,4220.897461,4239.743652,4245.256348,4228.077148,4232.563965,4224.230957,4233.846191,4239.230957,4235.769043,4249.743652,4230.384766,4237.051270,4059.615479,0.000000,4.000000,91.000000,,,,0.000000,4.000000,4.000000,4.000000,4.000000,4.000000,4.000000,4.000000,4.000000,4.000000,4.000000,4.000000,4.000000,4.000000,4.000000,100.000000,,,,,,,,,,,,,,,,
1644853013.541619,58.000000,0.000000,4261.666504,4220.256348,4234.358887,4246.538574,4221.922852,4227.692383,4220.128418,4230.384766,4235.512695,4237.692383,4236.922852,4228.589844,4239.487305,4043.974365,0.000000,4.000000,91.000000,,,,0.000000,4.000000,4.000000,4.000000,4.000000,4.000000,4.000000,4.000000,4.000000,4.000000,4.000000,4.000000,4.000000,4.000000,4.000000,100.000000,,,,,,,,,,,,,,,,
1644853013.545559,59.000000,0.000000,4251.153809,4217.179688,4222.692383,4237.051270,4215.256348,4218.589844,4212.563965,4222.436035,4227.820313,4232.179688,4213.717773,4223.205078,4240.128418,4027.948730,0.000000,4.000000,91.000000,,,,0.000000,4.000000,4.000000,4.000000,4.000000,4.000000,4.000000,4.000000,4.000000,4.000000,4.000000,4.000000,4.000000,4.000000,4.000000,100.000000,,,,,,,,,,,,,,,,
1644853013.549500,60.000000,0.000000,4235.897461,4211.538574,4212.307617,4223.333496,4212.051270,4211.025879,4208.077148,4215.769043,4221.282227,4223.461426,4190.897461,4217.692383,4236.794922,4018.974365,0.000000,4.000000,91.000000,,,,0.000000,4.000000,4.000000,4.000000,4.000000,4.000000,4.000000,4.000000,4.000000,4.000000,4.000000,4.000000,4.000000,4.000000,4.000000,100.000000,,,,,,,,,,,,,,,,
1644853013.553440,61.000000,0.000000,4223.461426,4205.256348,4209.743652,4216.922852,4215.384766,4209.102539,4210.897461,4215.256348,4220.641113,4217.948730,4181.794922,4216.025879,4232.692383,4020.512939,0.000000,4.000000,91.000000,,,,0.000000,4.000000,4.000000,4.000000,4.000000,4.000000,4.000000,4.000000,4.000000,4.000000,4.000000,4.000000,4.000000,4.000000,4.000000,100.000000,,,,,,,,,,,,,,,,
1644853013.557380,62.000000,0.000000,4220.384766,4202.179688,4216.153809,4223.461426,4225.512695,4212.948730,4218.589844,4220.897461,4226.922852,4218.461426,4194.230957,4219.230957,4232.563965,4030.897461,0.000000,4.000000,91.000000,,,,0.000000,4.000000,4.000000,4.000000,4.000000,4.000000,4.000000,4.000000,4.000000,4.000000,4.000000,4.000000,4.000000,4.000000,4.000000,100.000000,,,,,,,,,,,,,,,,
1644853013.561320,63.000000,0.000000,4227.820313,4205.128418,4226.282227,4237.051270,4237.948730,4218.589844,4224.871582,4227.563965,4235.384766,4222.051270,4223.717773,4224.487305,4237.820313,4044.230713,0.000000,4.000000,91.000000,,,,0.000000,4.000000,4.000000,4.000000,4.000000,4.000000,4.000000,4.000000,4.000000,4.000000,4.000000,4.000000,4.000000,4.000000,4.000000,100.000000,,,,,,,,,,,,,,,,
1644853013.565260,64.000000,0.000000,4240.256348,4211.666504,4232.820313,4244.230957,4244.871582,4221.666504,4225.897461,4230.512695,4239.743652,4223.205078,4255.000000,4226.282227,4244.358887,4052.564209,0.000000,4.000000,91.000000,,,,0.000000,4.000000,4.000000,4.000000,4.000000,4.000000,4.000000,4.000000,4.000000,4.000000,4.000000,4.000000,4.000000,4.000000,4.000000,100.000000,,,,,,,,,,,,,,,,
1644853013.569200,65.000000,0.000000,4248.974121,4216.666504,4231.794922,4235.384766,4240.897461,4219.871582,4223.077148,4227.948730,4236.538574,4218.974121,4270.897461,4222.436035,4245.769043,4049.102539,0.000000,4.000000,91.000000,,,,0.000000,4.000000,4.000000,4.000000,4.000000,4.000000,4.000000,4.000000,4.000000,4.000000,4.000000,4.000000,4.000000,4.000000,4.000000,100.000000,,,,,,,,,,,,,,,,
1644853013.573140,66.000000,0.000000,4248.717773,4216.153809,4225.384766,4214.871582,4227.948730,4215.512695,4220.000000,4222.692383,4228.589844,4211.922852,4263.077148,4215.641113,4240.000000,4033.846191,0.000000,4.000000,91.000000,,,,0.000000,4.000000,4.000000,4.000000,4.000000,4.000000,4.000000,4.000000,4.000000,4.000000,4.000000,4.000000,4.000000,4.000000,4.000000,100.000000,,,,,,,,,,,,,,,,
1644853013.577080,67.000000,0.000000,4241.025879,4211.538574,4218.846191,4198.205078,4214.615234,4212.307617,4218.846191,4218.717773,4222.179688,4208.205078,4236.282227,4210.897461,4231.666504,4014.871826,0.000000,4.000000,91.000000,,,,0.000000,4.000000,4.000000,4.000000,4.000000,4.000000,4.000000,4.000000,4.000000,4.000000,4.000000,4.000000,4.000000,4.000000,4.000000,100.000000,,,,,,,,,,,,,,,,
1644853013.581020,68.000000,0.000000,4233.333496,4207.820313,4216.538574,4199.615234,4209.743652,4213.205078,4218.974121,4218.077148,4221.794922,4211.410156,4204.102539,4210.128418,4228.461426,4004.230713,0.000000,4.000000,91.000000,,,,0.000000,4.000000,4.000000,4.000000,4.000000,4.000000,4.000000,4.000000,4.000000,4.000000,4.000000,4.000000,4.000000,4.000000,4.000000,100.000000,,,,,,,,,,,,,,,,
1644853013.584961,69.000000,0.000000,4232.563965,4209.230957,4219.102539,4219.743652,4215.384766,4217.307617,4219.871582,4220.384766,4226.538574,4219.358887,4181.282227,4212.051270,4233.205078,4008.718018,0.000000,4.000000,91.000000,,,,0.000000,4.000000,4.000000,4.000000,4.000000,4.000000,4.000000,4.000000,4.000000,4.000000,4.000000,4.000000,4.000000,4.000000,4.000000,100.000000,,,,,,,,,,,,,,,,
1644853013.588901,70.000000,0.000000,4240.000000,4215.128418,4223.461426,4244.871582,4225.512695,4220.641113,4221.025879,4223.205078,4231.922852,4225.384766,4177.051270,4214.358887,4241.538574,4024.358887,0.000000,4.000000,91.000000,,,,0.000000,4.000000,4.000000,4.000000,4.000000,4.000000,4.000000,4.000000,4.000000,4.000000,4.000000,4.000000,4.000000,4.000000,4.000000,100.000000,,,,,,,,,,,,,,,,
1644853013.592841,71.000000,0.000000,4250.000000,4220.769043,4225.384766,4257.948730,4232.179688,4219.615234,4221.794922,4223.974121,4233.589844,4223.846191,4191.794922,4216.153809,4245.641113,4040.384521,0.000000,4.000000,91.000000,,,,0.000000,4.000000,4.000000,4.000000,4.000000,4.000000,4.000000,4.000000,4.000000,4.000000,4.000000,4.000000,4.000000,4.000000,4.000000,100.000000,,,,,,,,,,,,,,,,
1644853013.596781,72.000000,0.000000,4253.333496,4221.153809,4223.077148,4252.820313,4231.666504,4214.871582,4220.512695,4221.922852,4230.641113,4216.025879,4218.205078,4217.563965,4241.410156,4047.435791,0.000000,4.000000,91.000000,,,,0.000000,4.000000,4.000000,4.000000,4.000000,4.000000,4.000000,4.000000,4.000000,4.000000,4.000000,4.000000,4.000000,4.000000,4.000000,100.000000,,,,,,,,,,,,,,,,
1644853013.600721,73.000000,0.000000,4244.871582,4215.256348,4218.205078,4237.051270,4226.282227,4210.256348,4217.179688,4218.717773,4226.153809,4208.461426,4244.358887,4217.820313,4232.179688,4043.461426,0.000000,4.000000,91.000000,,,,0.000000,4.000000,4.000000,4.000000,4.000000,4.000000,4.000000,4.000000,4.000000,4.000000,4.000000,4.000000,4.000000,4.000000,4.000000,100.000000,,,,,,,,,,,,,,,,
1644853013.604661,74.000000,0.000000,4227.692383,4207.436035,4214.230957,4225.000000,4221.666504,4208.717773,4213.589844,4216.538574,4223.717773,4207.307617,4258.333496,4215.641113,4225.000000,4032.692383,0.000000,4.000000,91.000000,,,,0.000000,4.000000,4.000000,4.000000,4.000000,4.000000,4.000000,4.000000,4.000000,4.000000,4.000000,4.000000,4.000000,4.000000,4.000000,100.000000,,,,,,,,,,,,,,,,
1644853013.608601,75.000000,0.000000,4212.051270,4204.102539,4213.461426,4224.358887,4222.179688,4210.641113,4212.948730,4216.538574,4224.615234,4213.333496,4253.333496,4211.153809,4225.000000,4020.641113,0.000000,4.000000,91.000000,,,,0.000000,4.000000,4.000000,4.000000,4.000000,4.000000,4.000000,4.000000,4.000000,4.000000,4.000000,4.000000,4.000000,4.000000,4.000000,100.000000,,,,,,,,,,,,,,,,
1644853013.612441,76.000000,0.000000,4207.179688,4208.205078,4215.512695,4231.282227,4227.051270,4212.948730,4215.512695,4218.205078,4227.179688,4221.666504,4232.692383,4206.922852,4231.794922,4012.179443,0.000000,4.000000,91.000000,,,,0.000000,4.000000,4.000000,4.000000,4.000000,4.000000,4.000000,4.000000,4.000000,4.000000,4.000000,4.000000,4.000000,4.000000,4.000000,100.000000,,,,,,,,,,,,,,,,
1644853013.616381,77.000000,0.000000,4215.000000,4216.025879,4218.077148,4235.384766,4230.128418,4212.692383,4218.333496,4220.000000,4228.717773,4226.282227,4208.205078,4205.256348,4240.256348,4010.000000,0.000000,4.000000,91.000000,,,,0.000000,4.000000,4.000000,4.000000,4.000000,4.000000,4.000000,4.000000,4.000000,4.000000,4.000000,4.000000,4.000000,4.000000,4.000000,100.000000,,,,,,,,,,,,,,,,
1644853013.620322,78.000000,0.000000,4229.102539,4219.743652,4218.974121,4229.487305,4224.871582,4209.615234,4217.820313,4220.256348,4227.948730,4224.358887,4194.230957,4205.641113,4244.102539,4014.102539,0.000000,4.000000,91.000000,,,,0.000000,4.000000,4.000000,4.000000,4.000000,4.000000,4.000000,4.000000,4.000000,4.000000,4.000000,4.000000,4.000000,4.000000,4.000000,100.000000,,,,,,,,,,,,,,,,
1644853013.624262,79.000000,0.000000,4240.000000,4215.128418,4217.563965,4216.410156,4211.666504,4206.153809,4214.102539,4218.205078,4225.256348,4217.179688,4198.077148,4205.897461,4242.179688,4021.281982,0.000000,4.000000,91.000000,,,,0.000000,4.000000,4.000000,4.000000,4.000000,4.000000,4.000000,4.000000,4.000000,4.000000,4.000000,4.000000,4.000000,4.000000,4.000000,100.000000,,,,,,,,,,,,,,,,
1644853013.628202,80.000000,0.000000,4241.794922,4205.512695,4215.769043,4206.025879,4198.333496,4205.128418,4210.769043,4215.769043,4222.948730,4209.615234,4215.128418,4204.487305,4239.102539,4026.666748,0.000000,4.000000,91.000000,,,,0.000000,4.000000,4.000000,4.000000,4.000000,4.000000,4.000000,4.000000,4.000000,4.000000,4.000000,4.000000,4.000000,4.000000,4.000000,100.000000,,,,,,,,,,,,,,,,
1644853013.632142,81.000000,0.000000,4235.512695,4199.358887,4215.128418,4206.666504,4195.256348,4207.563965,4211.282227,4215.384766,4222.948730,4206.666504,4233.333496,4201.666504,4240.128418,4026.794922,0.000000,4.000000,91.000000,,,,0.000000,4.000000,4.000000,4.000000,4.000000,4.000000,4.000000,4.000000,4.000000,4.000000,4.000000,4.000000,4.000000,4.000000,4.000000,100.000000,,,,,,,,,,,,,,,,
1644853013.636182,82.000000,0.000000,4227.563965,4201.922852,4216.153809,4218.333496,4206.025879,4212.563965,4215.256348,4218.589844,4225.897461,4210.897461,4242.820313,4200.128418,4245.512695,4021.153809,0.000000,4.000000,91.000000,,,,0.000000,4.000000,4.000000,4.000000,4.000000,4.000000,4.000000,4.000000,4.000000,4.000000,4.000000,4.000000,4.000000,4.000000,4.000000,100.000000,,,,,,,,,,,,,,,,
1644853013.640122,83.000000,0.000000,4224.615234,4211.922852,4217.948730,4232.820313,4224.487305,4217.563965,4219.102539,4223.717773,4231.025879,4220.256348,4242.179688,4202.948730,4250.384766,4013.076904,0.000000,4.000000,91.000000,,,,0.000000,4.000000,4.000000,4.000000,4.000000,4.000000,4.000000,4.000000,4.000000,4.000000,4.000000,4.000000,4.000000,4.000000,4.000000,100.000000,,,,,,,,,,,,,,,,
1644853013.644062,84.000000,0.000000,4228.461426,4222.436035,4219.487305,4241.410156,4239.102539,4220.256348,4220.000000,4227.307617,4235.769043,4229.871582,4236.025879,4210.897461,4249.358887,4008.333252,0.000000,4.000000,91.000000,,,,0.000000,4.000000,4.000000,4.000000,4.000000,4.000000,4.000000,4.000000,4.000000,4.000000,4.000000,4.000000,4.000000,4.000000,4.000000,100.000000,,,,,,,,,,,,,,,,
1644853013.648002,85.000000,0.000000,4235.512695,4227.563965,4220.128418,4240.384766,4241.794922,4219.743652,4218.717773,4226.410156,4237.307617,4234.743652,4229.487305,4220.384766,4241.922852,4010.512939,0.000000,4.000000,91.000000,,,,0.000000,4.000000,4.000000,4.000000,4.000000,4.000000,4.000000,4.000000,4.000000,4.000000,4.000000,4.000000,4.000000,4.000000,4.000000,100.000000,,,,,,,,,,,,,,,,
1644853013.651942,86.000000,0.000000,4239.871582,4225.641113,4219.743652,4232.436035,4233.717773,4217.051270,4216.666504,4220.512695,4233.461426,4232.948730,4223.974121,4225.256348,4232.307617,4018.589844,0.000000,4.000000,91.000000,,,,0.000000,4.000000,4.000000,4.000000,4.000000,4.000000,4.000000,4.000000,4.000000,4.000000,4.000000,4.000000,4.000000,4.000000,4.000000,100.000000,,,,,,,,,,,,,,,,
1644853013.655882,87.000000,0.000000,4238.205078,4220.000000,4218.205078,4222.692383,4223.333496,4213.461426,4213.846191,4211.538574,4224.871582,4226.282227,4219.487305,4221.410156,4225.641113,4026.410156,0.000000,4.000000,91.000000,,,,0.000000,4.000000,4.000000,4.000000,4.000000,4.000000,4.000000,4.000000,4.000000,4.000000,4.000000,4.000000,4.000000,4.000000,4.000000,100.000000,,,,,,,,,,,,,,,,
1644853013.659823,88.000000,0.000000,4231.282227,4214.230957,4215.769043,4215.000000,4218.717773,4209.743652,4210.256348,4203.333496,4215.000000,4217.307617,4216.282227,4210.641113,4224.358887,4027.307617,0.000000,4.000000,91.000000,,,,0.000000,4.000000,4.000000,4.000000,4.000000,4.000000,4.000000,4.000000,4.000000,4.000000,4.000000,4.000000,4.000000,4.000000,4.000000,100.000000,,,,,,,,,,,,,,,,
1644853013.663663,89.000000,0.000000,4222.563965,4209.871582,4212.948730,4210.256348,4221.025879,4205.897461,4206.922852,4199.230957,4207.820313,4207.563965,4214.743652,4198.461426,4226.025879,4019.743652,0.000000,4.000000,91.000000,,,,0.000000,4.000000,4.000000,4.000000,4.000000,4.000000,4.000000,4.000000,4.000000,4.000000,4.000000,4.000000,4.000000,4.000000,4.000000,100.000000,,,,,,,,,,,,,,,,
1644853013.667603,90.000000,0.000000,4215.897461,4206.922852,4210.769043,4208.077148,4223.333496,4202.563965,4206.410156,4200.256348,4205.000000,4196.794922,4213.589844,4190.000000,4225.384766,4007.948730,0.000000,4.000000,91.000000,,,,0.000000,4.000000,4.000000,4.000000,4.000000,4.000000,4.000000,4.000000,4.000000,4.000000,4.000000,4.000000,4.000000,4.000000,4.000000,100.000000,,,,,,,,,,,,,,,,
1644853013.671543,91.000000,0.000000,4213.846191,4205.256348,4208.974121,4207.436035,4218.974121,4201.153809,4209.230957,4204.230957,4205.384766,4185.769043,4211.025879,4186.410156,4220.000000,3998.205078,0.000000,4.000000,91.000000,,,,0.000000,4.000000,4.000000,4.000000,4.000000,4.000000,4.000000,4.000000,4.000000,4.000000,4.000000,4.000000,4.000000,4.000000,4.000000,100.000000,,,,,,,,,,,,,,,,
1644853013.675483,92.000000,0.000000,4216.410156,4205.512695,4207.436035,4208.974121,4208.077148,4203.205078,4212.563965,4207.051270,4206.538574,4177.948730,4205.512695,4185.641113,4211.794922,3994.615479,0.000000,4.000000,91.000000,,,,0.000000,4.000000,4.000000,4.000000,4.000000,4.000000,4.000000,4.000000,4.000000,4.000000,4.000000,4.000000,4.000000,4.000000,4.000000,100.000000,,,,,,,,,,,,,,,,
1644853013.679423,93.000000,0.000000,4221.025879,4208.717773,4206.410156,4213.461426,4198.333496,4207.436035,4212.820313,4206.153809,4206.794922,4177.692383,4198.205078,4185.641113,4206.025879,3996.025635,0.000000,4.000000,91.000000,,,,0.000000,4.000000,4.000000,4.000000,4.000000,4.000000,4.000000,4.000000,4.000000,4.000000,4.000000,4.000000,4.000000,4.000000,4.000000,100.000000,,,,,,,,,,,,,,,,
1644853013.683363,94.000000,0.000000,4224.230957,4213.717773,4206.538574,4220.641113,4198.077148,4210.512695,4209.487305,4202.179688,4206.025879,4185.769043,4190.897461,4186.153809,4205.897461,3998.846191,0.000000,4.000000,91.000000,,,,0.000000,4.000000,4.000000,4.000000,4.000000,4.000000,4.000000,4.000000,4.000000,4.000000,4.000000,4.000000,4.000000,4.000000,4.000000,100.000000,,,,,,,,,,,,,,,,
1644853013.687303,95.000000,0.000000,4223.589844,4218.717773,4209.230957,4228.333496,4208.333496,4209.615234,4206.025879,4198.589844,4204.871582,4198.461426,4186.153809,4188.077148,4209.358887,4000.512939,0.000000,4.000000,91.000000,,,,0.000000,4.000000,4.000000,4.000000,4.000000,4.000000,4.000000,4.000000,4.000000,4.000000,4.000000,4.000000,4.000000,4.000000,4.000000,100.000000,,,,,,,,,,,,,,,,
1644853013.691243,96.000000,0.000000,4219.487305,4221.025879,4213.974121,4232.948730,4221.922852,4205.256348,4205.769043,4198.589844,4204.358887,4209.487305,4187.436035,4192.179688,4211.922852,4000.384521,0.000000,4.000000,91.000000,,,,0.000000,4.000000,4.000000,4.000000,4.000000,4.000000,4.000000,4.000000,4.000000,4.000000,4.000000,4.000000,4.000000,4.000000,4.000000,100.000000,,,,,,,,,,,,,,,,
1644853013.695184,97.000000,0.000000,4215.000000,4218.589844,4218.333496,4230.384766,4229.102539,4200.769043,4208.077148,4202.307617,4205.256348,4214.358887,4196.538574,4197.179688,4210.512695,3999.743652,0.000000,4.000000,91.000000,,,,0.000000,4.000000,4.000000,4.000000,4.000000,4.000000,4.000000,4.000000,4.000000,4.000000,4.000000,4.000000,4.000000,4.000000,4.000000,100.000000,,,,,,,,,,,,,,,,
1644853013.699124,98.000000,0.000000,4213.205078,4211.153809,4219.102539,4219.358887,4225.128418,4198.717773,4209.102539,4206.410156,4206.794922,4212.179688,4211.025879,4201.410156,4206.153809,3999.102539,0.000000,4.000000,91.000000,,,,0.000000,4.000000,4.000000,4.000000,4.000000,4.000000,4.000000,4.000000,4.000000,4.000000,4.000000,4.000000,4.000000,4.000000,4.000000,100.000000,,,,,,,,,,,,,,,,
1644853013.703064,99.000000,0.000000,4215.384766,4200.641113,4215.512695,4204.615234,4214.743652,4199.487305,4206.922852,4207.820313,4207.692383,4205.256348,4223.717773,4203.717773,4202.563965,3997.820557,0.000000,4.000000,91.000000,,,,0.000000,4.000000,4.000000,4.000000,4.000000,4.000000,4.000000,4.000000,4.000000,4.000000,4.000000,4.000000,4.000000,4.000000,4.000000,100.000000,,,,,,,,,,,,,,,,
1644853013.707004,100.000000,0.000000,4219.358887,4192.051270,4210.384766,4194.615234,4206.538574,4201.538574,4204.102539,4207.051270,4207.563965,4197.051270,4227.051270,4204.358887,4203.077148,3996.153809,0.000000,4.000000,91.000000,,,,0.000000,4.000000,4.000000,4.000000,4.000000,4.000000,4.000000,4.000000,4.000000,4.000000,4.000000,4.000000,4.000000,4.000000,4.000000,100.000000,,,,,,,,,,,,,,,,
1644853013.710944,101.000000,0.000000,4221.410156,4189.743652,4207.436035,4196.282227,4205.897461,4203.077148,4204.358887,4206.794922,4207.307617,4191.153809,4219.487305,4203.461426,4208.077148,3995.897461,0.000000,4.000000,91.000000,,,,0.000000,4.000000,4.000000,4.000000,4.000000,4.000000,4.000000,4.000000,4.000000,4.000000,4.000000,4.000000,4.000000,4.000000,4.000000,100.000000,,,,,,,,,,,,,,,,
1644853013.714884,102.000000,0.000000,4219.358887,4194.487305,4208.205078,4208.077148,4210.256348,4203.333496,4208.333496,4208.205078,4208.717773,4189.487305,4207.051270,4201.794922,4215.897461,3998.974365,0.000000,4.000000,91.000000,,,,0.000000,4.000000,4.000000,4.000000,4.000000,4.000000,4.000000,4.000000,4.000000,4.000000,4.000000,4.000000,4.000000,4.000000,4.000000,100.000000,,,,,,,,,,,,,,,,
1644853013.718824,103.000000,0.000000,4215.256348,4203.717773,4211.025879,4221.410156,4213.205078,4202.692383,4212.307617,4210.512695,4212.179688,4191.538574,4198.205078,4200.512695,4224.487305,4005.000000,0.000000,4.000000,91.000000,,,,0.000000,4.000000,4.000000,4.000000,4.000000,4.000000,4.000000,4.000000,4.000000,4.000000,4.000000,4.000000,4.000000,4.000000,4.000000,100.000000,,,,,,,,,,,,,,,,
1644853013.722764,104.000000,0.000000,4214.102539,4213.205078,4213.333496,4227.436035,4211.153809,4202.051270,4212.948730,4211.794922,4216.153809,4195.769043,4198.974121,4201.410156,4232.179688,4011.923096,0.000000,4.000000,91.000000,,,,0.000000,4.000000,4.000000,4.000000,4.000000,4.000000,4.000000,4.000000,4.000000,4.000000,4.000000,4.000000,4.000000,4.000000,4.000000,100.000000,,,,,,,,,,,,,,,,
1644853013.726704,105.000000,0.000000,4220.512695,4220.000000,4215.128418,4224.358887,4206.282227,4202.179688,4211.025879,4212.436035,4218.589844,4201.025879,4210.000000,4205.128418,4237.563965,4017.307617,0.000000,4.000000,91.000000,,,,0.000000,4.000000,4.000000,4.000000,4.000000,4.000000,4.000000,4.000000,4.000000,4.000000,4.000000,4.000000,4.000000,4.000000,4.000000,100.000000,,,,,,,,,,,,,,,,
1644853013.730645,106.000000,0.000000,4233.589844,4222.820313,4217.948730,4218.205078,4204.102539,4203.077148,4210.000000,4213.717773,4219.358887,4206.410156,4227.051270,4211.153809,4238.333496,4020.256348,0.000000,4.000000,91.000000,,,,0.000000,4.000000,4.000000,4.000000,4.000000,4.000000,4.000000,4.000000,4.000000,4.000000,4.000000,4.000000,4.000000,4.000000,4.000000,100.000000,,,,,,,,,,,,,,,,
1644853013.734585,107.000000,0.000000,4247.051270,4222.692383,4223.205078,4216.410156,4207.820313,4204.102539,4211.025879,4216.153809,4219.743652,4211.666504,4243.461426,4218.461426,4232.820313,4021.794922,0.000000,4.000000,91.000000,,,,0.000000,4.000000,4.000000,4.000000,4.000000,4.000000,4.000000,4.000000,4.000000,4.000000,4.000000,4.000000,4.000000,4.000000,4.000000,100.000000,,,,,,,,,,,,,,,,
1644853013.738425,108.000000,0.000000,4253.333496,4220.897461,4229.102539,4220.897461,4215.769043,4204.615234,4212.307617,4218.461426,4221.025879,4216.153809,4253.461426,4224.230957,4222.692383,4022.051270,0.000000,4.000000,91.000000,,,,0.000000,4.000000,4.000000,4.000000,4.000000,4.000000,4.000000,4.000000,4.000000,4.000000,4.000000,4.000000,4.000000,4.000000,4.000000,100.000000,,,,,,,,,,,,,,,,
1644853013.742365,109.000000,0.000000,4250.384766,4218.205078,4232.051270,4226.922852,4222.307617,4203.974121,4211.410156,4218.717773,4222.563965,4218.717773,4253.461426,4225.769043,4213.077148,4020.256348,0.000000,4.000000,91.000000,,,,0.000000,4.000000,4.000000,4.000000,4.000000,4.000000,4.000000,4.000000,4.000000,4.000000,4.000000,4.000000,4.000000,4.000000,4.000000,100.000000,,,,,,,,,,,,,,,,
1644853013.746305,110.000000,0.000000,4242.436035,4215.128418,4230.000000,4228.333496,4222.307617,4202.948730,4208.717773,4216.153809,4222.051270,4218.333496,4243.589844,4222.307617,4209.871582,4016.153809,0.000000,4.000000,91.000000,,,,0.000000,4.000000,4.000000,4.000000,4.000000,4.000000,4.000000,4.000000,4.000000,4.000000,4.000000,4.000000,4.000000,4.000000,4.000000,100.000000,,,,,,,,,,,,,,,,
1644853013.750245,111.000000,0.000000,4236.282227,4212.820313,4224.871582,4224.230957,4215.128418,4202.307617,4206.666504,4211.794922,4218.589844,4214.743652,4226.666504,4216.153809,4216.666504,4013.589844,0.000000,4.000000,91.000000,,,,0.000000,4.000000,4.000000,4.000000,4.000000,4.000000,4.000000,4.000000,4.000000,4.000000,4.000000,4.000000,4.000000,4.000000,4.000000,100.000000,,,,,,,,,,,,,,,,
1644853013.754185,112.000000,0.000000,4236.410156,4213.077148,4221.153809,4219.358887,4207.307617,4202.307617,4206.666504,4208.333496,4214.230957,4209.615234,4208.461426,4211.666504,4231.025879,4018.333252,0.000000,4.000000,91.000000,,,,0.000000,4.000000,4.000000,4.000000,4.000000,4.000000,4.000000,4.000000,4.000000,4.000000,4.000000,4.000000,4.000000,4.000000,4.000000,100.000000,,,,,,,,,,,,,,,,
1644853013.758125,113.000000,0.000000,4241.538574,4216.538574,4222.051270,4219.102539,4206.794922,4202.563965,4207.820313,4207.820313,4212.179688,4205.897461,4196.538574,4212.051270,4245.384766,4032.564209,0.000000,4.000000,91.000000,,,,0.000000,4.000000,4.000000,4.000000,4.000000,4.000000,4.000000,4.000000,4.000000,4.000000,4.000000,4.000000,4.000000,4.000000,4.000000,100.000000,,,,,,,,,,,,,,,,
1644853013.762065,114.000000,0.000000,4246.025879,4221.666504,4226.538574,4223.461426,4215.128418,4202.820313,4208.461426,4210.641113,4214.230957,4207.179688,4197.051270,4217.307617,4251.666504,4049.230713,0.000000,4.000000,91.000000,,,,0.000000,4.000000,4.000000,4.000000,4.000000,4.000000,4.000000,4.000000,4.000000,4.000000,4.000000,4.000000,4.000000,4.000000,4.000000,100.000000,,,,,,,,,,,,,,,,
1644853013.766006,115.000000,0.000000,4245.000000,4224.615234,4230.897461,4227.820313,4225.000000,4202.820313,4208.974121,4215.384766,4219.615234,4213.974121,4211.282227,4225.000000,4246.538574,4057.435791,0.000000,4.000000,91.000000,,,,0.000000,4.000000,4.000000,4.000000,4.000000,4.000000,4.000000,4.000000,4.000000,4.000000,4.000000,4.000000,4.000000,4.000000,4.000000,100.000000,,,,,,,,,,,,,,,,
1644853013.769946,116.000000,0.000000,4237.820313,4222.948730,4231.794922,4228.589844,4226.410156,4202.820313,4210.256348,4220.512695,4225.512695,4223.589844,4233.589844,4232.563965,4234.487305,4051.281982,0.000000,4.000000,91.000000,,,,0.000000,4.000000,4.000000,4.000000,4.000000,4.000000,4.000000,4.000000,4.000000,4.000000,4.000000,4.000000,4.000000,4.000000,4.000000,100.000000,,,,,,,,,,,,,,,,
1644853013.773886,117.000000,0.000000,4229.871582,4217.436035,4228.846191,4225.897461,4216.538574,4203.077148,4211.794922,4224.230957,4228.589844,4230.641113,4253.205078,4237.820313,4224.230957,4035.769287,0.000000,4.000000,91.000000,,,,0.000000,4.000000,4.000000,4.000000,4.000000,4.000000,4.000000,4.000000,4.000000,4.000000,4.000000,4.000000,4.000000,4.000000,4.000000,100.000000,,,,,,,,,,,,,,,,
1644853013.777826,118.000000,0.000000,4227.307617,4211.794922,4225.128418,4222.307617,4202.948730,4203.205078,4211.538574,4224.871582,4227.436035,4231.410156,4261.538574,4238.974121,4221.922852,4022.435791,0.000000,4.000000,91.000000,,,,0.000000,4.000000,4.000000,4.000000,4.000000,4.000000,4.000000,4.000000,4.000000,4.000000,4.000000,4.000000,4.000000,4.000000,4.000000,100.000000,,,,,,,,,,,,,,,,
1644853013.781766,119.000000,0.000000,4232.307617,4209.743652,4223.077148,4219.615234,4196.153809,4203.205078,4208.717773,4221.794922,4222.948730,4225.897461,4257.051270,4235.769043,4227.692383,4020.641113,0.000000,4.000000,91.000000,,,,0.000000,4.000000,4.000000,4.000000,4.000000,4.000000,4.000000,4.000000,4.000000,4.000000,4.000000,4.000000,4.000000,4.000000,4.000000,100.000000,,,,,,,,,,,,,,,,
1644853013.785706,120.000000,0.000000,4240.641113,4211.794922,4223.333496,4217.436035,4200.641113,4202.436035,4205.512695,4216.410156,4218.205078,4218.205078,4245.256348,4229.230957,4235.769043,4031.025635,0.000000,4.000000,91.000000,,,,0.000000,4.000000,4.000000,4.000000,4.000000,4.000000,4.000000,4.000000,4.000000,4.000000,4.000000,4.000000,4.000000,4.000000,4.000000,100.000000,,,,,,,,,,,,,,,,
1644853013.789646,121.000000,0.000000,4246.410156,4215.641113,4224.102539,4214.487305,4212.179688,4201.282227,4205.384766,4211.922852,4216.025879,4213.333496,4232.948730,4221.922852,4241.153809,4045.512939,0.000000,4.000000,91.000000,,,,0.000000,4.000000,4.000000,4.000000,4.000000,4.000000,4.000000,4.000000,4.000000,4.000000,4.000000,4.000000,4.000000,4.000000,4.000000,100.000000,,,,,,,,,,,,,,,,
1644853013.793586,122.000000,0.000000,4247.051270,4218.589844,4223.974121,4211.153809,4222.563965,4200.384766,4208.589844,4211.410156,4217.436035,4213.461426,4224.487305,4216.922852,4242.948730,4053.333252,0.000000,4.000000,91.000000,,,,0.000000,4.000000,4.000000,4.000000,4.000000,4.000000,4.000000,4.000000,4.000000,4.000000,4.000000,4.000000,4.000000,4.000000,4.000000,100.000000,,,,,,,,,,,,,,,,
1644853013.797526,123.000000,0.000000,4244.487305,4220.128418,4222.307617,4210.256348,4226.538574,4200.897461,4212.436035,4215.128418,4221.538574,4217.436035,4221.282227,4216.025879,4243.077148,4048.974365,0.000000,4.000000,91.000000,,,,0.000000,4.000000,4.000000,4.000000,4.000000,4.000000,4.000000,4.000000,4.000000,4.000000,4.000000,4.000000,4.000000,4.000000,4.000000,100.000000,,,,,,,,,,,,,,,,
1644853013.801467,124.000000,0.000000,4241.922852,4220.512695,4219.615234,4215.000000,4224.102539,4202.820313,4213.205078,4220.000000,4226.153809,4222.179688,4221.794922,4217.436035,4242.307617,4035.128174,0.000000,4.000000,91.000000,,,,0.000000,4.000000,4.000000,4.000000,4.000000,4.000000,4.000000,4.000000,4.000000,4.000000,4.000000,4.000000,4.000000,4.000000,4.000000,100.000000,,,,,,,,,,,,,,,,
1644853013.805407,125.000000,0.000000,4238.717773,4219.743652,4216.282227,4223.717773,4218.077148,4205.000000,4210.512695,4222.179688,4228.205078,4224.487305,4221.922852,4217.051270,4238.077148,4021.025635,0.000000,4.000000,91.000000,,,,0.000000,4.000000,4.000000,4.000000,4.000000,4.000000,4.000000,4.000000,4.000000,4.000000,4.000000,4.000000,4.000000,4.000000,4.000000,100.000000,,,,,,,,,,,,,,,,
1644853013.809247,126.000000,0.000000,4231.794922,4216.922852,4212.563965,4230.512695,4210.769043,4205.897461,4207.179688,4220.128418,4226.666504,4223.205078,4217.436035,4212.051270,4227.948730,4014.358887,0.000000,4.000000,91.000000,,,,0.000000,4.000000,4.000000,4.000000,4.000000,4.000000,4.000000,4.000000,4.000000,4.000000,4.000000,4.000000,4.000000,4.000000,4.000000,100.000000,,,,,,,,,,,,,,,,
1644853013.813187,127.000000,0.000000,4220.256348,4212.948730,4209.230957,4229.230957,4203.717773,4205.128418,4205.512695,4214.871582,4222.307617,4219.615234,4207.948730,4204.102539,4214.487305,4016.923096,0.000000,4.000000,91.000000,,,,0.000000,4.000000,4.000000,4.000000,4.000000,4.000000,4.000000,4.000000,4.000000,4.000000,4.000000,4.000000,4.000000,4.000000,4.000000,100.000000,,,,,,,,,,,,,,,,
1644853013.817127,128.000000,0.000000,4209.230957,4210.128418,4207.307617,4220.000000,4199.871582,4203.846191,4205.256348,4209.487305,4217.692383,4216.666504,4198.589844,4198.205078,4204.871582,4024.615479,3504.000000,4.000000,91.000000,,,,0.000000,4.000000,4.000000,4.000000,4.000000,4.000000,4.000000,4.000000,4.000000,4.000000,4.000000,4.000000,4.000000,4.000000,4.000000,100.000000,1.000000,58.333332,4.000000,4.000000,4.000000,3.000000,3.000000,4.000000,4.000000,4.000000,4.000000,4.000000,3.000000,4.000000,4.000000,1.000000
1644853013.821067,129.000000,0.000000,4206.538574,4210.641113,4207.563965,4209.743652,4200.641113,4202.820313,4204.743652,4206.410156,4215.128418,4215.128418,4196.282227,4198.717773,4204.871582,4031.666748,3291.000000,4.000000,91.000000,,,,0.000000,4.000000,4.000000,4.000000,4.000000,4.000000,4.000000,4.000000,4.000000,4.000000,4.000000,4.000000,4.000000,4.000000,4.000000,100.000000,,,,,,,,,,,,,,,,
1644853013.825007,130.000000,0.000000,4215.769043,4213.974121,4209.871582,4205.641113,4204.743652,4202.563965,4203.717773,4206.025879,4214.615234,4213.077148,4203.461426,4204.743652,4213.717773,4034.487061,3534.000000,4.000000,91.000000,,,,0.000000,4.000000,4.000000,4.000000,4.000000,4.000000,4.000000,4.000000,4.000000,4.000000,4.000000,4.000000,4.000000,4.000000,4.000000,100.000000,,,,,,,,,,,,,,,,
1644853013.828947,131.000000,0.000000,4232.436035,4217.820313,4213.589844,4208.205078,4208.333496,4202.436035,4203.461426,4207.563965,4214.871582,4207.051270,4215.897461,4211.153809,4224.102539,4032.692383,3510.000000,4.000000,91.000000,,,,0.000000,4.000000,4.000000,4.000000,4.000000,4.000000,4.000000,4.000000,4.000000,4.000000,4.000000,4.000000,4.000000,4.000000,4.000000,100.000000,,,,,,,,,,,,,,,,
1644853013.832887,132.000000,0.000000,4246.410156,4219.487305,4217.179688,4210.384766,4208.846191,4201.794922,4204.871582,4209.358887,4215.000000,4197.948730,4226.282227,4212.692383,4229.102539,4028.205078,3471.000000,4.000000,91.000000,,,,0.000000,4.000000,4.000000,4.000000,4.000000,4.000000,4.000000,4.000000,4.000000,4.000000,4.000000,4.000000,4.000000,4.000000,4.000000,100.000000,,,,,,,,,,,,,,,,
1644853013.836828,133.000000,0.000000,4249.615234,4218.077148,4219.102539,4206.025879,4206.922852,4200.897461,4206.410156,4210.128418,4215.512695,4191.282227,4229.230957,4208.461426,4227.307617,4024.487061,3331.000000,4.000000,91.000000,,,,0.000000,4.000000,4.000000,4.000000,4.000000,4.000000,4.000000,4.000000,4.000000,4.000000,4.000000,4.000000,4.000000,4.000000,4.000000,100.000000,,,,,,,,,,,,,,,,
1644853013.840768,134.000000,0.000000,4242.051270,4215.512695,4219.358887,4197.948730,4205.897461,4200.641113,4206.538574,4209.743652,4217.563965,4193.333496,4222.436035,4203.077148,4222.307617,4024.487061,2552.000000,4.000000,91.000000,,,,0.000000,4.000000,4.000000,4.000000,4.000000,4.000000,4.000000,4.000000,4.000000,4.000000,4.000000,4.000000,4.000000,4.000000,4.000000,100.000000,,,,,,,,,,,,,,,,
1644853013.844708,135.000000,0.000000,4230.897461,4213.974121,4219.230957,4195.384766,4208.205078,4201.410156,4205.641113,4208.717773,4220.512695,4204.358887,4208.461426,4201.410156,4218.205078,4029.102539,3094.000000,4.000000,91.000000,,,,0.000000,4.000000,4.000000,4.000000,4.000000,4.000000,4.000000,4.000000,4.000000,4.000000,4.000000,4.000000,4.000000,4.000000,4.000000,100.000000,,,,,,,,,,,,,,,,
1644853013.848648,136.000000,0.000000,4224.615234,4214.487305,4220.384766,4204.615234,4213.333496,4202.820313,4205.769043,4208.461426,4222.179688,4217.436035,4193.717773,4204.358887,4215.512695,4035.641113,3277.000000,4.000000,91.000000,,,,0.000000,4.000000,4.000000,4.000000,4.000000,4.000000,4.000000,4.000000,4.000000,4.000000,4.000000,4.000000,4.000000,4.000000,4.000000,100.000000,,,,,,,,,,,,,,,,
1644853013.852588,137.000000,0.000000,4225.256348,4216.153809,4222.307617,4220.769043,4217.563965,4203.717773,4207.820313,4208.974121,4220.128418,4223.205078,4185.512695,4207.948730,4212.820313,4038.333252,3659.000000,4.000000,91.000000,,,,0.000000,4.000000,4.000000,4.000000,4.000000,4.000000,4.000000,4.000000,4.000000,4.000000,4.000000,4.000000,4.000000,4.000000,4.000000,100.000000,,,,,,,,,,,,,,,,
1644853013.856528,138.000000,0.000000,4228.717773,4216.794922,4222.948730,4232.436035,4216.922852,4203.205078,4209.743652,4209.230957,4214.871582,4217.692383,4187.563965,4207.948730,4209.615234,4032.307617,3532.000000,4.000000,91.000000,1,1,3,0.000000,4.000000,4.000000,4.000000,4.000000,4.000000,4.000000,4.000000,4.000000,4.000000,4.000000,4.000000,4.000000,4.000000,4.000000,100.000000,,,,,,,,,,,,,,,,
1644853013.860468,139.000000,0.000000,4229.871582,4215.384766,4220.512695,4231.794922,4210.897461,4201.282227,4209.487305,4208.077148,4209.615234,4204.871582,4197.692383,4203.717773,4207.820313,4018.718018,3398.000000,4.000000,91.000000,,,,0.000000,4.000000,4.000000,4.000000,4.000000,4.000000,4.000000,4.000000,4.000000,4.000000,4.000000,4.000000,4.000000,4.000000,4.000000,100.000000,,,,,,,,,,,,,,,,
1644853013.864408,140.000000,0.000000,4228.205078,4212.948730,4216.025879,4221.538574,4203.461426,4198.974121,4207.563965,4205.769043,4207.692383,4193.589844,4209.871582,4198.333496,4209.102539,4005.128174,3469.000000,4.000000,91.000000,,,,0.000000,4.000000,4.000000,4.000000,4.000000,4.000000,4.000000,4.000000,4.000000,4.000000,4.000000,4.000000,4.000000,4.000000,4.000000,100.000000,,,,,,,,,,,,,,,,
1644853013.868348,141.000000,0.000000,4227.563965,4212.179688,4212.820313,4210.512695,4201.282227,4198.205078,4206.794922,4204.487305,4209.487305,4191.153809,4218.974121,4195.000000,4212.563965,4000.256348,3616.000000,4.000000,91.000000,,,,0.000000,4.000000,4.000000,4.000000,4.000000,4.000000,4.000000,4.000000,4.000000,4.000000,4.000000,4.000000,4.000000,4.000000,4.000000,100.000000,,,,,,,,,,,,,,,,
1644853013.872289,142.000000,0.000000,4230.769043,4213.974121,4212.692383,4204.615234,4206.794922,4199.487305,4208.589844,4205.512695,4212.692383,4198.333496,4222.563965,4193.717773,4215.641113,4006.281982,3532.000000,4.000000,91.000000,,,,0.000000,4.000000,4.000000,4.000000,4.000000,4.000000,4.000000,4.000000,4.000000,4.000000,4.000000,4.000000,4.000000,4.000000,4.000000,100.000000,,,,,,,,,,,,,,,,
1644853013.876129,143.000000,0.000000,4236.410156,4217.051270,4214.615234,4202.692383,4214.871582,4201.666504,4210.384766,4207.820313,4214.102539,4208.717773,4219.871582,4193.077148,4215.897461,4018.205078,3398.000000,4.000000,91.000000,,,,0.000000,4.000000,4.000000,4.000000,4.000000,4.000000,4.000000,4.000000,4.000000,4.000000,4.000000,4.000000,4.000000,4.000000,4.000000,100.000000,,,,,,,,,,,,,,,,
1644853013.880069,144.000000,0.000000,4240.128418,4218.717773,4215.641113,4199.743652,4217.051270,4202.692383,4209.230957,4209.230957,4211.410156,4214.358887,4211.153809,4192.051270,4212.692383,4028.076904,3469.000000,4.000000,91.000000,,,,0.000000,4.000000,4.000000,4.000000,4.000000,4.000000,4.000000,4.000000,4.000000,4.000000,4.000000,4.000000,4.000000,4.000000,4.000000,100.000000,,,,,,,,,,,,,,,,
1644853013.884009,145.000000,0.000000,4238.205078,4217.948730,4214.743652,4193.717773,4209.743652,4201.666504,4205.128418,4207.948730,4205.897461,4210.769043,4198.461426,4192.307617,4207.692383,4031.281982,3616.000000,4.000000,91.000000,,,,0.000000,4.000000,4.000000,4.000000,4.000000,4.000000,4.000000,4.000000,4.000000,4.000000,4.000000,4.000000,4.000000,4.000000,4.000000,100.000000,,,,,,,,,,,,,,,,
1644853013.887949,146.000000,0.000000,4231.282227,4215.769043,4214.102539,4187.820313,4198.974121,4199.743652,4202.307617,4205.641113,4201.282227,4200.384766,4187.948730,4196.410156,4203.717773,4028.461426,3532.000000,4.000000,91.000000,,,,0.000000,4.000000,4.000000,4.000000,4.000000,4.000000,4.000000,4.000000,4.000000,4.000000,4.000000,4.000000,4.000000,4.000000,4.000000,100.000000,,,,,,,,,,,,,,,,
1644853013.891889,147.000000,0.000000,4224.102539,4215.000000,4216.666504,4187.563965,4195.128418,4199.871582,4204.358887,4205.128418,4201.282227,4191.282227,4186.538574,4205.000000,4203.589844,4023.333252,3398.000000,4.000000,91.000000,,,,0.000000,4.000000,4.000000,4.000000,4.000000,4.000000,4.000000,4.000000,4.000000,4.000000,4.000000,4.000000,4.000000,4.000000,4.000000,100.000000,,,,,,,,,,,,,,,,
1644853013.895829,148.000000,0.000000,4222.051270,4218.077148,4222.307617,4195.897461,4205.000000,4203.717773,4210.384766,4207.563965,4206.794922,4190.384766,4196.538574,4214.743652,4208.333496,4019.487061,3469.000000,4.000000,91.000000,,,,0.000000,4.000000,4.000000,4.000000,4.000000,4.000000,4.000000,4.000000,4.000000,4.000000,4.000000,4.000000,4.000000,4.000000,4.000000,100.000000,,,,,,,,,,,,,,,,
1644853013.899769,149.000000,0.000000,4226.153809,4224.615234,4228.333496,4210.256348,4225.384766,4210.384766,4215.769043,4211.666504,4215.256348,4198.717773,4211.666504,4220.128418,4216.153809,4018.461426,3616.000000,4.000000,91.000000,,,,0.000000,4.000000,4.000000,4.000000,4.000000,4.000000,4.000000,4.000000,4.000000,4.000000,4.000000,4.000000,4.000000,4.000000,4.000000,100.000000,,,,,,,,,,,,,,,,
1644853013.903809,150.000000,0.000000,4231.666504,4230.384766,4230.512695,4222.820313,4243.974121,4216.666504,4217.307617,4214.871582,4222.179688,4210.000000,4221.025879,4217.179688,4223.077148,4018.718018,3532.000000,4.000000,91.000000,,,,0.000000,4.000000,4.000000,4.000000,4.000000,4.000000,4.000000,4.000000,4.000000,4.000000,4.000000,4.000000,4.000000,4.000000,4.000000,100.000000,,,,,,,,,,,,,,,,
1644853013.907650,151.000000,0.000000,4233.077148,4229.615234,4227.179688,4226.153809,4248.974121,4219.102539,4215.897461,4215.256348,4224.230957,4215.897461,4217.820313,4206.922852,4225.256348,4017.948730,3398.000000,4.000000,91.000000,,,,0.000000,4.000000,4.000000,4.000000,4.000000,4.000000,4.000000,4.000000,4.000000,4.000000,4.000000,4.000000,4.000000,4.000000,4.000000,100.000000,,,,,,,,,,,,,,,,
1644853013.911590,152.000000,0.000000,4228.333496,4220.512695,4219.487305,4219.358887,4238.077148,4217.692383,4214.102539,4212.692383,4220.512695,4212.948730,4205.512695,4195.641113,4221.282227,4014.358887,3469.000000,4.000000,91.000000,,,,0.000000,4.000000,4.000000,4.000000,4.000000,4.000000,4.000000,4.000000,4.000000,4.000000,4.000000,4.000000,4.000000,4.000000,4.000000,100.000000,,,,,,,,,,,,,,,,
1644853013.915530,153.000000,0.000000,4222.307617,4208.461426,4211.794922,4209.358887,4219.871582,4214.871582,4213.461426,4209.358887,4213.974121,4205.897461,4194.871582,4190.512695,4213.974121,4009.615479,3616.000000,4.000000,91.000000,,,,0.000000,4.000000,4.000000,4.000000,4.000000,4.000000,4.000000,4.000000,4.000000,4.000000,4.000000,4.000000,4.000000,4.000000,4.000000,100.000000,,,,,,,,,,,,,,,,
1644853013.919470,154.000000,0.000000,4221.025879,4201.922852,4208.589844,4204.102539,4207.051270,4213.717773,4213.461426,4207.179688,4209.230957,4202.948730,4194.615234,4194.743652,4207.820313,4006.153809,3532.000000,4.000000,91.000000,,,,0.000000,4.000000,4.000000,4.000000,4.000000,4.000000,4.000000,4.000000,4.000000,4.000000,4.000000,4.000000,4.000000,4.000000,4.000000,100.000000,,,,,,,,,,,,,,,,
1644853013.923410,155.000000,0.000000,4226.153809,4205.897461,4211.153809,4206.025879,4206.538574,4214.615234,4213.205078,4206.794922,4208.717773,4206.666504,4205.512695,4204.615234,4206.538574,4005.769287,3398.000000,4.000000,91.000000,,,,0.000000,4.000000,4.000000,4.000000,4.000000,4.000000,4.000000,4.000000,4.000000,4.000000,4.000000,4.000000,4.000000,4.000000,4.000000,100.000000,,,,,,,,,,,,,,,,
1644853013.927350,156.000000,0.000000,4233.077148,4216.410156,4216.922852,4210.641113,4215.384766,4215.000000,4212.820313,4207.563965,4210.897461,4211.922852,4219.615234,4211.282227,4210.769043,4007.948730,3469.000000,4.000000,91.000000,,,,0.000000,4.000000,4.000000,4.000000,4.000000,4.000000,4.000000,4.000000,4.000000,4.000000,4.000000,4.000000,4.000000,4.000000,4.000000,100.000000,,,,,,,,,,,,,,,,
1644853013.931290,157.000000,0.000000,4235.512695,4224.743652,4221.282227,4211.538574,4224.487305,4212.307617,4212.820313,4207.820313,4212.307617,4211.282227,4226.410156,4209.230957,4218.333496,4011.281982,3616.000000,4.000000,91.000000,,,,0.000000,4.000000,4.000000,4.000000,4.000000,4.000000,4.000000,4.000000,4.000000,4.000000,4.000000,4.000000,4.000000,4.000000,4.000000,100.000000,,,,,,,,,,,,,,,,
1644853013.935230,158.000000,0.000000,4231.153809,4223.974121,4220.897461,4206.410156,4226.025879,4206.922852,4212.563965,4206.538574,4211.153809,4202.307617,4220.000000,4200.769043,4225.512695,4014.487061,3532.000000,4.000000,91.000000,,,,0.000000,4.000000,4.000000,4.000000,4.000000,4.000000,4.000000,4.000000,4.000000,4.000000,4.000000,4.000000,4.000000,4.000000,4.000000,100.000000,,,,,,,,,,,,,,,,
1644853013.939170,159.000000,0.000000,4223.205078,4214.487305,4216.666504,4198.205078,4220.128418,4202.179688,4211.025879,4204.743652,4208.589844,4191.538574,4203.974121,4193.717773,4228.461426,4016.281982,3398.000000,4.000000,91.000000,,,,0.000000,4.000000,4.000000,4.000000,4.000000,4.000000,4.000000,4.000000,4.000000,4.000000,4.000000,4.000000,4.000000,4.000000,4.000000,100.000000,,,,,,,,,,,,,,,,
1644853013.943111,160.000000,0.000000,4216.794922,4204.230957,4212.563965,4193.077148,4213.846191,4201.794922,4209.102539,4205.256348,4208.461426,4188.461426,4190.000000,4194.230957,4226.153809,4017.179443,3469.000000,4.000000,91.000000,,,,0.000000,4.000000,4.000000,4.000000,4.000000,4.000000,4.000000,4.000000,4.000000,4.000000,4.000000,4.000000,4.000000,4.000000,4.000000,100.000000,,,,,,,,,,,,,,,,
1644853013.947051,161.000000,0.000000,4215.384766,4201.666504,4211.282227,4195.000000,4214.230957,4206.794922,4209.230957,4210.256348,4213.205078,4197.179688,4189.487305,4202.179688,4220.897461,4017.692383,3616.000000,4.000000,91.000000,,,,0.000000,4.000000,4.000000,4.000000,4.000000,4.000000,4.000000,4.000000,4.000000,4.000000,4.000000,4.000000,4.000000,4.000000,4.000000,100.000000,,,,,,,,,,,,,,,,
1644853013.950991,162.000000,0.000000,4218.717773,4208.205078,4212.692383,4201.922852,4221.153809,4214.102539,4212.820313,4218.717773,4221.410156,4213.077148,4204.487305,4211.794922,4216.666504,4016.923096,3532.000000,4.000000,91.000000,,,,0.000000,4.000000,4.000000,4.000000,4.000000,4.000000,4.000000,4.000000,4.000000,4.000000,4.000000,4.000000,4.000000,4.000000,4.000000,100.000000,,,,,,,,,,,,,,,,
1644853013.954931,163.000000,0.000000,4222.820313,4217.563965,4213.846191,4206.794922,4226.922852,4219.230957,4217.948730,4226.538574,4229.487305,4226.153809,4225.128418,4216.538574,4214.871582,4012.948730,3398.000000,4.000000,91.000000,,,,0.000000,4.000000,4.000000,4.000000,4.000000,4.000000,4.000000,4.000000,4.000000,4.000000,4.000000,4.000000,4.000000,4.000000,4.000000,100.000000,,,,,,,,,,,,,,,,
1644853013.958871,164.000000,0.000000,4223.589844,4221.538574,4212.820313,4203.333496,4223.461426,4220.000000,4220.256348,4229.230957,4233.846191,4230.641113,4237.436035,4213.974121,4214.615234,4005.256348,3469.000000,4.000000,91.000000,,,,0.000000,4.000000,4.000000,4.000000,4.000000,4.000000,4.000000,4.000000,4.000000,4.000000,4.000000,4.000000,4.000000,4.000000,4.000000,100.000000,,,,,,,,,,,,,,,,
1644853013.962811,165.000000,0.000000,4219.358887,4217.051270,4211.025879,4193.205078,4211.410156,4217.820313,4218.461426,4226.153809,4233.589844,4227.820313,4233.205078,4207.051270,4214.487305,3997.307617,3616.000000,4.000000,91.000000,,,,0.000000,4.000000,4.000000,4.000000,4.000000,4.000000,4.000000,4.000000,4.000000,4.000000,4.000000,4.000000,4.000000,4.000000,4.000000,100.000000,,,,,,,,,,,,,,,,
1644853013.966851,166.000000,0.000000,4213.461426,4208.589844,4210.769043,4184.615234,4199.871582,4215.512695,4215.128418,4221.410156,4230.641113,4223.205078,4215.641113,4201.153809,4215.512695,3994.102539,3532.000000,4.000000,91.000000,,,,0.000000,4.000000,4.000000,4.000000,4.000000,4.000000,4.000000,4.000000,4.000000,4.000000,4.000000,4.000000,4.000000,4.000000,4.000000,100.000000,,,,,,,,,,,,,,,,
1644853013.970791,167.000000,0.000000,4210.769043,4204.102539,4213.333496,4185.897461,4198.974121,4214.871582,4213.974121,4218.974121,4227.563965,4220.512695,4197.179688,4199.230957,4219.743652,3999.230713,3398.000000,4.000000,91.000000,,,,0.000000,4.000000,4.000000,4.000000,4.000000,4.000000,4.000000,4.000000,4.000000,4.000000,4.000000,4.000000,4.000000,4.000000,4.000000,100.000000,,,,,,,,,,,,,,,,
1644853013.974731,168.000000,0.000000,4214.615234,4207.820313,4217.051270,4198.205078,4212.179688,4215.641113,4216.025879,4219.743652,4225.897461,4219.615234,4189.487305,4200.512695,4227.436035,4013.076904,3469.000000,4.000000,91.000000,2,1,3,0.000000,4.000000,4.000000,4.000000,4.000000,4.000000,4.000000,4.000000,4.000000,4.000000,4.000000,4.000000,4.000000,4.000000,4.000000,100.000000,,,,,,,,,,,,,,,,
1644853013.978671,169.000000,0.000000,4222.820313,4217.051270,4218.846191,4213.333496,4233.589844,4216.282227,4218.717773,4222.179688,4226.666504,4218.846191,4196.538574,4202.563965,4235.769043,4031.538574,3616.000000,4.000000,91.000000,,,,0.000000,4.000000,4.000000,4.000000,4.000000,4.000000,4.000000,4.000000,4.000000,4.000000,4.000000,4.000000,4.000000,4.000000,4.000000,100.000000,,,,,,,,,,,,,,,,
1644853013.982611,170.000000,0.000000,4229.615234,4224.615234,4217.692383,4221.025879,4250.641113,4216.153809,4220.256348,4224.230957,4229.358887,4217.820313,4212.436035,4203.589844,4239.615234,4047.179443,3532.000000,4.000000,91.000000,,,,0.000000,4.000000,4.000000,4.000000,4.000000,4.000000,4.000000,4.000000,4.000000,4.000000,4.000000,4.000000,4.000000,4.000000,4.000000,100.000000,,,,,,,,,,,,,,,,
1644853013.986552,171.000000,0.000000,4229.615234,4224.871582,4214.871582,4217.948730,4253.205078,4215.641113,4221.025879,4224.871582,4231.538574,4217.692383,4226.153809,4203.333496,4235.384766,4052.564209,3398.000000,4.000000,91.000000,,,,0.000000,4.000000,4.000000,4.000000,4.000000,4.000000,4.000000,4.000000,4.000000,4.000000,4.000000,4.000000,4.000000,4.000000,4.000000,100.000000,,,,,,,,,,,,,,,,
1644853013.990492,172.000000,0.000000,4222.820313,4218.461426,4212.820313,4209.743652,4240.256348,4215.000000,4222.179688,4223.717773,4231.282227,4219.743652,4228.974121,4202.948730,4223.717773,4044.615479,3469.000000,4.000000,91.000000,,,,0.000000,4.000000,4.000000,4.000000,4.000000,4.000000,4.000000,4.000000,4.000000,4.000000,4.000000,4.000000,4.000000,4.000000,4.000000,100.000000,,,,,,,,,,,,,,,,
1644853013.994432,173.000000,0.000000,4214.102539,4211.282227,4213.077148,4205.384766,4221.282227,4214.230957,4223.077148,4220.897461,4228.333496,4223.333496,4220.384766,4203.974121,4210.641113,4028.205078,3616.000000,4.000000,91.000000,,,,0.000000,4.000000,4.000000,4.000000,4.000000,4.000000,4.000000,4.000000,4.000000,4.000000,4.000000,4.000000,4.000000,4.000000,4.000000,100.000000,,,,,,,,,,,,,,,,
1644853013.998372,174.000000,0.000000,4209.871582,4208.974121,4215.384766,4208.461426,4208.589844,4213.077148,4222.051270,4217.179688,4224.358887,4226.538574,4208.077148,4207.051270,4203.846191,4012.948730,3532.000000,4.000000,91.000000,,,,0.000000,4.000000,4.000000,4.000000,4.000000,4.000000,4.000000,4.000000,4.000000,4.000000,4.000000,4.000000,4.000000,4.000000,4.000000,100.000000,,,,,,,,,,,,,,,,
1644853014.002312,175.000000,0.000000,4213.205078,4212.948730,4218.333496,4215.256348,4208.589844,4212.307617,4218.717773,4214.102539,4221.153809,4227.179688,4202.051270,4211.282227,4207.948730,4007.948730,3398.000000,4.000000,91.000000,,,,0.000000,4.000000,4.000000,4.000000,4.000000,4.000000,4.000000,4.000000,4.000000,4.000000,4.000000,4.000000,4.000000,4.000000,4.000000,100.000000,,,,,,,,,,,,,,,,
1644853014.006252,176.000000,0.000000,4222.179688,4220.256348,4220.512695,4219.487305,4217.307617,4212.820313,4216.153809,4212.436035,4218.974121,4225.128418,4206.025879,4214.102539,4220.769043,4015.897461,3469.000000,4.000000,91.000000,,,,0.000000,4.000000,4.000000,4.000000,4.000000,4.000000,4.000000,4.000000,4.000000,4.000000,4.000000,4.000000,4.000000,4.000000,4.000000,100.000000,,,,,,,,,,,,,,,,
1644853014.010192,177.000000,0.000000,4231.153809,4225.256348,4221.666504,4217.307617,4223.846191,4215.000000,4217.051270,4212.051270,4217.179688,4221.282227,4213.589844,4213.461426,4234.743652,4030.512939,3616.000000,4.000000,91.000000,,,,0.000000,4.000000,4.000000,4.000000,4.000000,4.000000,4.000000,4.000000,4.000000,4.000000,4.000000,4.000000,4.000000,4.000000,4.000000,100.000000,,,,,,,,,,,,,,,,
1644853014.014132,178.000000,0.000000,4234.743652,4224.102539,4221.794922,4210.000000,4221.794922,4217.436035,4220.384766,4211.666504,4215.256348,4216.282227,4214.871582,4209.615234,4241.153809,4040.641113,3532.000000,4.000000,91.000000,,,,0.000000,4.000000,4.000000,4.000000,4.000000,4.000000,4.000000,4.000000,4.000000,4.000000,4.000000,4.000000,4.000000,4.000000,4.000000,100.000000,,,,,,,,,,,,,,,,
1644853014.018072,179.000000,0.000000,4231.410156,4217.436035,4221.025879,4202.307617,4215.000000,4218.461426,4222.051270,4211.025879,4214.358887,4210.897461,4206.282227,4204.487305,4236.538574,4038.205078,3398.000000,4.000000,91.000000,,,,0.000000,4.000000,4.000000,4.000000,4.000000,4.000000,4.000000,4.000000,4.000000,4.000000,4.000000,4.000000,4.000000,4.000000,4.000000,100.000000,,,,,,,,,,,,,,,,
1644853014.022013,180.000000,0.000000,4223.846191,4209.487305,4219.358887,4198.205078,4213.077148,4217.563965,4218.974121,4211.153809,4216.025879,4206.153809,4194.358887,4201.025879,4224.358887,4024.487061,3469.000000,4.000000,91.000000,,,,0.000000,4.000000,4.000000,4.000000,4.000000,4.000000,4.000000,4.000000,4.000000,4.000000,4.000000,4.000000,4.000000,4.000000,4.000000,100.000000,,,,,,,,,,,,,,,,
1644853014.025953,181.000000,0.000000,4216.794922,4204.871582,4217.179688,4198.461426,4220.128418,4215.769043,4213.333496,4212.820313,4219.871582,4203.589844,4188.333496,4200.897461,4211.794922,4008.974365,3616.000000,4.000000,91.000000,,,,0.000000,4.000000,4.000000,4.000000,4.000000,4.000000,4.000000,4.000000,4.000000,4.000000,4.000000,4.000000,4.000000,4.000000,4.000000,100.000000,,,,,,,,,,,,,,,,
1644853014.029893,182.000000,0.000000,4212.820313,4204.102539,4215.256348,4200.384766,4228.974121,4213.974121,4209.743652,4215.384766,4223.205078,4204.358887,4192.307617,4203.205078,4203.717773,4002.179443,3532.000000,4.000000,91.000000,,,,0.000000,4.000000,4.000000,4.000000,4.000000,4.000000,4.000000,4.000000,4.000000,4.000000,4.000000,4.000000,4.000000,4.000000,4.000000,100.000000,,,,,,,,,,,,,,,,
1644853014.033833,183.000000,0.000000,4212.307617,4205.641113,4215.128418,4202.179688,4228.333496,4212.692383,4210.769043,4217.051270,4223.589844,4209.358887,4201.666504,4205.769043,4201.410156,4007.307617,3398.000000,4.000000,91.000000,,,,0.000000,4.000000,4.000000,4.000000,4.000000,4.000000,4.000000,4.000000,4.000000,4.000000,4.000000,4.000000,4.000000,4.000000,4.000000,100.000000,,,,,,,,,,,,,,,,
1644853014.037673,184.000000,0.000000,4214.358887,4208.077148,4217.948730,4205.128418,4215.384766,4211.922852,4214.358887,4216.666504,4221.922852,4217.692383,4208.717773,4206.153809,4203.717773,4019.615479,3469.000000,4.000000,91.000000,,,,0.000000,4.000000,4.000000,4.000000,4.000000,4.000000,4.000000,4.000000,4.000000,4.000000,4.000000,4.000000,4.000000,4.000000,4.000000,100.000000,,,,,,,,,,,,,,,,
1644853014.041613,185.000000,0.000000,4218.205078,4211.922852,4223.461426,4210.769043,4198.974121,4212.563965,4217.051270,4215.769043,4221.794922,4226.922852,4209.358887,4205.384766,4210.256348,4030.641113,3616.000000,4.000000,91.000000,,,,0.000000,4.000000,4.000000,4.000000,4.000000,4.000000,4.000000,4.000000,4.000000,4.000000,4.000000,4.000000,4.000000,4.000000,4.000000,100.000000,,,,,,,,,,,,,,,,
1644853014.045553,186.000000,0.000000,4223.717773,4218.077148,4229.358887,4216.794922,4192.179688,4215.256348,4218.077148,4216.666504,4225.897461,4233.717773,4204.871582,4205.641113,4219.743652,4035.256348,3532.000000,4.000000,91.000000,,,,0.000000,4.000000,4.000000,4.000000,4.000000,4.000000,4.000000,4.000000,4.000000,4.000000,4.000000,4.000000,4.000000,4.000000,4.000000,100.000000,,,,,,,,,,,,,,,,
1644853014.049493,187.000000,0.000000,4229.615234,4226.025879,4232.563965,4218.589844,4201.666504,4220.641113,4218.846191,4220.641113,4233.717773,4236.538574,4200.256348,4208.846191,4229.743652,4035.769287,3398.000000,4.000000,91.000000,,,,0.000000,4.000000,4.000000,4.000000,4.000000,4.000000,4.000000,4.000000,4.000000,4.000000,4.000000,4.000000,4.000000,4.000000,4.000000,100.000000,,,,,,,,,,,,,,,,
1644853014.053433,188.000000,0.000000,4233.974121,4232.436035,4230.897461,4213.717773,4222.563965,4227.436035,4220.512695,4226.025879,4241.922852,4236.794922,4199.871582,4214.230957,4236.922852,4038.076904,3469.000000,4.000000,91.000000,,,,0.000000,4.000000,4.000000,4.000000,4.000000,4.000000,4.000000,4.000000,4.000000,4.000000,4.000000,4.000000,4.000000,4.000000,4.000000,100.000000,,,,,,,,,,,,,,,,
1644853014.057374,189.000000,0.000000,4235.128418,4233.717773,4224.743652,4205.384766,4242.948730,4232.563965,4221.794922,4230.000000,4246.410156,4237.436035,4206.153809,4217.948730,4238.333496,4044.615479,3616.000000,4.000000,91.000000,,,,0.000000,4.000000,4.000000,4.000000,4.000000,4.000000,4.000000,4.000000,4.000000,4.000000,4.000000,4.000000,4.000000,4.000000,4.000000,100.000000,,,,,,,,,,,,,,,,
1644853014.061314,190.000000,0.000000,4231.538574,4228.205078,4217.307617,4199.487305,4251.410156,4232.692383,4221.153809,4230.384766,4245.128418,4239.871582,4217.179688,4216.410156,4233.077148,4051.666748,3532.000000,4.000000,91.000000,,,,0.000000,4.000000,4.000000,4.000000,4.000000,4.000000,4.000000,4.000000,4.000000,4.000000,4.000000,4.000000,4.000000,4.000000,4.000000,100.000000,,,,,,,,,,,,,,,,
1644853014.065254,191.000000,0.000000,4223.461426,4217.692383,4212.436035,4200.000000,4245.000000,4227.307617,4219.358887,4227.692383,4239.487305,4241.794922,4227.820313,4209.615234,4222.820313,4052.179443,3398.000000,4.000000,91.000000,,,,0.000000,4.000000,4.000000,4.000000,4.000000,4.000000,4.000000,4.000000,4.000000,4.000000,4.000000,4.000000,4.000000,4.000000,4.000000,100.000000,,,,,,,,,,,,,,,,
1644853014.069194,192.000000,0.000000,4212.692383,4206.410156,4212.692383,4206.410156,4230.384766,4219.230957,4218.846191,4223.846191,4232.692383,4239.487305,4231.794922,4202.307617,4211.922852,4043.205078,3469.000000,4.000000,91.000000,,,,0.000000,4.000000,4.000000,4.000000,4.000000,4.000000,4.000000,4.000000,4.000000,4.000000,4.000000,4.000000,4.000000,4.000000,4.000000,100.000000,,,,,,,,,,,,,,,,
1644853014.073134,193.000000,0.000000,4202.563965,4199.230957,4217.051270,4214.487305,4218.077148,4213.077148,4220.897461,4220.897461,4227.820313,4231.025879,4226.794922,4199.358887,4205.641113,4028.974365,3616.000000,4.000000,91.000000,,,,0.000000,4.000000,4.000000,4.000000,4.000000,4.000000,4.000000,4.000000,4.000000,4.000000,4.000000,4.000000,4.000000,4.000000,4.000000,100.000000,,,,,,,,,,,,,,,,
1644853014.077074,194.000000,0.000000,4196.922852,4198.333496,4220.897461,4219.743652,4215.128418,4212.179688,4223.717773,4219.230957,4225.769043,4218.974121,4216.025879,4201.538574,4206.794922,4018.076904,3532.000000,4.000000,91.000000,,,,0.000000,4.000000,4.000000,4.000000,4.000000,4.000000,4.000000,4.000000,4.000000,4.000000,4.000000,4.000000,4.000000,4.000000,4.000000,100.000000,,,,,,,,,,,,,,,,
1644853014.081014,195.000000,0.000000,4198.205078,4202.179688,4219.743652,4220.897461,4220.384766,4215.641113,4224.487305,4217.692383,4225.256348,4209.487305,4205.897461,4204.487305,4213.205078,4017.179443,3398.000000,4.000000,91.000000,,,,0.000000,4.000000,4.000000,4.000000,4.000000,4.000000,4.000000,4.000000,4.000000,4.000000,4.000000,4.000000,4.000000,4.000000,4.000000,100.000000,,,,,,,,,,,,,,,,
1644853014.084954,196.000000,0.000000,4206.538574,4206.538574,4213.205078,4218.589844,4227.051270,4220.000000,4222.948730,4215.641113,4224.871582,4207.563965,4201.025879,4203.974121,4219.871582,4026.025635,3469.000000,4.000000,91.000000,,,,0.000000,4.000000,4.000000,4.000000,4.000000,4.000000,4.000000,4.000000,4.000000,4.000000,4.000000,4.000000,4.000000,4.000000,4.000000,100.000000,,,,,,,,,,,,,,,,
1644853014.088894,197.000000,0.000000,4217.820313,4208.717773,4206.153809,4213.205078,4227.820313,4221.794922,4221.410156,4214.102539,4224.358887,4214.102539,4202.948730,4200.512695,4223.461426,4038.974365,3616.000000,4.000000,91.000000,,,,0.000000,4.000000,4.000000,4.000000,4.000000,4.000000,4.000000,4.000000,4.000000,4.000000,4.000000,4.000000,4.000000,4.000000,4.000000,100.000000,,,,,,,,,,,,,,,,
1644853014.092835,198.000000,0.000000,4226.153809,4209.871582,4205.256348,4204.358887,4220.128418,4220.897461,4221.794922,4214.743652,4223.846191,4225.512695,4210.128418,4198.974121,4224.615234,4049.743652,3532.000000,4.000000,91.000000,,,,0.000000,4.000000,4.000000,4.000000,4.000000,4.000000,4.000000,4.000000,4.000000,4.000000,4.000000,4.000000,4.000000,4.000000,4.000000,100.000000,,,,,,,,,,,,,,,,
1644853014.096775,199.000000,0.000000,4227.051270,4212.948730,4212.179688,4193.846191,4208.205078,4219.358887,4222.692383,4217.692383,4224.615234,4236.410156,4219.230957,4202.948730,4225.769043,4055.897461,3398.000000,4.000000,91.000000,,,,0.000000,4.000000,4.000000,4.000000,4.000000,4.000000,4.000000,4.000000,4.000000,4.000000,4.000000,4.000000,4.000000,4.000000,4.000000,100.000000,,,,,,,,,,,,,,,,
1644853014.100715,200.000000,0.000000,4220.897461,4218.461426,4222.563965,4187.051270,4199.743652,4218.974121,4221.538574,4221.282227,4226.538574,4241.666504,4225.897461,4210.897461,4226.794922,4058.076904,3469.000000,4.000000,91.000000,,,,0.000000,4.000000,4.000000,4.000000,4.000000,4.000000,4.000000,4.000000,4.000000,4.000000,4.000000,4.000000,4.000000,4.000000,4.000000,100.000000,,,,,,,,,,,,,,,,
1644853014.104655,201.000000,0.000000,4212.948730,4222.563965,4229.230957,4191.153809,4200.128418,4219.615234,4217.948730,4223.205078,4227.948730,4238.461426,4225.512695,4217.051270,4224.487305,4057.820557,3616.000000,4.000000,91.000000,,,,0.000000,4.000000,4.000000,4.000000,4.000000,4.000000,4.000000,4.000000,4.000000,4.000000,4.000000,4.000000,4.000000,4.000000,4.000000,100.000000,,,,,,,,,,,,,,,,
1644853014.108695,202.000000,0.000000,4209.230957,4220.769043,4228.461426,4208.846191,4209.871582,4219.871582,4214.487305,4222.692383,4226.922852,4227.307617,4216.794922,4216.282227,4216.025879,4055.128174,3532.000000,4.000000,91.000000,,,,0.000000,4.000000,4.000000,4.000000,4.000000,4.000000,4.000000,4.000000,4.000000,4.000000,4.000000,4.000000,4.000000,4.000000,4.000000,100.000000,,,,,,,,,,,,,,,,
1644853014.112635,203.000000,0.000000,4212.051270,4212.307617,4221.538574,4233.846191,4223.974121,4218.333496,4213.717773,4220.512695,4223.974121,4213.205078,4203.333496,4208.846191,4203.846191,4050.128174,3398.000000,4.000000,91.000000,,,,0.000000,4.000000,4.000000,4.000000,4.000000,4.000000,4.000000,4.000000,4.000000,4.000000,4.000000,4.000000,4.000000,4.000000,4.000000,100.000000,,,,,,,,,,,,,,,,
1644853014.116575,204.000000,0.000000,4217.563965,4201.666504,4213.205078,4252.948730,4235.384766,4215.641113,4214.615234,4217.820313,4221.282227,4202.820313,4191.922852,4199.871582,4195.128418,4044.743652,3469.000000,4.000000,91.000000,3,1,3,0.000000,4.000000,4.000000,4.000000,4.000000,4.000000,4.000000,4.000000,4.000000,4.000000,4.000000,4.000000,4.000000,4.000000,4.000000,100.000000,,,,,,,,,,,,,,,,
1644853014.120515,205.000000,0.000000,4220.128418,4195.897461,4207.692383,4254.358887,4237.692383,4213.974121,4214.743652,4215.256348,4220.128418,4200.641113,4189.230957,4195.384766,4195.256348,4042.564209,3616.000000,4.000000,91.000000,,,,0.000000,4.000000,4.000000,4.000000,4.000000,4.000000,4.000000,4.000000,4.000000,4.000000,4.000000,4.000000,4.000000,4.000000,4.000000,100.000000,,,,,,,,,,,,,,,,
1644853014.124455,206.000000,0.000000,4217.179688,4199.487305,4206.666504,4236.282227,4230.769043,4214.358887,4213.333496,4213.717773,4220.641113,4205.512695,4196.794922,4197.307617,4203.461426,4045.256348,3532.000000,4.000000,91.000000,,,,0.000000,4.000000,4.000000,4.000000,4.000000,4.000000,4.000000,4.000000,4.000000,4.000000,4.000000,4.000000,4.000000,4.000000,4.000000,100.000000,,,,,,,,,,,,,,,,
1644853014.128395,207.000000,0.000000,4212.051270,4210.512695,4209.615234,4210.384766,4220.641113,4216.153809,4212.307617,4214.230957,4221.794922,4211.922852,4209.743652,4203.333496,4213.589844,4050.128174,3398.000000,4.000000,91.000000,,,,0.000000,4.000000,4.000000,4.000000,4.000000,4.000000,4.000000,4.000000,4.000000,4.000000,4.000000,4.000000,4.000000,4.000000,4.000000,100.000000,,,,,,,,,,,,,,,,
1644853014.132335,208.000000,0.000000,4210.897461,4222.051270,4215.000000,4193.333496,4214.615234,4217.436035,4213.333496,4216.922852,4223.846191,4214.743652,4220.897461,4210.128418,4218.974121,4052.051270,3469.000000,4.000000,91.000000,,,,0.000000,4.000000,4.000000,4.000000,4.000000,4.000000,4.000000,4.000000,4.000000,4.000000,4.000000,4.000000,4.000000,4.000000,4.000000,100.000000,,,,,,,,,,,,,,,,
1644853014.136276,209.000000,0.000000,4218.077148,4227.820313,4220.384766,4194.230957,4214.871582,4217.820313,4215.641113,4220.769043,4227.307617,4213.077148,4225.384766,4215.641113,4218.846191,4047.948730,3616.000000,4.000000,91.000000,,,,0.000000,4.000000,4.000000,4.000000,4.000000,4.000000,4.000000,4.000000,4.000000,4.000000,4.000000,4.000000,4.000000,4.000000,4.000000,100.000000,,,,,,,,,,,,,,,,
1644853014.140216,210.000000,0.000000,4230.769043,4225.897461,4223.846191,4208.589844,4216.666504,4217.948730,4217.051270,4223.846191,4232.051270,4210.897461,4224.102539,4219.871582,4217.051270,4041.281982,3532.000000,4.000000,91.000000,,,,0.000000,4.000000,4.000000,4.000000,4.000000,4.000000,4.000000,4.000000,4.000000,4.000000,4.000000,4.000000,4.000000,4.000000,4.000000,100.000000,,,,,,,,,,,,,,,,
1644853014.144156,211.000000,0.000000,4240.641113,4218.333496,4224.615234,4223.461426,4214.743652,4218.461426,4217.051270,4224.871582,4236.282227,4212.179688,4222.179688,4222.948730,4217.692383,4038.461426,3398.000000,4.000000,91.000000,,,,0.000000,4.000000,4.000000,4.000000,4.000000,4.000000,4.000000,4.000000,4.000000,4.000000,4.000000,4.000000,4.000000,4.000000,4.000000,100.000000,,,,,,,,,,,,,,,,
1644853014.148096,212.000000,0.000000,4239.615234,4209.230957,4223.846191,4228.589844,4208.589844,4218.589844,4216.922852,4223.846191,4237.307617,4217.563965,4223.974121,4223.974121,4220.128418,4042.820557,3469.000000,4.000000,91.000000,,,,0.000000,4.000000,4.000000,4.000000,4.000000,4.000000,4.000000,4.000000,4.000000,4.000000,4.000000,4.000000,4.000000,4.000000,4.000000,100.000000,,,,,,,,,,,,,,,,
1644853014.152036,213.000000,0.000000,4225.641113,4202.051270,4222.820313,4223.461426,4203.205078,4216.410156,4217.179688,4221.666504,4233.461426,4223.974121,4227.948730,4221.025879,4219.871582,4051.538574,3616.000000,4.000000,91.000000,,,,0.000000,4.000000,4.000000,4.000000,4.000000,4.000000,4.000000,4.000000,4.000000,4.000000,4.000000,4.000000,4.000000,4.000000,4.000000,100.000000,,,,,,,,,,,,,,,,
1644853014.155976,214.000000,0.000000,4205.256348,4198.846191,4221.538574,4215.000000,4202.948730,4211.410156,4216.794922,4219.358887,4226.538574,4227.563965,4227.948730,4213.589844,4213.461426,4058.974365,3532.000000,4.000000,91.000000,,,,0.000000,4.000000,4.000000,4.000000,4.000000,4.000000,4.000000,4.000000,4.000000,4.000000,4.000000,4.000000,4.000000,4.000000,4.000000,100.000000,,,,,,,,,,,,,,,,
1644853014.159916,215.000000,0.000000,4188.717773,4200.000000,4218.846191,4210.512695,4206.922852,4205.384766,4214.615234,4217.307617,4220.384766,4226.153809,4218.589844,4204.230957,4202.692383,4061.025635,3398.000000,4.000000,91.000000,,,,0.000000,4.000000,4.000000,4.000000,4.000000,4.000000,4.000000,4.000000,4.000000,4.000000,4.000000,4.000000,4.000000,4.000000,4.000000,100.000000,,,,,,,,,,,,,,,,
1644853014.163856,216.000000,0.000000,4183.205078,4203.846191,4214.358887,4211.538574,4210.256348,4201.922852,4211.410156,4215.641113,4217.820313,4220.769043,4201.025879,4197.563965,4193.846191,4057.179443,3469.000000,4.000000,91.000000,,,,0.000000,4.000000,4.000000,4.000000,4.000000,4.000000,4.000000,4.000000,4.000000,4.000000,4.000000,4.000000,4.000000,4.000000,4.000000,100.000000,,,,,,,,,,,,,,,,
1644853014.167796,217.000000,0.000000,4189.102539,4207.820313,4209.743652,4213.461426,4209.743652,4203.205078,4210.384766,4214.487305,4218.461426,4214.487305,4185.256348,4196.282227,4191.922852,4050.256348,3616.000000,4.000000,91.000000,,,,0.000000,4.000000,4.000000,4.000000,4.000000,4.000000,4.000000,4.000000,4.000000,4.000000,4.000000,4.000000,4.000000,4.000000,4.000000,100.000000,,,,,,,,,,,,,,,,
1644853014.171737,218.000000,0.000000,4201.153809,4209.615234,4206.922852,4212.692383,4207.051270,4208.461426,4212.692383,4214.230957,4219.871582,4210.384766,4182.692383,4199.358887,4196.538574,4046.025635,3532.000000,4.000000,91.000000,,,,0.000000,4.000000,4.000000,4.000000,4.000000,4.000000,4.000000,4.000000,4.000000,4.000000,4.000000,4.000000,4.000000,4.000000,4.000000,100.000000,,,,,,,,,,,,,,,,
1644853014.175777,219.000000,0.000000,4213.205078,4208.974121,4207.307617,4211.538574,4207.051270,4214.615234,4215.897461,4214.358887,4220.256348,4209.743652,4196.922852,4203.077148,4202.820313,4048.846191,3398.000000,4.000000,91.000000,,,,0.000000,4.000000,4.000000,4.000000,4.000000,4.000000,4.000000,4.000000,4.000000,4.000000,4.000000,4.000000,4.000000,4.000000,4.000000,100.000000,,,,,,,,,,,,,,,,
1644853014.179717,220.000000,0.000000,4220.641113,4206.282227,4210.641113,4216.538574,4211.666504,4218.461426,4216.410156,4214.487305,4219.743652,4210.897461,4220.000000,4204.487305,4205.897461,4058.718018,3469.000000,4.000000,91.000000,,,,0.000000,4.000000,4.000000,4.000000,4.000000,4.000000,4.000000,4.000000,4.000000,4.000000,4.000000,4.000000,4.000000,4.000000,4.000000,100.000000,,,,,,,,,,,,,,,,
1644853014.183657,221.000000,0.000000,4222.692383,4203.077148,4215.512695,4229.615234,4218.333496,4218.589844,4213.717773,4213.589844,4219.487305,4211.153809,4236.666504,4203.717773,4204.871582,4070.000000,3616.000000,4.000000,91.000000,,,,0.000000,4.000000,4.000000,4.000000,4.000000,4.000000,4.000000,4.000000,4.000000,4.000000,4.000000,4.000000,4.000000,4.000000,4.000000,100.000000,,,,,,,,,,,,,,,,
1644853014.187597,222.000000,0.000000,4220.897461,4201.282227,4219.743652,4242.563965,4221.666504,4216.025879,4211.282227,4212.307617,4219.871582,4208.974121,4236.666504,4202.051270,4203.205078,4075.769287,3532.000000,4.000000,91.000000,,,,0.000000,4.000000,4.000000,4.000000,4.000000,4.000000,4.000000,4.000000,4.000000,4.000000,4.000000,4.000000,4.000000,4.000000,4.000000,100.000000,,,,,,,,,,,,,,,,
1644853014.191537,223.000000,0.000000,4217.692383,4203.077148,4222.051270,4242.179688,4219.102539,4213.077148,4212.563965,4211.410156,4220.512695,4206.538574,4221.922852,4200.641113,4205.000000,4072.948730,3398.000000,4.000000,91.000000,,,,0.000000,4.000000,4.000000,4.000000,4.000000,4.000000,4.000000,4.000000,4.000000,4.000000,4.000000,4.000000,4.000000,4.000000,4.000000,100.000000,,,,,,,,,,,,,,,,
1644853014.195477,224.000000,0.000000,4214.743652,4208.846191,4222.179688,4223.461426,4212.692383,4212.179688,4216.922852,4211.538574,4220.641113,4206.794922,4206.153809,4199.743652,4211.538574,4063.718018,3469.000000,4.000000,91.000000,,,,0.000000,4.000000,4.000000,4.000000,4.000000,4.000000,4.000000,4.000000,4.000000,4.000000,4.000000,4.000000,4.000000,4.000000,4.000000,100.000000,,,,,,,,,,,,,,,,
1644853014.199417,225.000000,0.000000,4212.820313,4216.666504,4221.282227,4195.512695,4207.692383,4213.717773,4220.641113,4212.307617,4219.871582,4210.512695,4202.563965,4200.128418,4219.743652,4053.974365,3616.000000,4.000000,91.000000,,,,0.000000,4.000000,4.000000,4.000000,4.000000,4.000000,4.000000,4.000000,4.000000,4.000000,4.000000,4.000000,4.000000,4.000000,4.000000,100.000000,,,,,,,,,,,,,,,,
1644853014.203357,226.000000,0.000000,4212.563965,4223.205078,4221.410156,4175.512695,4207.692383,4216.410156,4221.025879,4213.205078,4219.358887,4215.384766,4212.692383,4202.307617,4225.384766,4050.128174,3532.000000,4.000000,91.000000,,,,0.000000,4.000000,4.000000,4.000000,4.000000,4.000000,4.000000,4.000000,4.000000,4.000000,4.000000,4.000000,4.000000,4.000000,4.000000,100.000000,,,,,,,,,,,,,,,,
1644853014.207297,227.000000,0.000000,4214.743652,4226.025879,4224.102539,4176.666504,4212.051270,4217.820313,4219.230957,4214.871582,4220.641113,4218.974121,4226.153809,4206.922852,4225.384766,4054.743652,3398.000000,4.000000,91.000000,,,,0.000000,4.000000,4.000000,4.000000,4.000000,4.000000,4.000000,4.000000,4.000000,4.000000,4.000000,4.000000,4.000000,4.000000,4.000000,100.000000,,,,,,,,,,,,,,,,
1644853014.211237,228.000000,0.000000,4218.974121,4224.871582,4228.461426,4199.743652,4217.563965,4217.051270,4218.205078,4217.948730,4224.230957,4221.410156,4231.153809,4213.461426,4220.512695,4065.512939,3469.000000,4.000000,91.000000,,,,0.000000,4.000000,4.000000,4.000000,4.000000,4.000000,4.000000,4.000000,4.000000,4.000000,4.000000,4.000000,4.000000,4.000000,4.000000,100.000000,,,,,,,,,,,,,,,,
1644853014.215178,229.000000,0.000000,4223.717773,4221.410156,4232.179688,4231.282227,4221.282227,4214.871582,4219.358887,4222.563965,4229.102539,4224.743652,4225.769043,4220.128418,4214.102539,4075.769287,3616.000000,4.000000,91.000000,,,,0.000000,4.000000,4.000000,4.000000,4.000000,4.000000,4.000000,4.000000,4.000000,4.000000,4.000000,4.000000,4.000000,4.000000,4.000000,100.000000,,,,,,,,,,,,,,,,
1644853014.219118,230.000000,0.000000,4225.897461,4217.436035,4232.948730,4252.563965,4222.563965,4213.333496,4221.153809,4226.410156,4233.333496,4230.000000,4218.846191,4224.358887,4210.769043,4079.487061,3532.000000,4.000000,91.000000,,,,0.000000,4.000000,4.000000,4.000000,4.000000,4.000000,4.000000,4.000000,4.000000,4.000000,4.000000,4.000000,4.000000,4.000000,4.000000,100.000000,,,,,,,,,,,,,,,,
1644853014.223058,231.000000,0.000000,4224.230957,4213.077148,4230.897461,4252.436035,4222.051270,4213.461426,4222.179688,4227.820313,4235.769043,4235.384766,4220.384766,4223.974121,4212.948730,4075.641113,3398.000000,4.000000,91.000000,,,,0.000000,4.000000,4.000000,4.000000,4.000000,4.000000,4.000000,4.000000,4.000000,4.000000,4.000000,4.000000,4.000000,4.000000,4.000000,100.000000,,,,,,,,,,,,,,,,
1644853014.226998,232.000000,0.000000,4220.384766,4208.974121,4227.307617,4235.128418,4220.512695,4214.743652,4222.563965,4226.410156,4236.794922,4238.205078,4231.794922,4219.102539,4220.769043,4069.871826,3469.000000,4.000000,91.000000,,,,0.000000,4.000000,4.000000,4.000000,4.000000,4.000000,4.000000,4.000000,4.000000,4.000000,4.000000,4.000000,4.000000,4.000000,4.000000,100.000000,,,,,,,,,,,,,,,,
1644853014.230938,233.000000,0.000000,4217.820313,4207.179688,4223.461426,4215.769043,4219.743652,4215.769043,4223.333496,4224.615234,4237.307617,4237.436035,4245.000000,4213.205078,4232.179688,4069.358887,3616.000000,4.000000,91.000000,,,,0.000000,4.000000,4.000000,4.000000,4.000000,4.000000,4.000000,4.000000,4.000000,4.000000,4.000000,4.000000,4.000000,4.000000,4.000000,100.000000,,,,,,,,,,,,,,,,
1644853014.234878,234.000000,0.000000,4218.589844,4209.743652,4219.615234,4206.922852,4221.153809,4215.384766,4223.974121,4224.358887,4238.205078,4234.487305,4250.128418,4210.128418,4243.333496,4076.538574,3532.000000,4.000000,91.000000,,,,0.000000,4.000000,4.000000,4.000000,4.000000,4.000000,4.000000,4.000000,4.000000,4.000000,4.000000,4.000000,4.000000,4.000000,4.000000,100.000000,,,,,,,,,,,,,,,,
1644853014.238818,235.000000,0.000000,4221.153809,4216.282227,4216.538574,4208.974121,4223.846191,4213.205078,4222.948730,4226.153809,4239.487305,4232.307617,4243.589844,4211.538574,4249.102539,4085.769287,3398.000000,4.000000,91.000000,,,,0.000000,4.000000,4.000000,4.000000,4.000000,4.000000,4.000000,4.000000,4.000000,4.000000,4.000000,4.000000,4.000000,4.000000,4.000000,100.000000,,,,,,,,,,,,,,,,
1644853014.242758,236.000000,0.000000,4221.410156,4222.692383,4214.487305,4213.077148,4223.974121,4210.256348,4219.615234,4227.563965,4240.512695,4232.179688,4230.384766,4215.128418,4244.102539,4087.692383,3469.000000,4.000000,91.000000,,,,0.000000,4.000000,4.000000,4.000000,4.000000,4.000000,4.000000,4.000000,4.000000,4.000000,4.000000,4.000000,4.000000,4.000000,4.000000,100.000000,,,,,,,,,,,,,,,,
1644853014.246599,237.000000,0.000000,4216.025879,4223.717773,4213.846191,4210.256348,4217.563965,4208.589844,4216.153809,4226.538574,4239.871582,4232.307617,4219.358887,4216.538574,4226.794922,4078.205078,3616.000000,4.000000,91.000000,,,,0.000000,4.000000,4.000000,4.000000,4.000000,4.000000,4.000000,4.000000,4.000000,4.000000,4.000000,4.000000,4.000000,4.000000,4.000000,100.000000,,,,,,,,,,,,,,,,
1644853014.250539,238.000000,0.000000,4206.538574,4217.692383,4214.615234,4200.256348,4205.512695,4209.487305,4215.256348,4223.333496,4237.820313,4230.641113,4216.922852,4212.820313,4203.077148,4062.948730,3532.000000,4.000000,91.000000,,,,0.000000,4.000000,4.000000,4.000000,4.000000,4.000000,4.000000,4.000000,4.000000,4.000000,4.000000,4.000000,4.000000,4.000000,4.000000,100.000000,,,,,,,,,,,,,,,,
1644853014.254479,239.000000,0.000000,4199.102539,4209.358887,4216.282227,4191.794922,4194.487305,4212.820313,4216.922852,4220.128418,4236.153809,4226.794922,4222.820313,4205.512695,4185.641113,4052.948730,3398.000000,4.000000,91.000000,,,,0.000000,4.000000,4.000000,4.000000,4.000000,4.000000,4.000000,4.000000,4.000000,4.000000,4.000000,4.000000,4.000000,4.000000,4.000000,100.000000,,,,,,,,,,,,,,,,
1644853014.258419,240.000000,0.000000,4200.384766,4206.794922,4218.077148,4194.102539,4193.461426,4216.538574,4218.717773,4219.230957,4237.051270,4223.974121,4231.538574,4199.615234,4185.384766,4056.666748,3469.000000,4.000000,91.000000,,,,0.000000,4.000000,4.000000,4.000000,4.000000,4.000000,4.000000,4.000000,4.000000,4.000000,4.000000,4.000000,4.000000,4.000000,4.000000,100.000000,,,,,,,,,,,,,,,,
1644853014.262359,241.000000,0.000000,4211.794922,4214.871582,4220.000000,4208.589844,4205.769043,4218.461426,4219.102539,4220.512695,4239.615234,4225.641113,4236.025879,4198.974121,4203.589844,4073.076904,3616.000000,4.000000,91.000000,,,,0.000000,4.000000,4.000000,4.000000,4.000000,4.000000,4.000000,4.000000,4.000000,4.000000,4.000000,4.000000,4.000000,4.000000,4.000000,100.000000,,,,,,,,,,,,,,,,
1644853014.266299,242.000000,0.000000,4227.051270,4230.256348,4222.436035,4226.922852,4225.000000,4217.563965,4218.846191,4222.436035,4240.512695,4231.153809,4231.538574,4203.333496,4229.871582,4093.589844,3532.000000,4.000000,91.000000,,,,0.000000,4.000000,4.000000,4.000000,4.000000,4.000000,4.000000,4.000000,4.000000,4.000000,4.000000,4.000000,4.000000,4.000000,4.000000,100.000000,,,,,,,,,,,,,,,,
1644853014.270239,243.000000,0.000000,4235.897461,4243.333496,4225.512695,4238.846191,4238.974121,4215.512695,4220.000000,4222.307617,4237.051270,4235.512695,4218.461426,4208.974121,4249.230957,4106.922852,3398.000000,4.000000,91.000000,,,,0.000000,4.000000,4.000000,4.000000,4.000000,4.000000,4.000000,4.000000,4.000000,4.000000,4.000000,4.000000,4.000000,4.000000,4.000000,100.000000,,,,,,,,,,,,,,,,
1644853014.274179,244.000000,0.000000,4232.563965,4244.487305,4228.589844,4240.128418,4240.256348,4214.615234,4222.436035,4219.615234,4230.128418,4233.077148,4203.205078,4212.179688,4251.538574,4106.538574,3469.000000,4.000000,91.000000,,,,0.000000,4.000000,4.000000,4.000000,4.000000,4.000000,4.000000,4.000000,4.000000,4.000000,4.000000,4.000000,4.000000,4.000000,4.000000,100.000000,,,,,,,,,,,,,,,,
1644853014.278119,245.000000,0.000000,4219.871582,4232.307617,4230.128418,4234.743652,4231.794922,4216.025879,4223.974121,4216.025879,4223.589844,4223.717773,4195.641113,4212.307617,4237.948730,4093.589844,3616.000000,4.000000,91.000000,,,,0.000000,4.000000,4.000000,4.000000,4.000000,4.000000,4.000000,4.000000,4.000000,4.000000,4.000000,4.000000,4.000000,4.000000,4.000000,100.000000,,,,,,,,,,,,,,,,
1644853014.282059,246.000000,0.000000,4207.051270,4215.128418,4229.230957,4229.102539,4222.820313,4218.589844,4222.948730,4214.230957,4221.282227,4213.333496,4201.794922,4211.025879,4218.461426,4076.666748,3532.000000,4.000000,91.000000,,,,0.000000,4.000000,4.000000,4.000000,4.000000,4.000000,4.000000,4.000000,4.000000,4.000000,4.000000,4.000000,4.000000,4.000000,4.000000,100.000000,,,,,,,,,,,,,,,,
1644853014.286000,247.000000,0.000000,4202.948730,4203.974121,4226.282227,4227.436035,4220.000000,4219.743652,4220.512695,4215.128418,4223.461426,4208.974121,4218.974121,4210.512695,4204.358887,4065.641113,3398.000000,4.000000,91.000000,,,,0.000000,4.000000,4.000000,4.000000,4.000000,4.000000,4.000000,4.000000,4.000000,4.000000,4.000000,4.000000,4.000000,4.000000,4.000000,100.000000,,,,,,,,,,,,,,,,
1644853014.289940,248.000000,0.000000,4209.102539,4204.871582,4223.077148,4228.589844,4222.436035,4218.205078,4219.230957,4217.563965,4226.922852,4212.563965,4237.436035,4212.051270,4201.410156,4065.128174,3469.000000,4.000000,91.000000,,,,0.000000,4.000000,4.000000,4.000000,4.000000,4.000000,4.000000,4.000000,4.000000,4.000000,4.000000,4.000000,4.000000,4.000000,4.000000,100.000000,,,,,,,,,,,,,,,,
1644853014.293880,249.000000,0.000000,4220.128418,4215.000000,4221.538574,4228.333496,4225.128418,4215.256348,4220.256348,4219.358887,4228.461426,4221.153809,4247.692383,4215.000000,4208.205078,4073.718018,3616.000000,4.000000,91.000000,,,,0.000000,4.000000,4.000000,4.000000,4.000000,4.000000,4.000000,4.000000,4.000000,4.000000,4.000000,4.000000,4.000000,4.000000,4.000000,100.000000,,,,,,,,,,,,,,,,
1644853014.297820,250.000000,0.000000,4229.487305,4227.948730,4223.205078,4223.461426,4225.256348,4214.487305,4221.922852,4219.743652,4228.461426,4229.743652,4246.538574,4218.077148,4219.743652,4087.307617,3532.000000,4.000000,91.000000,,,,0.000000,4.000000,4.000000,4.000000,4.000000,4.000000,4.000000,4.000000,4.000000,4.000000,4.000000,4.000000,4.000000,4.000000,4.000000,100.000000,,,,,,,,,,,,,,,,
1644853014.301760,251.000000,0.000000,4234.871582,4238.205078,4228.974121,4215.897461,4223.717773,4216.922852,4222.051270,4219.743652,4229.615234,4236.025879,4238.846191,4220.512695,4231.153809,4102.051270,3398.000000,4.000000,91.000000,,,,0.000000,4.000000,4.000000,4.000000,4.000000,4.000000,4.000000,4.000000,4.000000,4.000000,4.000000,4.000000,4.000000,4.000000,4.000000,100.000000,,,,,,,,,,,,,,,,
1644853014.305700,252.000000,0.000000,4237.051270,4243.205078,4236.666504,4211.410156,4222.307617,4220.512695,4220.512695,4221.025879,4232.948730,4238.974121,4231.538574,4222.179688,4239.487305,4113.589844,3469.000000,4.000000,91.000000,,,,0.000000,4.000000,4.000000,4.000000,4.000000,4.000000,4.000000,4.000000,4.000000,4.000000,4.000000,4.000000,4.000000,4.000000,4.000000,100.000000,,,,,,,,,,,,,,,,
1644853014.309640,253.000000,0.000000,4236.922852,4242.051270,4242.051270,4213.205078,4220.641113,4221.410156,4218.974121,4223.589844,4236.153809,4238.205078,4227.820313,4222.307617,4243.589844,4117.179688,3616.000000,4.000000,91.000000,,,,0.000000,4.000000,4.000000,4.000000,4.000000,4.000000,4.000000,4.000000,4.000000,4.000000,4.000000,4.000000,4.000000,4.000000,4.000000,100.000000,,,,,,,,,,,,,,,,
1644853014.313580,254.000000,0.000000,4233.589844,4235.128418,4241.666504,4220.256348,4217.051270,4217.820313,4218.077148,4225.897461,4236.153809,4234.871582,4226.282227,4219.358887,4243.589844,4110.512695,3532.000000,4.000000,91.000000,,,,0.000000,4.000000,4.000000,4.000000,4.000000,4.000000,4.000000,4.000000,4.000000,4.000000,4.000000,4.000000,4.000000,4.000000,4.000000,100.000000,,,,,,,,,,,,,,,,
1644853014.317520,255.000000,0.000000,4226.666504,4224.358887,4234.871582,4228.717773,4210.384766,4211.410156,4216.922852,4225.897461,4232.179688,4231.153809,4224.871582,4212.692383,4240.897461,4097.436035,114.000000,4.000000,91.000000,,,,0.000000,4.000000,4.000000,4.000000,4.000000,4.000000,4.000000,4.000000,4.000000,4.000000,4.000000,4.000000,4.000000,4.000000,4.000000,100.000000,,,,,,,,,,,,,,,,
1644853014.321361,0.000000,0.000000,4218.077148,4213.846191,4225.128418,4235.769043,4204.358887,4206.410156,4215.000000,4222.948730,4226.922852,4228.333496,4223.974121,4204.871582,4237.051270,4085.641113,3414.000000,4.000000,91.000000,,,,0.000000,4.000000,4.000000,4.000000,4.000000,4.000000,4.000000,4.000000,4.000000,4.000000,4.000000,4.000000,4.000000,4.000000,4.000000,100.000000,1.000000,58.333332,4.000000,3.000000,4.000000,4.000000,3.000000,4.000000,4.000000,4.000000,4.000000,4.000000,3.000000,4.000000,3.000000,1.000000
1644853014.325301,1.000000,0.000000,4210.897461,4208.461426,4217.307617,4239.615234,4204.871582,4206.410156,4213.461426,4219.358887,4224.102539,4225.512695,4224.615234,4200.641113,4232.436035,4081.281982,3281.000000,4.000000,91.000000,,,,0.000000,4.000000,4.000000,4.000000,4.000000,4.000000,4.000000,4.000000,4.000000,4.000000,4.000000,4.000000,4.000000,4.000000,4.000000,100.000000,,,,,,,,,,,,,,,,
1644853014.329241,2.000000,0.000000,4207.692383,4210.769043,4214.102539,4238.333496,4214.871582,4210.897461,4214.358887,4218.333496,4225.256348,4222.051270,4225.641113,4202.436035,4225.384766,4084.487061,3440.000000,4.000000,91.000000,,,,0.000000,4.000000,4.000000,4.000000,4.000000,4.000000,4.000000,4.000000,4.000000,4.000000,4.000000,4.000000,4.000000,4.000000,4.000000,100.000000,,,,,,,,,,,,,,,,
1644853014.333181,3.000000,0.000000,4208.205078,4219.358887,4215.128418,4231.025879,4229.871582,4216.538574,4218.077148,4221.025879,4229.230957,4218.461426,4223.077148,4208.205078,4214.871582,4089.743652,3494.000000,4.000000,91.000000,,,,0.000000,4.000000,4.000000,4.000000,4.000000,4.000000,4.000000,4.000000,4.000000,4.000000,4.000000,4.000000,4.000000,4.000000,4.000000,100.000000,,,,,,,,,,,,,,,,
1644853014.337121,4.000000,0.000000,4210.512695,4228.333496,4217.307617,4220.128418,4240.769043,4219.743652,4222.051270,4225.384766,4233.333496,4216.922852,4214.615234,4213.333496,4202.948730,4090.897461,3345.000000,4.000000,91.000000,,,,0.000000,4.000000,4.000000,4.000000,4.000000,4.000000,4.000000,4.000000,4.000000,4.000000,4.000000,4.000000,4.000000,4.000000,4.000000,100.000000,,,,,,,,,,,,,,,,
1644853014.341061,5.000000,0.000000,4211.922852,4231.410156,4218.205078,4210.769043,4241.025879,4219.615234,4223.333496,4227.820313,4235.000000,4218.333496,4203.846191,4214.102539,4195.384766,4086.281982,3319.000000,4.000000,91.000000,,,,0.000000,4.000000,4.000000,4.000000,4.000000,4.000000,4.000000,4.000000,4.000000,4.000000,4.000000,4.000000,4.000000,4.000000,4.000000,100.000000,,,,,,,,,,,,,,,,
1644853014.345001,6.000000,0.000000,4211.538574,4226.025879,4217.948730,4207.820313,4231.538574,4218.333496,4222.692383,4226.410156,4233.205078,4220.641113,4198.077148,4210.769043,4197.436035,4079.615479,2380.000000,4.000000,91.000000,,,,0.000000,4.000000,4.000000,4.000000,4.000000,4.000000,4.000000,4.000000,4.000000,4.000000,4.000000,4.000000,4.000000,4.000000,4.000000,100.000000,,,,,,,,,,,,,,,,
1644853014.348941,7.000000,0.000000,4210.769043,4216.282227,4217.563965,4211.153809,4218.205078,4217.948730,4222.820313,4221.794922,4228.717773,4220.384766,4203.077148,4206.025879,4208.717773,4076.666748,3043.000000,4.000000,91.000000,,,,0.000000,4.000000,4.000000,4.000000,4.000000,4.000000,4.000000,4.000000,4.000000,4.000000,4.000000,4.000000,4.000000,4.000000,4.000000,100.000000,,,,,,,,,,,,,,,,
1644853014.352881,8.000000,0.000000,4212.051270,4209.743652,4217.307617,4216.153809,4208.333496,4218.461426,4224.871582,4216.153809,4223.461426,4216.153809,4217.820313,4202.307617,4222.692383,4080.769287,3305.000000,4.000000,91.000000,,,,0.000000,4.000000,4.000000,4.000000,4.000000,4.000000,4.000000,4.000000,4.000000,4.000000,4.000000,4.000000,4.000000,4.000000,4.000000,100.000000,,,,,,,,,,,,,,,,
1644853014.356822,9.000000,0.000000,4216.025879,4210.641113,4216.282227,4217.692383,4205.384766,4217.948730,4226.794922,4211.922852,4219.358887,4210.000000,4232.948730,4198.974121,4230.384766,4089.615479,3525.000000,4.000000,91.000000,,,,0.000000,4.000000,4.000000,4.000000,4.000000,4.000000,4.000000,4.000000,4.000000,4.000000,4.000000,4.000000,4.000000,4.000000,4.000000,100.000000,,,,,,,,,,,,,,,,
1644853014.360762,10.000000,0.000000,4219.871582,4216.538574,4214.487305,4214.102539,4208.333496,4214.871582,4225.384766,4209.615234,4216.922852,4205.512695,4238.077148,4195.256348,4226.666504,4097.051270,3511.000000,4.000000,91.000000,,,,0.000000,4.000000,4.000000,4.000000,4.000000,4.000000,4.000000,4.000000,4.000000,4.000000,4.000000,4.000000,4.000000,4.000000,4.000000,100.000000,,,,,,,,,,,,,,,,
1644853014.364702,11.000000,0.000000,4218.589844,4221.153809,4213.333496,4207.948730,4213.717773,4209.871582,4220.897461,4209.230957,4216.666504,4204.743652,4228.846191,4191.153809,4214.230957,4097.563965,3391.000000,4.000000,91.000000,,,,0.000000,4.000000,4.000000,4.000000,4.000000,4.000000,4.000000,4.000000,4.000000,4.000000,4.000000,4.000000,4.000000,4.000000,4.000000,100.000000,,,,,,,,,,,,,,,,
1644853014.368642,12.000000,0.000000,4209.871582,4219.230957,4214.358887,4202.307617,4217.820313,4206.153809,4217.307617,4210.641113,4217.563965,4207.051270,4211.922852,4188.589844,4200.769043,4090.897461,3426.000000,4.000000,91.000000,,,,0.000000,4.000000,4.000000,4.000000,4.000000,4.000000,4.000000,4.000000,4.000000,4.000000,4.000000,4.000000,4.000000,4.000000,4.000000,100.000000,,,,,,,,,,,,,,,,
1644853014.372682,13.000000,0.000000,4196.922852,4212.179688,4216.922852,4197.948730,4219.487305,4206.538574,4217.307617,4213.589844,4218.717773,4210.384766,4199.743652,4188.974121,4193.461426,4082.692383,3487.000000,4.000000,91.000000,,,,0.000000,4.000000,4.000000,4.000000,4.000000,4.000000,4.000000,4.000000,4.000000,4.000000,4.000000,4.000000,4.000000,4.000000,4.000000,100.000000,,,,,,,,,,,,,,,,
1644853014.376622,14.000000,0.000000,4187.820313,4206.922852,4219.102539,4195.128418,4220.000000,4211.025879,4219.615234,4217.307617,4219.743652,4212.307617,4200.384766,4192.179688,4194.230957,4080.128174,3511.000000,4.000000,91.000000,,,,0.000000,4.000000,4.000000,4.000000,4.000000,4.000000,4.000000,4.000000,4.000000,4.000000,4.000000,4.000000,4.000000,4.000000,4.000000,100.000000,,,,,,,,,,,,,,,,
1644853014.380562,15.000000,0.000000,4190.000000,4210.128418,4218.974121,4195.384766,4220.641113,4216.410156,4221.153809,4220.256348,4221.410156,4211.666504,4211.025879,4197.051270,4200.897461,4086.153809,3391.000000,4.000000,91.000000,,,,0.000000,4.000000,4.000000,4.000000,4.000000,4.000000,4.000000,4.000000,4.000000,4.000000,4.000000,4.000000,4.000000,4.000000,4.000000,100.000000,,,,,,,,,,,,,,,,
1644853014.384502,16.000000,0.000000,4202.563965,4221.025879,4216.410156,4200.512695,4220.000000,4218.974121,4220.897461,4222.051270,4224.230957,4209.358887,4221.410156,4202.179688,4208.717773,4096.922852,3426.000000,4.000000,91.000000,,,,0.000000,4.000000,4.000000,4.000000,4.000000,4.000000,4.000000,4.000000,4.000000,4.000000,4.000000,4.000000,4.000000,4.000000,4.000000,100.000000,,,,,,,,,,,,,,,,
1644853014.388442,17.000000,0.000000,4216.794922,4232.179688,4213.717773,4209.871582,4216.538574,4217.948730,4221.153809,4223.333496,4228.077148,4207.948730,4224.230957,4205.769043,4214.615234,4105.897461,3487.000000,4.000000,91.000000,,,,0.000000,4.000000,4.000000,4.000000,4.000000,4.000000,4.000000,4.000000,4.000000,4.000000,4.000000,4.000000,4.000000,4.000000,4.000000,100.000000,,,,,,,,,,,,,,,,
1644853014.392382,18.000000,0.000000,4223.717773,4235.128418,4213.974121,4218.974121,4211.025879,4215.384766,4223.461426,4225.641113,4232.307617,4210.384766,4221.666504,4207.436035,4217.820313,4108.717773,3511.000000,4.000000,91.000000,,,,0.000000,4.000000,4.000000,4.000000,4.000000,4.000000,4.000000,4.000000,4.000000,4.000000,4.000000,4.000000,4.000000,4.000000,4.000000,100.000000,,,,,,,,,,,,,,,,
1644853014.396323,19.000000,0.000000,4221.025879,4228.461426,4217.820313,4222.563965,4206.666504,4214.230957,4226.025879,4228.717773,4236.153809,4217.820313,4221.922852,4207.820313,4220.000000,4106.794922,3391.000000,4.000000,91.000000,,,,0.000000,4.000000,4.000000,4.000000,4.000000,4.000000,4.000000,4.000000,4.000000,4.000000,4.000000,4.000000,4.000000,4.000000,4.000000,100.000000,,,,,,,,,,,,,,,,
1644853014.400263,20.000000,0.000000,4213.589844,4218.717773,4222.307617,4217.563965,4206.922852,4215.384766,4225.897461,4231.538574,4240.000000,4228.333496,4229.230957,4207.948730,4222.692383,4104.615234,3426.000000,4.000000,91.000000,,,,0.000000,4.000000,4.000000,4.000000,4.000000,4.000000,4.000000,4.000000,4.000000,4.000000,4.000000,4.000000,4.000000,4.000000,4.000000,100.000000,,,,,,,,,,,,,,,,
1644853014.404203,21.000000,0.000000,4207.820313,4215.128418,4224.102539,4206.794922,4212.692383,4217.820313,4223.333496,4233.589844,4243.333496,4238.333496,4238.974121,4208.461426,4225.384766,4105.256348,3487.000000,4.000000,91.000000,,,,0.000000,4.000000,4.000000,4.000000,4.000000,4.000000,4.000000,4.000000,4.000000,4.000000,4.000000,4.000000,4.000000,4.000000,4.000000,100.000000,,,,,,,,,,,,,,,,
1644853014.408143,22.000000,0.000000,4206.922852,4222.051270,4221.410156,4198.205078,4221.666504,4219.615234,4221.282227,4235.384766,4245.641113,4244.102539,4242.179688,4208.589844,4226.922852,4107.820313,3511.000000,4.000000,91.000000,,,,0.000000,4.000000,4.000000,4.000000,4.000000,4.000000,4.000000,4.000000,4.000000,4.000000,4.000000,4.000000,4.000000,4.000000,4.000000,100.000000,,,,,,,,,,,,,,,,
1644853014.412083,23.000000,0.000000,4209.230957,4234.871582,4215.641113,4198.846191,4230.000000,4219.871582,4222.692383,4237.307617,4245.641113,4243.717773,4234.358887,4206.666504,4226.282227,4108.974121,3391.000000,4.000000,91.000000,,,,0.000000,4.000000,4.000000,4.000000,4.000000,4.000000,4.000000,4.000000,4.000000,4.000000,4.000000,4.000000,4.000000,4.000000,4.000000,100.000000,,,,,,,,,,,,,,,,
1644853014.416023,24.000000,0.000000,4210.769043,4243.717773,4209.871582,4209.358887,4233.846191,4219.358887,4226.538574,4237.820313,4242.692383,4237.051270,4220.384766,4202.436035,4223.333496,4106.153809,3426.000000,4.000000,91.000000,,,,0.000000,4.000000,4.000000,4.000000,4.000000,4.000000,4.000000,4.000000,4.000000,4.000000,4.000000,4.000000,4.000000,4.000000,4.000000,100.000000,,,,,,,,,,,,,,,,
1644853014.420063,25.000000,0.000000,4208.461426,4240.769043,4205.769043,4222.179688,4232.692383,4219.487305,4229.358887,4234.615234,4236.794922,4226.410156,4209.487305,4196.794922,4219.102539,4100.256348,3487.000000,4.000000,91.000000,,,,0.000000,4.000000,4.000000,4.000000,4.000000,4.000000,4.000000,4.000000,4.000000,4.000000,4.000000,4.000000,4.000000,4.000000,4.000000,100.000000,,,,,,,,,,,,,,,,
1644853014.424003,26.000000,0.000000,4202.820313,4227.307617,4203.461426,4227.436035,4227.820313,4219.871582,4228.717773,4227.563965,4229.871582,4215.128418,4208.205078,4191.410156,4213.461426,4095.256348,3511.000000,4.000000,91.000000,,,,0.000000,4.000000,4.000000,4.000000,4.000000,4.000000,4.000000,4.000000,4.000000,4.000000,4.000000,4.000000,4.000000,4.000000,4.000000,100.000000,,,,,,,,,,,,,,,,
1644853014.427943,27.000000,0.000000,4197.948730,4212.051270,4202.307617,4220.641113,4221.538574,4219.871582,4226.538574,4218.974121,4223.846191,4206.922852,4216.153809,4187.436035,4207.051270,4094.230713,3391.000000,4.000000,91.000000,,,,0.000000,4.000000,4.000000,4.000000,4.000000,4.000000,4.000000,4.000000,4.000000,4.000000,4.000000,4.000000,4.000000,4.000000,4.000000,100.000000,,,,,,,,,,,,,,,,
1644853014.431883,28.000000,0.000000,4197.051270,4204.615234,4202.436035,4207.179688,4215.769043,4218.846191,4225.512695,4212.692383,4220.769043,4203.846191,4227.436035,4186.153809,4201.410156,4096.538574,3426.000000,4.000000,91.000000,,,,0.000000,4.000000,4.000000,4.000000,4.000000,4.000000,4.000000,4.000000,4.000000,4.000000,4.000000,4.000000,4.000000,4.000000,4.000000,100.000000,,,,,,,,,,,,,,,,
1644853014.435923,29.000000,0.000000,4199.487305,4207.307617,4202.948730,4196.794922,4211.666504,4217.820313,4226.025879,4211.153809,4220.769043,4205.512695,4235.000000,4187.948730,4198.717773,4098.974121,3487.000000,4.000000,91.000000,,,,0.000000,4.000000,4.000000,4.000000,4.000000,4.000000,4.000000,4.000000,4.000000,4.000000,4.000000,4.000000,4.000000,4.000000,4.000000,100.000000,,,,,,,,,,,,,,,,
1644853014.439863,30.000000,0.000000,4201.025879,4214.743652,4202.820313,4195.000000,4209.102539,4217.692383,4225.769043,4212.563965,4222.307617,4209.615234,4234.230957,4191.153809,4199.230957,4099.487305,3511.000000,4.000000,91.000000,,,,0.000000,4.000000,4.000000,4.000000,4.000000,4.000000,4.000000,4.000000,4.000000,4.000000,4.000000,4.000000,4.000000,4.000000,4.000000,100.000000,,,,,,,,,,,,,,,,
1644853014.443804,31.000000,0.000000,4198.974121,4219.230957,4200.897461,4199.102539,4207.179688,4218.717773,4222.948730,4213.974121,4223.205078,4213.077148,4224.615234,4192.563965,4201.410156,4098.717773,3391.000000,4.000000,91.000000,,,,0.000000,4.000000,4.000000,4.000000,4.000000,4.000000,4.000000,4.000000,4.000000,4.000000,4.000000,4.000000,4.000000,4.000000,4.000000,100.000000,,,,,,,,,,,,,,,,
1644853014.447744,32.000000,0.000000,4194.743652,4217.820313,4198.717773,4202.948730,4204.743652,4219.743652,4219.615234,4213.461426,4222.307617,4213.717773,4209.102539,4190.384766,4203.589844,4098.461426,0.000000,4.000000,91.000000,,,,0.000000,4.000000,4.000000,4.000000,4.000000,4.000000,4.000000,4.000000,4.000000,4.000000,4.000000,4.000000,4.000000,4.000000,4.000000,100.000000,,,,,,,,,,,,,,,,
1644853014.451684,33.000000,0.000000,4192.179688,4213.205078,4198.846191,4203.333496,4203.205078,4219.487305,4218.717773,4212.179688,4220.128418,4211.153809,4193.333496,4186.410156,4205.769043,4099.871582,0.000000,4.000000,91.000000,,,,0.000000,4.000000,4.000000,4.000000,4.000000,4.000000,4.000000,4.000000,4.000000,4.000000,4.000000,4.000000,4.000000,4.000000,4.000000,100.000000,,,,,,,,,,,,,,,,
1644853014.455624,34.000000,0.000000,4193.589844,4210.512695,4202.563965,4201.794922,4205.384766,4217.563965,4220.384766,4211.922852,4218.846191,4207.692383,4182.820313,4184.487305,4209.102539,4102.051270,0.000000,4.000000,91.000000,,,,0.000000,4.000000,4.000000,4.000000,4.000000,4.000000,4.000000,4.000000,4.000000,4.000000,4.000000,4.000000,4.000000,4.000000,4.000000,100.000000,,,,,,,,,,,,,,,,
1644853014.459564,35.000000,0.000000,4197.563965,4212.436035,4208.589844,4200.897461,4212.563965,4215.000000,4222.051270,4213.717773,4220.256348,4206.666504,4180.769043,4187.436035,4214.230957,4104.102539,0.000000,4.000000,91.000000,,,,0.000000,4.000000,4.000000,4.000000,4.000000,4.000000,4.000000,4.000000,4.000000,4.000000,4.000000,4.000000,4.000000,4.000000,4.000000,100.000000,,,,,,,,,,,,,,,,
1644853014.463504,36.000000,0.000000,4201.410156,4217.820313,4213.846191,4200.769043,4222.179688,4213.846191,4221.538574,4217.436035,4223.717773,4210.512695,4187.307617,4194.615234,4219.871582,4106.025879,0.000000,4.000000,91.000000,,,,0.000000,4.000000,4.000000,4.000000,4.000000,4.000000,4.000000,4.000000,4.000000,4.000000,4.000000,4.000000,4.000000,4.000000,4.000000,100.000000,,,,,,,,,,,,,,,,
1644853014.467444,37.000000,0.000000,4204.230957,4223.589844,4216.153809,4199.743652,4229.230957,4215.769043,4220.000000,4221.794922,4227.820313,4218.717773,4199.487305,4201.922852,4222.436035,4108.077148,0.000000,4.000000,91.000000,,,,0.000000,4.000000,4.000000,4.000000,4.000000,4.000000,4.000000,4.000000,4.000000,4.000000,4.000000,4.000000,4.000000,4.000000,4.000000,100.000000,,,,,,,,,,,,,,,,
1644853014.471284,38.000000,0.000000,4207.563965,4227.820313,4215.384766,4197.692383,4230.512695,4219.871582,4220.000000,4225.641113,4231.282227,4228.333496,4213.205078,4205.641113,4220.128418,4110.000000,0.000000,4.000000,91.000000,,,,0.000000,4.000000,4.000000,4.000000,4.000000,4.000000,4.000000,4.000000,4.000000,4.000000,4.000000,4.000000,4.000000,4.000000,4.000000,100.000000,,,,,,,,,,,,,,,,
1644853014.475225,39.000000,0.000000,4211.922852,4230.128418,4213.717773,4197.307617,4227.436035,4224.230957,4222.051270,4228.333496,4234.358887,4236.153809,4225.000000,4204.871582,4214.871582,4111.922852,0.000000,4.000000,91.000000,,,,0.000000,4.000000,4.000000,4.000000,4.000000,4.000000,4.000000,4.000000,4.000000,4.000000,4.000000,4.000000,4.000000,4.000000,4.000000,100.000000,,,,,,,,,,,,,,,,
1644853014.479165,40.000000,0.000000,4215.000000,4230.256348,4212.820313,4200.897461,4223.589844,4226.153809,4224.487305,4229.743652,4237.948730,4240.512695,4232.948730,4201.666504,4210.769043,4115.128418,0.000000,4.000000,91.000000,,,,0.000000,4.000000,4.000000,4.000000,4.000000,4.000000,4.000000,4.000000,4.000000,4.000000,4.000000,4.000000,4.000000,4.000000,4.000000,100.000000,,,,,,,,,,,,,,,,
1644853014.483105,41.000000,0.000000,4213.333496,4227.179688,4213.717773,4208.205078,4220.769043,4224.871582,4225.128418,4230.384766,4240.769043,4239.871582,4236.153809,4197.948730,4210.256348,4119.487305,0.000000,4.000000,91.000000,,,,0.000000,4.000000,4.000000,4.000000,4.000000,4.000000,4.000000,4.000000,4.000000,4.000000,4.000000,4.000000,4.000000,4.000000,4.000000,100.000000,,,,,,,,,,,,,,,,
1644853014.487045,42.000000,0.000000,4205.000000,4220.000000,4215.128418,4216.153809,4216.922852,4221.410156,4223.974121,4230.897461,4240.384766,4233.717773,4233.846191,4194.743652,4211.922852,4121.666504,0.000000,4.000000,91.000000,,,,0.000000,4.000000,4.000000,4.000000,4.000000,4.000000,4.000000,4.000000,4.000000,4.000000,4.000000,4.000000,4.000000,4.000000,4.000000,100.000000,,,,,,,,,,,,,,,,
1644853014.490985,43.000000,0.000000,4192.563965,4210.256348,4214.871582,4220.512695,4209.487305,4217.820313,4222.692383,4230.897461,4236.025879,4222.948730,4225.256348,4192.692383,4212.436035,4116.538574,0.000000,4.000000,91.000000,,,,0.000000,4.000000,4.000000,4.000000,4.000000,4.000000,4.000000,4.000000,4.000000,4.000000,4.000000,4.000000,4.000000,4.000000,4.000000,100.000000,,,,,,,,,,,,,,,,
1644853014.494925,44.000000,0.000000,4182.692383,4202.692383,4212.948730,4218.717773,4199.615234,4215.512695,4221.538574,4229.102539,4230.000000,4210.897461,4210.897461,4192.436035,4209.230957,4103.717773,0.000000,4.000000,91.000000,,,,0.000000,4.000000,4.000000,4.000000,4.000000,4.000000,4.000000,4.000000,4.000000,4.000000,4.000000,4.000000,4.000000,4.000000,4.000000,100.000000,,,,,,,,,,,,,,,,
1644853014.498865,45.000000,0.000000,4181.794922,4202.307617,4211.282227,4210.000000,4193.846191,4215.000000,4219.487305,4225.641113,4226.410156,4202.563965,4194.230957,4193.974121,4204.230957,4089.487061,0.000000,4.000000,91.000000,,,,0.000000,4.000000,4.000000,4.000000,4.000000,4.000000,4.000000,4.000000,4.000000,4.000000,4.000000,4.000000,4.000000,4.000000,4.000000,100.000000,,,,,,,,,,,,,,,,
1644853014.502805,46.000000,0.000000,4190.512695,4209.615234,4212.051270,4197.179688,4198.461426,4215.512695,4216.282227,4222.179688,4227.051270,4201.410156,4182.051270,4196.666504,4200.897461,4083.461426,0.000000,4.000000,91.000000,,,,0.000000,4.000000,4.000000,4.000000,4.000000,4.000000,4.000000,4.000000,4.000000,4.000000,4.000000,4.000000,4.000000,4.000000,4.000000,100.000000,,,,,,,,,,,,,,,,
1644853014.506745,47.000000,0.000000,4202.820313,4219.615234,4215.128418,4185.769043,4213.077148,4216.153809,4214.230957,4220.897461,4230.512695,4207.563965,4180.769043,4199.615234,4201.282227,4092.051270,0.000000,4.000000,91.000000,,,,0.000000,4.000000,4.000000,4.000000,4.000000,4.000000,4.000000,4.000000,4.000000,4.000000,4.000000,4.000000,4.000000,4.000000,4.000000,100.000000,,,,,,,,,,,,,,,,
1644853014.510685,48.000000,0.000000,4210.512695,4225.641113,4217.948730,4182.307617,4230.384766,4216.666504,4215.641113,4221.922852,4233.589844,4217.948730,4191.922852,4202.051270,4204.487305,4112.820313,0.000000,4.000000,91.000000,,,,0.000000,4.000000,4.000000,4.000000,4.000000,4.000000,4.000000,4.000000,4.000000,4.000000,4.000000,4.000000,4.000000,4.000000,4.000000,100.000000,,,,,,,,,,,,,,,,
1644853014.514626,49.000000,0.000000,4210.256348,4225.000000,4217.692383,4189.615234,4242.179688,4217.051270,4219.871582,4223.077148,4233.717773,4228.333496,4210.128418,4203.077148,4208.333496,4136.282227,0.000000,4.000000,91.000000,,,,0.000000,4.000000,4.000000,4.000000,4.000000,4.000000,4.000000,4.000000,4.000000,4.000000,4.000000,4.000000,4.000000,4.000000,4.000000,100.000000,,,,,,,,,,,,,,,,
1644853014.518566,50.000000,0.000000,4206.025879,4220.769043,4213.461426,4205.641113,4243.717773,4217.307617,4223.333496,4221.538574,4230.641113,4234.871582,4225.512695,4202.307617,4211.922852,4151.922852,0.000000,4.000000,91.000000,,,,0.000000,4.000000,4.000000,4.000000,4.000000,4.000000,4.000000,4.000000,4.000000,4.000000,4.000000,4.000000,4.000000,4.000000,4.000000,100.000000,,,,,,,,,,,,,,,,
1644853014.522506,51.000000,0.000000,4203.589844,4217.179688,4207.179688,4222.948730,4236.410156,4217.307617,4223.333496,4216.410156,4225.897461,4235.256348,4230.384766,4200.128418,4214.871582,4153.846191,0.000000,4.000000,91.000000,,,,0.000000,4.000000,4.000000,4.000000,4.000000,4.000000,4.000000,4.000000,4.000000,4.000000,4.000000,4.000000,4.000000,4.000000,4.000000,100.000000,,,,,,,,,,,,,,,,
1644853014.526446,52.000000,0.000000,4203.589844,4214.615234,4201.538574,4232.948730,4224.487305,4216.922852,4220.769043,4209.615234,4220.769043,4228.589844,4223.333496,4196.922852,4215.769043,4143.333496,0.000000,4.000000,91.000000,,,,0.000000,4.000000,4.000000,4.000000,4.000000,4.000000,4.000000,4.000000,4.000000,4.000000,4.000000,4.000000,4.000000,4.000000,4.000000,100.000000,,,,,,,,,,,,,,,,
1644853014.530386,53.000000,0.000000,4201.282227,4210.384766,4198.717773,4230.256348,4212.179688,4215.769043,4218.974121,4204.487305,4215.641113,4216.538574,4209.102539,4193.205078,4212.179688,4127.051270,0.000000,4.000000,91.000000,,,,0.000000,4.000000,4.000000,4.000000,4.000000,4.000000,4.000000,4.000000,4.000000,4.000000,4.000000,4.000000,4.000000,4.000000,4.000000,100.000000,,,,,,,,,,,,,,,,
1644853014.534326,54.000000,0.000000,4193.077148,4202.692383,4199.102539,4216.666504,4202.179688,4214.358887,4218.974121,4202.436035,4210.769043,4203.077148,4195.512695,4189.487305,4204.102539,4113.846191,0.000000,4.000000,91.000000,,,,0.000000,4.000000,4.000000,4.000000,4.000000,4.000000,4.000000,4.000000,4.000000,4.000000,4.000000,4.000000,4.000000,4.000000,4.000000,100.000000,,,,,,,,,,,,,,,,
1644853014.538266,55.000000,0.000000,4183.333496,4195.641113,4202.436035,4200.512695,4197.179688,4214.102539,4219.615234,4203.717773,4208.205078,4193.717773,4188.974121,4187.820313,4196.153809,4110.641113,0.000000,4.000000,91.000000,,,,0.000000,4.000000,4.000000,4.000000,4.000000,4.000000,4.000000,4.000000,4.000000,4.000000,4.000000,4.000000,4.000000,4.000000,4.000000,100.000000,,,,,,,,,,,,,,,,
1644853014.542206,56.000000,0.000000,4181.410156,4196.666504,4208.461426,4191.794922,4198.589844,4215.512695,4219.743652,4207.307617,4210.641113,4192.820313,4193.077148,4190.256348,4195.256348,4117.948730,0.000000,4.000000,91.000000,,,,0.000000,4.000000,4.000000,4.000000,4.000000,4.000000,4.000000,4.000000,4.000000,4.000000,4.000000,4.000000,4.000000,4.000000,4.000000,100.000000,,,,,,,,,,,,,,,,
1644853014.546047,57.000000,0.000000,4192.692383,4208.589844,4216.538574,4193.974121,4205.256348,4217.820313,4219.871582,4212.179688,4218.461426,4201.282227,4205.641113,4196.538574,4204.487305,4130.512695,0.000000,4.000000,91.000000,,,,0.000000,4.000000,4.000000,4.000000,4.000000,4.000000,4.000000,4.000000,4.000000,4.000000,4.000000,4.000000,4.000000,4.000000,4.000000,100.000000,,,,,,,,,,,,,,,,
1644853014.549987,58.000000,0.000000,4211.922852,4226.410156,4223.846191,4201.153809,4213.461426,4218.589844,4221.410156,4217.307617,4228.846191,4215.256348,4219.358887,4203.461426,4219.871582,4141.025879,0.000000,4.000000,91.000000,,,,0.000000,4.000000,4.000000,4.000000,4.000000,4.000000,4.000000,4.000000,4.000000,4.000000,4.000000,4.000000,4.000000,4.000000,4.000000,100.000000,,,,,,,,,,,,,,,,
1644853014.553927,59.000000,0.000000,4227.179688,4240.000000,4227.179688,4203.974121,4218.974121,4216.794922,4223.974121,4221.666504,4235.897461,4228.205078,4226.922852,4207.051270,4232.436035,4145.128418,0.000000,4.000000,91.000000,,,,0.000000,4.000000,4.000000,4.000000,4.000000,4.000000,4.000000,4.000000,4.000000,4.000000,4.000000,4.000000,4.000000,4.000000,4.000000,100.000000,,,,,,,,,,,,,,,,
1644853014.557867,60.000000,0.000000,4229.358887,4241.410156,4224.615234,4199.743652,4220.897461,4214.615234,4224.743652,4224.743652,4236.794922,4235.000000,4225.512695,4205.641113,4235.769043,4144.102539,0.000000,4.000000,91.000000,,,,0.000000,4.000000,4.000000,4.000000,4.000000,4.000000,4.000000,4.000000,4.000000,4.000000,4.000000,4.000000,4.000000,4.000000,4.000000,100.000000,,,,,,,,,,,,,,,,
1644853014.561807,61.000000,0.000000,4219.358887,4231.538574,4217.692383,4194.743652,4221.282227,4214.743652,4222.179688,4226.282227,4232.948730,4235.000000,4218.589844,4201.922852,4230.000000,4141.794922,0.000000,4.000000,91.000000,,,,0.000000,4.000000,4.000000,4.000000,4.000000,4.000000,4.000000,4.000000,4.000000,4.000000,4.000000,4.000000,4.000000,4.000000,4.000000,100.000000,,,,,,,,,,,,,,,,
1644853014.565747,62.000000,0.000000,4206.282227,4218.589844,4211.538574,4197.820313,4222.436035,4217.948730,4218.077148,4227.051270,4228.846191,4230.512695,4211.794922,4200.128418,4221.025879,4141.538574,0.000000,4.000000,91.000000,,,,0.000000,4.000000,4.000000,4.000000,4.000000,4.000000,4.000000,4.000000,4.000000,4.000000,4.000000,4.000000,4.000000,4.000000,4.000000,100.000000,,,,,,,,,,,,,,,,
1644853014.569687,63.000000,0.000000,4200.641113,4212.563965,4211.282227,4210.512695,4224.615234,4221.922852,4215.769043,4227.692383,4227.948730,4225.769043,4208.846191,4202.692383,4215.256348,4144.358887,0.000000,4.000000,91.000000,,,,0.000000,4.000000,4.000000,4.000000,4.000000,4.000000,4.000000,4.000000,4.000000,4.000000,4.000000,4.000000,4.000000,4.000000,4.000000,100.000000,,,,,,,,,,,,,,,,
1644853014.573627,64.000000,0.000000,4207.051270,4219.102539,4218.461426,4225.000000,4225.769043,4224.230957,4217.179688,4228.974121,4230.897461,4225.000000,4211.025879,4208.717773,4215.512695,4149.102539,0.000000,4.000000,91.000000,,,,0.000000,4.000000,4.000000,4.000000,4.000000,4.000000,4.000000,4.000000,4.000000,4.000000,4.000000,4.000000,4.000000,4.000000,4.000000,100.000000,,,,,,,,,,,,,,,,
1644853014.577567,65.000000,0.000000,4222.179688,4235.384766,4229.615234,4231.922852,4225.000000,4225.128418,4220.512695,4231.666504,4236.538574,4230.512695,4217.563965,4215.641113,4220.769043,4154.230957,0.000000,4.000000,91.000000,,,,0.000000,4.000000,4.000000,4.000000,4.000000,4.000000,4.000000,4.000000,4.000000,4.000000,4.000000,4.000000,4.000000,4.000000,4.000000,100.000000,,,,,,,,,,,,,,,,
1644853014.581507,66.000000,0.000000,4237.179688,4252.179688,4238.846191,4228.846191,4223.333496,4226.025879,4222.820313,4235.512695,4242.692383,4240.769043,4226.794922,4221.025879,4227.307617,4157.948730,0.000000,4.000000,91.000000,,,,0.000000,4.000000,4.000000,4.000000,4.000000,4.000000,4.000000,4.000000,4.000000,4.000000,4.000000,4.000000,4.000000,4.000000,4.000000,100.000000,,,,,,,,,,,,,,,,
1644853014.585547,67.000000,0.000000,4244.102539,4259.871582,4241.922852,4221.282227,4223.205078,4227.692383,4223.333496,4238.589844,4246.922852,4250.128418,4234.487305,4223.589844,4232.436035,4159.743652,0.000000,4.000000,91.000000,,,,0.000000,4.000000,4.000000,4.000000,4.000000,4.000000,4.000000,4.000000,4.000000,4.000000,4.000000,4.000000,4.000000,4.000000,4.000000,100.000000,,,,,,,,,,,,,,,,
1644853014.589488,68.000000,0.000000,4241.153809,4255.256348,4239.743652,4217.692383,4225.897461,4228.846191,4223.333496,4238.717773,4247.436035,4252.692383,4236.282227,4222.692383,4235.256348,4160.641113,0.000000,4.000000,91.000000,,,,0.000000,4.000000,4.000000,4.000000,4.000000,4.000000,4.000000,4.000000,4.000000,4.000000,4.000000,4.000000,4.000000,4.000000,4.000000,100.000000,,,,,,,,,,,,,,,,
1644853014.593428,69.000000,0.000000,4233.077148,4243.461426,4235.641113,4221.666504,4230.897461,4227.436035,4223.589844,4234.487305,4243.461426,4246.410156,4231.153809,4218.333496,4237.051270,4162.436035,0.000000,4.000000,91.000000,,,,0.000000,4.000000,4.000000,4.000000,4.000000,4.000000,4.000000,4.000000,4.000000,4.000000,4.000000,4.000000,4.000000,4.000000,4.000000,100.000000,,,,,,,,,,,,,,,,
1644853014.597368,70.000000,0.000000,4226.025879,4233.333496,4232.307617,4230.256348,4235.128418,4223.717773,4223.077148,4227.051270,4236.538574,4235.000000,4222.820313,4212.692383,4237.436035,4165.641113,0.000000,4.000000,91.000000,,,,0.000000,4.000000,4.000000,4.000000,4.000000,4.000000,4.000000,4.000000,4.000000,4.000000,4.000000,4.000000,4.000000,4.000000,4.000000,100.000000,,,,,,,,,,,,,,,,
1644853014.601308,71.000000,0.000000,4223.333496,4230.897461,4229.615234,4236.666504,4235.769043,4220.000000,4220.512695,4219.102539,4229.358887,4224.487305,4217.436035,4208.717773,4234.102539,4167.179688,0.000000,4.000000,91.000000,,,,0.000000,4.000000,4.000000,4.000000,4.000000,4.000000,4.000000,4.000000,4.000000,4.000000,4.000000,4.000000,4.000000,4.000000,4.000000,100.000000,,,,,,,,,,,,,,,,
1644853014.605248,72.000000,0.000000,4224.358887,4236.025879,4227.051270,4235.641113,4232.179688,4218.974121,4217.307617,4213.717773,4224.358887,4219.358887,4217.820313,4207.948730,4225.641113,4163.846191,0.000000,4.000000,91.000000,,,,0.000000,4.000000,4.000000,4.000000,4.000000,4.000000,4.000000,4.000000,4.000000,4.000000,4.000000,4.000000,4.000000,4.000000,4.000000,100.000000,,,,,,,,,,,,,,,,
1644853014.609188,73.000000,0.000000,4226.922852,4243.717773,4225.256348,4228.333496,4227.307617,4221.538574,4216.666504,4211.922852,4222.051270,4219.615234,4222.820313,4209.358887,4214.487305,4155.769043,0.000000,4.000000,91.000000,,,,0.000000,4.000000,4.000000,4.000000,4.000000,4.000000,4.000000,4.000000,4.000000,4.000000,4.000000,4.000000,4.000000,4.000000,4.000000,100.000000,,,,,,,,,,,,,,,,
1644853014.613128,74.000000,0.000000,4229.487305,4248.589844,4225.641113,4221.410156,4225.769043,4226.282227,4219.743652,4213.205078,4222.051270,4222.051270,4228.846191,4210.769043,4206.666504,4148.333496,0.000000,4.000000,91.000000,,,,0.000000,4.000000,4.000000,4.000000,4.000000,4.000000,4.000000,4.000000,4.000000,4.000000,4.000000,4.000000,4.000000,4.000000,4.000000,100.000000,,,,,,,,,,,,,,,,
1644853014.617168,75.000000,0.000000,4231.538574,4247.051270,4228.589844,4220.641113,4229.230957,4230.897461,4224.230957,4215.384766,4223.717773,4222.820313,4232.948730,4211.282227,4206.666504,4147.179688,0.000000,4.000000,91.000000,,,,0.000000,4.000000,4.000000,4.000000,4.000000,4.000000,4.000000,4.000000,4.000000,4.000000,4.000000,4.000000,4.000000,4.000000,4.000000,100.000000,,,,,,,,,,,,,,,,
1644853014.621108,76.000000,0.000000,4232.051270,4240.000000,4231.666504,4225.769043,4233.717773,4233.461426,4226.282227,4216.538574,4225.769043,4220.897461,4232.436035,4210.769043,4213.974121,4153.205078,0.000000,4.000000,91.000000,,,,0.000000,4.000000,4.000000,4.000000,4.000000,4.000000,4.000000,4.000000,4.000000,4.000000,4.000000,4.000000,4.000000,4.000000,4.000000,100.000000,,,,,,,,,,,,,,,,
1644853014.625048,77.000000,0.000000,4229.358887,4231.794922,4231.922852,4230.769043,4232.179688,4232.948730,4224.615234,4215.128418,4226.282227,4217.692383,4225.256348,4209.615234,4222.436035,4162.179688,0.000000,4.000000,91.000000,,,,0.000000,4.000000,4.000000,4.000000,4.000000,4.000000,4.000000,4.000000,4.000000,4.000000,4.000000,4.000000,4.000000,4.000000,4.000000,100.000000,,,,,,,,,,,,,,,,
1644853014.628989,78.000000,0.000000,4223.077148,4226.794922,4228.333496,4229.743652,4221.922852,4229.743652,4222.179688,4212.436035,4223.974121,4215.256348,4212.179688,4207.436035,4225.256348,4168.333496,0.000000,4.000000,91.000000,,,,0.000000,4.000000,4.000000,4.000000,4.000000,4.000000,4.000000,4.000000,4.000000,4.000000,4.000000,4.000000,4.000000,4.000000,4.000000,100.000000,,,,,,,,,,,,,,,,
1644853014.632929,79.000000,0.000000,4215.641113,4226.794922,4223.077148,4222.948730,4208.461426,4225.897461,4222.051270,4210.000000,4219.871582,4214.871582,4198.461426,4204.487305,4219.871582,4169.487305,0.000000,4.000000,91.000000,,,,0.000000,4.000000,4.000000,4.000000,4.000000,4.000000,4.000000,4.000000,4.000000,4.000000,4.000000,4.000000,4.000000,4.000000,4.000000,100.000000,,,,,,,,,,,,,,,,
1644853014.636869,80.000000,0.000000,4211.410156,4230.128418,4219.743652,4215.641113,4202.563965,4224.230957,4224.487305,4209.487305,4217.307617,4217.307617,4192.179688,4202.307617,4210.128418,4167.436035,0.000000,4.000000,91.000000,,,,0.000000,4.000000,4.000000,4.000000,4.000000,4.000000,4.000000,4.000000,4.000000,4.000000,4.000000,4.000000,4.000000,4.000000,4.000000,100.000000,,,,,,,,,,,,,,,,
1644853014.640809,81.000000,0.000000,4213.589844,4232.948730,4220.641113,4212.051270,4210.256348,4225.641113,4227.436035,4211.025879,4217.820313,4221.282227,4197.307617,4202.820313,4203.717773,4166.153809,0.000000,4.000000,91.000000,,,,0.000000,4.000000,4.000000,4.000000,4.000000,4.000000,4.000000,4.000000,4.000000,4.000000,4.000000,4.000000,4.000000,4.000000,4.000000,100.000000,,,,,,,,,,,,,,,,
1644853014.644749,82.000000,0.000000,4221.410156,4232.948730,4224.871582,4213.205078,4227.692383,4228.846191,4229.230957,4213.846191,4220.769043,4224.615234,4210.256348,4206.153809,4206.153809,4167.692383,0.000000,4.000000,91.000000,,,,0.000000,4.000000,4.000000,4.000000,4.000000,4.000000,4.000000,4.000000,4.000000,4.000000,4.000000,4.000000,4.000000,4.000000,4.000000,100.000000,,,,,,,,,,,,,,,,
1644853014.648689,83.000000,0.000000,4231.282227,4231.282227,4230.128418,4218.077148,4243.717773,4231.025879,4230.384766,4217.692383,4223.974121,4224.743652,4222.820313,4210.128418,4217.051270,4170.769043,0.000000,4.000000,91.000000,,,,0.000000,4.000000,4.000000,4.000000,4.000000,4.000000,4.000000,4.000000,4.000000,4.000000,4.000000,4.000000,4.000000,4.000000,4.000000,100.000000,,,,,,,,,,,,,,,,
1644853014.652629,84.000000,0.000000,4239.615234,4231.410156,4234.487305,4225.897461,4249.615234,4231.153809,4231.410156,4222.692383,4226.794922,4222.436035,4228.974121,4213.717773,4231.153809,4172.820313,0.000000,4.000000,91.000000,,,,0.000000,4.000000,4.000000,4.000000,4.000000,4.000000,4.000000,4.000000,4.000000,4.000000,4.000000,4.000000,4.000000,4.000000,4.000000,100.000000,,,,,,,,,,,,,,,,
1644853014.656569,85.000000,0.000000,4244.230957,4235.641113,4237.948730,4234.487305,4243.717773,4230.256348,4231.538574,4228.077148,4230.256348,4221.282227,4229.230957,4217.436035,4242.692383,4171.922852,0.000000,4.000000,91.000000,,,,0.000000,4.000000,4.000000,4.000000,4.000000,4.000000,4.000000,4.000000,4.000000,4.000000,4.000000,4.000000,4.000000,4.000000,4.000000,100.000000,,,,,,,,,,,,,,,,
1644853014.660509,86.000000,0.000000,4244.743652,4242.307617,4240.897461,4239.358887,4231.410156,4229.358887,4229.358887,4231.794922,4234.487305,4224.871582,4227.436035,4222.179688,4248.205078,4168.974121,0.000000,4.000000,91.000000,,,,0.000000,4.000000,4.000000,4.000000,4.000000,4.000000,4.000000,4.000000,4.000000,4.000000,4.000000,4.000000,4.000000,4.000000,4.000000,100.000000,,,,,,,,,,,,,,,,
1644853014.664450,87.000000,0.000000,4240.897461,4245.512695,4242.948730,4236.794922,4220.384766,4228.461426,4225.512695,4232.436035,4237.436035,4233.333496,4227.179688,4226.922852,4247.179688,4167.436035,0.000000,4.000000,91.000000,,,,0.000000,4.000000,4.000000,4.000000,4.000000,4.000000,4.000000,4.000000,4.000000,4.000000,4.000000,4.000000,4.000000,4.000000,4.000000,100.000000,,,,,,,,,,,,,,,,
1644853014.668390,88.000000,0.000000,4233.461426,4241.153809,4243.461426,4227.436035,4216.025879,4227.436035,4222.820313,4230.000000,4236.794922,4242.307617,4229.230957,4229.615234,4241.794922,4170.256348,0.000000,4.000000,91.000000,,,,0.000000,4.000000,4.000000,4.000000,4.000000,4.000000,4.000000,4.000000,4.000000,4.000000,4.000000,4.000000,4.000000,4.000000,4.000000,100.000000,,,,,,,,,,,,,,,,
1644853014.672330,89.000000,0.000000,4225.769043,4231.153809,4241.794922,4218.589844,4219.230957,4226.282227,4223.077148,4226.922852,4233.077148,4246.410156,4232.179688,4228.717773,4235.384766,4177.692383,0.000000,4.000000,91.000000,,,,0.000000,4.000000,4.000000,4.000000,4.000000,4.000000,4.000000,4.000000,4.000000,4.000000,4.000000,4.000000,4.000000,4.000000,4.000000,100.000000,,,,,,,,,,,,,,,,
1644853014.676270,90.000000,0.000000,4222.436035,4223.461426,4239.487305,4217.179688,4225.512695,4225.256348,4225.128418,4225.256348,4229.230957,4243.077148,4235.384766,4225.128418,4230.512695,4185.897461,0.000000,4.000000,91.000000,,,,0.000000,4.000000,4.000000,4.000000,4.000000,4.000000,4.000000,4.000000,4.000000,4.000000,4.000000,4.000000,4.000000,4.000000,4.000000,100.000000,,,,,,,,,,,,,,,,
1644853014.680210,91.000000,0.000000,4226.282227,4225.641113,4238.461426,4223.461426,4229.230957,4224.743652,4225.769043,4225.256348,4228.205078,4234.615234,4238.589844,4220.897461,4228.461426,4189.358887,0.000000,4.000000,91.000000,,,,0.000000,4.000000,4.000000,4.000000,4.000000,4.000000,4.000000,4.000000,4.000000,4.000000,4.000000,4.000000,4.000000,4.000000,4.000000,100.000000,,,,,,,,,,,,,,,,
1644853014.684150,92.000000,0.000000,4235.641113,4237.307617,4239.615234,4230.384766,4226.794922,4224.230957,4223.846191,4225.512695,4230.256348,4226.538574,4242.179688,4217.563965,4228.333496,4185.000000,0.000000,4.000000,91.000000,,,,0.000000,4.000000,4.000000,4.000000,4.000000,4.000000,4.000000,4.000000,4.000000,4.000000,4.000000,4.000000,4.000000,4.000000,4.000000,100.000000,,,,,,,,,,,,,,,,
1644853014.687990,93.000000,0.000000,4244.358887,4250.256348,4242.179688,4231.666504,4219.743652,4223.205078,4221.282227,4224.615234,4232.051270,4223.589844,4244.871582,4215.769043,4228.205078,4175.384766,0.000000,4.000000,91.000000,,,,0.000000,4.000000,4.000000,4.000000,4.000000,4.000000,4.000000,4.000000,4.000000,4.000000,4.000000,4.000000,4.000000,4.000000,4.000000,100.000000,,,,,,,,,,,,,,,,
1644853014.691930,94.000000,0.000000,4246.410156,4253.974121,4243.589844,4226.922852,4212.820313,4221.410156,4220.384766,4222.563965,4230.641113,4225.897461,4245.000000,4215.128418,4226.922852,4167.179688,0.000000,4.000000,91.000000,,,,0.000000,4.000000,4.000000,4.000000,4.000000,4.000000,4.000000,4.000000,4.000000,4.000000,4.000000,4.000000,4.000000,4.000000,4.000000,100.000000,,,,,,,,,,,,,,,,
1644853014.695870,95.000000,0.000000,4240.897461,4244.743652,4241.666504,4221.794922,4211.794922,4219.230957,4220.897461,4219.871582,4225.641113,4230.512695,4240.384766,4215.000000,4225.897461,4166.025879,0.000000,4.000000,91.000000,,,,0.000000,4.000000,4.000000,4.000000,4.000000,4.000000,4.000000,4.000000,4.000000,4.000000,4.000000,4.000000,4.000000,4.000000,4.000000,100.000000,,,,,,,,,,,,,,,,
1644853014.699811,96.000000,0.000000,4232.692383,4229.615234,4236.282227,4221.538574,4218.846191,4217.948730,4221.153809,4217.692383,4220.256348,4234.487305,4232.436035,4214.871582,4227.692383,4173.846191,0.000000,4.000000,91.000000,,,,0.000000,4.000000,4.000000,4.000000,4.000000,4.000000,4.000000,4.000000,4.000000,4.000000,4.000000,4.000000,4.000000,4.000000,4.000000,100.000000,,,,,,,,,,,,,,,,
