title:Alex-BhABlpfdYBVKFDuES8wtVA, start timestamp:1645707520.357189, stop timestamp:1645707546.601088, headset type:EPOCPLUS, headset serial:3B9AEBFF, headset firmware:626, channels:55, sampling rate:eeg_256, samples:6661      , version:2.1, 
Timestamp,EEG.Counter,EEG.Interpolated,EEG.AF3,EEG.F7,EEG.F3,EEG.FC5,EEG.T7,EEG.P7,EEG.O1,EEG.O2,EEG.P8,EEG.T8,EEG.FC6,EEG.F4,EEG.F8,EEG.AF4,EEG.RawCq,EEG.Battery,EEG.BatteryPercent,MarkerIndex,MarkerType,MarkerValueInt,EEG.MarkerHardware,CQ.AF3,CQ.F7,CQ.F3,CQ.FC5,CQ.T7,CQ.P7,CQ.O1,CQ.O2,CQ.P8,CQ.T8,CQ.FC6,CQ.F4,CQ.F8,CQ.AF4,CQ.Overall,EQ.SampleRateQuality,EQ.OVERALL,EQ.AF3,EQ.F7,EQ.F3,EQ.FC5,EQ.T7,EQ.P7,EQ.O1,EQ.O2,EQ.P8,EQ.T8,EQ.FC6,EQ.F4,EQ.F8,EQ.AF4
1645707520.357189,219.000000,0.000000,4215.769043,4276.794922,4218.461426,4088.589844,4147.051270,4194.230957,4232.307617,4219.871582,4225.000000,4154.487305,4242.307617,4192.051270,4173.333496,4225.641113,3476.000000,4.000000,95.000000,,,,0.000000,4.000000,4.000000,4.000000,4.000000,4.000000,4.000000,4.000000,4.000000,4.000000,4.000000,4.000000,4.000000,4.000000,4.000000,100.000000,,,,,,,,,,,,,,,,
1645707520.361029,220.000000,0.000000,4218.589844,4262.051270,4219.615234,4085.256348,4132.820313,4198.077148,4234.615234,4223.974121,4226.666504,4160.256348,4247.820313,4183.077148,4188.846191,4226.666504,3375.000000,4.000000,95.000000,,,,0.000000,4.000000,4.000000,4.000000,4.000000,4.000000,4.000000,4.000000,4.000000,4.000000,4.000000,4.000000,4.000000,4.000000,4.000000,100.000000,,,,,,,,,,,,,,,,
1645707520.364969,221.000000,0.000000,4225.128418,4229.230957,4229.102539,4062.051270,4114.230957,4199.230957,4235.384766,4225.512695,4226.153809,4157.692383,4222.563965,4183.846191,4209.358887,4227.948730,3312.000000,4.000000,95.000000,,,,0.000000,4.000000,4.000000,4.000000,4.000000,4.000000,4.000000,4.000000,4.000000,4.000000,4.000000,4.000000,4.000000,4.000000,4.000000,100.000000,,,,,,,,,,,,,,,,
1645707520.368909,222.000000,0.000000,4231.794922,4197.692383,4243.974121,4024.487061,4101.410156,4196.794922,4234.871582,4225.256348,4224.102539,4148.077148,4180.512695,4196.025879,4219.743652,4230.128418,2889.000000,4.000000,95.000000,,,,0.000000,4.000000,4.000000,4.000000,4.000000,4.000000,4.000000,4.000000,4.000000,4.000000,4.000000,4.000000,4.000000,4.000000,4.000000,100.000000,,,,,,,,,,,,,,,,
1645707520.372849,223.000000,0.000000,4231.922852,4191.025879,4253.717773,3996.410156,4101.025879,4191.922852,4233.974121,4224.871582,4221.922852,4138.974121,4148.717773,4211.538574,4212.179688,4232.051270,3476.000000,4.000000,95.000000,,,,0.000000,4.000000,4.000000,4.000000,4.000000,4.000000,4.000000,4.000000,4.000000,4.000000,4.000000,4.000000,4.000000,4.000000,4.000000,100.000000,,,,,,,,,,,,,,,,
1645707520.376789,224.000000,0.000000,4221.794922,4219.743652,4246.282227,4006.025635,4112.563965,4187.948730,4232.692383,4225.384766,4220.769043,4138.461426,4148.589844,4216.794922,4193.077148,4230.000000,3375.000000,4.000000,95.000000,,,,0.000000,4.000000,4.000000,4.000000,4.000000,4.000000,4.000000,4.000000,4.000000,4.000000,4.000000,4.000000,4.000000,4.000000,4.000000,100.000000,,,,,,,,,,,,,,,,
1645707520.380729,225.000000,0.000000,4205.000000,4270.256348,4221.410156,4057.179443,4127.563965,4186.794922,4230.897461,4225.512695,4221.282227,4149.102539,4180.384766,4204.743652,4178.205078,4222.436035,3312.000000,4.000000,95.000000,,,,0.000000,4.000000,4.000000,4.000000,4.000000,4.000000,4.000000,4.000000,4.000000,4.000000,4.000000,4.000000,4.000000,4.000000,4.000000,100.000000,,,,,,,,,,,,,,,,
1645707520.384669,226.000000,0.000000,4192.051270,4307.436035,4195.128418,4115.641113,4132.692383,4188.333496,4229.615234,4224.871582,4223.205078,4165.384766,4224.871582,4181.666504,4179.358887,4213.589844,2889.000000,4.000000,95.000000,,,,0.000000,4.000000,4.000000,4.000000,4.000000,4.000000,4.000000,4.000000,4.000000,4.000000,4.000000,4.000000,4.000000,4.000000,4.000000,100.000000,,,,,,,,,,,,,,,,
1645707520.388609,227.000000,0.000000,4191.794922,4297.179688,4188.717773,4132.051270,4118.717773,4190.000000,4230.897461,4224.102539,4225.256348,4177.179688,4259.487305,4163.461426,4195.769043,4210.000000,3476.000000,4.000000,95.000000,,,,0.000000,4.000000,4.000000,4.000000,4.000000,4.000000,4.000000,4.000000,4.000000,4.000000,4.000000,4.000000,4.000000,4.000000,4.000000,100.000000,,,,,,,,,,,,,,,,
1645707520.392550,228.000000,0.000000,4204.358887,4237.051270,4209.615234,4086.794922,4091.794922,4189.743652,4234.615234,4224.615234,4226.922852,4177.051270,4274.230957,4162.179688,4216.410156,4214.743652,3375.000000,4.000000,95.000000,,,,0.000000,4.000000,4.000000,4.000000,4.000000,4.000000,4.000000,4.000000,4.000000,4.000000,4.000000,4.000000,4.000000,4.000000,4.000000,100.000000,,,,,,,,,,,,,,,,
1645707520.396490,229.000000,0.000000,4220.000000,4168.333496,4242.051270,4013.461426,4071.666748,4187.436035,4237.948730,4226.025879,4227.948730,4166.922852,4272.948730,4176.794922,4230.000000,4223.974121,3312.000000,4.000000,95.000000,,,,0.000000,4.000000,4.000000,4.000000,4.000000,4.000000,4.000000,4.000000,4.000000,4.000000,4.000000,4.000000,4.000000,4.000000,4.000000,100.000000,,,,,,,,,,,,,,,,
1645707520.400430,230.000000,0.000000,4226.794922,4144.871582,4260.641113,3969.743652,4071.410156,4185.512695,4237.948730,4226.282227,4228.077148,4155.000000,4260.641113,4194.871582,4232.307617,4229.615234,2889.000000,4.000000,95.000000,,,,0.000000,4.000000,4.000000,4.000000,4.000000,4.000000,4.000000,4.000000,4.000000,4.000000,4.000000,4.000000,4.000000,4.000000,4.000000,100.000000,,,,,,,,,,,,,,,,
1645707520.404370,231.000000,0.000000,4220.641113,4182.820313,4253.461426,3984.102539,4080.384521,4185.641113,4234.487305,4223.461426,4226.922852,4148.077148,4235.384766,4204.358887,4227.692383,4226.410156,3476.000000,4.000000,95.000000,,,,0.000000,4.000000,4.000000,4.000000,4.000000,4.000000,4.000000,4.000000,4.000000,4.000000,4.000000,4.000000,4.000000,4.000000,4.000000,100.000000,,,,,,,,,,,,,,,,
1645707520.408310,232.000000,0.000000,4207.820313,4242.948730,4231.666504,4033.205078,4073.974365,4187.436035,4230.897461,4218.589844,4223.846191,4143.333496,4193.205078,4203.077148,4222.563965,4216.538574,3375.000000,4.000000,95.000000,,,,0.000000,4.000000,4.000000,4.000000,4.000000,4.000000,4.000000,4.000000,4.000000,4.000000,4.000000,4.000000,4.000000,4.000000,4.000000,100.000000,,,,,,,,,,,,,,,,
1645707520.412250,233.000000,0.000000,4200.641113,4265.384766,4217.692383,4068.846191,4041.666748,4189.230957,4230.256348,4214.871582,4220.256348,4133.461426,4143.846191,4199.230957,4219.230957,4209.230957,3312.000000,4.000000,95.000000,,,,0.000000,4.000000,4.000000,4.000000,4.000000,4.000000,4.000000,4.000000,4.000000,4.000000,4.000000,4.000000,4.000000,4.000000,4.000000,100.000000,,,,,,,,,,,,,,,,
1645707520.416190,234.000000,0.000000,4206.153809,4225.641113,4224.230957,4063.974365,4001.538574,4190.000000,4232.692383,4215.769043,4218.461426,4116.025879,4112.051270,4202.179688,4216.666504,4212.820313,2889.000000,4.000000,95.000000,,,,0.000000,4.000000,4.000000,4.000000,4.000000,4.000000,4.000000,4.000000,4.000000,4.000000,4.000000,4.000000,4.000000,4.000000,4.000000,100.000000,,,,,,,,,,,,,,,,
1645707520.420130,235.000000,0.000000,4220.897461,4156.282227,4242.948730,4034.102539,3985.256348,4190.128418,4235.000000,4221.410156,4220.256348,4099.615234,4122.307617,4212.179688,4214.871582,4226.794922,3476.000000,4.000000,95.000000,,,,0.000000,4.000000,4.000000,4.000000,4.000000,4.000000,4.000000,4.000000,4.000000,4.000000,4.000000,4.000000,4.000000,4.000000,4.000000,100.000000,,,,,,,,,,,,,,,,
1645707520.424070,236.000000,0.000000,4231.666504,4115.256348,4252.948730,4019.615479,4008.974365,4189.615234,4234.358887,4228.205078,4223.974121,4095.641113,4176.153809,4219.102539,4216.922852,4240.256348,3375.000000,4.000000,95.000000,,,,0.000000,4.000000,4.000000,4.000000,4.000000,4.000000,4.000000,4.000000,4.000000,4.000000,4.000000,4.000000,4.000000,4.000000,4.000000,100.000000,,,,,,,,,,,,,,,,
1645707520.428011,237.000000,0.000000,4226.025879,4134.358887,4239.230957,4048.333252,4059.487061,4187.820313,4230.256348,4231.666504,4225.897461,4108.077148,4247.948730,4211.282227,4225.256348,4239.743652,3312.000000,4.000000,95.000000,,,,0.000000,4.000000,4.000000,4.000000,4.000000,4.000000,4.000000,4.000000,4.000000,4.000000,4.000000,4.000000,4.000000,4.000000,4.000000,100.000000,,,,,,,,,,,,,,,,
1645707520.432051,238.000000,0.000000,4203.205078,4196.282227,4206.153809,4108.974121,4109.743652,4183.974121,4225.512695,4230.128418,4223.077148,4130.641113,4303.974121,4187.692383,4238.846191,4222.436035,2889.000000,4.000000,95.000000,,,,0.000000,4.000000,4.000000,4.000000,4.000000,4.000000,4.000000,4.000000,4.000000,4.000000,4.000000,4.000000,4.000000,4.000000,4.000000,100.000000,,,,,,,,,,,,,,,,
1645707520.435991,239.000000,0.000000,4177.307617,4254.487305,4175.384766,4158.846191,4142.307617,4180.769043,4224.230957,4227.051270,4216.153809,4154.743652,4326.794922,4162.051270,4254.743652,4200.641113,3476.000000,4.000000,95.000000,,,,0.000000,4.000000,4.000000,4.000000,4.000000,4.000000,4.000000,4.000000,4.000000,4.000000,4.000000,4.000000,4.000000,4.000000,4.000000,100.000000,,,,,,,,,,,,,,,,
1645707520.439931,240.000000,0.000000,4166.794922,4273.717773,4167.820313,4163.589844,4158.461426,4182.563965,4228.974121,4228.333496,4209.102539,4175.384766,4323.717773,4152.051270,4270.128418,4192.948730,3375.000000,4.000000,95.000000,,,,0.000000,4.000000,4.000000,4.000000,4.000000,4.000000,4.000000,4.000000,4.000000,4.000000,4.000000,4.000000,4.000000,4.000000,4.000000,100.000000,,,,,,,,,,,,,,,,
1645707520.443871,241.000000,0.000000,4179.358887,4256.153809,4186.666504,4132.051270,4169.743652,4191.410156,4237.948730,4236.794922,4204.743652,4190.641113,4316.153809,4164.358887,4283.077148,4207.436035,3312.000000,4.000000,95.000000,,,,0.000000,4.000000,4.000000,4.000000,4.000000,4.000000,4.000000,4.000000,4.000000,4.000000,4.000000,4.000000,4.000000,4.000000,4.000000,100.000000,,,,,,,,,,,,,,,,
1645707520.447811,242.000000,0.000000,4204.230957,4233.077148,4214.230957,4110.128418,4184.358887,4203.589844,4246.666504,4249.102539,4202.563965,4198.205078,4319.871582,4187.820313,4291.794922,4234.615234,2889.000000,4.000000,95.000000,,,,0.000000,4.000000,4.000000,4.000000,4.000000,4.000000,4.000000,4.000000,4.000000,4.000000,4.000000,4.000000,4.000000,4.000000,4.000000,100.000000,,,,,,,,,,,,,,,,
1645707520.451751,243.000000,0.000000,4223.077148,4233.205078,4227.563965,4132.179688,4198.717773,4213.205078,4250.641113,4258.077148,4200.512695,4195.769043,4334.487305,4203.717773,4295.512695,4255.512695,3476.000000,4.000000,95.000000,,,,0.000000,4.000000,4.000000,4.000000,4.000000,4.000000,4.000000,4.000000,4.000000,4.000000,4.000000,4.000000,4.000000,4.000000,4.000000,100.000000,,,,,,,,,,,,,,,,
1645707520.455691,244.000000,0.000000,4226.153809,4254.743652,4218.974121,4181.922852,4202.051270,4216.153809,4248.846191,4257.948730,4197.436035,4185.512695,4347.692383,4201.025879,4294.358887,4257.307617,3375.000000,4.000000,95.000000,,,,0.000000,4.000000,4.000000,4.000000,4.000000,4.000000,4.000000,4.000000,4.000000,4.000000,4.000000,4.000000,4.000000,4.000000,4.000000,100.000000,,,,,,,,,,,,,,,,
1645707520.459631,245.000000,0.000000,4217.820313,4270.641113,4200.512695,4208.974121,4188.589844,4213.589844,4244.102539,4249.487305,4195.384766,4174.615234,4349.871582,4186.410156,4290.128418,4241.666504,3312.000000,4.000000,95.000000,,,,0.000000,4.000000,4.000000,4.000000,4.000000,4.000000,4.000000,4.000000,4.000000,4.000000,4.000000,4.000000,4.000000,4.000000,4.000000,100.000000,,,,,,,,,,,,,,,,
1645707520.463571,246.000000,0.000000,4209.102539,4259.102539,4190.256348,4183.333496,4168.846191,4209.743652,4241.153809,4240.000000,4197.563965,4170.128418,4343.974121,4175.128418,4285.128418,4220.256348,2889.000000,4.000000,95.000000,,,,0.000000,4.000000,4.000000,4.000000,4.000000,4.000000,4.000000,4.000000,4.000000,4.000000,4.000000,4.000000,4.000000,4.000000,4.000000,100.000000,,,,,,,,,,,,,,,,
1645707520.467511,247.000000,0.000000,4205.641113,4229.358887,4195.128418,4128.205078,4164.487305,4207.307617,4242.179688,4236.410156,4205.256348,4174.358887,4342.051270,4176.794922,4282.563965,4204.743652,3476.000000,4.000000,95.000000,,,,0.000000,4.000000,4.000000,4.000000,4.000000,4.000000,4.000000,4.000000,4.000000,4.000000,4.000000,4.000000,4.000000,4.000000,4.000000,100.000000,,,,,,,,,,,,,,,,
1645707520.471452,248.000000,0.000000,4206.410156,4213.589844,4207.948730,4096.153809,4189.743652,4207.307617,4246.282227,4239.871582,4216.538574,4184.358887,4352.307617,4188.717773,4284.615234,4200.384766,3375.000000,4.000000,95.000000,,,,0.000000,4.000000,4.000000,4.000000,4.000000,4.000000,4.000000,4.000000,4.000000,4.000000,4.000000,4.000000,4.000000,4.000000,4.000000,100.000000,,,,,,,,,,,,,,,,
1645707520.475292,249.000000,0.000000,4208.333496,4234.102539,4216.922852,4116.282227,4233.717773,4208.974121,4250.128418,4246.538574,4227.948730,4194.871582,4370.641113,4200.384766,4291.538574,4208.461426,3312.000000,4.000000,95.000000,,,,0.000000,4.000000,4.000000,4.000000,4.000000,4.000000,4.000000,4.000000,4.000000,4.000000,4.000000,4.000000,4.000000,4.000000,4.000000,100.000000,,,,,,,,,,,,,,,,
1645707520.479232,250.000000,0.000000,4211.538574,4278.717773,4217.051270,4169.358887,4266.025879,4211.153809,4251.153809,4250.641113,4236.025879,4201.410156,4384.871582,4203.589844,4300.000000,4226.794922,2889.000000,4.000000,95.000000,,,,0.000000,4.000000,4.000000,4.000000,4.000000,4.000000,4.000000,4.000000,4.000000,4.000000,4.000000,4.000000,4.000000,4.000000,4.000000,100.000000,,,,,,,,,,,,,,,,
1645707520.483172,251.000000,0.000000,4216.922852,4311.282227,4212.051270,4210.384766,4263.589844,4212.563965,4248.717773,4250.256348,4239.102539,4201.794922,4387.179688,4196.794922,4305.128418,4250.000000,3476.000000,4.000000,95.000000,,,,0.000000,4.000000,4.000000,4.000000,4.000000,4.000000,4.000000,4.000000,4.000000,4.000000,4.000000,4.000000,4.000000,4.000000,4.000000,100.000000,,,,,,,,,,,,,,,,
1645707520.487112,252.000000,0.000000,4224.102539,4308.717773,4208.974121,4210.897461,4233.717773,4212.051270,4245.000000,4247.307617,4238.461426,4197.179688,4382.692383,4185.256348,4305.128418,4270.128418,3375.000000,4.000000,95.000000,,,,0.000000,4.000000,4.000000,4.000000,4.000000,4.000000,4.000000,4.000000,4.000000,4.000000,4.000000,4.000000,4.000000,4.000000,4.000000,100.000000,,,,,,,,,,,,,,,,
1645707520.491052,253.000000,0.000000,4230.897461,4281.794922,4210.897461,4180.384766,4205.897461,4209.743652,4243.205078,4246.025879,4237.179688,4192.436035,4383.333496,4177.307617,4302.692383,4280.769043,3312.000000,4.000000,95.000000,,,,0.000000,4.000000,4.000000,4.000000,4.000000,4.000000,4.000000,4.000000,4.000000,4.000000,4.000000,4.000000,4.000000,4.000000,4.000000,100.000000,,,,,,,,,,,,,,,,
1645707520.494992,254.000000,0.000000,4234.358887,4261.282227,4215.256348,4149.871582,4202.436035,4207.436035,4244.487305,4248.205078,4237.307617,4192.948730,4394.358887,4177.820313,4302.563965,4280.512695,2889.000000,4.000000,95.000000,,,,0.000000,4.000000,4.000000,4.000000,4.000000,4.000000,4.000000,4.000000,4.000000,4.000000,4.000000,4.000000,4.000000,4.000000,4.000000,100.000000,,,,,,,,,,,,,,,,
1645707520.498833,255.000000,0.000000,4232.692383,4265.769043,4217.051270,4143.333496,4220.128418,4206.538574,4246.410156,4251.410156,4239.102539,4199.615234,4408.717773,4184.743652,4307.307617,4272.948730,115.000000,4.000000,95.000000,,,,0.000000,4.000000,4.000000,4.000000,4.000000,4.000000,4.000000,4.000000,4.000000,4.000000,4.000000,4.000000,4.000000,4.000000,4.000000,100.000000,,,,,,,,,,,,,,,,
1645707520.502773,0.000000,0.000000,4226.410156,4287.563965,4213.461426,4160.256348,4238.846191,4206.410156,4245.256348,4250.769043,4240.256348,4207.307617,4414.358887,4191.025879,4314.615234,4263.077148,3282.000000,4.000000,95.000000,,,,0.000000,4.000000,4.000000,4.000000,4.000000,4.000000,4.000000,4.000000,4.000000,4.000000,4.000000,4.000000,4.000000,4.000000,4.000000,100.000000,,,,,,,,,,,,,,,,
1645707520.506713,1.000000,0.000000,4218.461426,4305.384766,4206.282227,4181.153809,4242.692383,4205.512695,4240.769043,4244.358887,4238.461426,4208.205078,4406.282227,4191.153809,4319.615234,4255.641113,3139.000000,4.000000,95.000000,,,,0.000000,4.000000,4.000000,4.000000,4.000000,4.000000,4.000000,4.000000,4.000000,4.000000,4.000000,4.000000,4.000000,4.000000,4.000000,100.000000,,,,,,,,,,,,,,,,
1645707520.510653,2.000000,0.000000,4213.461426,4304.487305,4201.025879,4185.000000,4230.384766,4203.461426,4236.538574,4235.641113,4233.974121,4199.615234,4392.563965,4186.538574,4318.205078,4252.820313,3688.000000,4.000000,95.000000,,,,0.000000,4.000000,4.000000,4.000000,4.000000,4.000000,4.000000,4.000000,4.000000,4.000000,4.000000,4.000000,4.000000,4.000000,4.000000,100.000000,,,,,,,,,,,,,,,,
1645707520.514593,3.000000,0.000000,4215.256348,4285.897461,4202.051270,4166.282227,4212.436035,4202.307617,4236.282227,4230.641113,4229.615234,4187.563965,4387.948730,4183.205078,4310.769043,4253.846191,3547.000000,4.000000,95.000000,,,,0.000000,4.000000,4.000000,4.000000,4.000000,4.000000,4.000000,4.000000,4.000000,4.000000,4.000000,4.000000,4.000000,4.000000,4.000000,100.000000,,,,,,,,,,,,,,,,
1645707520.518533,4.000000,0.000000,4223.077148,4263.077148,4208.333496,4139.871582,4201.922852,4203.974121,4240.512695,4232.820313,4228.974121,4181.282227,4401.153809,4186.025879,4301.922852,4255.384766,3693.000000,4.000000,95.000000,,,,0.000000,4.000000,4.000000,4.000000,4.000000,4.000000,4.000000,4.000000,4.000000,4.000000,4.000000,4.000000,4.000000,4.000000,4.000000,100.000000,,,,,,,,,,,,,,,,
1645707520.522473,5.000000,0.000000,4231.410156,4251.538574,4213.974121,4129.871582,4206.922852,4208.077148,4244.871582,4240.000000,4233.333496,4185.769043,4425.897461,4193.717773,4296.922852,4253.717773,3446.000000,4.000000,95.000000,,,,0.000000,4.000000,4.000000,4.000000,4.000000,4.000000,4.000000,4.000000,4.000000,4.000000,4.000000,4.000000,4.000000,4.000000,4.000000,100.000000,,,,,,,,,,,,,,,,
1645707520.526413,6.000000,0.000000,4233.717773,4259.743652,4213.333496,4148.589844,4226.025879,4211.666504,4246.025879,4246.794922,4240.128418,4197.563965,4445.769043,4201.538574,4298.846191,4248.717773,2984.000000,4.000000,95.000000,,,,0.000000,4.000000,4.000000,4.000000,4.000000,4.000000,4.000000,4.000000,4.000000,4.000000,4.000000,4.000000,4.000000,4.000000,4.000000,100.000000,,,,,,,,,,,,,,,,
1645707520.530353,7.000000,0.000000,4228.205078,4282.820313,4206.538574,4184.743652,4249.102539,4212.307617,4243.461426,4249.230957,4244.871582,4208.846191,4448.333496,4205.897461,4305.897461,4244.487305,2833.000000,4.000000,95.000000,,,,0.000000,4.000000,4.000000,4.000000,4.000000,4.000000,4.000000,4.000000,4.000000,4.000000,4.000000,4.000000,4.000000,4.000000,4.000000,100.000000,,,,,,,,,,,,,,,,
1645707520.534194,8.000000,0.000000,4219.230957,4306.282227,4198.077148,4212.948730,4263.974121,4209.487305,4240.128418,4247.179688,4244.871582,4214.102539,4435.000000,4205.641113,4313.461426,4245.641113,1355.000000,4.000000,95.000000,,,,0.000000,4.000000,4.000000,4.000000,4.000000,4.000000,4.000000,4.000000,4.000000,4.000000,4.000000,4.000000,4.000000,4.000000,4.000000,100.000000,,,,,,,,,,,,,,,,
1645707520.538134,9.000000,0.000000,4213.461426,4315.897461,4193.333496,4215.384766,4265.897461,4205.897461,4237.948730,4243.717773,4240.897461,4213.077148,4418.974121,4202.307617,4316.538574,4254.358887,3199.000000,4.000000,95.000000,,,,0.000000,4.000000,4.000000,4.000000,4.000000,4.000000,4.000000,4.000000,4.000000,4.000000,4.000000,4.000000,4.000000,4.000000,4.000000,100.000000,,,,,,,,,,,,,,,,
1645707520.542074,10.000000,0.000000,4213.589844,4308.589844,4194.487305,4193.589844,4259.743652,4204.230957,4237.179688,4242.179688,4236.282227,4209.615234,4413.077148,4197.436035,4313.974121,4267.692383,3136.000000,4.000000,95.000000,,,,0.000000,4.000000,4.000000,4.000000,4.000000,4.000000,4.000000,4.000000,4.000000,4.000000,4.000000,4.000000,4.000000,4.000000,4.000000,100.000000,,,,,,,,,,,,,,,,
1645707520.546014,11.000000,0.000000,4217.563965,4291.025879,4200.512695,4162.820313,4252.692383,4205.128418,4237.436035,4244.358887,4234.102539,4207.436035,4419.487305,4192.692383,4307.820313,4280.000000,3522.000000,4.000000,95.000000,,,,0.000000,4.000000,4.000000,4.000000,4.000000,4.000000,4.000000,4.000000,4.000000,4.000000,4.000000,4.000000,4.000000,4.000000,4.000000,100.000000,,,,,,,,,,,,,,,,
1645707520.549954,12.000000,0.000000,4220.384766,4273.589844,4207.436035,4140.384766,4247.051270,4206.538574,4238.461426,4248.333496,4235.128418,4206.922852,4429.358887,4188.717773,4300.128418,4285.897461,3497.000000,4.000000,95.000000,,,,0.000000,4.000000,4.000000,4.000000,4.000000,4.000000,4.000000,4.000000,4.000000,4.000000,4.000000,4.000000,4.000000,4.000000,4.000000,100.000000,,,,,,,,,,,,,,,,
1645707520.553894,13.000000,0.000000,4218.461426,4263.461426,4210.769043,4136.922852,4241.153809,4206.025879,4239.487305,4250.512695,4237.820313,4205.512695,4431.794922,4185.384766,4292.051270,4282.948730,3180.000000,4.000000,95.000000,,,,0.000000,4.000000,4.000000,4.000000,4.000000,4.000000,4.000000,4.000000,4.000000,4.000000,4.000000,4.000000,4.000000,4.000000,4.000000,100.000000,,,,,,,,,,,,,,,,
1645707520.557834,14.000000,0.000000,4212.051270,4263.205078,4207.563965,4151.666504,4235.256348,4203.205078,4239.102539,4248.205078,4239.743652,4201.410156,4422.692383,4182.051270,4284.358887,4273.974121,3136.000000,4.000000,95.000000,,,,0.000000,4.000000,4.000000,4.000000,4.000000,4.000000,4.000000,4.000000,4.000000,4.000000,4.000000,4.000000,4.000000,4.000000,4.000000,100.000000,,,,,,,,,,,,,,,,
1645707520.561774,15.000000,0.000000,4205.641113,4270.897461,4200.256348,4172.307617,4232.436035,4200.000000,4236.282227,4241.666504,4239.102539,4195.641113,4408.333496,4178.205078,4278.589844,4264.487305,3522.000000,4.000000,95.000000,,,,0.000000,4.000000,4.000000,4.000000,4.000000,4.000000,4.000000,4.000000,4.000000,4.000000,4.000000,4.000000,4.000000,4.000000,4.000000,100.000000,,,,,,,,,,,,,,,,
1645707520.565714,16.000000,0.000000,4204.358887,4281.666504,4195.641113,4181.794922,4233.205078,4198.205078,4232.179688,4234.615234,4236.282227,4191.153809,4398.846191,4176.025879,4275.769043,4257.820313,3497.000000,4.000000,95.000000,,,,0.000000,4.000000,4.000000,4.000000,4.000000,4.000000,4.000000,4.000000,4.000000,4.000000,4.000000,4.000000,4.000000,4.000000,4.000000,100.000000,,,,,,,,,,,,,,,,
1645707520.569655,17.000000,0.000000,4210.384766,4290.256348,4198.846191,4172.692383,4234.487305,4198.461426,4230.128418,4231.282227,4233.333496,4190.641113,4399.615234,4177.436035,4274.743652,4253.077148,3180.000000,4.000000,95.000000,,,,0.000000,4.000000,4.000000,4.000000,4.000000,4.000000,4.000000,4.000000,4.000000,4.000000,4.000000,4.000000,4.000000,4.000000,4.000000,100.000000,,,,,,,,,,,,,,,,
1645707520.573495,18.000000,0.000000,4220.000000,4295.256348,4207.820313,4155.256348,4234.358887,4200.256348,4232.179688,4232.820313,4231.153809,4194.487305,4407.436035,4182.179688,4273.077148,4246.153809,3136.000000,4.000000,95.000000,,,,0.000000,4.000000,4.000000,4.000000,4.000000,4.000000,4.000000,4.000000,4.000000,4.000000,4.000000,4.000000,4.000000,4.000000,4.000000,100.000000,,,,,,,,,,,,,,,,
1645707520.577435,19.000000,0.000000,4227.051270,4299.102539,4215.256348,4147.179688,4233.974121,4202.820313,4236.794922,4235.769043,4230.000000,4199.871582,4414.615234,4187.307617,4269.871582,4236.410156,3522.000000,4.000000,95.000000,,,,0.000000,4.000000,4.000000,4.000000,4.000000,4.000000,4.000000,4.000000,4.000000,4.000000,4.000000,4.000000,4.000000,4.000000,4.000000,100.000000,,,,,,,,,,,,,,,,
1645707520.581375,20.000000,0.000000,4227.563965,4303.846191,4215.769043,4156.410156,4234.871582,4205.256348,4240.384766,4235.128418,4228.974121,4202.948730,4415.897461,4189.487305,4265.769043,4228.077148,3497.000000,4.000000,95.000000,,,,0.000000,4.000000,4.000000,4.000000,4.000000,4.000000,4.000000,4.000000,4.000000,4.000000,4.000000,4.000000,4.000000,4.000000,4.000000,100.000000,,,,,,,,,,,,,,,,
1645707520.585315,21.000000,0.000000,4221.922852,4307.436035,4210.384766,4173.846191,4234.615234,4206.666504,4240.512695,4229.743652,4227.820313,4200.769043,4410.256348,4186.794922,4261.410156,4227.179688,3180.000000,4.000000,95.000000,,,,0.000000,4.000000,4.000000,4.000000,4.000000,4.000000,4.000000,4.000000,4.000000,4.000000,4.000000,4.000000,4.000000,4.000000,4.000000,100.000000,,,,,,,,,,,,,,,,
1645707520.589255,22.000000,0.000000,4213.205078,4307.948730,4204.871582,4184.487305,4230.128418,4206.282227,4238.333496,4223.205078,4226.794922,4193.846191,4400.641113,4180.000000,4255.897461,4235.641113,3136.000000,4.000000,95.000000,,,,0.000000,4.000000,4.000000,4.000000,4.000000,4.000000,4.000000,4.000000,4.000000,4.000000,4.000000,4.000000,4.000000,4.000000,4.000000,100.000000,,,,,,,,,,,,,,,,
1645707520.593195,23.000000,0.000000,4205.897461,4307.436035,4203.205078,4180.512695,4222.820313,4204.615234,4236.410156,4219.871582,4226.794922,4186.153809,4391.666504,4172.179688,4249.102539,4249.230957,3522.000000,4.000000,95.000000,,,,0.000000,4.000000,4.000000,4.000000,4.000000,4.000000,4.000000,4.000000,4.000000,4.000000,4.000000,4.000000,4.000000,4.000000,4.000000,100.000000,,,,,,,,,,,,,,,,
1645707520.597135,24.000000,0.000000,4203.846191,4310.641113,4205.769043,4166.153809,4219.102539,4203.333496,4235.769043,4221.410156,4227.692383,4182.307617,4387.051270,4167.051270,4242.307617,4260.000000,3497.000000,4.000000,95.000000,,,,0.000000,4.000000,4.000000,4.000000,4.000000,4.000000,4.000000,4.000000,4.000000,4.000000,4.000000,4.000000,4.000000,4.000000,4.000000,100.000000,,,,,,,,,,,,,,,,
1645707520.601075,25.000000,0.000000,4208.205078,4318.974121,4209.871582,4151.410156,4223.077148,4204.487305,4236.025879,4226.153809,4228.589844,4183.077148,4387.051270,4167.051270,4238.077148,4261.922852,3180.000000,4.000000,95.000000,,,,0.000000,4.000000,4.000000,4.000000,4.000000,4.000000,4.000000,4.000000,4.000000,4.000000,4.000000,4.000000,4.000000,4.000000,4.000000,100.000000,,,,,,,,,,,,,,,,
1645707520.605016,26.000000,0.000000,4216.410156,4327.820313,4213.077148,4143.205078,4231.410156,4207.692383,4236.410156,4231.282227,4228.461426,4185.512695,4387.820313,4171.410156,4237.820313,4253.589844,3136.000000,4.000000,95.000000,,,,0.000000,4.000000,4.000000,4.000000,4.000000,4.000000,4.000000,4.000000,4.000000,4.000000,4.000000,4.000000,4.000000,4.000000,4.000000,100.000000,,,,,,,,,,,,,,,,
1645707520.608956,27.000000,0.000000,4223.333496,4330.512695,4214.743652,4143.077148,4235.384766,4210.256348,4236.922852,4234.230957,4227.179688,4185.769043,4384.615234,4177.051270,4239.615234,4238.974121,3522.000000,4.000000,95.000000,,,,0.000000,4.000000,4.000000,4.000000,4.000000,4.000000,4.000000,4.000000,4.000000,4.000000,4.000000,4.000000,4.000000,4.000000,4.000000,100.000000,,,,,,,,,,,,,,,,
1645707520.612896,28.000000,0.000000,4225.641113,4325.512695,4215.000000,4147.948730,4230.000000,4209.743652,4237.820313,4234.358887,4226.153809,4183.589844,4376.666504,4180.897461,4240.769043,4226.025879,3497.000000,4.000000,95.000000,,,,0.000000,4.000000,4.000000,4.000000,4.000000,4.000000,4.000000,4.000000,4.000000,4.000000,4.000000,4.000000,4.000000,4.000000,4.000000,100.000000,,,,,,,,,,,,,,,,
1645707520.616836,29.000000,0.000000,4223.461426,4317.051270,4214.743652,4153.589844,4218.846191,4207.051270,4238.077148,4232.051270,4226.922852,4182.692383,4368.717773,4182.179688,4240.256348,4222.563965,3180.000000,4.000000,95.000000,,,,0.000000,4.000000,4.000000,4.000000,4.000000,4.000000,4.000000,4.000000,4.000000,4.000000,4.000000,4.000000,4.000000,4.000000,4.000000,100.000000,,,,,,,,,,,,,,,,
1645707520.620776,30.000000,0.000000,4219.615234,4310.641113,4215.384766,4156.666504,4210.769043,4204.358887,4236.922852,4228.846191,4229.615234,4186.282227,4366.666504,4182.436035,4239.743652,4231.538574,3136.000000,4.000000,95.000000,,,,0.000000,4.000000,4.000000,4.000000,4.000000,4.000000,4.000000,4.000000,4.000000,4.000000,4.000000,4.000000,4.000000,4.000000,4.000000,100.000000,,,,,,,,,,,,,,,,
1645707520.624716,31.000000,0.000000,4216.794922,4307.948730,4217.820313,4155.769043,4211.410156,4202.436035,4234.358887,4227.307617,4232.948730,4193.077148,4370.897461,4183.461426,4240.256348,4247.307617,3522.000000,4.000000,95.000000,,,,0.000000,4.000000,4.000000,4.000000,4.000000,4.000000,4.000000,4.000000,4.000000,4.000000,4.000000,4.000000,4.000000,4.000000,4.000000,100.000000,,,,,,,,,,,,,,,,
1645707520.628656,32.000000,0.000000,4215.000000,4306.282227,4221.794922,4152.563965,4218.077148,4200.769043,4232.563965,4228.974121,4235.256348,4197.948730,4374.743652,4185.000000,4240.000000,4259.358887,0.000000,4.000000,95.000000,,,,0.000000,4.000000,4.000000,4.000000,4.000000,4.000000,4.000000,4.000000,4.000000,4.000000,4.000000,4.000000,4.000000,4.000000,4.000000,100.000000,,,,,,,,,,,,,,,,
1645707520.632596,33.000000,0.000000,4212.563965,4303.205078,4225.512695,4150.384766,4222.563965,4198.717773,4232.948730,4232.948730,4235.641113,4196.794922,4370.128418,4185.641113,4236.025879,4260.128418,0.000000,4.000000,95.000000,,,,0.000000,4.000000,4.000000,4.000000,4.000000,4.000000,4.000000,4.000000,4.000000,4.000000,4.000000,4.000000,4.000000,4.000000,4.000000,100.000000,,,,,,,,,,,,,,,,
1645707520.636536,34.000000,0.000000,4209.230957,4299.615234,4226.666504,4151.922852,4219.230957,4197.948730,4235.128418,4236.666504,4234.871582,4190.897461,4354.743652,4184.358887,4228.077148,4250.256348,0.000000,4.000000,95.000000,,,,0.000000,4.000000,4.000000,4.000000,4.000000,4.000000,4.000000,4.000000,4.000000,4.000000,4.000000,4.000000,4.000000,4.000000,4.000000,100.000000,,,,,,,,,,,,,,,,
1645707520.640377,35.000000,0.000000,4206.666504,4298.589844,4224.615234,4157.692383,4209.487305,4200.256348,4236.794922,4237.948730,4233.589844,4185.256348,4334.102539,4181.794922,4219.230957,4236.794922,0.000000,4.000000,95.000000,,,,0.000000,4.000000,4.000000,4.000000,4.000000,4.000000,4.000000,4.000000,4.000000,4.000000,4.000000,4.000000,4.000000,4.000000,4.000000,100.000000,,,,,,,,,,,,,,,,
1645707520.644317,36.000000,0.000000,4207.692383,4302.436035,4221.025879,4165.000000,4200.256348,4204.743652,4236.282227,4236.153809,4232.563965,4184.102539,4317.051270,4179.487305,4213.846191,4227.820313,0.000000,4.000000,95.000000,,,,0.000000,4.000000,4.000000,4.000000,4.000000,4.000000,4.000000,4.000000,4.000000,4.000000,4.000000,4.000000,4.000000,4.000000,4.000000,100.000000,,,,,,,,,,,,,,,,
1645707520.648257,37.000000,0.000000,4212.820313,4310.000000,4218.846191,4168.333496,4198.077148,4208.717773,4234.487305,4232.948730,4231.282227,4187.436035,4308.589844,4178.589844,4214.230957,4228.205078,0.000000,4.000000,95.000000,,,,0.000000,4.000000,4.000000,4.000000,4.000000,4.000000,4.000000,4.000000,4.000000,4.000000,4.000000,4.000000,4.000000,4.000000,4.000000,100.000000,,,,,,,,,,,,,,,,
1645707520.652197,38.000000,0.000000,4220.128418,4317.948730,4219.615234,4163.461426,4203.846191,4209.230957,4232.948730,4230.384766,4229.871582,4191.538574,4307.436035,4179.102539,4220.000000,4237.820313,0.000000,4.000000,95.000000,,,,0.000000,4.000000,4.000000,4.000000,4.000000,4.000000,4.000000,4.000000,4.000000,4.000000,4.000000,4.000000,4.000000,4.000000,4.000000,100.000000,,,,,,,,,,,,,,,,
1645707520.656137,39.000000,0.000000,4226.538574,4322.948730,4222.179688,4151.410156,4213.333496,4206.153809,4231.922852,4229.358887,4229.230957,4193.461426,4309.615234,4180.897461,4227.948730,4252.179688,0.000000,4.000000,95.000000,,,,0.000000,4.000000,4.000000,4.000000,4.000000,4.000000,4.000000,4.000000,4.000000,4.000000,4.000000,4.000000,4.000000,4.000000,4.000000,100.000000,,,,,,,,,,,,,,,,
1645707520.660077,40.000000,0.000000,4229.615234,4324.487305,4224.615234,4136.794922,4220.000000,4201.282227,4230.512695,4229.358887,4230.000000,4192.436035,4310.641113,4183.205078,4233.589844,4262.436035,0.000000,4.000000,95.000000,,,,0.000000,4.000000,4.000000,4.000000,4.000000,4.000000,4.000000,4.000000,4.000000,4.000000,4.000000,4.000000,4.000000,4.000000,4.000000,100.000000,,,,,,,,,,,,,,,,
1645707520.664017,41.000000,0.000000,4228.717773,4324.102539,4225.256348,4123.974121,4219.743652,4197.307617,4228.333496,4229.615234,4231.922852,4190.000000,4308.077148,4185.000000,4233.974121,4260.512695,0.000000,4.000000,95.000000,,,,0.000000,4.000000,4.000000,4.000000,4.000000,4.000000,4.000000,4.000000,4.000000,4.000000,4.000000,4.000000,4.000000,4.000000,4.000000,100.000000,,,,,,,,,,,,,,,,
1645707520.667957,42.000000,0.000000,4224.871582,4324.615234,4224.358887,4115.256348,4213.846191,4196.025879,4227.436035,4229.743652,4232.948730,4188.205078,4300.512695,4185.000000,4229.743652,4245.000000,0.000000,4.000000,95.000000,,,,0.000000,4.000000,4.000000,4.000000,4.000000,4.000000,4.000000,4.000000,4.000000,4.000000,4.000000,4.000000,4.000000,4.000000,4.000000,100.000000,,,,,,,,,,,,,,,,
1645707520.671897,43.000000,0.000000,4221.538574,4327.436035,4222.692383,4111.666504,4206.153809,4198.717773,4229.358887,4230.000000,4231.922852,4188.077148,4289.102539,4183.846191,4225.641113,4224.871582,0.000000,4.000000,95.000000,,,,0.000000,4.000000,4.000000,4.000000,4.000000,4.000000,4.000000,4.000000,4.000000,4.000000,4.000000,4.000000,4.000000,4.000000,4.000000,100.000000,,,,,,,,,,,,,,,,
1645707520.675838,44.000000,0.000000,4222.179688,4331.282227,4221.410156,4112.692383,4199.230957,4204.487305,4233.589844,4230.000000,4229.615234,4189.743652,4277.179688,4183.077148,4226.410156,4214.102539,0.000000,4.000000,95.000000,,,,0.000000,4.000000,4.000000,4.000000,4.000000,4.000000,4.000000,4.000000,4.000000,4.000000,4.000000,4.000000,4.000000,4.000000,4.000000,100.000000,,,,,,,,,,,,,,,,
1645707520.679778,45.000000,0.000000,4227.436035,4332.948730,4221.410156,4114.230957,4193.461426,4210.897461,4237.051270,4229.358887,4227.692383,4192.307617,4268.846191,4184.230957,4232.948730,4220.384766,0.000000,4.000000,95.000000,,,,0.000000,4.000000,4.000000,4.000000,4.000000,4.000000,4.000000,4.000000,4.000000,4.000000,4.000000,4.000000,4.000000,4.000000,4.000000,100.000000,,,,,,,,,,,,,,,,
1645707520.683718,46.000000,0.000000,4233.974121,4329.871582,4223.846191,4110.000000,4188.589844,4214.102539,4237.051270,4228.205078,4227.307617,4194.102539,4266.410156,4186.922852,4240.897461,4239.871582,0.000000,4.000000,95.000000,,,,0.000000,4.000000,4.000000,4.000000,4.000000,4.000000,4.000000,4.000000,4.000000,4.000000,4.000000,4.000000,4.000000,4.000000,4.000000,100.000000,,,,,,,,,,,,,,,,
1645707520.687658,47.000000,0.000000,4236.153809,4322.563965,4228.589844,4096.666504,4185.897461,4211.538574,4233.974121,4226.794922,4228.461426,4193.461426,4268.461426,4188.077148,4243.974121,4258.846191,0.000000,4.000000,95.000000,,,,0.000000,4.000000,4.000000,4.000000,4.000000,4.000000,4.000000,4.000000,4.000000,4.000000,4.000000,4.000000,4.000000,4.000000,4.000000,100.000000,,,,,,,,,,,,,,,,
1645707520.691598,48.000000,0.000000,4230.512695,4314.615234,4233.333496,4078.461426,4188.333496,4204.230957,4230.384766,4225.256348,4230.256348,4190.384766,4271.410156,4185.256348,4238.589844,4265.256348,0.000000,4.000000,95.000000,,,,0.000000,4.000000,4.000000,4.000000,4.000000,4.000000,4.000000,4.000000,4.000000,4.000000,4.000000,4.000000,4.000000,4.000000,4.000000,100.000000,,,,,,,,,,,,,,,,
1645707520.695538,49.000000,0.000000,4219.102539,4310.641113,4234.487305,4064.102539,4197.179688,4196.666504,4228.846191,4224.102539,4231.538574,4187.436035,4271.410156,4178.589844,4228.333496,4257.051270,0.000000,4.000000,95.000000,,,,0.000000,4.000000,4.000000,4.000000,4.000000,4.000000,4.000000,4.000000,4.000000,4.000000,4.000000,4.000000,4.000000,4.000000,4.000000,100.000000,,,,,,,,,,,,,,,,
1645707520.699478,50.000000,0.000000,4208.589844,4312.948730,4230.384766,4060.769287,4210.128418,4193.974121,4229.743652,4223.717773,4232.051270,4188.333496,4267.563965,4172.563965,4220.897461,4243.461426,0.000000,4.000000,95.000000,,,,0.000000,4.000000,4.000000,4.000000,4.000000,4.000000,4.000000,4.000000,4.000000,4.000000,4.000000,4.000000,4.000000,4.000000,4.000000,100.000000,,,,,,,,,,,,,,,,
1645707520.703418,51.000000,0.000000,4204.743652,4319.743652,4222.692383,4067.820557,4221.282227,4197.692383,4232.307617,4224.487305,4231.666504,4193.461426,4261.410156,4172.051270,4221.666504,4235.512695,0.000000,4.000000,95.000000,,,,0.000000,4.000000,4.000000,4.000000,4.000000,4.000000,4.000000,4.000000,4.000000,4.000000,4.000000,4.000000,4.000000,4.000000,4.000000,100.000000,,,,,,,,,,,,,,,,
1645707520.707259,52.000000,0.000000,4208.974121,4326.153809,4215.641113,4077.948730,4225.128418,4204.871582,4235.384766,4227.051270,4231.282227,4198.846191,4255.384766,4179.230957,4228.717773,4237.307617,0.000000,4.000000,95.000000,,,,0.000000,4.000000,4.000000,4.000000,4.000000,4.000000,4.000000,4.000000,4.000000,4.000000,4.000000,4.000000,4.000000,4.000000,4.000000,100.000000,,,,,,,,,,,,,,,,
1645707520.711199,53.000000,0.000000,4217.051270,4327.436035,4213.077148,4082.179443,4220.897461,4210.512695,4237.948730,4230.897461,4231.153809,4199.615234,4251.666504,4190.769043,4234.615234,4243.717773,0.000000,4.000000,95.000000,,,,0.000000,4.000000,4.000000,4.000000,4.000000,4.000000,4.000000,4.000000,4.000000,4.000000,4.000000,4.000000,4.000000,4.000000,4.000000,100.000000,,,,,,,,,,,,,,,,
1645707520.715139,54.000000,0.000000,4223.717773,4323.205078,4216.025879,4077.179443,4211.538574,4210.769043,4238.333496,4234.230957,4231.153809,4195.128418,4251.538574,4200.128418,4233.717773,4246.282227,0.000000,4.000000,95.000000,,,,0.000000,4.000000,4.000000,4.000000,4.000000,4.000000,4.000000,4.000000,4.000000,4.000000,4.000000,4.000000,4.000000,4.000000,4.000000,100.000000,,,,,,,,,,,,,,,,
1645707520.719079,55.000000,0.000000,4225.128418,4317.179688,4221.922852,4067.179443,4200.512695,4205.641113,4235.128418,4234.871582,4231.538574,4189.487305,4254.358887,4201.538574,4225.897461,4241.922852,0.000000,4.000000,95.000000,,,,0.000000,4.000000,4.000000,4.000000,4.000000,4.000000,4.000000,4.000000,4.000000,4.000000,4.000000,4.000000,4.000000,4.000000,4.000000,100.000000,,,,,,,,,,,,,,,,
1645707520.723019,56.000000,0.000000,4221.410156,4313.333496,4226.410156,4060.128174,4190.512695,4198.333496,4229.743652,4232.179688,4232.692383,4187.820313,4256.410156,4194.487305,4216.538574,4235.000000,0.000000,4.000000,95.000000,,,,0.000000,4.000000,4.000000,4.000000,4.000000,4.000000,4.000000,4.000000,4.000000,4.000000,4.000000,4.000000,4.000000,4.000000,4.000000,100.000000,,,,,,,,,,,,,,,,
1645707520.726959,57.000000,0.000000,4215.384766,4312.820313,4227.179688,4061.281982,4183.077148,4193.205078,4226.025879,4228.717773,4234.102539,4191.410156,4253.717773,4183.974121,4211.153809,4232.692383,0.000000,4.000000,95.000000,,,,0.000000,4.000000,4.000000,4.000000,4.000000,4.000000,4.000000,4.000000,4.000000,4.000000,4.000000,4.000000,4.000000,4.000000,4.000000,100.000000,,,,,,,,,,,,,,,,
1645707520.730899,58.000000,0.000000,4211.538574,4314.230957,4224.871582,4067.820557,4180.512695,4193.077148,4227.436035,4227.820313,4234.358887,4197.563965,4245.000000,4176.794922,4211.794922,4237.436035,0.000000,4.000000,95.000000,,,,0.000000,4.000000,4.000000,4.000000,4.000000,4.000000,4.000000,4.000000,4.000000,4.000000,4.000000,4.000000,4.000000,4.000000,4.000000,100.000000,,,,,,,,,,,,,,,,
1645707520.734839,59.000000,0.000000,4213.077148,4315.897461,4222.692383,4070.641113,4184.230957,4197.820313,4233.333496,4229.871582,4232.563965,4202.307617,4232.948730,4176.410156,4216.282227,4244.615234,0.000000,4.000000,95.000000,,,,0.000000,4.000000,4.000000,4.000000,4.000000,4.000000,4.000000,4.000000,4.000000,4.000000,4.000000,4.000000,4.000000,4.000000,4.000000,100.000000,,,,,,,,,,,,,,,,
1645707520.738779,60.000000,0.000000,4219.487305,4317.820313,4223.717773,4063.333252,4192.179688,4204.102539,4239.230957,4232.436035,4228.846191,4203.333496,4221.922852,4180.384766,4219.487305,4246.794922,0.000000,4.000000,95.000000,,,,0.000000,4.000000,4.000000,4.000000,4.000000,4.000000,4.000000,4.000000,4.000000,4.000000,4.000000,4.000000,4.000000,4.000000,4.000000,100.000000,,,,,,,,,,,,,,,,
1645707520.742719,61.000000,0.000000,4227.051270,4319.743652,4228.205078,4048.846191,4197.820313,4208.333496,4240.769043,4232.179688,4224.871582,4201.025879,4214.871582,4184.358887,4218.077148,4240.384766,0.000000,4.000000,95.000000,,,,0.000000,4.000000,4.000000,4.000000,4.000000,4.000000,4.000000,4.000000,4.000000,4.000000,4.000000,4.000000,4.000000,4.000000,4.000000,100.000000,,,,,,,,,,,,,,,,
1645707520.746660,62.000000,0.000000,4230.897461,4320.641113,4233.461426,4037.307617,4194.743652,4208.717773,4237.820313,4228.974121,4222.563965,4196.153809,4211.410156,4185.256348,4212.820313,4229.230957,0.000000,4.000000,95.000000,,,,0.000000,4.000000,4.000000,4.000000,4.000000,4.000000,4.000000,4.000000,4.000000,4.000000,4.000000,4.000000,4.000000,4.000000,4.000000,100.000000,,,,,,,,,,,,,,,,
1645707520.750600,63.000000,0.000000,4228.846191,4319.358887,4236.282227,4036.666748,4183.717773,4205.769043,4233.461426,4225.384766,4222.820313,4190.384766,4209.871582,4184.487305,4207.820313,4220.512695,0.000000,4.000000,95.000000,,,,0.000000,4.000000,4.000000,4.000000,4.000000,4.000000,4.000000,4.000000,4.000000,4.000000,4.000000,4.000000,4.000000,4.000000,4.000000,100.000000,,,,,,,,,,,,,,,,
1645707520.754540,64.000000,0.000000,4222.948730,4316.922852,4235.384766,4045.512939,4173.461426,4202.692383,4231.282227,4224.102539,4225.641113,4185.512695,4209.102539,4185.384766,4207.051270,4219.615234,0.000000,4.000000,95.000000,,,,0.000000,4.000000,4.000000,4.000000,4.000000,4.000000,4.000000,4.000000,4.000000,4.000000,4.000000,4.000000,4.000000,4.000000,4.000000,100.000000,,,,,,,,,,,,,,,,
1645707520.758480,65.000000,0.000000,4217.692383,4316.282227,4231.922852,4055.256348,4174.871582,4202.692383,4232.820313,4225.897461,4229.230957,4183.461426,4210.128418,4189.102539,4210.897461,4225.512695,0.000000,4.000000,95.000000,,,,0.000000,4.000000,4.000000,4.000000,4.000000,4.000000,4.000000,4.000000,4.000000,4.000000,4.000000,4.000000,4.000000,4.000000,4.000000,100.000000,,,,,,,,,,,,,,,,
1645707520.762420,66.000000,0.000000,4215.384766,4318.846191,4228.717773,4057.564209,4190.384766,4206.410156,4236.666504,4228.846191,4231.538574,4185.000000,4213.205078,4193.333496,4216.025879,4233.077148,0.000000,4.000000,95.000000,,,,0.000000,4.000000,4.000000,4.000000,4.000000,4.000000,4.000000,4.000000,4.000000,4.000000,4.000000,4.000000,4.000000,4.000000,4.000000,100.000000,1.000000,25.000000,4.000000,1.000000,1.000000,1.000000,1.000000,4.000000,4.000000,4.000000,4.000000,4.000000,1.000000,3.000000,4.000000,3.000000
1645707520.766360,67.000000,0.000000,4215.384766,4322.692383,4227.820313,4051.281982,4210.384766,4211.666504,4240.641113,4231.025879,4231.538574,4188.461426,4216.794922,4194.230957,4217.820313,4237.307617,0.000000,4.000000,95.000000,,,,0.000000,4.000000,4.000000,4.000000,4.000000,4.000000,4.000000,4.000000,4.000000,4.000000,4.000000,4.000000,4.000000,4.000000,4.000000,100.000000,,,,,,,,,,,,,,,,
1645707520.770300,68.000000,0.000000,4215.897461,4324.102539,4228.077148,4040.769287,4220.769043,4215.256348,4243.333496,4231.794922,4229.743652,4191.025879,4217.307617,4190.256348,4214.358887,4236.922852,0.000000,4.000000,95.000000,,,,0.000000,4.000000,4.000000,4.000000,4.000000,4.000000,4.000000,4.000000,4.000000,4.000000,4.000000,4.000000,4.000000,4.000000,4.000000,100.000000,,,,,,,,,,,,,,,,
1645707520.774240,69.000000,0.000000,4216.794922,4323.461426,4227.436035,4031.794922,4214.871582,4215.641113,4244.230957,4231.538574,4228.333496,4191.666504,4212.948730,4184.487305,4208.589844,4234.358887,0.000000,4.000000,95.000000,,,,0.000000,4.000000,4.000000,4.000000,4.000000,4.000000,4.000000,4.000000,4.000000,4.000000,4.000000,4.000000,4.000000,4.000000,4.000000,100.000000,,,,,,,,,,,,,,,,
1645707520.778280,70.000000,0.000000,4218.974121,4324.230957,4224.743652,4026.923096,4199.102539,4214.230957,4242.820313,4230.897461,4228.846191,4192.179688,4205.512695,4182.179688,4205.384766,4232.820313,0.000000,4.000000,95.000000,,,,0.000000,4.000000,4.000000,4.000000,4.000000,4.000000,4.000000,4.000000,4.000000,4.000000,4.000000,4.000000,4.000000,4.000000,4.000000,100.000000,,,,,,,,,,,,,,,,
1645707520.782220,71.000000,0.000000,4222.563965,4329.358887,4220.897461,4026.410156,4185.384766,4212.948730,4240.000000,4230.384766,4231.282227,4194.871582,4199.230957,4187.051270,4207.179688,4233.846191,0.000000,4.000000,95.000000,1,1,0,0.000000,4.000000,4.000000,4.000000,4.000000,4.000000,4.000000,4.000000,4.000000,4.000000,4.000000,4.000000,4.000000,4.000000,4.000000,100.000000,,,,,,,,,,,,,,,,
1645707520.786161,72.000000,0.000000,4225.641113,4336.153809,4218.333496,4028.589844,4179.743652,4212.307617,4237.051270,4229.871582,4233.846191,4198.589844,4196.922852,4197.179688,4211.410156,4236.282227,0.000000,4.000000,95.000000,,,,0.000000,4.000000,4.000000,4.000000,4.000000,4.000000,4.000000,4.000000,4.000000,4.000000,4.000000,4.000000,4.000000,4.000000,4.000000,100.000000,,,,,,,,,,,,,,,,
1645707520.790101,73.000000,0.000000,4225.769043,4338.333496,4218.589844,4031.153809,4180.000000,4211.153809,4235.512695,4228.461426,4234.615234,4200.256348,4198.717773,4206.153809,4214.102539,4238.717773,0.000000,4.000000,95.000000,,,,0.000000,4.000000,4.000000,4.000000,4.000000,4.000000,4.000000,4.000000,4.000000,4.000000,4.000000,4.000000,4.000000,4.000000,4.000000,100.000000,,,,,,,,,,,,,,,,
1645707520.794041,74.000000,0.000000,4223.077148,4332.820313,4220.512695,4031.538574,4180.512695,4209.358887,4235.000000,4225.769043,4232.948730,4199.102539,4202.436035,4207.563965,4213.589844,4240.641113,0.000000,4.000000,95.000000,,,,0.000000,4.000000,4.000000,4.000000,4.000000,4.000000,4.000000,4.000000,4.000000,4.000000,4.000000,4.000000,4.000000,4.000000,4.000000,100.000000,,,,,,,,,,,,,,,,
1645707520.797981,75.000000,0.000000,4220.128418,4323.461426,4220.897461,4028.076904,4180.384766,4207.692383,4234.487305,4222.051270,4230.641113,4198.077148,4206.282227,4200.769043,4211.794922,4242.307617,0.000000,4.000000,95.000000,,,,0.000000,4.000000,4.000000,4.000000,4.000000,4.000000,4.000000,4.000000,4.000000,4.000000,4.000000,4.000000,4.000000,4.000000,4.000000,100.000000,,,,,,,,,,,,,,,,
1645707520.801921,76.000000,0.000000,4219.871582,4316.666504,4218.333496,4020.512939,4182.820313,4207.179688,4233.589844,4219.743652,4230.128418,4200.000000,4209.487305,4190.641113,4210.769043,4241.666504,0.000000,4.000000,95.000000,,,,0.000000,4.000000,4.000000,4.000000,4.000000,4.000000,4.000000,4.000000,4.000000,4.000000,4.000000,4.000000,4.000000,4.000000,4.000000,100.000000,,,,,,,,,,,,,,,,
1645707520.805861,77.000000,0.000000,4221.922852,4315.897461,4213.846191,4011.666748,4189.102539,4207.692383,4233.846191,4220.769043,4231.538574,4204.102539,4211.153809,4184.102539,4209.743652,4235.897461,0.000000,4.000000,95.000000,,,,0.000000,4.000000,4.000000,4.000000,4.000000,4.000000,4.000000,4.000000,4.000000,4.000000,4.000000,4.000000,4.000000,4.000000,4.000000,100.000000,,,,,,,,,,,,,,,,
1645707520.809801,78.000000,0.000000,4222.948730,4318.461426,4210.512695,4006.538574,4195.000000,4208.205078,4236.410156,4225.384766,4233.717773,4206.025879,4211.410156,4185.000000,4206.666504,4223.974121,0.000000,4.000000,95.000000,,,,0.000000,4.000000,4.000000,4.000000,4.000000,4.000000,4.000000,4.000000,4.000000,4.000000,4.000000,4.000000,4.000000,4.000000,4.000000,100.000000,,,,,,,,,,,,,,,,
1645707520.813741,79.000000,0.000000,4220.128418,4318.846191,4209.743652,4009.743652,4195.512695,4208.589844,4240.256348,4231.538574,4235.256348,4202.820313,4211.282227,4192.179688,4201.282227,4210.769043,0.000000,4.000000,95.000000,,,,0.000000,4.000000,4.000000,4.000000,4.000000,4.000000,4.000000,4.000000,4.000000,4.000000,4.000000,4.000000,4.000000,4.000000,4.000000,100.000000,,,,,,,,,,,,,,,,
1645707520.817681,80.000000,0.000000,4215.000000,4314.743652,4210.384766,4021.923096,4190.769043,4209.230957,4242.692383,4235.384766,4235.641113,4197.179688,4211.922852,4200.384766,4196.922852,4205.000000,0.000000,4.000000,95.000000,,,,0.000000,4.000000,4.000000,4.000000,4.000000,4.000000,4.000000,4.000000,4.000000,4.000000,4.000000,4.000000,4.000000,4.000000,4.000000,100.000000,,,,,,,,,,,,,,,,
1645707520.821621,81.000000,0.000000,4211.666504,4308.333496,4210.512695,4037.307617,4186.410156,4210.384766,4241.153809,4235.256348,4234.871582,4194.743652,4213.205078,4205.128418,4197.948730,4212.820313,0.000000,4.000000,95.000000,,,,0.000000,4.000000,4.000000,4.000000,4.000000,4.000000,4.000000,4.000000,4.000000,4.000000,4.000000,4.000000,4.000000,4.000000,4.000000,100.000000,,,,,,,,,,,,,,,,
1645707520.825562,82.000000,0.000000,4212.692383,4304.230957,4210.384766,4047.051270,4187.307617,4211.025879,4237.051270,4231.794922,4233.717773,4198.717773,4214.102539,4204.615234,4205.897461,4231.153809,0.000000,4.000000,95.000000,,,,0.000000,4.000000,4.000000,4.000000,4.000000,4.000000,4.000000,4.000000,4.000000,4.000000,4.000000,4.000000,4.000000,4.000000,4.000000,100.000000,,,,,,,,,,,,,,,,
1645707520.829502,83.000000,0.000000,4216.922852,4305.384766,4211.410156,4045.512939,4193.461426,4209.615234,4233.717773,4228.077148,4232.436035,4206.410156,4213.077148,4200.769043,4217.307617,4249.743652,0.000000,4.000000,95.000000,,,,0.000000,4.000000,4.000000,4.000000,4.000000,4.000000,4.000000,4.000000,4.000000,4.000000,4.000000,4.000000,4.000000,4.000000,4.000000,100.000000,,,,,,,,,,,,,,,,
1645707520.833442,84.000000,0.000000,4221.153809,4311.410156,4214.358887,4035.641113,4200.512695,4207.051270,4233.974121,4226.153809,4231.410156,4212.820313,4210.769043,4196.794922,4225.897461,4258.205078,0.000000,4.000000,95.000000,,,,0.000000,4.000000,4.000000,4.000000,4.000000,4.000000,4.000000,4.000000,4.000000,4.000000,4.000000,4.000000,4.000000,4.000000,4.000000,100.000000,,,,,,,,,,,,,,,,
1645707520.837382,85.000000,0.000000,4223.333496,4319.358887,4216.794922,4026.923096,4204.743652,4206.282227,4237.563965,4227.307617,4231.153809,4214.615234,4208.333496,4195.384766,4227.436035,4253.461426,0.000000,4.000000,95.000000,,,,0.000000,4.000000,4.000000,4.000000,4.000000,4.000000,4.000000,4.000000,4.000000,4.000000,4.000000,4.000000,4.000000,4.000000,4.000000,100.000000,,,,,,,,,,,,,,,,
1645707520.841322,86.000000,0.000000,4223.333496,4324.230957,4215.897461,4027.692383,4204.230957,4209.743652,4241.666504,4230.512695,4231.794922,4211.922852,4205.256348,4196.410156,4222.179688,4240.384766,0.000000,4.000000,95.000000,,,,0.000000,4.000000,4.000000,4.000000,4.000000,4.000000,4.000000,4.000000,4.000000,4.000000,4.000000,4.000000,4.000000,4.000000,4.000000,100.000000,,,,,,,,,,,,,,,,
1645707520.845262,87.000000,0.000000,4221.538574,4323.077148,4211.153809,4037.948730,4198.974121,4216.666504,4243.846191,4234.102539,4232.948730,4207.563965,4199.615234,4198.717773,4213.717773,4227.436035,0.000000,4.000000,95.000000,,,,0.000000,4.000000,4.000000,4.000000,4.000000,4.000000,4.000000,4.000000,4.000000,4.000000,4.000000,4.000000,4.000000,4.000000,4.000000,100.000000,,,,,,,,,,,,,,,,
1645707520.849202,88.000000,0.000000,4218.333496,4316.282227,4205.128418,4049.358887,4190.641113,4223.077148,4244.358887,4236.666504,4234.358887,4204.615234,4190.769043,4200.384766,4206.666504,4220.512695,0.000000,4.000000,95.000000,,,,0.000000,4.000000,4.000000,4.000000,4.000000,4.000000,4.000000,4.000000,4.000000,4.000000,4.000000,4.000000,4.000000,4.000000,4.000000,100.000000,,,,,,,,,,,,,,,,
1645707520.853242,89.000000,0.000000,4214.102539,4308.205078,4200.769043,4052.051270,4182.820313,4225.384766,4244.487305,4237.436035,4235.256348,4204.487305,4182.436035,4200.769043,4203.589844,4220.512695,0.000000,4.000000,95.000000,,,,0.000000,4.000000,4.000000,4.000000,4.000000,4.000000,4.000000,4.000000,4.000000,4.000000,4.000000,4.000000,4.000000,4.000000,4.000000,100.000000,,,,,,,,,,,,,,,,
1645707520.857182,90.000000,0.000000,4210.384766,4303.589844,4199.487305,4043.076904,4179.871582,4223.205078,4244.230957,4236.282227,4235.384766,4206.410156,4180.128418,4199.871582,4205.384766,4224.743652,0.000000,4.000000,95.000000,,,,0.000000,4.000000,4.000000,4.000000,4.000000,4.000000,4.000000,4.000000,4.000000,4.000000,4.000000,4.000000,4.000000,4.000000,4.000000,100.000000,,,,,,,,,,,,,,,,
1645707520.861122,91.000000,0.000000,4209.487305,4303.461426,4200.897461,4028.974365,4183.333496,4218.974121,4242.563965,4233.333496,4234.743652,4207.179688,4185.641113,4198.205078,4210.641113,4229.358887,0.000000,4.000000,95.000000,,,,0.000000,4.000000,4.000000,4.000000,4.000000,4.000000,4.000000,4.000000,4.000000,4.000000,4.000000,4.000000,4.000000,4.000000,4.000000,100.000000,,,,,,,,,,,,,,,,
1645707520.865063,92.000000,0.000000,4211.922852,4304.358887,4203.717773,4020.256348,4191.025879,4215.128418,4238.974121,4229.743652,4233.589844,4204.487305,4194.358887,4195.769043,4216.282227,4230.897461,0.000000,4.000000,95.000000,,,,0.000000,4.000000,4.000000,4.000000,4.000000,4.000000,4.000000,4.000000,4.000000,4.000000,4.000000,4.000000,4.000000,4.000000,4.000000,100.000000,,,,,,,,,,,,,,,,
1645707520.869003,93.000000,0.000000,4216.025879,4302.179688,4207.820313,4023.718018,4198.333496,4212.307617,4235.384766,4227.563965,4232.307617,4199.102539,4199.358887,4192.436035,4219.487305,4228.077148,0.000000,4.000000,95.000000,,,,0.000000,4.000000,4.000000,4.000000,4.000000,4.000000,4.000000,4.000000,4.000000,4.000000,4.000000,4.000000,4.000000,4.000000,4.000000,100.000000,,,,,,,,,,,,,,,,
1645707520.872943,94.000000,0.000000,4219.102539,4296.794922,4213.077148,4036.923096,4202.307617,4210.897461,4234.230957,4228.205078,4231.282227,4196.153809,4197.692383,4190.128418,4219.358887,4222.692383,0.000000,4.000000,95.000000,,,,0.000000,4.000000,4.000000,4.000000,4.000000,4.000000,4.000000,4.000000,4.000000,4.000000,4.000000,4.000000,4.000000,4.000000,4.000000,100.000000,,,,,,,,,,,,,,,,
1645707520.876883,95.000000,0.000000,4220.256348,4292.563965,4217.692383,4051.025635,4203.846191,4211.282227,4236.153809,4231.794922,4231.410156,4200.641113,4193.333496,4191.410156,4218.077148,4219.230957,0.000000,4.000000,95.000000,,,,0.000000,4.000000,4.000000,4.000000,4.000000,4.000000,4.000000,4.000000,4.000000,4.000000,4.000000,4.000000,4.000000,4.000000,4.000000,100.000000,,,,,,,,,,,,,,,,
1645707520.880823,96.000000,0.000000,4219.743652,4293.205078,4219.358887,4057.307617,4204.487305,4213.589844,4239.487305,4236.282227,4232.692383,4211.666504,4191.282227,4197.051270,4218.077148,4220.512695,0.000000,4.000000,95.000000,,,,0.000000,4.000000,4.000000,4.000000,4.000000,4.000000,4.000000,4.000000,4.000000,4.000000,4.000000,4.000000,4.000000,4.000000,4.000000,100.000000,,,,,,,,,,,,,,,,
1645707520.884763,97.000000,0.000000,4218.974121,4298.205078,4216.922852,4053.076904,4204.230957,4216.282227,4241.538574,4239.102539,4234.230957,4222.179688,4193.589844,4204.358887,4219.487305,4225.641113,0.000000,4.000000,95.000000,,,,0.000000,4.000000,4.000000,4.000000,4.000000,4.000000,4.000000,4.000000,4.000000,4.000000,4.000000,4.000000,4.000000,4.000000,4.000000,100.000000,,,,,,,,,,,,,,,,
1645707520.888703,98.000000,0.000000,4218.717773,4303.461426,4212.307617,4042.948730,4201.410156,4218.205078,4241.794922,4239.487305,4234.615234,4225.512695,4197.436035,4209.230957,4220.384766,4230.769043,0.000000,4.000000,95.000000,,,,0.000000,4.000000,4.000000,4.000000,4.000000,4.000000,4.000000,4.000000,4.000000,4.000000,4.000000,4.000000,4.000000,4.000000,4.000000,100.000000,,,,,,,,,,,,,,,,
1645707520.892643,99.000000,0.000000,4219.871582,4305.769043,4208.717773,4034.615479,4195.897461,4218.974121,4241.794922,4238.846191,4233.461426,4221.666504,4199.487305,4209.230957,4219.743652,4234.230957,0.000000,4.000000,95.000000,,,,0.000000,4.000000,4.000000,4.000000,4.000000,4.000000,4.000000,4.000000,4.000000,4.000000,4.000000,4.000000,4.000000,4.000000,4.000000,100.000000,,,,,,,,,,,,,,,,
1645707520.896583,100.000000,0.000000,4223.077148,4305.384766,4208.846191,4034.102539,4190.512695,4220.000000,4242.563965,4238.974121,4231.410156,4217.179688,4199.102539,4205.769043,4218.589844,4236.922852,0.000000,4.000000,95.000000,,,,0.000000,4.000000,4.000000,4.000000,4.000000,4.000000,4.000000,4.000000,4.000000,4.000000,4.000000,4.000000,4.000000,4.000000,4.000000,100.000000,,,,,,,,,,,,,,,,
1645707520.900523,101.000000,0.000000,4228.077148,4304.358887,4212.563965,4042.179443,4189.615234,4222.179688,4243.846191,4240.384766,4231.282227,4218.205078,4197.820313,4202.820313,4218.077148,4240.384766,0.000000,4.000000,95.000000,,,,0.000000,4.000000,4.000000,4.000000,4.000000,4.000000,4.000000,4.000000,4.000000,4.000000,4.000000,4.000000,4.000000,4.000000,4.000000,100.000000,,,,,,,,,,,,,,,,
1645707520.904464,102.000000,0.000000,4232.436035,4303.717773,4217.692383,4054.743652,4195.000000,4224.615234,4244.743652,4242.692383,4234.358887,4225.128418,4197.436035,4203.589844,4218.717773,4243.077148,0.000000,4.000000,95.000000,,,,0.000000,4.000000,4.000000,4.000000,4.000000,4.000000,4.000000,4.000000,4.000000,4.000000,4.000000,4.000000,4.000000,4.000000,4.000000,100.000000,,,,,,,,,,,,,,,,
1645707520.908404,103.000000,0.000000,4233.205078,4303.717773,4221.410156,4065.128174,4204.487305,4225.384766,4245.384766,4245.256348,4239.615234,4232.563965,4198.205078,4208.717773,4219.230957,4241.666504,0.000000,4.000000,95.000000,,,,0.000000,4.000000,4.000000,4.000000,4.000000,4.000000,4.000000,4.000000,4.000000,4.000000,4.000000,4.000000,4.000000,4.000000,4.000000,100.000000,,,,,,,,,,,,,,,,
1645707520.912344,104.000000,0.000000,4229.615234,4303.205078,4221.666504,4068.333252,4213.205078,4224.358887,4246.666504,4248.205078,4243.589844,4235.641113,4199.487305,4215.641113,4219.487305,4236.025879,0.000000,4.000000,95.000000,,,,0.000000,4.000000,4.000000,4.000000,4.000000,4.000000,4.000000,4.000000,4.000000,4.000000,4.000000,4.000000,4.000000,4.000000,4.000000,100.000000,,,,,,,,,,,,,,,,
1645707520.916284,105.000000,0.000000,4224.230957,4301.666504,4218.333496,4063.076904,4217.563965,4223.205078,4248.077148,4251.538574,4243.846191,4233.717773,4201.025879,4221.025879,4220.256348,4230.384766,0.000000,4.000000,95.000000,,,,0.000000,4.000000,4.000000,4.000000,4.000000,4.000000,4.000000,4.000000,4.000000,4.000000,4.000000,4.000000,4.000000,4.000000,4.000000,100.000000,,,,,,,,,,,,,,,,
1645707520.920224,106.000000,0.000000,4219.871582,4298.077148,4213.461426,4053.076904,4215.256348,4223.717773,4248.846191,4253.974121,4241.153809,4229.487305,4203.205078,4222.948730,4222.563965,4230.000000,0.000000,4.000000,95.000000,,,,0.000000,4.000000,4.000000,4.000000,4.000000,4.000000,4.000000,4.000000,4.000000,4.000000,4.000000,4.000000,4.000000,4.000000,4.000000,100.000000,,,,,,,,,,,,,,,,
1645707520.924264,107.000000,0.000000,4217.436035,4292.307617,4209.615234,4043.846191,4206.153809,4225.000000,4247.948730,4253.461426,4238.077148,4225.641113,4204.871582,4221.153809,4225.641113,4235.641113,0.000000,4.000000,95.000000,,,,0.000000,4.000000,4.000000,4.000000,4.000000,4.000000,4.000000,4.000000,4.000000,4.000000,4.000000,4.000000,4.000000,4.000000,4.000000,100.000000,,,,,,,,,,,,,,,,
1645707520.928204,108.000000,0.000000,4216.025879,4285.256348,4208.589844,4039.102539,4192.820313,4224.230957,4245.897461,4250.000000,4236.922852,4222.179688,4203.589844,4216.538574,4227.563965,4242.307617,0.000000,4.000000,95.000000,,,,0.000000,4.000000,4.000000,4.000000,4.000000,4.000000,4.000000,4.000000,4.000000,4.000000,4.000000,4.000000,4.000000,4.000000,4.000000,100.000000,,,,,,,,,,,,,,,,
1645707520.932144,109.000000,0.000000,4213.974121,4279.743652,4209.230957,4039.871826,4180.641113,4220.000000,4243.717773,4245.000000,4237.692383,4217.436035,4197.692383,4210.641113,4226.794922,4243.589844,0.000000,4.000000,95.000000,2,1,0,0.000000,4.000000,4.000000,4.000000,4.000000,4.000000,4.000000,4.000000,4.000000,4.000000,4.000000,4.000000,4.000000,4.000000,4.000000,100.000000,,,,,,,,,,,,,,,,
1645707520.936084,110.000000,0.000000,4211.666504,4278.717773,4209.230957,4045.128174,4176.025879,4214.358887,4242.051270,4240.000000,4238.333496,4212.436035,4189.743652,4204.871582,4224.487305,4237.179688,0.000000,4.000000,95.000000,,,,0.000000,4.000000,4.000000,4.000000,4.000000,4.000000,4.000000,4.000000,4.000000,4.000000,4.000000,4.000000,4.000000,4.000000,4.000000,100.000000,,,,,,,,,,,,,,,,
1645707520.940024,111.000000,0.000000,4210.256348,4282.692383,4207.179688,4052.820557,4181.922852,4211.282227,4241.282227,4236.410156,4238.205078,4211.025879,4184.358887,4201.025879,4223.333496,4227.179688,0.000000,4.000000,95.000000,,,,0.000000,4.000000,4.000000,4.000000,4.000000,4.000000,4.000000,4.000000,4.000000,4.000000,4.000000,4.000000,4.000000,4.000000,4.000000,100.000000,,,,,,,,,,,,,,,,
1645707520.943965,112.000000,0.000000,4210.256348,4288.077148,4204.487305,4060.641113,4195.000000,4212.563965,4241.794922,4234.871582,4237.307617,4215.769043,4184.871582,4200.384766,4225.128418,4219.743652,0.000000,4.000000,95.000000,,,,0.000000,4.000000,4.000000,4.000000,4.000000,4.000000,4.000000,4.000000,4.000000,4.000000,4.000000,4.000000,4.000000,4.000000,4.000000,100.000000,,,,,,,,,,,,,,,,
1645707520.947905,113.000000,0.000000,4211.025879,4289.871582,4202.948730,4066.410156,4206.666504,4216.922852,4243.717773,4235.384766,4236.538574,4225.256348,4189.358887,4203.077148,4229.102539,4218.974121,0.000000,4.000000,95.000000,,,,0.000000,4.000000,4.000000,4.000000,4.000000,4.000000,4.000000,4.000000,4.000000,4.000000,4.000000,4.000000,4.000000,4.000000,4.000000,100.000000,,,,,,,,,,,,,,,,
1645707520.951845,114.000000,0.000000,4211.282227,4286.666504,4203.205078,4069.487061,4209.871582,4221.282227,4246.025879,4237.179688,4236.153809,4233.974121,4193.589844,4207.692383,4233.205078,4223.974121,0.000000,4.000000,95.000000,,,,0.000000,4.000000,4.000000,4.000000,4.000000,4.000000,4.000000,4.000000,4.000000,4.000000,4.000000,4.000000,4.000000,4.000000,4.000000,100.000000,,,,,,,,,,,,,,,,
1645707520.955785,115.000000,0.000000,4211.922852,4281.410156,4204.230957,4070.897461,4203.461426,4223.717773,4246.538574,4238.333496,4235.897461,4236.794922,4194.871582,4212.179688,4235.897461,4230.384766,0.000000,4.000000,95.000000,,,,0.000000,4.000000,4.000000,4.000000,4.000000,4.000000,4.000000,4.000000,4.000000,4.000000,4.000000,4.000000,4.000000,4.000000,4.000000,100.000000,,,,,,,,,,,,,,,,
1645707520.959725,116.000000,0.000000,4214.358887,4278.589844,4204.487305,4071.153809,4193.333496,4224.102539,4244.102539,4237.948730,4235.641113,4233.205078,4193.974121,4214.743652,4237.307617,4233.333496,0.000000,4.000000,95.000000,,,,0.000000,4.000000,4.000000,4.000000,4.000000,4.000000,4.000000,4.000000,4.000000,4.000000,4.000000,4.000000,4.000000,4.000000,4.000000,100.000000,,,,,,,,,,,,,,,,
1645707520.963665,117.000000,0.000000,4219.102539,4280.384766,4203.846191,4068.718018,4186.666504,4223.589844,4240.256348,4236.794922,4235.641113,4226.282227,4192.948730,4214.743652,4237.563965,4230.897461,0.000000,4.000000,95.000000,,,,0.000000,4.000000,4.000000,4.000000,4.000000,4.000000,4.000000,4.000000,4.000000,4.000000,4.000000,4.000000,4.000000,4.000000,4.000000,100.000000,,,,,,,,,,,,,,,,
1645707520.967605,118.000000,0.000000,4223.461426,4283.974121,4203.333496,4062.820557,4186.794922,4222.436035,4238.205078,4236.666504,4235.897461,4220.512695,4192.051270,4212.692383,4236.153809,4225.256348,0.000000,4.000000,95.000000,,,,0.000000,4.000000,4.000000,4.000000,4.000000,4.000000,4.000000,4.000000,4.000000,4.000000,4.000000,4.000000,4.000000,4.000000,4.000000,100.000000,,,,,,,,,,,,,,,,
1645707520.971545,119.000000,0.000000,4224.615234,4285.384766,4203.717773,4055.641113,4190.897461,4220.256348,4239.487305,4237.948730,4236.025879,4217.820313,4189.487305,4210.512695,4231.794922,4220.512695,0.000000,4.000000,95.000000,,,,0.000000,4.000000,4.000000,4.000000,4.000000,4.000000,4.000000,4.000000,4.000000,4.000000,4.000000,4.000000,4.000000,4.000000,4.000000,100.000000,,,,,,,,,,,,,,,,
1645707520.975485,120.000000,0.000000,4221.794922,4282.436035,4204.871582,4052.179443,4193.974121,4217.307617,4242.692383,4239.871582,4235.769043,4217.692383,4183.846191,4209.871582,4225.256348,4220.256348,0.000000,4.000000,95.000000,,,,0.000000,4.000000,4.000000,4.000000,4.000000,4.000000,4.000000,4.000000,4.000000,4.000000,4.000000,4.000000,4.000000,4.000000,4.000000,100.000000,,,,,,,,,,,,,,,,
1645707520.979425,121.000000,0.000000,4218.333496,4276.538574,4206.410156,4055.384521,4193.974121,4214.871582,4244.743652,4241.153809,4235.769043,4218.205078,4177.051270,4211.282227,4218.717773,4224.358887,0.000000,4.000000,95.000000,,,,0.000000,4.000000,4.000000,4.000000,4.000000,4.000000,4.000000,4.000000,4.000000,4.000000,4.000000,4.000000,4.000000,4.000000,4.000000,100.000000,,,,,,,,,,,,,,,,
1645707520.983366,122.000000,0.000000,4217.692383,4271.794922,4208.077148,4062.692383,4192.692383,4214.871582,4243.974121,4241.794922,4236.538574,4217.948730,4172.179688,4214.230957,4215.128418,4230.128418,0.000000,4.000000,95.000000,,,,0.000000,4.000000,4.000000,4.000000,4.000000,4.000000,4.000000,4.000000,4.000000,4.000000,4.000000,4.000000,4.000000,4.000000,4.000000,100.000000,,,,,,,,,,,,,,,,
1645707520.987206,123.000000,0.000000,4220.000000,4271.410156,4210.256348,4067.564209,4192.563965,4217.436035,4241.794922,4243.077148,4237.820313,4216.538574,4171.794922,4216.922852,4215.256348,4234.102539,0.000000,4.000000,95.000000,,,,0.000000,4.000000,4.000000,4.000000,4.000000,4.000000,4.000000,4.000000,4.000000,4.000000,4.000000,4.000000,4.000000,4.000000,4.000000,100.000000,,,,,,,,,,,,,,,,
1645707520.991146,124.000000,0.000000,4222.307617,4274.743652,4212.179688,4065.897461,4194.102539,4220.512695,4240.897461,4246.153809,4238.589844,4213.974121,4175.128418,4217.307617,4216.794922,4234.615234,0.000000,4.000000,95.000000,,,,0.000000,4.000000,4.000000,4.000000,4.000000,4.000000,4.000000,4.000000,4.000000,4.000000,4.000000,4.000000,4.000000,4.000000,4.000000,100.000000,,,,,,,,,,,,,,,,
1645707520.995086,125.000000,0.000000,4221.410156,4278.461426,4212.179688,4060.256348,4195.000000,4221.538574,4242.179688,4249.743652,4238.333496,4211.666504,4179.743652,4214.358887,4216.666504,4232.563965,0.000000,4.000000,95.000000,,,,0.000000,4.000000,4.000000,4.000000,4.000000,4.000000,4.000000,4.000000,4.000000,4.000000,4.000000,4.000000,4.000000,4.000000,4.000000,100.000000,,,,,,,,,,,,,,,,
1645707520.999026,126.000000,0.000000,4216.153809,4278.717773,4209.230957,4057.051270,4192.563965,4219.743652,4243.205078,4251.538574,4237.820313,4211.538574,4182.692383,4208.846191,4213.589844,4228.974121,0.000000,4.000000,95.000000,,,,0.000000,4.000000,4.000000,4.000000,4.000000,4.000000,4.000000,4.000000,4.000000,4.000000,4.000000,4.000000,4.000000,4.000000,4.000000,100.000000,,,,,,,,,,,,,,,,
1645707521.002966,127.000000,0.000000,4208.589844,4274.102539,4203.974121,4060.000000,4186.025879,4216.025879,4241.922852,4249.615234,4237.692383,4213.717773,4182.179688,4203.333496,4208.846191,4224.358887,0.000000,4.000000,95.000000,,,,0.000000,4.000000,4.000000,4.000000,4.000000,4.000000,4.000000,4.000000,4.000000,4.000000,4.000000,4.000000,4.000000,4.000000,4.000000,100.000000,,,,,,,,,,,,,,,,
1645707521.006906,128.000000,0.000000,4202.436035,4267.179688,4198.974121,4066.923096,4177.948730,4211.794922,4238.461426,4245.000000,4237.820313,4216.410156,4178.846191,4200.641113,4205.256348,4219.230957,3234.000000,4.000000,95.000000,,,,0.000000,4.000000,4.000000,4.000000,4.000000,4.000000,4.000000,4.000000,4.000000,4.000000,4.000000,4.000000,4.000000,4.000000,4.000000,100.000000,,,,,,,,,,,,,,,,
1645707521.010846,129.000000,0.000000,4201.282227,4262.692383,4196.410156,4072.564209,4172.820313,4208.717773,4235.769043,4240.769043,4237.820313,4217.948730,4174.487305,4201.282227,4204.230957,4215.128418,3197.000000,4.000000,95.000000,,,,0.000000,4.000000,4.000000,4.000000,4.000000,4.000000,4.000000,4.000000,4.000000,4.000000,4.000000,4.000000,4.000000,4.000000,4.000000,100.000000,,,,,,,,,,,,,,,,
1645707521.014787,130.000000,0.000000,4206.025879,4263.717773,4196.794922,4075.256348,4173.974121,4208.333496,4235.897461,4238.846191,4236.922852,4217.692383,4171.794922,4204.230957,4205.897461,4213.846191,3550.000000,4.000000,95.000000,,,,0.000000,4.000000,4.000000,4.000000,4.000000,4.000000,4.000000,4.000000,4.000000,4.000000,4.000000,4.000000,4.000000,4.000000,4.000000,100.000000,,,,,,,,,,,,,,,,
1645707521.018727,131.000000,0.000000,4214.102539,4269.743652,4198.205078,4077.051270,4180.769043,4210.512695,4237.948730,4239.358887,4236.025879,4217.307617,4171.538574,4207.948730,4209.358887,4216.153809,3710.000000,4.000000,95.000000,,,,0.000000,4.000000,4.000000,4.000000,4.000000,4.000000,4.000000,4.000000,4.000000,4.000000,4.000000,4.000000,4.000000,4.000000,4.000000,100.000000,,,,,,,,,,,,,,,,
1645707521.022667,132.000000,0.000000,4220.769043,4275.641113,4198.717773,4079.871826,4188.589844,4213.846191,4238.974121,4240.512695,4236.538574,4217.820313,4172.948730,4211.153809,4213.077148,4221.153809,3546.000000,4.000000,95.000000,,,,0.000000,4.000000,4.000000,4.000000,4.000000,4.000000,4.000000,4.000000,4.000000,4.000000,4.000000,4.000000,4.000000,4.000000,4.000000,100.000000,,,,,,,,,,,,,,,,
1645707521.026607,133.000000,0.000000,4221.538574,4275.512695,4197.692383,4081.153809,4191.922852,4215.512695,4237.051270,4241.025879,4238.589844,4218.461426,4173.974121,4213.077148,4215.384766,4226.666504,3630.000000,4.000000,95.000000,,,,0.000000,4.000000,4.000000,4.000000,4.000000,4.000000,4.000000,4.000000,4.000000,4.000000,4.000000,4.000000,4.000000,4.000000,4.000000,100.000000,,,,,,,,,,,,,,,,
1645707521.030547,134.000000,0.000000,4215.384766,4267.948730,4195.769043,4076.410156,4189.102539,4214.487305,4233.461426,4240.897461,4241.153809,4217.692383,4173.461426,4212.820313,4215.512695,4231.025879,3126.000000,4.000000,95.000000,,,,0.000000,4.000000,4.000000,4.000000,4.000000,4.000000,4.000000,4.000000,4.000000,4.000000,4.000000,4.000000,4.000000,4.000000,4.000000,100.000000,,,,,,,,,,,,,,,,
1645707521.034487,135.000000,0.000000,4206.666504,4257.820313,4193.846191,4064.743652,4184.102539,4211.538574,4231.025879,4240.769043,4242.436035,4215.256348,4171.922852,4210.512695,4215.128418,4233.717773,2693.000000,4.000000,95.000000,,,,0.000000,4.000000,4.000000,4.000000,4.000000,4.000000,4.000000,4.000000,4.000000,4.000000,4.000000,4.000000,4.000000,4.000000,4.000000,100.000000,,,,,,,,,,,,,,,,
1645707521.038427,136.000000,0.000000,4201.794922,4252.820313,4193.077148,4052.051270,4182.692383,4209.230957,4230.769043,4240.897461,4241.538574,4213.077148,4170.769043,4207.692383,4216.282227,4235.512695,1362.000000,4.000000,95.000000,,,,0.000000,4.000000,4.000000,4.000000,4.000000,4.000000,4.000000,4.000000,4.000000,4.000000,4.000000,4.000000,4.000000,4.000000,4.000000,100.000000,,,,,,,,,,,,,,,,
1645707521.042367,137.000000,0.000000,4204.871582,4256.922852,4194.230957,4048.076904,4185.897461,4209.230957,4232.436035,4241.153809,4239.487305,4212.820313,4170.897461,4206.282227,4219.487305,4238.205078,3199.000000,4.000000,95.000000,,,,0.000000,4.000000,4.000000,4.000000,4.000000,4.000000,4.000000,4.000000,4.000000,4.000000,4.000000,4.000000,4.000000,4.000000,4.000000,100.000000,,,,,,,,,,,,,,,,
1645707521.046307,138.000000,0.000000,4214.102539,4267.307617,4198.077148,4057.564209,4188.846191,4210.512695,4234.615234,4241.538574,4238.589844,4214.871582,4171.153809,4207.563965,4222.307617,4241.410156,3044.000000,4.000000,95.000000,,,,0.000000,4.000000,4.000000,4.000000,4.000000,4.000000,4.000000,4.000000,4.000000,4.000000,4.000000,4.000000,4.000000,4.000000,4.000000,100.000000,,,,,,,,,,,,,,,,
1645707521.050247,139.000000,0.000000,4222.948730,4276.153809,4203.974121,4075.641113,4185.897461,4211.153809,4236.025879,4242.051270,4239.615234,4217.307617,4170.512695,4211.153809,4221.666504,4242.563965,3492.000000,4.000000,95.000000,,,,0.000000,4.000000,4.000000,4.000000,4.000000,4.000000,4.000000,4.000000,4.000000,4.000000,4.000000,4.000000,4.000000,4.000000,4.000000,100.000000,,,,,,,,,,,,,,,,
1645707521.054188,140.000000,0.000000,4226.025879,4277.692383,4209.230957,4090.384521,4177.436035,4210.000000,4236.025879,4241.922852,4242.179688,4218.846191,4169.615234,4215.641113,4217.563965,4239.743652,3619.000000,4.000000,95.000000,,,,0.000000,4.000000,4.000000,4.000000,4.000000,4.000000,4.000000,4.000000,4.000000,4.000000,4.000000,4.000000,4.000000,4.000000,4.000000,100.000000,,,,,,,,,,,,,,,,
1645707521.058028,141.000000,0.000000,4222.692383,4272.307617,4211.153809,4092.564209,4170.512695,4208.717773,4234.615234,4240.512695,4244.230957,4219.487305,4170.641113,4219.102539,4213.077148,4233.333496,3189.000000,4.000000,95.000000,,,,0.000000,4.000000,4.000000,4.000000,4.000000,4.000000,4.000000,4.000000,4.000000,4.000000,4.000000,4.000000,4.000000,4.000000,4.000000,100.000000,,,,,,,,,,,,,,,,
1645707521.061968,142.000000,0.000000,4217.307617,4264.615234,4209.871582,4083.718018,4171.922852,4209.358887,4232.692383,4238.205078,4244.230957,4219.230957,4174.358887,4220.897461,4211.025879,4226.410156,3044.000000,4.000000,95.000000,,,,0.000000,4.000000,4.000000,4.000000,4.000000,4.000000,4.000000,4.000000,4.000000,4.000000,4.000000,4.000000,4.000000,4.000000,4.000000,100.000000,,,,,,,,,,,,,,,,
1645707521.065908,143.000000,0.000000,4214.487305,4259.615234,4208.333496,4073.974365,4181.666504,4212.692383,4232.307617,4236.282227,4241.922852,4217.692383,4178.461426,4221.025879,4210.512695,4221.922852,3492.000000,4.000000,95.000000,,,,0.000000,4.000000,4.000000,4.000000,4.000000,4.000000,4.000000,4.000000,4.000000,4.000000,4.000000,4.000000,4.000000,4.000000,4.000000,100.000000,,,,,,,,,,,,,,,,
1645707521.069848,144.000000,0.000000,4216.153809,4259.102539,4209.102539,4072.179443,4192.307617,4216.794922,4234.487305,4236.153809,4238.846191,4214.487305,4178.589844,4220.000000,4207.948730,4222.051270,3619.000000,4.000000,95.000000,,,,0.000000,4.000000,4.000000,4.000000,4.000000,4.000000,4.000000,4.000000,4.000000,4.000000,4.000000,4.000000,4.000000,4.000000,4.000000,100.000000,,,,,,,,,,,,,,,,
1645707521.073688,145.000000,0.000000,4219.871582,4260.897461,4211.666504,4078.205078,4196.282227,4219.102539,4238.077148,4237.563965,4236.922852,4210.641113,4172.820313,4218.077148,4201.538574,4226.410156,3189.000000,4.000000,95.000000,,,,0.000000,4.000000,4.000000,4.000000,4.000000,4.000000,4.000000,4.000000,4.000000,4.000000,4.000000,4.000000,4.000000,4.000000,4.000000,100.000000,,,,,,,,,,,,,,,,
1645707521.077628,146.000000,0.000000,4221.794922,4261.922852,4213.461426,4083.589844,4191.666504,4218.461426,4239.487305,4238.461426,4237.179688,4208.461426,4162.820313,4214.743652,4192.820313,4232.563965,3044.000000,4.000000,95.000000,,,,0.000000,4.000000,4.000000,4.000000,4.000000,4.000000,4.000000,4.000000,4.000000,4.000000,4.000000,4.000000,4.000000,4.000000,4.000000,100.000000,,,,,,,,,,,,,,,,
1645707521.081569,147.000000,0.000000,4219.230957,4260.384766,4212.051270,4080.384521,4182.948730,4215.641113,4236.794922,4236.794922,4238.333496,4209.102539,4152.692383,4210.000000,4185.641113,4236.153809,3492.000000,4.000000,95.000000,,,,0.000000,4.000000,4.000000,4.000000,4.000000,4.000000,4.000000,4.000000,4.000000,4.000000,4.000000,4.000000,4.000000,4.000000,4.000000,100.000000,,,,,,,,,,,,,,,,
1645707521.085509,148.000000,0.000000,4212.948730,4256.794922,4207.692383,4068.333252,4175.641113,4211.794922,4231.282227,4233.205078,4238.461426,4210.769043,4145.384766,4204.358887,4182.948730,4233.333496,3619.000000,4.000000,95.000000,,,,0.000000,4.000000,4.000000,4.000000,4.000000,4.000000,4.000000,4.000000,4.000000,4.000000,4.000000,4.000000,4.000000,4.000000,4.000000,100.000000,,,,,,,,,,,,,,,,
1645707521.089449,149.000000,0.000000,4205.897461,4253.589844,4202.948730,4054.743652,4172.051270,4208.077148,4227.436035,4230.128418,4236.922852,4210.256348,4141.282227,4198.846191,4183.974121,4223.461426,3189.000000,4.000000,95.000000,,,,0.000000,4.000000,4.000000,4.000000,4.000000,4.000000,4.000000,4.000000,4.000000,4.000000,4.000000,4.000000,4.000000,4.000000,4.000000,100.000000,,,,,,,,,,,,,,,,
1645707521.093389,150.000000,0.000000,4201.794922,4252.692383,4200.641113,4047.820557,4171.410156,4206.025879,4228.333496,4230.000000,4235.128418,4206.538574,4140.256348,4195.256348,4187.436035,4211.025879,3044.000000,4.000000,95.000000,,,,0.000000,4.000000,4.000000,4.000000,4.000000,4.000000,4.000000,4.000000,4.000000,4.000000,4.000000,4.000000,4.000000,4.000000,4.000000,100.000000,,,,,,,,,,,,,,,,
1645707521.097329,151.000000,0.000000,4202.948730,4254.743652,4201.666504,4050.256348,4172.820313,4207.179688,4233.205078,4233.461426,4235.897461,4201.922852,4142.179688,4194.871582,4191.794922,4202.948730,3492.000000,4.000000,95.000000,,,,0.000000,4.000000,4.000000,4.000000,4.000000,4.000000,4.000000,4.000000,4.000000,4.000000,4.000000,4.000000,4.000000,4.000000,4.000000,100.000000,,,,,,,,,,,,,,,,
1645707521.101269,152.000000,0.000000,4208.205078,4258.333496,4205.641113,4057.820557,4175.641113,4211.282227,4238.205078,4239.487305,4240.512695,4200.769043,4146.922852,4197.692383,4197.307617,4203.846191,3619.000000,4.000000,95.000000,,,,0.000000,4.000000,4.000000,4.000000,4.000000,4.000000,4.000000,4.000000,4.000000,4.000000,4.000000,4.000000,4.000000,4.000000,4.000000,100.000000,,,,,,,,,,,,,,,,
1645707521.105209,153.000000,0.000000,4214.358887,4260.000000,4211.153809,4063.333252,4178.461426,4215.769043,4240.769043,4246.282227,4246.794922,4204.358887,4152.820313,4201.922852,4203.846191,4212.307617,3189.000000,4.000000,95.000000,,,,0.000000,4.000000,4.000000,4.000000,4.000000,4.000000,4.000000,4.000000,4.000000,4.000000,4.000000,4.000000,4.000000,4.000000,4.000000,100.000000,,,,,,,,,,,,,,,,
1645707521.109149,154.000000,0.000000,4217.692383,4257.820313,4216.153809,4063.333252,4179.743652,4217.563965,4240.769043,4251.410156,4250.512695,4210.641113,4157.563965,4205.256348,4210.897461,4221.666504,3044.000000,4.000000,95.000000,,,,0.000000,4.000000,4.000000,4.000000,4.000000,4.000000,4.000000,4.000000,4.000000,4.000000,4.000000,4.000000,4.000000,4.000000,4.000000,100.000000,,,,,,,,,,,,,,,,
1645707521.113089,155.000000,0.000000,4217.692383,4253.461426,4219.487305,4061.025635,4179.230957,4215.641113,4239.615234,4252.436035,4248.974121,4215.512695,4160.384766,4207.179688,4217.051270,4226.922852,3492.000000,4.000000,95.000000,,,,0.000000,4.000000,4.000000,4.000000,4.000000,4.000000,4.000000,4.000000,4.000000,4.000000,4.000000,4.000000,4.000000,4.000000,4.000000,100.000000,,,,,,,,,,,,,,,,
1645707521.117029,156.000000,0.000000,4217.051270,4251.153809,4220.769043,4061.666748,4178.205078,4211.922852,4238.589844,4248.333496,4243.461426,4217.820313,4162.051270,4208.974121,4221.153809,4227.307617,3619.000000,4.000000,95.000000,,,,0.000000,4.000000,4.000000,4.000000,4.000000,4.000000,4.000000,4.000000,4.000000,4.000000,4.000000,4.000000,4.000000,4.000000,4.000000,100.000000,,,,,,,,,,,,,,,,
1645707521.120970,157.000000,0.000000,4218.846191,4253.846191,4220.512695,4066.923096,4177.307617,4209.743652,4237.563965,4241.153809,4237.692383,4218.461426,4164.230957,4211.794922,4221.922852,4225.897461,3189.000000,4.000000,95.000000,,,,0.000000,4.000000,4.000000,4.000000,4.000000,4.000000,4.000000,4.000000,4.000000,4.000000,4.000000,4.000000,4.000000,4.000000,4.000000,100.000000,,,,,,,,,,,,,,,,
1645707521.124910,158.000000,0.000000,4222.563965,4260.128418,4220.128418,4072.435791,4176.282227,4210.512695,4236.794922,4235.128418,4235.128418,4218.717773,4166.025879,4215.641113,4219.102539,4225.384766,3044.000000,4.000000,95.000000,,,,0.000000,4.000000,4.000000,4.000000,4.000000,4.000000,4.000000,4.000000,4.000000,4.000000,4.000000,4.000000,4.000000,4.000000,4.000000,100.000000,,,,,,,,,,,,,,,,
1645707521.128850,159.000000,0.000000,4224.743652,4265.641113,4220.512695,4072.692383,4175.128418,4212.436035,4236.410156,4233.461426,4236.153809,4218.846191,4165.641113,4218.717773,4214.487305,4225.641113,3492.000000,4.000000,95.000000,,,,0.000000,4.000000,4.000000,4.000000,4.000000,4.000000,4.000000,4.000000,4.000000,4.000000,4.000000,4.000000,4.000000,4.000000,4.000000,100.000000,,,,,,,,,,,,,,,,
1645707521.132790,160.000000,0.000000,4223.077148,4267.179688,4221.153809,4066.794922,4175.256348,4213.589844,4236.794922,4236.282227,4238.974121,4218.974121,4162.179688,4219.487305,4211.025879,4225.000000,3619.000000,4.000000,95.000000,,,,0.000000,4.000000,4.000000,4.000000,4.000000,4.000000,4.000000,4.000000,4.000000,4.000000,4.000000,4.000000,4.000000,4.000000,4.000000,100.000000,,,,,,,,,,,,,,,,
1645707521.136730,161.000000,0.000000,4219.230957,4265.128418,4221.794922,4058.589844,4177.179688,4213.205078,4237.051270,4240.256348,4241.538574,4220.512695,4158.461426,4218.333496,4211.410156,4222.820313,3189.000000,4.000000,95.000000,,,,0.000000,4.000000,4.000000,4.000000,4.000000,4.000000,4.000000,4.000000,4.000000,4.000000,4.000000,4.000000,4.000000,4.000000,4.000000,100.000000,,,,,,,,,,,,,,,,
1645707521.140670,162.000000,0.000000,4217.179688,4262.436035,4222.436035,4053.461426,4179.871582,4212.692383,4236.666504,4242.820313,4243.205078,4223.846191,4157.692383,4216.922852,4215.000000,4220.641113,3044.000000,4.000000,95.000000,,,,0.000000,4.000000,4.000000,4.000000,4.000000,4.000000,4.000000,4.000000,4.000000,4.000000,4.000000,4.000000,4.000000,4.000000,4.000000,100.000000,,,,,,,,,,,,,,,,
1645707521.144710,163.000000,0.000000,4218.461426,4260.897461,4223.974121,4053.846191,4180.512695,4212.563965,4235.897461,4243.589844,4243.846191,4226.282227,4160.384766,4217.179688,4218.333496,4221.025879,3492.000000,4.000000,95.000000,,,,0.000000,4.000000,4.000000,4.000000,4.000000,4.000000,4.000000,4.000000,4.000000,4.000000,4.000000,4.000000,4.000000,4.000000,4.000000,100.000000,,,,,,,,,,,,,,,,
1645707521.148650,164.000000,0.000000,4222.179688,4259.615234,4226.538574,4058.589844,4177.563965,4212.820313,4236.282227,4243.974121,4243.589844,4223.717773,4164.615234,4219.358887,4217.692383,4225.769043,3619.000000,4.000000,95.000000,,,,0.000000,4.000000,4.000000,4.000000,4.000000,4.000000,4.000000,4.000000,4.000000,4.000000,4.000000,4.000000,4.000000,4.000000,4.000000,100.000000,,,,,,,,,,,,,,,,
1645707521.152590,165.000000,0.000000,4225.897461,4257.692383,4229.743652,4065.256348,4172.307617,4213.461426,4238.717773,4245.384766,4242.948730,4216.025879,4167.436035,4222.179688,4212.948730,4233.589844,3189.000000,4.000000,95.000000,,,,0.000000,4.000000,4.000000,4.000000,4.000000,4.000000,4.000000,4.000000,4.000000,4.000000,4.000000,4.000000,4.000000,4.000000,4.000000,100.000000,,,,,,,,,,,,,,,,
1645707521.156530,166.000000,0.000000,4228.717773,4255.641113,4231.794922,4071.794922,4168.077148,4214.358887,4242.179688,4247.563965,4242.563965,4207.820313,4167.563965,4224.358887,4207.948730,4240.769043,3044.000000,4.000000,95.000000,,,,0.000000,4.000000,4.000000,4.000000,4.000000,4.000000,4.000000,4.000000,4.000000,4.000000,4.000000,4.000000,4.000000,4.000000,4.000000,100.000000,,,,,,,,,,,,,,,,
1645707521.160471,167.000000,0.000000,4230.641113,4255.897461,4231.410156,4076.794922,4167.692383,4215.384766,4244.102539,4249.615234,4242.563965,4205.897461,4165.897461,4225.641113,4206.410156,4243.589844,3492.000000,4.000000,95.000000,,,,0.000000,4.000000,4.000000,4.000000,4.000000,4.000000,4.000000,4.000000,4.000000,4.000000,4.000000,4.000000,4.000000,4.000000,4.000000,100.000000,,,,,,,,,,,,,,,,
1645707521.164411,168.000000,0.000000,4230.641113,4259.487305,4228.846191,4079.615479,4170.641113,4216.538574,4243.589844,4250.769043,4242.692383,4212.563965,4163.589844,4226.666504,4209.743652,4240.384766,3619.000000,4.000000,95.000000,,,,0.000000,4.000000,4.000000,4.000000,4.000000,4.000000,4.000000,4.000000,4.000000,4.000000,4.000000,4.000000,4.000000,4.000000,4.000000,100.000000,,,,,,,,,,,,,,,,
1645707521.168351,169.000000,0.000000,4227.948730,4264.358887,4225.641113,4079.743652,4174.230957,4217.436035,4241.922852,4251.282227,4242.563965,4223.717773,4161.410156,4226.794922,4215.641113,4233.846191,3189.000000,4.000000,95.000000,,,,0.000000,4.000000,4.000000,4.000000,4.000000,4.000000,4.000000,4.000000,4.000000,4.000000,4.000000,4.000000,4.000000,4.000000,4.000000,100.000000,,,,,,,,,,,,,,,,
1645707521.172291,170.000000,0.000000,4223.077148,4267.179688,4223.846191,4077.692383,4177.179688,4218.717773,4241.538574,4251.666504,4242.820313,4232.436035,4159.358887,4226.025879,4220.641113,4229.871582,3044.000000,4.000000,95.000000,,,,0.000000,4.000000,4.000000,4.000000,4.000000,4.000000,4.000000,4.000000,4.000000,4.000000,4.000000,4.000000,4.000000,4.000000,4.000000,100.000000,,,,,,,,,,,,,,,,
1645707521.176231,171.000000,0.000000,4220.000000,4267.692383,4224.358887,4074.102539,4180.000000,4221.282227,4243.461426,4252.051270,4244.230957,4235.256348,4158.205078,4224.615234,4223.717773,4232.948730,3492.000000,4.000000,95.000000,,,,0.000000,4.000000,4.000000,4.000000,4.000000,4.000000,4.000000,4.000000,4.000000,4.000000,4.000000,4.000000,4.000000,4.000000,4.000000,100.000000,,,,,,,,,,,,,,,,
1645707521.180171,172.000000,0.000000,4222.051270,4267.820313,4226.666504,4070.000000,4182.436035,4225.000000,4246.282227,4251.794922,4246.282227,4233.333496,4158.974121,4223.974121,4225.769043,4242.563965,3619.000000,4.000000,95.000000,,,,0.000000,4.000000,4.000000,4.000000,4.000000,4.000000,4.000000,4.000000,4.000000,4.000000,4.000000,4.000000,4.000000,4.000000,4.000000,100.000000,,,,,,,,,,,,,,,,
1645707521.184111,173.000000,0.000000,4228.846191,4268.461426,4229.615234,4067.307617,4182.563965,4227.692383,4248.205078,4250.512695,4247.692383,4229.871582,4161.153809,4224.358887,4227.307617,4251.666504,3189.000000,4.000000,95.000000,,,,0.000000,4.000000,4.000000,4.000000,4.000000,4.000000,4.000000,4.000000,4.000000,4.000000,4.000000,4.000000,4.000000,4.000000,4.000000,100.000000,,,,,,,,,,,,,,,,
1645707521.188051,174.000000,0.000000,4235.641113,4267.820313,4231.794922,4068.205078,4178.461426,4226.794922,4248.205078,4248.205078,4247.051270,4227.563965,4162.563965,4224.871582,4226.794922,4252.563965,3044.000000,4.000000,95.000000,,,,0.000000,4.000000,4.000000,4.000000,4.000000,4.000000,4.000000,4.000000,4.000000,4.000000,4.000000,4.000000,4.000000,4.000000,4.000000,100.000000,,,,,,,,,,,,,,,,
1645707521.191991,175.000000,0.000000,4236.794922,4263.846191,4232.563965,4073.205078,4171.410156,4222.563965,4246.538574,4246.410156,4245.256348,4227.179688,4161.153809,4224.102539,4222.948730,4242.563965,3492.000000,4.000000,95.000000,,,,0.000000,4.000000,4.000000,4.000000,4.000000,4.000000,4.000000,4.000000,4.000000,4.000000,4.000000,4.000000,4.000000,4.000000,4.000000,100.000000,,,,,,,,,,,,,,,,
1645707521.195931,176.000000,0.000000,4231.666504,4256.922852,4231.794922,4079.358887,4166.153809,4217.692383,4244.487305,4247.051270,4244.743652,4228.589844,4157.692383,4221.922852,4216.794922,4227.563965,3619.000000,4.000000,95.000000,,,,0.000000,4.000000,4.000000,4.000000,4.000000,4.000000,4.000000,4.000000,4.000000,4.000000,4.000000,4.000000,4.000000,4.000000,4.000000,100.000000,,,,,,,,,,,,,,,,
1645707521.199872,177.000000,0.000000,4223.717773,4250.769043,4230.000000,4081.025635,4166.666504,4215.897461,4242.948730,4251.025879,4247.051270,4231.025879,4155.384766,4220.256348,4212.179688,4217.051270,3189.000000,4.000000,95.000000,,,,0.000000,4.000000,4.000000,4.000000,4.000000,4.000000,4.000000,4.000000,4.000000,4.000000,4.000000,4.000000,4.000000,4.000000,4.000000,100.000000,,,,,,,,,,,,,,,,
1645707521.203812,178.000000,0.000000,4218.205078,4248.974121,4227.692383,4075.897461,4172.948730,4217.692383,4242.563965,4256.538574,4251.025879,4233.333496,4156.922852,4221.282227,4212.436035,4217.179688,3044.000000,4.000000,95.000000,,,,0.000000,4.000000,4.000000,4.000000,4.000000,4.000000,4.000000,4.000000,4.000000,4.000000,4.000000,4.000000,4.000000,4.000000,4.000000,100.000000,,,,,,,,,,,,,,,,
1645707521.207752,179.000000,0.000000,4216.666504,4252.051270,4225.512695,4067.692383,4179.871582,4220.512695,4243.077148,4260.384766,4253.717773,4234.358887,4161.153809,4225.256348,4217.436035,4225.256348,3492.000000,4.000000,95.000000,,,,0.000000,4.000000,4.000000,4.000000,4.000000,4.000000,4.000000,4.000000,4.000000,4.000000,4.000000,4.000000,4.000000,4.000000,4.000000,100.000000,,,,,,,,,,,,,,,,
1645707521.211692,180.000000,0.000000,4217.820313,4258.717773,4223.846191,4063.589844,4181.794922,4220.897461,4243.717773,4260.128418,4252.820313,4233.974121,4164.871582,4229.615234,4224.102539,4233.589844,3619.000000,4.000000,95.000000,,,,0.000000,4.000000,4.000000,4.000000,4.000000,4.000000,4.000000,4.000000,4.000000,4.000000,4.000000,4.000000,4.000000,4.000000,4.000000,100.000000,,,,,,,,,,,,,,,,
1645707521.215532,181.000000,0.000000,4219.358887,4266.282227,4222.307617,4068.589844,4177.307617,4218.205078,4242.948730,4255.641113,4248.717773,4233.077148,4166.282227,4230.769043,4228.974121,4236.025879,3189.000000,4.000000,95.000000,,,,0.000000,4.000000,4.000000,4.000000,4.000000,4.000000,4.000000,4.000000,4.000000,4.000000,4.000000,4.000000,4.000000,4.000000,4.000000,100.000000,,,,,,,,,,,,,,,,
1645707521.219472,182.000000,0.000000,4219.743652,4272.307617,4220.512695,4080.512939,4170.897461,4214.358887,4240.384766,4249.871582,4243.846191,4232.179688,4166.025879,4227.179688,4230.256348,4232.948730,3044.000000,4.000000,95.000000,,,,0.000000,4.000000,4.000000,4.000000,4.000000,4.000000,4.000000,4.000000,4.000000,4.000000,4.000000,4.000000,4.000000,4.000000,4.000000,100.000000,,,,,,,,,,,,,,,,
1645707521.223412,183.000000,0.000000,4218.846191,4274.358887,4218.205078,4091.923096,4167.563965,4211.666504,4237.051270,4246.410156,4240.897461,4230.769043,4165.512695,4221.538574,4227.948730,4228.333496,3492.000000,4.000000,95.000000,,,,0.000000,4.000000,4.000000,4.000000,4.000000,4.000000,4.000000,4.000000,4.000000,4.000000,4.000000,4.000000,4.000000,4.000000,4.000000,100.000000,,,,,,,,,,,,,,,,
1645707521.227352,184.000000,0.000000,4217.436035,4270.897461,4216.153809,4095.512939,4168.333496,4210.256348,4235.384766,4246.922852,4240.641113,4228.461426,4165.000000,4218.333496,4223.717773,4224.615234,3619.000000,4.000000,95.000000,,,,0.000000,4.000000,4.000000,4.000000,4.000000,4.000000,4.000000,4.000000,4.000000,4.000000,4.000000,4.000000,4.000000,4.000000,4.000000,100.000000,,,,,,,,,,,,,,,,
1645707521.231293,185.000000,0.000000,4216.666504,4263.461426,4214.358887,4089.743652,4170.128418,4208.974121,4237.436035,4250.769043,4242.692383,4226.410156,4163.589844,4220.512695,4220.512695,4221.922852,3189.000000,4.000000,95.000000,,,,0.000000,4.000000,4.000000,4.000000,4.000000,4.000000,4.000000,4.000000,4.000000,4.000000,4.000000,4.000000,4.000000,4.000000,4.000000,100.000000,,,,,,,,,,,,,,,,
1645707521.235233,186.000000,0.000000,4217.179688,4256.025879,4212.563965,4079.743652,4169.743652,4207.436035,4241.538574,4254.230957,4245.256348,4226.922852,4161.666504,4226.282227,4220.256348,4220.000000,3044.000000,4.000000,95.000000,,,,0.000000,4.000000,4.000000,4.000000,4.000000,4.000000,4.000000,4.000000,4.000000,4.000000,4.000000,4.000000,4.000000,4.000000,4.000000,100.000000,,,,,,,,,,,,,,,,
1645707521.239173,187.000000,0.000000,4218.333496,4251.922852,4210.384766,4072.307617,4166.666504,4205.769043,4243.205078,4253.589844,4247.179688,4230.128418,4160.128418,4231.025879,4223.333496,4220.000000,3492.000000,4.000000,95.000000,,,,0.000000,4.000000,4.000000,4.000000,4.000000,4.000000,4.000000,4.000000,4.000000,4.000000,4.000000,4.000000,4.000000,4.000000,4.000000,100.000000,,,,,,,,,,,,,,,,
1645707521.243113,188.000000,0.000000,4218.589844,4251.538574,4207.692383,4071.281982,4163.077148,4204.615234,4239.871582,4247.692383,4248.077148,4232.948730,4159.615234,4230.897461,4226.922852,4224.230957,3619.000000,4.000000,95.000000,,,,0.000000,4.000000,4.000000,4.000000,4.000000,4.000000,4.000000,4.000000,4.000000,4.000000,4.000000,4.000000,4.000000,4.000000,4.000000,100.000000,,,,,,,,,,,,,,,,
1645707521.247053,189.000000,0.000000,4216.153809,4253.205078,4205.769043,4074.871826,4160.641113,4203.333496,4233.205078,4239.102539,4248.077148,4231.282227,4158.974121,4225.897461,4227.179688,4233.333496,3189.000000,4.000000,95.000000,,,,0.000000,4.000000,4.000000,4.000000,4.000000,4.000000,4.000000,4.000000,4.000000,4.000000,4.000000,4.000000,4.000000,4.000000,4.000000,100.000000,,,,,,,,,,,,,,,,
1645707521.250993,190.000000,0.000000,4211.666504,4255.128418,4205.512695,4078.076904,4158.974121,4200.897461,4228.205078,4232.948730,4246.922852,4224.487305,4157.179688,4219.615234,4222.307617,4245.000000,3044.000000,4.000000,95.000000,,,,0.000000,4.000000,4.000000,4.000000,4.000000,4.000000,4.000000,4.000000,4.000000,4.000000,4.000000,4.000000,4.000000,4.000000,4.000000,100.000000,,,,,,,,,,,,,,,,
1645707521.254933,191.000000,0.000000,4208.205078,4257.179688,4206.153809,4078.718018,4157.179688,4198.333496,4227.692383,4232.051270,4244.358887,4216.410156,4154.230957,4215.512695,4213.717773,4253.974121,3492.000000,4.000000,95.000000,,,,0.000000,4.000000,4.000000,4.000000,4.000000,4.000000,4.000000,4.000000,4.000000,4.000000,4.000000,4.000000,4.000000,4.000000,4.000000,100.000000,,,,,,,,,,,,,,,,
1645707521.258873,192.000000,0.000000,4208.589844,4258.974121,4206.410156,4078.718018,4154.487305,4196.794922,4230.384766,4235.384766,4240.897461,4212.436035,4152.051270,4215.384766,4206.025879,4255.256348,3619.000000,4.000000,95.000000,,,,0.000000,4.000000,4.000000,4.000000,4.000000,4.000000,4.000000,4.000000,4.000000,4.000000,4.000000,4.000000,4.000000,4.000000,4.000000,100.000000,,,,,,,,,,,,,,,,
1645707521.262813,193.000000,0.000000,4212.692383,4259.487305,4205.641113,4081.153809,4151.410156,4197.179688,4232.948730,4238.846191,4238.077148,4214.487305,4152.051270,4218.077148,4202.179688,4247.307617,3189.000000,4.000000,95.000000,,,,0.000000,4.000000,4.000000,4.000000,4.000000,4.000000,4.000000,4.000000,4.000000,4.000000,4.000000,4.000000,4.000000,4.000000,4.000000,100.000000,,,,,,,,,,,,,,,,
1645707521.266753,194.000000,0.000000,4217.820313,4258.205078,4205.256348,4085.641113,4149.230957,4198.974121,4233.589844,4240.000000,4237.563965,4219.743652,4153.846191,4221.666504,4202.436035,4233.333496,3044.000000,4.000000,95.000000,,,,0.000000,4.000000,4.000000,4.000000,4.000000,4.000000,4.000000,4.000000,4.000000,4.000000,4.000000,4.000000,4.000000,4.000000,4.000000,100.000000,1.000000,25.000000,4.000000,1.000000,3.000000,1.000000,1.000000,4.000000,4.000000,4.000000,4.000000,4.000000,1.000000,4.000000,4.000000,3.000000
1645707521.270694,195.000000,0.000000,4221.025879,4256.282227,4206.666504,4088.718018,4148.589844,4201.282227,4233.717773,4239.615234,4239.230957,4223.205078,4155.769043,4224.743652,4204.871582,4220.256348,3492.000000,4.000000,95.000000,,,,0.000000,4.000000,4.000000,4.000000,4.000000,4.000000,4.000000,4.000000,4.000000,4.000000,4.000000,4.000000,4.000000,4.000000,4.000000,100.000000,,,,,,,,,,,,,,,,
1645707521.274634,196.000000,0.000000,4222.307617,4255.384766,4209.487305,4087.692383,4150.256348,4204.102539,4234.743652,4239.230957,4241.410156,4222.948730,4156.282227,4226.153809,4208.717773,4214.230957,3619.000000,4.000000,95.000000,,,,0.000000,4.000000,4.000000,4.000000,4.000000,4.000000,4.000000,4.000000,4.000000,4.000000,4.000000,4.000000,4.000000,4.000000,4.000000,100.000000,,,,,,,,,,,,,,,,
1645707521.278574,197.000000,0.000000,4222.563965,4256.025879,4211.282227,4084.615479,4153.077148,4207.051270,4236.794922,4239.358887,4242.820313,4221.922852,4155.769043,4225.512695,4213.974121,4217.692383,3189.000000,4.000000,95.000000,,,,0.000000,4.000000,4.000000,4.000000,4.000000,4.000000,4.000000,4.000000,4.000000,4.000000,4.000000,4.000000,4.000000,4.000000,4.000000,100.000000,,,,,,,,,,,,,,,,
1645707521.282514,198.000000,0.000000,4221.922852,4257.051270,4210.641113,4084.358887,4154.358887,4209.358887,4238.077148,4239.615234,4243.461426,4223.589844,4155.769043,4222.563965,4220.512695,4227.307617,3044.000000,4.000000,95.000000,,,,0.000000,4.000000,4.000000,4.000000,4.000000,4.000000,4.000000,4.000000,4.000000,4.000000,4.000000,4.000000,4.000000,4.000000,4.000000,100.000000,,,,,,,,,,,,,,,,
1645707521.286454,199.000000,0.000000,4219.230957,4257.179688,4208.205078,4088.076904,4152.307617,4209.487305,4237.692383,4240.384766,4243.974121,4228.205078,4156.666504,4218.974121,4226.282227,4236.538574,3492.000000,4.000000,95.000000,,,,0.000000,4.000000,4.000000,4.000000,4.000000,4.000000,4.000000,4.000000,4.000000,4.000000,4.000000,4.000000,4.000000,4.000000,4.000000,100.000000,,,,,,,,,,,,,,,,
1645707521.290294,200.000000,0.000000,4214.358887,4256.410156,4206.153809,4091.281982,4147.563965,4207.563965,4236.410156,4242.307617,4244.615234,4231.922852,4157.948730,4217.436035,4228.589844,4239.871582,3619.000000,4.000000,95.000000,,,,0.000000,4.000000,4.000000,4.000000,4.000000,4.000000,4.000000,4.000000,4.000000,4.000000,4.000000,4.000000,4.000000,4.000000,4.000000,100.000000,,,,,,,,,,,,,,,,
1645707521.294234,201.000000,0.000000,4210.128418,4255.897461,4205.512695,4088.974365,4142.948730,4205.512695,4235.384766,4244.743652,4245.000000,4231.922852,4158.717773,4220.128418,4226.410156,4236.666504,3189.000000,4.000000,95.000000,,,,0.000000,4.000000,4.000000,4.000000,4.000000,4.000000,4.000000,4.000000,4.000000,4.000000,4.000000,4.000000,4.000000,4.000000,4.000000,100.000000,,,,,,,,,,,,,,,,
1645707521.298174,202.000000,0.000000,4210.000000,4256.282227,4206.025879,4081.794922,4141.282227,4205.512695,4235.128418,4245.641113,4244.358887,4229.102539,4158.974121,4227.051270,4221.922852,4230.000000,3044.000000,4.000000,95.000000,,,,0.000000,4.000000,4.000000,4.000000,4.000000,4.000000,4.000000,4.000000,4.000000,4.000000,4.000000,4.000000,4.000000,4.000000,4.000000,100.000000,,,,,,,,,,,,,,,,
1645707521.302115,203.000000,0.000000,4215.384766,4257.436035,4206.538574,4076.025635,4142.436035,4207.692383,4235.128418,4242.820313,4243.333496,4227.179688,4158.461426,4234.871582,4218.461426,4224.487305,3492.000000,4.000000,95.000000,,,,0.000000,4.000000,4.000000,4.000000,4.000000,4.000000,4.000000,4.000000,4.000000,4.000000,4.000000,4.000000,4.000000,4.000000,4.000000,100.000000,,,,,,,,,,,,,,,,
1645707521.306055,204.000000,0.000000,4223.077148,4257.563965,4206.282227,4077.948730,4143.717773,4209.615234,4235.128418,4236.666504,4242.692383,4227.563965,4157.692383,4238.461426,4218.974121,4223.077148,3619.000000,4.000000,95.000000,,,,0.000000,4.000000,4.000000,4.000000,4.000000,4.000000,4.000000,4.000000,4.000000,4.000000,4.000000,4.000000,4.000000,4.000000,4.000000,100.000000,,,,,,,,,,,,,,,,
1645707521.309995,205.000000,0.000000,4227.820313,4255.897461,4205.384766,4087.435791,4143.333496,4209.615234,4235.512695,4230.512695,4242.436035,4229.102539,4157.948730,4235.897461,4224.230957,4226.538574,3189.000000,4.000000,95.000000,,,,0.000000,4.000000,4.000000,4.000000,4.000000,4.000000,4.000000,4.000000,4.000000,4.000000,4.000000,4.000000,4.000000,4.000000,4.000000,100.000000,,,,,,,,,,,,,,,,
1645707521.313935,206.000000,0.000000,4226.282227,4253.333496,4204.487305,4098.333496,4142.179688,4208.077148,4235.897461,4228.077148,4242.692383,4230.641113,4161.282227,4229.743652,4232.563965,4233.974121,3044.000000,4.000000,95.000000,,,,0.000000,4.000000,4.000000,4.000000,4.000000,4.000000,4.000000,4.000000,4.000000,4.000000,4.000000,4.000000,4.000000,4.000000,4.000000,100.000000,,,,,,,,,,,,,,,,
1645707521.317875,207.000000,0.000000,4220.256348,4251.794922,4203.974121,4103.974121,4142.179688,4207.563965,4235.256348,4230.641113,4243.077148,4232.563965,4168.077148,4225.897461,4240.897461,4242.692383,3492.000000,4.000000,95.000000,,,,0.000000,4.000000,4.000000,4.000000,4.000000,4.000000,4.000000,4.000000,4.000000,4.000000,4.000000,4.000000,4.000000,4.000000,4.000000,100.000000,,,,,,,,,,,,,,,,
1645707521.321815,208.000000,0.000000,4214.230957,4252.692383,4204.743652,4101.794922,4143.974121,4209.358887,4233.717773,4236.794922,4243.077148,4235.897461,4176.282227,4227.692383,4246.410156,4248.589844,3619.000000,4.000000,95.000000,,,,0.000000,4.000000,4.000000,4.000000,4.000000,4.000000,4.000000,4.000000,4.000000,4.000000,4.000000,4.000000,4.000000,4.000000,4.000000,100.000000,,,,,,,,,,,,,,,,
1645707521.325755,209.000000,0.000000,4211.794922,4255.128418,4206.922852,4094.743652,4145.641113,4212.179688,4233.333496,4243.461426,4241.922852,4239.102539,4181.153809,4233.974121,4246.666504,4248.333496,3189.000000,4.000000,95.000000,,,,0.000000,4.000000,4.000000,4.000000,4.000000,4.000000,4.000000,4.000000,4.000000,4.000000,4.000000,4.000000,4.000000,4.000000,4.000000,100.000000,,,,,,,,,,,,,,,,
1645707521.329695,210.000000,0.000000,4212.948730,4256.410156,4209.230957,4086.923096,4144.871582,4213.461426,4235.384766,4247.179688,4239.487305,4240.256348,4179.358887,4239.230957,4240.897461,4241.666504,3044.000000,4.000000,95.000000,,,,0.000000,4.000000,4.000000,4.000000,4.000000,4.000000,4.000000,4.000000,4.000000,4.000000,4.000000,4.000000,4.000000,4.000000,4.000000,100.000000,,,,,,,,,,,,,,,,
1645707521.333635,211.000000,0.000000,4214.871582,4254.487305,4209.487305,4082.051270,4141.153809,4212.436035,4239.102539,4246.025879,4237.051270,4238.205078,4171.666504,4239.487305,4230.256348,4232.179688,3492.000000,4.000000,95.000000,,,,0.000000,4.000000,4.000000,4.000000,4.000000,4.000000,4.000000,4.000000,4.000000,4.000000,4.000000,4.000000,4.000000,4.000000,4.000000,100.000000,,,,,,,,,,,,,,,,
1645707521.337575,212.000000,0.000000,4214.358887,4250.000000,4206.794922,4081.410156,4136.922852,4210.769043,4241.666504,4240.384766,4236.153809,4234.358887,4161.922852,4233.974121,4218.589844,4224.615234,3619.000000,4.000000,95.000000,,,,0.000000,4.000000,4.000000,4.000000,4.000000,4.000000,4.000000,4.000000,4.000000,4.000000,4.000000,4.000000,4.000000,4.000000,4.000000,100.000000,,,,,,,,,,,,,,,,
1645707521.341516,213.000000,0.000000,4210.897461,4245.000000,4202.436035,4084.487061,4134.743652,4210.384766,4240.897461,4233.205078,4236.282227,4231.025879,4154.230957,4225.897461,4209.743652,4221.282227,3189.000000,4.000000,95.000000,,,,0.000000,4.000000,4.000000,4.000000,4.000000,4.000000,4.000000,4.000000,4.000000,4.000000,4.000000,4.000000,4.000000,4.000000,4.000000,100.000000,,,,,,,,,,,,,,,,
1645707521.345456,214.000000,0.000000,4206.282227,4241.025879,4198.717773,4088.076904,4133.717773,4210.769043,4236.794922,4227.563965,4235.769043,4228.846191,4149.871582,4218.846191,4205.897461,4221.025879,3044.000000,4.000000,95.000000,,,,0.000000,4.000000,4.000000,4.000000,4.000000,4.000000,4.000000,4.000000,4.000000,4.000000,4.000000,4.000000,4.000000,4.000000,4.000000,100.000000,,,,,,,,,,,,,,,,
1645707521.349396,215.000000,0.000000,4203.077148,4237.948730,4197.051270,4087.948730,4131.282227,4209.615234,4231.922852,4225.256348,4233.717773,4226.538574,4147.436035,4215.000000,4206.153809,4221.666504,3492.000000,4.000000,95.000000,,,,0.000000,4.000000,4.000000,4.000000,4.000000,4.000000,4.000000,4.000000,4.000000,4.000000,4.000000,4.000000,4.000000,4.000000,4.000000,100.000000,,,,,,,,,,,,,,,,
1645707521.353336,216.000000,0.000000,4202.436035,4235.897461,4196.922852,4082.692383,4126.794922,4205.256348,4228.333496,4224.871582,4230.897461,4223.077148,4146.025879,4215.000000,4208.461426,4222.563965,3619.000000,4.000000,95.000000,,,,0.000000,4.000000,4.000000,4.000000,4.000000,4.000000,4.000000,4.000000,4.000000,4.000000,4.000000,4.000000,4.000000,4.000000,4.000000,100.000000,,,,,,,,,,,,,,,,
1645707521.357276,217.000000,0.000000,4203.589844,4234.743652,4196.794922,4074.615479,4122.563965,4199.487305,4226.538574,4224.230957,4229.358887,4219.230957,4146.025879,4216.922852,4211.025879,4224.230957,3189.000000,4.000000,95.000000,,,,0.000000,4.000000,4.000000,4.000000,4.000000,4.000000,4.000000,4.000000,4.000000,4.000000,4.000000,4.000000,4.000000,4.000000,4.000000,100.000000,,,,,,,,,,,,,,,,
1645707521.361216,218.000000,0.000000,4203.974121,4234.615234,4196.282227,4067.307617,4122.307617,4195.256348,4225.641113,4221.666504,4229.743652,4216.794922,4147.436035,4217.563965,4213.077148,4226.153809,3044.000000,4.000000,95.000000,,,,0.000000,4.000000,4.000000,4.000000,4.000000,4.000000,4.000000,4.000000,4.000000,4.000000,4.000000,4.000000,4.000000,4.000000,4.000000,100.000000,,,,,,,,,,,,,,,,
1645707521.365056,219.000000,0.000000,4201.794922,4234.487305,4195.897461,4062.948730,4126.794922,4194.615234,4225.000000,4218.205078,4230.641113,4215.641113,4147.948730,4214.487305,4214.230957,4226.153809,3492.000000,4.000000,95.000000,,,,0.000000,4.000000,4.000000,4.000000,4.000000,4.000000,4.000000,4.000000,4.000000,4.000000,4.000000,4.000000,4.000000,4.000000,4.000000,100.000000,,,,,,,,,,,,,,,,
1645707521.368996,220.000000,0.000000,4197.820313,4233.846191,4196.538574,4061.923096,4132.692383,4196.666504,4224.871582,4216.153809,4230.769043,4214.487305,4145.512695,4207.436035,4214.358887,4223.205078,3619.000000,4.000000,95.000000,,,,0.000000,4.000000,4.000000,4.000000,4.000000,4.000000,4.000000,4.000000,4.000000,4.000000,4.000000,4.000000,4.000000,4.000000,4.000000,100.000000,,,,,,,,,,,,,,,,
1645707521.372937,221.000000,0.000000,4195.512695,4232.820313,4197.948730,4064.871826,4135.897461,4199.230957,4225.641113,4217.051270,4230.512695,4212.692383,4141.410156,4199.487305,4213.717773,4219.358887,3189.000000,4.000000,95.000000,,,,0.000000,4.000000,4.000000,4.000000,4.000000,4.000000,4.000000,4.000000,4.000000,4.000000,4.000000,4.000000,4.000000,4.000000,4.000000,100.000000,,,,,,,,,,,,,,,,
1645707521.376877,222.000000,0.000000,4197.820313,4232.948730,4198.077148,4071.923096,4134.102539,4200.512695,4226.794922,4220.641113,4231.025879,4211.666504,4139.230957,4194.743652,4213.077148,4217.563965,3044.000000,4.000000,95.000000,,,,0.000000,4.000000,4.000000,4.000000,4.000000,4.000000,4.000000,4.000000,4.000000,4.000000,4.000000,4.000000,4.000000,4.000000,4.000000,100.000000,,,,,,,,,,,,,,,,
1645707521.380817,223.000000,0.000000,4204.871582,4235.512695,4195.256348,4081.923096,4128.846191,4200.128418,4227.436035,4224.615234,4232.692383,4213.461426,4141.410156,4194.871582,4213.077148,4218.974121,3492.000000,4.000000,95.000000,,,,0.000000,4.000000,4.000000,4.000000,4.000000,4.000000,4.000000,4.000000,4.000000,4.000000,4.000000,4.000000,4.000000,4.000000,4.000000,100.000000,,,,,,,,,,,,,,,,
1645707521.384757,224.000000,0.000000,4212.820313,4239.743652,4191.282227,4092.307617,4122.948730,4198.589844,4227.692383,4227.051270,4234.358887,4218.205078,4146.025879,4198.589844,4213.589844,4221.153809,3619.000000,4.000000,95.000000,,,,0.000000,4.000000,4.000000,4.000000,4.000000,4.000000,4.000000,4.000000,4.000000,4.000000,4.000000,4.000000,4.000000,4.000000,4.000000,100.000000,,,,,,,,,,,,,,,,
1645707521.388697,225.000000,0.000000,4216.794922,4242.563965,4189.487305,4100.512695,4118.974121,4196.538574,4228.589844,4227.179688,4234.487305,4223.974121,4148.461426,4203.205078,4214.102539,4220.897461,3189.000000,4.000000,95.000000,,,,0.000000,4.000000,4.000000,4.000000,4.000000,4.000000,4.000000,4.000000,4.000000,4.000000,4.000000,4.000000,4.000000,4.000000,4.000000,100.000000,,,,,,,,,,,,,,,,
1645707521.392637,226.000000,0.000000,4214.743652,4241.794922,4191.025879,4104.230957,4118.461426,4194.615234,4230.384766,4225.769043,4232.692383,4227.948730,4146.410156,4206.410156,4214.615234,4217.179688,3044.000000,4.000000,95.000000,,,,0.000000,4.000000,4.000000,4.000000,4.000000,4.000000,4.000000,4.000000,4.000000,4.000000,4.000000,4.000000,4.000000,4.000000,4.000000,100.000000,,,,,,,,,,,,,,,,
1645707521.396577,227.000000,0.000000,4208.461426,4238.205078,4193.333496,4101.538574,4121.538574,4193.717773,4231.153809,4223.974121,4230.512695,4227.820313,4142.179688,4207.563965,4216.025879,4212.179688,3492.000000,4.000000,95.000000,,,,0.000000,4.000000,4.000000,4.000000,4.000000,4.000000,4.000000,4.000000,4.000000,4.000000,4.000000,4.000000,4.000000,4.000000,4.000000,100.000000,,,,,,,,,,,,,,,,
1645707521.400517,228.000000,0.000000,4200.897461,4234.615234,4192.436035,4093.076904,4127.179688,4194.487305,4229.487305,4222.563965,4229.487305,4223.589844,4139.871582,4207.051270,4218.461426,4208.333496,3619.000000,4.000000,95.000000,,,,0.000000,4.000000,4.000000,4.000000,4.000000,4.000000,4.000000,4.000000,4.000000,4.000000,4.000000,4.000000,4.000000,4.000000,4.000000,100.000000,,,,,,,,,,,,,,,,
1645707521.404457,229.000000,0.000000,4194.230957,4232.692383,4187.307617,4082.179443,4132.563965,4196.538574,4225.897461,4222.051270,4230.128418,4217.307617,4141.666504,4205.128418,4220.897461,4206.666504,3189.000000,4.000000,95.000000,,,,0.000000,4.000000,4.000000,4.000000,4.000000,4.000000,4.000000,4.000000,4.000000,4.000000,4.000000,4.000000,4.000000,4.000000,4.000000,100.000000,,,,,,,,,,,,,,,,
1645707521.408397,230.000000,0.000000,4189.230957,4231.538574,4181.538574,4074.743652,4134.871582,4198.846191,4223.589844,4222.948730,4232.179688,4212.307617,4146.410156,4202.436035,4221.282227,4205.897461,3044.000000,4.000000,95.000000,,,,0.000000,4.000000,4.000000,4.000000,4.000000,4.000000,4.000000,4.000000,4.000000,4.000000,4.000000,4.000000,4.000000,4.000000,4.000000,100.000000,,,,,,,,,,,,,,,,
1645707521.412338,231.000000,0.000000,4187.307617,4229.871582,4179.871582,4075.128174,4133.717773,4200.384766,4224.358887,4225.000000,4234.487305,4210.769043,4151.666504,4199.615234,4218.717773,4204.871582,3492.000000,4.000000,95.000000,,,,0.000000,4.000000,4.000000,4.000000,4.000000,4.000000,4.000000,4.000000,4.000000,4.000000,4.000000,4.000000,4.000000,4.000000,4.000000,100.000000,,,,,,,,,,,,,,,,
1645707521.416278,232.000000,0.000000,4188.974121,4227.051270,4183.717773,4082.692383,4131.794922,4200.512695,4226.922852,4227.051270,4236.410156,4213.589844,4155.000000,4197.563965,4214.102539,4203.205078,3619.000000,4.000000,95.000000,,,,0.000000,4.000000,4.000000,4.000000,4.000000,4.000000,4.000000,4.000000,4.000000,4.000000,4.000000,4.000000,4.000000,4.000000,4.000000,100.000000,,,,,,,,,,,,,,,,
1645707521.420218,233.000000,0.000000,4193.205078,4223.717773,4189.487305,4091.410156,4131.282227,4199.487305,4227.692383,4228.077148,4237.436035,4219.487305,4155.128418,4197.051270,4209.615234,4201.922852,3189.000000,4.000000,95.000000,,,,0.000000,4.000000,4.000000,4.000000,4.000000,4.000000,4.000000,4.000000,4.000000,4.000000,4.000000,4.000000,4.000000,4.000000,4.000000,100.000000,,,,,,,,,,,,,,,,
1645707521.424158,234.000000,0.000000,4196.153809,4220.769043,4192.692383,4094.358887,4130.897461,4197.307617,4225.000000,4227.307617,4237.563965,4224.743652,4151.410156,4197.563965,4206.666504,4202.179688,3044.000000,4.000000,95.000000,,,,0.000000,4.000000,4.000000,4.000000,4.000000,4.000000,4.000000,4.000000,4.000000,4.000000,4.000000,4.000000,4.000000,4.000000,4.000000,100.000000,,,,,,,,,,,,,,,,
1645707521.428098,235.000000,0.000000,4194.615234,4219.358887,4191.410156,4089.871826,4127.051270,4194.487305,4220.000000,4225.641113,4236.666504,4225.384766,4145.128418,4198.077148,4205.769043,4204.871582,3492.000000,4.000000,95.000000,,,,0.000000,4.000000,4.000000,4.000000,4.000000,4.000000,4.000000,4.000000,4.000000,4.000000,4.000000,4.000000,4.000000,4.000000,4.000000,100.000000,,,,,,,,,,,,,,,,
1645707521.432038,236.000000,0.000000,4190.128418,4220.512695,4187.436035,4082.948730,4119.615234,4191.794922,4215.641113,4224.358887,4234.615234,4221.153809,4140.256348,4198.077148,4207.436035,4209.615234,3619.000000,4.000000,95.000000,,,,0.000000,4.000000,4.000000,4.000000,4.000000,4.000000,4.000000,4.000000,4.000000,4.000000,4.000000,4.000000,4.000000,4.000000,4.000000,100.000000,,,,,,,,,,,,,,,,
1645707521.436078,237.000000,0.000000,4187.692383,4224.487305,4184.871582,4080.384521,4112.948730,4190.641113,4213.974121,4224.615234,4232.436035,4216.538574,4141.538574,4198.333496,4212.051270,4215.384766,3189.000000,4.000000,95.000000,,,,0.000000,4.000000,4.000000,4.000000,4.000000,4.000000,4.000000,4.000000,4.000000,4.000000,4.000000,4.000000,4.000000,4.000000,4.000000,100.000000,,,,,,,,,,,,,,,,
1645707521.440018,238.000000,0.000000,4191.025879,4228.974121,4185.897461,4084.615479,4112.948730,4191.922852,4215.000000,4226.153809,4231.922852,4216.794922,4149.358887,4199.487305,4219.358887,4219.615234,3044.000000,4.000000,95.000000,,,,0.000000,4.000000,4.000000,4.000000,4.000000,4.000000,4.000000,4.000000,4.000000,4.000000,4.000000,4.000000,4.000000,4.000000,4.000000,100.000000,,,,,,,,,,,,,,,,
1645707521.443958,239.000000,0.000000,4198.205078,4230.897461,4190.128418,4091.794922,4120.769043,4194.230957,4217.692383,4228.205078,4234.230957,4222.692383,4158.333496,4201.538574,4226.538574,4220.769043,3492.000000,4.000000,95.000000,,,,0.000000,4.000000,4.000000,4.000000,4.000000,4.000000,4.000000,4.000000,4.000000,4.000000,4.000000,4.000000,4.000000,4.000000,4.000000,100.000000,,,,,,,,,,,,,,,,
1645707521.447898,240.000000,0.000000,4202.563965,4228.333496,4194.102539,4096.153809,4130.897461,4195.897461,4221.282227,4230.128418,4238.589844,4229.102539,4161.282227,4202.820313,4229.871582,4218.205078,3619.000000,4.000000,95.000000,,,,0.000000,4.000000,4.000000,4.000000,4.000000,4.000000,4.000000,4.000000,4.000000,4.000000,4.000000,4.000000,4.000000,4.000000,4.000000,100.000000,,,,,,,,,,,,,,,,
1645707521.451839,241.000000,0.000000,4199.487305,4222.820313,4194.615234,4094.743652,4135.897461,4196.282227,4224.871582,4230.897461,4242.307617,4230.641113,4155.897461,4201.410156,4227.820313,4213.077148,3189.000000,4.000000,95.000000,,,,0.000000,4.000000,4.000000,4.000000,4.000000,4.000000,4.000000,4.000000,4.000000,4.000000,4.000000,4.000000,4.000000,4.000000,4.000000,100.000000,,,,,,,,,,,,,,,,
1645707521.455779,242.000000,0.000000,4191.025879,4218.589844,4191.410156,4090.000000,4133.589844,4196.282227,4226.922852,4229.358887,4242.692383,4226.153809,4146.922852,4197.436035,4223.077148,4208.717773,3044.000000,4.000000,95.000000,,,,0.000000,4.000000,4.000000,4.000000,4.000000,4.000000,4.000000,4.000000,4.000000,4.000000,4.000000,4.000000,4.000000,4.000000,4.000000,100.000000,,,,,,,,,,,,,,,,
1645707521.459719,243.000000,0.000000,4185.256348,4219.615234,4187.692383,4087.179443,4128.205078,4197.436035,4226.153809,4225.384766,4239.358887,4219.102539,4142.051270,4193.974121,4220.128418,4209.871582,3492.000000,4.000000,95.000000,,,,0.000000,4.000000,4.000000,4.000000,4.000000,4.000000,4.000000,4.000000,4.000000,4.000000,4.000000,4.000000,4.000000,4.000000,4.000000,100.000000,,,,,,,,,,,,,,,,
1645707521.463659,244.000000,0.000000,4188.846191,4226.282227,4187.948730,4089.743652,4126.794922,4200.128418,4223.846191,4220.897461,4234.871582,4213.846191,4145.512695,4194.871582,4221.922852,4218.461426,3619.000000,4.000000,95.000000,,,,0.000000,4.000000,4.000000,4.000000,4.000000,4.000000,4.000000,4.000000,4.000000,4.000000,4.000000,4.000000,4.000000,4.000000,4.000000,100.000000,,,,,,,,,,,,,,,,
1645707521.467599,245.000000,0.000000,4201.410156,4234.871582,4193.846191,4096.410156,4132.051270,4203.333496,4223.461426,4219.358887,4231.538574,4212.436035,4154.358887,4201.410156,4227.307617,4231.410156,3189.000000,4.000000,95.000000,,,,0.000000,4.000000,4.000000,4.000000,4.000000,4.000000,4.000000,4.000000,4.000000,4.000000,4.000000,4.000000,4.000000,4.000000,4.000000,100.000000,,,,,,,,,,,,,,,,
1645707521.471539,246.000000,0.000000,4215.897461,4241.282227,4202.563965,4103.077148,4140.641113,4205.897461,4226.922852,4222.307617,4230.512695,4214.615234,4162.307617,4210.897461,4232.307617,4241.153809,3044.000000,4.000000,95.000000,,,,0.000000,4.000000,4.000000,4.000000,4.000000,4.000000,4.000000,4.000000,4.000000,4.000000,4.000000,4.000000,4.000000,4.000000,4.000000,100.000000,,,,,,,,,,,,,,,,
1645707521.475479,247.000000,0.000000,4224.358887,4244.230957,4209.487305,4106.282227,4147.563965,4207.948730,4232.692383,4227.948730,4231.538574,4218.974121,4165.384766,4219.102539,4234.358887,4241.922852,3492.000000,4.000000,95.000000,,,,0.000000,4.000000,4.000000,4.000000,4.000000,4.000000,4.000000,4.000000,4.000000,4.000000,4.000000,4.000000,4.000000,4.000000,4.000000,100.000000,,,,,,,,,,,,,,,,
1645707521.479419,248.000000,0.000000,4224.615234,4244.358887,4211.153809,4106.794922,4149.615234,4209.615234,4236.538574,4232.948730,4234.102539,4224.743652,4164.358887,4222.948730,4233.717773,4235.128418,3619.000000,4.000000,95.000000,,,,0.000000,4.000000,4.000000,4.000000,4.000000,4.000000,4.000000,4.000000,4.000000,4.000000,4.000000,4.000000,4.000000,4.000000,4.000000,100.000000,,,,,,,,,,,,,,,,
1645707521.483359,249.000000,0.000000,4220.512695,4242.820313,4209.102539,4108.205078,4147.179688,4210.512695,4236.025879,4235.256348,4237.692383,4230.384766,4162.563965,4222.307617,4231.794922,4227.563965,3189.000000,4.000000,95.000000,,,,0.000000,4.000000,4.000000,4.000000,4.000000,4.000000,4.000000,4.000000,4.000000,4.000000,4.000000,4.000000,4.000000,4.000000,4.000000,100.000000,,,,,,,,,,,,,,,,
1645707521.487299,250.000000,0.000000,4217.179688,4240.256348,4207.179688,4112.948730,4142.820313,4209.743652,4232.692383,4235.256348,4241.153809,4234.230957,4162.436035,4219.871582,4229.743652,4226.025879,3044.000000,4.000000,95.000000,,,,0.000000,4.000000,4.000000,4.000000,4.000000,4.000000,4.000000,4.000000,4.000000,4.000000,4.000000,4.000000,4.000000,4.000000,4.000000,100.000000,,,,,,,,,,,,,,,,
1645707521.491240,251.000000,0.000000,4217.051270,4237.692383,4208.205078,4120.128418,4139.871582,4208.333496,4230.897461,4235.128418,4242.948730,4235.512695,4164.487305,4217.692383,4228.077148,4231.282227,3492.000000,4.000000,95.000000,,,,0.000000,4.000000,4.000000,4.000000,4.000000,4.000000,4.000000,4.000000,4.000000,4.000000,4.000000,4.000000,4.000000,4.000000,4.000000,100.000000,,,,,,,,,,,,,,,,
1645707521.495180,252.000000,0.000000,4219.487305,4236.794922,4211.153809,4126.538574,4140.769043,4207.948730,4233.333496,4236.282227,4242.948730,4235.641113,4167.563965,4216.794922,4226.794922,4239.230957,3619.000000,4.000000,95.000000,,,,0.000000,4.000000,4.000000,4.000000,4.000000,4.000000,4.000000,4.000000,4.000000,4.000000,4.000000,4.000000,4.000000,4.000000,4.000000,100.000000,,,,,,,,,,,,,,,,
1645707521.499120,253.000000,0.000000,4222.051270,4238.846191,4213.205078,4129.487305,4145.256348,4210.000000,4237.948730,4238.589844,4242.436035,4236.153809,4170.384766,4216.922852,4225.769043,4244.487305,3189.000000,4.000000,95.000000,,,,0.000000,4.000000,4.000000,4.000000,4.000000,4.000000,4.000000,4.000000,4.000000,4.000000,4.000000,4.000000,4.000000,4.000000,4.000000,100.000000,,,,,,,,,,,,,,,,
1645707521.503060,254.000000,0.000000,4222.820313,4242.820313,4212.179688,4128.589844,4149.487305,4213.205078,4241.153809,4240.897461,4242.820313,4237.179688,4172.563965,4217.436035,4224.230957,4244.102539,3044.000000,4.000000,95.000000,,,,0.000000,4.000000,4.000000,4.000000,4.000000,4.000000,4.000000,4.000000,4.000000,4.000000,4.000000,4.000000,4.000000,4.000000,4.000000,100.000000,,,,,,,,,,,,,,,,
1645707521.507000,255.000000,0.000000,4220.512695,4245.769043,4208.589844,4125.384766,4149.487305,4214.230957,4240.000000,4241.922852,4243.717773,4237.051270,4173.589844,4217.820313,4221.666504,4237.563965,115.000000,4.000000,95.000000,,,,0.000000,4.000000,4.000000,4.000000,4.000000,4.000000,4.000000,4.000000,4.000000,4.000000,4.000000,4.000000,4.000000,4.000000,4.000000,100.000000,,,,,,,,,,,,,,,,
1645707521.510940,0.000000,0.000000,4215.897461,4245.384766,4204.358887,4121.666504,4144.871582,4211.538574,4235.384766,4241.282227,4243.846191,4234.615234,4172.820313,4217.051270,4218.589844,4227.179688,3220.000000,4.000000,95.000000,,,,0.000000,4.000000,4.000000,4.000000,4.000000,4.000000,4.000000,4.000000,4.000000,4.000000,4.000000,4.000000,4.000000,4.000000,4.000000,100.000000,,,,,,,,,,,,,,,,
1645707521.514880,1.000000,0.000000,4211.410156,4241.666504,4200.769043,4118.205078,4140.256348,4206.794922,4230.256348,4238.974121,4242.436035,4231.153809,4170.384766,4214.871582,4217.179688,4217.820313,3260.000000,4.000000,95.000000,,,,0.000000,4.000000,4.000000,4.000000,4.000000,4.000000,4.000000,4.000000,4.000000,4.000000,4.000000,4.000000,4.000000,4.000000,4.000000,100.000000,,,,,,,,,,,,,,,,
1645707521.518820,2.000000,0.000000,4209.871582,4237.948730,4199.102539,4115.897461,4141.025879,4203.974121,4227.563965,4236.025879,4240.384766,4229.615234,4167.179688,4211.922852,4219.871582,4214.871582,3274.000000,4.000000,95.000000,,,,0.000000,4.000000,4.000000,4.000000,4.000000,4.000000,4.000000,4.000000,4.000000,4.000000,4.000000,4.000000,4.000000,4.000000,4.000000,100.000000,,,,,,,,,,,,,,,,
1645707521.522760,3.000000,0.000000,4212.563965,4237.307617,4199.615234,4115.897461,4148.077148,4205.000000,4227.820313,4234.102539,4239.615234,4232.051270,4165.000000,4210.256348,4227.307617,4220.769043,3595.000000,4.000000,95.000000,,,,0.000000,4.000000,4.000000,4.000000,4.000000,4.000000,4.000000,4.000000,4.000000,4.000000,4.000000,4.000000,4.000000,4.000000,4.000000,100.000000,,,,,,,,,,,,,,,,
