title:Alex-fN66kdACq3rcT03GwamqWA, start timestamp:1644854692.396354, stop timestamp:1644854718.940145, headset type:EPOCPLUS, headset serial:3B9AEBFF, headset firmware:626, channels:55, sampling rate:eeg_256, samples:6738      , version:2.1, 
Timestamp,EEG.Counter,EEG.Interpolated,EEG.AF3,EEG.F7,EEG.F3,EEG.FC5,EEG.T7,EEG.P7,EEG.O1,EEG.O2,EEG.P8,EEG.T8,EEG.FC6,EEG.F4,EEG.F8,EEG.AF4,EEG.RawCq,EEG.Battery,EEG.BatteryPercent,MarkerIndex,MarkerType,MarkerValueInt,EEG.MarkerHardware,CQ.AF3,CQ.F7,CQ.F3,CQ.FC5,CQ.T7,CQ.P7,CQ.O1,CQ.O2,CQ.P8,CQ.T8,CQ.FC6,CQ.F4,CQ.F8,CQ.AF4,CQ.Overall,EQ.SampleRateQuality,EQ.OVERALL,EQ.AF3,EQ.F7,EQ.F3,EQ.FC5,EQ.T7,EQ.P7,EQ.O1,EQ.O2,EQ.P8,EQ.T8,EQ.FC6,EQ.F4,EQ.F8,EQ.AF4
1644854692.396354,174.000000,0.000000,4220.000000,4222.436035,4215.897461,4252.692383,4223.205078,4222.436035,4227.563965,4216.666504,4215.641113,4227.820313,4223.461426,4189.871582,4235.512695,4310.641113,3542.000000,4.000000,82.000000,,,,0.000000,4.000000,4.000000,4.000000,4.000000,4.000000,4.000000,4.000000,4.000000,4.000000,4.000000,4.000000,4.000000,4.000000,4.000000,100.000000,,,,,,,,,,,,,,,,
1644854692.400194,175.000000,0.000000,4214.487305,4221.794922,4216.025879,4241.282227,4219.487305,4219.743652,4225.128418,4212.307617,4214.102539,4229.743652,4219.743652,4186.025879,4233.974121,4308.205078,2398.000000,4.000000,82.000000,,,,0.000000,4.000000,4.000000,4.000000,4.000000,4.000000,4.000000,4.000000,4.000000,4.000000,4.000000,4.000000,4.000000,4.000000,4.000000,100.000000,,,,,,,,,,,,,,,,
1644854692.404135,176.000000,0.000000,4210.512695,4222.820313,4217.820313,4222.307617,4215.897461,4216.922852,4222.820313,4209.615234,4214.743652,4227.307617,4215.000000,4183.846191,4230.897461,4309.102539,3482.000000,4.000000,82.000000,,,,0.000000,4.000000,4.000000,4.000000,4.000000,4.000000,4.000000,4.000000,4.000000,4.000000,4.000000,4.000000,4.000000,4.000000,4.000000,100.000000,,,,,,,,,,,,,,,,
1644854692.408075,177.000000,0.000000,4207.563965,4223.461426,4219.230957,4208.461426,4214.615234,4215.128418,4221.282227,4209.871582,4217.051270,4220.641113,4211.794922,4183.589844,4223.333496,4311.282227,3653.000000,4.000000,82.000000,,,,0.000000,4.000000,4.000000,4.000000,4.000000,4.000000,4.000000,4.000000,4.000000,4.000000,4.000000,4.000000,4.000000,4.000000,4.000000,100.000000,,,,,,,,,,,,,,,,
1644854692.412015,178.000000,0.000000,4203.974121,4223.333496,4218.589844,4206.282227,4215.384766,4215.641113,4220.000000,4211.922852,4219.487305,4214.102539,4212.820313,4185.128418,4214.358887,4311.538574,3542.000000,4.000000,82.000000,,,,0.000000,4.000000,4.000000,4.000000,4.000000,4.000000,4.000000,4.000000,4.000000,4.000000,4.000000,4.000000,4.000000,4.000000,4.000000,100.000000,,,,,,,,,,,,,,,,
1644854692.415955,179.000000,0.000000,4199.615234,4223.717773,4216.538574,4212.436035,4216.282227,4218.333496,4218.974121,4214.358887,4220.641113,4211.922852,4218.717773,4188.589844,4211.153809,4309.102539,2398.000000,4.000000,82.000000,,,,0.000000,4.000000,4.000000,4.000000,4.000000,4.000000,4.000000,4.000000,4.000000,4.000000,4.000000,4.000000,4.000000,4.000000,4.000000,100.000000,,,,,,,,,,,,,,,,
1644854692.419795,180.000000,0.000000,4197.563965,4225.897461,4214.615234,4218.846191,4216.153809,4221.922852,4219.743652,4216.025879,4219.871582,4215.000000,4226.282227,4193.205078,4219.487305,4307.436035,3482.000000,4.000000,82.000000,,,,0.000000,4.000000,4.000000,4.000000,4.000000,4.000000,4.000000,4.000000,4.000000,4.000000,4.000000,4.000000,4.000000,4.000000,4.000000,100.000000,,,,,,,,,,,,,,,,
1644854692.423735,181.000000,0.000000,4201.666504,4229.358887,4214.487305,4219.358887,4216.410156,4224.615234,4222.436035,4216.794922,4218.461426,4220.641113,4231.025879,4198.077148,4237.820313,4308.974121,3653.000000,4.000000,82.000000,,,,0.000000,4.000000,4.000000,4.000000,4.000000,4.000000,4.000000,4.000000,4.000000,4.000000,4.000000,4.000000,4.000000,4.000000,4.000000,100.000000,,,,,,,,,,,,,,,,
1644854692.427675,182.000000,0.000000,4212.051270,4232.307617,4216.666504,4215.000000,4218.974121,4225.641113,4225.256348,4217.436035,4218.974121,4225.641113,4230.897461,4202.179688,4257.692383,4312.051270,3542.000000,4.000000,82.000000,,,,0.000000,4.000000,4.000000,4.000000,4.000000,4.000000,4.000000,4.000000,4.000000,4.000000,4.000000,4.000000,4.000000,4.000000,4.000000,100.000000,,,,,,,,,,,,,,,,
1644854692.431615,183.000000,0.000000,4223.846191,4232.436035,4219.743652,4211.538574,4223.589844,4224.615234,4225.384766,4217.692383,4222.948730,4229.102539,4227.948730,4204.871582,4267.563965,4312.436035,2398.000000,4.000000,82.000000,,,,0.000000,4.000000,4.000000,4.000000,4.000000,4.000000,4.000000,4.000000,4.000000,4.000000,4.000000,4.000000,4.000000,4.000000,4.000000,100.000000,,,,,,,,,,,,,,,,
1644854692.435556,184.000000,0.000000,4229.871582,4228.333496,4221.282227,4212.948730,4227.436035,4221.922852,4222.563965,4217.692383,4228.974121,4231.282227,4226.666504,4206.025879,4260.512695,4308.589844,3482.000000,4.000000,82.000000,,,,0.000000,4.000000,4.000000,4.000000,4.000000,4.000000,4.000000,4.000000,4.000000,4.000000,4.000000,4.000000,4.000000,4.000000,4.000000,100.000000,,,,,,,,,,,,,,,,
1644854692.439496,185.000000,0.000000,4226.282227,4220.769043,4219.871582,4216.922852,4226.922852,4217.820313,4219.871582,4217.563965,4232.948730,4231.922852,4228.717773,4204.743652,4239.487305,4303.717773,3653.000000,4.000000,82.000000,,,,0.000000,4.000000,4.000000,4.000000,4.000000,4.000000,4.000000,4.000000,4.000000,4.000000,4.000000,4.000000,4.000000,4.000000,4.000000,100.000000,,,,,,,,,,,,,,,,
1644854692.443436,186.000000,0.000000,4215.000000,4213.077148,4215.512695,4218.717773,4221.666504,4214.230957,4219.743652,4218.077148,4232.179688,4229.743652,4231.538574,4200.897461,4216.282227,4302.436035,3542.000000,4.000000,82.000000,,,,0.000000,4.000000,4.000000,4.000000,4.000000,4.000000,4.000000,4.000000,4.000000,4.000000,4.000000,4.000000,4.000000,4.000000,4.000000,100.000000,,,,,,,,,,,,,,,,
1644854692.447376,187.000000,0.000000,4202.179688,4209.358887,4210.384766,4216.410156,4215.641113,4212.820313,4221.282227,4219.487305,4227.563965,4225.128418,4230.256348,4195.641113,4205.000000,4305.641113,2398.000000,4.000000,82.000000,,,,0.000000,4.000000,4.000000,4.000000,4.000000,4.000000,4.000000,4.000000,4.000000,4.000000,4.000000,4.000000,4.000000,4.000000,4.000000,100.000000,,,,,,,,,,,,,,,,
1644854692.451316,188.000000,0.000000,4194.743652,4211.666504,4206.666504,4213.333496,4213.589844,4214.358887,4221.410156,4220.769043,4222.692383,4221.282227,4222.179688,4190.641113,4212.179688,4309.743652,3482.000000,4.000000,82.000000,,,,0.000000,4.000000,4.000000,4.000000,4.000000,4.000000,4.000000,4.000000,4.000000,4.000000,4.000000,4.000000,4.000000,4.000000,4.000000,100.000000,,,,,,,,,,,,,,,,
1644854692.455356,189.000000,0.000000,4196.025879,4217.948730,4205.000000,4214.487305,4216.410156,4217.436035,4219.102539,4221.025879,4220.512695,4221.666504,4210.128418,4187.563965,4232.179688,4310.897461,3653.000000,4.000000,82.000000,,,,0.000000,4.000000,4.000000,4.000000,4.000000,4.000000,4.000000,4.000000,4.000000,4.000000,4.000000,4.000000,4.000000,4.000000,4.000000,100.000000,,,,,,,,,,,,,,,,
1644854692.459296,190.000000,0.000000,4203.846191,4222.820313,4204.871582,4220.384766,4220.769043,4219.230957,4217.179688,4220.384766,4221.410156,4226.922852,4200.897461,4187.179688,4251.282227,4308.205078,3542.000000,4.000000,82.000000,,,,0.000000,4.000000,4.000000,4.000000,4.000000,4.000000,4.000000,4.000000,4.000000,4.000000,4.000000,4.000000,4.000000,4.000000,4.000000,100.000000,,,,,,,,,,,,,,,,
1644854692.463236,191.000000,0.000000,4212.179688,4222.692383,4205.384766,4226.538574,4221.410156,4218.589844,4218.846191,4220.384766,4224.487305,4233.846191,4201.153809,4187.948730,4257.948730,4303.846191,2398.000000,4.000000,82.000000,,,,0.000000,4.000000,4.000000,4.000000,4.000000,4.000000,4.000000,4.000000,4.000000,4.000000,4.000000,4.000000,4.000000,4.000000,4.000000,100.000000,,,,,,,,,,,,,,,,
1644854692.467176,192.000000,0.000000,4215.256348,4218.205078,4205.000000,4227.820313,4216.794922,4217.051270,4223.077148,4222.307617,4228.077148,4237.692383,4211.282227,4188.077148,4250.897461,4300.512695,3482.000000,4.000000,82.000000,,,,0.000000,4.000000,4.000000,4.000000,4.000000,4.000000,4.000000,4.000000,4.000000,4.000000,4.000000,4.000000,4.000000,4.000000,4.000000,100.000000,1.000000,41.666668,4.000000,4.000000,4.000000,4.000000,4.000000,4.000000,1.000000,4.000000,4.000000,4.000000,4.000000,4.000000,3.000000,1.000000
1644854692.471116,193.000000,0.000000,4212.307617,4213.077148,4203.205078,4222.820313,4210.641113,4217.436035,4226.153809,4225.384766,4231.410156,4236.282227,4225.000000,4186.538574,4238.205078,4299.743652,3653.000000,4.000000,82.000000,,,,0.000000,4.000000,4.000000,4.000000,4.000000,4.000000,4.000000,4.000000,4.000000,4.000000,4.000000,4.000000,4.000000,4.000000,4.000000,100.000000,,,,,,,,,,,,,,,,
1644854692.475056,194.000000,0.000000,4207.051270,4210.769043,4200.641113,4215.384766,4208.461426,4220.769043,4225.384766,4227.692383,4233.846191,4231.025879,4233.974121,4184.743652,4229.487305,4301.538574,3542.000000,4.000000,82.000000,,,,0.000000,4.000000,4.000000,4.000000,4.000000,4.000000,4.000000,4.000000,4.000000,4.000000,4.000000,4.000000,4.000000,4.000000,4.000000,100.000000,,,,,,,,,,,,,,,,
1644854692.478997,195.000000,0.000000,4203.717773,4212.436035,4199.230957,4210.897461,4212.179688,4225.897461,4222.307617,4227.820313,4235.384766,4226.410156,4233.974121,4184.871582,4230.256348,4305.256348,2398.000000,4.000000,82.000000,,,,0.000000,4.000000,4.000000,4.000000,4.000000,4.000000,4.000000,4.000000,4.000000,4.000000,4.000000,4.000000,4.000000,4.000000,4.000000,100.000000,,,,,,,,,,,,,,,,
1644854692.482937,196.000000,0.000000,4203.205078,4216.666504,4200.512695,4212.051270,4218.333496,4229.615234,4220.512695,4226.025879,4235.897461,4226.410156,4226.922852,4187.436035,4238.461426,4308.717773,3482.000000,4.000000,82.000000,,,,0.000000,4.000000,4.000000,4.000000,4.000000,4.000000,4.000000,4.000000,4.000000,4.000000,4.000000,4.000000,4.000000,4.000000,4.000000,100.000000,,,,,,,,,,,,,,,,
1644854692.486877,197.000000,0.000000,4202.692383,4220.128418,4203.717773,4215.384766,4222.051270,4229.871582,4221.153809,4223.589844,4235.512695,4230.641113,4218.589844,4191.025879,4246.922852,4309.230957,3653.000000,4.000000,82.000000,,,,0.000000,4.000000,4.000000,4.000000,4.000000,4.000000,4.000000,4.000000,4.000000,4.000000,4.000000,4.000000,4.000000,4.000000,4.000000,100.000000,,,,,,,,,,,,,,,,
1644854692.490817,198.000000,0.000000,4199.102539,4219.230957,4206.410156,4214.230957,4221.922852,4226.282227,4222.051270,4221.666504,4234.615234,4235.512695,4212.692383,4193.717773,4248.717773,4305.256348,3542.000000,4.000000,82.000000,,,,0.000000,4.000000,4.000000,4.000000,4.000000,4.000000,4.000000,4.000000,4.000000,4.000000,4.000000,4.000000,4.000000,4.000000,4.000000,100.000000,,,,,,,,,,,,,,,,
1644854692.494757,199.000000,0.000000,4191.666504,4212.820313,4206.410156,4205.769043,4220.128418,4220.769043,4221.025879,4220.641113,4233.461426,4236.410156,4208.205078,4193.974121,4241.538574,4298.077148,2398.000000,4.000000,82.000000,,,,0.000000,4.000000,4.000000,4.000000,4.000000,4.000000,4.000000,4.000000,4.000000,4.000000,4.000000,4.000000,4.000000,4.000000,4.000000,100.000000,,,,,,,,,,,,,,,,
1644854692.498697,200.000000,0.000000,4182.051270,4203.205078,4203.589844,4194.230957,4219.615234,4216.410156,4219.487305,4220.000000,4231.282227,4231.282227,4202.307617,4192.179688,4230.256348,4291.025879,3482.000000,4.000000,82.000000,,,,0.000000,4.000000,4.000000,4.000000,4.000000,4.000000,4.000000,4.000000,4.000000,4.000000,4.000000,4.000000,4.000000,4.000000,4.000000,100.000000,,,,,,,,,,,,,,,,
1644854692.502637,201.000000,0.000000,4174.615234,4195.256348,4200.512695,4188.589844,4221.538574,4215.384766,4219.743652,4219.358887,4228.205078,4222.692383,4195.128418,4189.615234,4223.205078,4286.666504,3653.000000,4.000000,82.000000,,,,0.000000,4.000000,4.000000,4.000000,4.000000,4.000000,4.000000,4.000000,4.000000,4.000000,4.000000,4.000000,4.000000,4.000000,4.000000,100.000000,,,,,,,,,,,,,,,,
1644854692.506577,202.000000,0.000000,4173.846191,4193.589844,4199.487305,4195.512695,4225.128418,4217.563965,4222.179688,4218.717773,4225.769043,4215.769043,4191.666504,4188.205078,4224.615234,4284.871582,3542.000000,4.000000,82.000000,,,,0.000000,4.000000,4.000000,4.000000,4.000000,4.000000,4.000000,4.000000,4.000000,4.000000,4.000000,4.000000,4.000000,4.000000,4.000000,100.000000,,,,,,,,,,,,,,,,
1644854692.510517,203.000000,0.000000,4182.307617,4199.871582,4200.512695,4212.820313,4228.461426,4220.769043,4224.230957,4217.948730,4224.871582,4214.102539,4196.666504,4188.333496,4231.410156,4283.974121,2398.000000,4.000000,82.000000,,,,0.000000,4.000000,4.000000,4.000000,4.000000,4.000000,4.000000,4.000000,4.000000,4.000000,4.000000,4.000000,4.000000,4.000000,4.000000,100.000000,,,,,,,,,,,,,,,,
1644854692.514458,204.000000,0.000000,4198.077148,4210.769043,4201.153809,4230.641113,4228.846191,4222.051270,4223.461426,4216.794922,4225.256348,4216.025879,4208.205078,4188.077148,4235.641113,4282.563965,3482.000000,4.000000,82.000000,,,,0.000000,4.000000,4.000000,4.000000,4.000000,4.000000,4.000000,4.000000,4.000000,4.000000,4.000000,4.000000,4.000000,4.000000,4.000000,100.000000,,,,,,,,,,,,,,,,
1644854692.518398,205.000000,0.000000,4214.230957,4220.384766,4200.256348,4238.461426,4223.974121,4220.384766,4220.641113,4215.256348,4224.615234,4217.179688,4218.589844,4186.025879,4231.282227,4280.769043,3653.000000,4.000000,82.000000,,,,0.000000,4.000000,4.000000,4.000000,4.000000,4.000000,4.000000,4.000000,4.000000,4.000000,4.000000,4.000000,4.000000,4.000000,4.000000,100.000000,,,,,,,,,,,,,,,,
1644854692.522338,206.000000,0.000000,4221.922852,4223.717773,4198.461426,4233.717773,4214.487305,4216.794922,4218.846191,4214.487305,4221.538574,4214.487305,4220.512695,4182.563965,4219.871582,4278.974121,3542.000000,4.000000,82.000000,,,,0.000000,4.000000,4.000000,4.000000,4.000000,4.000000,4.000000,4.000000,4.000000,4.000000,4.000000,4.000000,4.000000,4.000000,4.000000,100.000000,,,,,,,,,,,,,,,,
1644854692.526378,207.000000,0.000000,4216.922852,4219.743652,4198.461426,4222.820313,4204.358887,4213.974121,4219.230957,4215.128418,4217.307617,4210.128418,4213.461426,4180.128418,4209.487305,4276.794922,2398.000000,4.000000,82.000000,,,,0.000000,4.000000,4.000000,4.000000,4.000000,4.000000,4.000000,4.000000,4.000000,4.000000,4.000000,4.000000,4.000000,4.000000,4.000000,100.000000,,,,,,,,,,,,,,,,
1644854692.530318,208.000000,0.000000,4202.820313,4211.666504,4201.666504,4214.871582,4199.743652,4213.461426,4220.512695,4217.179688,4215.128418,4208.846191,4203.205078,4181.538574,4208.205078,4274.358887,3482.000000,4.000000,82.000000,,,,0.000000,4.000000,4.000000,4.000000,4.000000,4.000000,4.000000,4.000000,4.000000,4.000000,4.000000,4.000000,4.000000,4.000000,4.000000,100.000000,,,,,,,,,,,,,,,,
1644854692.534258,209.000000,0.000000,4188.846191,4204.615234,4207.179688,4213.589844,4203.461426,4215.384766,4220.897461,4219.743652,4217.051270,4213.205078,4196.538574,4187.051270,4218.077148,4273.077148,3653.000000,4.000000,82.000000,,,,0.000000,4.000000,4.000000,4.000000,4.000000,4.000000,4.000000,4.000000,4.000000,4.000000,4.000000,4.000000,4.000000,4.000000,4.000000,100.000000,,,,,,,,,,,,,,,,
1644854692.538198,210.000000,0.000000,4182.948730,4202.307617,4212.563965,4216.922852,4212.948730,4217.820313,4221.025879,4222.179688,4222.692383,4221.410156,4195.641113,4194.615234,4233.205078,4274.743652,3542.000000,4.000000,82.000000,,,,0.000000,4.000000,4.000000,4.000000,4.000000,4.000000,4.000000,4.000000,4.000000,4.000000,4.000000,4.000000,4.000000,4.000000,4.000000,100.000000,,,,,,,,,,,,,,,,
1644854692.542138,211.000000,0.000000,4187.692383,4205.000000,4215.769043,4220.000000,4222.179688,4218.974121,4222.307617,4223.589844,4228.974121,4228.589844,4198.077148,4200.641113,4245.128418,4278.717773,2398.000000,4.000000,82.000000,,,,0.000000,4.000000,4.000000,4.000000,4.000000,4.000000,4.000000,4.000000,4.000000,4.000000,4.000000,4.000000,4.000000,4.000000,4.000000,100.000000,,,,,,,,,,,,,,,,
1644854692.546078,212.000000,0.000000,4199.230957,4210.897461,4216.666504,4220.641113,4226.410156,4218.461426,4224.358887,4223.589844,4232.179688,4230.897461,4200.128418,4202.692383,4248.846191,4281.794922,3482.000000,4.000000,82.000000,,,,0.000000,4.000000,4.000000,4.000000,4.000000,4.000000,4.000000,4.000000,4.000000,4.000000,4.000000,4.000000,4.000000,4.000000,4.000000,100.000000,,,,,,,,,,,,,,,,
1644854692.550018,213.000000,0.000000,4211.410156,4217.179688,4217.179688,4219.743652,4225.000000,4216.794922,4225.000000,4221.794922,4230.384766,4228.077148,4201.794922,4201.153809,4245.897461,4281.282227,3653.000000,4.000000,82.000000,,,,0.000000,4.000000,4.000000,4.000000,4.000000,4.000000,4.000000,4.000000,4.000000,4.000000,4.000000,4.000000,4.000000,4.000000,4.000000,100.000000,,,,,,,,,,,,,,,,
1644854692.553958,214.000000,0.000000,4219.743652,4222.307617,4219.230957,4219.743652,4221.153809,4215.512695,4222.692383,4219.871582,4224.743652,4222.563965,4205.897461,4198.717773,4240.641113,4278.333496,3542.000000,4.000000,82.000000,,,,0.000000,4.000000,4.000000,4.000000,4.000000,4.000000,4.000000,4.000000,4.000000,4.000000,4.000000,4.000000,4.000000,4.000000,4.000000,100.000000,,,,,,,,,,,,,,,,
1644854692.557899,215.000000,0.000000,4223.589844,4224.743652,4222.820313,4221.794922,4218.077148,4215.000000,4219.871582,4219.358887,4218.333496,4216.666504,4214.102539,4198.077148,4235.000000,4277.692383,2398.000000,4.000000,82.000000,,,,0.000000,4.000000,4.000000,4.000000,4.000000,4.000000,4.000000,4.000000,4.000000,4.000000,4.000000,4.000000,4.000000,4.000000,4.000000,100.000000,,,,,,,,,,,,,,,,
1644854692.561839,216.000000,0.000000,4223.974121,4223.846191,4226.025879,4224.487305,4216.538574,4215.512695,4219.871582,4220.641113,4213.846191,4211.922852,4223.589844,4199.743652,4227.692383,4282.948730,3482.000000,4.000000,82.000000,,,,0.000000,4.000000,4.000000,4.000000,4.000000,4.000000,4.000000,4.000000,4.000000,4.000000,4.000000,4.000000,4.000000,4.000000,4.000000,100.000000,,,,,,,,,,,,,,,,
1644854692.565779,217.000000,0.000000,4221.410156,4219.230957,4226.538574,4225.256348,4215.000000,4216.025879,4223.077148,4221.538574,4212.436035,4209.358887,4229.358887,4201.666504,4217.436035,4291.282227,3653.000000,4.000000,82.000000,,,,0.000000,4.000000,4.000000,4.000000,4.000000,4.000000,4.000000,4.000000,4.000000,4.000000,4.000000,4.000000,4.000000,4.000000,4.000000,100.000000,,,,,,,,,,,,,,,,
1644854692.569719,218.000000,0.000000,4216.153809,4212.307617,4223.717773,4221.922852,4211.666504,4215.769043,4226.153809,4220.000000,4213.589844,4209.743652,4227.948730,4202.051270,4207.948730,4296.538574,3542.000000,4.000000,82.000000,,,,0.000000,4.000000,4.000000,4.000000,4.000000,4.000000,4.000000,4.000000,4.000000,4.000000,4.000000,4.000000,4.000000,4.000000,4.000000,100.000000,,,,,,,,,,,,,,,,
1644854692.573659,219.000000,0.000000,4208.717773,4206.922852,4219.615234,4216.153809,4206.666504,4215.000000,4225.897461,4216.410156,4216.538574,4212.820313,4219.743652,4200.769043,4207.692383,4295.000000,2398.000000,4.000000,82.000000,,,,0.000000,4.000000,4.000000,4.000000,4.000000,4.000000,4.000000,4.000000,4.000000,4.000000,4.000000,4.000000,4.000000,4.000000,4.000000,100.000000,,,,,,,,,,,,,,,,
1644854692.577599,220.000000,0.000000,4202.179688,4206.666504,4217.692383,4212.179688,4203.077148,4214.615234,4223.589844,4213.461426,4220.256348,4217.307617,4208.846191,4199.487305,4221.153809,4290.256348,3482.000000,4.000000,82.000000,,,,0.000000,4.000000,4.000000,4.000000,4.000000,4.000000,4.000000,4.000000,4.000000,4.000000,4.000000,4.000000,4.000000,4.000000,4.000000,100.000000,,,,,,,,,,,,,,,,
1644854692.581539,221.000000,0.000000,4201.538574,4212.563965,4221.153809,4213.974121,4204.487305,4215.384766,4223.205078,4214.871582,4224.615234,4221.794922,4200.641113,4200.384766,4243.717773,4288.717773,3653.000000,4.000000,82.000000,,,,0.000000,4.000000,4.000000,4.000000,4.000000,4.000000,4.000000,4.000000,4.000000,4.000000,4.000000,4.000000,4.000000,4.000000,4.000000,100.000000,,,,,,,,,,,,,,,,
1644854692.585479,222.000000,0.000000,4209.871582,4222.692383,4229.358887,4221.538574,4212.820313,4217.436035,4226.666504,4221.794922,4230.000000,4225.769043,4200.000000,4204.487305,4263.205078,4291.922852,3542.000000,4.000000,82.000000,,,,0.000000,4.000000,4.000000,4.000000,4.000000,4.000000,4.000000,4.000000,4.000000,4.000000,4.000000,4.000000,4.000000,4.000000,4.000000,100.000000,,,,,,,,,,,,,,,,
1644854692.589419,223.000000,0.000000,4225.000000,4232.563965,4237.436035,4231.282227,4225.128418,4219.871582,4231.410156,4231.538574,4236.538574,4230.000000,4207.948730,4210.000000,4268.974121,4294.230957,2398.000000,4.000000,82.000000,,,,0.000000,4.000000,4.000000,4.000000,4.000000,4.000000,4.000000,4.000000,4.000000,4.000000,4.000000,4.000000,4.000000,4.000000,4.000000,100.000000,,,,,,,,,,,,,,,,
1644854692.593360,224.000000,0.000000,4239.230957,4237.179688,4239.487305,4239.102539,4235.256348,4221.794922,4232.820313,4238.333496,4242.179688,4234.871582,4220.769043,4213.333496,4259.743652,4290.512695,3482.000000,4.000000,82.000000,,,,0.000000,4.000000,4.000000,4.000000,4.000000,4.000000,4.000000,4.000000,4.000000,4.000000,4.000000,4.000000,4.000000,4.000000,4.000000,100.000000,,,,,,,,,,,,,,,,
1644854692.597300,225.000000,0.000000,4243.589844,4233.846191,4234.230957,4242.563965,4237.436035,4221.538574,4229.487305,4237.948730,4243.846191,4238.461426,4231.794922,4211.666504,4243.846191,4282.307617,3653.000000,4.000000,82.000000,,,,0.000000,4.000000,4.000000,4.000000,4.000000,4.000000,4.000000,4.000000,4.000000,4.000000,4.000000,4.000000,4.000000,4.000000,4.000000,100.000000,,,,,,,,,,,,,,,,
1644854692.601140,226.000000,0.000000,4235.000000,4224.102539,4224.871582,4241.538574,4230.384766,4218.461426,4223.846191,4231.538574,4239.743652,4238.077148,4235.641113,4205.256348,4232.051270,4277.051270,3542.000000,4.000000,82.000000,,,,0.000000,4.000000,4.000000,4.000000,4.000000,4.000000,4.000000,4.000000,4.000000,4.000000,4.000000,4.000000,4.000000,4.000000,4.000000,100.000000,,,,,,,,,,,,,,,,
1644854692.605080,227.000000,0.000000,4218.333496,4213.333496,4216.794922,4236.282227,4218.205078,4213.589844,4219.358887,4223.974121,4231.794922,4233.077148,4231.025879,4196.794922,4229.871582,4279.230957,2398.000000,4.000000,82.000000,,,,0.000000,4.000000,4.000000,4.000000,4.000000,4.000000,4.000000,4.000000,4.000000,4.000000,4.000000,4.000000,4.000000,4.000000,4.000000,100.000000,,,,,,,,,,,,,,,,
1644854692.609020,228.000000,0.000000,4202.436035,4206.282227,4212.563965,4227.307617,4206.794922,4209.102539,4217.307617,4219.743652,4224.487305,4226.794922,4220.512695,4188.589844,4236.025879,4285.897461,3482.000000,4.000000,82.000000,,,,0.000000,4.000000,4.000000,4.000000,4.000000,4.000000,4.000000,4.000000,4.000000,4.000000,4.000000,4.000000,4.000000,4.000000,4.000000,100.000000,,,,,,,,,,,,,,,,
1644854692.612960,229.000000,0.000000,4193.461426,4203.846191,4210.512695,4216.794922,4199.871582,4207.179688,4216.538574,4220.256348,4221.410156,4223.974121,4208.589844,4182.051270,4244.358887,4289.487305,3653.000000,4.000000,82.000000,,,,0.000000,4.000000,4.000000,4.000000,4.000000,4.000000,4.000000,4.000000,4.000000,4.000000,4.000000,4.000000,4.000000,4.000000,4.000000,100.000000,,,,,,,,,,,,,,,,
1644854692.616900,230.000000,0.000000,4191.666504,4203.205078,4208.205078,4207.948730,4197.692383,4207.820313,4216.410156,4223.589844,4222.563965,4226.282227,4199.358887,4177.948730,4248.461426,4286.153809,3542.000000,4.000000,82.000000,,,,0.000000,4.000000,4.000000,4.000000,4.000000,4.000000,4.000000,4.000000,4.000000,4.000000,4.000000,4.000000,4.000000,4.000000,4.000000,100.000000,,,,,,,,,,,,,,,,
1644854692.620740,231.000000,0.000000,4193.077148,4201.666504,4205.128418,4203.077148,4198.077148,4209.102539,4217.692383,4226.794922,4225.897461,4230.512695,4195.384766,4177.563965,4244.615234,4278.077148,2398.000000,4.000000,82.000000,,,,0.000000,4.000000,4.000000,4.000000,4.000000,4.000000,4.000000,4.000000,4.000000,4.000000,4.000000,4.000000,4.000000,4.000000,4.000000,100.000000,,,,,,,,,,,,,,,,
1644854692.624681,232.000000,0.000000,4194.871582,4199.487305,4202.436035,4201.666504,4199.230957,4209.102539,4220.128418,4228.077148,4228.846191,4231.538574,4198.077148,4181.410156,4234.102539,4270.256348,3482.000000,4.000000,82.000000,,,,0.000000,4.000000,4.000000,4.000000,4.000000,4.000000,4.000000,4.000000,4.000000,4.000000,4.000000,4.000000,4.000000,4.000000,4.000000,100.000000,,,,,,,,,,,,,,,,
1644854692.628621,233.000000,0.000000,4197.051270,4199.487305,4201.666504,4202.436035,4200.384766,4207.692383,4221.922852,4227.692383,4230.641113,4227.820313,4206.666504,4188.589844,4222.948730,4264.743652,3653.000000,4.000000,82.000000,,,,0.000000,4.000000,4.000000,4.000000,4.000000,4.000000,4.000000,4.000000,4.000000,4.000000,4.000000,4.000000,4.000000,4.000000,4.000000,100.000000,,,,,,,,,,,,,,,,
1644854692.632561,234.000000,0.000000,4200.384766,4203.717773,4203.077148,4205.512695,4201.794922,4206.794922,4221.666504,4227.307617,4231.794922,4222.436035,4217.307617,4196.410156,4217.307617,4261.153809,3542.000000,4.000000,82.000000,,,,0.000000,4.000000,4.000000,4.000000,4.000000,4.000000,4.000000,4.000000,4.000000,4.000000,4.000000,4.000000,4.000000,4.000000,4.000000,100.000000,,,,,,,,,,,,,,,,
1644854692.636501,235.000000,0.000000,4203.589844,4210.641113,4205.384766,4211.153809,4204.102539,4208.077148,4220.000000,4227.692383,4232.820313,4218.974121,4223.717773,4200.769043,4219.487305,4258.589844,2398.000000,4.000000,82.000000,,,,0.000000,4.000000,4.000000,4.000000,4.000000,4.000000,4.000000,4.000000,4.000000,4.000000,4.000000,4.000000,4.000000,4.000000,4.000000,100.000000,,,,,,,,,,,,,,,,
1644854692.640441,236.000000,0.000000,4203.589844,4215.897461,4206.922852,4217.820313,4207.692383,4211.666504,4219.871582,4228.077148,4232.563965,4218.974121,4222.051270,4198.461426,4226.666504,4257.436035,3482.000000,4.000000,82.000000,,,,0.000000,4.000000,4.000000,4.000000,4.000000,4.000000,4.000000,4.000000,4.000000,4.000000,4.000000,4.000000,4.000000,4.000000,4.000000,100.000000,,,,,,,,,,,,,,,,
1644854692.644381,237.000000,0.000000,4198.974121,4216.538574,4206.922852,4223.205078,4212.179688,4215.512695,4222.179688,4226.282227,4229.358887,4220.897461,4213.974121,4190.512695,4233.205078,4258.717773,3653.000000,4.000000,82.000000,,,,0.000000,4.000000,4.000000,4.000000,4.000000,4.000000,4.000000,4.000000,4.000000,4.000000,4.000000,4.000000,4.000000,4.000000,4.000000,100.000000,,,,,,,,,,,,,,,,
1644854692.648321,238.000000,0.000000,4192.948730,4213.589844,4206.025879,4226.153809,4216.794922,4217.307617,4224.358887,4221.410156,4223.333496,4221.922852,4205.641113,4181.666504,4235.512695,4262.436035,3542.000000,4.000000,82.000000,,,,0.000000,4.000000,4.000000,4.000000,4.000000,4.000000,4.000000,4.000000,4.000000,4.000000,4.000000,4.000000,4.000000,4.000000,4.000000,100.000000,,,,,,,,,,,,,,,,
1644854692.652261,239.000000,0.000000,4191.538574,4211.282227,4206.025879,4227.692383,4220.128418,4216.410156,4223.717773,4215.641113,4217.436035,4220.641113,4201.410156,4177.820313,4233.205078,4268.461426,2398.000000,4.000000,82.000000,,,,0.000000,4.000000,4.000000,4.000000,4.000000,4.000000,4.000000,4.000000,4.000000,4.000000,4.000000,4.000000,4.000000,4.000000,4.000000,100.000000,,,,,,,,,,,,,,,,
1644854692.656201,240.000000,0.000000,4197.563965,4213.333496,4208.974121,4229.102539,4221.410156,4213.974121,4220.512695,4212.436035,4214.743652,4217.307617,4201.282227,4181.282227,4228.717773,4276.794922,3482.000000,4.000000,82.000000,1,1,0,0.000000,4.000000,4.000000,4.000000,4.000000,4.000000,4.000000,4.000000,4.000000,4.000000,4.000000,4.000000,4.000000,4.000000,4.000000,100.000000,,,,,,,,,,,,,,,,
1644854692.660142,241.000000,0.000000,4208.974121,4220.256348,4214.487305,4229.358887,4220.256348,4211.922852,4218.205078,4213.333496,4216.025879,4213.461426,4202.436035,4189.487305,4225.512695,4286.153809,3653.000000,4.000000,82.000000,,,,0.000000,4.000000,4.000000,4.000000,4.000000,4.000000,4.000000,4.000000,4.000000,4.000000,4.000000,4.000000,4.000000,4.000000,4.000000,100.000000,,,,,,,,,,,,,,,,
1644854692.664082,242.000000,0.000000,4219.871582,4228.589844,4220.000000,4226.025879,4217.307617,4211.282227,4218.333496,4217.179688,4219.358887,4210.641113,4202.307617,4197.692383,4225.384766,4292.948730,3542.000000,4.000000,82.000000,,,,0.000000,4.000000,4.000000,4.000000,4.000000,4.000000,4.000000,4.000000,4.000000,4.000000,4.000000,4.000000,4.000000,4.000000,4.000000,100.000000,,,,,,,,,,,,,,,,
1644854692.668022,243.000000,0.000000,4225.128418,4233.717773,4222.307617,4217.820313,4214.358887,4212.179688,4219.487305,4220.256348,4222.051270,4209.743652,4201.538574,4202.948730,4227.692383,4292.820313,2398.000000,4.000000,82.000000,,,,0.000000,4.000000,4.000000,4.000000,4.000000,4.000000,4.000000,4.000000,4.000000,4.000000,4.000000,4.000000,4.000000,4.000000,4.000000,100.000000,,,,,,,,,,,,,,,,
1644854692.671862,244.000000,0.000000,4223.846191,4232.307617,4220.897461,4207.563965,4213.461426,4213.974121,4218.846191,4220.128418,4222.820313,4211.282227,4202.692383,4205.384766,4230.256348,4285.128418,3482.000000,4.000000,82.000000,,,,0.000000,4.000000,4.000000,4.000000,4.000000,4.000000,4.000000,4.000000,4.000000,4.000000,4.000000,4.000000,4.000000,4.000000,4.000000,100.000000,,,,,,,,,,,,,,,,
1644854692.675802,245.000000,0.000000,4219.230957,4225.384766,4218.461426,4201.410156,4215.256348,4215.512695,4216.282227,4217.563965,4222.307617,4215.384766,4208.589844,4206.410156,4231.025879,4275.000000,3653.000000,4.000000,82.000000,,,,0.000000,4.000000,4.000000,4.000000,4.000000,4.000000,4.000000,4.000000,4.000000,4.000000,4.000000,4.000000,4.000000,4.000000,4.000000,100.000000,,,,,,,,,,,,,,,,
1644854692.679742,246.000000,0.000000,4215.384766,4217.563965,4217.948730,4204.358887,4217.820313,4215.769043,4214.743652,4215.000000,4221.410156,4221.025879,4219.102539,4207.307617,4230.000000,4269.102539,3542.000000,4.000000,82.000000,,,,0.000000,4.000000,4.000000,4.000000,4.000000,4.000000,4.000000,4.000000,4.000000,4.000000,4.000000,4.000000,4.000000,4.000000,4.000000,100.000000,,,,,,,,,,,,,,,,
1644854692.683682,247.000000,0.000000,4214.743652,4213.333496,4220.000000,4216.282227,4217.948730,4214.743652,4216.410156,4215.000000,4220.641113,4226.538574,4229.871582,4207.436035,4228.974121,4270.128418,2398.000000,4.000000,82.000000,,,,0.000000,4.000000,4.000000,4.000000,4.000000,4.000000,4.000000,4.000000,4.000000,4.000000,4.000000,4.000000,4.000000,4.000000,4.000000,100.000000,,,,,,,,,,,,,,,,
1644854692.687622,248.000000,0.000000,4216.666504,4214.358887,4222.307617,4231.025879,4214.487305,4213.333496,4219.487305,4216.666504,4220.000000,4229.743652,4233.974121,4205.384766,4229.871582,4275.512695,3482.000000,4.000000,82.000000,,,,0.000000,4.000000,4.000000,4.000000,4.000000,4.000000,4.000000,4.000000,4.000000,4.000000,4.000000,4.000000,4.000000,4.000000,4.000000,100.000000,,,,,,,,,,,,,,,,
1644854692.691562,249.000000,0.000000,4218.205078,4218.077148,4222.179688,4241.025879,4209.102539,4212.307617,4220.384766,4217.820313,4219.358887,4229.230957,4227.436035,4201.282227,4232.307617,4280.641113,3653.000000,4.000000,82.000000,,,,0.000000,4.000000,4.000000,4.000000,4.000000,4.000000,4.000000,4.000000,4.000000,4.000000,4.000000,4.000000,4.000000,4.000000,4.000000,100.000000,,,,,,,,,,,,,,,,
1644854692.695503,250.000000,0.000000,4217.692383,4220.256348,4219.487305,4241.666504,4205.769043,4211.666504,4218.461426,4217.436035,4219.358887,4225.769043,4213.461426,4197.051270,4233.846191,4283.846191,3542.000000,4.000000,82.000000,,,,0.000000,4.000000,4.000000,4.000000,4.000000,4.000000,4.000000,4.000000,4.000000,4.000000,4.000000,4.000000,4.000000,4.000000,4.000000,100.000000,,,,,,,,,,,,,,,,
1644854692.699443,251.000000,0.000000,4216.025879,4219.102539,4216.538574,4234.871582,4206.922852,4211.025879,4216.538574,4216.282227,4220.384766,4222.051270,4200.769043,4194.615234,4231.922852,4285.128418,2398.000000,4.000000,82.000000,,,,0.000000,4.000000,4.000000,4.000000,4.000000,4.000000,4.000000,4.000000,4.000000,4.000000,4.000000,4.000000,4.000000,4.000000,4.000000,100.000000,,,,,,,,,,,,,,,,
1644854692.703383,252.000000,0.000000,4214.615234,4216.153809,4215.512695,4226.794922,4210.769043,4210.641113,4217.563965,4216.538574,4221.922852,4220.641113,4197.692383,4194.615234,4226.538574,4283.846191,3482.000000,4.000000,82.000000,,,,0.000000,4.000000,4.000000,4.000000,4.000000,4.000000,4.000000,4.000000,4.000000,4.000000,4.000000,4.000000,4.000000,4.000000,4.000000,100.000000,,,,,,,,,,,,,,,,
1644854692.707323,253.000000,0.000000,4214.102539,4214.615234,4217.179688,4223.717773,4213.333496,4210.512695,4220.256348,4218.974121,4223.205078,4222.563965,4205.897461,4196.538574,4220.000000,4278.846191,3653.000000,4.000000,82.000000,,,,0.000000,4.000000,4.000000,4.000000,4.000000,4.000000,4.000000,4.000000,4.000000,4.000000,4.000000,4.000000,4.000000,4.000000,4.000000,100.000000,,,,,,,,,,,,,,,,
1644854692.711263,254.000000,0.000000,4213.846191,4216.025879,4219.487305,4227.179688,4212.179688,4211.025879,4221.153809,4222.436035,4223.974121,4225.897461,4219.230957,4198.974121,4215.897461,4271.410156,3542.000000,4.000000,82.000000,,,,0.000000,4.000000,4.000000,4.000000,4.000000,4.000000,4.000000,4.000000,4.000000,4.000000,4.000000,4.000000,4.000000,4.000000,4.000000,100.000000,,,,,,,,,,,,,,,,
1644854692.715203,255.000000,0.000000,4212.820313,4218.717773,4220.641113,4232.307617,4208.589844,4212.051270,4219.487305,4225.512695,4224.871582,4227.563965,4228.974121,4201.282227,4215.512695,4266.666504,112.000000,4.000000,82.000000,,,,0.000000,4.000000,4.000000,4.000000,4.000000,4.000000,4.000000,4.000000,4.000000,4.000000,4.000000,4.000000,4.000000,4.000000,4.000000,100.000000,,,,,,,,,,,,,,,,
1644854692.719143,0.000000,0.000000,4210.000000,4219.230957,4220.384766,4231.666504,4205.641113,4213.589844,4218.077148,4227.051270,4226.153809,4226.794922,4230.256348,4202.307617,4219.230957,4268.846191,3423.000000,4.000000,82.000000,,,,0.000000,4.000000,4.000000,4.000000,4.000000,4.000000,4.000000,4.000000,4.000000,4.000000,4.000000,4.000000,4.000000,4.000000,4.000000,100.000000,,,,,,,,,,,,,,,,
1644854692.723083,1.000000,0.000000,4205.641113,4215.384766,4219.358887,4221.538574,4205.128418,4215.384766,4219.615234,4226.794922,4227.307617,4225.512695,4223.589844,4201.538574,4225.897461,4276.794922,3131.000000,4.000000,82.000000,,,,0.000000,4.000000,4.000000,4.000000,4.000000,4.000000,4.000000,4.000000,4.000000,4.000000,4.000000,4.000000,4.000000,4.000000,4.000000,100.000000,,,,,,,,,,,,,,,,
1644854692.727023,2.000000,0.000000,4200.384766,4208.077148,4218.077148,4205.384766,4206.538574,4216.794922,4222.692383,4224.615234,4226.666504,4226.025879,4213.846191,4198.589844,4233.333496,4283.589844,3588.000000,4.000000,82.000000,,,,0.000000,4.000000,4.000000,4.000000,4.000000,4.000000,4.000000,4.000000,4.000000,4.000000,4.000000,4.000000,4.000000,4.000000,4.000000,100.000000,,,,,,,,,,,,,,,,
1644854692.730964,3.000000,0.000000,4195.256348,4201.153809,4216.153809,4191.794922,4208.974121,4216.794922,4223.333496,4220.384766,4223.205078,4227.563965,4205.769043,4193.846191,4237.692383,4282.692383,3534.000000,4.000000,82.000000,,,,0.000000,4.000000,4.000000,4.000000,4.000000,4.000000,4.000000,4.000000,4.000000,4.000000,4.000000,4.000000,4.000000,4.000000,4.000000,100.000000,,,,,,,,,,,,,,,,
1644854692.734904,4.000000,0.000000,4191.410156,4197.563965,4212.948730,4188.589844,4211.538574,4215.256348,4219.871582,4214.743652,4217.307617,4227.179688,4202.307617,4188.461426,4234.871582,4274.102539,3547.000000,4.000000,82.000000,,,,0.000000,4.000000,4.000000,4.000000,4.000000,4.000000,4.000000,4.000000,4.000000,4.000000,4.000000,4.000000,4.000000,4.000000,4.000000,100.000000,,,,,,,,,,,,,,,,
1644854692.738844,5.000000,0.000000,4190.641113,4198.205078,4209.102539,4198.333496,4213.077148,4213.077148,4215.128418,4209.487305,4210.641113,4222.436035,4202.820313,4183.974121,4224.358887,4264.358887,3392.000000,4.000000,82.000000,,,,0.000000,4.000000,4.000000,4.000000,4.000000,4.000000,4.000000,4.000000,4.000000,4.000000,4.000000,4.000000,4.000000,4.000000,4.000000,100.000000,,,,,,,,,,,,,,,,
1644854692.742784,6.000000,0.000000,4193.461426,4201.794922,4206.794922,4216.666504,4212.307617,4212.051270,4213.589844,4206.794922,4205.897461,4214.487305,4204.487305,4181.922852,4210.769043,4260.128418,2622.000000,4.000000,82.000000,,,,0.000000,4.000000,4.000000,4.000000,4.000000,4.000000,4.000000,4.000000,4.000000,4.000000,4.000000,4.000000,4.000000,4.000000,4.000000,100.000000,,,,,,,,,,,,,,,,
1644854692.746724,7.000000,0.000000,4200.256348,4207.436035,4207.948730,4234.743652,4209.871582,4213.333496,4216.410156,4207.948730,4205.769043,4208.461426,4205.512695,4182.692383,4202.820313,4262.051270,2842.000000,4.000000,82.000000,,,,0.000000,4.000000,4.000000,4.000000,4.000000,4.000000,4.000000,4.000000,4.000000,4.000000,4.000000,4.000000,4.000000,4.000000,4.000000,100.000000,,,,,,,,,,,,,,,,
1644854692.750664,8.000000,0.000000,4210.128418,4214.615234,4212.179688,4243.589844,4208.077148,4216.794922,4220.384766,4211.666504,4211.025879,4208.974121,4207.948730,4185.384766,4207.307617,4267.179688,3307.000000,4.000000,82.000000,,,,0.000000,4.000000,4.000000,4.000000,4.000000,4.000000,4.000000,4.000000,4.000000,4.000000,4.000000,4.000000,4.000000,4.000000,4.000000,100.000000,,,,,,,,,,,,,,,,
1644854692.754604,9.000000,0.000000,4220.384766,4222.179688,4216.922852,4239.871582,4208.846191,4220.128418,4222.307617,4215.128418,4218.461426,4216.538574,4214.743652,4187.692383,4223.717773,4272.436035,3341.000000,4.000000,82.000000,,,,0.000000,4.000000,4.000000,4.000000,4.000000,4.000000,4.000000,4.000000,4.000000,4.000000,4.000000,4.000000,4.000000,4.000000,4.000000,100.000000,,,,,,,,,,,,,,,,
1644854692.758544,10.000000,0.000000,4226.666504,4227.820313,4219.487305,4227.692383,4211.794922,4221.410156,4221.794922,4216.538574,4223.205078,4226.025879,4225.128418,4187.692383,4244.102539,4276.153809,3533.000000,4.000000,82.000000,,,,0.000000,4.000000,4.000000,4.000000,4.000000,4.000000,4.000000,4.000000,4.000000,4.000000,4.000000,4.000000,4.000000,4.000000,4.000000,100.000000,,,,,,,,,,,,,,,,
1644854692.762484,11.000000,0.000000,4224.871582,4229.615234,4218.333496,4215.897461,4214.487305,4220.000000,4221.025879,4216.538574,4222.563965,4231.282227,4232.692383,4185.512695,4256.538574,4276.794922,2397.000000,4.000000,82.000000,,,,0.000000,4.000000,4.000000,4.000000,4.000000,4.000000,4.000000,4.000000,4.000000,4.000000,4.000000,4.000000,4.000000,4.000000,4.000000,100.000000,,,,,,,,,,,,,,,,
1644854692.766325,12.000000,0.000000,4214.871582,4227.948730,4214.487305,4211.410156,4215.512695,4217.307617,4220.897461,4217.179688,4219.102539,4230.384766,4232.051270,4183.589844,4253.846191,4271.282227,3258.000000,4.000000,82.000000,,,,0.000000,4.000000,4.000000,4.000000,4.000000,4.000000,4.000000,4.000000,4.000000,4.000000,4.000000,4.000000,4.000000,4.000000,4.000000,100.000000,,,,,,,,,,,,,,,,
1644854692.770265,13.000000,0.000000,4201.794922,4224.871582,4210.256348,4214.743652,4215.256348,4215.000000,4220.641113,4219.358887,4217.948730,4227.307617,4224.358887,4183.974121,4238.333496,4259.487305,3520.000000,4.000000,82.000000,2,1,0,0.000000,4.000000,4.000000,4.000000,4.000000,4.000000,4.000000,4.000000,4.000000,4.000000,4.000000,4.000000,4.000000,4.000000,4.000000,100.000000,,,,,,,,,,,,,,,,
1644854692.774205,14.000000,0.000000,4193.077148,4221.922852,4207.436035,4220.128418,4214.487305,4214.487305,4219.230957,4223.333496,4222.051270,4227.179688,4217.051270,4186.922852,4219.743652,4246.666504,3533.000000,4.000000,82.000000,,,,0.000000,4.000000,4.000000,4.000000,4.000000,4.000000,4.000000,4.000000,4.000000,4.000000,4.000000,4.000000,4.000000,4.000000,4.000000,100.000000,,,,,,,,,,,,,,,,
1644854692.778145,15.000000,0.000000,4192.692383,4218.717773,4206.410156,4220.512695,4213.846191,4215.641113,4218.077148,4227.179688,4228.974121,4231.410156,4216.410156,4189.871582,4208.589844,4241.025879,2397.000000,4.000000,82.000000,,,,0.000000,4.000000,4.000000,4.000000,4.000000,4.000000,4.000000,4.000000,4.000000,4.000000,4.000000,4.000000,4.000000,4.000000,4.000000,100.000000,,,,,,,,,,,,,,,,
1644854692.782085,16.000000,0.000000,4197.820313,4214.871582,4205.384766,4213.846191,4213.333496,4217.692383,4219.230957,4229.102539,4233.589844,4236.282227,4220.769043,4189.358887,4209.743652,4247.307617,3258.000000,4.000000,82.000000,,,,0.000000,4.000000,4.000000,4.000000,4.000000,4.000000,4.000000,4.000000,4.000000,4.000000,4.000000,4.000000,4.000000,4.000000,4.000000,100.000000,,,,,,,,,,,,,,,,
1644854692.786025,17.000000,0.000000,4201.922852,4210.512695,4201.922852,4204.230957,4212.051270,4218.846191,4222.051270,4227.307617,4232.179688,4236.794922,4223.333496,4183.205078,4220.128418,4260.512695,3520.000000,4.000000,82.000000,,,,0.000000,4.000000,4.000000,4.000000,4.000000,4.000000,4.000000,4.000000,4.000000,4.000000,4.000000,4.000000,4.000000,4.000000,4.000000,100.000000,,,,,,,,,,,,,,,,
1644854692.789965,18.000000,0.000000,4199.358887,4205.897461,4195.128418,4198.205078,4209.102539,4217.563965,4223.589844,4222.179688,4225.256348,4230.897461,4219.102539,4172.820313,4230.769043,4270.000000,3533.000000,4.000000,82.000000,,,,0.000000,4.000000,4.000000,4.000000,4.000000,4.000000,4.000000,4.000000,4.000000,4.000000,4.000000,4.000000,4.000000,4.000000,4.000000,100.000000,,,,,,,,,,,,,,,,
1644854692.793905,19.000000,0.000000,4190.256348,4201.666504,4186.666504,4198.717773,4204.743652,4213.974121,4221.922852,4216.410156,4217.563965,4220.384766,4210.000000,4161.794922,4232.563965,4267.563965,2397.000000,4.000000,82.000000,,,,0.000000,4.000000,4.000000,4.000000,4.000000,4.000000,4.000000,4.000000,4.000000,4.000000,4.000000,4.000000,4.000000,4.000000,4.000000,100.000000,,,,,,,,,,,,,,,,
1644854692.797945,20.000000,0.000000,4179.102539,4198.333496,4180.512695,4204.102539,4199.871582,4210.512695,4218.846191,4213.205078,4213.589844,4209.871582,4202.563965,4154.743652,4222.692383,4254.743652,3258.000000,4.000000,82.000000,,,,0.000000,4.000000,4.000000,4.000000,4.000000,4.000000,4.000000,4.000000,4.000000,4.000000,4.000000,4.000000,4.000000,4.000000,4.000000,100.000000,,,,,,,,,,,,,,,,
1644854692.801885,21.000000,0.000000,4172.179688,4196.282227,4180.256348,4210.256348,4196.794922,4209.102539,4217.436035,4214.102539,4214.871582,4203.717773,4201.538574,4154.615234,4206.666504,4240.128418,3520.000000,4.000000,82.000000,,,,0.000000,4.000000,4.000000,4.000000,4.000000,4.000000,4.000000,4.000000,4.000000,4.000000,4.000000,4.000000,4.000000,4.000000,4.000000,100.000000,,,,,,,,,,,,,,,,
1644854692.805826,22.000000,0.000000,4172.692383,4196.538574,4185.769043,4215.128418,4197.820313,4210.512695,4218.461426,4217.436035,4218.974121,4204.102539,4205.769043,4161.025879,4194.358887,4231.794922,3533.000000,4.000000,82.000000,,,,0.000000,4.000000,4.000000,4.000000,4.000000,4.000000,4.000000,4.000000,4.000000,4.000000,4.000000,4.000000,4.000000,4.000000,4.000000,100.000000,,,,,,,,,,,,,,,,
1644854692.809766,23.000000,0.000000,4179.230957,4199.615234,4193.077148,4218.077148,4203.205078,4213.974121,4219.743652,4219.487305,4221.538574,4209.871582,4210.384766,4170.769043,4192.820313,4231.666504,2397.000000,4.000000,82.000000,,,,0.000000,4.000000,4.000000,4.000000,4.000000,4.000000,4.000000,4.000000,4.000000,4.000000,4.000000,4.000000,4.000000,4.000000,4.000000,100.000000,,,,,,,,,,,,,,,,
1644854692.813706,24.000000,0.000000,4187.563965,4205.256348,4197.948730,4218.846191,4210.512695,4217.307617,4218.846191,4218.077148,4219.871582,4216.922852,4210.769043,4179.487305,4201.922852,4237.051270,3258.000000,4.000000,82.000000,,,,0.000000,4.000000,4.000000,4.000000,4.000000,4.000000,4.000000,4.000000,4.000000,4.000000,4.000000,4.000000,4.000000,4.000000,4.000000,100.000000,,,,,,,,,,,,,,,,
1644854692.817646,25.000000,0.000000,4194.102539,4212.051270,4199.230957,4216.538574,4214.743652,4218.589844,4216.282227,4213.205078,4214.102539,4220.512695,4206.410156,4183.589844,4215.128418,4244.615234,3520.000000,4.000000,82.000000,,,,0.000000,4.000000,4.000000,4.000000,4.000000,4.000000,4.000000,4.000000,4.000000,4.000000,4.000000,4.000000,4.000000,4.000000,4.000000,100.000000,,,,,,,,,,,,,,,,
1644854692.821586,26.000000,0.000000,4197.948730,4217.563965,4199.358887,4212.051270,4213.461426,4216.282227,4214.230957,4207.307617,4206.794922,4217.820313,4200.769043,4182.820313,4224.743652,4252.820313,3533.000000,4.000000,82.000000,,,,0.000000,4.000000,4.000000,4.000000,4.000000,4.000000,4.000000,4.000000,4.000000,4.000000,4.000000,4.000000,4.000000,4.000000,4.000000,100.000000,,,,,,,,,,,,,,,,
1644854692.825526,27.000000,0.000000,4201.153809,4219.743652,4201.538574,4209.102539,4208.717773,4211.025879,4213.717773,4203.077148,4201.410156,4210.641113,4199.102539,4179.871582,4227.051270,4260.128418,2397.000000,4.000000,82.000000,,,,0.000000,4.000000,4.000000,4.000000,4.000000,4.000000,4.000000,4.000000,4.000000,4.000000,4.000000,4.000000,4.000000,4.000000,4.000000,100.000000,,,,,,,,,,,,,,,,
1644854692.829466,28.000000,0.000000,4206.153809,4218.333496,4207.051270,4211.794922,4205.769043,4205.769043,4213.461426,4202.051270,4200.128418,4204.487305,4203.717773,4179.743652,4223.717773,4264.871582,3258.000000,4.000000,82.000000,,,,0.000000,4.000000,4.000000,4.000000,4.000000,4.000000,4.000000,4.000000,4.000000,4.000000,4.000000,4.000000,4.000000,4.000000,4.000000,100.000000,,,,,,,,,,,,,,,,
1644854692.833406,29.000000,0.000000,4213.461426,4215.512695,4214.871582,4221.666504,4207.948730,4203.717773,4212.436035,4204.102539,4203.077148,4204.102539,4212.820313,4185.641113,4219.230957,4266.922852,3520.000000,4.000000,82.000000,,,,0.000000,4.000000,4.000000,4.000000,4.000000,4.000000,4.000000,4.000000,4.000000,4.000000,4.000000,4.000000,4.000000,4.000000,4.000000,100.000000,,,,,,,,,,,,,,,,
1644854692.837346,30.000000,0.000000,4221.666504,4215.128418,4223.717773,4235.641113,4212.948730,4205.384766,4212.307617,4208.461426,4208.461426,4209.230957,4222.179688,4196.794922,4217.563965,4268.461426,3533.000000,4.000000,82.000000,,,,0.000000,4.000000,4.000000,4.000000,4.000000,4.000000,4.000000,4.000000,4.000000,4.000000,4.000000,4.000000,4.000000,4.000000,4.000000,100.000000,,,,,,,,,,,,,,,,
1644854692.841187,31.000000,0.000000,4229.230957,4219.487305,4232.051270,4247.948730,4215.641113,4208.461426,4214.358887,4213.333496,4213.717773,4214.615234,4229.487305,4208.974121,4220.384766,4272.051270,2397.000000,4.000000,82.000000,,,,0.000000,4.000000,4.000000,4.000000,4.000000,4.000000,4.000000,4.000000,4.000000,4.000000,4.000000,4.000000,4.000000,4.000000,4.000000,100.000000,,,,,,,,,,,,,,,,
1644854692.845127,32.000000,0.000000,4234.615234,4227.563965,4239.102539,4251.794922,4213.461426,4210.512695,4217.563965,4217.051270,4217.436035,4215.384766,4235.000000,4217.179688,4227.051270,4277.692383,0.000000,4.000000,82.000000,,,,0.000000,4.000000,4.000000,4.000000,4.000000,4.000000,4.000000,4.000000,4.000000,4.000000,4.000000,4.000000,4.000000,4.000000,4.000000,100.000000,,,,,,,,,,,,,,,,
1644854692.849067,33.000000,0.000000,4237.307617,4235.641113,4244.615234,4244.230957,4208.589844,4211.025879,4219.102539,4218.846191,4219.615234,4211.153809,4239.743652,4219.230957,4236.410156,4282.307617,0.000000,4.000000,82.000000,,,,0.000000,4.000000,4.000000,4.000000,4.000000,4.000000,4.000000,4.000000,4.000000,4.000000,4.000000,4.000000,4.000000,4.000000,4.000000,100.000000,,,,,,,,,,,,,,,,
1644854692.853007,34.000000,0.000000,4237.307617,4240.384766,4247.820313,4228.717773,4205.769043,4211.538574,4217.692383,4218.846191,4220.769043,4206.538574,4241.922852,4217.307617,4246.153809,4283.717773,0.000000,4.000000,82.000000,,,,0.000000,4.000000,4.000000,4.000000,4.000000,4.000000,4.000000,4.000000,4.000000,4.000000,4.000000,4.000000,4.000000,4.000000,4.000000,100.000000,,,,,,,,,,,,,,,,
1644854692.856947,35.000000,0.000000,4235.512695,4241.282227,4248.589844,4215.256348,4207.307617,4212.563965,4215.128418,4218.077148,4221.410156,4206.410156,4238.461426,4215.641113,4252.820313,4282.307617,0.000000,4.000000,82.000000,,,,0.000000,4.000000,4.000000,4.000000,4.000000,4.000000,4.000000,4.000000,4.000000,4.000000,4.000000,4.000000,4.000000,4.000000,4.000000,100.000000,,,,,,,,,,,,,,,,
1644854692.860887,36.000000,0.000000,4233.333496,4239.230957,4247.051270,4213.717773,4211.153809,4212.948730,4214.487305,4217.563965,4221.282227,4211.666504,4230.000000,4216.282227,4253.589844,4280.897461,0.000000,4.000000,82.000000,,,,0.000000,4.000000,4.000000,4.000000,4.000000,4.000000,4.000000,4.000000,4.000000,4.000000,4.000000,4.000000,4.000000,4.000000,4.000000,100.000000,,,,,,,,,,,,,,,,
1644854692.864827,37.000000,0.000000,4232.179688,4234.743652,4243.717773,4226.666504,4212.692383,4211.410156,4215.769043,4217.307617,4220.384766,4218.077148,4220.512695,4218.589844,4247.820313,4281.153809,0.000000,4.000000,82.000000,,,,0.000000,4.000000,4.000000,4.000000,4.000000,4.000000,4.000000,4.000000,4.000000,4.000000,4.000000,4.000000,4.000000,4.000000,4.000000,100.000000,,,,,,,,,,,,,,,,
1644854692.868767,38.000000,0.000000,4232.179688,4227.692383,4238.846191,4245.128418,4209.487305,4207.948730,4216.410156,4216.794922,4219.102539,4220.641113,4215.000000,4219.358887,4237.179688,4281.794922,0.000000,4.000000,82.000000,,,,0.000000,4.000000,4.000000,4.000000,4.000000,4.000000,4.000000,4.000000,4.000000,4.000000,4.000000,4.000000,4.000000,4.000000,4.000000,100.000000,,,,,,,,,,,,,,,,
1644854692.872707,39.000000,0.000000,4231.538574,4218.974121,4233.461426,4256.025879,4202.436035,4204.358887,4214.230957,4215.512695,4217.436035,4217.179688,4215.000000,4216.282227,4225.384766,4279.871582,0.000000,4.000000,82.000000,,,,0.000000,4.000000,4.000000,4.000000,4.000000,4.000000,4.000000,4.000000,4.000000,4.000000,4.000000,4.000000,4.000000,4.000000,4.000000,100.000000,,,,,,,,,,,,,,,,
1644854692.876648,40.000000,0.000000,4228.333496,4211.666504,4228.717773,4251.153809,4196.153809,4202.820313,4211.153809,4213.461426,4215.000000,4209.615234,4218.846191,4209.487305,4215.000000,4274.743652,0.000000,4.000000,82.000000,3,1,0,0.000000,4.000000,4.000000,4.000000,4.000000,4.000000,4.000000,4.000000,4.000000,4.000000,4.000000,4.000000,4.000000,4.000000,4.000000,100.000000,,,,,,,,,,,,,,,,
1644854692.880588,41.000000,0.000000,4222.179688,4209.230957,4225.897461,4233.974121,4195.000000,4205.256348,4211.282227,4211.666504,4212.179688,4202.692383,4223.461426,4201.922852,4207.948730,4268.461426,0.000000,4.000000,82.000000,,,,0.000000,4.000000,4.000000,4.000000,4.000000,4.000000,4.000000,4.000000,4.000000,4.000000,4.000000,4.000000,4.000000,4.000000,4.000000,100.000000,,,,,,,,,,,,,,,,
1644854692.884528,42.000000,0.000000,4215.384766,4212.820313,4225.769043,4216.282227,4200.897461,4211.025879,4216.410156,4210.897461,4210.128418,4200.256348,4228.077148,4197.051270,4205.256348,4263.077148,0.000000,4.000000,82.000000,,,,0.000000,4.000000,4.000000,4.000000,4.000000,4.000000,4.000000,4.000000,4.000000,4.000000,4.000000,4.000000,4.000000,4.000000,4.000000,100.000000,,,,,,,,,,,,,,,,
1644854692.888468,43.000000,0.000000,4212.051270,4221.025879,4227.820313,4210.641113,4211.538574,4218.205078,4223.461426,4211.538574,4211.025879,4203.205078,4233.077148,4196.922852,4207.948730,4259.871582,0.000000,4.000000,82.000000,,,,0.000000,4.000000,4.000000,4.000000,4.000000,4.000000,4.000000,4.000000,4.000000,4.000000,4.000000,4.000000,4.000000,4.000000,4.000000,100.000000,,,,,,,,,,,,,,,,
1644854692.892408,44.000000,0.000000,4214.102539,4230.128418,4230.128418,4220.256348,4221.025879,4223.205078,4227.436035,4213.461426,4215.128418,4208.589844,4237.179688,4200.256348,4216.282227,4259.102539,0.000000,4.000000,82.000000,,,,0.000000,4.000000,4.000000,4.000000,4.000000,4.000000,4.000000,4.000000,4.000000,4.000000,4.000000,4.000000,4.000000,4.000000,4.000000,100.000000,,,,,,,,,,,,,,,,
1644854692.896348,45.000000,0.000000,4219.871582,4236.410156,4231.282227,4237.051270,4224.487305,4223.333496,4226.538574,4215.384766,4220.384766,4212.051270,4236.922852,4204.358887,4227.820313,4260.512695,0.000000,4.000000,82.000000,,,,0.000000,4.000000,4.000000,4.000000,4.000000,4.000000,4.000000,4.000000,4.000000,4.000000,4.000000,4.000000,4.000000,4.000000,4.000000,100.000000,,,,,,,,,,,,,,,,
1644854692.900288,46.000000,0.000000,4224.615234,4237.179688,4230.000000,4247.307617,4220.384766,4219.230957,4222.948730,4216.153809,4223.077148,4212.179688,4229.615234,4205.769043,4237.051270,4263.461426,0.000000,4.000000,82.000000,,,,0.000000,4.000000,4.000000,4.000000,4.000000,4.000000,4.000000,4.000000,4.000000,4.000000,4.000000,4.000000,4.000000,4.000000,4.000000,100.000000,,,,,,,,,,,,,,,,
1644854692.904228,47.000000,0.000000,4225.000000,4232.307617,4225.769043,4243.205078,4212.820313,4214.230957,4219.615234,4215.000000,4221.410156,4211.025879,4217.307617,4202.820313,4237.692383,4265.512695,0.000000,4.000000,82.000000,,,,0.000000,4.000000,4.000000,4.000000,4.000000,4.000000,4.000000,4.000000,4.000000,4.000000,4.000000,4.000000,4.000000,4.000000,4.000000,100.000000,,,,,,,,,,,,,,,,
1644854692.908168,48.000000,0.000000,4222.436035,4225.128418,4219.615234,4228.846191,4207.948730,4211.922852,4217.563965,4211.153809,4216.794922,4211.666504,4207.436035,4196.282227,4227.692383,4263.974121,0.000000,4.000000,82.000000,,,,0.000000,4.000000,4.000000,4.000000,4.000000,4.000000,4.000000,4.000000,4.000000,4.000000,4.000000,4.000000,4.000000,4.000000,4.000000,100.000000,,,,,,,,,,,,,,,,
1644854692.912208,49.000000,0.000000,4220.769043,4220.000000,4212.948730,4217.692383,4209.230957,4213.333496,4215.512695,4205.384766,4211.666504,4214.615234,4206.794922,4188.205078,4212.307617,4259.358887,0.000000,4.000000,82.000000,,,,0.000000,4.000000,4.000000,4.000000,4.000000,4.000000,4.000000,4.000000,4.000000,4.000000,4.000000,4.000000,4.000000,4.000000,4.000000,100.000000,,,,,,,,,,,,,,,,
1644854692.916148,50.000000,0.000000,4222.436035,4219.743652,4207.948730,4219.743652,4214.743652,4215.897461,4213.333496,4199.615234,4208.205078,4216.153809,4215.384766,4181.282227,4200.769043,4255.384766,0.000000,4.000000,82.000000,,,,0.000000,4.000000,4.000000,4.000000,4.000000,4.000000,4.000000,4.000000,4.000000,4.000000,4.000000,4.000000,4.000000,4.000000,4.000000,100.000000,,,,,,,,,,,,,,,,
1644854692.920089,51.000000,0.000000,4226.282227,4224.102539,4206.538574,4233.974121,4218.333496,4217.307617,4212.692383,4196.666504,4206.794922,4212.563965,4226.794922,4177.051270,4200.769043,4256.282227,0.000000,4.000000,82.000000,,,,0.000000,4.000000,4.000000,4.000000,4.000000,4.000000,4.000000,4.000000,4.000000,4.000000,4.000000,4.000000,4.000000,4.000000,4.000000,100.000000,,,,,,,,,,,,,,,,
1644854692.924029,52.000000,0.000000,4229.230957,4229.743652,4208.589844,4249.230957,4216.153809,4216.922852,4215.000000,4198.333496,4207.820313,4204.358887,4233.077148,4176.282227,4212.563965,4262.179688,0.000000,4.000000,82.000000,,,,0.000000,4.000000,4.000000,4.000000,4.000000,4.000000,4.000000,4.000000,4.000000,4.000000,4.000000,4.000000,4.000000,4.000000,4.000000,100.000000,,,,,,,,,,,,,,,,
1644854692.927969,53.000000,0.000000,4228.589844,4232.820313,4212.563965,4254.487305,4208.846191,4215.769043,4218.717773,4204.102539,4211.282227,4197.179688,4232.051270,4178.461426,4229.230957,4268.333496,0.000000,4.000000,82.000000,,,,0.000000,4.000000,4.000000,4.000000,4.000000,4.000000,4.000000,4.000000,4.000000,4.000000,4.000000,4.000000,4.000000,4.000000,4.000000,100.000000,,,,,,,,,,,,,,,,
1644854692.931909,54.000000,0.000000,4222.563965,4230.897461,4215.000000,4247.307617,4202.051270,4215.128418,4221.025879,4210.769043,4217.051270,4196.794922,4227.820313,4182.692383,4242.051270,4269.743652,0.000000,4.000000,82.000000,,,,0.000000,4.000000,4.000000,4.000000,4.000000,4.000000,4.000000,4.000000,4.000000,4.000000,4.000000,4.000000,4.000000,4.000000,4.000000,100.000000,,,,,,,,,,,,,,,,
1644854692.935849,55.000000,0.000000,4211.794922,4224.102539,4214.102539,4234.615234,4201.282227,4215.128418,4221.025879,4215.641113,4223.077148,4204.743652,4225.641113,4186.922852,4245.769043,4265.769043,0.000000,4.000000,82.000000,,,,0.000000,4.000000,4.000000,4.000000,4.000000,4.000000,4.000000,4.000000,4.000000,4.000000,4.000000,4.000000,4.000000,4.000000,4.000000,100.000000,,,,,,,,,,,,,,,,
1644854692.939789,56.000000,0.000000,4199.743652,4215.769043,4210.128418,4224.871582,4208.717773,4216.025879,4220.384766,4218.461426,4227.563965,4218.205078,4227.179688,4189.871582,4241.666504,4260.641113,0.000000,4.000000,82.000000,,,,0.000000,4.000000,4.000000,4.000000,4.000000,4.000000,4.000000,4.000000,4.000000,4.000000,4.000000,4.000000,4.000000,4.000000,4.000000,100.000000,,,,,,,,,,,,,,,,
1644854692.943729,57.000000,0.000000,4191.410156,4209.615234,4206.282227,4221.282227,4221.410156,4217.948730,4220.897461,4220.384766,4229.743652,4232.051270,4229.871582,4190.897461,4235.384766,4258.077148,0.000000,4.000000,82.000000,,,,0.000000,4.000000,4.000000,4.000000,4.000000,4.000000,4.000000,4.000000,4.000000,4.000000,4.000000,4.000000,4.000000,4.000000,4.000000,100.000000,,,,,,,,,,,,,,,,
1644854692.947669,58.000000,0.000000,4191.153809,4208.589844,4205.128418,4221.794922,4232.179688,4220.384766,4221.794922,4222.948730,4230.384766,4241.666504,4230.769043,4191.538574,4231.794922,4258.333496,0.000000,4.000000,82.000000,,,,0.000000,4.000000,4.000000,4.000000,4.000000,4.000000,4.000000,4.000000,4.000000,4.000000,4.000000,4.000000,4.000000,4.000000,4.000000,100.000000,,,,,,,,,,,,,,,,
1644854692.951609,59.000000,0.000000,4198.846191,4212.179688,4207.051270,4223.077148,4234.615234,4221.922852,4220.769043,4226.153809,4231.025879,4244.230957,4228.974121,4192.948730,4231.410156,4258.974121,0.000000,4.000000,82.000000,,,,0.000000,4.000000,4.000000,4.000000,4.000000,4.000000,4.000000,4.000000,4.000000,4.000000,4.000000,4.000000,4.000000,4.000000,4.000000,100.000000,,,,,,,,,,,,,,,,
1644854692.955550,60.000000,0.000000,4209.615234,4217.179688,4210.897461,4223.077148,4227.436035,4221.538574,4217.948730,4228.333496,4232.051270,4239.487305,4227.051270,4195.256348,4231.153809,4258.333496,0.000000,4.000000,82.000000,,,,0.000000,4.000000,4.000000,4.000000,4.000000,4.000000,4.000000,4.000000,4.000000,4.000000,4.000000,4.000000,4.000000,4.000000,4.000000,100.000000,,,,,,,,,,,,,,,,
1644854692.959490,61.000000,0.000000,4217.436035,4219.871582,4214.102539,4222.436035,4216.410156,4219.743652,4216.025879,4227.820313,4232.436035,4229.102539,4226.538574,4197.051270,4228.205078,4256.794922,0.000000,4.000000,82.000000,,,,0.000000,4.000000,4.000000,4.000000,4.000000,4.000000,4.000000,4.000000,4.000000,4.000000,4.000000,4.000000,4.000000,4.000000,4.000000,100.000000,,,,,,,,,,,,,,,,
1644854692.963430,62.000000,0.000000,4218.461426,4219.102539,4215.384766,4222.820313,4209.615234,4217.820313,4216.666504,4224.743652,4231.282227,4217.692383,4227.436035,4197.051270,4223.077148,4255.128418,0.000000,4.000000,82.000000,,,,0.000000,4.000000,4.000000,4.000000,4.000000,4.000000,4.000000,4.000000,4.000000,4.000000,4.000000,4.000000,4.000000,4.000000,4.000000,100.000000,,,,,,,,,,,,,,,,
1644854692.967370,63.000000,0.000000,4214.487305,4216.794922,4214.230957,4225.641113,4210.897461,4216.538574,4218.717773,4220.512695,4228.333496,4210.641113,4228.333496,4195.128418,4219.871582,4253.205078,0.000000,4.000000,82.000000,,,,0.000000,4.000000,4.000000,4.000000,4.000000,4.000000,4.000000,4.000000,4.000000,4.000000,4.000000,4.000000,4.000000,4.000000,4.000000,100.000000,,,,,,,,,,,,,,,,
1644854692.971310,64.000000,0.000000,4210.512695,4216.410156,4211.794922,4230.641113,4217.307617,4216.025879,4219.358887,4216.538574,4224.230957,4210.897461,4229.487305,4192.436035,4223.461426,4252.307617,0.000000,4.000000,82.000000,,,,0.000000,4.000000,4.000000,4.000000,4.000000,4.000000,4.000000,4.000000,4.000000,4.000000,4.000000,4.000000,4.000000,4.000000,4.000000,100.000000,1.000000,50.000000,4.000000,4.000000,4.000000,4.000000,4.000000,4.000000,1.000000,4.000000,4.000000,4.000000,4.000000,4.000000,4.000000,1.000000
1644854692.975250,65.000000,0.000000,4210.384766,4219.102539,4210.128418,4235.384766,4222.820313,4215.769043,4217.692383,4214.102539,4220.769043,4217.179688,4231.666504,4190.769043,4233.974121,4255.256348,0.000000,4.000000,82.000000,,,,0.000000,4.000000,4.000000,4.000000,4.000000,4.000000,4.000000,4.000000,4.000000,4.000000,4.000000,4.000000,4.000000,4.000000,4.000000,100.000000,,,,,,,,,,,,,,,,
1644854692.979190,66.000000,0.000000,4214.230957,4223.461426,4210.897461,4236.666504,4222.692383,4215.769043,4216.410156,4213.461426,4218.846191,4225.256348,4234.358887,4191.153809,4245.897461,4263.846191,0.000000,4.000000,82.000000,,,,0.000000,4.000000,4.000000,4.000000,4.000000,4.000000,4.000000,4.000000,4.000000,4.000000,4.000000,4.000000,4.000000,4.000000,4.000000,100.000000,,,,,,,,,,,,,,,,
1644854692.983030,67.000000,0.000000,4218.077148,4226.410156,4214.615234,4234.358887,4217.563965,4215.897461,4217.436035,4214.358887,4218.333496,4229.871582,4234.871582,4194.102539,4250.128418,4274.230957,0.000000,4.000000,82.000000,,,,0.000000,4.000000,4.000000,4.000000,4.000000,4.000000,4.000000,4.000000,4.000000,4.000000,4.000000,4.000000,4.000000,4.000000,4.000000,100.000000,,,,,,,,,,,,,,,,
1644854692.986970,68.000000,0.000000,4217.692383,4225.384766,4219.743652,4231.153809,4212.051270,4216.153809,4219.487305,4214.743652,4217.692383,4229.102539,4230.384766,4198.461426,4242.051270,4277.948730,0.000000,4.000000,82.000000,,,,0.000000,4.000000,4.000000,4.000000,4.000000,4.000000,4.000000,4.000000,4.000000,4.000000,4.000000,4.000000,4.000000,4.000000,4.000000,100.000000,,,,,,,,,,,,,,,,
1644854692.990911,69.000000,0.000000,4212.436035,4220.897461,4223.589844,4229.743652,4211.025879,4216.410156,4219.230957,4213.461426,4215.897461,4223.974121,4221.410156,4202.179688,4225.256348,4270.128418,0.000000,4.000000,82.000000,,,,0.000000,4.000000,4.000000,4.000000,4.000000,4.000000,4.000000,4.000000,4.000000,4.000000,4.000000,4.000000,4.000000,4.000000,4.000000,100.000000,,,,,,,,,,,,,,,,
1644854692.994851,70.000000,0.000000,4206.153809,4215.256348,4224.743652,4231.794922,4214.871582,4216.410156,4215.769043,4210.128418,4212.307617,4216.538574,4212.563965,4202.820313,4209.615234,4255.641113,0.000000,4.000000,82.000000,,,,0.000000,4.000000,4.000000,4.000000,4.000000,4.000000,4.000000,4.000000,4.000000,4.000000,4.000000,4.000000,4.000000,4.000000,4.000000,100.000000,,,,,,,,,,,,,,,,
1644854692.998791,71.000000,0.000000,4203.974121,4212.051270,4223.717773,4236.794922,4220.128418,4216.025879,4212.179688,4206.025879,4207.692383,4208.461426,4209.102539,4200.256348,4204.743652,4245.769043,0.000000,4.000000,82.000000,,,,0.000000,4.000000,4.000000,4.000000,4.000000,4.000000,4.000000,4.000000,4.000000,4.000000,4.000000,4.000000,4.000000,4.000000,4.000000,100.000000,,,,,,,,,,,,,,,,
1644854693.002731,72.000000,0.000000,4208.333496,4213.333496,4222.563965,4243.077148,4223.846191,4215.256348,4211.538574,4202.436035,4203.333496,4201.538574,4212.051270,4196.410156,4213.461426,4248.461426,0.000000,4.000000,82.000000,,,,0.000000,4.000000,4.000000,4.000000,4.000000,4.000000,4.000000,4.000000,4.000000,4.000000,4.000000,4.000000,4.000000,4.000000,4.000000,100.000000,,,,,,,,,,,,,,,,
1644854693.006671,73.000000,0.000000,4216.794922,4218.846191,4222.948730,4247.563965,4224.487305,4214.487305,4213.333496,4200.000000,4201.153809,4197.051270,4217.436035,4194.615234,4230.128418,4260.641113,0.000000,4.000000,82.000000,,,,0.000000,4.000000,4.000000,4.000000,4.000000,4.000000,4.000000,4.000000,4.000000,4.000000,4.000000,4.000000,4.000000,4.000000,4.000000,100.000000,,,,,,,,,,,,,,,,
1644854693.010611,74.000000,0.000000,4224.743652,4225.769043,4225.128418,4246.282227,4222.692383,4214.102539,4214.487305,4198.333496,4202.051270,4196.153809,4220.128418,4196.025879,4244.358887,4272.948730,0.000000,4.000000,82.000000,,,,0.000000,4.000000,4.000000,4.000000,4.000000,4.000000,4.000000,4.000000,4.000000,4.000000,4.000000,4.000000,4.000000,4.000000,4.000000,100.000000,,,,,,,,,,,,,,,,
1644854693.014551,75.000000,0.000000,4228.589844,4231.538574,4228.077148,4237.948730,4219.487305,4214.230957,4213.205078,4197.563965,4205.000000,4198.717773,4218.846191,4199.743652,4247.307617,4278.205078,0.000000,4.000000,82.000000,,,,0.000000,4.000000,4.000000,4.000000,4.000000,4.000000,4.000000,4.000000,4.000000,4.000000,4.000000,4.000000,4.000000,4.000000,4.000000,100.000000,,,,,,,,,,,,,,,,
1644854693.018491,76.000000,0.000000,4228.077148,4234.743652,4230.512695,4226.794922,4215.897461,4214.487305,4211.153809,4198.205078,4207.820313,4203.589844,4216.794922,4203.205078,4237.563965,4276.538574,0.000000,4.000000,82.000000,,,,0.000000,4.000000,4.000000,4.000000,4.000000,4.000000,4.000000,4.000000,4.000000,4.000000,4.000000,4.000000,4.000000,4.000000,4.000000,100.000000,,,,,,,,,,,,,,,,
1644854693.022431,77.000000,0.000000,4225.128418,4235.384766,4231.410156,4220.128418,4212.820313,4214.230957,4211.025879,4200.512695,4209.230957,4208.974121,4218.461426,4204.358887,4220.641113,4271.794922,0.000000,4.000000,82.000000,,,,0.000000,4.000000,4.000000,4.000000,4.000000,4.000000,4.000000,4.000000,4.000000,4.000000,4.000000,4.000000,4.000000,4.000000,4.000000,100.000000,,,,,,,,,,,,,,,,
1644854693.026372,78.000000,0.000000,4222.692383,4234.358887,4230.384766,4222.948730,4211.666504,4213.589844,4212.948730,4203.974121,4210.128418,4213.333496,4224.358887,4203.333496,4206.282227,4267.820313,0.000000,4.000000,82.000000,,,,0.000000,4.000000,4.000000,4.000000,4.000000,4.000000,4.000000,4.000000,4.000000,4.000000,4.000000,4.000000,4.000000,4.000000,4.000000,100.000000,,,,,,,,,,,,,,,,
1644854693.030312,79.000000,0.000000,4222.820313,4232.692383,4228.205078,4232.948730,4213.333496,4213.205078,4214.871582,4208.205078,4212.563965,4215.769043,4229.743652,4201.025879,4202.563965,4266.153809,0.000000,4.000000,82.000000,,,,0.000000,4.000000,4.000000,4.000000,4.000000,4.000000,4.000000,4.000000,4.000000,4.000000,4.000000,4.000000,4.000000,4.000000,4.000000,100.000000,,,,,,,,,,,,,,,,
1644854693.034252,80.000000,0.000000,4225.897461,4230.512695,4226.538574,4243.205078,4217.051270,4213.846191,4215.512695,4212.692383,4217.563965,4216.922852,4229.102539,4199.102539,4210.897461,4267.179688,0.000000,4.000000,82.000000,,,,0.000000,4.000000,4.000000,4.000000,4.000000,4.000000,4.000000,4.000000,4.000000,4.000000,4.000000,4.000000,4.000000,4.000000,4.000000,100.000000,,,,,,,,,,,,,,,,
1644854693.038192,81.000000,0.000000,4230.000000,4226.794922,4226.025879,4247.051270,4219.743652,4215.000000,4215.897461,4216.666504,4223.461426,4217.692383,4221.410156,4199.102539,4225.641113,4270.128418,0.000000,4.000000,82.000000,,,,0.000000,4.000000,4.000000,4.000000,4.000000,4.000000,4.000000,4.000000,4.000000,4.000000,4.000000,4.000000,4.000000,4.000000,4.000000,100.000000,,,,,,,,,,,,,,,,
1644854693.042132,82.000000,0.000000,4232.307617,4221.025879,4225.897461,4242.948730,4217.948730,4215.769043,4217.436035,4219.615234,4227.179688,4218.717773,4211.153809,4201.410156,4236.794922,4272.820313,0.000000,4.000000,82.000000,,,,0.000000,4.000000,4.000000,4.000000,4.000000,4.000000,4.000000,4.000000,4.000000,4.000000,4.000000,4.000000,4.000000,4.000000,4.000000,100.000000,,,,,,,,,,,,,,,,
1644854693.046072,83.000000,0.000000,4231.025879,4215.641113,4224.743652,4233.846191,4212.051270,4215.641113,4219.358887,4220.384766,4227.692383,4219.871582,4206.153809,4204.358887,4237.820313,4272.179688,0.000000,4.000000,82.000000,,,,0.000000,4.000000,4.000000,4.000000,4.000000,4.000000,4.000000,4.000000,4.000000,4.000000,4.000000,4.000000,4.000000,4.000000,4.000000,100.000000,,,,,,,,,,,,,,,,
1644854693.050012,84.000000,0.000000,4227.051270,4213.717773,4221.922852,4225.384766,4206.025879,4215.128418,4219.743652,4219.230957,4226.538574,4220.769043,4210.384766,4205.384766,4229.743652,4267.563965,0.000000,4.000000,82.000000,,,,0.000000,4.000000,4.000000,4.000000,4.000000,4.000000,4.000000,4.000000,4.000000,4.000000,4.000000,4.000000,4.000000,4.000000,4.000000,100.000000,,,,,,,,,,,,,,,,
1644854693.053952,85.000000,0.000000,4222.307617,4216.538574,4217.820313,4222.051270,4204.871582,4215.256348,4217.692383,4217.563965,4225.641113,4220.512695,4221.025879,4202.692383,4219.743652,4261.666504,0.000000,4.000000,82.000000,,,,0.000000,4.000000,4.000000,4.000000,4.000000,4.000000,4.000000,4.000000,4.000000,4.000000,4.000000,4.000000,4.000000,4.000000,4.000000,100.000000,,,,,,,,,,,,,,,,
1644854693.057792,86.000000,0.000000,4218.717773,4222.051270,4213.717773,4224.743652,4208.589844,4215.897461,4215.128418,4216.282227,4225.512695,4218.461426,4229.358887,4196.922852,4214.743652,4257.948730,0.000000,4.000000,82.000000,,,,0.000000,4.000000,4.000000,4.000000,4.000000,4.000000,4.000000,4.000000,4.000000,4.000000,4.000000,4.000000,4.000000,4.000000,4.000000,100.000000,,,,,,,,,,,,,,,,
1644854693.061733,87.000000,0.000000,4216.282227,4225.769043,4210.128418,4230.512695,4212.692383,4216.282227,4214.743652,4215.897461,4224.358887,4215.512695,4228.589844,4190.000000,4216.282227,4257.436035,0.000000,4.000000,82.000000,,,,0.000000,4.000000,4.000000,4.000000,4.000000,4.000000,4.000000,4.000000,4.000000,4.000000,4.000000,4.000000,4.000000,4.000000,4.000000,100.000000,,,,,,,,,,,,,,,,
1644854693.065673,88.000000,0.000000,4214.230957,4225.384766,4206.666504,4234.230957,4212.948730,4215.641113,4216.153809,4215.897461,4221.025879,4213.589844,4218.717773,4183.846191,4221.282227,4257.563965,0.000000,4.000000,82.000000,,,,0.000000,4.000000,4.000000,4.000000,4.000000,4.000000,4.000000,4.000000,4.000000,4.000000,4.000000,4.000000,4.000000,4.000000,4.000000,100.000000,,,,,,,,,,,,,,,,
1644854693.069613,89.000000,0.000000,4212.436035,4222.051270,4202.948730,4232.051270,4209.358887,4214.487305,4217.051270,4215.769043,4216.794922,4214.102539,4206.153809,4178.974121,4225.641113,4255.512695,0.000000,4.000000,82.000000,,,,0.000000,4.000000,4.000000,4.000000,4.000000,4.000000,4.000000,4.000000,4.000000,4.000000,4.000000,4.000000,4.000000,4.000000,4.000000,100.000000,,,,,,,,,,,,,,,,
1644854693.073553,90.000000,0.000000,4210.384766,4218.846191,4199.487305,4224.358887,4205.769043,4214.358887,4215.897461,4215.128418,4213.717773,4216.666504,4197.051270,4175.512695,4227.179688,4251.538574,0.000000,4.000000,82.000000,,,,0.000000,4.000000,4.000000,4.000000,4.000000,4.000000,4.000000,4.000000,4.000000,4.000000,4.000000,4.000000,4.000000,4.000000,4.000000,100.000000,,,,,,,,,,,,,,,,
1644854693.077493,91.000000,0.000000,4206.922852,4217.820313,4197.692383,4215.256348,4206.153809,4216.282227,4214.487305,4214.615234,4212.820313,4218.077148,4193.717773,4173.461426,4225.512695,4248.717773,0.000000,4.000000,82.000000,,,,0.000000,4.000000,4.000000,4.000000,4.000000,4.000000,4.000000,4.000000,4.000000,4.000000,4.000000,4.000000,4.000000,4.000000,4.000000,100.000000,,,,,,,,,,,,,,,,
1644854693.081433,92.000000,0.000000,4202.307617,4217.692383,4198.333496,4208.846191,4212.179688,4219.487305,4215.769043,4214.487305,4213.205078,4215.769043,4195.000000,4173.461426,4221.282227,4249.102539,0.000000,4.000000,82.000000,,,,0.000000,4.000000,4.000000,4.000000,4.000000,4.000000,4.000000,4.000000,4.000000,4.000000,4.000000,4.000000,4.000000,4.000000,4.000000,100.000000,,,,,,,,,,,,,,,,
1644854693.085373,93.000000,0.000000,4198.333496,4216.538574,4200.000000,4207.179688,4221.153809,4222.051270,4219.743652,4214.358887,4213.077148,4209.487305,4199.487305,4175.769043,4215.897461,4251.538574,0.000000,4.000000,82.000000,,,,0.000000,4.000000,4.000000,4.000000,4.000000,4.000000,4.000000,4.000000,4.000000,4.000000,4.000000,4.000000,4.000000,4.000000,4.000000,100.000000,,,,,,,,,,,,,,,,
1644854693.089313,94.000000,0.000000,4197.436035,4214.487305,4201.025879,4209.487305,4228.589844,4222.563965,4223.077148,4213.077148,4211.410156,4203.077148,4207.179688,4179.743652,4211.410156,4253.717773,0.000000,4.000000,82.000000,,,,0.000000,4.000000,4.000000,4.000000,4.000000,4.000000,4.000000,4.000000,4.000000,4.000000,4.000000,4.000000,4.000000,4.000000,4.000000,100.000000,,,,,,,,,,,,,,,,
1644854693.093253,95.000000,0.000000,4200.512695,4214.230957,4200.512695,4214.230957,4230.256348,4220.897461,4222.948730,4210.128418,4209.102539,4201.410156,4216.922852,4183.333496,4210.897461,4254.743652,0.000000,4.000000,82.000000,,,,0.000000,4.000000,4.000000,4.000000,4.000000,4.000000,4.000000,4.000000,4.000000,4.000000,4.000000,4.000000,4.000000,4.000000,4.000000,100.000000,,,,,,,,,,,,,,,,
1644854693.097194,96.000000,0.000000,4205.641113,4218.717773,4199.743652,4220.512695,4225.641113,4218.333496,4220.512695,4206.666504,4207.563965,4206.025879,4225.897461,4184.615234,4214.871582,4255.769043,0.000000,4.000000,82.000000,,,,0.000000,4.000000,4.000000,4.000000,4.000000,4.000000,4.000000,4.000000,4.000000,4.000000,4.000000,4.000000,4.000000,4.000000,4.000000,100.000000,,,,,,,,,,,,,,,,
1644854693.101134,97.000000,0.000000,4209.487305,4227.436035,4200.384766,4227.307617,4217.563965,4216.282227,4219.102539,4204.871582,4207.436035,4213.205078,4230.897461,4183.077148,4220.897461,4257.820313,0.000000,4.000000,82.000000,,,,0.000000,4.000000,4.000000,4.000000,4.000000,4.000000,4.000000,4.000000,4.000000,4.000000,4.000000,4.000000,4.000000,4.000000,4.000000,100.000000,,,,,,,,,,,,,,,,
1644854693.105074,98.000000,0.000000,4209.230957,4236.410156,4202.948730,4233.077148,4211.153809,4215.256348,4220.256348,4206.153809,4208.461426,4217.179688,4231.282227,4180.128418,4225.128418,4258.717773,0.000000,4.000000,82.000000,,,,0.000000,4.000000,4.000000,4.000000,4.000000,4.000000,4.000000,4.000000,4.000000,4.000000,4.000000,4.000000,4.000000,4.000000,4.000000,100.000000,,,,,,,,,,,,,,,,
1644854693.109014,99.000000,0.000000,4204.487305,4240.897461,4206.538574,4236.153809,4210.000000,4215.384766,4221.794922,4209.615234,4210.256348,4214.871582,4228.974121,4178.974121,4225.512695,4255.897461,0.000000,4.000000,82.000000,,,,0.000000,4.000000,4.000000,4.000000,4.000000,4.000000,4.000000,4.000000,4.000000,4.000000,4.000000,4.000000,4.000000,4.000000,4.000000,100.000000,,,,,,,,,,,,,,,,
1644854693.112954,100.000000,0.000000,4198.205078,4238.846191,4209.743652,4236.025879,4214.230957,4216.666504,4221.666504,4213.333496,4212.179688,4208.461426,4226.282227,4181.410156,4223.461426,4249.487305,0.000000,4.000000,82.000000,,,,0.000000,4.000000,4.000000,4.000000,4.000000,4.000000,4.000000,4.000000,4.000000,4.000000,4.000000,4.000000,4.000000,4.000000,4.000000,100.000000,,,,,,,,,,,,,,,,
1644854693.116794,101.000000,0.000000,4194.871582,4232.692383,4212.692383,4233.717773,4220.641113,4219.102539,4221.025879,4215.769043,4214.102539,4203.589844,4223.077148,4186.282227,4222.307617,4244.487305,0.000000,4.000000,82.000000,,,,0.000000,4.000000,4.000000,4.000000,4.000000,4.000000,4.000000,4.000000,4.000000,4.000000,4.000000,4.000000,4.000000,4.000000,4.000000,100.000000,,,,,,,,,,,,,,,,
1644854693.120734,102.000000,0.000000,4197.948730,4227.436035,4215.897461,4231.666504,4225.769043,4222.820313,4223.205078,4217.051270,4215.641113,4205.256348,4217.436035,4189.615234,4224.615234,4246.153809,0.000000,4.000000,82.000000,,,,0.000000,4.000000,4.000000,4.000000,4.000000,4.000000,4.000000,4.000000,4.000000,4.000000,4.000000,4.000000,4.000000,4.000000,4.000000,100.000000,,,,,,,,,,,,,,,,
1644854693.124674,103.000000,0.000000,4206.794922,4226.666504,4219.102539,4230.641113,4228.205078,4227.051270,4228.333496,4218.974121,4217.692383,4213.333496,4209.230957,4188.974121,4230.641113,4253.846191,0.000000,4.000000,82.000000,,,,0.000000,4.000000,4.000000,4.000000,4.000000,4.000000,4.000000,4.000000,4.000000,4.000000,4.000000,4.000000,4.000000,4.000000,4.000000,100.000000,,,,,,,,,,,,,,,,
1644854693.128614,104.000000,0.000000,4216.025879,4230.128418,4220.897461,4229.230957,4228.589844,4230.897461,4233.077148,4222.436035,4220.512695,4223.205078,4200.897461,4185.641113,4237.051270,4260.384766,0.000000,4.000000,82.000000,,,,0.000000,4.000000,4.000000,4.000000,4.000000,4.000000,4.000000,4.000000,4.000000,4.000000,4.000000,4.000000,4.000000,4.000000,4.000000,100.000000,,,,,,,,,,,,,,,,
1644854693.132555,105.000000,0.000000,4219.487305,4233.205078,4220.128418,4224.615234,4227.692383,4233.717773,4233.846191,4227.179688,4223.589844,4228.717773,4196.410156,4183.974121,4238.717773,4258.846191,0.000000,4.000000,82.000000,,,,0.000000,4.000000,4.000000,4.000000,4.000000,4.000000,4.000000,4.000000,4.000000,4.000000,4.000000,4.000000,4.000000,4.000000,4.000000,100.000000,,,,,,,,,,,,,,,,
1644854693.136495,106.000000,0.000000,4214.487305,4230.897461,4217.692383,4216.153809,4225.512695,4235.000000,4231.666504,4231.410156,4225.769043,4226.282227,4197.051270,4186.794922,4232.436035,4250.000000,0.000000,4.000000,82.000000,,,,0.000000,4.000000,4.000000,4.000000,4.000000,4.000000,4.000000,4.000000,4.000000,4.000000,4.000000,4.000000,4.000000,4.000000,4.000000,100.000000,,,,,,,,,,,,,,,,
1644854693.140435,107.000000,0.000000,4204.230957,4222.307617,4216.153809,4206.794922,4222.436035,4234.102539,4230.512695,4233.846191,4225.897461,4217.820313,4201.794922,4192.820313,4220.769043,4241.282227,0.000000,4.000000,82.000000,,,,0.000000,4.000000,4.000000,4.000000,4.000000,4.000000,4.000000,4.000000,4.000000,4.000000,4.000000,4.000000,4.000000,4.000000,4.000000,100.000000,,,,,,,,,,,,,,,,
1644854693.144375,108.000000,0.000000,4196.282227,4211.538574,4217.692383,4202.563965,4219.615234,4231.410156,4232.436035,4234.615234,4224.871582,4210.000000,4208.205078,4197.820313,4211.025879,4240.641113,0.000000,4.000000,82.000000,,,,0.000000,4.000000,4.000000,4.000000,4.000000,4.000000,4.000000,4.000000,4.000000,4.000000,4.000000,4.000000,4.000000,4.000000,4.000000,100.000000,,,,,,,,,,,,,,,,
1644854693.148315,109.000000,0.000000,4196.282227,4204.871582,4222.179688,4207.307617,4218.205078,4228.333496,4234.871582,4233.846191,4224.230957,4208.461426,4214.743652,4198.461426,4208.717773,4248.589844,0.000000,4.000000,82.000000,,,,0.000000,4.000000,4.000000,4.000000,4.000000,4.000000,4.000000,4.000000,4.000000,4.000000,4.000000,4.000000,4.000000,4.000000,4.000000,100.000000,,,,,,,,,,,,,,,,
1644854693.152255,110.000000,0.000000,4204.487305,4205.769043,4227.051270,4218.846191,4218.717773,4226.666504,4234.615234,4231.666504,4225.769043,4214.230957,4220.641113,4195.641113,4212.436035,4259.615234,0.000000,4.000000,82.000000,,,,0.000000,4.000000,4.000000,4.000000,4.000000,4.000000,4.000000,4.000000,4.000000,4.000000,4.000000,4.000000,4.000000,4.000000,4.000000,100.000000,,,,,,,,,,,,,,,,
1644854693.156195,111.000000,0.000000,4215.512695,4212.948730,4230.512695,4231.282227,4220.000000,4226.282227,4231.922852,4229.358887,4228.846191,4222.563965,4225.512695,4194.230957,4215.897461,4266.922852,0.000000,4.000000,82.000000,,,,0.000000,4.000000,4.000000,4.000000,4.000000,4.000000,4.000000,4.000000,4.000000,4.000000,4.000000,4.000000,4.000000,4.000000,4.000000,100.000000,,,,,,,,,,,,,,,,
1644854693.160135,112.000000,0.000000,4223.846191,4221.153809,4232.436035,4238.846191,4219.358887,4225.641113,4229.743652,4228.333496,4231.538574,4227.820313,4228.461426,4198.461426,4213.974121,4267.820313,0.000000,4.000000,82.000000,,,,0.000000,4.000000,4.000000,4.000000,4.000000,4.000000,4.000000,4.000000,4.000000,4.000000,4.000000,4.000000,4.000000,4.000000,4.000000,100.000000,,,,,,,,,,,,,,,,
1644854693.164075,113.000000,0.000000,4227.051270,4225.769043,4233.717773,4240.256348,4215.897461,4223.717773,4229.615234,4228.974121,4231.410156,4227.563965,4228.846191,4207.820313,4208.974121,4264.102539,0.000000,4.000000,82.000000,,,,0.000000,4.000000,4.000000,4.000000,4.000000,4.000000,4.000000,4.000000,4.000000,4.000000,4.000000,4.000000,4.000000,4.000000,4.000000,100.000000,,,,,,,,,,,,,,,,
1644854693.168016,114.000000,0.000000,4226.794922,4225.256348,4234.615234,4238.077148,4211.025879,4220.769043,4229.615234,4229.615234,4227.948730,4223.846191,4226.794922,4216.666504,4207.563965,4259.487305,0.000000,4.000000,82.000000,,,,0.000000,4.000000,4.000000,4.000000,4.000000,4.000000,4.000000,4.000000,4.000000,4.000000,4.000000,4.000000,4.000000,4.000000,4.000000,100.000000,,,,,,,,,,,,,,,,
1644854693.171956,115.000000,0.000000,4226.282227,4221.410156,4235.384766,4235.128418,4209.102539,4218.717773,4227.436035,4228.205078,4223.333496,4219.743652,4223.333496,4219.230957,4213.846191,4257.179688,0.000000,4.000000,82.000000,,,,0.000000,4.000000,4.000000,4.000000,4.000000,4.000000,4.000000,4.000000,4.000000,4.000000,4.000000,4.000000,4.000000,4.000000,4.000000,100.000000,,,,,,,,,,,,,,,,
1644854693.175896,116.000000,0.000000,4227.179688,4217.307617,4235.256348,4232.436035,4212.179688,4218.974121,4223.974121,4224.487305,4220.128418,4216.153809,4219.102539,4214.230957,4224.615234,4258.589844,0.000000,4.000000,82.000000,,,,0.000000,4.000000,4.000000,4.000000,4.000000,4.000000,4.000000,4.000000,4.000000,4.000000,4.000000,4.000000,4.000000,4.000000,4.000000,100.000000,,,,,,,,,,,,,,,,
1644854693.179836,117.000000,0.000000,4228.846191,4215.512695,4234.230957,4228.846191,4218.589844,4221.153809,4222.436035,4220.512695,4219.871582,4212.692383,4214.743652,4205.897461,4232.820313,4262.563965,0.000000,4.000000,82.000000,,,,0.000000,4.000000,4.000000,4.000000,4.000000,4.000000,4.000000,4.000000,4.000000,4.000000,4.000000,4.000000,4.000000,4.000000,4.000000,100.000000,,,,,,,,,,,,,,,,
1644854693.183776,118.000000,0.000000,4230.641113,4217.436035,4232.563965,4224.102539,4223.717773,4223.846191,4224.230957,4218.846191,4222.179688,4209.230957,4211.025879,4200.512695,4234.615234,4266.153809,0.000000,4.000000,82.000000,,,,0.000000,4.000000,4.000000,4.000000,4.000000,4.000000,4.000000,4.000000,4.000000,4.000000,4.000000,4.000000,4.000000,4.000000,4.000000,100.000000,,,,,,,,,,,,,,,,
1644854693.187716,119.000000,0.000000,4232.179688,4222.820313,4231.282227,4219.743652,4224.615234,4225.256348,4226.922852,4220.128418,4225.128418,4208.333496,4209.358887,4201.282227,4231.025879,4266.410156,0.000000,4.000000,82.000000,,,,0.000000,4.000000,4.000000,4.000000,4.000000,4.000000,4.000000,4.000000,4.000000,4.000000,4.000000,4.000000,4.000000,4.000000,4.000000,100.000000,,,,,,,,,,,,,,,,
1644854693.191556,120.000000,0.000000,4233.974121,4229.358887,4230.897461,4218.717773,4222.307617,4224.615234,4227.436035,4223.205078,4226.666504,4212.563965,4210.256348,4206.410156,4226.666504,4263.205078,0.000000,4.000000,82.000000,,,,0.000000,4.000000,4.000000,4.000000,4.000000,4.000000,4.000000,4.000000,4.000000,4.000000,4.000000,4.000000,4.000000,4.000000,4.000000,100.000000,,,,,,,,,,,,,,,,
1644854693.195496,121.000000,0.000000,4234.871582,4234.230957,4231.025879,4222.179688,4219.615234,4221.794922,4224.871582,4225.384766,4225.897461,4221.025879,4212.307617,4210.128418,4224.871582,4259.871582,0.000000,4.000000,82.000000,,,,0.000000,4.000000,4.000000,4.000000,4.000000,4.000000,4.000000,4.000000,4.000000,4.000000,4.000000,4.000000,4.000000,4.000000,4.000000,100.000000,,,,,,,,,,,,,,,,
1644854693.199436,122.000000,0.000000,4233.974121,4235.000000,4231.538574,4227.948730,4218.461426,4217.948730,4221.538574,4225.128418,4223.717773,4229.358887,4214.230957,4208.589844,4226.410156,4259.487305,0.000000,4.000000,82.000000,,,,0.000000,4.000000,4.000000,4.000000,4.000000,4.000000,4.000000,4.000000,4.000000,4.000000,4.000000,4.000000,4.000000,4.000000,4.000000,100.000000,,,,,,,,,,,,,,,,
1644854693.203377,123.000000,0.000000,4231.538574,4232.436035,4232.307617,4231.922852,4218.717773,4214.358887,4219.102539,4223.077148,4221.922852,4232.692383,4216.410156,4202.820313,4230.000000,4262.307617,0.000000,4.000000,82.000000,,,,0.000000,4.000000,4.000000,4.000000,4.000000,4.000000,4.000000,4.000000,4.000000,4.000000,4.000000,4.000000,4.000000,4.000000,4.000000,100.000000,,,,,,,,,,,,,,,,
1644854693.207317,124.000000,0.000000,4230.512695,4230.256348,4233.589844,4231.922852,4219.230957,4212.179688,4217.307617,4221.410156,4222.820313,4230.641113,4220.897461,4198.717773,4234.358887,4265.897461,0.000000,4.000000,82.000000,,,,0.000000,4.000000,4.000000,4.000000,4.000000,4.000000,4.000000,4.000000,4.000000,4.000000,4.000000,4.000000,4.000000,4.000000,4.000000,100.000000,,,,,,,,,,,,,,,,
1644854693.211257,125.000000,0.000000,4233.846191,4231.922852,4235.128418,4230.641113,4219.487305,4212.051270,4215.512695,4222.051270,4227.051270,4227.436035,4228.461426,4200.769043,4239.358887,4268.846191,0.000000,4.000000,82.000000,,,,0.000000,4.000000,4.000000,4.000000,4.000000,4.000000,4.000000,4.000000,4.000000,4.000000,4.000000,4.000000,4.000000,4.000000,4.000000,100.000000,,,,,,,,,,,,,,,,
1644854693.215197,126.000000,0.000000,4241.025879,4237.692383,4236.282227,4232.563965,4220.128418,4213.589844,4214.615234,4225.128418,4232.692383,4227.948730,4237.436035,4208.205078,4245.000000,4272.179688,0.000000,4.000000,82.000000,,,,0.000000,4.000000,4.000000,4.000000,4.000000,4.000000,4.000000,4.000000,4.000000,4.000000,4.000000,4.000000,4.000000,4.000000,4.000000,100.000000,,,,,,,,,,,,,,,,
1644854693.219137,127.000000,0.000000,4247.692383,4244.487305,4235.897461,4239.871582,4221.410156,4216.538574,4216.153809,4229.102539,4236.794922,4232.436035,4243.333496,4215.256348,4249.230957,4276.538574,0.000000,4.000000,82.000000,,,,0.000000,4.000000,4.000000,4.000000,4.000000,4.000000,4.000000,4.000000,4.000000,4.000000,4.000000,4.000000,4.000000,4.000000,4.000000,100.000000,,,,,,,,,,,,,,,,
1644854693.223077,128.000000,0.000000,4247.948730,4247.820313,4232.948730,4249.230957,4223.077148,4220.769043,4219.871582,4231.794922,4237.051270,4236.666504,4242.179688,4215.769043,4249.358887,4279.487305,3426.000000,4.000000,82.000000,,,,0.000000,4.000000,4.000000,4.000000,4.000000,4.000000,4.000000,4.000000,4.000000,4.000000,4.000000,4.000000,4.000000,4.000000,4.000000,100.000000,,,,,,,,,,,,,,,,
1644854693.227017,129.000000,0.000000,4240.128418,4246.025879,4227.051270,4253.205078,4224.102539,4225.769043,4222.692383,4230.897461,4233.717773,4236.282227,4233.846191,4207.692383,4245.384766,4276.666504,3307.000000,4.000000,82.000000,,,,0.000000,4.000000,4.000000,4.000000,4.000000,4.000000,4.000000,4.000000,4.000000,4.000000,4.000000,4.000000,4.000000,4.000000,4.000000,100.000000,,,,,,,,,,,,,,,,
1644854693.230957,130.000000,0.000000,4228.077148,4240.512695,4218.974121,4247.179688,4224.102539,4229.743652,4222.436035,4226.282227,4228.846191,4231.153809,4223.077148,4195.000000,4240.641113,4267.563965,3561.000000,4.000000,82.000000,,,,0.000000,4.000000,4.000000,4.000000,4.000000,4.000000,4.000000,4.000000,4.000000,4.000000,4.000000,4.000000,4.000000,4.000000,4.000000,100.000000,,,,,,,,,,,,,,,,
1644854693.234897,131.000000,0.000000,4217.692383,4233.461426,4210.769043,4232.692383,4222.692383,4230.384766,4220.000000,4220.641113,4224.615234,4224.358887,4216.794922,4184.102539,4238.974121,4257.692383,3700.000000,4.000000,82.000000,,,,0.000000,4.000000,4.000000,4.000000,4.000000,4.000000,4.000000,4.000000,4.000000,4.000000,4.000000,4.000000,4.000000,4.000000,4.000000,100.000000,,,,,,,,,,,,,,,,
1644854693.238838,132.000000,0.000000,4211.153809,4226.025879,4204.487305,4217.563965,4220.128418,4227.307617,4218.717773,4217.820313,4221.666504,4219.743652,4217.948730,4179.230957,4239.871582,4253.205078,3530.000000,4.000000,82.000000,,,,0.000000,4.000000,4.000000,4.000000,4.000000,4.000000,4.000000,4.000000,4.000000,4.000000,4.000000,4.000000,4.000000,4.000000,4.000000,100.000000,,,,,,,,,,,,,,,,
1644854693.242778,133.000000,0.000000,4205.384766,4218.333496,4202.179688,4209.102539,4217.820313,4222.051270,4220.128418,4218.717773,4219.871582,4219.358887,4223.205078,4180.769043,4239.871582,4254.743652,3521.000000,4.000000,82.000000,,,,0.000000,4.000000,4.000000,4.000000,4.000000,4.000000,4.000000,4.000000,4.000000,4.000000,4.000000,4.000000,4.000000,4.000000,4.000000,100.000000,,,,,,,,,,,,,,,,
1644854693.246718,134.000000,0.000000,4197.179688,4210.384766,4203.461426,4209.615234,4217.051270,4217.820313,4222.692383,4221.666504,4219.358887,4222.563965,4225.641113,4186.410156,4235.897461,4255.769043,2796.000000,4.000000,82.000000,,,,0.000000,4.000000,4.000000,4.000000,4.000000,4.000000,4.000000,4.000000,4.000000,4.000000,4.000000,4.000000,4.000000,4.000000,4.000000,100.000000,,,,,,,,,,,,,,,,
1644854693.250658,135.000000,0.000000,4187.820313,4203.589844,4206.922852,4215.000000,4217.179688,4216.410156,4223.589844,4223.846191,4220.128418,4226.538574,4221.282227,4193.717773,4228.846191,4250.256348,3036.000000,4.000000,82.000000,,,,0.000000,4.000000,4.000000,4.000000,4.000000,4.000000,4.000000,4.000000,4.000000,4.000000,4.000000,4.000000,4.000000,4.000000,4.000000,100.000000,,,,,,,,,,,,,,,,
1644854693.254598,136.000000,0.000000,4182.563965,4200.512695,4210.512695,4219.743652,4216.025879,4217.563965,4222.692383,4224.102539,4221.794922,4228.589844,4212.563965,4200.256348,4222.179688,4239.743652,3314.000000,4.000000,82.000000,,,,0.000000,4.000000,4.000000,4.000000,4.000000,4.000000,4.000000,4.000000,4.000000,4.000000,4.000000,4.000000,4.000000,4.000000,4.000000,100.000000,,,,,,,,,,,,,,,,
1644854693.258538,137.000000,0.000000,4185.769043,4202.436035,4212.820313,4221.025879,4212.948730,4219.615234,4222.179688,4222.820313,4223.461426,4226.794922,4206.538574,4204.230957,4218.846191,4232.307617,3498.000000,4.000000,82.000000,,,,0.000000,4.000000,4.000000,4.000000,4.000000,4.000000,4.000000,4.000000,4.000000,4.000000,4.000000,4.000000,4.000000,4.000000,4.000000,100.000000,,,,,,,,,,,,,,,,
1644854693.262478,138.000000,0.000000,4196.282227,4208.589844,4213.205078,4219.871582,4209.615234,4220.769043,4223.846191,4221.538574,4224.615234,4221.538574,4209.102539,4204.230957,4219.102539,4233.589844,3541.000000,4.000000,82.000000,,,,0.000000,4.000000,4.000000,4.000000,4.000000,4.000000,4.000000,4.000000,4.000000,4.000000,4.000000,4.000000,4.000000,4.000000,4.000000,100.000000,,,,,,,,,,,,,,,,
1644854693.266318,139.000000,0.000000,4208.077148,4215.128418,4211.282227,4219.871582,4208.974121,4220.769043,4226.410156,4220.769043,4225.128418,4214.871582,4219.102539,4200.256348,4221.538574,4240.512695,2530.000000,4.000000,82.000000,,,,0.000000,4.000000,4.000000,4.000000,4.000000,4.000000,4.000000,4.000000,4.000000,4.000000,4.000000,4.000000,4.000000,4.000000,4.000000,100.000000,,,,,,,,,,,,,,,,
1644854693.270258,140.000000,0.000000,4214.615234,4218.461426,4207.436035,4222.563965,4212.436035,4220.769043,4227.051270,4220.256348,4224.487305,4208.974121,4228.589844,4193.974121,4225.256348,4245.897461,3433.000000,4.000000,82.000000,,,,0.000000,4.000000,4.000000,4.000000,4.000000,4.000000,4.000000,4.000000,4.000000,4.000000,4.000000,4.000000,4.000000,4.000000,4.000000,100.000000,,,,,,,,,,,,,,,,
1644854693.274199,141.000000,0.000000,4213.333496,4217.436035,4203.205078,4226.025879,4217.948730,4221.153809,4225.384766,4218.589844,4222.051270,4205.128418,4229.358887,4186.922852,4229.487305,4245.512695,3506.000000,4.000000,82.000000,,,,0.000000,4.000000,4.000000,4.000000,4.000000,4.000000,4.000000,4.000000,4.000000,4.000000,4.000000,4.000000,4.000000,4.000000,4.000000,100.000000,,,,,,,,,,,,,,,,
1644854693.278139,142.000000,0.000000,4206.666504,4214.358887,4201.666504,4227.563965,4222.051270,4221.794922,4223.717773,4215.897461,4218.077148,4203.461426,4220.769043,4181.666504,4232.820313,4241.794922,3541.000000,4.000000,82.000000,,,,0.000000,4.000000,4.000000,4.000000,4.000000,4.000000,4.000000,4.000000,4.000000,4.000000,4.000000,4.000000,4.000000,4.000000,4.000000,100.000000,,,,,,,,,,,,,,,,
1644854693.282079,143.000000,0.000000,4200.256348,4213.077148,4204.358887,4226.922852,4222.820313,4221.922852,4224.102539,4213.333496,4214.487305,4203.974121,4209.743652,4179.615234,4232.820313,4239.871582,2530.000000,4.000000,82.000000,,,,0.000000,4.000000,4.000000,4.000000,4.000000,4.000000,4.000000,4.000000,4.000000,4.000000,4.000000,4.000000,4.000000,4.000000,4.000000,100.000000,,,,,,,,,,,,,,,,
1644854693.286019,144.000000,0.000000,4197.563965,4215.128418,4210.256348,4226.410156,4220.897461,4221.282227,4225.641113,4211.794922,4213.205078,4206.282227,4204.230957,4181.410156,4228.846191,4242.692383,3433.000000,4.000000,82.000000,,,,0.000000,4.000000,4.000000,4.000000,4.000000,4.000000,4.000000,4.000000,4.000000,4.000000,4.000000,4.000000,4.000000,4.000000,4.000000,100.000000,,,,,,,,,,,,,,,,
1644854693.289959,145.000000,0.000000,4199.102539,4218.846191,4216.282227,4228.077148,4218.589844,4219.871582,4225.256348,4211.153809,4214.487305,4208.333496,4205.000000,4185.897461,4222.051270,4248.589844,3506.000000,4.000000,82.000000,,,,0.000000,4.000000,4.000000,4.000000,4.000000,4.000000,4.000000,4.000000,4.000000,4.000000,4.000000,4.000000,4.000000,4.000000,4.000000,100.000000,,,,,,,,,,,,,,,,
1644854693.293899,146.000000,0.000000,4202.436035,4221.025879,4219.487305,4232.179688,4217.692383,4218.589844,4221.794922,4210.641113,4216.666504,4208.205078,4206.538574,4191.282227,4215.128418,4253.589844,3541.000000,4.000000,82.000000,,,,0.000000,4.000000,4.000000,4.000000,4.000000,4.000000,4.000000,4.000000,4.000000,4.000000,4.000000,4.000000,4.000000,4.000000,4.000000,100.000000,,,,,,,,,,,,,,,,
1644854693.297839,147.000000,0.000000,4206.025879,4219.871582,4219.743652,4237.051270,4218.589844,4217.820313,4218.077148,4209.871582,4217.820313,4206.282227,4203.589844,4195.512695,4210.641113,4253.974121,2530.000000,4.000000,82.000000,,,,0.000000,4.000000,4.000000,4.000000,4.000000,4.000000,4.000000,4.000000,4.000000,4.000000,4.000000,4.000000,4.000000,4.000000,4.000000,100.000000,,,,,,,,,,,,,,,,
1644854693.301779,148.000000,0.000000,4209.871582,4217.051270,4218.846191,4240.512695,4220.512695,4217.692383,4217.051270,4209.487305,4217.051270,4205.384766,4196.538574,4197.563965,4210.769043,4249.487305,3433.000000,4.000000,82.000000,,,,0.000000,4.000000,4.000000,4.000000,4.000000,4.000000,4.000000,4.000000,4.000000,4.000000,4.000000,4.000000,4.000000,4.000000,4.000000,100.000000,,,,,,,,,,,,,,,,
1644854693.305719,149.000000,0.000000,4215.384766,4216.282227,4219.230957,4240.384766,4222.307617,4218.205078,4218.205078,4209.102539,4215.897461,4208.333496,4191.794922,4196.922852,4216.282227,4242.563965,3506.000000,4.000000,82.000000,,,,0.000000,4.000000,4.000000,4.000000,4.000000,4.000000,4.000000,4.000000,4.000000,4.000000,4.000000,4.000000,4.000000,4.000000,4.000000,100.000000,,,,,,,,,,,,,,,,
1644854693.309660,150.000000,0.000000,4222.820313,4220.641113,4221.794922,4236.153809,4223.589844,4218.846191,4218.717773,4208.205078,4215.897461,4214.487305,4195.769043,4194.358887,4225.384766,4237.563965,3541.000000,4.000000,82.000000,,,,0.000000,4.000000,4.000000,4.000000,4.000000,4.000000,4.000000,4.000000,4.000000,4.000000,4.000000,4.000000,4.000000,4.000000,4.000000,100.000000,,,,,,,,,,,,,,,,
1644854693.313600,151.000000,0.000000,4230.897461,4229.102539,4225.256348,4230.128418,4224.358887,4219.358887,4216.922852,4207.307617,4216.922852,4219.871582,4207.436035,4192.307617,4234.230957,4238.333496,2530.000000,4.000000,82.000000,,,,0.000000,4.000000,4.000000,4.000000,4.000000,4.000000,4.000000,4.000000,4.000000,4.000000,4.000000,4.000000,4.000000,4.000000,4.000000,100.000000,,,,,,,,,,,,,,,,
1644854693.317540,152.000000,0.000000,4236.666504,4237.436035,4227.692383,4226.794922,4224.743652,4219.102539,4214.743652,4206.794922,4217.563965,4220.641113,4219.487305,4192.820313,4238.589844,4244.615234,3433.000000,4.000000,82.000000,,,,0.000000,4.000000,4.000000,4.000000,4.000000,4.000000,4.000000,4.000000,4.000000,4.000000,4.000000,4.000000,4.000000,4.000000,4.000000,100.000000,,,,,,,,,,,,,,,,
1644854693.321480,153.000000,0.000000,4237.692383,4240.641113,4227.820313,4229.615234,4224.615234,4218.077148,4214.743652,4206.922852,4216.666504,4216.538574,4223.589844,4195.641113,4237.179688,4252.179688,3506.000000,4.000000,82.000000,,,,0.000000,4.000000,4.000000,4.000000,4.000000,4.000000,4.000000,4.000000,4.000000,4.000000,4.000000,4.000000,4.000000,4.000000,4.000000,100.000000,,,,,,,,,,,,,,,,
1644854693.325420,154.000000,0.000000,4233.461426,4237.307617,4225.641113,4238.333496,4224.102539,4216.410156,4217.051270,4207.436035,4214.487305,4211.025879,4218.077148,4198.077148,4232.051270,4255.641113,3541.000000,4.000000,82.000000,,,,0.000000,4.000000,4.000000,4.000000,4.000000,4.000000,4.000000,4.000000,4.000000,4.000000,4.000000,4.000000,4.000000,4.000000,4.000000,100.000000,,,,,,,,,,,,,,,,
1644854693.329360,155.000000,0.000000,4226.025879,4229.743652,4223.077148,4248.589844,4222.820313,4215.641113,4218.974121,4208.717773,4212.436035,4207.948730,4208.205078,4197.051270,4226.538574,4252.948730,2530.000000,4.000000,82.000000,,,,0.000000,4.000000,4.000000,4.000000,4.000000,4.000000,4.000000,4.000000,4.000000,4.000000,4.000000,4.000000,4.000000,4.000000,4.000000,100.000000,,,,,,,,,,,,,,,,
1644854693.333200,156.000000,0.000000,4218.974121,4222.563965,4222.051270,4253.589844,4221.282227,4216.282227,4218.589844,4210.769043,4211.282227,4208.846191,4201.538574,4192.307617,4222.051270,4247.051270,3433.000000,4.000000,82.000000,,,,0.000000,4.000000,4.000000,4.000000,4.000000,4.000000,4.000000,4.000000,4.000000,4.000000,4.000000,4.000000,4.000000,4.000000,4.000000,100.000000,,,,,,,,,,,,,,,,
1644854693.337140,157.000000,0.000000,4216.410156,4219.743652,4223.846191,4249.102539,4220.128418,4217.692383,4217.179688,4213.461426,4211.410156,4212.563965,4201.794922,4186.922852,4219.230957,4243.333496,3506.000000,4.000000,82.000000,,,,0.000000,4.000000,4.000000,4.000000,4.000000,4.000000,4.000000,4.000000,4.000000,4.000000,4.000000,4.000000,4.000000,4.000000,4.000000,100.000000,,,,,,,,,,,,,,,,
1644854693.341080,158.000000,0.000000,4220.769043,4221.666504,4227.692383,4237.692383,4219.871582,4218.974121,4217.436035,4216.025879,4212.692383,4216.922852,4207.563965,4185.256348,4219.102539,4244.230957,3541.000000,4.000000,82.000000,,,,0.000000,4.000000,4.000000,4.000000,4.000000,4.000000,4.000000,4.000000,4.000000,4.000000,4.000000,4.000000,4.000000,4.000000,4.000000,100.000000,,,,,,,,,,,,,,,,
1644854693.345021,159.000000,0.000000,4230.512695,4226.538574,4231.410156,4227.820313,4220.641113,4219.358887,4219.743652,4217.692383,4214.743652,4220.384766,4213.717773,4190.128418,4222.948730,4248.077148,2530.000000,4.000000,82.000000,,,,0.000000,4.000000,4.000000,4.000000,4.000000,4.000000,4.000000,4.000000,4.000000,4.000000,4.000000,4.000000,4.000000,4.000000,4.000000,100.000000,,,,,,,,,,,,,,,,
1644854693.348961,160.000000,0.000000,4240.384766,4231.538574,4233.205078,4227.307617,4222.179688,4219.487305,4221.666504,4217.692383,4216.666504,4222.051270,4215.512695,4200.000000,4229.871582,4251.282227,3433.000000,4.000000,82.000000,,,,0.000000,4.000000,4.000000,4.000000,4.000000,4.000000,4.000000,4.000000,4.000000,4.000000,4.000000,4.000000,4.000000,4.000000,4.000000,100.000000,,,,,,,,,,,,,,,,
1644854693.352901,161.000000,0.000000,4244.871582,4234.487305,4233.205078,4237.307617,4224.102539,4220.256348,4221.282227,4216.153809,4217.436035,4221.410156,4212.436035,4210.384766,4236.794922,4252.307617,3506.000000,4.000000,82.000000,,,,0.000000,4.000000,4.000000,4.000000,4.000000,4.000000,4.000000,4.000000,4.000000,4.000000,4.000000,4.000000,4.000000,4.000000,4.000000,100.000000,,,,,,,,,,,,,,,,
1644854693.356841,162.000000,0.000000,4243.077148,4234.230957,4232.692383,4251.666504,4226.153809,4222.436035,4220.000000,4213.717773,4216.794922,4218.717773,4207.563965,4215.769043,4239.743652,4252.563965,3541.000000,4.000000,82.000000,,,,0.000000,4.000000,4.000000,4.000000,4.000000,4.000000,4.000000,4.000000,4.000000,4.000000,4.000000,4.000000,4.000000,4.000000,4.000000,100.000000,,,,,,,,,,,,,,,,
1644854693.360781,163.000000,0.000000,4238.077148,4231.538574,4232.563965,4261.153809,4228.717773,4225.512695,4220.256348,4211.538574,4214.743652,4214.871582,4204.487305,4213.077148,4237.307617,4252.436035,2530.000000,4.000000,82.000000,,,,0.000000,4.000000,4.000000,4.000000,4.000000,4.000000,4.000000,4.000000,4.000000,4.000000,4.000000,4.000000,4.000000,4.000000,4.000000,100.000000,,,,,,,,,,,,,,,,
1644854693.364721,164.000000,0.000000,4234.358887,4228.589844,4231.666504,4260.000000,4232.307617,4228.205078,4221.794922,4210.384766,4212.563965,4212.307617,4204.615234,4204.102539,4231.794922,4249.871582,3433.000000,4.000000,82.000000,,,,0.000000,4.000000,4.000000,4.000000,4.000000,4.000000,4.000000,4.000000,4.000000,4.000000,4.000000,4.000000,4.000000,4.000000,4.000000,100.000000,,,,,,,,,,,,,,,,
1644854693.368661,165.000000,0.000000,4232.948730,4228.846191,4228.846191,4248.589844,4236.538574,4229.871582,4222.692383,4210.128418,4212.179688,4213.589844,4207.563965,4193.846191,4227.820313,4242.692383,3506.000000,4.000000,82.000000,,,,0.000000,4.000000,4.000000,4.000000,4.000000,4.000000,4.000000,4.000000,4.000000,4.000000,4.000000,4.000000,4.000000,4.000000,4.000000,100.000000,,,,,,,,,,,,,,,,
1644854693.372601,166.000000,0.000000,4231.666504,4233.717773,4224.358887,4233.717773,4240.256348,4230.769043,4221.538574,4210.897461,4214.230957,4219.743652,4213.077148,4187.563965,4229.358887,4233.333496,3541.000000,4.000000,82.000000,,,,0.000000,4.000000,4.000000,4.000000,4.000000,4.000000,4.000000,4.000000,4.000000,4.000000,4.000000,4.000000,4.000000,4.000000,4.000000,100.000000,,,,,,,,,,,,,,,,
1644854693.376541,167.000000,0.000000,4227.948730,4240.512695,4220.769043,4223.077148,4241.410156,4231.410156,4220.128418,4212.692383,4218.205078,4228.205078,4219.871582,4187.307617,4236.794922,4228.205078,2530.000000,4.000000,82.000000,,,,0.000000,4.000000,4.000000,4.000000,4.000000,4.000000,4.000000,4.000000,4.000000,4.000000,4.000000,4.000000,4.000000,4.000000,4.000000,100.000000,,,,,,,,,,,,,,,,
1644854693.380482,168.000000,0.000000,4222.820313,4245.000000,4220.769043,4220.897461,4238.974121,4231.794922,4220.641113,4215.384766,4222.563965,4234.871582,4225.256348,4191.538574,4247.051270,4232.307617,3433.000000,4.000000,82.000000,,,,0.000000,4.000000,4.000000,4.000000,4.000000,4.000000,4.000000,4.000000,4.000000,4.000000,4.000000,4.000000,4.000000,4.000000,4.000000,100.000000,,,,,,,,,,,,,,,,
1644854693.384422,169.000000,0.000000,4221.538574,4244.487305,4225.000000,4226.666504,4235.128418,4231.282227,4223.077148,4218.461426,4226.410156,4237.436035,4226.282227,4197.179688,4255.641113,4242.692383,3506.000000,4.000000,82.000000,,,,0.000000,4.000000,4.000000,4.000000,4.000000,4.000000,4.000000,4.000000,4.000000,4.000000,4.000000,4.000000,4.000000,4.000000,4.000000,100.000000,,,,,,,,,,,,,,,,
1644854693.388362,170.000000,0.000000,4228.589844,4240.641113,4230.384766,4237.563965,4232.692383,4229.743652,4224.487305,4221.538574,4229.743652,4237.563965,4223.846191,4201.922852,4260.897461,4251.538574,3541.000000,4.000000,82.000000,,,,0.000000,4.000000,4.000000,4.000000,4.000000,4.000000,4.000000,4.000000,4.000000,4.000000,4.000000,4.000000,4.000000,4.000000,4.000000,100.000000,,,,,,,,,,,,,,,,
1644854693.392302,171.000000,0.000000,4242.692383,4237.563965,4233.205078,4249.102539,4233.205078,4228.077148,4223.589844,4224.615234,4233.205078,4238.333496,4221.538574,4204.871582,4263.205078,4252.948730,2530.000000,4.000000,82.000000,,,,0.000000,4.000000,4.000000,4.000000,4.000000,4.000000,4.000000,4.000000,4.000000,4.000000,4.000000,4.000000,4.000000,4.000000,4.000000,100.000000,,,,,,,,,,,,,,,,
1644854693.396242,172.000000,0.000000,4255.512695,4237.179688,4232.051270,4256.794922,4235.256348,4227.051270,4222.307617,4227.051270,4235.769043,4240.256348,4222.179688,4205.128418,4263.461426,4248.077148,3433.000000,4.000000,82.000000,,,,0.000000,4.000000,4.000000,4.000000,4.000000,4.000000,4.000000,4.000000,4.000000,4.000000,4.000000,4.000000,4.000000,4.000000,4.000000,100.000000,,,,,,,,,,,,,,,,
1644854693.400182,173.000000,0.000000,4256.794922,4238.333496,4228.205078,4256.410156,4236.025879,4226.922852,4223.205078,4227.692383,4235.897461,4239.487305,4223.846191,4202.563965,4260.256348,4241.794922,3506.000000,4.000000,82.000000,,,,0.000000,4.000000,4.000000,4.000000,4.000000,4.000000,4.000000,4.000000,4.000000,4.000000,4.000000,4.000000,4.000000,4.000000,4.000000,100.000000,,,,,,,,,,,,,,,,
1644854693.404222,174.000000,0.000000,4243.846191,4237.692383,4223.974121,4247.436035,4232.948730,4227.179688,4226.025879,4225.641113,4232.820313,4232.948730,4221.282227,4197.307617,4250.512695,4236.410156,3541.000000,4.000000,82.000000,,,,0.000000,4.000000,4.000000,4.000000,4.000000,4.000000,4.000000,4.000000,4.000000,4.000000,4.000000,4.000000,4.000000,4.000000,4.000000,100.000000,,,,,,,,,,,,,,,,
1644854693.408162,175.000000,0.000000,4223.589844,4233.333496,4220.000000,4234.358887,4226.922852,4226.538574,4227.436035,4221.922852,4227.692383,4222.179688,4211.410156,4190.384766,4233.205078,4230.512695,2530.000000,4.000000,82.000000,,,,0.000000,4.000000,4.000000,4.000000,4.000000,4.000000,4.000000,4.000000,4.000000,4.000000,4.000000,4.000000,4.000000,4.000000,4.000000,100.000000,,,,,,,,,,,,,,,,
1644854693.412102,176.000000,0.000000,4206.794922,4226.153809,4215.000000,4225.000000,4220.384766,4224.615234,4225.512695,4218.717773,4223.205078,4213.717773,4196.922852,4183.077148,4212.563965,4222.563965,3433.000000,4.000000,82.000000,,,,0.000000,4.000000,4.000000,4.000000,4.000000,4.000000,4.000000,4.000000,4.000000,4.000000,4.000000,4.000000,4.000000,4.000000,4.000000,100.000000,,,,,,,,,,,,,,,,
1644854693.416042,177.000000,0.000000,4199.102539,4218.461426,4207.948730,4224.230957,4216.282227,4221.538574,4222.307617,4217.436035,4220.769043,4212.692383,4185.128418,4176.153809,4196.666504,4214.871582,3506.000000,4.000000,82.000000,,,,0.000000,4.000000,4.000000,4.000000,4.000000,4.000000,4.000000,4.000000,4.000000,4.000000,4.000000,4.000000,4.000000,4.000000,4.000000,100.000000,,,,,,,,,,,,,,,,
1644854693.419982,178.000000,0.000000,4197.692383,4212.692383,4200.000000,4229.615234,4215.128418,4218.461426,4221.922852,4218.589844,4220.128418,4218.077148,4182.563965,4170.384766,4192.051270,4210.769043,3541.000000,4.000000,82.000000,,,,0.000000,4.000000,4.000000,4.000000,4.000000,4.000000,4.000000,4.000000,4.000000,4.000000,4.000000,4.000000,4.000000,4.000000,4.000000,100.000000,,,,,,,,,,,,,,,,
1644854693.423923,179.000000,0.000000,4196.153809,4209.230957,4193.205078,4232.307617,4216.025879,4216.666504,4225.128418,4220.384766,4219.615234,4223.717773,4189.102539,4166.666504,4199.487305,4210.384766,2530.000000,4.000000,82.000000,,,,0.000000,4.000000,4.000000,4.000000,4.000000,4.000000,4.000000,4.000000,4.000000,4.000000,4.000000,4.000000,4.000000,4.000000,4.000000,100.000000,,,,,,,,,,,,,,,,
1644854693.427863,180.000000,0.000000,4191.025879,4206.538574,4189.102539,4225.000000,4216.666504,4216.282227,4228.461426,4220.512695,4217.820313,4223.846191,4198.333496,4165.512695,4212.820313,4210.000000,3433.000000,4.000000,82.000000,,,,0.000000,4.000000,4.000000,4.000000,4.000000,4.000000,4.000000,4.000000,4.000000,4.000000,4.000000,4.000000,4.000000,4.000000,4.000000,100.000000,,,,,,,,,,,,,,,,
1644854693.431803,181.000000,0.000000,4184.615234,4203.205078,4187.563965,4208.461426,4214.871582,4216.025879,4228.077148,4217.563965,4214.743652,4217.820313,4201.666504,4165.769043,4223.717773,4206.410156,3506.000000,4.000000,82.000000,,,,0.000000,4.000000,4.000000,4.000000,4.000000,4.000000,4.000000,4.000000,4.000000,4.000000,4.000000,4.000000,4.000000,4.000000,4.000000,100.000000,,,,,,,,,,,,,,,,
1644854693.435743,182.000000,0.000000,4181.410156,4198.974121,4188.077148,4192.820313,4210.641113,4215.256348,4224.615234,4213.589844,4211.794922,4210.256348,4195.641113,4165.769043,4227.179688,4200.512695,3541.000000,4.000000,82.000000,,,,0.000000,4.000000,4.000000,4.000000,4.000000,4.000000,4.000000,4.000000,4.000000,4.000000,4.000000,4.000000,4.000000,4.000000,4.000000,100.000000,,,,,,,,,,,,,,,,
1644854693.439683,183.000000,0.000000,4182.436035,4195.256348,4190.128418,4189.102539,4206.538574,4214.487305,4222.436035,4212.436035,4210.512695,4206.282227,4184.743652,4165.256348,4224.615234,4196.666504,2530.000000,4.000000,82.000000,,,,0.000000,4.000000,4.000000,4.000000,4.000000,4.000000,4.000000,4.000000,4.000000,4.000000,4.000000,4.000000,4.000000,4.000000,4.000000,100.000000,,,,,,,,,,,,,,,,
1644854693.443623,184.000000,0.000000,4185.256348,4194.358887,4193.333496,4200.769043,4206.410156,4215.641113,4224.615234,4215.769043,4211.282227,4207.051270,4178.717773,4166.538574,4221.410156,4198.077148,3433.000000,4.000000,82.000000,,,,0.000000,4.000000,4.000000,4.000000,4.000000,4.000000,4.000000,4.000000,4.000000,4.000000,4.000000,4.000000,4.000000,4.000000,4.000000,100.000000,,,,,,,,,,,,,,,,
1644854693.447563,185.000000,0.000000,4186.538574,4196.538574,4197.307617,4220.384766,4211.410156,4219.615234,4229.615234,4221.794922,4213.846191,4209.871582,4184.743652,4172.179688,4221.410156,4204.487305,3506.000000,4.000000,82.000000,,,,0.000000,4.000000,4.000000,4.000000,4.000000,4.000000,4.000000,4.000000,4.000000,4.000000,4.000000,4.000000,4.000000,4.000000,4.000000,100.000000,,,,,,,,,,,,,,,,
1644854693.451503,186.000000,0.000000,4185.641113,4200.384766,4201.153809,4236.282227,4218.589844,4224.487305,4233.077148,4226.282227,4217.179688,4210.641113,4201.538574,4181.410156,4223.974121,4213.205078,3541.000000,4.000000,82.000000,,,,0.000000,4.000000,4.000000,4.000000,4.000000,4.000000,4.000000,4.000000,4.000000,4.000000,4.000000,4.000000,4.000000,4.000000,4.000000,100.000000,,,,,,,,,,,,,,,,
1644854693.455443,187.000000,0.000000,4185.384766,4203.077148,4204.230957,4240.641113,4222.820313,4226.794922,4232.179688,4226.666504,4220.000000,4208.205078,4219.743652,4189.743652,4224.615234,4221.153809,2530.000000,4.000000,82.000000,,,,0.000000,4.000000,4.000000,4.000000,4.000000,4.000000,4.000000,4.000000,4.000000,4.000000,4.000000,4.000000,4.000000,4.000000,4.000000,100.000000,,,,,,,,,,,,,,,,
1644854693.459384,188.000000,0.000000,4189.230957,4204.358887,4206.410156,4234.615234,4221.410156,4224.615234,4228.205078,4223.461426,4220.384766,4205.128418,4228.846191,4192.179688,4220.897461,4227.051270,3433.000000,4.000000,82.000000,,,,0.000000,4.000000,4.000000,4.000000,4.000000,4.000000,4.000000,4.000000,4.000000,4.000000,4.000000,4.000000,4.000000,4.000000,4.000000,100.000000,,,,,,,,,,,,,,,,
1644854693.463324,189.000000,0.000000,4198.589844,4206.282227,4207.563965,4225.897461,4216.153809,4219.487305,4223.589844,4219.487305,4217.948730,4204.743652,4223.589844,4187.051270,4216.025879,4229.615234,3506.000000,4.000000,82.000000,,,,0.000000,4.000000,4.000000,4.000000,4.000000,4.000000,4.000000,4.000000,4.000000,4.000000,4.000000,4.000000,4.000000,4.000000,4.000000,100.000000,,,,,,,,,,,,,,,,
1644854693.467264,190.000000,0.000000,4209.743652,4210.897461,4207.948730,4222.179688,4211.538574,4214.615234,4219.615234,4216.922852,4213.717773,4207.563965,4206.922852,4177.563965,4216.282227,4227.820313,3541.000000,4.000000,82.000000,,,,0.000000,4.000000,4.000000,4.000000,4.000000,4.000000,4.000000,4.000000,4.000000,4.000000,4.000000,4.000000,4.000000,4.000000,4.000000,100.000000,,,,,,,,,,,,,,,,
1644854693.471204,191.000000,0.000000,4216.538574,4217.948730,4208.205078,4226.538574,4210.897461,4212.820313,4216.538574,4215.512695,4210.384766,4211.538574,4187.051270,4169.743652,4224.102539,4221.666504,2530.000000,4.000000,82.000000,,,,0.000000,4.000000,4.000000,4.000000,4.000000,4.000000,4.000000,4.000000,4.000000,4.000000,4.000000,4.000000,4.000000,4.000000,4.000000,100.000000,,,,,,,,,,,,,,,,
1644854693.475144,192.000000,0.000000,4214.743652,4224.102539,4209.487305,4236.153809,4213.589844,4214.230957,4215.256348,4214.743652,4209.358887,4212.948730,4173.077148,4168.205078,4234.871582,4213.717773,3433.000000,4.000000,82.000000,,,,0.000000,4.000000,4.000000,4.000000,4.000000,4.000000,4.000000,4.000000,4.000000,4.000000,4.000000,4.000000,4.000000,4.000000,4.000000,100.000000,1.000000,91.666664,4.000000,4.000000,4.000000,4.000000,4.000000,4.000000,3.000000,4.000000,4.000000,4.000000,4.000000,4.000000,4.000000,4.000000
1644854693.479184,193.000000,0.000000,4206.794922,4226.922852,4212.820313,4245.256348,4216.410156,4217.307617,4217.179688,4215.256348,4210.128418,4211.153809,4170.769043,4173.077148,4239.615234,4207.820313,3506.000000,4.000000,82.000000,,,,0.000000,4.000000,4.000000,4.000000,4.000000,4.000000,4.000000,4.000000,4.000000,4.000000,4.000000,4.000000,4.000000,4.000000,4.000000,100.000000,,,,,,,,,,,,,,,,
1644854693.483124,194.000000,0.000000,4200.000000,4227.307617,4217.436035,4249.358887,4217.179688,4220.000000,4221.666504,4217.820313,4211.153809,4208.461426,4180.769043,4180.897461,4233.717773,4205.897461,3541.000000,4.000000,82.000000,,,,0.000000,4.000000,4.000000,4.000000,4.000000,4.000000,4.000000,4.000000,4.000000,4.000000,4.000000,4.000000,4.000000,4.000000,4.000000,100.000000,,,,,,,,,,,,,,,,
1644854693.487064,195.000000,0.000000,4200.769043,4228.333496,4221.153809,4247.820313,4216.282227,4221.666504,4225.769043,4221.666504,4211.922852,4208.333496,4198.461426,4187.179688,4221.410156,4207.436035,2530.000000,4.000000,82.000000,,,,0.000000,4.000000,4.000000,4.000000,4.000000,4.000000,4.000000,4.000000,4.000000,4.000000,4.000000,4.000000,4.000000,4.000000,4.000000,100.000000,,,,,,,,,,,,,,,,
1644854693.491004,196.000000,0.000000,4210.000000,4231.922852,4221.410156,4242.692383,4216.410156,4222.436035,4226.282227,4224.358887,4212.820313,4211.410156,4216.025879,4189.743652,4212.179688,4210.384766,3433.000000,4.000000,82.000000,,,,0.000000,4.000000,4.000000,4.000000,4.000000,4.000000,4.000000,4.000000,4.000000,4.000000,4.000000,4.000000,4.000000,4.000000,4.000000,100.000000,,,,,,,,,,,,,,,,
1644854693.494944,197.000000,0.000000,4221.794922,4235.512695,4218.077148,4237.820313,4218.461426,4222.179688,4223.205078,4223.846191,4213.333496,4214.743652,4226.025879,4189.230957,4211.922852,4213.077148,3506.000000,4.000000,82.000000,,,,0.000000,4.000000,4.000000,4.000000,4.000000,4.000000,4.000000,4.000000,4.000000,4.000000,4.000000,4.000000,4.000000,4.000000,4.000000,100.000000,,,,,,,,,,,,,,,,
1644854693.498884,198.000000,0.000000,4228.205078,4235.000000,4213.077148,4235.384766,4220.512695,4220.256348,4219.743652,4219.487305,4211.922852,4213.974121,4224.102539,4187.179688,4217.692383,4215.641113,3541.000000,4.000000,82.000000,,,,0.000000,4.000000,4.000000,4.000000,4.000000,4.000000,4.000000,4.000000,4.000000,4.000000,4.000000,4.000000,4.000000,4.000000,4.000000,100.000000,,,,,,,,,,,,,,,,
1644854693.502825,199.000000,0.000000,4225.384766,4228.333496,4208.333496,4235.384766,4219.743652,4216.153809,4218.205078,4213.077148,4207.820313,4208.333496,4211.538574,4183.846191,4221.410156,4217.820313,2530.000000,4.000000,82.000000,,,,0.000000,4.000000,4.000000,4.000000,4.000000,4.000000,4.000000,4.000000,4.000000,4.000000,4.000000,4.000000,4.000000,4.000000,4.000000,100.000000,,,,,,,,,,,,,,,,
1644854693.506765,200.000000,0.000000,4215.897461,4218.846191,4205.256348,4235.769043,4215.256348,4211.025879,4217.692383,4206.922852,4202.051270,4200.256348,4194.871582,4179.230957,4217.948730,4219.358887,3433.000000,4.000000,82.000000,,,,0.000000,4.000000,4.000000,4.000000,4.000000,4.000000,4.000000,4.000000,4.000000,4.000000,4.000000,4.000000,4.000000,4.000000,4.000000,100.000000,,,,,,,,,,,,,,,,
1644854693.510705,201.000000,0.000000,4206.794922,4212.436035,4204.487305,4234.487305,4209.615234,4206.794922,4216.282227,4202.948730,4197.051270,4194.230957,4182.179688,4173.717773,4210.256348,4220.256348,3506.000000,4.000000,82.000000,,,,0.000000,4.000000,4.000000,4.000000,4.000000,4.000000,4.000000,4.000000,4.000000,4.000000,4.000000,4.000000,4.000000,4.000000,4.000000,100.000000,,,,,,,,,,,,,,,,
1644854693.514645,202.000000,0.000000,4203.846191,4212.948730,4206.410156,4230.897461,4206.410156,4205.256348,4213.846191,4201.666504,4194.871582,4192.692383,4178.077148,4169.487305,4205.512695,4222.051270,3541.000000,4.000000,82.000000,,,,0.000000,4.000000,4.000000,4.000000,4.000000,4.000000,4.000000,4.000000,4.000000,4.000000,4.000000,4.000000,4.000000,4.000000,4.000000,100.000000,,,,,,,,,,,,,,,,
1644854693.518585,203.000000,0.000000,4208.846191,4219.230957,4210.000000,4226.282227,4207.436035,4206.794922,4213.333496,4202.436035,4195.512695,4195.512695,4181.025879,4168.974121,4208.589844,4225.769043,2530.000000,4.000000,82.000000,,,,0.000000,4.000000,4.000000,4.000000,4.000000,4.000000,4.000000,4.000000,4.000000,4.000000,4.000000,4.000000,4.000000,4.000000,4.000000,100.000000,,,,,,,,,,,,,,,,
1644854693.522525,204.000000,0.000000,4217.948730,4225.769043,4213.589844,4224.102539,4211.666504,4210.128418,4215.769043,4203.846191,4197.692383,4200.000000,4185.897461,4172.820313,4217.563965,4229.743652,3433.000000,4.000000,82.000000,,,,0.000000,4.000000,4.000000,4.000000,4.000000,4.000000,4.000000,4.000000,4.000000,4.000000,4.000000,4.000000,4.000000,4.000000,4.000000,100.000000,,,,,,,,,,,,,,,,
1644854693.526465,205.000000,0.000000,4225.384766,4228.077148,4215.256348,4227.307617,4215.641113,4213.717773,4219.487305,4204.871582,4200.256348,4203.974121,4188.846191,4179.743652,4226.282227,4229.615234,3506.000000,4.000000,82.000000,,,,0.000000,4.000000,4.000000,4.000000,4.000000,4.000000,4.000000,4.000000,4.000000,4.000000,4.000000,4.000000,4.000000,4.000000,4.000000,100.000000,,,,,,,,,,,,,,,,
1644854693.530405,206.000000,0.000000,4227.051270,4225.128418,4214.871582,4234.358887,4216.538574,4216.410156,4221.282227,4206.282227,4203.205078,4206.410156,4190.000000,4186.282227,4230.128418,4223.461426,3541.000000,4.000000,82.000000,,,,0.000000,4.000000,4.000000,4.000000,4.000000,4.000000,4.000000,4.000000,4.000000,4.000000,4.000000,4.000000,4.000000,4.000000,4.000000,100.000000,,,,,,,,,,,,,,,,
1644854693.534345,207.000000,0.000000,4222.820313,4219.487305,4213.974121,4239.487305,4213.974121,4217.307617,4220.769043,4209.230957,4205.897461,4206.922852,4191.282227,4189.615234,4228.974121,4215.000000,2530.000000,4.000000,82.000000,,,,0.000000,4.000000,4.000000,4.000000,4.000000,4.000000,4.000000,4.000000,4.000000,4.000000,4.000000,4.000000,4.000000,4.000000,4.000000,100.000000,,,,,,,,,,,,,,,,
1644854693.538286,208.000000,0.000000,4216.282227,4214.358887,4214.358887,4236.922852,4209.615234,4216.794922,4219.871582,4213.717773,4207.051270,4206.153809,4193.077148,4188.717773,4226.282227,4210.384766,3433.000000,4.000000,82.000000,,,,0.000000,4.000000,4.000000,4.000000,4.000000,4.000000,4.000000,4.000000,4.000000,4.000000,4.000000,4.000000,4.000000,4.000000,4.000000,100.000000,,,,,,,,,,,,,,,,
1644854693.542226,209.000000,0.000000,4212.307617,4211.538574,4215.897461,4227.307617,4205.897461,4215.128418,4220.641113,4217.692383,4206.410156,4205.384766,4193.974121,4185.769043,4224.358887,4211.922852,3506.000000,4.000000,82.000000,,,,0.000000,4.000000,4.000000,4.000000,4.000000,4.000000,4.000000,4.000000,4.000000,4.000000,4.000000,4.000000,4.000000,4.000000,4.000000,100.000000,,,,,,,,,,,,,,,,
1644854693.546166,210.000000,0.000000,4213.589844,4210.128418,4217.307617,4218.333496,4205.769043,4214.230957,4221.922852,4218.974121,4205.256348,4206.666504,4193.461426,4183.461426,4222.563965,4216.538574,3541.000000,4.000000,82.000000,,,,0.000000,4.000000,4.000000,4.000000,4.000000,4.000000,4.000000,4.000000,4.000000,4.000000,4.000000,4.000000,4.000000,4.000000,4.000000,100.000000,,,,,,,,,,,,,,,,
1644854693.550206,211.000000,0.000000,4218.461426,4208.717773,4217.563965,4218.461426,4210.769043,4215.384766,4221.794922,4217.051270,4206.410156,4211.282227,4193.077148,4184.358887,4218.589844,4220.128418,2530.000000,4.000000,82.000000,,,,0.000000,4.000000,4.000000,4.000000,4.000000,4.000000,4.000000,4.000000,4.000000,4.000000,4.000000,4.000000,4.000000,4.000000,4.000000,100.000000,,,,,,,,,,,,,,,,
1644854693.554146,212.000000,0.000000,4222.563965,4206.922852,4217.179688,4228.333496,4219.743652,4218.589844,4219.871582,4214.358887,4211.025879,4218.333496,4195.641113,4188.717773,4212.051270,4221.282227,3433.000000,4.000000,82.000000,,,,0.000000,4.000000,4.000000,4.000000,4.000000,4.000000,4.000000,4.000000,4.000000,4.000000,4.000000,4.000000,4.000000,4.000000,4.000000,100.000000,,,,,,,,,,,,,,,,
1644854693.558086,213.000000,0.000000,4222.692383,4206.153809,4217.179688,4240.512695,4228.205078,4221.410156,4218.205078,4214.230957,4217.820313,4225.384766,4201.666504,4195.000000,4205.897461,4222.051270,3506.000000,4.000000,82.000000,,,,0.000000,4.000000,4.000000,4.000000,4.000000,4.000000,4.000000,4.000000,4.000000,4.000000,4.000000,4.000000,4.000000,4.000000,4.000000,100.000000,,,,,,,,,,,,,,,,
