title:Alex-_5eL1YN_wdw_dfeMdeP2sQ, start timestamp:1644852603.243576, stop timestamp:1644852628.943585, headset type:EPOCPLUS, headset serial:3B9AEBFF, headset firmware:626, channels:55, sampling rate:eeg_256, samples:6524      , version:2.1, 
Timestamp,EEG.Counter,EEG.Interpolated,EEG.AF3,EEG.F7,EEG.F3,EEG.FC5,EEG.T7,EEG.P7,EEG.O1,EEG.O2,EEG.P8,EEG.T8,EEG.FC6,EEG.F4,EEG.F8,EEG.AF4,EEG.RawCq,EEG.Battery,EEG.BatteryPercent,MarkerIndex,MarkerType,MarkerValueInt,EEG.MarkerHardware,CQ.AF3,CQ.F7,CQ.F3,CQ.FC5,CQ.T7,CQ.P7,CQ.O1,CQ.O2,CQ.P8,CQ.T8,CQ.FC6,CQ.F4,CQ.F8,CQ.AF4,CQ.Overall,EQ.SampleRateQuality,EQ.OVERALL,EQ.AF3,EQ.F7,EQ.F3,EQ.FC5,EQ.T7,EQ.P7,EQ.O1,EQ.O2,EQ.P8,EQ.T8,EQ.FC6,EQ.F4,EQ.F8,EQ.AF4
1644852603.243576,182.000000,0.000000,4232.692383,4222.692383,4212.179688,4221.410156,4207.179688,4224.230957,4216.153809,4223.461426,4223.205078,4226.666504,4214.743652,4203.333496,4223.589844,4228.461426,3637.000000,4.000000,91.000000,,,,0.000000,4.000000,4.000000,4.000000,4.000000,4.000000,4.000000,4.000000,4.000000,4.000000,4.000000,4.000000,4.000000,4.000000,4.000000,100.000000,,,,,,,,,,,,,,,,
1644852603.247616,183.000000,0.000000,4222.948730,4221.282227,4211.282227,4214.358887,4206.922852,4226.282227,4215.256348,4221.025879,4223.589844,4225.000000,4211.794922,4203.333496,4221.282227,4226.922852,3438.000000,4.000000,91.000000,,,,0.000000,4.000000,4.000000,4.000000,4.000000,4.000000,4.000000,4.000000,4.000000,4.000000,4.000000,4.000000,4.000000,4.000000,4.000000,100.000000,,,,,,,,,,,,,,,,
1644852603.251556,184.000000,0.000000,4215.128418,4216.410156,4208.974121,4210.128418,4213.205078,4226.666504,4216.538574,4217.436035,4223.205078,4220.384766,4211.666504,4202.692383,4216.410156,4220.384766,3424.000000,4.000000,91.000000,,,,0.000000,4.000000,4.000000,4.000000,4.000000,4.000000,4.000000,4.000000,4.000000,4.000000,4.000000,4.000000,4.000000,4.000000,4.000000,100.000000,,,,,,,,,,,,,,,,
1644852603.255496,185.000000,0.000000,4210.256348,4209.230957,4204.743652,4207.179688,4222.051270,4224.871582,4217.948730,4214.230957,4221.410156,4213.974121,4214.871582,4199.487305,4209.487305,4211.410156,3476.000000,4.000000,91.000000,,,,0.000000,4.000000,4.000000,4.000000,4.000000,4.000000,4.000000,4.000000,4.000000,4.000000,4.000000,4.000000,4.000000,4.000000,4.000000,100.000000,,,,,,,,,,,,,,,,
1644852603.259436,186.000000,0.000000,4206.794922,4202.692383,4199.102539,4203.589844,4227.820313,4221.922852,4217.051270,4212.307617,4218.461426,4207.692383,4219.358887,4193.974121,4202.948730,4204.230957,3637.000000,4.000000,91.000000,,,,0.000000,4.000000,4.000000,4.000000,4.000000,4.000000,4.000000,4.000000,4.000000,4.000000,4.000000,4.000000,4.000000,4.000000,4.000000,100.000000,,,,,,,,,,,,,,,,
1644852603.263377,187.000000,0.000000,4203.333496,4199.743652,4193.717773,4199.102539,4227.692383,4218.974121,4213.717773,4212.563965,4214.615234,4203.333496,4221.794922,4187.692383,4198.461426,4202.307617,3438.000000,4.000000,91.000000,,,,0.000000,4.000000,4.000000,4.000000,4.000000,4.000000,4.000000,4.000000,4.000000,4.000000,4.000000,4.000000,4.000000,4.000000,4.000000,100.000000,,,,,,,,,,,,,,,,
1644852603.267317,188.000000,0.000000,4198.974121,4201.025879,4190.641113,4194.615234,4222.563965,4217.051270,4211.282227,4214.487305,4211.153809,4201.922852,4219.487305,4183.333496,4196.794922,4205.384766,3424.000000,4.000000,91.000000,,,,0.000000,4.000000,4.000000,4.000000,4.000000,4.000000,4.000000,4.000000,4.000000,4.000000,4.000000,4.000000,4.000000,4.000000,4.000000,100.000000,,,,,,,,,,,,,,,,
1644852603.271257,189.000000,0.000000,4195.384766,4205.128418,4190.769043,4192.179688,4215.512695,4216.666504,4211.922852,4216.666504,4209.615234,4203.717773,4213.077148,4183.461426,4197.179688,4209.871582,3476.000000,4.000000,91.000000,,,,0.000000,4.000000,4.000000,4.000000,4.000000,4.000000,4.000000,4.000000,4.000000,4.000000,4.000000,4.000000,4.000000,4.000000,4.000000,100.000000,,,,,,,,,,,,,,,,
1644852603.275197,190.000000,0.000000,4195.128418,4209.743652,4193.461426,4193.461426,4209.743652,4218.333496,4214.615234,4217.436035,4210.897461,4208.589844,4207.820313,4188.589844,4198.846191,4212.692383,3637.000000,4.000000,91.000000,,,,0.000000,4.000000,4.000000,4.000000,4.000000,4.000000,4.000000,4.000000,4.000000,4.000000,4.000000,4.000000,4.000000,4.000000,4.000000,100.000000,,,,,,,,,,,,,,,,
1644852603.279137,191.000000,0.000000,4199.615234,4212.948730,4197.051270,4198.461426,4206.794922,4220.769043,4215.769043,4216.282227,4214.743652,4214.743652,4208.717773,4196.666504,4201.025879,4213.846191,3438.000000,4.000000,91.000000,,,,0.000000,4.000000,4.000000,4.000000,4.000000,4.000000,4.000000,4.000000,4.000000,4.000000,4.000000,4.000000,4.000000,4.000000,4.000000,100.000000,,,,,,,,,,,,,,,,
1644852603.283077,192.000000,0.000000,4207.179688,4214.102539,4200.641113,4205.256348,4206.922852,4222.307617,4214.358887,4214.230957,4219.487305,4220.000000,4215.769043,4203.717773,4204.871582,4216.538574,3424.000000,4.000000,91.000000,,,,0.000000,4.000000,4.000000,4.000000,4.000000,4.000000,4.000000,4.000000,4.000000,4.000000,4.000000,4.000000,4.000000,4.000000,4.000000,100.000000,,,,,,,,,,,,,,,,
1644852603.287017,193.000000,0.000000,4213.205078,4212.820313,4203.461426,4210.512695,4209.871582,4221.794922,4212.563965,4213.589844,4223.205078,4222.051270,4223.846191,4206.410156,4211.025879,4223.461426,3476.000000,4.000000,91.000000,,,,0.000000,4.000000,4.000000,4.000000,4.000000,4.000000,4.000000,4.000000,4.000000,4.000000,4.000000,4.000000,4.000000,4.000000,4.000000,100.000000,,,,,,,,,,,,,,,,
1644852603.290957,194.000000,0.000000,4214.230957,4210.128418,4205.256348,4211.794922,4214.487305,4219.615234,4212.307617,4215.384766,4224.358887,4220.512695,4227.820313,4204.358887,4219.358887,4233.333496,3637.000000,4.000000,91.000000,,,,0.000000,4.000000,4.000000,4.000000,4.000000,4.000000,4.000000,4.000000,4.000000,4.000000,4.000000,4.000000,4.000000,4.000000,4.000000,100.000000,,,,,,,,,,,,,,,,
1644852603.294897,195.000000,0.000000,4211.922852,4208.205078,4206.410156,4209.102539,4219.358887,4217.436035,4213.205078,4218.077148,4222.948730,4217.436035,4226.922852,4200.256348,4227.307617,4241.410156,3438.000000,4.000000,91.000000,,,,0.000000,4.000000,4.000000,4.000000,4.000000,4.000000,4.000000,4.000000,4.000000,4.000000,4.000000,4.000000,4.000000,4.000000,4.000000,100.000000,,,,,,,,,,,,,,,,
1644852603.298837,196.000000,0.000000,4212.307617,4209.487305,4207.179688,4206.153809,4222.307617,4216.153809,4213.333496,4219.230957,4220.256348,4216.153809,4223.974121,4198.589844,4232.051270,4243.974121,3424.000000,4.000000,91.000000,,,,0.000000,4.000000,4.000000,4.000000,4.000000,4.000000,4.000000,4.000000,4.000000,4.000000,4.000000,4.000000,4.000000,4.000000,4.000000,100.000000,,,,,,,,,,,,,,,,
1644852603.302778,197.000000,0.000000,4220.512695,4214.230957,4208.461426,4207.948730,4222.051270,4215.897461,4212.307617,4218.461426,4218.333496,4218.333496,4222.179688,4201.410156,4232.436035,4241.153809,3476.000000,4.000000,91.000000,,,,0.000000,4.000000,4.000000,4.000000,4.000000,4.000000,4.000000,4.000000,4.000000,4.000000,4.000000,4.000000,4.000000,4.000000,4.000000,100.000000,,,,,,,,,,,,,,,,
1644852603.306718,198.000000,0.000000,4235.384766,4220.897461,4211.410156,4216.410156,4218.974121,4216.410156,4211.922852,4217.307617,4218.333496,4222.563965,4223.205078,4208.333496,4230.384766,4236.666504,3637.000000,4.000000,91.000000,,,,0.000000,4.000000,4.000000,4.000000,4.000000,4.000000,4.000000,4.000000,4.000000,4.000000,4.000000,4.000000,4.000000,4.000000,4.000000,100.000000,,,,,,,,,,,,,,,,
1644852603.310658,199.000000,0.000000,4248.461426,4226.025879,4216.025879,4227.179688,4216.153809,4217.307617,4213.974121,4217.436035,4220.000000,4225.512695,4226.282227,4216.410156,4229.102539,4234.102539,3438.000000,4.000000,91.000000,,,,0.000000,4.000000,4.000000,4.000000,4.000000,4.000000,4.000000,4.000000,4.000000,4.000000,4.000000,4.000000,4.000000,4.000000,4.000000,100.000000,,,,,,,,,,,,,,,,
1644852603.314598,200.000000,0.000000,4250.256348,4227.051270,4220.256348,4231.666504,4217.051270,4217.948730,4216.794922,4218.717773,4222.563965,4225.128418,4230.128418,4222.563965,4229.743652,4236.025879,3424.000000,4.000000,91.000000,,,,0.000000,4.000000,4.000000,4.000000,4.000000,4.000000,4.000000,4.000000,4.000000,4.000000,4.000000,4.000000,4.000000,4.000000,4.000000,100.000000,,,,,,,,,,,,,,,,
1644852603.318538,201.000000,0.000000,4238.461426,4224.615234,4221.282227,4223.589844,4221.666504,4217.820313,4216.922852,4220.128418,4224.102539,4221.666504,4233.205078,4224.743652,4230.128418,4241.922852,3476.000000,4.000000,91.000000,,,,0.000000,4.000000,4.000000,4.000000,4.000000,4.000000,4.000000,4.000000,4.000000,4.000000,4.000000,4.000000,4.000000,4.000000,4.000000,100.000000,,,,,,,,,,,,,,,,
1644852603.322378,202.000000,0.000000,4219.358887,4221.282227,4217.692383,4206.153809,4226.538574,4217.179688,4213.717773,4220.256348,4223.589844,4217.948730,4235.000000,4222.563965,4227.179688,4248.974121,3637.000000,4.000000,91.000000,,,,0.000000,4.000000,4.000000,4.000000,4.000000,4.000000,4.000000,4.000000,4.000000,4.000000,4.000000,4.000000,4.000000,4.000000,4.000000,100.000000,,,,,,,,,,,,,,,,
1644852603.326318,203.000000,0.000000,4204.615234,4219.102539,4211.794922,4191.410156,4226.922852,4217.179688,4210.128418,4219.487305,4220.769043,4216.025879,4236.153809,4217.820313,4220.897461,4253.589844,3438.000000,4.000000,91.000000,,,,0.000000,4.000000,4.000000,4.000000,4.000000,4.000000,4.000000,4.000000,4.000000,4.000000,4.000000,4.000000,4.000000,4.000000,4.000000,100.000000,,,,,,,,,,,,,,,,
1644852603.330258,204.000000,0.000000,4202.051270,4218.589844,4207.436035,4191.282227,4221.666504,4218.461426,4209.871582,4219.102539,4217.051270,4216.153809,4237.563965,4213.333496,4215.256348,4253.333496,3424.000000,4.000000,91.000000,,,,0.000000,4.000000,4.000000,4.000000,4.000000,4.000000,4.000000,4.000000,4.000000,4.000000,4.000000,4.000000,4.000000,4.000000,4.000000,100.000000,,,,,,,,,,,,,,,,
1644852603.334199,205.000000,0.000000,4211.666504,4219.230957,4207.692383,4207.692383,4214.230957,4220.384766,4213.333496,4219.743652,4214.743652,4217.563965,4240.000000,4211.410156,4214.871582,4248.974121,3476.000000,4.000000,91.000000,,,,0.000000,4.000000,4.000000,4.000000,4.000000,4.000000,4.000000,4.000000,4.000000,4.000000,4.000000,4.000000,4.000000,4.000000,4.000000,100.000000,,,,,,,,,,,,,,,,
1644852603.338139,206.000000,0.000000,4226.538574,4220.512695,4212.307617,4230.384766,4210.256348,4222.179688,4217.051270,4220.512695,4215.128418,4219.358887,4243.077148,4212.563965,4221.666504,4244.487305,3637.000000,4.000000,91.000000,,,,0.000000,4.000000,4.000000,4.000000,4.000000,4.000000,4.000000,4.000000,4.000000,4.000000,4.000000,4.000000,4.000000,4.000000,4.000000,100.000000,,,,,,,,,,,,,,,,
1644852603.342079,207.000000,0.000000,4238.205078,4221.922852,4218.333496,4243.846191,4212.436035,4223.205078,4218.461426,4219.615234,4217.563965,4221.410156,4245.641113,4215.128418,4232.692383,4243.846191,3438.000000,4.000000,91.000000,,,,0.000000,4.000000,4.000000,4.000000,4.000000,4.000000,4.000000,4.000000,4.000000,4.000000,4.000000,4.000000,4.000000,4.000000,4.000000,100.000000,,,,,,,,,,,,,,,,
1644852603.346019,208.000000,0.000000,4241.922852,4222.948730,4222.436035,4239.615234,4218.333496,4223.333496,4217.820313,4216.538574,4219.615234,4223.461426,4245.641113,4216.025879,4241.410156,4248.205078,3424.000000,4.000000,91.000000,,,,0.000000,4.000000,4.000000,4.000000,4.000000,4.000000,4.000000,4.000000,4.000000,4.000000,4.000000,4.000000,4.000000,4.000000,4.000000,100.000000,,,,,,,,,,,,,,,,
1644852603.349959,209.000000,0.000000,4237.563965,4222.820313,4222.307617,4221.922852,4223.205078,4222.179688,4217.307617,4213.461426,4218.717773,4223.974121,4241.282227,4214.102539,4242.051270,4255.384766,3476.000000,4.000000,91.000000,,,,0.000000,4.000000,4.000000,4.000000,4.000000,4.000000,4.000000,4.000000,4.000000,4.000000,4.000000,4.000000,4.000000,4.000000,4.000000,100.000000,,,,,,,,,,,,,,,,
1644852603.353899,210.000000,0.000000,4229.102539,4221.666504,4218.974121,4203.846191,4224.487305,4220.384766,4217.820313,4213.205078,4215.897461,4222.051270,4233.333496,4210.897461,4234.102539,4261.410156,3637.000000,4.000000,91.000000,,,,0.000000,4.000000,4.000000,4.000000,4.000000,4.000000,4.000000,4.000000,4.000000,4.000000,4.000000,4.000000,4.000000,4.000000,4.000000,100.000000,,,,,,,,,,,,,,,,
1644852603.357839,211.000000,0.000000,4221.922852,4220.128418,4216.025879,4196.538574,4223.461426,4219.230957,4217.820313,4216.666504,4214.743652,4219.230957,4224.615234,4209.615234,4223.717773,4263.333496,3438.000000,4.000000,91.000000,,,,0.000000,4.000000,4.000000,4.000000,4.000000,4.000000,4.000000,4.000000,4.000000,4.000000,4.000000,4.000000,4.000000,4.000000,4.000000,100.000000,,,,,,,,,,,,,,,,
1644852603.361779,212.000000,0.000000,4219.615234,4218.974121,4216.794922,4201.538574,4221.922852,4220.128418,4215.769043,4221.922852,4218.077148,4218.461426,4219.871582,4212.051270,4218.717773,4260.128418,3424.000000,4.000000,91.000000,,,,0.000000,4.000000,4.000000,4.000000,4.000000,4.000000,4.000000,4.000000,4.000000,4.000000,4.000000,4.000000,4.000000,4.000000,4.000000,100.000000,,,,,,,,,,,,,,,,
1644852603.365719,213.000000,0.000000,4222.948730,4218.974121,4222.179688,4211.922852,4219.871582,4222.948730,4213.461426,4226.025879,4224.871582,4221.025879,4221.410156,4216.666504,4222.948730,4252.179688,3476.000000,4.000000,91.000000,,,,0.000000,4.000000,4.000000,4.000000,4.000000,4.000000,4.000000,4.000000,4.000000,4.000000,4.000000,4.000000,4.000000,4.000000,4.000000,100.000000,,,,,,,,,,,,,,,,
1644852603.369659,214.000000,0.000000,4230.384766,4221.153809,4229.358887,4218.717773,4216.025879,4225.641113,4213.589844,4227.436035,4230.512695,4224.615234,4228.717773,4219.871582,4232.948730,4242.051270,3637.000000,4.000000,91.000000,,,,0.000000,4.000000,4.000000,4.000000,4.000000,4.000000,4.000000,4.000000,4.000000,4.000000,4.000000,4.000000,4.000000,4.000000,4.000000,100.000000,,,,,,,,,,,,,,,,
1644852603.373600,215.000000,0.000000,4238.589844,4226.282227,4234.743652,4218.717773,4211.410156,4226.538574,4216.282227,4226.153809,4230.897461,4226.538574,4237.179688,4218.717773,4240.512695,4235.512695,3438.000000,4.000000,91.000000,,,,0.000000,4.000000,4.000000,4.000000,4.000000,4.000000,4.000000,4.000000,4.000000,4.000000,4.000000,4.000000,4.000000,4.000000,4.000000,100.000000,,,,,,,,,,,,,,,,
1644852603.377540,216.000000,0.000000,4244.102539,4233.205078,4236.153809,4215.128418,4209.871582,4225.769043,4218.974121,4223.077148,4226.025879,4225.128418,4241.410156,4214.487305,4238.846191,4237.692383,3424.000000,4.000000,91.000000,,,,0.000000,4.000000,4.000000,4.000000,4.000000,4.000000,4.000000,4.000000,4.000000,4.000000,4.000000,4.000000,4.000000,4.000000,4.000000,100.000000,,,,,,,,,,,,,,,,
1644852603.381480,217.000000,0.000000,4244.871582,4238.205078,4233.717773,4213.974121,4214.358887,4224.358887,4218.717773,4219.743652,4219.743652,4221.025879,4238.589844,4210.512695,4227.563965,4247.692383,3476.000000,4.000000,91.000000,,,,0.000000,4.000000,4.000000,4.000000,4.000000,4.000000,4.000000,4.000000,4.000000,4.000000,4.000000,4.000000,4.000000,4.000000,4.000000,100.000000,,,,,,,,,,,,,,,,
1644852603.385420,218.000000,0.000000,4240.769043,4237.820313,4229.615234,4218.717773,4224.743652,4224.102539,4216.538574,4217.820313,4216.538574,4217.179688,4230.512695,4210.128418,4212.436035,4258.205078,3637.000000,4.000000,91.000000,,,,0.000000,4.000000,4.000000,4.000000,4.000000,4.000000,4.000000,4.000000,4.000000,4.000000,4.000000,4.000000,4.000000,4.000000,4.000000,100.000000,,,,,,,,,,,,,,,,
1644852603.389360,219.000000,0.000000,4233.974121,4232.307617,4226.025879,4227.820313,4236.025879,4225.384766,4215.641113,4218.846191,4218.205078,4216.922852,4222.436035,4213.589844,4201.922852,4261.153809,3438.000000,4.000000,91.000000,,,,0.000000,4.000000,4.000000,4.000000,4.000000,4.000000,4.000000,4.000000,4.000000,4.000000,4.000000,4.000000,4.000000,4.000000,4.000000,100.000000,,,,,,,,,,,,,,,,
1644852603.393300,220.000000,0.000000,4227.948730,4226.282227,4224.358887,4235.641113,4242.179688,4228.333496,4217.948730,4222.436035,4223.333496,4221.538574,4219.487305,4217.307617,4202.051270,4256.025879,3424.000000,4.000000,91.000000,,,,0.000000,4.000000,4.000000,4.000000,4.000000,4.000000,4.000000,4.000000,4.000000,4.000000,4.000000,4.000000,4.000000,4.000000,4.000000,100.000000,,,,,,,,,,,,,,,,
1644852603.397240,221.000000,0.000000,4225.000000,4224.615234,4223.717773,4236.538574,4240.000000,4231.410156,4221.410156,4226.282227,4228.077148,4228.461426,4223.077148,4217.307617,4212.179688,4251.282227,3476.000000,4.000000,91.000000,,,,0.000000,4.000000,4.000000,4.000000,4.000000,4.000000,4.000000,4.000000,4.000000,4.000000,4.000000,4.000000,4.000000,4.000000,4.000000,100.000000,,,,,,,,,,,,,,,,
1644852603.401280,222.000000,0.000000,4225.128418,4227.820313,4222.692383,4228.846191,4231.410156,4232.307617,4222.692383,4227.563965,4228.974121,4232.179688,4228.717773,4212.051270,4225.256348,4257.820313,3637.000000,4.000000,91.000000,,,,0.000000,4.000000,4.000000,4.000000,4.000000,4.000000,4.000000,4.000000,4.000000,4.000000,4.000000,4.000000,4.000000,4.000000,4.000000,100.000000,,,,,,,,,,,,,,,,
1644852603.405220,223.000000,0.000000,4226.153809,4231.538574,4220.769043,4216.282227,4221.153809,4229.487305,4221.282227,4225.512695,4225.512695,4228.846191,4229.871582,4203.205078,4232.563965,4278.717773,3438.000000,4.000000,91.000000,,,,0.000000,4.000000,4.000000,4.000000,4.000000,4.000000,4.000000,4.000000,4.000000,4.000000,4.000000,4.000000,4.000000,4.000000,4.000000,100.000000,,,,,,,,,,,,,,,,
1644852603.409160,224.000000,0.000000,4225.769043,4231.153809,4218.461426,4205.384766,4213.846191,4224.487305,4219.743652,4222.563965,4220.128418,4219.487305,4222.948730,4194.871582,4230.256348,4306.538574,3424.000000,4.000000,91.000000,,,,0.000000,4.000000,4.000000,4.000000,4.000000,4.000000,4.000000,4.000000,4.000000,4.000000,4.000000,4.000000,4.000000,4.000000,4.000000,100.000000,,,,,,,,,,,,,,,,
1644852603.413101,225.000000,0.000000,4223.461426,4225.769043,4216.666504,4201.410156,4211.538574,4220.897461,4220.000000,4221.282227,4216.922852,4209.358887,4210.769043,4190.512695,4221.410156,4329.358887,3476.000000,4.000000,91.000000,,,,0.000000,4.000000,4.000000,4.000000,4.000000,4.000000,4.000000,4.000000,4.000000,4.000000,4.000000,4.000000,4.000000,4.000000,4.000000,100.000000,,,,,,,,,,,,,,,,
1644852603.417041,226.000000,0.000000,4220.256348,4219.358887,4216.282227,4205.128418,4213.333496,4221.666504,4220.897461,4222.563965,4218.333496,4204.102539,4201.666504,4191.794922,4213.717773,4339.230957,3637.000000,4.000000,91.000000,,,,0.000000,4.000000,4.000000,4.000000,4.000000,4.000000,4.000000,4.000000,4.000000,4.000000,4.000000,4.000000,4.000000,4.000000,4.000000,100.000000,,,,,,,,,,,,,,,,
1644852603.420881,227.000000,0.000000,4218.077148,4216.794922,4217.179688,4213.205078,4217.436035,4226.025879,4220.384766,4225.128418,4222.948730,4206.025879,4201.922852,4197.307617,4212.436035,4337.563965,3438.000000,4.000000,91.000000,,,,0.000000,4.000000,4.000000,4.000000,4.000000,4.000000,4.000000,4.000000,4.000000,4.000000,4.000000,4.000000,4.000000,4.000000,4.000000,100.000000,,,,,,,,,,,,,,,,
1644852603.424821,228.000000,0.000000,4218.077148,4219.743652,4218.333496,4220.641113,4222.307617,4229.871582,4218.974121,4226.794922,4226.153809,4212.436035,4210.512695,4204.487305,4216.025879,4331.922852,3424.000000,4.000000,91.000000,,,,0.000000,4.000000,4.000000,4.000000,4.000000,4.000000,4.000000,4.000000,4.000000,4.000000,4.000000,4.000000,4.000000,4.000000,4.000000,100.000000,,,,,,,,,,,,,,,,
1644852603.428761,229.000000,0.000000,4220.128418,4225.512695,4218.717773,4224.230957,4226.282227,4229.487305,4219.102539,4226.922852,4225.000000,4218.333496,4220.641113,4210.256348,4219.358887,4331.153809,3476.000000,4.000000,91.000000,,,,0.000000,4.000000,4.000000,4.000000,4.000000,4.000000,4.000000,4.000000,4.000000,4.000000,4.000000,4.000000,4.000000,4.000000,4.000000,100.000000,,,,,,,,,,,,,,,,
1644852603.432701,230.000000,0.000000,4223.717773,4229.487305,4218.205078,4223.333496,4228.205078,4224.871582,4221.666504,4225.512695,4219.743652,4220.256348,4226.153809,4212.563965,4218.461426,4339.615234,3637.000000,4.000000,91.000000,,,,0.000000,4.000000,4.000000,4.000000,4.000000,4.000000,4.000000,4.000000,4.000000,4.000000,4.000000,4.000000,4.000000,4.000000,4.000000,100.000000,,,,,,,,,,,,,,,,
1644852603.436641,231.000000,0.000000,4227.563965,4228.974121,4216.922852,4220.512695,4227.436035,4219.615234,4223.974121,4223.205078,4214.615234,4219.487305,4225.769043,4210.769043,4215.128418,4354.743652,3438.000000,4.000000,91.000000,,,,0.000000,4.000000,4.000000,4.000000,4.000000,4.000000,4.000000,4.000000,4.000000,4.000000,4.000000,4.000000,4.000000,4.000000,4.000000,100.000000,,,,,,,,,,,,,,,,
1644852603.440581,232.000000,0.000000,4228.589844,4224.871582,4215.128418,4219.102539,4224.871582,4217.307617,4223.333496,4221.153809,4213.717773,4219.102539,4222.948730,4206.282227,4213.846191,4370.128418,3424.000000,4.000000,91.000000,,,,0.000000,4.000000,4.000000,4.000000,4.000000,4.000000,4.000000,4.000000,4.000000,4.000000,4.000000,4.000000,4.000000,4.000000,4.000000,100.000000,,,,,,,,,,,,,,,,
1644852603.444521,233.000000,0.000000,4225.256348,4219.871582,4213.717773,4219.230957,4222.436035,4218.846191,4220.384766,4220.769043,4217.563965,4220.897461,4222.563965,4201.794922,4216.794922,4380.000000,3476.000000,4.000000,91.000000,,,,0.000000,4.000000,4.000000,4.000000,4.000000,4.000000,4.000000,4.000000,4.000000,4.000000,4.000000,4.000000,4.000000,4.000000,4.000000,100.000000,,,,,,,,,,,,,,,,
1644852603.448462,234.000000,0.000000,4218.974121,4217.051270,4214.230957,4219.230957,4221.410156,4222.436035,4219.102539,4223.333496,4224.102539,4224.102539,4226.025879,4200.512695,4222.307617,4383.333496,3637.000000,4.000000,91.000000,,,,0.000000,4.000000,4.000000,4.000000,4.000000,4.000000,4.000000,4.000000,4.000000,4.000000,4.000000,4.000000,4.000000,4.000000,4.000000,100.000000,,,,,,,,,,,,,,,,
1644852603.452402,235.000000,0.000000,4213.461426,4216.922852,4217.948730,4217.563965,4221.410156,4225.897461,4221.666504,4227.436035,4229.615234,4226.794922,4230.512695,4204.358887,4226.666504,4382.820313,3438.000000,4.000000,91.000000,,,,0.000000,4.000000,4.000000,4.000000,4.000000,4.000000,4.000000,4.000000,4.000000,4.000000,4.000000,4.000000,4.000000,4.000000,4.000000,100.000000,,,,,,,,,,,,,,,,
1644852603.456342,236.000000,0.000000,4212.307617,4218.589844,4223.589844,4214.487305,4220.512695,4228.205078,4225.384766,4230.000000,4231.410156,4226.794922,4230.641113,4211.922852,4227.436035,4382.307617,3424.000000,4.000000,91.000000,,,,0.000000,4.000000,4.000000,4.000000,4.000000,4.000000,4.000000,4.000000,4.000000,4.000000,4.000000,4.000000,4.000000,4.000000,4.000000,100.000000,,,,,,,,,,,,,,,,
1644852603.460282,237.000000,0.000000,4215.769043,4220.512695,4227.820313,4212.179688,4218.077148,4229.230957,4226.410156,4228.461426,4229.102539,4223.589844,4225.000000,4218.974121,4225.769043,4383.333496,3476.000000,4.000000,91.000000,,,,0.000000,4.000000,4.000000,4.000000,4.000000,4.000000,4.000000,4.000000,4.000000,4.000000,4.000000,4.000000,4.000000,4.000000,4.000000,100.000000,,,,,,,,,,,,,,,,
1644852603.464222,238.000000,0.000000,4221.282227,4222.436035,4228.717773,4213.205078,4215.897461,4229.743652,4223.717773,4223.077148,4223.589844,4217.820313,4217.948730,4221.794922,4225.128418,4387.563965,3637.000000,4.000000,91.000000,,,,0.000000,4.000000,4.000000,4.000000,4.000000,4.000000,4.000000,4.000000,4.000000,4.000000,4.000000,4.000000,4.000000,4.000000,4.000000,100.000000,,,,,,,,,,,,,,,,
1644852603.468162,239.000000,0.000000,4226.666504,4225.769043,4227.820313,4218.461426,4217.179688,4230.256348,4220.512695,4217.179688,4217.692383,4211.538574,4216.410156,4220.128418,4227.051270,4396.025879,3438.000000,4.000000,91.000000,,,,0.000000,4.000000,4.000000,4.000000,4.000000,4.000000,4.000000,4.000000,4.000000,4.000000,4.000000,4.000000,4.000000,4.000000,4.000000,100.000000,,,,,,,,,,,,,,,,
1644852603.472102,240.000000,0.000000,4230.641113,4230.641113,4227.051270,4226.538574,4223.461426,4230.000000,4219.615234,4214.230957,4214.487305,4207.563965,4223.717773,4216.666504,4230.641113,4407.948730,3424.000000,4.000000,91.000000,,,,0.000000,4.000000,4.000000,4.000000,4.000000,4.000000,4.000000,4.000000,4.000000,4.000000,4.000000,4.000000,4.000000,4.000000,4.000000,100.000000,,,,,,,,,,,,,,,,
1644852603.476042,241.000000,0.000000,4233.333496,4235.128418,4227.307617,4233.846191,4233.077148,4228.205078,4220.384766,4215.256348,4215.000000,4207.948730,4235.769043,4214.871582,4233.205078,4419.487305,3476.000000,4.000000,91.000000,,,,0.000000,4.000000,4.000000,4.000000,4.000000,4.000000,4.000000,4.000000,4.000000,4.000000,4.000000,4.000000,4.000000,4.000000,4.000000,100.000000,,,,,,,,,,,,,,,,
1644852603.479982,242.000000,0.000000,4233.846191,4236.282227,4227.563965,4236.794922,4241.666504,4224.743652,4220.384766,4218.589844,4217.692383,4212.692383,4243.589844,4216.410156,4233.333496,4424.615234,3637.000000,4.000000,91.000000,,,,0.000000,4.000000,4.000000,4.000000,4.000000,4.000000,4.000000,4.000000,4.000000,4.000000,4.000000,4.000000,4.000000,4.000000,4.000000,100.000000,,,,,,,,,,,,,,,,
1644852603.483923,243.000000,0.000000,4230.384766,4231.794922,4226.922852,4232.692383,4244.487305,4221.282227,4218.846191,4221.153809,4219.358887,4218.717773,4241.025879,4219.871582,4231.410156,4420.128418,3438.000000,4.000000,91.000000,1,1,2,0.000000,4.000000,4.000000,4.000000,4.000000,4.000000,4.000000,4.000000,4.000000,4.000000,4.000000,4.000000,4.000000,4.000000,4.000000,100.000000,,,,,,,,,,,,,,,,
1644852603.487863,244.000000,0.000000,4222.820313,4222.692383,4225.641113,4221.666504,4240.128418,4219.871582,4217.307617,4221.794922,4218.333496,4221.794922,4229.743652,4222.051270,4228.461426,4409.358887,3424.000000,4.000000,91.000000,,,,0.000000,4.000000,4.000000,4.000000,4.000000,4.000000,4.000000,4.000000,4.000000,4.000000,4.000000,4.000000,4.000000,4.000000,4.000000,100.000000,,,,,,,,,,,,,,,,
1644852603.491803,245.000000,0.000000,4214.102539,4213.205078,4224.487305,4207.563965,4231.666504,4220.000000,4217.179688,4220.000000,4215.512695,4220.256348,4217.820313,4220.641113,4225.384766,4400.256348,3476.000000,4.000000,91.000000,,,,0.000000,4.000000,4.000000,4.000000,4.000000,4.000000,4.000000,4.000000,4.000000,4.000000,4.000000,4.000000,4.000000,4.000000,4.000000,100.000000,,,,,,,,,,,,,,,,
1644852603.495643,246.000000,0.000000,4209.743652,4208.589844,4223.846191,4197.179688,4224.358887,4219.615234,4217.179688,4217.051270,4213.717773,4217.051270,4213.077148,4215.897461,4222.948730,4399.743652,3637.000000,4.000000,91.000000,,,,0.000000,4.000000,4.000000,4.000000,4.000000,4.000000,4.000000,4.000000,4.000000,4.000000,4.000000,4.000000,4.000000,4.000000,4.000000,100.000000,,,,,,,,,,,,,,,,
1644852603.499583,247.000000,0.000000,4212.820313,4211.666504,4223.589844,4196.153809,4221.538574,4218.077148,4215.641113,4214.487305,4215.000000,4216.410156,4216.922852,4211.025879,4222.307617,4408.205078,3438.000000,4.000000,91.000000,,,,0.000000,4.000000,4.000000,4.000000,4.000000,4.000000,4.000000,4.000000,4.000000,4.000000,4.000000,4.000000,4.000000,4.000000,4.000000,100.000000,,,,,,,,,,,,,,,,
1644852603.503523,248.000000,0.000000,4220.641113,4220.641113,4223.205078,4203.717773,4222.051270,4217.051270,4213.589844,4213.205078,4218.205078,4219.487305,4223.589844,4209.358887,4223.846191,4418.717773,3424.000000,4.000000,91.000000,,,,0.000000,4.000000,4.000000,4.000000,4.000000,4.000000,4.000000,4.000000,4.000000,4.000000,4.000000,4.000000,4.000000,4.000000,4.000000,100.000000,,,,,,,,,,,,,,,,
1644852603.507463,249.000000,0.000000,4226.282227,4229.230957,4222.307617,4213.717773,4221.410156,4218.333496,4213.589844,4213.589844,4220.256348,4223.333496,4225.512695,4211.282227,4227.051270,4423.461426,3476.000000,4.000000,91.000000,,,,0.000000,4.000000,4.000000,4.000000,4.000000,4.000000,4.000000,4.000000,4.000000,4.000000,4.000000,4.000000,4.000000,4.000000,4.000000,100.000000,,,,,,,,,,,,,,,,
1644852603.511403,250.000000,0.000000,4223.846191,4232.179688,4221.025879,4220.384766,4217.179688,4221.794922,4216.410156,4214.615234,4218.717773,4223.461426,4220.256348,4213.846191,4230.256348,4419.358887,3637.000000,4.000000,91.000000,,,,0.000000,4.000000,4.000000,4.000000,4.000000,4.000000,4.000000,4.000000,4.000000,4.000000,4.000000,4.000000,4.000000,4.000000,4.000000,100.000000,,,,,,,,,,,,,,,,
1644852603.515343,251.000000,0.000000,4214.358887,4228.077148,4218.974121,4221.410156,4211.794922,4225.512695,4218.974121,4215.000000,4214.358887,4218.717773,4212.436035,4213.974121,4232.307617,4410.769043,3438.000000,4.000000,91.000000,,,,0.000000,4.000000,4.000000,4.000000,4.000000,4.000000,4.000000,4.000000,4.000000,4.000000,4.000000,4.000000,4.000000,4.000000,4.000000,100.000000,,,,,,,,,,,,,,,,
1644852603.519284,252.000000,0.000000,4204.743652,4220.897461,4215.769043,4218.589844,4210.769043,4227.051270,4218.205078,4214.102539,4210.769043,4212.436035,4209.358887,4210.641113,4233.205078,4405.897461,3424.000000,4.000000,91.000000,,,,0.000000,4.000000,4.000000,4.000000,4.000000,4.000000,4.000000,4.000000,4.000000,4.000000,4.000000,4.000000,4.000000,4.000000,4.000000,100.000000,,,,,,,,,,,,,,,,
1644852603.523224,253.000000,0.000000,4202.051270,4215.769043,4211.666504,4214.615234,4217.051270,4225.512695,4214.358887,4213.077148,4210.641113,4209.358887,4214.230957,4205.641113,4233.205078,4410.641113,3476.000000,4.000000,91.000000,,,,0.000000,4.000000,4.000000,4.000000,4.000000,4.000000,4.000000,4.000000,4.000000,4.000000,4.000000,4.000000,4.000000,4.000000,4.000000,100.000000,,,,,,,,,,,,,,,,
1644852603.527164,254.000000,0.000000,4207.179688,4216.282227,4207.563965,4212.051270,4227.692383,4222.948730,4211.538574,4213.205078,4213.589844,4211.282227,4222.692383,4201.410156,4231.922852,4423.077148,3637.000000,4.000000,91.000000,,,,0.000000,4.000000,4.000000,4.000000,4.000000,4.000000,4.000000,4.000000,4.000000,4.000000,4.000000,4.000000,4.000000,4.000000,4.000000,100.000000,,,,,,,,,,,,,,,,
1644852603.531104,255.000000,0.000000,4215.128418,4221.410156,4204.871582,4211.025879,4236.282227,4221.666504,4212.563965,4214.487305,4216.538574,4215.256348,4226.410156,4198.846191,4228.717773,4434.358887,114.000000,4.000000,91.000000,,,,0.000000,4.000000,4.000000,4.000000,4.000000,4.000000,4.000000,4.000000,4.000000,4.000000,4.000000,4.000000,4.000000,4.000000,4.000000,100.000000,,,,,,,,,,,,,,,,
1644852603.535044,0.000000,0.000000,4218.974121,4226.794922,4203.846191,4211.410156,4238.717773,4223.461426,4216.153809,4215.641113,4216.282227,4216.538574,4221.025879,4197.307617,4224.102539,4436.153809,3426.000000,4.000000,91.000000,,,,0.000000,4.000000,4.000000,4.000000,4.000000,4.000000,4.000000,4.000000,4.000000,4.000000,4.000000,4.000000,4.000000,4.000000,4.000000,100.000000,,,,,,,,,,,,,,,,
1644852603.538984,1.000000,0.000000,4216.666504,4227.692383,4204.487305,4212.179688,4235.897461,4227.307617,4218.333496,4215.000000,4212.692383,4213.077148,4211.153809,4195.769043,4220.256348,4427.307617,3306.000000,4.000000,91.000000,,,,0.000000,4.000000,4.000000,4.000000,4.000000,4.000000,4.000000,4.000000,4.000000,4.000000,4.000000,4.000000,4.000000,4.000000,4.000000,100.000000,,,,,,,,,,,,,,,,
1644852603.542924,2.000000,0.000000,4211.666504,4223.461426,4206.410156,4212.948730,4231.410156,4231.025879,4217.307617,4212.307617,4208.717773,4207.948730,4205.769043,4194.230957,4220.000000,4415.769043,3539.000000,4.000000,91.000000,,,,0.000000,4.000000,4.000000,4.000000,4.000000,4.000000,4.000000,4.000000,4.000000,4.000000,4.000000,4.000000,4.000000,4.000000,4.000000,100.000000,,,,,,,,,,,,,,,,
1644852603.546864,3.000000,0.000000,4208.589844,4217.820313,4209.102539,4213.077148,4228.077148,4232.563965,4215.000000,4209.230957,4206.922852,4206.153809,4209.615234,4193.077148,4223.589844,4411.794922,3530.000000,4.000000,91.000000,,,,0.000000,4.000000,4.000000,4.000000,4.000000,4.000000,4.000000,4.000000,4.000000,4.000000,4.000000,4.000000,4.000000,4.000000,4.000000,100.000000,,,,,,,,,,,,,,,,
1644852603.550804,4.000000,0.000000,4209.871582,4215.897461,4211.538574,4212.051270,4226.410156,4231.666504,4214.743652,4207.948730,4208.461426,4210.256348,4220.000000,4193.333496,4228.846191,4419.743652,3414.000000,4.000000,91.000000,,,,0.000000,4.000000,4.000000,4.000000,4.000000,4.000000,4.000000,4.000000,4.000000,4.000000,4.000000,4.000000,4.000000,4.000000,4.000000,100.000000,,,,,,,,,,,,,,,,
1644852603.554745,5.000000,0.000000,4214.358887,4220.512695,4213.461426,4211.153809,4226.025879,4229.487305,4216.794922,4209.487305,4212.307617,4219.102539,4229.230957,4195.769043,4233.333496,4435.128418,3302.000000,4.000000,91.000000,,,,0.000000,4.000000,4.000000,4.000000,4.000000,4.000000,4.000000,4.000000,4.000000,4.000000,4.000000,4.000000,4.000000,4.000000,4.000000,100.000000,,,,,,,,,,,,,,,,
1644852603.558685,6.000000,0.000000,4218.974121,4230.256348,4215.641113,4212.948730,4226.922852,4227.179688,4218.461426,4213.205078,4216.794922,4228.717773,4231.922852,4200.897461,4237.179688,4449.102539,2485.000000,4.000000,91.000000,,,,0.000000,4.000000,4.000000,4.000000,4.000000,4.000000,4.000000,4.000000,4.000000,4.000000,4.000000,4.000000,4.000000,4.000000,4.000000,100.000000,,,,,,,,,,,,,,,,
1644852603.562625,7.000000,0.000000,4221.794922,4239.230957,4219.358887,4219.358887,4228.333496,4224.871582,4217.948730,4217.307617,4220.641113,4234.743652,4227.692383,4206.794922,4240.897461,4455.000000,2800.000000,4.000000,91.000000,,,,0.000000,4.000000,4.000000,4.000000,4.000000,4.000000,4.000000,4.000000,4.000000,4.000000,4.000000,4.000000,4.000000,4.000000,4.000000,100.000000,,,,,,,,,,,,,,,,
1644852603.566565,8.000000,0.000000,4221.922852,4241.282227,4223.589844,4227.948730,4229.615234,4222.179688,4215.769043,4220.128418,4222.692383,4234.871582,4221.794922,4210.769043,4244.358887,4451.922852,3262.000000,4.000000,91.000000,,,,0.000000,4.000000,4.000000,4.000000,4.000000,4.000000,4.000000,4.000000,4.000000,4.000000,4.000000,4.000000,4.000000,4.000000,4.000000,100.000000,,,,,,,,,,,,,,,,
1644852603.570405,9.000000,0.000000,4220.769043,4235.769043,4225.769043,4233.974121,4229.615234,4218.974121,4214.487305,4220.897461,4222.563965,4229.487305,4220.897461,4211.282227,4246.025879,4444.615234,3544.000000,4.000000,91.000000,,,,0.000000,4.000000,4.000000,4.000000,4.000000,4.000000,4.000000,4.000000,4.000000,4.000000,4.000000,4.000000,4.000000,4.000000,4.000000,100.000000,,,,,,,,,,,,,,,,
1644852603.574345,10.000000,0.000000,4219.615234,4227.692383,4224.358887,4232.948730,4227.948730,4216.794922,4214.615234,4219.871582,4221.153809,4222.051270,4227.436035,4210.128418,4244.487305,4439.615234,3541.000000,4.000000,91.000000,2,1,2,0.000000,4.000000,4.000000,4.000000,4.000000,4.000000,4.000000,4.000000,4.000000,4.000000,4.000000,4.000000,4.000000,4.000000,4.000000,100.000000,,,,,,,,,,,,,,,,
1644852603.578285,11.000000,0.000000,4219.743652,4223.846191,4220.000000,4224.615234,4226.153809,4216.794922,4215.000000,4217.692383,4220.128418,4216.666504,4237.179688,4210.128418,4240.000000,4440.512695,3304.000000,4.000000,91.000000,,,,0.000000,4.000000,4.000000,4.000000,4.000000,4.000000,4.000000,4.000000,4.000000,4.000000,4.000000,4.000000,4.000000,4.000000,4.000000,100.000000,,,,,,,,,,,,,,,,
1644852603.582225,12.000000,0.000000,4220.641113,4226.153809,4215.128418,4212.563965,4225.769043,4218.333496,4214.615234,4214.743652,4220.384766,4215.256348,4242.692383,4211.794922,4233.974121,4446.538574,3446.000000,4.000000,91.000000,,,,0.000000,4.000000,4.000000,4.000000,4.000000,4.000000,4.000000,4.000000,4.000000,4.000000,4.000000,4.000000,4.000000,4.000000,4.000000,100.000000,,,,,,,,,,,,,,,,
1644852603.586165,13.000000,0.000000,4220.769043,4230.512695,4211.794922,4202.820313,4227.307617,4219.230957,4213.717773,4211.538574,4220.769043,4216.922852,4238.205078,4212.563965,4227.563965,4452.948730,3430.000000,4.000000,91.000000,,,,0.000000,4.000000,4.000000,4.000000,4.000000,4.000000,4.000000,4.000000,4.000000,4.000000,4.000000,4.000000,4.000000,4.000000,4.000000,100.000000,,,,,,,,,,,,,,,,
1644852603.590106,14.000000,0.000000,4218.974121,4230.897461,4210.512695,4200.897461,4228.717773,4218.205078,4213.205078,4209.102539,4219.230957,4218.717773,4225.769043,4209.615234,4222.436035,4455.128418,3541.000000,4.000000,91.000000,,,,0.000000,4.000000,4.000000,4.000000,4.000000,4.000000,4.000000,4.000000,4.000000,4.000000,4.000000,4.000000,4.000000,4.000000,4.000000,100.000000,,,,,,,,,,,,,,,,
1644852603.594046,15.000000,0.000000,4215.641113,4225.897461,4210.256348,4207.179688,4227.179688,4215.769043,4212.051270,4207.692383,4215.128418,4218.333496,4213.333496,4203.589844,4219.871582,4451.282227,3304.000000,4.000000,91.000000,,,,0.000000,4.000000,4.000000,4.000000,4.000000,4.000000,4.000000,4.000000,4.000000,4.000000,4.000000,4.000000,4.000000,4.000000,4.000000,100.000000,,,,,,,,,,,,,,,,
1644852603.597986,16.000000,0.000000,4212.563965,4219.487305,4209.743652,4216.153809,4221.153809,4213.717773,4209.358887,4206.922852,4210.256348,4215.128418,4208.717773,4198.077148,4220.512695,4444.743652,3446.000000,4.000000,91.000000,,,,0.000000,4.000000,4.000000,4.000000,4.000000,4.000000,4.000000,4.000000,4.000000,4.000000,4.000000,4.000000,4.000000,4.000000,4.000000,100.000000,,,,,,,,,,,,,,,,
1644852603.601926,17.000000,0.000000,4210.512695,4216.410156,4208.974121,4219.743652,4211.794922,4213.333496,4205.641113,4206.282227,4207.051270,4210.512695,4213.461426,4196.794922,4223.077148,4440.897461,3430.000000,4.000000,91.000000,,,,0.000000,4.000000,4.000000,4.000000,4.000000,4.000000,4.000000,4.000000,4.000000,4.000000,4.000000,4.000000,4.000000,4.000000,4.000000,100.000000,,,,,,,,,,,,,,,,
1644852603.605866,18.000000,0.000000,4209.487305,4218.205078,4209.487305,4214.743652,4203.461426,4214.230957,4204.487305,4206.410156,4206.538574,4206.153809,4222.307617,4200.256348,4224.615234,4443.205078,3541.000000,4.000000,91.000000,,,,0.000000,4.000000,4.000000,4.000000,4.000000,4.000000,4.000000,4.000000,4.000000,4.000000,4.000000,4.000000,4.000000,4.000000,4.000000,100.000000,,,,,,,,,,,,,,,,
1644852603.609806,19.000000,0.000000,4209.102539,4222.051270,4212.563965,4205.641113,4201.538574,4215.641113,4207.948730,4207.436035,4207.820313,4203.846191,4227.692383,4206.153809,4224.102539,4450.641113,3304.000000,4.000000,91.000000,,,,0.000000,4.000000,4.000000,4.000000,4.000000,4.000000,4.000000,4.000000,4.000000,4.000000,4.000000,4.000000,4.000000,4.000000,4.000000,100.000000,,,,,,,,,,,,,,,,
1644852603.613746,20.000000,0.000000,4209.871582,4224.230957,4217.179688,4200.897461,4208.461426,4216.922852,4213.974121,4209.358887,4209.615234,4205.256348,4226.410156,4211.538574,4223.461426,4458.077148,3446.000000,4.000000,91.000000,,,,0.000000,4.000000,4.000000,4.000000,4.000000,4.000000,4.000000,4.000000,4.000000,4.000000,4.000000,4.000000,4.000000,4.000000,4.000000,100.000000,,,,,,,,,,,,,,,,
1644852603.617686,21.000000,0.000000,4211.922852,4223.589844,4220.512695,4205.512695,4220.256348,4218.205078,4217.692383,4211.538574,4211.025879,4210.897461,4221.282227,4214.102539,4225.256348,4460.512695,3430.000000,4.000000,91.000000,,,,0.000000,4.000000,4.000000,4.000000,4.000000,4.000000,4.000000,4.000000,4.000000,4.000000,4.000000,4.000000,4.000000,4.000000,4.000000,100.000000,,,,,,,,,,,,,,,,
1644852603.621626,22.000000,0.000000,4214.743652,4222.051270,4221.025879,4217.692383,4228.846191,4219.358887,4216.922852,4213.717773,4212.563965,4218.717773,4218.589844,4213.974121,4229.358887,4456.410156,3541.000000,4.000000,91.000000,,,,0.000000,4.000000,4.000000,4.000000,4.000000,4.000000,4.000000,4.000000,4.000000,4.000000,4.000000,4.000000,4.000000,4.000000,4.000000,100.000000,,,,,,,,,,,,,,,,
1644852603.625567,23.000000,0.000000,4217.563965,4223.205078,4219.615234,4230.256348,4228.205078,4219.871582,4214.487305,4216.153809,4214.358887,4224.358887,4222.179688,4212.436035,4232.051270,4450.128418,3304.000000,4.000000,91.000000,,,,0.000000,4.000000,4.000000,4.000000,4.000000,4.000000,4.000000,4.000000,4.000000,4.000000,4.000000,4.000000,4.000000,4.000000,4.000000,100.000000,,,,,,,,,,,,,,,,
1644852603.629507,24.000000,0.000000,4220.641113,4228.461426,4218.974121,4235.769043,4219.615234,4219.230957,4214.871582,4218.974121,4216.025879,4225.000000,4229.743652,4211.794922,4230.384766,4447.948730,3446.000000,4.000000,91.000000,,,,0.000000,4.000000,4.000000,4.000000,4.000000,4.000000,4.000000,4.000000,4.000000,4.000000,4.000000,4.000000,4.000000,4.000000,4.000000,100.000000,,,,,,,,,,,,,,,,
1644852603.633447,25.000000,0.000000,4225.000000,4236.025879,4220.897461,4231.153809,4210.641113,4217.820313,4218.589844,4220.769043,4216.922852,4221.282227,4235.256348,4212.948730,4225.128418,4453.205078,3430.000000,4.000000,91.000000,,,,0.000000,4.000000,4.000000,4.000000,4.000000,4.000000,4.000000,4.000000,4.000000,4.000000,4.000000,4.000000,4.000000,4.000000,4.000000,100.000000,,,,,,,,,,,,,,,,
1644852603.637387,26.000000,0.000000,4229.743652,4241.794922,4224.615234,4219.615234,4208.205078,4217.179688,4221.410156,4220.128418,4216.282227,4216.410156,4233.974121,4215.641113,4220.128418,4461.922852,3541.000000,4.000000,91.000000,,,,0.000000,4.000000,4.000000,4.000000,4.000000,4.000000,4.000000,4.000000,4.000000,4.000000,4.000000,4.000000,4.000000,4.000000,4.000000,100.000000,,,,,,,,,,,,,,,,
1644852603.641427,27.000000,0.000000,4231.794922,4241.794922,4227.436035,4208.205078,4212.820313,4218.589844,4219.743652,4216.538574,4214.615234,4213.205078,4226.282227,4218.205078,4218.717773,4466.153809,3304.000000,4.000000,91.000000,,,,0.000000,4.000000,4.000000,4.000000,4.000000,4.000000,4.000000,4.000000,4.000000,4.000000,4.000000,4.000000,4.000000,4.000000,4.000000,100.000000,,,,,,,,,,,,,,,,
1644852603.645367,28.000000,0.000000,4228.461426,4236.025879,4227.051270,4203.461426,4218.974121,4221.922852,4214.871582,4211.922852,4212.563965,4212.692383,4217.307617,4218.461426,4220.512695,4460.384766,3446.000000,4.000000,91.000000,,,,0.000000,4.000000,4.000000,4.000000,4.000000,4.000000,4.000000,4.000000,4.000000,4.000000,4.000000,4.000000,4.000000,4.000000,4.000000,100.000000,,,,,,,,,,,,,,,,
1644852603.649307,29.000000,0.000000,4220.384766,4228.205078,4224.102539,4208.846191,4221.025879,4225.384766,4211.666504,4209.102539,4211.282227,4213.717773,4212.820313,4215.512695,4222.436035,4447.563965,3430.000000,4.000000,91.000000,,,,0.000000,4.000000,4.000000,4.000000,4.000000,4.000000,4.000000,4.000000,4.000000,4.000000,4.000000,4.000000,4.000000,4.000000,4.000000,100.000000,,,,,,,,,,,,,,,,
1644852603.653247,30.000000,0.000000,4212.820313,4223.077148,4220.769043,4221.794922,4218.205078,4226.666504,4212.563965,4209.358887,4211.410156,4214.871582,4214.230957,4209.358887,4222.051270,4437.179688,3541.000000,4.000000,91.000000,,,,0.000000,4.000000,4.000000,4.000000,4.000000,4.000000,4.000000,4.000000,4.000000,4.000000,4.000000,4.000000,4.000000,4.000000,4.000000,100.000000,,,,,,,,,,,,,,,,
1644852603.657187,31.000000,0.000000,4212.051270,4223.205078,4218.846191,4233.974121,4214.358887,4224.871582,4215.128418,4211.666504,4213.205078,4215.256348,4218.589844,4201.794922,4219.615234,4436.922852,3304.000000,4.000000,91.000000,,,,0.000000,4.000000,4.000000,4.000000,4.000000,4.000000,4.000000,4.000000,4.000000,4.000000,4.000000,4.000000,4.000000,4.000000,4.000000,100.000000,,,,,,,,,,,,,,,,
1644852603.661127,32.000000,0.000000,4219.358887,4227.179688,4218.589844,4237.051270,4213.717773,4221.282227,4215.769043,4214.102539,4216.282227,4215.128418,4222.436035,4195.897461,4217.051270,4447.051270,0.000000,4.000000,91.000000,,,,0.000000,4.000000,4.000000,4.000000,4.000000,4.000000,4.000000,4.000000,4.000000,4.000000,4.000000,4.000000,4.000000,4.000000,4.000000,100.000000,1.000000,75.000000,4.000000,4.000000,4.000000,4.000000,4.000000,4.000000,4.000000,4.000000,4.000000,4.000000,4.000000,4.000000,4.000000,1.000000
1644852603.665067,33.000000,0.000000,4229.615234,4231.794922,4219.487305,4229.230957,4216.794922,4218.717773,4214.615234,4215.897461,4219.487305,4215.512695,4224.102539,4194.615234,4216.410156,4460.641113,0.000000,4.000000,91.000000,,,,0.000000,4.000000,4.000000,4.000000,4.000000,4.000000,4.000000,4.000000,4.000000,4.000000,4.000000,4.000000,4.000000,4.000000,4.000000,100.000000,,,,,,,,,,,,,,,,
1644852603.669008,34.000000,0.000000,4235.641113,4234.615234,4221.282227,4217.820313,4220.769043,4219.230957,4214.743652,4217.307617,4221.794922,4217.820313,4224.358887,4199.230957,4218.974121,4469.487305,0.000000,4.000000,91.000000,,,,0.000000,4.000000,4.000000,4.000000,4.000000,4.000000,4.000000,4.000000,4.000000,4.000000,4.000000,4.000000,4.000000,4.000000,4.000000,100.000000,,,,,,,,,,,,,,,,
1644852603.672948,35.000000,0.000000,4234.487305,4234.230957,4222.820313,4212.051270,4222.563965,4223.205078,4217.179688,4219.358887,4223.077148,4222.563965,4225.000000,4207.436035,4224.358887,4470.256348,0.000000,4.000000,91.000000,,,,0.000000,4.000000,4.000000,4.000000,4.000000,4.000000,4.000000,4.000000,4.000000,4.000000,4.000000,4.000000,4.000000,4.000000,4.000000,100.000000,,,,,,,,,,,,,,,,
1644852603.676888,36.000000,0.000000,4228.461426,4231.153809,4222.692383,4216.538574,4222.179688,4228.077148,4219.487305,4221.538574,4223.717773,4228.077148,4226.538574,4214.743652,4229.358887,4465.641113,0.000000,4.000000,91.000000,,,,0.000000,4.000000,4.000000,4.000000,4.000000,4.000000,4.000000,4.000000,4.000000,4.000000,4.000000,4.000000,4.000000,4.000000,4.000000,100.000000,,,,,,,,,,,,,,,,
1644852603.680828,37.000000,0.000000,4222.563965,4227.179688,4219.487305,4226.794922,4220.897461,4231.282227,4219.102539,4223.333496,4224.487305,4231.538574,4228.461426,4216.666504,4230.384766,4460.000000,0.000000,4.000000,91.000000,,,,0.000000,4.000000,4.000000,4.000000,4.000000,4.000000,4.000000,4.000000,4.000000,4.000000,4.000000,4.000000,4.000000,4.000000,4.000000,100.000000,,,,,,,,,,,,,,,,
1644852603.684768,38.000000,0.000000,4220.256348,4224.358887,4214.102539,4235.000000,4219.615234,4231.410156,4216.538574,4224.615234,4226.025879,4231.282227,4229.230957,4212.307617,4226.922852,4456.282227,0.000000,4.000000,91.000000,,,,0.000000,4.000000,4.000000,4.000000,4.000000,4.000000,4.000000,4.000000,4.000000,4.000000,4.000000,4.000000,4.000000,4.000000,4.000000,100.000000,,,,,,,,,,,,,,,,
1644852603.688708,39.000000,0.000000,4221.666504,4224.487305,4209.358887,4235.384766,4217.563965,4229.871582,4215.641113,4225.897461,4228.846191,4227.820313,4228.205078,4204.871582,4221.922852,4454.615234,0.000000,4.000000,91.000000,,,,0.000000,4.000000,4.000000,4.000000,4.000000,4.000000,4.000000,4.000000,4.000000,4.000000,4.000000,4.000000,4.000000,4.000000,4.000000,100.000000,,,,,,,,,,,,,,,,
1644852603.692648,40.000000,0.000000,4224.102539,4227.179688,4207.563965,4227.307617,4214.358887,4228.974121,4218.205078,4227.307617,4232.563965,4223.974121,4225.897461,4198.461426,4220.384766,4454.230957,0.000000,4.000000,91.000000,,,,0.000000,4.000000,4.000000,4.000000,4.000000,4.000000,4.000000,4.000000,4.000000,4.000000,4.000000,4.000000,4.000000,4.000000,4.000000,100.000000,,,,,,,,,,,,,,,,
1644852603.696588,41.000000,0.000000,4224.358887,4229.871582,4208.461426,4215.000000,4211.153809,4230.256348,4222.051270,4228.717773,4236.410156,4223.846191,4224.358887,4196.025879,4224.743652,4455.000000,0.000000,4.000000,91.000000,,,,0.000000,4.000000,4.000000,4.000000,4.000000,4.000000,4.000000,4.000000,4.000000,4.000000,4.000000,4.000000,4.000000,4.000000,4.000000,100.000000,,,,,,,,,,,,,,,,
1644852603.700528,42.000000,0.000000,4222.179688,4229.871582,4209.871582,4204.615234,4211.282227,4232.948730,4223.205078,4229.358887,4239.615234,4229.102539,4225.384766,4197.563965,4232.307617,4457.051270,0.000000,4.000000,91.000000,,,,0.000000,4.000000,4.000000,4.000000,4.000000,4.000000,4.000000,4.000000,4.000000,4.000000,4.000000,4.000000,4.000000,4.000000,4.000000,100.000000,,,,,,,,,,,,,,,,
1644852603.704469,43.000000,0.000000,4219.487305,4226.666504,4209.871582,4200.897461,4216.410156,4234.743652,4221.538574,4228.846191,4241.153809,4238.077148,4227.948730,4200.769043,4238.205078,4459.487305,0.000000,4.000000,91.000000,,,,0.000000,4.000000,4.000000,4.000000,4.000000,4.000000,4.000000,4.000000,4.000000,4.000000,4.000000,4.000000,4.000000,4.000000,4.000000,100.000000,,,,,,,,,,,,,,,,
1644852603.708409,44.000000,0.000000,4218.077148,4222.051270,4208.205078,4203.589844,4224.487305,4234.230957,4219.743652,4227.820313,4240.641113,4245.256348,4228.333496,4203.205078,4238.333496,4458.974121,0.000000,4.000000,91.000000,,,,0.000000,4.000000,4.000000,4.000000,4.000000,4.000000,4.000000,4.000000,4.000000,4.000000,4.000000,4.000000,4.000000,4.000000,4.000000,100.000000,,,,,,,,,,,,,,,,
1644852603.712349,45.000000,0.000000,4217.563965,4218.589844,4205.384766,4207.948730,4230.769043,4231.794922,4220.256348,4226.666504,4237.692383,4245.512695,4224.358887,4203.077148,4232.563965,4452.436035,0.000000,4.000000,91.000000,,,,0.000000,4.000000,4.000000,4.000000,4.000000,4.000000,4.000000,4.000000,4.000000,4.000000,4.000000,4.000000,4.000000,4.000000,4.000000,100.000000,,,,,,,,,,,,,,,,
1644852603.716389,46.000000,0.000000,4215.641113,4217.307617,4202.051270,4208.461426,4232.179688,4229.358887,4221.794922,4225.384766,4233.589844,4238.461426,4217.692383,4200.769043,4223.717773,4440.000000,0.000000,4.000000,91.000000,,,,0.000000,4.000000,4.000000,4.000000,4.000000,4.000000,4.000000,4.000000,4.000000,4.000000,4.000000,4.000000,4.000000,4.000000,4.000000,100.000000,,,,,,,,,,,,,,,,
1644852603.720329,47.000000,0.000000,4210.128418,4217.692383,4198.846191,4204.102539,4228.717773,4228.717773,4221.410156,4223.205078,4230.128418,4228.717773,4212.436035,4197.563965,4215.641113,4427.179688,0.000000,4.000000,91.000000,,,,0.000000,4.000000,4.000000,4.000000,4.000000,4.000000,4.000000,4.000000,4.000000,4.000000,4.000000,4.000000,4.000000,4.000000,4.000000,100.000000,,,,,,,,,,,,,,,,
1644852603.724269,48.000000,0.000000,4201.538574,4218.333496,4196.922852,4198.205078,4223.846191,4229.743652,4219.102539,4220.641113,4228.461426,4222.820313,4210.769043,4195.512695,4211.025879,4420.641113,0.000000,4.000000,91.000000,,,,0.000000,4.000000,4.000000,4.000000,4.000000,4.000000,4.000000,4.000000,4.000000,4.000000,4.000000,4.000000,4.000000,4.000000,4.000000,100.000000,,,,,,,,,,,,,,,,
1644852603.728209,49.000000,0.000000,4193.333496,4217.307617,4197.692383,4195.897461,4220.897461,4231.410156,4217.692383,4218.589844,4228.077148,4223.333496,4212.051270,4195.641113,4210.256348,4423.589844,0.000000,4.000000,91.000000,,,,0.000000,4.000000,4.000000,4.000000,4.000000,4.000000,4.000000,4.000000,4.000000,4.000000,4.000000,4.000000,4.000000,4.000000,4.000000,100.000000,,,,,,,,,,,,,,,,
1644852603.732149,50.000000,0.000000,4189.358887,4214.743652,4201.538574,4200.384766,4221.153809,4232.179688,4218.846191,4218.717773,4227.948730,4227.179688,4214.487305,4197.436035,4212.563965,4434.358887,0.000000,4.000000,91.000000,,,,0.000000,4.000000,4.000000,4.000000,4.000000,4.000000,4.000000,4.000000,4.000000,4.000000,4.000000,4.000000,4.000000,4.000000,4.000000,100.000000,,,,,,,,,,,,,,,,
1644852603.736089,51.000000,0.000000,4191.538574,4212.820313,4206.538574,4210.384766,4223.077148,4231.794922,4221.282227,4220.769043,4227.563965,4230.256348,4217.948730,4199.230957,4216.666504,4448.205078,0.000000,4.000000,91.000000,,,,0.000000,4.000000,4.000000,4.000000,4.000000,4.000000,4.000000,4.000000,4.000000,4.000000,4.000000,4.000000,4.000000,4.000000,4.000000,100.000000,,,,,,,,,,,,,,,,
1644852603.740029,52.000000,0.000000,4198.077148,4214.102539,4210.128418,4220.384766,4223.974121,4230.897461,4222.436035,4222.948730,4227.307617,4230.256348,4223.077148,4199.743652,4221.153809,4459.615234,0.000000,4.000000,91.000000,,,,0.000000,4.000000,4.000000,4.000000,4.000000,4.000000,4.000000,4.000000,4.000000,4.000000,4.000000,4.000000,4.000000,4.000000,4.000000,100.000000,,,,,,,,,,,,,,,,
1644852603.743969,53.000000,0.000000,4206.153809,4219.102539,4210.641113,4224.743652,4222.307617,4230.897461,4222.307617,4223.205078,4226.794922,4228.077148,4228.717773,4199.487305,4224.358887,4463.717773,0.000000,4.000000,91.000000,,,,0.000000,4.000000,4.000000,4.000000,4.000000,4.000000,4.000000,4.000000,4.000000,4.000000,4.000000,4.000000,4.000000,4.000000,4.000000,100.000000,,,,,,,,,,,,,,,,
1644852603.747910,54.000000,0.000000,4212.820313,4225.256348,4208.717773,4221.410156,4218.717773,4231.922852,4222.563965,4220.897461,4225.384766,4225.641113,4231.922852,4199.487305,4224.871582,4457.948730,0.000000,4.000000,91.000000,,,,0.000000,4.000000,4.000000,4.000000,4.000000,4.000000,4.000000,4.000000,4.000000,4.000000,4.000000,4.000000,4.000000,4.000000,4.000000,100.000000,,,,,,,,,,,,,,,,
1644852603.751850,55.000000,0.000000,4216.282227,4228.717773,4206.153809,4213.589844,4215.256348,4232.692383,4223.717773,4217.051270,4222.692383,4223.461426,4230.128418,4200.384766,4222.179688,4443.846191,0.000000,4.000000,91.000000,,,,0.000000,4.000000,4.000000,4.000000,4.000000,4.000000,4.000000,4.000000,4.000000,4.000000,4.000000,4.000000,4.000000,4.000000,4.000000,100.000000,,,,,,,,,,,,,,,,
1644852603.755790,56.000000,0.000000,4215.897461,4227.436035,4204.487305,4207.563965,4213.589844,4231.538574,4223.846191,4213.205078,4219.487305,4220.897461,4222.820313,4201.025879,4217.436035,4427.436035,0.000000,4.000000,91.000000,,,,0.000000,4.000000,4.000000,4.000000,4.000000,4.000000,4.000000,4.000000,4.000000,4.000000,4.000000,4.000000,4.000000,4.000000,4.000000,100.000000,,,,,,,,,,,,,,,,
1644852603.759730,57.000000,0.000000,4212.307617,4222.820313,4204.743652,4207.692383,4214.358887,4227.436035,4220.641113,4210.256348,4216.666504,4217.820313,4213.461426,4199.487305,4213.974121,4417.307617,0.000000,4.000000,91.000000,,,,0.000000,4.000000,4.000000,4.000000,4.000000,4.000000,4.000000,4.000000,4.000000,4.000000,4.000000,4.000000,4.000000,4.000000,4.000000,100.000000,,,,,,,,,,,,,,,,
1644852603.763670,58.000000,0.000000,4207.563965,4217.563965,4206.922852,4213.589844,4216.538574,4221.410156,4215.641113,4208.846191,4214.487305,4214.743652,4206.282227,4195.128418,4214.102539,4418.717773,0.000000,4.000000,91.000000,,,,0.000000,4.000000,4.000000,4.000000,4.000000,4.000000,4.000000,4.000000,4.000000,4.000000,4.000000,4.000000,4.000000,4.000000,4.000000,100.000000,,,,,,,,,,,,,,,,
1644852603.767610,59.000000,0.000000,4203.846191,4214.487305,4210.128418,4219.871582,4218.461426,4216.282227,4212.692383,4209.487305,4212.692383,4213.333496,4205.000000,4189.743652,4217.820313,4429.871582,0.000000,4.000000,91.000000,,,,0.000000,4.000000,4.000000,4.000000,4.000000,4.000000,4.000000,4.000000,4.000000,4.000000,4.000000,4.000000,4.000000,4.000000,4.000000,100.000000,,,,,,,,,,,,,,,,
1644852603.771550,60.000000,0.000000,4201.538574,4214.743652,4212.692383,4220.641113,4220.256348,4214.230957,4213.974121,4211.794922,4211.282227,4215.384766,4210.641113,4186.666504,4221.922852,4442.051270,0.000000,4.000000,91.000000,,,,0.000000,4.000000,4.000000,4.000000,4.000000,4.000000,4.000000,4.000000,4.000000,4.000000,4.000000,4.000000,4.000000,4.000000,4.000000,100.000000,,,,,,,,,,,,,,,,
1644852603.775490,61.000000,0.000000,4200.256348,4218.846191,4213.974121,4214.102539,4222.948730,4215.384766,4217.436035,4214.358887,4211.538574,4221.282227,4220.384766,4189.358887,4222.948730,4446.794922,0.000000,4.000000,91.000000,,,,0.000000,4.000000,4.000000,4.000000,4.000000,4.000000,4.000000,4.000000,4.000000,4.000000,4.000000,4.000000,4.000000,4.000000,4.000000,100.000000,,,,,,,,,,,,,,,,
1644852603.779430,62.000000,0.000000,4200.256348,4224.487305,4214.230957,4205.000000,4226.794922,4218.077148,4218.974121,4216.410156,4214.615234,4228.333496,4229.487305,4197.563965,4220.128418,4441.922852,0.000000,4.000000,91.000000,,,,0.000000,4.000000,4.000000,4.000000,4.000000,4.000000,4.000000,4.000000,4.000000,4.000000,4.000000,4.000000,4.000000,4.000000,4.000000,100.000000,,,,,,,,,,,,,,,,
1644852603.783371,63.000000,0.000000,4202.436035,4228.461426,4214.615234,4200.641113,4229.358887,4220.512695,4217.051270,4217.563965,4219.487305,4231.410156,4232.692383,4207.179688,4215.512695,4432.692383,0.000000,4.000000,91.000000,,,,0.000000,4.000000,4.000000,4.000000,4.000000,4.000000,4.000000,4.000000,4.000000,4.000000,4.000000,4.000000,4.000000,4.000000,4.000000,100.000000,,,,,,,,,,,,,,,,
1644852603.787311,64.000000,0.000000,4206.666504,4227.948730,4215.256348,4204.487305,4226.410156,4221.153809,4214.102539,4217.820313,4223.077148,4226.794922,4228.077148,4211.282227,4211.153809,4426.922852,0.000000,4.000000,91.000000,,,,0.000000,4.000000,4.000000,4.000000,4.000000,4.000000,4.000000,4.000000,4.000000,4.000000,4.000000,4.000000,4.000000,4.000000,4.000000,100.000000,,,,,,,,,,,,,,,,
1644852603.791151,65.000000,0.000000,4211.794922,4223.461426,4215.384766,4212.948730,4216.794922,4219.743652,4212.820313,4216.794922,4222.692383,4215.641113,4218.333496,4206.794922,4207.948730,4429.102539,0.000000,4.000000,91.000000,,,,0.000000,4.000000,4.000000,4.000000,4.000000,4.000000,4.000000,4.000000,4.000000,4.000000,4.000000,4.000000,4.000000,4.000000,4.000000,100.000000,,,,,,,,,,,,,,,,
1644852603.795091,66.000000,0.000000,4215.256348,4218.333496,4213.974121,4219.743652,4205.000000,4217.051270,4213.589844,4214.358887,4218.333496,4204.358887,4210.000000,4196.410156,4205.769043,4437.307617,0.000000,4.000000,91.000000,,,,0.000000,4.000000,4.000000,4.000000,4.000000,4.000000,4.000000,4.000000,4.000000,4.000000,4.000000,4.000000,4.000000,4.000000,4.000000,100.000000,,,,,,,,,,,,,,,,
1644852603.799031,67.000000,0.000000,4216.025879,4216.153809,4211.410156,4221.282227,4199.615234,4215.256348,4214.487305,4211.410156,4213.077148,4199.102539,4207.563965,4186.538574,4204.102539,4445.128418,0.000000,4.000000,91.000000,,,,0.000000,4.000000,4.000000,4.000000,4.000000,4.000000,4.000000,4.000000,4.000000,4.000000,4.000000,4.000000,4.000000,4.000000,4.000000,100.000000,,,,,,,,,,,,,,,,
1644852603.802971,68.000000,0.000000,4215.769043,4218.846191,4209.102539,4219.358887,4205.128418,4216.025879,4214.615234,4209.871582,4210.256348,4201.282227,4210.128418,4182.692383,4203.589844,4446.794922,0.000000,4.000000,91.000000,,,,0.000000,4.000000,4.000000,4.000000,4.000000,4.000000,4.000000,4.000000,4.000000,4.000000,4.000000,4.000000,4.000000,4.000000,4.000000,100.000000,,,,,,,,,,,,,,,,
1644852603.806911,69.000000,0.000000,4216.666504,4225.128418,4209.230957,4217.051270,4218.461426,4219.358887,4215.641113,4211.538574,4211.666504,4207.563965,4212.948730,4185.641113,4205.641113,4442.051270,0.000000,4.000000,91.000000,,,,0.000000,4.000000,4.000000,4.000000,4.000000,4.000000,4.000000,4.000000,4.000000,4.000000,4.000000,4.000000,4.000000,4.000000,4.000000,100.000000,,,,,,,,,,,,,,,,
1644852603.810851,70.000000,0.000000,4220.128418,4232.051270,4212.948730,4215.769043,4229.743652,4222.948730,4218.461426,4215.897461,4216.922852,4213.974121,4212.563965,4192.563965,4211.538574,4436.282227,0.000000,4.000000,91.000000,,,,0.000000,4.000000,4.000000,4.000000,4.000000,4.000000,4.000000,4.000000,4.000000,4.000000,4.000000,4.000000,4.000000,4.000000,4.000000,100.000000,,,,,,,,,,,,,,,,
1644852603.814791,71.000000,0.000000,4223.717773,4236.538574,4219.230957,4215.512695,4230.769043,4224.871582,4221.794922,4220.641113,4223.974121,4219.615234,4209.743652,4199.615234,4220.769043,4436.282227,0.000000,4.000000,91.000000,,,,0.000000,4.000000,4.000000,4.000000,4.000000,4.000000,4.000000,4.000000,4.000000,4.000000,4.000000,4.000000,4.000000,4.000000,4.000000,100.000000,,,,,,,,,,,,,,,,
1644852603.818732,72.000000,0.000000,4224.743652,4236.538574,4225.384766,4215.384766,4221.282227,4224.487305,4223.077148,4223.589844,4230.897461,4226.153809,4208.205078,4204.615234,4230.512695,4443.461426,0.000000,4.000000,91.000000,,,,0.000000,4.000000,4.000000,4.000000,4.000000,4.000000,4.000000,4.000000,4.000000,4.000000,4.000000,4.000000,4.000000,4.000000,4.000000,100.000000,,,,,,,,,,,,,,,,
1644852603.822672,73.000000,0.000000,4222.436035,4232.307617,4228.333496,4216.153809,4209.487305,4223.077148,4222.179688,4225.000000,4236.153809,4234.102539,4210.256348,4206.666504,4237.307617,4452.563965,0.000000,4.000000,91.000000,,,,0.000000,4.000000,4.000000,4.000000,4.000000,4.000000,4.000000,4.000000,4.000000,4.000000,4.000000,4.000000,4.000000,4.000000,4.000000,100.000000,,,,,,,,,,,,,,,,
1644852603.826612,74.000000,0.000000,4219.102539,4226.922852,4226.666504,4217.307617,4205.384766,4221.922852,4221.538574,4226.922852,4239.871582,4241.538574,4214.487305,4206.025879,4238.461426,4455.897461,0.000000,4.000000,91.000000,,,,0.000000,4.000000,4.000000,4.000000,4.000000,4.000000,4.000000,4.000000,4.000000,4.000000,4.000000,4.000000,4.000000,4.000000,4.000000,100.000000,,,,,,,,,,,,,,,,
1644852603.830552,75.000000,0.000000,4218.461426,4223.461426,4221.282227,4217.307617,4211.666504,4222.307617,4223.205078,4230.641113,4242.692383,4245.512695,4217.436035,4203.589844,4234.230957,4450.000000,0.000000,4.000000,91.000000,,,,0.000000,4.000000,4.000000,4.000000,4.000000,4.000000,4.000000,4.000000,4.000000,4.000000,4.000000,4.000000,4.000000,4.000000,4.000000,100.000000,,,,,,,,,,,,,,,,
1644852603.834492,76.000000,0.000000,4221.666504,4222.820313,4214.230957,4214.743652,4222.820313,4224.487305,4226.410156,4235.128418,4245.128418,4245.128418,4216.922852,4200.897461,4227.436035,4437.692383,0.000000,4.000000,91.000000,,,,0.000000,4.000000,4.000000,4.000000,4.000000,4.000000,4.000000,4.000000,4.000000,4.000000,4.000000,4.000000,4.000000,4.000000,4.000000,100.000000,,,,,,,,,,,,,,,,
1644852603.838432,77.000000,0.000000,4226.025879,4223.461426,4208.333496,4209.871582,4229.871582,4227.692383,4228.077148,4237.436035,4246.410156,4241.410156,4215.128418,4199.487305,4221.794922,4425.897461,0.000000,4.000000,91.000000,,,,0.000000,4.000000,4.000000,4.000000,4.000000,4.000000,4.000000,4.000000,4.000000,4.000000,4.000000,4.000000,4.000000,4.000000,4.000000,100.000000,,,,,,,,,,,,,,,,
1644852603.842372,78.000000,0.000000,4226.922852,4223.077148,4205.641113,4205.897461,4228.333496,4230.641113,4227.179688,4235.512695,4245.256348,4236.538574,4216.922852,4199.743652,4219.871582,4420.769043,0.000000,4.000000,91.000000,,,,0.000000,4.000000,4.000000,4.000000,4.000000,4.000000,4.000000,4.000000,4.000000,4.000000,4.000000,4.000000,4.000000,4.000000,4.000000,100.000000,,,,,,,,,,,,,,,,
1644852603.846312,79.000000,0.000000,4221.410156,4221.025879,4207.051270,4207.179688,4221.538574,4232.179688,4225.384766,4230.641113,4241.794922,4231.922852,4224.871582,4200.641113,4221.025879,4424.230957,0.000000,4.000000,91.000000,,,,0.000000,4.000000,4.000000,4.000000,4.000000,4.000000,4.000000,4.000000,4.000000,4.000000,4.000000,4.000000,4.000000,4.000000,4.000000,100.000000,,,,,,,,,,,,,,,,
1644852603.850252,80.000000,0.000000,4211.922852,4219.230957,4211.666504,4215.384766,4216.922852,4232.179688,4225.256348,4226.153809,4237.563965,4227.948730,4235.512695,4200.384766,4222.692383,4432.563965,0.000000,4.000000,91.000000,,,,0.000000,4.000000,4.000000,4.000000,4.000000,4.000000,4.000000,4.000000,4.000000,4.000000,4.000000,4.000000,4.000000,4.000000,4.000000,100.000000,,,,,,,,,,,,,,,,
1644852603.854193,81.000000,0.000000,4204.358887,4219.743652,4216.538574,4227.051270,4219.615234,4231.410156,4225.897461,4224.615234,4234.743652,4225.000000,4240.897461,4198.077148,4222.820313,4438.846191,0.000000,4.000000,91.000000,,,,0.000000,4.000000,4.000000,4.000000,4.000000,4.000000,4.000000,4.000000,4.000000,4.000000,4.000000,4.000000,4.000000,4.000000,4.000000,100.000000,,,,,,,,,,,,,,,,
1644852603.858033,82.000000,0.000000,4204.102539,4223.461426,4217.948730,4234.487305,4227.820313,4230.769043,4224.871582,4225.897461,4234.615234,4223.589844,4235.897461,4193.846191,4220.641113,4438.333496,0.000000,4.000000,91.000000,,,,0.000000,4.000000,4.000000,4.000000,4.000000,4.000000,4.000000,4.000000,4.000000,4.000000,4.000000,4.000000,4.000000,4.000000,4.000000,100.000000,,,,,,,,,,,,,,,,
1644852603.861973,83.000000,0.000000,4210.512695,4228.077148,4214.358887,4231.410156,4235.000000,4230.641113,4221.666504,4228.333496,4235.897461,4224.358887,4222.051270,4189.102539,4217.692383,4431.410156,0.000000,4.000000,91.000000,,,,0.000000,4.000000,4.000000,4.000000,4.000000,4.000000,4.000000,4.000000,4.000000,4.000000,4.000000,4.000000,4.000000,4.000000,4.000000,100.000000,,,,,,,,,,,,,,,,
1644852603.865913,84.000000,0.000000,4218.461426,4230.512695,4208.205078,4217.820313,4235.128418,4230.512695,4219.230957,4230.000000,4236.153809,4226.538574,4208.077148,4186.025879,4216.794922,4423.205078,0.000000,4.000000,91.000000,,,,0.000000,4.000000,4.000000,4.000000,4.000000,4.000000,4.000000,4.000000,4.000000,4.000000,4.000000,4.000000,4.000000,4.000000,4.000000,100.000000,,,,,,,,,,,,,,,,
1644852603.869853,85.000000,0.000000,4222.307617,4229.230957,4203.846191,4200.897461,4228.333496,4230.000000,4220.769043,4230.256348,4234.871582,4228.846191,4203.205078,4186.153809,4220.384766,4420.769043,0.000000,4.000000,91.000000,,,,0.000000,4.000000,4.000000,4.000000,4.000000,4.000000,4.000000,4.000000,4.000000,4.000000,4.000000,4.000000,4.000000,4.000000,4.000000,100.000000,,,,,,,,,,,,,,,,
1644852603.873793,86.000000,0.000000,4221.025879,4226.025879,4204.615234,4190.384766,4219.743652,4229.358887,4225.641113,4230.000000,4233.461426,4230.128418,4210.256348,4190.000000,4228.846191,4426.666504,0.000000,4.000000,91.000000,,,,0.000000,4.000000,4.000000,4.000000,4.000000,4.000000,4.000000,4.000000,4.000000,4.000000,4.000000,4.000000,4.000000,4.000000,4.000000,100.000000,,,,,,,,,,,,,,,,
1644852603.877733,87.000000,0.000000,4217.948730,4224.358887,4210.128418,4192.051270,4215.128418,4230.000000,4229.230957,4229.743652,4233.333496,4229.871582,4223.205078,4196.410156,4239.487305,4437.948730,0.000000,4.000000,91.000000,,,,0.000000,4.000000,4.000000,4.000000,4.000000,4.000000,4.000000,4.000000,4.000000,4.000000,4.000000,4.000000,4.000000,4.000000,4.000000,100.000000,,,,,,,,,,,,,,,,
1644852603.881673,88.000000,0.000000,4216.922852,4226.153809,4216.538574,4203.589844,4215.769043,4231.922852,4228.589844,4229.102539,4234.102539,4228.589844,4232.179688,4203.461426,4248.589844,4447.948730,0.000000,4.000000,91.000000,,,,0.000000,4.000000,4.000000,4.000000,4.000000,4.000000,4.000000,4.000000,4.000000,4.000000,4.000000,4.000000,4.000000,4.000000,4.000000,100.000000,,,,,,,,,,,,,,,,
1644852603.885613,89.000000,0.000000,4218.333496,4229.871582,4220.384766,4217.436035,4218.974121,4233.589844,4225.000000,4227.436035,4233.717773,4226.922852,4231.538574,4208.205078,4252.563965,4451.666504,0.000000,4.000000,91.000000,,,,0.000000,4.000000,4.000000,4.000000,4.000000,4.000000,4.000000,4.000000,4.000000,4.000000,4.000000,4.000000,4.000000,4.000000,4.000000,100.000000,,,,,,,,,,,,,,,,
1644852603.889554,90.000000,0.000000,4219.358887,4231.538574,4221.153809,4225.769043,4221.538574,4233.717773,4222.436035,4224.871582,4231.282227,4225.769043,4224.615234,4209.230957,4251.025879,4448.589844,0.000000,4.000000,91.000000,,,,0.000000,4.000000,4.000000,4.000000,4.000000,4.000000,4.000000,4.000000,4.000000,4.000000,4.000000,4.000000,4.000000,4.000000,4.000000,100.000000,,,,,,,,,,,,,,,,
1644852603.893494,91.000000,0.000000,4217.820313,4228.846191,4220.897461,4225.641113,4221.922852,4232.820313,4222.948730,4222.820313,4227.563965,4225.512695,4220.000000,4206.922852,4246.666504,4442.563965,0.000000,4.000000,91.000000,,,,0.000000,4.000000,4.000000,4.000000,4.000000,4.000000,4.000000,4.000000,4.000000,4.000000,4.000000,4.000000,4.000000,4.000000,4.000000,100.000000,,,,,,,,,,,,,,,,
1644852603.897434,92.000000,0.000000,4215.641113,4223.717773,4221.794922,4219.743652,4221.025879,4231.410156,4224.487305,4222.820313,4225.897461,4226.025879,4222.948730,4204.230957,4243.461426,4438.077148,0.000000,4.000000,91.000000,,,,0.000000,4.000000,4.000000,4.000000,4.000000,4.000000,4.000000,4.000000,4.000000,4.000000,4.000000,4.000000,4.000000,4.000000,4.000000,100.000000,,,,,,,,,,,,,,,,
1644852603.901374,93.000000,0.000000,4216.025879,4220.000000,4223.846191,4213.589844,4220.000000,4230.512695,4224.358887,4225.256348,4228.205078,4226.794922,4231.410156,4204.102539,4242.820313,4436.538574,0.000000,4.000000,91.000000,,,,0.000000,4.000000,4.000000,4.000000,4.000000,4.000000,4.000000,4.000000,4.000000,4.000000,4.000000,4.000000,4.000000,4.000000,4.000000,100.000000,,,,,,,,,,,,,,,,
1644852603.905314,94.000000,0.000000,4219.102539,4219.743652,4225.128418,4210.769043,4219.743652,4230.128418,4222.692383,4228.974121,4232.820313,4227.051270,4238.461426,4207.820313,4242.692383,4436.025879,0.000000,4.000000,91.000000,,,,0.000000,4.000000,4.000000,4.000000,4.000000,4.000000,4.000000,4.000000,4.000000,4.000000,4.000000,4.000000,4.000000,4.000000,4.000000,100.000000,,,,,,,,,,,,,,,,
1644852603.909254,95.000000,0.000000,4220.897461,4220.512695,4223.333496,4211.922852,4220.256348,4230.256348,4221.153809,4232.051270,4235.641113,4226.538574,4238.974121,4213.077148,4239.615234,4433.589844,0.000000,4.000000,91.000000,,,,0.000000,4.000000,4.000000,4.000000,4.000000,4.000000,4.000000,4.000000,4.000000,4.000000,4.000000,4.000000,4.000000,4.000000,4.000000,100.000000,,,,,,,,,,,,,,,,
1644852603.913194,96.000000,0.000000,4217.179688,4218.333496,4218.205078,4214.615234,4221.538574,4230.512695,4221.153809,4232.563965,4234.102539,4226.025879,4234.102539,4216.666504,4233.589844,4428.077148,0.000000,4.000000,91.000000,,,,0.000000,4.000000,4.000000,4.000000,4.000000,4.000000,4.000000,4.000000,4.000000,4.000000,4.000000,4.000000,4.000000,4.000000,4.000000,100.000000,,,,,,,,,,,,,,,,
1644852603.917134,97.000000,0.000000,4207.820313,4212.307617,4212.179688,4214.871582,4222.948730,4230.897461,4221.922852,4230.641113,4229.615234,4226.794922,4229.102539,4217.051270,4228.589844,4422.820313,0.000000,4.000000,91.000000,,,,0.000000,4.000000,4.000000,4.000000,4.000000,4.000000,4.000000,4.000000,4.000000,4.000000,4.000000,4.000000,4.000000,4.000000,4.000000,100.000000,,,,,,,,,,,,,,,,
1644852603.921074,98.000000,0.000000,4199.487305,4207.051270,4210.000000,4211.538574,4224.102539,4231.410156,4222.436035,4228.717773,4227.307617,4229.871582,4228.333496,4216.153809,4229.358887,4422.563965,0.000000,4.000000,91.000000,,,,0.000000,4.000000,4.000000,4.000000,4.000000,4.000000,4.000000,4.000000,4.000000,4.000000,4.000000,4.000000,4.000000,4.000000,4.000000,100.000000,,,,,,,,,,,,,,,,
1644852603.925015,99.000000,0.000000,4200.000000,4207.563965,4213.717773,4207.051270,4223.589844,4232.563965,4223.333496,4230.128418,4230.641113,4234.743652,4232.436035,4216.794922,4236.153809,4429.487305,0.000000,4.000000,91.000000,,,,0.000000,4.000000,4.000000,4.000000,4.000000,4.000000,4.000000,4.000000,4.000000,4.000000,4.000000,4.000000,4.000000,4.000000,4.000000,100.000000,,,,,,,,,,,,,,,,
1644852603.928955,100.000000,0.000000,4211.922852,4215.128418,4220.897461,4206.538574,4221.025879,4234.102539,4225.641113,4235.384766,4238.589844,4239.487305,4237.307617,4219.102539,4244.487305,4439.487305,0.000000,4.000000,91.000000,,,,0.000000,4.000000,4.000000,4.000000,4.000000,4.000000,4.000000,4.000000,4.000000,4.000000,4.000000,4.000000,4.000000,4.000000,4.000000,100.000000,,,,,,,,,,,,,,,,
1644852603.932795,101.000000,0.000000,4229.615234,4225.769043,4225.769043,4212.692383,4217.692383,4235.128418,4227.436035,4240.769043,4245.897461,4242.563965,4239.102539,4220.000000,4248.205078,4445.512695,0.000000,4.000000,91.000000,,,,0.000000,4.000000,4.000000,4.000000,4.000000,4.000000,4.000000,4.000000,4.000000,4.000000,4.000000,4.000000,4.000000,4.000000,4.000000,100.000000,,,,,,,,,,,,,,,,
1644852603.936735,102.000000,0.000000,4242.436035,4233.717773,4223.974121,4223.333496,4215.769043,4234.102539,4225.769043,4241.410156,4247.179688,4244.358887,4236.794922,4216.666504,4246.025879,4443.974121,0.000000,4.000000,91.000000,,,,0.000000,4.000000,4.000000,4.000000,4.000000,4.000000,4.000000,4.000000,4.000000,4.000000,4.000000,4.000000,4.000000,4.000000,4.000000,100.000000,,,,,,,,,,,,,,,,
1644852603.940675,103.000000,0.000000,4242.692383,4235.512695,4216.922852,4231.538574,4216.666504,4231.025879,4219.615234,4235.384766,4241.666504,4245.128418,4233.077148,4209.615234,4241.153809,4437.820313,0.000000,4.000000,91.000000,,,,0.000000,4.000000,4.000000,4.000000,4.000000,4.000000,4.000000,4.000000,4.000000,4.000000,4.000000,4.000000,4.000000,4.000000,4.000000,100.000000,,,,,,,,,,,,,,,,
1644852603.944615,104.000000,0.000000,4231.666504,4231.666504,4210.641113,4232.436035,4220.384766,4227.307617,4213.205078,4226.538574,4234.102539,4244.230957,4230.897461,4203.205078,4238.846191,4432.436035,0.000000,4.000000,91.000000,,,,0.000000,4.000000,4.000000,4.000000,4.000000,4.000000,4.000000,4.000000,4.000000,4.000000,4.000000,4.000000,4.000000,4.000000,4.000000,100.000000,,,,,,,,,,,,,,,,
1644852603.948555,105.000000,0.000000,4217.692383,4226.025879,4210.000000,4226.538574,4225.384766,4225.256348,4212.436035,4221.153809,4230.384766,4241.153809,4231.410156,4201.794922,4240.769043,4431.282227,0.000000,4.000000,91.000000,,,,0.000000,4.000000,4.000000,4.000000,4.000000,4.000000,4.000000,4.000000,4.000000,4.000000,4.000000,4.000000,4.000000,4.000000,4.000000,100.000000,,,,,,,,,,,,,,,,
1644852603.952495,106.000000,0.000000,4210.384766,4222.692383,4215.256348,4219.358887,4229.230957,4226.282227,4218.717773,4222.692383,4233.077148,4236.794922,4233.717773,4206.153809,4245.128418,4433.077148,0.000000,4.000000,91.000000,,,,0.000000,4.000000,4.000000,4.000000,4.000000,4.000000,4.000000,4.000000,4.000000,4.000000,4.000000,4.000000,4.000000,4.000000,4.000000,100.000000,,,,,,,,,,,,,,,,
1644852603.956435,107.000000,0.000000,4213.461426,4223.205078,4221.666504,4217.436035,4230.769043,4230.128418,4226.794922,4228.461426,4239.102539,4233.333496,4235.512695,4212.436035,4248.461426,4435.256348,0.000000,4.000000,91.000000,,,,0.000000,4.000000,4.000000,4.000000,4.000000,4.000000,4.000000,4.000000,4.000000,4.000000,4.000000,4.000000,4.000000,4.000000,4.000000,100.000000,,,,,,,,,,,,,,,,
1644852603.960376,108.000000,0.000000,4222.948730,4225.641113,4223.974121,4221.922852,4230.000000,4233.717773,4229.871582,4232.179688,4242.563965,4232.051270,4235.769043,4215.384766,4248.333496,4436.538574,0.000000,4.000000,91.000000,,,,0.000000,4.000000,4.000000,4.000000,4.000000,4.000000,4.000000,4.000000,4.000000,4.000000,4.000000,4.000000,4.000000,4.000000,4.000000,100.000000,,,,,,,,,,,,,,,,
1644852603.964316,109.000000,0.000000,4230.512695,4226.794922,4220.128418,4227.820313,4227.820313,4233.974121,4225.897461,4229.871582,4239.230957,4231.538574,4233.717773,4211.410156,4244.358887,4436.922852,0.000000,4.000000,91.000000,,,,0.000000,4.000000,4.000000,4.000000,4.000000,4.000000,4.000000,4.000000,4.000000,4.000000,4.000000,4.000000,4.000000,4.000000,4.000000,100.000000,,,,,,,,,,,,,,,,
1644852603.968256,110.000000,0.000000,4229.358887,4224.230957,4212.307617,4227.563965,4223.846191,4229.358887,4219.102539,4222.948730,4230.128418,4228.974121,4229.743652,4202.563965,4236.794922,4435.256348,0.000000,4.000000,91.000000,,,,0.000000,4.000000,4.000000,4.000000,4.000000,4.000000,4.000000,4.000000,4.000000,4.000000,4.000000,4.000000,4.000000,4.000000,4.000000,100.000000,,,,,,,,,,,,,,,,
1644852603.972196,111.000000,0.000000,4219.487305,4218.974121,4204.871582,4218.077148,4217.948730,4222.436035,4215.128418,4217.179688,4221.153809,4224.102539,4224.615234,4193.846191,4227.179688,4428.461426,0.000000,4.000000,91.000000,,,,0.000000,4.000000,4.000000,4.000000,4.000000,4.000000,4.000000,4.000000,4.000000,4.000000,4.000000,4.000000,4.000000,4.000000,4.000000,100.000000,,,,,,,,,,,,,,,,
1644852603.976136,112.000000,0.000000,4206.282227,4213.461426,4201.025879,4203.589844,4211.282227,4217.948730,4215.512695,4216.794922,4218.205078,4220.128418,4219.102539,4190.384766,4218.077148,4415.512695,0.000000,4.000000,91.000000,,,,0.000000,4.000000,4.000000,4.000000,4.000000,4.000000,4.000000,4.000000,4.000000,4.000000,4.000000,4.000000,4.000000,4.000000,4.000000,100.000000,,,,,,,,,,,,,,,,
1644852603.980076,113.000000,0.000000,4195.384766,4210.384766,4200.897461,4192.948730,4206.794922,4218.461426,4217.692383,4221.538574,4223.461426,4221.025879,4214.871582,4192.563965,4212.436035,4399.358887,0.000000,4.000000,91.000000,,,,0.000000,4.000000,4.000000,4.000000,4.000000,4.000000,4.000000,4.000000,4.000000,4.000000,4.000000,4.000000,4.000000,4.000000,4.000000,100.000000,,,,,,,,,,,,,,,,
1644852603.984016,114.000000,0.000000,4189.487305,4209.487305,4201.794922,4192.820313,4206.538574,4222.307617,4219.615234,4227.563965,4233.333496,4227.051270,4212.563965,4196.666504,4211.282227,4386.794922,0.000000,4.000000,91.000000,,,,0.000000,4.000000,4.000000,4.000000,4.000000,4.000000,4.000000,4.000000,4.000000,4.000000,4.000000,4.000000,4.000000,4.000000,4.000000,100.000000,,,,,,,,,,,,,,,,
1644852603.987956,115.000000,0.000000,4187.820313,4209.102539,4201.538574,4203.077148,4210.256348,4225.384766,4221.153809,4231.025879,4240.897461,4233.205078,4211.922852,4198.461426,4213.461426,4383.717773,0.000000,4.000000,91.000000,,,,0.000000,4.000000,4.000000,4.000000,4.000000,4.000000,4.000000,4.000000,4.000000,4.000000,4.000000,4.000000,4.000000,4.000000,4.000000,100.000000,,,,,,,,,,,,,,,,
1644852603.991896,116.000000,0.000000,4188.846191,4208.461426,4200.256348,4216.794922,4216.282227,4224.871582,4223.077148,4231.153809,4242.179688,4233.846191,4212.307617,4196.794922,4216.538574,4390.897461,0.000000,4.000000,91.000000,,,,0.000000,4.000000,4.000000,4.000000,4.000000,4.000000,4.000000,4.000000,4.000000,4.000000,4.000000,4.000000,4.000000,4.000000,4.000000,100.000000,,,,,,,,,,,,,,,,
1644852603.995837,117.000000,0.000000,4192.563965,4208.333496,4200.384766,4225.384766,4222.563965,4222.051270,4224.487305,4229.358887,4238.461426,4227.948730,4213.717773,4194.230957,4219.487305,4403.077148,0.000000,4.000000,91.000000,,,,0.000000,4.000000,4.000000,4.000000,4.000000,4.000000,4.000000,4.000000,4.000000,4.000000,4.000000,4.000000,4.000000,4.000000,4.000000,100.000000,,,,,,,,,,,,,,,,
1644852603.999777,118.000000,0.000000,4199.743652,4210.641113,4203.846191,4225.128418,4227.563965,4220.897461,4224.102539,4228.205078,4234.487305,4221.025879,4216.538574,4194.487305,4222.692383,4412.563965,0.000000,4.000000,91.000000,,,,0.000000,4.000000,4.000000,4.000000,4.000000,4.000000,4.000000,4.000000,4.000000,4.000000,4.000000,4.000000,4.000000,4.000000,4.000000,100.000000,,,,,,,,,,,,,,,,
1644852604.003817,119.000000,0.000000,4210.384766,4215.128418,4210.256348,4218.589844,4230.512695,4223.461426,4222.692383,4228.846191,4233.846191,4219.871582,4220.641113,4199.230957,4226.538574,4415.256348,0.000000,4.000000,91.000000,,,,0.000000,4.000000,4.000000,4.000000,4.000000,4.000000,4.000000,4.000000,4.000000,4.000000,4.000000,4.000000,4.000000,4.000000,4.000000,100.000000,,,,,,,,,,,,,,,,
1644852604.007757,120.000000,0.000000,4220.769043,4219.230957,4216.538574,4211.282227,4231.153809,4228.077148,4222.820313,4230.897461,4236.282227,4227.051270,4224.102539,4206.410156,4230.000000,4412.051270,0.000000,4.000000,91.000000,,,,0.000000,4.000000,4.000000,4.000000,4.000000,4.000000,4.000000,4.000000,4.000000,4.000000,4.000000,4.000000,4.000000,4.000000,4.000000,100.000000,,,,,,,,,,,,,,,,
1644852604.011697,121.000000,0.000000,4224.615234,4219.230957,4218.589844,4206.538574,4229.230957,4231.025879,4225.512695,4232.692383,4238.589844,4238.205078,4224.358887,4212.051270,4230.512695,4408.205078,0.000000,4.000000,91.000000,,,,0.000000,4.000000,4.000000,4.000000,4.000000,4.000000,4.000000,4.000000,4.000000,4.000000,4.000000,4.000000,4.000000,4.000000,4.000000,100.000000,,,,,,,,,,,,,,,,
1644852604.015637,122.000000,0.000000,4218.333496,4213.717773,4215.000000,4203.846191,4224.230957,4229.615234,4228.077148,4232.436035,4238.333496,4245.512695,4221.025879,4212.948730,4226.282227,4407.307617,0.000000,4.000000,91.000000,,,,0.000000,4.000000,4.000000,4.000000,4.000000,4.000000,4.000000,4.000000,4.000000,4.000000,4.000000,4.000000,4.000000,4.000000,4.000000,100.000000,,,,,,,,,,,,,,,,
1644852604.019577,123.000000,0.000000,4204.615234,4204.743652,4207.692383,4200.897461,4216.410156,4223.974121,4227.179688,4229.487305,4235.128418,4242.820313,4215.897461,4208.846191,4218.333496,4409.230957,0.000000,4.000000,91.000000,,,,0.000000,4.000000,4.000000,4.000000,4.000000,4.000000,4.000000,4.000000,4.000000,4.000000,4.000000,4.000000,4.000000,4.000000,4.000000,100.000000,,,,,,,,,,,,,,,,
1644852604.023517,124.000000,0.000000,4192.692383,4197.692383,4201.666504,4198.333496,4208.205078,4217.563965,4223.205078,4225.128418,4230.641113,4231.025879,4212.563965,4202.563965,4210.641113,4410.128418,0.000000,4.000000,91.000000,,,,0.000000,4.000000,4.000000,4.000000,4.000000,4.000000,4.000000,4.000000,4.000000,4.000000,4.000000,4.000000,4.000000,4.000000,4.000000,100.000000,,,,,,,,,,,,,,,,
1644852604.027457,125.000000,0.000000,4191.666504,4197.563965,4201.794922,4200.128418,4202.436035,4214.102539,4219.615234,4221.794922,4227.179688,4217.820313,4213.461426,4198.461426,4207.692383,4408.205078,0.000000,4.000000,91.000000,,,,0.000000,4.000000,4.000000,4.000000,4.000000,4.000000,4.000000,4.000000,4.000000,4.000000,4.000000,4.000000,4.000000,4.000000,4.000000,100.000000,,,,,,,,,,,,,,,,
1644852604.031397,126.000000,0.000000,4203.846191,4206.538574,4208.974121,4209.102539,4201.922852,4215.000000,4219.615234,4220.897461,4226.538574,4212.436035,4218.846191,4200.000000,4211.410156,4406.025879,0.000000,4.000000,91.000000,,,,0.000000,4.000000,4.000000,4.000000,4.000000,4.000000,4.000000,4.000000,4.000000,4.000000,4.000000,4.000000,4.000000,4.000000,4.000000,100.000000,,,,,,,,,,,,,,,,
1644852604.035337,127.000000,0.000000,4222.692383,4221.666504,4219.358887,4222.820313,4206.282227,4218.846191,4222.179688,4222.436035,4228.974121,4218.846191,4227.179688,4207.051270,4219.743652,4408.333496,0.000000,4.000000,91.000000,,,,0.000000,4.000000,4.000000,4.000000,4.000000,4.000000,4.000000,4.000000,4.000000,4.000000,4.000000,4.000000,4.000000,4.000000,4.000000,100.000000,,,,,,,,,,,,,,,,
1644852604.039278,128.000000,0.000000,4238.333496,4236.153809,4227.436035,4234.358887,4213.717773,4222.051270,4223.717773,4224.871582,4233.205078,4232.436035,4235.641113,4215.512695,4228.077148,4416.282227,3503.000000,4.000000,91.000000,,,,0.000000,4.000000,4.000000,4.000000,4.000000,4.000000,4.000000,4.000000,4.000000,4.000000,4.000000,4.000000,4.000000,4.000000,4.000000,100.000000,,,,,,,,,,,,,,,,
1644852604.043218,129.000000,0.000000,4243.205078,4243.461426,4229.487305,4237.820313,4220.512695,4221.922852,4222.692383,4226.538574,4236.666504,4243.589844,4240.897461,4219.615234,4232.179688,4424.871582,3307.000000,4.000000,91.000000,,,,0.000000,4.000000,4.000000,4.000000,4.000000,4.000000,4.000000,4.000000,4.000000,4.000000,4.000000,4.000000,4.000000,4.000000,4.000000,100.000000,,,,,,,,,,,,,,,,
1644852604.047158,130.000000,0.000000,4236.538574,4241.153809,4226.025879,4233.205078,4224.230957,4218.846191,4221.025879,4226.153809,4237.307617,4244.358887,4240.512695,4216.794922,4230.641113,4426.025879,3533.000000,4.000000,91.000000,,,,0.000000,4.000000,4.000000,4.000000,4.000000,4.000000,4.000000,4.000000,4.000000,4.000000,4.000000,4.000000,4.000000,4.000000,4.000000,100.000000,,,,,,,,,,,,,,,,
1644852604.051098,131.000000,0.000000,4223.589844,4232.563965,4220.641113,4225.256348,4224.358887,4215.641113,4220.769043,4223.974121,4234.358887,4234.230957,4234.615234,4209.615234,4225.641113,4416.410156,3338.000000,4.000000,91.000000,,,,0.000000,4.000000,4.000000,4.000000,4.000000,4.000000,4.000000,4.000000,4.000000,4.000000,4.000000,4.000000,4.000000,4.000000,4.000000,100.000000,,,,,,,,,,,,,,,,
1644852604.055038,132.000000,0.000000,4212.692383,4223.846191,4216.922852,4218.846191,4222.692383,4214.615234,4221.922852,4220.769043,4229.615234,4220.000000,4226.410156,4203.846191,4221.410156,4400.897461,3473.000000,4.000000,91.000000,,,,0.000000,4.000000,4.000000,4.000000,4.000000,4.000000,4.000000,4.000000,4.000000,4.000000,4.000000,4.000000,4.000000,4.000000,4.000000,100.000000,,,,,,,,,,,,,,,,
1644852604.058978,133.000000,0.000000,4209.615234,4219.487305,4216.282227,4215.000000,4221.538574,4215.897461,4222.307617,4217.563965,4225.769043,4210.384766,4219.871582,4202.436035,4219.743652,4388.974121,3119.000000,4.000000,91.000000,,,,0.000000,4.000000,4.000000,4.000000,4.000000,4.000000,4.000000,4.000000,4.000000,4.000000,4.000000,4.000000,4.000000,4.000000,4.000000,100.000000,,,,,,,,,,,,,,,,
1644852604.062918,134.000000,0.000000,4213.974121,4220.128418,4217.436035,4211.538574,4221.538574,4218.077148,4221.410156,4215.000000,4223.974121,4209.230957,4215.897461,4203.717773,4218.589844,4387.179688,2460.000000,4.000000,91.000000,,,,0.000000,4.000000,4.000000,4.000000,4.000000,4.000000,4.000000,4.000000,4.000000,4.000000,4.000000,4.000000,4.000000,4.000000,4.000000,100.000000,,,,,,,,,,,,,,,,
1644852604.066858,135.000000,0.000000,4220.000000,4222.436035,4218.077148,4206.538574,4222.307617,4219.871582,4220.641113,4213.717773,4222.820313,4213.205078,4212.820313,4203.077148,4214.230957,4393.846191,3012.000000,4.000000,91.000000,,,,0.000000,4.000000,4.000000,4.000000,4.000000,4.000000,4.000000,4.000000,4.000000,4.000000,4.000000,4.000000,4.000000,4.000000,4.000000,100.000000,,,,,,,,,,,,,,,,
1644852604.070798,136.000000,0.000000,4220.256348,4222.563965,4216.410156,4200.512695,4222.179688,4220.384766,4221.153809,4212.820313,4219.871582,4215.897461,4207.692383,4197.820313,4205.384766,4400.897461,3241.000000,4.000000,91.000000,,,,0.000000,4.000000,4.000000,4.000000,4.000000,4.000000,4.000000,4.000000,4.000000,4.000000,4.000000,4.000000,4.000000,4.000000,4.000000,100.000000,,,,,,,,,,,,,,,,
1644852604.074739,137.000000,0.000000,4211.794922,4218.589844,4211.282227,4196.666504,4219.102539,4219.871582,4221.025879,4211.025879,4214.487305,4212.692383,4200.384766,4189.358887,4194.615234,4399.871582,3529.000000,4.000000,91.000000,,,,0.000000,4.000000,4.000000,4.000000,4.000000,4.000000,4.000000,4.000000,4.000000,4.000000,4.000000,4.000000,4.000000,4.000000,4.000000,100.000000,,,,,,,,,,,,,,,,
1644852604.078679,138.000000,0.000000,4198.589844,4211.410156,4203.205078,4197.179688,4212.051270,4218.717773,4218.205078,4207.563965,4208.461426,4204.358887,4193.846191,4181.153809,4186.153809,4387.692383,3506.000000,4.000000,91.000000,,,,0.000000,4.000000,4.000000,4.000000,4.000000,4.000000,4.000000,4.000000,4.000000,4.000000,4.000000,4.000000,4.000000,4.000000,4.000000,100.000000,,,,,,,,,,,,,,,,
1644852604.082519,139.000000,0.000000,4188.589844,4204.230957,4195.000000,4201.922852,4202.436035,4217.563965,4213.461426,4203.589844,4204.743652,4195.769043,4191.538574,4176.922852,4181.922852,4369.487305,3169.000000,4.000000,91.000000,,,,0.000000,4.000000,4.000000,4.000000,4.000000,4.000000,4.000000,4.000000,4.000000,4.000000,4.000000,4.000000,4.000000,4.000000,4.000000,100.000000,,,,,,,,,,,,,,,,
1644852604.086459,140.000000,0.000000,4188.589844,4200.384766,4190.897461,4208.333496,4193.461426,4216.794922,4210.512695,4201.794922,4204.487305,4191.794922,4194.615234,4177.820313,4181.282227,4355.384766,3435.000000,4.000000,91.000000,,,,0.000000,4.000000,4.000000,4.000000,4.000000,4.000000,4.000000,4.000000,4.000000,4.000000,4.000000,4.000000,4.000000,4.000000,4.000000,100.000000,,,,,,,,,,,,,,,,
1644852604.090399,141.000000,0.000000,4199.615234,4201.794922,4193.461426,4213.461426,4189.102539,4216.025879,4212.179688,4203.589844,4207.179688,4194.615234,4201.282227,4182.179688,4183.333496,4354.358887,3556.000000,4.000000,91.000000,,,,0.000000,4.000000,4.000000,4.000000,4.000000,4.000000,4.000000,4.000000,4.000000,4.000000,4.000000,4.000000,4.000000,4.000000,4.000000,100.000000,,,,,,,,,,,,,,,,
1644852604.094339,142.000000,0.000000,4216.538574,4207.563965,4201.538574,4215.897461,4191.410156,4214.871582,4216.410156,4207.563965,4210.769043,4202.820313,4207.692383,4187.179688,4188.077148,4367.307617,3506.000000,4.000000,91.000000,,,,0.000000,4.000000,4.000000,4.000000,4.000000,4.000000,4.000000,4.000000,4.000000,4.000000,4.000000,4.000000,4.000000,4.000000,4.000000,100.000000,,,,,,,,,,,,,,,,
1644852604.098279,143.000000,0.000000,4230.641113,4215.000000,4210.384766,4216.025879,4199.871582,4213.077148,4218.589844,4211.025879,4214.743652,4212.436035,4211.794922,4190.512695,4195.256348,4387.307617,3169.000000,4.000000,91.000000,,,,0.000000,4.000000,4.000000,4.000000,4.000000,4.000000,4.000000,4.000000,4.000000,4.000000,4.000000,4.000000,4.000000,4.000000,4.000000,100.000000,,,,,,,,,,,,,,,,
1644852604.102219,144.000000,0.000000,4233.974121,4220.256348,4214.743652,4214.743652,4210.512695,4211.538574,4216.922852,4212.436035,4218.974121,4219.871582,4213.333496,4191.794922,4203.717773,4403.205078,3435.000000,4.000000,91.000000,,,,0.000000,4.000000,4.000000,4.000000,4.000000,4.000000,4.000000,4.000000,4.000000,4.000000,4.000000,4.000000,4.000000,4.000000,4.000000,100.000000,,,,,,,,,,,,,,,,
1644852604.106159,145.000000,0.000000,4224.743652,4222.051270,4212.820313,4213.205078,4218.205078,4211.410156,4214.102539,4212.820313,4223.205078,4222.692383,4213.205078,4191.794922,4210.897461,4407.948730,3556.000000,4.000000,91.000000,,,,0.000000,4.000000,4.000000,4.000000,4.000000,4.000000,4.000000,4.000000,4.000000,4.000000,4.000000,4.000000,4.000000,4.000000,4.000000,100.000000,,,,,,,,,,,,,,,,
1644852604.110100,146.000000,0.000000,4208.717773,4222.692383,4207.563965,4212.051270,4218.846191,4212.563965,4213.461426,4213.589844,4226.025879,4220.512695,4212.436035,4191.153809,4214.871582,4402.051270,3506.000000,4.000000,91.000000,,,,0.000000,4.000000,4.000000,4.000000,4.000000,4.000000,4.000000,4.000000,4.000000,4.000000,4.000000,4.000000,4.000000,4.000000,4.000000,100.000000,,,,,,,,,,,,,,,,
1644852604.114040,147.000000,0.000000,4197.307617,4226.153809,4203.846191,4212.051270,4213.205078,4213.974121,4215.000000,4215.000000,4226.025879,4215.128418,4211.794922,4190.384766,4215.897461,4392.307617,3169.000000,4.000000,91.000000,,,,0.000000,4.000000,4.000000,4.000000,4.000000,4.000000,4.000000,4.000000,4.000000,4.000000,4.000000,4.000000,4.000000,4.000000,4.000000,100.000000,,,,,,,,,,,,,,,,
1644852604.117980,148.000000,0.000000,4198.717773,4235.256348,4204.615234,4213.846191,4205.128418,4214.615234,4215.384766,4215.384766,4222.563965,4209.615234,4211.410156,4189.102539,4215.512695,4385.000000,3435.000000,4.000000,91.000000,,,,0.000000,4.000000,4.000000,4.000000,4.000000,4.000000,4.000000,4.000000,4.000000,4.000000,4.000000,4.000000,4.000000,4.000000,4.000000,100.000000,,,,,,,,,,,,,,,,
1644852604.121920,149.000000,0.000000,4212.692383,4248.461426,4208.974121,4216.794922,4199.230957,4214.743652,4212.948730,4213.077148,4216.666504,4206.282227,4211.410156,4187.179688,4215.128418,4382.307617,3556.000000,4.000000,91.000000,,,,0.000000,4.000000,4.000000,4.000000,4.000000,4.000000,4.000000,4.000000,4.000000,4.000000,4.000000,4.000000,4.000000,4.000000,4.000000,100.000000,,,,,,,,,,,,,,,,
1644852604.125860,150.000000,0.000000,4229.230957,4260.641113,4213.717773,4219.615234,4197.307617,4215.000000,4209.871582,4208.589844,4210.256348,4205.512695,4210.384766,4185.512695,4214.871582,4382.436035,3506.000000,4.000000,91.000000,,,,0.000000,4.000000,4.000000,4.000000,4.000000,4.000000,4.000000,4.000000,4.000000,4.000000,4.000000,4.000000,4.000000,4.000000,4.000000,100.000000,,,,,,,,,,,,,,,,
1644852604.129800,151.000000,0.000000,4236.794922,4266.794922,4215.641113,4220.769043,4198.717773,4215.512695,4209.871582,4204.743652,4205.128418,4206.025879,4207.563965,4184.615234,4213.333496,4382.563965,3169.000000,4.000000,91.000000,,,,0.000000,4.000000,4.000000,4.000000,4.000000,4.000000,4.000000,4.000000,4.000000,4.000000,4.000000,4.000000,4.000000,4.000000,4.000000,100.000000,,,,,,,,,,,,,,,,
1644852604.133740,152.000000,0.000000,4231.153809,4265.512695,4213.589844,4220.384766,4201.666504,4215.641113,4212.436035,4204.230957,4202.692383,4206.922852,4203.717773,4184.102539,4210.128418,4381.153809,3435.000000,4.000000,91.000000,,,,0.000000,4.000000,4.000000,4.000000,4.000000,4.000000,4.000000,4.000000,4.000000,4.000000,4.000000,4.000000,4.000000,4.000000,4.000000,100.000000,,,,,,,,,,,,,,,,
1644852604.137680,153.000000,0.000000,4218.974121,4261.153809,4209.102539,4220.128418,4204.358887,4214.358887,4214.102539,4206.282227,4203.205078,4208.461426,4201.538574,4182.948730,4207.051270,4378.333496,3556.000000,4.000000,91.000000,,,,0.000000,4.000000,4.000000,4.000000,4.000000,4.000000,4.000000,4.000000,4.000000,4.000000,4.000000,4.000000,4.000000,4.000000,4.000000,100.000000,,,,,,,,,,,,,,,,
1644852604.141620,154.000000,0.000000,4212.436035,4260.769043,4205.897461,4222.307617,4205.769043,4210.897461,4211.922852,4208.589844,4205.128418,4210.384766,4202.948730,4181.282227,4207.179688,4376.282227,3506.000000,4.000000,91.000000,,,,0.000000,4.000000,4.000000,4.000000,4.000000,4.000000,4.000000,4.000000,4.000000,4.000000,4.000000,4.000000,4.000000,4.000000,4.000000,100.000000,,,,,,,,,,,,,,,,
1644852604.145561,155.000000,0.000000,4218.974121,4268.717773,4206.666504,4227.820313,4205.256348,4205.769043,4207.948730,4209.102539,4206.153809,4210.897461,4207.051270,4180.512695,4212.051270,4377.051270,3169.000000,4.000000,91.000000,,,,0.000000,4.000000,4.000000,4.000000,4.000000,4.000000,4.000000,4.000000,4.000000,4.000000,4.000000,4.000000,4.000000,4.000000,4.000000,100.000000,,,,,,,,,,,,,,,,
1644852604.149501,156.000000,0.000000,4236.282227,4283.205078,4211.794922,4234.230957,4203.205078,4200.256348,4206.025879,4208.205078,4205.256348,4208.717773,4209.743652,4182.179688,4218.846191,4380.641113,3435.000000,4.000000,91.000000,,,,0.000000,4.000000,4.000000,4.000000,4.000000,4.000000,4.000000,4.000000,4.000000,4.000000,4.000000,4.000000,4.000000,4.000000,4.000000,100.000000,,,,,,,,,,,,,,,,
1644852604.153541,157.000000,0.000000,4253.846191,4297.948730,4218.717773,4237.563965,4200.769043,4196.922852,4207.436035,4207.051270,4203.461426,4203.846191,4208.589844,4186.794922,4222.307617,4383.461426,3556.000000,4.000000,91.000000,,,,0.000000,4.000000,4.000000,4.000000,4.000000,4.000000,4.000000,4.000000,4.000000,4.000000,4.000000,4.000000,4.000000,4.000000,4.000000,100.000000,,,,,,,,,,,,,,,,
1644852604.157481,158.000000,0.000000,4260.512695,4306.666504,4224.615234,4235.000000,4198.717773,4196.922852,4209.487305,4207.051270,4202.436035,4197.820313,4204.743652,4193.333496,4218.333496,4381.410156,3506.000000,4.000000,91.000000,,,,0.000000,4.000000,4.000000,4.000000,4.000000,4.000000,4.000000,4.000000,4.000000,4.000000,4.000000,4.000000,4.000000,4.000000,4.000000,100.000000,,,,,,,,,,,,,,,,
1644852604.161421,159.000000,0.000000,4253.974121,4308.205078,4228.077148,4228.589844,4196.410156,4199.358887,4209.230957,4208.205078,4202.820313,4192.692383,4202.563965,4200.000000,4208.333496,4375.000000,3169.000000,4.000000,91.000000,,,,0.000000,4.000000,4.000000,4.000000,4.000000,4.000000,4.000000,4.000000,4.000000,4.000000,4.000000,4.000000,4.000000,4.000000,4.000000,100.000000,,,,,,,,,,,,,,,,
1644852604.165361,160.000000,0.000000,4243.077148,4306.410156,4229.871582,4224.743652,4192.692383,4200.897461,4206.666504,4209.487305,4203.589844,4190.256348,4205.769043,4204.615234,4199.358887,4370.769043,3435.000000,4.000000,91.000000,,,,0.000000,4.000000,4.000000,4.000000,4.000000,4.000000,4.000000,4.000000,4.000000,4.000000,4.000000,4.000000,4.000000,4.000000,4.000000,100.000000,1.000000,66.666664,4.000000,4.000000,4.000000,4.000000,4.000000,4.000000,3.000000,4.000000,4.000000,4.000000,4.000000,4.000000,4.000000,1.000000
1644852604.169301,161.000000,0.000000,4240.897461,4308.205078,4231.153809,4228.077148,4187.692383,4199.230957,4204.615234,4209.615234,4202.436035,4191.153809,4214.102539,4206.153809,4200.769043,4376.922852,3556.000000,4.000000,91.000000,,,,0.000000,4.000000,4.000000,4.000000,4.000000,4.000000,4.000000,4.000000,4.000000,4.000000,4.000000,4.000000,4.000000,4.000000,4.000000,100.000000,,,,,,,,,,,,,,,,
1644852604.173241,162.000000,0.000000,4254.871582,4317.948730,4232.051270,4237.820313,4183.974121,4194.358887,4204.358887,4207.948730,4199.487305,4195.000000,4223.974121,4205.128418,4216.153809,4396.153809,3506.000000,4.000000,91.000000,,,,0.000000,4.000000,4.000000,4.000000,4.000000,4.000000,4.000000,4.000000,4.000000,4.000000,4.000000,4.000000,4.000000,4.000000,4.000000,100.000000,,,,,,,,,,,,,,,,
1644852604.177181,163.000000,0.000000,4280.641113,4334.615234,4232.179688,4248.333496,4185.256348,4188.974121,4204.743652,4205.128418,4196.666504,4199.487305,4231.025879,4203.461426,4240.128418,4422.948730,3169.000000,4.000000,91.000000,,,,0.000000,4.000000,4.000000,4.000000,4.000000,4.000000,4.000000,4.000000,4.000000,4.000000,4.000000,4.000000,4.000000,4.000000,4.000000,100.000000,,,,,,,,,,,,,,,,
1644852604.181121,164.000000,0.000000,4306.025879,4351.922852,4231.666504,4252.948730,4192.563965,4186.025879,4204.358887,4202.307617,4195.769043,4201.666504,4233.077148,4202.820313,4261.282227,4445.384766,3435.000000,4.000000,91.000000,,,,0.000000,4.000000,4.000000,4.000000,4.000000,4.000000,4.000000,4.000000,4.000000,4.000000,4.000000,4.000000,4.000000,4.000000,4.000000,100.000000,,,,,,,,,,,,,,,,
1644852604.185062,165.000000,0.000000,4319.230957,4362.948730,4231.922852,4249.230957,4201.410156,4187.179688,4203.846191,4200.512695,4196.794922,4200.256348,4231.153809,4203.717773,4269.615234,4452.948730,3556.000000,4.000000,91.000000,,,,0.000000,4.000000,4.000000,4.000000,4.000000,4.000000,4.000000,4.000000,4.000000,4.000000,4.000000,4.000000,4.000000,4.000000,4.000000,100.000000,,,,,,,,,,,,,,,,
1644852604.189002,166.000000,0.000000,4318.461426,4365.769043,4233.846191,4240.128418,4206.282227,4191.538574,4204.871582,4199.358887,4197.948730,4196.666504,4227.692383,4204.615234,4263.077148,4443.974121,3506.000000,4.000000,91.000000,,,,0.000000,4.000000,4.000000,4.000000,4.000000,4.000000,4.000000,4.000000,4.000000,4.000000,4.000000,4.000000,4.000000,4.000000,4.000000,100.000000,,,,,,,,,,,,,,,,
1644852604.192942,167.000000,0.000000,4312.179688,4365.000000,4236.282227,4233.205078,4205.256348,4196.538574,4207.179688,4198.077148,4197.307617,4194.230957,4224.871582,4203.461426,4249.230957,4427.436035,3169.000000,4.000000,91.000000,,,,0.000000,4.000000,4.000000,4.000000,4.000000,4.000000,4.000000,4.000000,4.000000,4.000000,4.000000,4.000000,4.000000,4.000000,4.000000,100.000000,,,,,,,,,,,,,,,,
1644852604.196882,168.000000,0.000000,4312.436035,4369.102539,4236.922852,4235.769043,4202.563965,4199.871582,4208.461426,4196.025879,4195.000000,4195.128418,4222.820313,4199.743652,4239.615234,4416.153809,3435.000000,4.000000,91.000000,,,,0.000000,4.000000,4.000000,4.000000,4.000000,4.000000,4.000000,4.000000,4.000000,4.000000,4.000000,4.000000,4.000000,4.000000,4.000000,100.000000,,,,,,,,,,,,,,,,
1644852604.200822,169.000000,0.000000,4324.102539,4382.179688,4234.871582,4248.461426,4203.589844,4200.641113,4207.563965,4194.102539,4192.307617,4199.487305,4219.358887,4196.538574,4240.769043,4417.948730,3556.000000,4.000000,91.000000,,,,0.000000,4.000000,4.000000,4.000000,4.000000,4.000000,4.000000,4.000000,4.000000,4.000000,4.000000,4.000000,4.000000,4.000000,4.000000,100.000000,,,,,,,,,,,,,,,,
1644852604.204762,170.000000,0.000000,4341.025879,4399.230957,4232.563965,4264.358887,4208.461426,4199.230957,4206.282227,4194.102539,4191.410156,4205.000000,4214.487305,4196.922852,4249.871582,4429.230957,3506.000000,4.000000,91.000000,,,,0.000000,4.000000,4.000000,4.000000,4.000000,4.000000,4.000000,4.000000,4.000000,4.000000,4.000000,4.000000,4.000000,4.000000,4.000000,100.000000,,,,,,,,,,,,,,,,
1644852604.208702,171.000000,0.000000,4351.025879,4408.974121,4233.205078,4273.589844,4211.538574,4197.563965,4206.922852,4197.307617,4192.692383,4207.948730,4210.897461,4201.538574,4256.666504,4438.333496,3169.000000,4.000000,91.000000,,,,0.000000,4.000000,4.000000,4.000000,4.000000,4.000000,4.000000,4.000000,4.000000,4.000000,4.000000,4.000000,4.000000,4.000000,4.000000,100.000000,,,,,,,,,,,,,,,,
1644852604.212642,172.000000,0.000000,4346.666504,4404.102539,4237.307617,4271.410156,4207.307617,4197.436035,4209.487305,4202.692383,4195.512695,4206.153809,4212.692383,4207.436035,4253.461426,4435.256348,3435.000000,4.000000,91.000000,,,,0.000000,4.000000,4.000000,4.000000,4.000000,4.000000,4.000000,4.000000,4.000000,4.000000,4.000000,4.000000,4.000000,4.000000,4.000000,100.000000,,,,,,,,,,,,,,,,
1644852604.216582,173.000000,0.000000,4331.282227,4387.820313,4241.922852,4260.256348,4197.051270,4199.358887,4211.538574,4207.307617,4198.589844,4200.256348,4219.871582,4211.282227,4240.641113,4420.128418,3556.000000,4.000000,91.000000,,,,0.000000,4.000000,4.000000,4.000000,4.000000,4.000000,4.000000,4.000000,4.000000,4.000000,4.000000,4.000000,4.000000,4.000000,4.000000,100.000000,,,,,,,,,,,,,,,,
1644852604.220522,174.000000,0.000000,4314.615234,4371.538574,4243.974121,4248.461426,4188.974121,4202.051270,4211.282227,4209.358887,4200.641113,4193.333496,4227.307617,4211.025879,4225.384766,4401.666504,3506.000000,4.000000,91.000000,,,,0.000000,4.000000,4.000000,4.000000,4.000000,4.000000,4.000000,4.000000,4.000000,4.000000,4.000000,4.000000,4.000000,4.000000,4.000000,100.000000,,,,,,,,,,,,,,,,
1644852604.224463,175.000000,0.000000,4304.487305,4364.487305,4242.436035,4242.948730,4191.153809,4203.717773,4210.128418,4209.102539,4201.538574,4188.846191,4228.589844,4207.436035,4214.871582,4390.000000,3169.000000,4.000000,91.000000,,,,0.000000,4.000000,4.000000,4.000000,4.000000,4.000000,4.000000,4.000000,4.000000,4.000000,4.000000,4.000000,4.000000,4.000000,4.000000,100.000000,,,,,,,,,,,,,,,,
1644852604.228303,176.000000,0.000000,4302.051270,4367.436035,4239.102539,4245.512695,4203.717773,4203.717773,4210.897461,4208.846191,4201.922852,4188.717773,4222.436035,4202.948730,4211.410156,4387.948730,3435.000000,4.000000,91.000000,,,,0.000000,4.000000,4.000000,4.000000,4.000000,4.000000,4.000000,4.000000,4.000000,4.000000,4.000000,4.000000,4.000000,4.000000,4.000000,100.000000,,,,,,,,,,,,,,,,
1644852604.232243,177.000000,0.000000,4304.487305,4373.333496,4236.538574,4252.820313,4217.820313,4203.077148,4213.846191,4210.000000,4202.563965,4193.333496,4214.487305,4200.384766,4213.461426,4392.179688,3556.000000,4.000000,91.000000,,,,0.000000,4.000000,4.000000,4.000000,4.000000,4.000000,4.000000,4.000000,4.000000,4.000000,4.000000,4.000000,4.000000,4.000000,4.000000,100.000000,,,,,,,,,,,,,,,,
1644852604.236183,178.000000,0.000000,4308.461426,4374.487305,4236.153809,4259.230957,4224.102539,4202.692383,4216.282227,4212.051270,4204.230957,4201.025879,4212.051270,4200.769043,4217.948730,4397.179688,3506.000000,4.000000,91.000000,,,,0.000000,4.000000,4.000000,4.000000,4.000000,4.000000,4.000000,4.000000,4.000000,4.000000,4.000000,4.000000,4.000000,4.000000,4.000000,100.000000,,,,,,,,,,,,,,,,
1644852604.240123,179.000000,0.000000,4312.563965,4368.846191,4237.179688,4261.538574,4220.512695,4203.205078,4215.256348,4213.333496,4206.282227,4209.487305,4217.307617,4202.051270,4222.948730,4400.769043,3169.000000,4.000000,91.000000,,,,0.000000,4.000000,4.000000,4.000000,4.000000,4.000000,4.000000,4.000000,4.000000,4.000000,4.000000,4.000000,4.000000,4.000000,4.000000,100.000000,,,,,,,,,,,,,,,,
1644852604.244063,180.000000,0.000000,4316.282227,4361.153809,4237.948730,4259.102539,4213.077148,4204.102539,4211.666504,4213.589844,4207.051270,4215.384766,4224.743652,4202.179688,4226.794922,4402.820313,3435.000000,4.000000,91.000000,,,,0.000000,4.000000,4.000000,4.000000,4.000000,4.000000,4.000000,4.000000,4.000000,4.000000,4.000000,4.000000,4.000000,4.000000,4.000000,100.000000,,,,,,,,,,,,,,,,
1644852604.248003,181.000000,0.000000,4317.820313,4357.692383,4237.563965,4253.461426,4209.358887,4204.615234,4209.230957,4213.333496,4205.769043,4216.410156,4226.538574,4200.512695,4228.846191,4402.948730,3556.000000,4.000000,91.000000,,,,0.000000,4.000000,4.000000,4.000000,4.000000,4.000000,4.000000,4.000000,4.000000,4.000000,4.000000,4.000000,4.000000,4.000000,4.000000,100.000000,,,,,,,,,,,,,,,,
1644852604.251943,182.000000,0.000000,4315.384766,4360.256348,4236.666504,4247.820313,4211.153809,4204.615234,4210.384766,4213.589844,4203.077148,4212.307617,4220.256348,4199.102539,4229.230957,4400.641113,3506.000000,4.000000,91.000000,,,,0.000000,4.000000,4.000000,4.000000,4.000000,4.000000,4.000000,4.000000,4.000000,4.000000,4.000000,4.000000,4.000000,4.000000,4.000000,100.000000,,,,,,,,,,,,,,,,
1644852604.255884,183.000000,0.000000,4308.333496,4364.230957,4235.384766,4245.000000,4214.358887,4203.974121,4213.205078,4213.589844,4200.641113,4205.384766,4210.000000,4200.000000,4227.820313,4396.025879,3169.000000,4.000000,91.000000,,,,0.000000,4.000000,4.000000,4.000000,4.000000,4.000000,4.000000,4.000000,4.000000,4.000000,4.000000,4.000000,4.000000,4.000000,4.000000,100.000000,,,,,,,,,,,,,,,,
1644852604.259824,184.000000,0.000000,4299.743652,4363.717773,4232.948730,4244.871582,4213.333496,4202.948730,4213.974121,4211.922852,4199.615234,4198.974121,4203.077148,4202.820313,4224.230957,4390.641113,3435.000000,4.000000,91.000000,,,,0.000000,4.000000,4.000000,4.000000,4.000000,4.000000,4.000000,4.000000,4.000000,4.000000,4.000000,4.000000,4.000000,4.000000,4.000000,100.000000,,,,,,,,,,,,,,,,
1644852604.263764,185.000000,0.000000,4293.974121,4356.153809,4228.974121,4244.487305,4206.794922,4201.410156,4211.666504,4208.205078,4199.615234,4194.743652,4202.692383,4205.000000,4217.948730,4385.000000,3556.000000,4.000000,91.000000,,,,0.000000,4.000000,4.000000,4.000000,4.000000,4.000000,4.000000,4.000000,4.000000,4.000000,4.000000,4.000000,4.000000,4.000000,4.000000,100.000000,,,,,,,,,,,,,,,,
1644852604.267704,186.000000,0.000000,4293.077148,4344.102539,4224.102539,4241.025879,4199.358887,4200.000000,4209.230957,4204.230957,4199.102539,4192.820313,4206.025879,4203.717773,4209.358887,4379.102539,3506.000000,4.000000,91.000000,,,,0.000000,4.000000,4.000000,4.000000,4.000000,4.000000,4.000000,4.000000,4.000000,4.000000,4.000000,4.000000,4.000000,4.000000,4.000000,100.000000,,,,,,,,,,,,,,,,
1644852604.271644,187.000000,0.000000,4294.615234,4332.179688,4220.000000,4235.384766,4197.820313,4198.974121,4209.230957,4202.307617,4197.307617,4192.051270,4207.692383,4198.974121,4200.769043,4372.179688,3169.000000,4.000000,91.000000,,,,0.000000,4.000000,4.000000,4.000000,4.000000,4.000000,4.000000,4.000000,4.000000,4.000000,4.000000,4.000000,4.000000,4.000000,4.000000,100.000000,,,,,,,,,,,,,,,,
1644852604.275584,188.000000,0.000000,4293.333496,4323.461426,4218.077148,4231.922852,4204.487305,4198.846191,4211.025879,4202.948730,4195.384766,4191.538574,4204.358887,4193.717773,4195.256348,4365.000000,3435.000000,4.000000,91.000000,,,,0.000000,4.000000,4.000000,4.000000,4.000000,4.000000,4.000000,4.000000,4.000000,4.000000,4.000000,4.000000,4.000000,4.000000,4.000000,100.000000,,,,,,,,,,,,,,,,
1644852604.279524,189.000000,0.000000,4286.282227,4318.461426,4218.846191,4233.589844,4214.487305,4199.871582,4211.794922,4205.128418,4195.512695,4191.666504,4197.820313,4192.179688,4195.256348,4359.358887,3556.000000,4.000000,91.000000,,,,0.000000,4.000000,4.000000,4.000000,4.000000,4.000000,4.000000,4.000000,4.000000,4.000000,4.000000,4.000000,4.000000,4.000000,4.000000,100.000000,,,,,,,,,,,,,,,,
1644852604.283464,190.000000,0.000000,4275.512695,4316.538574,4221.282227,4238.589844,4219.743652,4201.922852,4210.512695,4207.179688,4198.846191,4192.563965,4191.922852,4195.000000,4200.000000,4357.436035,3506.000000,4.000000,91.000000,,,,0.000000,4.000000,4.000000,4.000000,4.000000,4.000000,4.000000,4.000000,4.000000,4.000000,4.000000,4.000000,4.000000,4.000000,4.000000,100.000000,,,,,,,,,,,,,,,,
1644852604.287404,191.000000,0.000000,4267.820313,4317.692383,4222.948730,4242.436035,4216.538574,4203.461426,4208.846191,4208.846191,4203.717773,4194.102539,4190.512695,4198.974121,4206.025879,4359.487305,3169.000000,4.000000,91.000000,,,,0.000000,4.000000,4.000000,4.000000,4.000000,4.000000,4.000000,4.000000,4.000000,4.000000,4.000000,4.000000,4.000000,4.000000,4.000000,100.000000,,,,,,,,,,,,,,,,
1644852604.291344,192.000000,0.000000,4268.589844,4322.563965,4221.794922,4242.179688,4209.230957,4203.077148,4209.102539,4210.641113,4207.436035,4196.282227,4194.487305,4200.384766,4209.871582,4364.230957,3435.000000,4.000000,91.000000,,,,0.000000,4.000000,4.000000,4.000000,4.000000,4.000000,4.000000,4.000000,4.000000,4.000000,4.000000,4.000000,4.000000,4.000000,4.000000,100.000000,,,,,,,,,,,,,,,,
1644852604.295285,193.000000,0.000000,4276.922852,4329.743652,4217.948730,4238.205078,4204.871582,4201.153809,4210.641113,4212.820313,4208.461426,4199.358887,4202.051270,4197.563965,4210.384766,4368.974121,3556.000000,4.000000,91.000000,,,,0.000000,4.000000,4.000000,4.000000,4.000000,4.000000,4.000000,4.000000,4.000000,4.000000,4.000000,4.000000,4.000000,4.000000,4.000000,100.000000,,,,,,,,,,,,,,,,
1644852604.299225,194.000000,0.000000,4286.410156,4335.256348,4213.589844,4233.077148,4206.538574,4199.615234,4211.410156,4215.000000,4207.307617,4203.205078,4209.615234,4192.179688,4208.589844,4370.897461,3506.000000,4.000000,91.000000,,,,0.000000,4.000000,4.000000,4.000000,4.000000,4.000000,4.000000,4.000000,4.000000,4.000000,4.000000,4.000000,4.000000,4.000000,4.000000,100.000000,,,,,,,,,,,,,,,,
1644852604.303065,195.000000,0.000000,4290.769043,4335.128418,4211.153809,4230.128418,4209.743652,4200.512695,4210.897461,4216.538574,4205.769043,4206.794922,4213.846191,4187.820313,4206.794922,4368.333496,3169.000000,4.000000,91.000000,,,,0.000000,4.000000,4.000000,4.000000,4.000000,4.000000,4.000000,4.000000,4.000000,4.000000,4.000000,4.000000,4.000000,4.000000,4.000000,100.000000,,,,,,,,,,,,,,,,
1644852604.307005,196.000000,0.000000,4288.333496,4328.974121,4211.282227,4230.384766,4208.333496,4203.974121,4210.769043,4217.692383,4205.641113,4207.820313,4213.974121,4187.436035,4206.794922,4362.948730,3435.000000,4.000000,91.000000,,,,0.000000,4.000000,4.000000,4.000000,4.000000,4.000000,4.000000,4.000000,4.000000,4.000000,4.000000,4.000000,4.000000,4.000000,4.000000,100.000000,,,,,,,,,,,,,,,,
1644852604.310945,197.000000,0.000000,4281.666504,4320.897461,4213.205078,4231.282227,4200.769043,4208.205078,4212.307617,4219.487305,4207.307617,4205.641113,4211.666504,4191.666504,4209.102539,4357.563965,3556.000000,4.000000,91.000000,,,,0.000000,4.000000,4.000000,4.000000,4.000000,4.000000,4.000000,4.000000,4.000000,4.000000,4.000000,4.000000,4.000000,4.000000,4.000000,100.000000,,,,,,,,,,,,,,,,
1644852604.314885,198.000000,0.000000,4273.461426,4316.410156,4216.282227,4229.358887,4192.692383,4210.512695,4214.230957,4221.922852,4210.128418,4202.179688,4209.358887,4198.333496,4211.794922,4353.077148,3506.000000,4.000000,91.000000,,,,0.000000,4.000000,4.000000,4.000000,4.000000,4.000000,4.000000,4.000000,4.000000,4.000000,4.000000,4.000000,4.000000,4.000000,4.000000,100.000000,,,,,,,,,,,,,,,,
1644852604.318825,199.000000,0.000000,4265.897461,4318.205078,4219.102539,4223.077148,4192.307617,4209.871582,4214.358887,4224.358887,4213.077148,4200.897461,4208.205078,4203.974121,4212.307617,4348.205078,3169.000000,4.000000,91.000000,,,,0.000000,4.000000,4.000000,4.000000,4.000000,4.000000,4.000000,4.000000,4.000000,4.000000,4.000000,4.000000,4.000000,4.000000,4.000000,100.000000,,,,,,,,,,,,,,,,
1644852604.322765,200.000000,0.000000,4260.512695,4324.487305,4220.128418,4216.410156,4201.410156,4207.307617,4212.563965,4225.769043,4215.128418,4203.974121,4207.692383,4205.769043,4209.358887,4341.538574,3435.000000,4.000000,91.000000,,,,0.000000,4.000000,4.000000,4.000000,4.000000,4.000000,4.000000,4.000000,4.000000,4.000000,4.000000,4.000000,4.000000,4.000000,4.000000,100.000000,,,,,,,,,,,,,,,,
1644852604.326706,201.000000,0.000000,4259.743652,4330.384766,4218.589844,4215.897461,4213.717773,4204.487305,4211.282227,4225.641113,4215.641113,4209.743652,4206.025879,4202.179688,4203.846191,4334.615234,3556.000000,4.000000,91.000000,,,,0.000000,4.000000,4.000000,4.000000,4.000000,4.000000,4.000000,4.000000,4.000000,4.000000,4.000000,4.000000,4.000000,4.000000,4.000000,100.000000,,,,,,,,,,,,,,,,
1644852604.330646,202.000000,0.000000,4265.000000,4331.410156,4214.487305,4224.743652,4220.384766,4202.948730,4211.922852,4224.230957,4214.358887,4213.589844,4202.563965,4194.615234,4198.333496,4331.025879,3506.000000,4.000000,91.000000,,,,0.000000,4.000000,4.000000,4.000000,4.000000,4.000000,4.000000,4.000000,4.000000,4.000000,4.000000,4.000000,4.000000,4.000000,4.000000,100.000000,,,,,,,,,,,,,,,,
1644852604.334586,203.000000,0.000000,4275.256348,4327.820313,4208.846191,4238.974121,4217.436035,4202.820313,4212.563965,4221.922852,4211.922852,4212.307617,4198.077148,4186.282227,4194.871582,4333.205078,3169.000000,4.000000,91.000000,,,,0.000000,4.000000,4.000000,4.000000,4.000000,4.000000,4.000000,4.000000,4.000000,4.000000,4.000000,4.000000,4.000000,4.000000,4.000000,100.000000,,,,,,,,,,,,,,,,
1644852604.338526,204.000000,0.000000,4286.025879,4324.487305,4203.717773,4250.128418,4208.974121,4203.205078,4210.769043,4219.871582,4209.871582,4207.051270,4195.512695,4181.538574,4194.230957,4339.743652,3435.000000,4.000000,91.000000,,,,0.000000,4.000000,4.000000,4.000000,4.000000,4.000000,4.000000,4.000000,4.000000,4.000000,4.000000,4.000000,4.000000,4.000000,4.000000,100.000000,,,,,,,,,,,,,,,,
1644852604.342466,205.000000,0.000000,4292.051270,4325.897461,4201.282227,4251.410156,4203.205078,4203.077148,4207.307617,4218.589844,4209.871582,4202.692383,4197.051270,4182.948730,4196.666504,4346.538574,3556.000000,4.000000,91.000000,,,,0.000000,4.000000,4.000000,4.000000,4.000000,4.000000,4.000000,4.000000,4.000000,4.000000,4.000000,4.000000,4.000000,4.000000,4.000000,100.000000,,,,,,,,,,,,,,,,
1644852604.346406,206.000000,0.000000,4291.025879,4332.820313,4202.820313,4243.205078,4204.871582,4201.538574,4205.897461,4218.461426,4211.538574,4203.846191,4202.820313,4188.589844,4201.922852,4350.769043,3506.000000,4.000000,91.000000,,,,0.000000,4.000000,4.000000,4.000000,4.000000,4.000000,4.000000,4.000000,4.000000,4.000000,4.000000,4.000000,4.000000,4.000000,4.000000,100.000000,,,,,,,,,,,,,,,,
1644852604.350346,207.000000,0.000000,4286.153809,4341.666504,4206.538574,4232.051270,4211.282227,4199.487305,4208.461426,4218.974121,4213.589844,4211.410156,4210.128418,4193.974121,4209.230957,4353.205078,3169.000000,4.000000,91.000000,,,,0.000000,4.000000,4.000000,4.000000,4.000000,4.000000,4.000000,4.000000,4.000000,4.000000,4.000000,4.000000,4.000000,4.000000,4.000000,100.000000,,,,,,,,,,,,,,,,
1644852604.354286,208.000000,0.000000,4284.102539,4347.820313,4210.000000,4225.641113,4215.897461,4198.077148,4212.692383,4218.974121,4215.000000,4221.025879,4215.641113,4194.871582,4217.179688,4356.410156,3435.000000,4.000000,91.000000,,,,0.000000,4.000000,4.000000,4.000000,4.000000,4.000000,4.000000,4.000000,4.000000,4.000000,4.000000,4.000000,4.000000,4.000000,4.000000,100.000000,,,,,,,,,,,,,,,,
1644852604.358226,209.000000,0.000000,4289.102539,4349.102539,4211.922852,4227.692383,4214.358887,4198.461426,4214.102539,4217.563965,4215.641113,4227.436035,4217.179688,4191.666504,4223.846191,4361.153809,3556.000000,4.000000,91.000000,,,,0.000000,4.000000,4.000000,4.000000,4.000000,4.000000,4.000000,4.000000,4.000000,4.000000,4.000000,4.000000,4.000000,4.000000,4.000000,100.000000,,,,,,,,,,,,,,,,
1644852604.362166,210.000000,0.000000,4299.102539,4346.538574,4212.948730,4234.871582,4207.820313,4199.743652,4211.666504,4215.000000,4215.512695,4227.692383,4215.641113,4187.948730,4227.563965,4365.769043,3506.000000,4.000000,91.000000,,,,0.000000,4.000000,4.000000,4.000000,4.000000,4.000000,4.000000,4.000000,4.000000,4.000000,4.000000,4.000000,4.000000,4.000000,4.000000,100.000000,,,,,,,,,,,,,,,,
1644852604.366107,211.000000,0.000000,4307.563965,4342.948730,4214.487305,4239.230957,4202.692383,4200.897461,4208.846191,4212.307617,4214.487305,4223.589844,4213.333496,4187.692383,4227.307617,4366.666504,3169.000000,4.000000,91.000000,,,,0.000000,4.000000,4.000000,4.000000,4.000000,4.000000,4.000000,4.000000,4.000000,4.000000,4.000000,4.000000,4.000000,4.000000,4.000000,100.000000,,,,,,,,,,,,,,,,
1644852604.370047,212.000000,0.000000,4309.358887,4340.384766,4216.922852,4234.871582,4204.102539,4201.282227,4209.358887,4210.384766,4212.563965,4219.102539,4212.436035,4190.897461,4223.461426,4361.666504,3435.000000,4.000000,91.000000,,,,0.000000,4.000000,4.000000,4.000000,4.000000,4.000000,4.000000,4.000000,4.000000,4.000000,4.000000,4.000000,4.000000,4.000000,4.000000,100.000000,,,,,,,,,,,,,,,,
1644852604.374087,213.000000,0.000000,4303.974121,4338.461426,4218.846191,4223.846191,4212.436035,4201.410156,4212.563965,4209.102539,4210.384766,4217.563965,4213.205078,4194.871582,4217.692383,4352.820313,3556.000000,4.000000,91.000000,,,,0.000000,4.000000,4.000000,4.000000,4.000000,4.000000,4.000000,4.000000,4.000000,4.000000,4.000000,4.000000,4.000000,4.000000,4.000000,100.000000,,,,,,,,,,,,,,,,
1644852604.378027,214.000000,0.000000,4294.743652,4335.256348,4219.102539,4213.589844,4221.794922,4202.051270,4214.102539,4207.563965,4208.205078,4218.846191,4213.461426,4196.025879,4212.051270,4344.102539,3506.000000,4.000000,91.000000,,,,0.000000,4.000000,4.000000,4.000000,4.000000,4.000000,4.000000,4.000000,4.000000,4.000000,4.000000,4.000000,4.000000,4.000000,4.000000,100.000000,,,,,,,,,,,,,,,,
1644852604.381967,215.000000,0.000000,4285.000000,4327.436035,4217.436035,4211.410156,4225.000000,4202.948730,4211.538574,4205.512695,4205.897461,4219.358887,4211.282227,4193.974121,4207.307617,4338.333496,3169.000000,4.000000,91.000000,,,,0.000000,4.000000,4.000000,4.000000,4.000000,4.000000,4.000000,4.000000,4.000000,4.000000,4.000000,4.000000,4.000000,4.000000,4.000000,100.000000,,,,,,,,,,,,,,,,
1644852604.385907,216.000000,0.000000,4276.153809,4314.102539,4215.000000,4217.948730,4218.846191,4203.461426,4206.794922,4203.333496,4202.820313,4214.487305,4206.538574,4191.666504,4203.077148,4334.358887,3435.000000,4.000000,91.000000,,,,0.000000,4.000000,4.000000,4.000000,4.000000,4.000000,4.000000,4.000000,4.000000,4.000000,4.000000,4.000000,4.000000,4.000000,4.000000,100.000000,,,,,,,,,,,,,,,,
1644852604.389847,217.000000,0.000000,4268.846191,4298.205078,4213.846191,4227.051270,4206.922852,4202.820313,4204.102539,4201.666504,4198.974121,4203.589844,4200.897461,4191.922852,4197.820313,4329.230957,3556.000000,4.000000,91.000000,,,,0.000000,4.000000,4.000000,4.000000,4.000000,4.000000,4.000000,4.000000,4.000000,4.000000,4.000000,4.000000,4.000000,4.000000,4.000000,100.000000,,,,,,,,,,,,,,,,
1644852604.393787,218.000000,0.000000,4264.358887,4286.410156,4214.358887,4231.538574,4196.922852,4201.025879,4204.743652,4200.512695,4195.769043,4191.666504,4196.410156,4195.512695,4192.051270,4322.307617,3506.000000,4.000000,91.000000,,,,0.000000,4.000000,4.000000,4.000000,4.000000,4.000000,4.000000,4.000000,4.000000,4.000000,4.000000,4.000000,4.000000,4.000000,4.000000,100.000000,,,,,,,,,,,,,,,,
1644852604.397627,219.000000,0.000000,4265.512695,4284.615234,4216.025879,4230.128418,4194.871582,4199.102539,4206.538574,4199.871582,4194.871582,4185.769043,4195.384766,4199.487305,4188.846191,4317.179688,3169.000000,4.000000,91.000000,,,,0.000000,4.000000,4.000000,4.000000,4.000000,4.000000,4.000000,4.000000,4.000000,4.000000,4.000000,4.000000,4.000000,4.000000,4.000000,100.000000,,,,,,,,,,,,,,,,
1644852604.401568,220.000000,0.000000,4273.461426,4292.436035,4217.692383,4226.922852,4200.384766,4198.077148,4206.922852,4198.846191,4196.025879,4189.871582,4198.461426,4200.256348,4191.153809,4319.615234,3435.000000,4.000000,91.000000,,,,0.000000,4.000000,4.000000,4.000000,4.000000,4.000000,4.000000,4.000000,4.000000,4.000000,4.000000,4.000000,4.000000,4.000000,4.000000,100.000000,,,,,,,,,,,,,,,,
1644852604.405508,221.000000,0.000000,4284.615234,4302.820313,4218.846191,4225.256348,4207.820313,4199.102539,4206.153809,4198.205078,4198.077148,4201.153809,4203.717773,4195.641113,4199.230957,4331.410156,3556.000000,4.000000,91.000000,,,,0.000000,4.000000,4.000000,4.000000,4.000000,4.000000,4.000000,4.000000,4.000000,4.000000,4.000000,4.000000,4.000000,4.000000,4.000000,100.000000,,,,,,,,,,,,,,,,
1644852604.409448,222.000000,0.000000,4292.307617,4306.922852,4219.102539,4223.461426,4212.179688,4201.153809,4206.538574,4199.102539,4199.871582,4212.179688,4208.205078,4188.717773,4209.358887,4346.538574,3506.000000,4.000000,91.000000,,,,0.000000,4.000000,4.000000,4.000000,4.000000,4.000000,4.000000,4.000000,4.000000,4.000000,4.000000,4.000000,4.000000,4.000000,4.000000,100.000000,,,,,,,,,,,,,,,,
