title:Alex-pxNxVOnpgCJqj8iwjaqZsA, start timestamp:1644853782.787119, stop timestamp:1644853810.245115, headset type:EPOCPLUS, headset serial:3B9AEBFF, headset firmware:626, channels:55, sampling rate:eeg_256, samples:6970      , version:2.1, 
Timestamp,EEG.Counter,EEG.Interpolated,EEG.AF3,EEG.F7,EEG.F3,EEG.FC5,EEG.T7,EEG.P7,EEG.O1,EEG.O2,EEG.P8,EEG.T8,EEG.FC6,EEG.F4,EEG.F8,EEG.AF4,EEG.RawCq,EEG.Battery,EEG.BatteryPercent,MarkerIndex,MarkerType,MarkerValueInt,EEG.MarkerHardware,CQ.AF3,CQ.F7,CQ.F3,CQ.FC5,CQ.T7,CQ.P7,CQ.O1,CQ.O2,CQ.P8,CQ.T8,CQ.FC6,CQ.F4,CQ.F8,CQ.AF4,CQ.Overall,EQ.SampleRateQuality,EQ.OVERALL,EQ.AF3,EQ.F7,EQ.F3,EQ.FC5,EQ.T7,EQ.P7,EQ.O1,EQ.O2,EQ.P8,EQ.T8,EQ.FC6,EQ.F4,EQ.F8,EQ.AF4
1644853782.787119,232.000000,0.000000,4216.922852,4234.358887,4223.077148,4245.512695,4223.461426,4223.333496,4224.615234,4213.589844,4223.846191,4227.820313,4226.922852,4203.461426,4224.871582,4310.256348,3479.000000,4.000000,86.000000,,,,0.000000,4.000000,4.000000,4.000000,4.000000,4.000000,4.000000,4.000000,4.000000,4.000000,4.000000,4.000000,4.000000,4.000000,4.000000,100.000000,,,,,,,,,,,,,,,,
1644853782.790960,233.000000,0.000000,4216.282227,4237.051270,4229.743652,4257.692383,4226.282227,4224.102539,4222.692383,4216.410156,4225.897461,4233.846191,4227.179688,4213.846191,4228.974121,4304.230957,3556.000000,4.000000,86.000000,,,,0.000000,4.000000,4.000000,4.000000,4.000000,4.000000,4.000000,4.000000,4.000000,4.000000,4.000000,4.000000,4.000000,4.000000,4.000000,100.000000,,,,,,,,,,,,,,,,
1644853782.794900,234.000000,0.000000,4216.666504,4236.666504,4236.538574,4259.615234,4222.051270,4224.230957,4221.794922,4219.358887,4227.563965,4231.922852,4227.307617,4217.436035,4229.743652,4297.563965,3544.000000,4.000000,86.000000,,,,0.000000,4.000000,4.000000,4.000000,4.000000,4.000000,4.000000,4.000000,4.000000,4.000000,4.000000,4.000000,4.000000,4.000000,4.000000,100.000000,,,,,,,,,,,,,,,,
1644853782.798840,235.000000,0.000000,4220.256348,4236.153809,4241.025879,4251.794922,4213.974121,4224.230957,4221.922852,4220.897461,4228.077148,4225.000000,4228.205078,4214.487305,4228.205078,4294.230957,2506.000000,4.000000,86.000000,,,,0.000000,4.000000,4.000000,4.000000,4.000000,4.000000,4.000000,4.000000,4.000000,4.000000,4.000000,4.000000,4.000000,4.000000,4.000000,100.000000,,,,,,,,,,,,,,,,
1644853782.802780,236.000000,0.000000,4224.743652,4236.282227,4241.153809,4240.897461,4208.461426,4223.333496,4221.153809,4219.230957,4227.179688,4219.230957,4228.974121,4209.358887,4225.128418,4294.871582,3479.000000,4.000000,86.000000,,,,0.000000,4.000000,4.000000,4.000000,4.000000,4.000000,4.000000,4.000000,4.000000,4.000000,4.000000,4.000000,4.000000,4.000000,4.000000,100.000000,,,,,,,,,,,,,,,,
1644853782.806720,237.000000,0.000000,4226.153809,4235.384766,4236.922852,4232.948730,4209.871582,4220.897461,4218.717773,4214.230957,4224.358887,4217.820313,4227.307617,4205.769043,4220.128418,4297.692383,3556.000000,4.000000,86.000000,,,,0.000000,4.000000,4.000000,4.000000,4.000000,4.000000,4.000000,4.000000,4.000000,4.000000,4.000000,4.000000,4.000000,4.000000,4.000000,100.000000,,,,,,,,,,,,,,,,
1644853782.810660,238.000000,0.000000,4222.051270,4231.794922,4230.769043,4229.487305,4216.666504,4217.307617,4216.025879,4207.820313,4219.358887,4218.333496,4221.794922,4203.205078,4213.205078,4300.769043,3544.000000,4.000000,86.000000,,,,0.000000,4.000000,4.000000,4.000000,4.000000,4.000000,4.000000,4.000000,4.000000,4.000000,4.000000,4.000000,4.000000,4.000000,4.000000,100.000000,,,,,,,,,,,,,,,,
1644853782.814600,239.000000,0.000000,4214.487305,4226.153809,4225.512695,4229.230957,4223.846191,4214.743652,4214.487305,4202.692383,4213.077148,4216.282227,4213.461426,4199.358887,4205.512695,4301.922852,2506.000000,4.000000,86.000000,,,,0.000000,4.000000,4.000000,4.000000,4.000000,4.000000,4.000000,4.000000,4.000000,4.000000,4.000000,4.000000,4.000000,4.000000,4.000000,100.000000,,,,,,,,,,,,,,,,
1644853782.818540,240.000000,0.000000,4208.461426,4221.025879,4222.563965,4230.769043,4226.666504,4215.000000,4213.974121,4200.128418,4207.692383,4210.256348,4204.871582,4193.333496,4199.487305,4299.102539,3479.000000,4.000000,86.000000,,,,0.000000,4.000000,4.000000,4.000000,4.000000,4.000000,4.000000,4.000000,4.000000,4.000000,4.000000,4.000000,4.000000,4.000000,4.000000,100.000000,,,,,,,,,,,,,,,,
1644853782.822480,241.000000,0.000000,4207.692383,4219.615234,4221.538574,4233.461426,4224.487305,4218.077148,4213.589844,4200.128418,4205.000000,4203.589844,4199.871582,4187.820313,4197.563965,4291.922852,3556.000000,4.000000,86.000000,,,,0.000000,4.000000,4.000000,4.000000,4.000000,4.000000,4.000000,4.000000,4.000000,4.000000,4.000000,4.000000,4.000000,4.000000,4.000000,100.000000,,,,,,,,,,,,,,,,
1644853782.826421,242.000000,0.000000,4212.051270,4222.436035,4222.179688,4237.179688,4220.256348,4221.282227,4213.077148,4201.922852,4205.512695,4202.051270,4200.897461,4186.025879,4201.410156,4284.615234,3544.000000,4.000000,86.000000,,,,0.000000,4.000000,4.000000,4.000000,4.000000,4.000000,4.000000,4.000000,4.000000,4.000000,4.000000,4.000000,4.000000,4.000000,4.000000,100.000000,,,,,,,,,,,,,,,,
1644853782.830361,243.000000,0.000000,4217.563965,4227.563965,4224.487305,4241.666504,4217.179688,4222.307617,4214.230957,4204.871582,4208.205078,4207.436035,4207.563965,4189.102539,4210.256348,4282.820313,2506.000000,4.000000,86.000000,,,,0.000000,4.000000,4.000000,4.000000,4.000000,4.000000,4.000000,4.000000,4.000000,4.000000,4.000000,4.000000,4.000000,4.000000,4.000000,100.000000,,,,,,,,,,,,,,,,
1644853782.834301,244.000000,0.000000,4220.128418,4232.051270,4227.563965,4246.153809,4216.666504,4220.641113,4217.307617,4208.205078,4211.410156,4216.410156,4216.666504,4195.000000,4220.897461,4287.948730,3479.000000,4.000000,86.000000,,,,0.000000,4.000000,4.000000,4.000000,4.000000,4.000000,4.000000,4.000000,4.000000,4.000000,4.000000,4.000000,4.000000,4.000000,4.000000,100.000000,1.000000,100.000000,4.000000,4.000000,4.000000,4.000000,4.000000,4.000000,4.000000,4.000000,4.000000,4.000000,4.000000,4.000000,4.000000,4.000000
1644853782.838241,245.000000,0.000000,4218.205078,4233.974121,4229.871582,4248.589844,4217.563965,4218.077148,4220.256348,4210.641113,4214.358887,4223.589844,4224.358887,4200.512695,4228.333496,4294.743652,3556.000000,4.000000,86.000000,,,,0.000000,4.000000,4.000000,4.000000,4.000000,4.000000,4.000000,4.000000,4.000000,4.000000,4.000000,4.000000,4.000000,4.000000,4.000000,100.000000,,,,,,,,,,,,,,,,
1644853782.842181,246.000000,0.000000,4213.333496,4232.820313,4230.128418,4245.512695,4217.820313,4216.666504,4220.512695,4211.410156,4217.436035,4225.897461,4228.205078,4203.846191,4229.743652,4296.282227,3544.000000,4.000000,86.000000,,,,0.000000,4.000000,4.000000,4.000000,4.000000,4.000000,4.000000,4.000000,4.000000,4.000000,4.000000,4.000000,4.000000,4.000000,4.000000,100.000000,,,,,,,,,,,,,,,,
1644853782.846121,247.000000,0.000000,4207.563965,4229.615234,4228.461426,4235.769043,4215.128418,4216.922852,4217.692383,4211.153809,4220.128418,4224.871582,4227.820313,4204.871582,4226.025879,4290.897461,2506.000000,4.000000,86.000000,,,,0.000000,4.000000,4.000000,4.000000,4.000000,4.000000,4.000000,4.000000,4.000000,4.000000,4.000000,4.000000,4.000000,4.000000,4.000000,100.000000,,,,,,,,,,,,,,,,
1644853782.850061,248.000000,0.000000,4202.692383,4225.000000,4226.025879,4222.563965,4208.717773,4217.692383,4214.743652,4210.897461,4221.794922,4222.948730,4224.102539,4204.102539,4220.256348,4283.077148,3479.000000,4.000000,86.000000,,,,0.000000,4.000000,4.000000,4.000000,4.000000,4.000000,4.000000,4.000000,4.000000,4.000000,4.000000,4.000000,4.000000,4.000000,4.000000,100.000000,,,,,,,,,,,,,,,,
1644853782.854001,249.000000,0.000000,4200.000000,4219.358887,4223.974121,4213.077148,4200.641113,4217.820313,4214.102539,4211.025879,4221.282227,4221.153809,4218.717773,4202.051270,4214.871582,4278.717773,3556.000000,4.000000,86.000000,,,,0.000000,4.000000,4.000000,4.000000,4.000000,4.000000,4.000000,4.000000,4.000000,4.000000,4.000000,4.000000,4.000000,4.000000,4.000000,100.000000,,,,,,,,,,,,,,,,
1644853782.857941,250.000000,0.000000,4200.384766,4214.487305,4222.051270,4212.948730,4195.769043,4216.922852,4215.512695,4211.025879,4218.717773,4218.717773,4213.846191,4199.358887,4210.897461,4278.974121,3544.000000,4.000000,86.000000,,,,0.000000,4.000000,4.000000,4.000000,4.000000,4.000000,4.000000,4.000000,4.000000,4.000000,4.000000,4.000000,4.000000,4.000000,4.000000,100.000000,,,,,,,,,,,,,,,,
1644853782.861981,251.000000,0.000000,4203.589844,4212.692383,4219.743652,4222.051270,4197.820313,4215.641113,4216.153809,4210.384766,4215.256348,4215.128418,4212.051270,4196.282227,4208.333496,4281.410156,2506.000000,4.000000,86.000000,,,,0.000000,4.000000,4.000000,4.000000,4.000000,4.000000,4.000000,4.000000,4.000000,4.000000,4.000000,4.000000,4.000000,4.000000,4.000000,100.000000,,,,,,,,,,,,,,,,
1644853782.865922,252.000000,0.000000,4207.563965,4214.743652,4216.794922,4234.102539,4206.410156,4215.128418,4214.615234,4209.102539,4212.436035,4211.922852,4213.717773,4193.333496,4207.179688,4282.820313,3479.000000,4.000000,86.000000,,,,0.000000,4.000000,4.000000,4.000000,4.000000,4.000000,4.000000,4.000000,4.000000,4.000000,4.000000,4.000000,4.000000,4.000000,4.000000,100.000000,,,,,,,,,,,,,,,,
1644853782.869862,253.000000,0.000000,4208.717773,4219.102539,4213.974121,4241.922852,4217.051270,4215.897461,4212.563965,4207.563965,4210.641113,4210.897461,4216.538574,4191.666504,4207.051270,4281.666504,3556.000000,4.000000,86.000000,,,,0.000000,4.000000,4.000000,4.000000,4.000000,4.000000,4.000000,4.000000,4.000000,4.000000,4.000000,4.000000,4.000000,4.000000,4.000000,100.000000,,,,,,,,,,,,,,,,
1644853782.873802,254.000000,0.000000,4204.615234,4222.179688,4212.692383,4242.436035,4224.871582,4217.436035,4211.922852,4206.410156,4210.000000,4213.077148,4216.666504,4192.563965,4207.051270,4278.717773,3544.000000,4.000000,86.000000,,,,0.000000,4.000000,4.000000,4.000000,4.000000,4.000000,4.000000,4.000000,4.000000,4.000000,4.000000,4.000000,4.000000,4.000000,4.000000,100.000000,,,,,,,,,,,,,,,,
1644853782.877742,255.000000,0.000000,4196.666504,4222.179688,4214.230957,4238.717773,4228.205078,4218.717773,4213.077148,4206.025879,4210.897461,4217.820313,4212.692383,4196.410156,4207.307617,4276.025879,113.000000,4.000000,86.000000,,,,0.000000,4.000000,4.000000,4.000000,4.000000,4.000000,4.000000,4.000000,4.000000,4.000000,4.000000,4.000000,4.000000,4.000000,4.000000,100.000000,,,,,,,,,,,,,,,,
1644853782.881682,0.000000,0.000000,4189.358887,4220.256348,4218.461426,4236.025879,4228.077148,4218.717773,4214.487305,4207.307617,4214.102539,4223.717773,4207.563965,4201.410156,4208.077148,4276.794922,3391.000000,4.000000,86.000000,,,,0.000000,4.000000,4.000000,4.000000,4.000000,4.000000,4.000000,4.000000,4.000000,4.000000,4.000000,4.000000,4.000000,4.000000,4.000000,100.000000,,,,,,,,,,,,,,,,
1644853782.885722,1.000000,0.000000,4188.589844,4218.589844,4224.102539,4236.794922,4226.282227,4217.692383,4215.641113,4210.384766,4219.871582,4228.846191,4205.769043,4204.743652,4209.871582,4282.692383,3309.000000,4.000000,86.000000,,,,0.000000,4.000000,4.000000,4.000000,4.000000,4.000000,4.000000,4.000000,4.000000,4.000000,4.000000,4.000000,4.000000,4.000000,4.000000,100.000000,,,,,,,,,,,,,,,,
1644853782.889662,2.000000,0.000000,4196.922852,4218.205078,4229.615234,4237.820313,4223.717773,4216.410156,4216.922852,4214.487305,4226.410156,4232.051270,4210.000000,4204.871582,4212.563965,4291.922852,3659.000000,4.000000,86.000000,,,,0.000000,4.000000,4.000000,4.000000,4.000000,4.000000,4.000000,4.000000,4.000000,4.000000,4.000000,4.000000,4.000000,4.000000,4.000000,100.000000,,,,,,,,,,,,,,,,
1644853782.893602,3.000000,0.000000,4210.641113,4219.358887,4232.051270,4233.205078,4220.384766,4216.025879,4218.846191,4218.717773,4231.282227,4233.205078,4218.077148,4202.820313,4215.769043,4299.102539,3634.000000,4.000000,86.000000,,,,0.000000,4.000000,4.000000,4.000000,4.000000,4.000000,4.000000,4.000000,4.000000,4.000000,4.000000,4.000000,4.000000,4.000000,4.000000,100.000000,,,,,,,,,,,,,,,,
1644853782.897442,4.000000,0.000000,4221.538574,4221.538574,4229.743652,4221.282227,4216.666504,4216.666504,4220.256348,4221.025879,4232.051270,4233.333496,4225.384766,4201.025879,4219.743652,4298.589844,3521.000000,4.000000,86.000000,,,,0.000000,4.000000,4.000000,4.000000,4.000000,4.000000,4.000000,4.000000,4.000000,4.000000,4.000000,4.000000,4.000000,4.000000,4.000000,100.000000,,,,,,,,,,,,,,,,
1644853782.901382,5.000000,0.000000,4222.820313,4224.230957,4223.205078,4207.948730,4213.589844,4218.077148,4218.846191,4220.000000,4228.717773,4233.333496,4228.333496,4201.282227,4225.384766,4289.743652,3404.000000,4.000000,86.000000,,,,0.000000,4.000000,4.000000,4.000000,4.000000,4.000000,4.000000,4.000000,4.000000,4.000000,4.000000,4.000000,4.000000,4.000000,4.000000,100.000000,,,,,,,,,,,,,,,,
1644853782.905323,6.000000,0.000000,4214.102539,4226.410156,4216.025879,4203.333496,4212.436035,4219.230957,4214.871582,4215.512695,4223.461426,4232.692383,4227.692383,4203.461426,4231.922852,4278.461426,2579.000000,4.000000,86.000000,,,,0.000000,4.000000,4.000000,4.000000,4.000000,4.000000,4.000000,4.000000,4.000000,4.000000,4.000000,4.000000,4.000000,4.000000,4.000000,100.000000,,,,,,,,,,,,,,,,
1644853782.909263,7.000000,0.000000,4201.794922,4227.179688,4211.538574,4213.717773,4213.717773,4218.974121,4211.410156,4209.743652,4218.974121,4230.512695,4225.641113,4204.871582,4236.410156,4272.820313,2882.000000,4.000000,86.000000,,,,0.000000,4.000000,4.000000,4.000000,4.000000,4.000000,4.000000,4.000000,4.000000,4.000000,4.000000,4.000000,4.000000,4.000000,4.000000,100.000000,,,,,,,,,,,,,,,,
1644853782.913203,8.000000,0.000000,4194.615234,4225.769043,4210.641113,4233.846191,4215.641113,4217.307617,4211.282227,4205.641113,4216.922852,4226.666504,4223.974121,4203.077148,4235.000000,4275.641113,3259.000000,4.000000,86.000000,,,,0.000000,4.000000,4.000000,4.000000,4.000000,4.000000,4.000000,4.000000,4.000000,4.000000,4.000000,4.000000,4.000000,4.000000,4.000000,100.000000,,,,,,,,,,,,,,,,
1644853782.917143,9.000000,0.000000,4197.051270,4222.692383,4211.922852,4250.769043,4215.384766,4215.000000,4213.589844,4204.358887,4217.563965,4222.563965,4222.307617,4198.077148,4227.179688,4282.436035,3400.000000,4.000000,86.000000,,,,0.000000,4.000000,4.000000,4.000000,4.000000,4.000000,4.000000,4.000000,4.000000,4.000000,4.000000,4.000000,4.000000,4.000000,4.000000,100.000000,,,,,,,,,,,,,,,,
1644853782.921083,10.000000,0.000000,4206.922852,4219.743652,4213.333496,4253.461426,4212.179688,4213.077148,4215.000000,4205.000000,4219.871582,4220.128418,4219.358887,4193.333496,4216.922852,4286.282227,3530.000000,4.000000,86.000000,,,,0.000000,4.000000,4.000000,4.000000,4.000000,4.000000,4.000000,4.000000,4.000000,4.000000,4.000000,4.000000,4.000000,4.000000,4.000000,100.000000,,,,,,,,,,,,,,,,
1644853782.925023,11.000000,0.000000,4217.436035,4218.974121,4213.974121,4242.051270,4207.820313,4212.179688,4213.205078,4206.153809,4221.922852,4220.256348,4215.384766,4192.948730,4210.512695,4284.615234,2502.000000,4.000000,86.000000,,,,0.000000,4.000000,4.000000,4.000000,4.000000,4.000000,4.000000,4.000000,4.000000,4.000000,4.000000,4.000000,4.000000,4.000000,4.000000,100.000000,,,,,,,,,,,,,,,,
1644853782.928963,12.000000,0.000000,4222.820313,4221.025879,4214.743652,4227.948730,4206.025879,4212.436035,4209.743652,4207.436035,4222.436035,4222.179688,4212.692383,4198.205078,4212.051270,4281.025879,3465.000000,4.000000,86.000000,,,,0.000000,4.000000,4.000000,4.000000,4.000000,4.000000,4.000000,4.000000,4.000000,4.000000,4.000000,4.000000,4.000000,4.000000,4.000000,100.000000,,,,,,,,,,,,,,,,
1644853782.932903,13.000000,0.000000,4221.025879,4224.871582,4216.922852,4222.307617,4208.974121,4213.589844,4208.589844,4208.974121,4221.794922,4224.102539,4213.589844,4206.153809,4220.897461,4280.384766,3390.000000,4.000000,86.000000,,,,0.000000,4.000000,4.000000,4.000000,4.000000,4.000000,4.000000,4.000000,4.000000,4.000000,4.000000,4.000000,4.000000,4.000000,4.000000,100.000000,,,,,,,,,,,,,,,,
1644853782.936843,14.000000,0.000000,4214.743652,4228.333496,4220.512695,4227.179688,4215.256348,4215.256348,4210.769043,4210.769043,4221.025879,4225.000000,4218.589844,4212.436035,4232.051270,4283.717773,3530.000000,4.000000,86.000000,,,,0.000000,4.000000,4.000000,4.000000,4.000000,4.000000,4.000000,4.000000,4.000000,4.000000,4.000000,4.000000,4.000000,4.000000,4.000000,100.000000,,,,,,,,,,,,,,,,
1644853782.940784,15.000000,0.000000,4208.077148,4229.743652,4223.846191,4235.000000,4220.512695,4217.051270,4213.974121,4212.179688,4220.641113,4224.871582,4225.128418,4213.333496,4238.974121,4286.538574,2502.000000,4.000000,86.000000,,,,0.000000,4.000000,4.000000,4.000000,4.000000,4.000000,4.000000,4.000000,4.000000,4.000000,4.000000,4.000000,4.000000,4.000000,4.000000,100.000000,,,,,,,,,,,,,,,,
1644853782.944824,16.000000,0.000000,4204.743652,4228.589844,4225.384766,4236.794922,4222.051270,4218.589844,4215.512695,4212.948730,4220.384766,4224.102539,4229.102539,4208.846191,4237.179688,4284.487305,3465.000000,4.000000,86.000000,,,,0.000000,4.000000,4.000000,4.000000,4.000000,4.000000,4.000000,4.000000,4.000000,4.000000,4.000000,4.000000,4.000000,4.000000,4.000000,100.000000,,,,,,,,,,,,,,,,
1644853782.948764,17.000000,0.000000,4205.897461,4225.897461,4224.615234,4229.871582,4220.128418,4219.487305,4215.000000,4213.077148,4219.615234,4223.717773,4227.692383,4202.563965,4226.538574,4277.948730,3390.000000,4.000000,86.000000,,,,0.000000,4.000000,4.000000,4.000000,4.000000,4.000000,4.000000,4.000000,4.000000,4.000000,4.000000,4.000000,4.000000,4.000000,4.000000,100.000000,,,,,,,,,,,,,,,,
1644853782.952704,18.000000,0.000000,4209.615234,4223.717773,4223.077148,4218.717773,4217.436035,4219.102539,4214.358887,4213.589844,4218.077148,4224.615234,4221.922852,4198.974121,4212.820313,4271.410156,3530.000000,4.000000,86.000000,,,,0.000000,4.000000,4.000000,4.000000,4.000000,4.000000,4.000000,4.000000,4.000000,4.000000,4.000000,4.000000,4.000000,4.000000,4.000000,100.000000,,,,,,,,,,,,,,,,
1644853782.956644,19.000000,0.000000,4212.692383,4223.461426,4222.563965,4210.769043,4216.282227,4216.666504,4214.487305,4214.871582,4216.153809,4226.666504,4216.282227,4200.000000,4204.358887,4268.717773,2502.000000,4.000000,86.000000,,,,0.000000,4.000000,4.000000,4.000000,4.000000,4.000000,4.000000,4.000000,4.000000,4.000000,4.000000,4.000000,4.000000,4.000000,4.000000,100.000000,,,,,,,,,,,,,,,,
1644853782.960584,20.000000,0.000000,4212.179688,4224.230957,4222.820313,4210.128418,4216.025879,4213.205078,4214.358887,4216.025879,4214.615234,4227.948730,4214.102539,4203.717773,4206.282227,4268.974121,3465.000000,4.000000,86.000000,,,,0.000000,4.000000,4.000000,4.000000,4.000000,4.000000,4.000000,4.000000,4.000000,4.000000,4.000000,4.000000,4.000000,4.000000,4.000000,100.000000,,,,,,,,,,,,,,,,
1644853782.964524,21.000000,0.000000,4207.179688,4223.077148,4222.051270,4215.384766,4214.358887,4210.512695,4212.820313,4215.512695,4213.589844,4225.769043,4214.615234,4205.512695,4215.641113,4268.077148,3390.000000,4.000000,86.000000,,,,0.000000,4.000000,4.000000,4.000000,4.000000,4.000000,4.000000,4.000000,4.000000,4.000000,4.000000,4.000000,4.000000,4.000000,4.000000,100.000000,,,,,,,,,,,,,,,,
1644853782.968464,22.000000,0.000000,4198.846191,4217.948730,4219.358887,4219.743652,4211.282227,4209.743652,4210.512695,4212.820313,4212.179688,4218.974121,4214.358887,4203.077148,4222.948730,4263.846191,3530.000000,4.000000,86.000000,,,,0.000000,4.000000,4.000000,4.000000,4.000000,4.000000,4.000000,4.000000,4.000000,4.000000,4.000000,4.000000,4.000000,4.000000,4.000000,100.000000,,,,,,,,,,,,,,,,
1644853782.972404,23.000000,0.000000,4190.000000,4211.410156,4215.897461,4218.589844,4208.461426,4210.512695,4209.487305,4209.358887,4209.743652,4210.641113,4210.641113,4198.589844,4220.897461,4258.205078,2502.000000,4.000000,86.000000,,,,0.000000,4.000000,4.000000,4.000000,4.000000,4.000000,4.000000,4.000000,4.000000,4.000000,4.000000,4.000000,4.000000,4.000000,4.000000,100.000000,,,,,,,,,,,,,,,,
1644853782.976344,24.000000,0.000000,4184.230957,4208.333496,4214.358887,4212.948730,4207.051270,4211.538574,4210.128418,4207.436035,4207.820313,4205.897461,4205.897461,4196.794922,4210.128418,4255.512695,3465.000000,4.000000,86.000000,,,,0.000000,4.000000,4.000000,4.000000,4.000000,4.000000,4.000000,4.000000,4.000000,4.000000,4.000000,4.000000,4.000000,4.000000,4.000000,100.000000,,,,,,,,,,,,,,,,
1644853782.980285,25.000000,0.000000,4185.128418,4211.922852,4216.922852,4209.487305,4207.436035,4211.666504,4210.897461,4208.205078,4208.077148,4207.820313,4205.384766,4201.025879,4198.846191,4257.692383,3390.000000,4.000000,86.000000,,,,0.000000,4.000000,4.000000,4.000000,4.000000,4.000000,4.000000,4.000000,4.000000,4.000000,4.000000,4.000000,4.000000,4.000000,4.000000,100.000000,,,,,,,,,,,,,,,,
1644853782.984225,26.000000,0.000000,4193.333496,4220.512695,4223.205078,4213.077148,4208.333496,4211.410156,4210.512695,4210.000000,4211.410156,4214.487305,4211.538574,4209.615234,4195.769043,4264.615234,3530.000000,4.000000,86.000000,,,,0.000000,4.000000,4.000000,4.000000,4.000000,4.000000,4.000000,4.000000,4.000000,4.000000,4.000000,4.000000,4.000000,4.000000,4.000000,100.000000,,,,,,,,,,,,,,,,
1644853782.988165,27.000000,0.000000,4205.384766,4228.589844,4229.615234,4222.820313,4209.871582,4211.538574,4209.743652,4210.769043,4215.897461,4220.897461,4221.153809,4216.922852,4203.333496,4274.743652,2502.000000,4.000000,86.000000,,,,0.000000,4.000000,4.000000,4.000000,4.000000,4.000000,4.000000,4.000000,4.000000,4.000000,4.000000,4.000000,4.000000,4.000000,4.000000,100.000000,,,,,,,,,,,,,,,,
1644853782.992105,28.000000,0.000000,4215.641113,4231.025879,4231.922852,4232.692383,4212.692383,4212.436035,4210.128418,4209.358887,4217.820313,4222.948730,4227.436035,4217.436035,4216.794922,4285.256348,3465.000000,4.000000,86.000000,,,,0.000000,4.000000,4.000000,4.000000,4.000000,4.000000,4.000000,4.000000,4.000000,4.000000,4.000000,4.000000,4.000000,4.000000,4.000000,100.000000,,,,,,,,,,,,,,,,
1644853782.996045,29.000000,0.000000,4220.128418,4226.410156,4227.948730,4236.410156,4217.436035,4214.102539,4211.282227,4206.153809,4215.512695,4220.769043,4226.666504,4211.025879,4228.461426,4291.153809,3390.000000,4.000000,86.000000,,,,0.000000,4.000000,4.000000,4.000000,4.000000,4.000000,4.000000,4.000000,4.000000,4.000000,4.000000,4.000000,4.000000,4.000000,4.000000,100.000000,,,,,,,,,,,,,,,,
1644853782.999985,30.000000,0.000000,4218.589844,4218.461426,4219.358887,4231.922852,4223.205078,4215.384766,4211.410156,4202.948730,4210.000000,4217.563965,4221.025879,4201.794922,4232.948730,4287.948730,3530.000000,4.000000,86.000000,,,,0.000000,4.000000,4.000000,4.000000,4.000000,4.000000,4.000000,4.000000,4.000000,4.000000,4.000000,4.000000,4.000000,4.000000,4.000000,100.000000,,,,,,,,,,,,,,,,
1644853783.003925,31.000000,0.000000,4213.717773,4212.692383,4211.153809,4222.563965,4227.307617,4215.384766,4209.743652,4202.179688,4205.000000,4216.794922,4215.256348,4194.743652,4229.358887,4275.641113,2502.000000,4.000000,86.000000,,,,0.000000,4.000000,4.000000,4.000000,4.000000,4.000000,4.000000,4.000000,4.000000,4.000000,4.000000,4.000000,4.000000,4.000000,4.000000,100.000000,,,,,,,,,,,,,,,,
1644853783.007865,32.000000,0.000000,4207.692383,4212.563965,4207.820313,4213.717773,4226.538574,4214.615234,4208.589844,4204.358887,4203.461426,4218.461426,4212.948730,4192.436035,4220.897461,4260.512695,0.000000,4.000000,86.000000,,,,0.000000,4.000000,4.000000,4.000000,4.000000,4.000000,4.000000,4.000000,4.000000,4.000000,4.000000,4.000000,4.000000,4.000000,4.000000,100.000000,,,,,,,,,,,,,,,,
1644853783.011805,33.000000,0.000000,4201.666504,4217.563965,4211.282227,4209.615234,4220.384766,4214.487305,4211.025879,4208.974121,4206.410156,4220.000000,4213.461426,4194.487305,4212.307617,4251.025879,0.000000,4.000000,86.000000,,,,0.000000,4.000000,4.000000,4.000000,4.000000,4.000000,4.000000,4.000000,4.000000,4.000000,4.000000,4.000000,4.000000,4.000000,4.000000,100.000000,,,,,,,,,,,,,,,,
1644853783.015745,34.000000,0.000000,4196.282227,4223.846191,4219.102539,4210.897461,4213.077148,4215.897461,4216.538574,4213.717773,4211.538574,4219.102539,4214.743652,4199.102539,4207.307617,4251.025879,0.000000,4.000000,86.000000,,,,0.000000,4.000000,4.000000,4.000000,4.000000,4.000000,4.000000,4.000000,4.000000,4.000000,4.000000,4.000000,4.000000,4.000000,4.000000,100.000000,,,,,,,,,,,,,,,,
1644853783.019586,35.000000,0.000000,4193.589844,4227.436035,4225.897461,4214.871582,4210.769043,4218.461426,4220.769043,4216.282227,4215.897461,4215.897461,4214.230957,4203.846191,4206.410156,4257.051270,0.000000,4.000000,86.000000,,,,0.000000,4.000000,4.000000,4.000000,4.000000,4.000000,4.000000,4.000000,4.000000,4.000000,4.000000,4.000000,4.000000,4.000000,4.000000,100.000000,,,,,,,,,,,,,,,,
1644853783.023526,36.000000,0.000000,4195.769043,4226.538574,4227.307617,4218.205078,4216.153809,4220.641113,4220.256348,4215.897461,4217.563965,4213.333496,4211.282227,4207.051270,4207.948730,4262.179688,0.000000,4.000000,86.000000,,,,0.000000,4.000000,4.000000,4.000000,4.000000,4.000000,4.000000,4.000000,4.000000,4.000000,4.000000,4.000000,4.000000,4.000000,4.000000,100.000000,,,,,,,,,,,,,,,,
1644853783.027466,37.000000,0.000000,4202.563965,4222.307617,4222.563965,4218.846191,4225.000000,4220.897461,4215.512695,4213.461426,4216.538574,4213.589844,4206.922852,4207.692383,4210.384766,4262.179688,0.000000,4.000000,86.000000,,,,0.000000,4.000000,4.000000,4.000000,4.000000,4.000000,4.000000,4.000000,4.000000,4.000000,4.000000,4.000000,4.000000,4.000000,4.000000,100.000000,,,,,,,,,,,,,,,,
1644853783.031406,38.000000,0.000000,4209.871582,4217.307617,4214.871582,4217.692383,4229.230957,4218.974121,4211.410156,4210.897461,4214.358887,4216.794922,4204.487305,4205.512695,4212.436035,4256.922852,0.000000,4.000000,86.000000,,,,0.000000,4.000000,4.000000,4.000000,4.000000,4.000000,4.000000,4.000000,4.000000,4.000000,4.000000,4.000000,4.000000,4.000000,4.000000,100.000000,,,,,,,,,,,,,,,,
1644853783.035346,39.000000,0.000000,4212.692383,4213.589844,4208.589844,4217.307617,4224.743652,4216.538574,4211.025879,4209.487305,4212.948730,4221.153809,4206.922852,4201.153809,4214.102539,4249.358887,0.000000,4.000000,86.000000,,,,0.000000,4.000000,4.000000,4.000000,4.000000,4.000000,4.000000,4.000000,4.000000,4.000000,4.000000,4.000000,4.000000,4.000000,4.000000,100.000000,,,,,,,,,,,,,,,,
1644853783.039286,40.000000,0.000000,4209.358887,4211.538574,4206.666504,4218.974121,4216.410156,4216.794922,4213.589844,4209.871582,4213.717773,4225.128418,4213.846191,4196.153809,4215.000000,4242.820313,0.000000,4.000000,86.000000,,,,0.000000,4.000000,4.000000,4.000000,4.000000,4.000000,4.000000,4.000000,4.000000,4.000000,4.000000,4.000000,4.000000,4.000000,4.000000,100.000000,,,,,,,,,,,,,,,,
1644853783.043226,41.000000,0.000000,4202.307617,4210.897461,4208.717773,4221.282227,4212.563965,4221.153809,4215.769043,4211.153809,4216.538574,4227.179688,4221.410156,4192.820313,4214.615234,4239.871582,0.000000,4.000000,86.000000,,,,0.000000,4.000000,4.000000,4.000000,4.000000,4.000000,4.000000,4.000000,4.000000,4.000000,4.000000,4.000000,4.000000,4.000000,4.000000,100.000000,,,,,,,,,,,,,,,,
1644853783.047166,42.000000,0.000000,4195.641113,4210.897461,4212.179688,4222.051270,4217.948730,4227.307617,4216.153809,4212.436035,4219.487305,4226.922852,4223.974121,4192.820313,4212.948730,4241.666504,0.000000,4.000000,86.000000,,,,0.000000,4.000000,4.000000,4.000000,4.000000,4.000000,4.000000,4.000000,4.000000,4.000000,4.000000,4.000000,4.000000,4.000000,4.000000,100.000000,,,,,,,,,,,,,,,,
1644853783.051107,43.000000,0.000000,4192.307617,4211.410156,4214.871582,4220.641113,4228.205078,4230.897461,4216.025879,4212.820313,4220.384766,4224.358887,4220.128418,4194.871582,4211.794922,4246.794922,0.000000,4.000000,86.000000,,,,0.000000,4.000000,4.000000,4.000000,4.000000,4.000000,4.000000,4.000000,4.000000,4.000000,4.000000,4.000000,4.000000,4.000000,4.000000,100.000000,,,,,,,,,,,,,,,,
1644853783.055047,44.000000,0.000000,4192.307617,4212.179688,4216.153809,4218.461426,4234.743652,4229.102539,4216.538574,4212.436035,4219.358887,4221.666504,4213.717773,4196.922852,4213.589844,4251.922852,0.000000,4.000000,86.000000,,,,0.000000,4.000000,4.000000,4.000000,4.000000,4.000000,4.000000,4.000000,4.000000,4.000000,4.000000,4.000000,4.000000,4.000000,4.000000,100.000000,,,,,,,,,,,,,,,,
1644853783.058987,45.000000,0.000000,4192.948730,4213.717773,4216.922852,4216.410156,4232.051270,4223.461426,4217.307617,4211.666504,4218.205078,4221.538574,4210.769043,4197.436035,4218.717773,4252.948730,0.000000,4.000000,86.000000,,,,0.000000,4.000000,4.000000,4.000000,4.000000,4.000000,4.000000,4.000000,4.000000,4.000000,4.000000,4.000000,4.000000,4.000000,4.000000,100.000000,,,,,,,,,,,,,,,,
1644853783.062927,46.000000,0.000000,4191.538574,4216.410156,4218.589844,4212.563965,4222.563965,4217.948730,4216.922852,4211.025879,4218.717773,4225.769043,4212.948730,4197.307617,4223.974121,4248.589844,0.000000,4.000000,86.000000,,,,0.000000,4.000000,4.000000,4.000000,4.000000,4.000000,4.000000,4.000000,4.000000,4.000000,4.000000,4.000000,4.000000,4.000000,4.000000,100.000000,,,,,,,,,,,,,,,,
1644853783.066867,47.000000,0.000000,4187.948730,4219.487305,4221.538574,4205.641113,4213.846191,4216.153809,4215.256348,4210.769043,4220.641113,4232.179688,4218.077148,4198.974121,4225.256348,4240.769043,0.000000,4.000000,86.000000,,,,0.000000,4.000000,4.000000,4.000000,4.000000,4.000000,4.000000,4.000000,4.000000,4.000000,4.000000,4.000000,4.000000,4.000000,4.000000,100.000000,,,,,,,,,,,,,,,,
1644853783.070807,48.000000,0.000000,4185.000000,4221.410156,4224.358887,4198.717773,4213.333496,4218.589844,4214.358887,4211.538574,4222.692383,4236.666504,4222.307617,4202.948730,4221.538574,4233.461426,0.000000,4.000000,86.000000,,,,0.000000,4.000000,4.000000,4.000000,4.000000,4.000000,4.000000,4.000000,4.000000,4.000000,4.000000,4.000000,4.000000,4.000000,4.000000,100.000000,,,,,,,,,,,,,,,,
1644853783.074747,49.000000,0.000000,4187.051270,4221.666504,4225.256348,4197.948730,4221.538574,4222.820313,4215.897461,4213.461426,4223.846191,4235.769043,4223.846191,4207.436035,4216.025879,4229.230957,0.000000,4.000000,86.000000,,,,0.000000,4.000000,4.000000,4.000000,4.000000,4.000000,4.000000,4.000000,4.000000,4.000000,4.000000,4.000000,4.000000,4.000000,4.000000,100.000000,,,,,,,,,,,,,,,,
1644853783.078687,50.000000,0.000000,4195.000000,4221.410156,4223.333496,4206.666504,4232.307617,4225.769043,4218.461426,4215.512695,4224.102539,4230.256348,4222.692383,4209.487305,4213.589844,4228.589844,0.000000,4.000000,86.000000,,,,0.000000,4.000000,4.000000,4.000000,4.000000,4.000000,4.000000,4.000000,4.000000,4.000000,4.000000,4.000000,4.000000,4.000000,4.000000,100.000000,,,,,,,,,,,,,,,,
1644853783.082627,51.000000,0.000000,4204.615234,4222.692383,4219.487305,4221.025879,4237.307617,4225.769043,4219.487305,4216.282227,4223.461426,4224.102539,4219.743652,4207.179688,4215.128418,4231.025879,0.000000,4.000000,86.000000,,,,0.000000,4.000000,4.000000,4.000000,4.000000,4.000000,4.000000,4.000000,4.000000,4.000000,4.000000,4.000000,4.000000,4.000000,4.000000,100.000000,,,,,,,,,,,,,,,,
1644853783.086667,52.000000,0.000000,4209.487305,4225.128418,4215.384766,4232.692383,4232.948730,4223.333496,4217.948730,4214.358887,4221.410156,4221.025879,4216.538574,4202.051270,4218.333496,4236.025879,0.000000,4.000000,86.000000,,,,0.000000,4.000000,4.000000,4.000000,4.000000,4.000000,4.000000,4.000000,4.000000,4.000000,4.000000,4.000000,4.000000,4.000000,4.000000,100.000000,,,,,,,,,,,,,,,,
1644853783.090607,53.000000,0.000000,4206.922852,4226.153809,4213.589844,4235.512695,4222.820313,4220.256348,4215.512695,4210.512695,4217.820313,4221.282227,4214.487305,4198.461426,4219.487305,4242.563965,0.000000,4.000000,86.000000,,,,0.000000,4.000000,4.000000,4.000000,4.000000,4.000000,4.000000,4.000000,4.000000,4.000000,4.000000,4.000000,4.000000,4.000000,4.000000,100.000000,,,,,,,,,,,,,,,,
1644853783.094548,54.000000,0.000000,4200.128418,4224.230957,4215.000000,4229.230957,4214.743652,4218.205078,4214.230957,4206.538574,4214.102539,4222.820313,4214.230957,4200.128418,4217.948730,4247.948730,0.000000,4.000000,86.000000,,,,0.000000,4.000000,4.000000,4.000000,4.000000,4.000000,4.000000,4.000000,4.000000,4.000000,4.000000,4.000000,4.000000,4.000000,4.000000,100.000000,,,,,,,,,,,,,,,,
1644853783.098488,55.000000,0.000000,4195.641113,4220.512695,4218.461426,4218.846191,4214.615234,4217.436035,4214.102539,4204.230957,4212.820313,4223.974121,4215.000000,4205.897461,4216.282227,4248.974121,0.000000,4.000000,86.000000,,,,0.000000,4.000000,4.000000,4.000000,4.000000,4.000000,4.000000,4.000000,4.000000,4.000000,4.000000,4.000000,4.000000,4.000000,4.000000,100.000000,,,,,,,,,,,,,,,,
1644853783.102428,56.000000,0.000000,4197.692383,4218.205078,4221.922852,4211.538574,4221.153809,4217.692383,4213.333496,4204.102539,4214.615234,4224.615234,4215.384766,4210.512695,4216.538574,4244.358887,0.000000,4.000000,86.000000,,,,0.000000,4.000000,4.000000,4.000000,4.000000,4.000000,4.000000,4.000000,4.000000,4.000000,4.000000,4.000000,4.000000,4.000000,4.000000,100.000000,,,,,,,,,,,,,,,,
1644853783.106368,57.000000,0.000000,4203.589844,4219.358887,4223.461426,4212.307617,4227.436035,4218.077148,4211.794922,4205.641113,4218.333496,4225.384766,4213.461426,4208.333496,4218.846191,4236.666504,0.000000,4.000000,86.000000,1,1,0,0.000000,4.000000,4.000000,4.000000,4.000000,4.000000,4.000000,4.000000,4.000000,4.000000,4.000000,4.000000,4.000000,4.000000,4.000000,100.000000,,,,,,,,,,,,,,,,
1644853783.110308,58.000000,0.000000,4206.794922,4223.205078,4222.948730,4220.128418,4227.692383,4217.948730,4211.025879,4207.563965,4220.512695,4225.769043,4208.205078,4198.846191,4219.871582,4230.256348,0.000000,4.000000,86.000000,,,,0.000000,4.000000,4.000000,4.000000,4.000000,4.000000,4.000000,4.000000,4.000000,4.000000,4.000000,4.000000,4.000000,4.000000,4.000000,100.000000,,,,,,,,,,,,,,,,
1644853783.114248,59.000000,0.000000,4202.436035,4226.666504,4221.025879,4227.307617,4222.820313,4217.051270,4212.179688,4207.820313,4217.948730,4224.230957,4200.000000,4187.692383,4215.512695,4226.538574,0.000000,4.000000,86.000000,,,,0.000000,4.000000,4.000000,4.000000,4.000000,4.000000,4.000000,4.000000,4.000000,4.000000,4.000000,4.000000,4.000000,4.000000,4.000000,100.000000,,,,,,,,,,,,,,,,
1644853783.118188,60.000000,0.000000,4192.307617,4227.436035,4218.589844,4226.410156,4218.846191,4215.897461,4213.461426,4205.128418,4211.025879,4219.871582,4192.307617,4182.307617,4205.897461,4224.230957,0.000000,4.000000,86.000000,,,,0.000000,4.000000,4.000000,4.000000,4.000000,4.000000,4.000000,4.000000,4.000000,4.000000,4.000000,4.000000,4.000000,4.000000,4.000000,100.000000,,,,,,,,,,,,,,,,
1644853783.122128,61.000000,0.000000,4183.461426,4224.743652,4216.666504,4215.897461,4220.256348,4215.384766,4212.948730,4200.128418,4203.077148,4213.846191,4190.512695,4185.897461,4195.769043,4221.282227,0.000000,4.000000,86.000000,,,,0.000000,4.000000,4.000000,4.000000,4.000000,4.000000,4.000000,4.000000,4.000000,4.000000,4.000000,4.000000,4.000000,4.000000,4.000000,100.000000,,,,,,,,,,,,,,,,
1644853783.126068,62.000000,0.000000,4182.307617,4220.128418,4215.769043,4202.820313,4224.487305,4215.897461,4210.384766,4195.128418,4198.205078,4208.717773,4196.922852,4194.102539,4191.153809,4219.230957,0.000000,4.000000,86.000000,,,,0.000000,4.000000,4.000000,4.000000,4.000000,4.000000,4.000000,4.000000,4.000000,4.000000,4.000000,4.000000,4.000000,4.000000,4.000000,100.000000,,,,,,,,,,,,,,,,
1644853783.130009,63.000000,0.000000,4190.128418,4216.153809,4216.794922,4197.179688,4224.487305,4216.410156,4208.333496,4192.563965,4198.205078,4207.820313,4208.589844,4199.487305,4194.615234,4221.666504,0.000000,4.000000,86.000000,,,,0.000000,4.000000,4.000000,4.000000,4.000000,4.000000,4.000000,4.000000,4.000000,4.000000,4.000000,4.000000,4.000000,4.000000,4.000000,100.000000,,,,,,,,,,,,,,,,
1644853783.133949,64.000000,0.000000,4202.179688,4214.743652,4219.102539,4203.589844,4216.153809,4215.512695,4208.717773,4193.717773,4201.410156,4211.410156,4219.102539,4197.307617,4204.230957,4229.615234,0.000000,4.000000,86.000000,,,,0.000000,4.000000,4.000000,4.000000,4.000000,4.000000,4.000000,4.000000,4.000000,4.000000,4.000000,4.000000,4.000000,4.000000,4.000000,100.000000,,,,,,,,,,,,,,,,
1644853783.137889,65.000000,0.000000,4211.282227,4216.666504,4221.153809,4218.205078,4203.461426,4212.307617,4210.000000,4197.307617,4205.384766,4216.538574,4224.230957,4189.743652,4215.512695,4238.461426,0.000000,4.000000,86.000000,,,,0.000000,4.000000,4.000000,4.000000,4.000000,4.000000,4.000000,4.000000,4.000000,4.000000,4.000000,4.000000,4.000000,4.000000,4.000000,100.000000,,,,,,,,,,,,,,,,
1644853783.141829,66.000000,0.000000,4212.948730,4220.000000,4220.897461,4231.282227,4196.153809,4207.307617,4209.102539,4200.641113,4208.461426,4220.000000,4224.358887,4184.230957,4224.102539,4241.410156,0.000000,4.000000,86.000000,,,,0.000000,4.000000,4.000000,4.000000,4.000000,4.000000,4.000000,4.000000,4.000000,4.000000,4.000000,4.000000,4.000000,4.000000,4.000000,100.000000,,,,,,,,,,,,,,,,
1644853783.145769,67.000000,0.000000,4208.205078,4222.051270,4217.692383,4235.384766,4200.769043,4201.922852,4205.512695,4202.051270,4209.871582,4220.897461,4223.461426,4186.922852,4228.205078,4235.641113,0.000000,4.000000,86.000000,,,,0.000000,4.000000,4.000000,4.000000,4.000000,4.000000,4.000000,4.000000,4.000000,4.000000,4.000000,4.000000,4.000000,4.000000,4.000000,100.000000,,,,,,,,,,,,,,,,
1644853783.149709,68.000000,0.000000,4201.025879,4221.153809,4213.717773,4229.615234,4214.487305,4199.102539,4202.436035,4201.922852,4210.384766,4220.641113,4223.461426,4197.948730,4227.563965,4225.384766,0.000000,4.000000,86.000000,,,,0.000000,4.000000,4.000000,4.000000,4.000000,4.000000,4.000000,4.000000,4.000000,4.000000,4.000000,4.000000,4.000000,4.000000,4.000000,100.000000,,,,,,,,,,,,,,,,
1644853783.153749,69.000000,0.000000,4196.153809,4217.436035,4212.436035,4219.230957,4226.794922,4201.025879,4203.461426,4202.307617,4210.384766,4221.153809,4223.205078,4211.410156,4223.461426,4218.077148,0.000000,4.000000,86.000000,,,,0.000000,4.000000,4.000000,4.000000,4.000000,4.000000,4.000000,4.000000,4.000000,4.000000,4.000000,4.000000,4.000000,4.000000,4.000000,100.000000,,,,,,,,,,,,,,,,
1644853783.157689,70.000000,0.000000,4195.256348,4212.820313,4216.666504,4211.410156,4228.461426,4206.922852,4208.461426,4204.358887,4210.641113,4223.333496,4220.641113,4219.743652,4219.102539,4219.102539,0.000000,4.000000,86.000000,,,,0.000000,4.000000,4.000000,4.000000,4.000000,4.000000,4.000000,4.000000,4.000000,4.000000,4.000000,4.000000,4.000000,4.000000,4.000000,100.000000,,,,,,,,,,,,,,,,
1644853783.161629,71.000000,0.000000,4197.179688,4210.256348,4225.512695,4210.641113,4220.256348,4213.461426,4213.717773,4207.051270,4211.794922,4226.794922,4216.794922,4219.743652,4218.077148,4228.461426,0.000000,4.000000,86.000000,,,,0.000000,4.000000,4.000000,4.000000,4.000000,4.000000,4.000000,4.000000,4.000000,4.000000,4.000000,4.000000,4.000000,4.000000,4.000000,100.000000,,,,,,,,,,,,,,,,
1644853783.165569,72.000000,0.000000,4199.230957,4211.410156,4234.615234,4215.512695,4210.641113,4216.922852,4215.897461,4209.230957,4213.974121,4229.615234,4215.128418,4214.487305,4222.179688,4242.051270,0.000000,4.000000,86.000000,,,,0.000000,4.000000,4.000000,4.000000,4.000000,4.000000,4.000000,4.000000,4.000000,4.000000,4.000000,4.000000,4.000000,4.000000,4.000000,100.000000,,,,,,,,,,,,,,,,
1644853783.169509,73.000000,0.000000,4199.102539,4216.025879,4239.487305,4219.743652,4208.717773,4216.282227,4215.384766,4210.128418,4216.025879,4229.358887,4217.436035,4209.487305,4228.974121,4253.846191,0.000000,4.000000,86.000000,,,,0.000000,4.000000,4.000000,4.000000,4.000000,4.000000,4.000000,4.000000,4.000000,4.000000,4.000000,4.000000,4.000000,4.000000,4.000000,100.000000,,,,,,,,,,,,,,,,
1644853783.173450,74.000000,0.000000,4197.179688,4221.025879,4237.436035,4216.794922,4215.384766,4213.717773,4213.846191,4209.743652,4215.769043,4225.384766,4221.922852,4207.436035,4233.333496,4258.717773,0.000000,4.000000,86.000000,,,,0.000000,4.000000,4.000000,4.000000,4.000000,4.000000,4.000000,4.000000,4.000000,4.000000,4.000000,4.000000,4.000000,4.000000,4.000000,100.000000,,,,,,,,,,,,,,,,
1644853783.177390,75.000000,0.000000,4195.897461,4223.589844,4229.615234,4206.282227,4224.230957,4212.307617,4212.307617,4208.077148,4212.179688,4220.128418,4225.000000,4206.666504,4231.666504,4254.230957,0.000000,4.000000,86.000000,,,,0.000000,4.000000,4.000000,4.000000,4.000000,4.000000,4.000000,4.000000,4.000000,4.000000,4.000000,4.000000,4.000000,4.000000,4.000000,100.000000,,,,,,,,,,,,,,,,
1644853783.181330,76.000000,0.000000,4198.461426,4223.077148,4220.384766,4195.769043,4227.820313,4213.589844,4210.256348,4205.128418,4207.307617,4217.563965,4225.000000,4204.871582,4224.871582,4243.205078,0.000000,4.000000,86.000000,,,,0.000000,4.000000,4.000000,4.000000,4.000000,4.000000,4.000000,4.000000,4.000000,4.000000,4.000000,4.000000,4.000000,4.000000,4.000000,100.000000,,,,,,,,,,,,,,,,
1644853783.185270,77.000000,0.000000,4205.641113,4221.666504,4215.000000,4195.384766,4224.230957,4216.025879,4208.077148,4202.051270,4204.487305,4220.384766,4223.589844,4202.436035,4218.333496,4233.333496,0.000000,4.000000,86.000000,,,,0.000000,4.000000,4.000000,4.000000,4.000000,4.000000,4.000000,4.000000,4.000000,4.000000,4.000000,4.000000,4.000000,4.000000,4.000000,100.000000,,,,,,,,,,,,,,,,
1644853783.189210,78.000000,0.000000,4215.256348,4221.922852,4216.922852,4208.333496,4218.846191,4217.563965,4208.333496,4201.410156,4206.922852,4228.333496,4223.077148,4202.436035,4217.692383,4232.051270,0.000000,4.000000,86.000000,,,,0.000000,4.000000,4.000000,4.000000,4.000000,4.000000,4.000000,4.000000,4.000000,4.000000,4.000000,4.000000,4.000000,4.000000,4.000000,100.000000,,,,,,,,,,,,,,,,
1644853783.193150,79.000000,0.000000,4222.179688,4224.358887,4225.128418,4228.717773,4218.333496,4217.692383,4211.922852,4204.230957,4213.717773,4237.051270,4223.846191,4206.282227,4223.846191,4240.000000,0.000000,4.000000,86.000000,,,,0.000000,4.000000,4.000000,4.000000,4.000000,4.000000,4.000000,4.000000,4.000000,4.000000,4.000000,4.000000,4.000000,4.000000,4.000000,100.000000,,,,,,,,,,,,,,,,
1644853783.197090,80.000000,0.000000,4221.922852,4226.794922,4234.102539,4245.512695,4224.102539,4217.307617,4217.179688,4208.717773,4221.153809,4241.153809,4223.974121,4211.410156,4233.205078,4249.871582,0.000000,4.000000,86.000000,,,,0.000000,4.000000,4.000000,4.000000,4.000000,4.000000,4.000000,4.000000,4.000000,4.000000,4.000000,4.000000,4.000000,4.000000,4.000000,100.000000,,,,,,,,,,,,,,,,
1644853783.201030,81.000000,0.000000,4215.128418,4226.922852,4237.563965,4250.128418,4231.794922,4217.692383,4220.256348,4211.538574,4225.000000,4238.205078,4221.538574,4213.846191,4240.384766,4252.692383,0.000000,4.000000,86.000000,,,,0.000000,4.000000,4.000000,4.000000,4.000000,4.000000,4.000000,4.000000,4.000000,4.000000,4.000000,4.000000,4.000000,4.000000,4.000000,100.000000,,,,,,,,,,,,,,,,
1644853783.204970,82.000000,0.000000,4206.538574,4224.487305,4233.205078,4240.641113,4234.871582,4218.717773,4219.102539,4210.769043,4223.974121,4230.000000,4217.051270,4211.538574,4241.794922,4247.179688,0.000000,4.000000,86.000000,,,,0.000000,4.000000,4.000000,4.000000,4.000000,4.000000,4.000000,4.000000,4.000000,4.000000,4.000000,4.000000,4.000000,4.000000,4.000000,100.000000,,,,,,,,,,,,,,,,
1644853783.208911,83.000000,0.000000,4202.051270,4221.410156,4224.871582,4222.563965,4230.641113,4218.974121,4216.282227,4207.563965,4219.615234,4222.051270,4213.461426,4205.897461,4238.461426,4240.256348,0.000000,4.000000,86.000000,,,,0.000000,4.000000,4.000000,4.000000,4.000000,4.000000,4.000000,4.000000,4.000000,4.000000,4.000000,4.000000,4.000000,4.000000,4.000000,100.000000,,,,,,,,,,,,,,,,
1644853783.212851,84.000000,0.000000,4203.846191,4220.512695,4218.974121,4206.538574,4222.179688,4218.077148,4215.512695,4204.871582,4215.256348,4219.102539,4213.974121,4200.769043,4234.358887,4238.717773,0.000000,4.000000,86.000000,,,,0.000000,4.000000,4.000000,4.000000,4.000000,4.000000,4.000000,4.000000,4.000000,4.000000,4.000000,4.000000,4.000000,4.000000,4.000000,100.000000,,,,,,,,,,,,,,,,
1644853783.216791,85.000000,0.000000,4209.102539,4223.461426,4219.487305,4201.922852,4215.897461,4217.179688,4218.205078,4205.128418,4213.974121,4221.538574,4219.615234,4200.256348,4233.333496,4242.436035,0.000000,4.000000,86.000000,,,,0.000000,4.000000,4.000000,4.000000,4.000000,4.000000,4.000000,4.000000,4.000000,4.000000,4.000000,4.000000,4.000000,4.000000,4.000000,100.000000,,,,,,,,,,,,,,,,
1644853783.220731,86.000000,0.000000,4212.820313,4229.743652,4224.615234,4210.641113,4216.282227,4218.333496,4222.051270,4208.333496,4216.538574,4226.410156,4226.922852,4205.384766,4236.410156,4244.615234,0.000000,4.000000,86.000000,,,,0.000000,4.000000,4.000000,4.000000,4.000000,4.000000,4.000000,4.000000,4.000000,4.000000,4.000000,4.000000,4.000000,4.000000,4.000000,100.000000,,,,,,,,,,,,,,,,
1644853783.224571,87.000000,0.000000,4210.897461,4236.794922,4229.358887,4226.153809,4222.563965,4221.282227,4224.487305,4213.077148,4221.282227,4229.230957,4230.256348,4214.230957,4240.000000,4240.256348,0.000000,4.000000,86.000000,,,,0.000000,4.000000,4.000000,4.000000,4.000000,4.000000,4.000000,4.000000,4.000000,4.000000,4.000000,4.000000,4.000000,4.000000,4.000000,100.000000,,,,,,,,,,,,,,,,
1644853783.228511,88.000000,0.000000,4202.820313,4240.256348,4229.487305,4238.077148,4229.871582,4223.717773,4224.615234,4217.179688,4225.384766,4227.820313,4226.410156,4221.666504,4239.743652,4231.153809,0.000000,4.000000,86.000000,,,,0.000000,4.000000,4.000000,4.000000,4.000000,4.000000,4.000000,4.000000,4.000000,4.000000,4.000000,4.000000,4.000000,4.000000,4.000000,100.000000,,,,,,,,,,,,,,,,
1644853783.232451,89.000000,0.000000,4192.436035,4236.666504,4224.102539,4239.743652,4233.077148,4222.820313,4223.461426,4219.230957,4226.153809,4223.717773,4218.077148,4222.948730,4234.358887,4224.230957,0.000000,4.000000,86.000000,,,,0.000000,4.000000,4.000000,4.000000,4.000000,4.000000,4.000000,4.000000,4.000000,4.000000,4.000000,4.000000,4.000000,4.000000,4.000000,100.000000,,,,,,,,,,,,,,,,
1644853783.236391,90.000000,0.000000,4186.282227,4226.538574,4216.153809,4232.051270,4230.384766,4218.077148,4221.282227,4218.717773,4223.846191,4221.538574,4212.307617,4217.051270,4226.794922,4224.615234,0.000000,4.000000,86.000000,,,,0.000000,4.000000,4.000000,4.000000,4.000000,4.000000,4.000000,4.000000,4.000000,4.000000,4.000000,4.000000,4.000000,4.000000,4.000000,100.000000,,,,,,,,,,,,,,,,
1644853783.240331,91.000000,0.000000,4188.974121,4215.000000,4209.358887,4221.025879,4224.102539,4212.307617,4217.820313,4216.282227,4220.512695,4224.358887,4214.487305,4207.948730,4222.051270,4232.051270,0.000000,4.000000,86.000000,,,,0.000000,4.000000,4.000000,4.000000,4.000000,4.000000,4.000000,4.000000,4.000000,4.000000,4.000000,4.000000,4.000000,4.000000,4.000000,100.000000,,,,,,,,,,,,,,,,
1644853783.244272,92.000000,0.000000,4198.974121,4208.589844,4206.538574,4213.461426,4218.589844,4209.487305,4213.974121,4213.461426,4218.461426,4231.282227,4222.948730,4201.666504,4222.948730,4241.666504,0.000000,4.000000,86.000000,,,,0.000000,4.000000,4.000000,4.000000,4.000000,4.000000,4.000000,4.000000,4.000000,4.000000,4.000000,4.000000,4.000000,4.000000,4.000000,100.000000,,,,,,,,,,,,,,,,
1644853783.248212,93.000000,0.000000,4209.743652,4210.000000,4208.333496,4211.282227,4216.922852,4211.538574,4212.307617,4212.692383,4218.974121,4238.461426,4230.769043,4201.153809,4227.948730,4247.692383,0.000000,4.000000,86.000000,,,,0.000000,4.000000,4.000000,4.000000,4.000000,4.000000,4.000000,4.000000,4.000000,4.000000,4.000000,4.000000,4.000000,4.000000,4.000000,100.000000,,,,,,,,,,,,,,,,
1644853783.252152,94.000000,0.000000,4214.615234,4216.922852,4213.589844,4212.179688,4218.717773,4215.897461,4214.871582,4214.743652,4221.282227,4241.922852,4232.563965,4205.512695,4232.563965,4246.922852,0.000000,4.000000,86.000000,,,,0.000000,4.000000,4.000000,4.000000,4.000000,4.000000,4.000000,4.000000,4.000000,4.000000,4.000000,4.000000,4.000000,4.000000,4.000000,100.000000,,,,,,,,,,,,,,,,
1644853783.256092,95.000000,0.000000,4211.538574,4224.230957,4219.743652,4212.948730,4221.282227,4218.717773,4220.128418,4218.461426,4224.358887,4241.025879,4228.717773,4210.384766,4233.333496,4240.897461,0.000000,4.000000,86.000000,,,,0.000000,4.000000,4.000000,4.000000,4.000000,4.000000,4.000000,4.000000,4.000000,4.000000,4.000000,4.000000,4.000000,4.000000,4.000000,100.000000,,,,,,,,,,,,,,,,
1644853783.260032,96.000000,0.000000,4203.717773,4227.307617,4223.846191,4213.333496,4221.538574,4218.589844,4224.102539,4222.051270,4226.666504,4237.051270,4225.256348,4211.922852,4230.512695,4234.230957,0.000000,4.000000,86.000000,,,,0.000000,4.000000,4.000000,4.000000,4.000000,4.000000,4.000000,4.000000,4.000000,4.000000,4.000000,4.000000,4.000000,4.000000,4.000000,100.000000,,,,,,,,,,,,,,,,
1644853783.263972,97.000000,0.000000,4196.922852,4225.641113,4224.871582,4216.666504,4218.589844,4217.820313,4223.974121,4224.358887,4227.692383,4232.436035,4226.410156,4209.230957,4227.820313,4232.692383,0.000000,4.000000,86.000000,,,,0.000000,4.000000,4.000000,4.000000,4.000000,4.000000,4.000000,4.000000,4.000000,4.000000,4.000000,4.000000,4.000000,4.000000,4.000000,100.000000,,,,,,,,,,,,,,,,
1644853783.267912,98.000000,0.000000,4194.615234,4222.563965,4224.615234,4226.538574,4213.846191,4219.487305,4221.410156,4225.769043,4227.948730,4229.487305,4231.282227,4205.256348,4228.974121,4238.846191,0.000000,4.000000,86.000000,2,1,0,0.000000,4.000000,4.000000,4.000000,4.000000,4.000000,4.000000,4.000000,4.000000,4.000000,4.000000,4.000000,4.000000,4.000000,4.000000,100.000000,,,,,,,,,,,,,,,,
1644853783.271852,99.000000,0.000000,4196.282227,4222.436035,4225.128418,4242.436035,4211.025879,4224.743652,4220.256348,4226.153809,4227.948730,4229.102539,4235.000000,4204.102539,4234.230957,4249.358887,0.000000,4.000000,86.000000,,,,0.000000,4.000000,4.000000,4.000000,4.000000,4.000000,4.000000,4.000000,4.000000,4.000000,4.000000,4.000000,4.000000,4.000000,4.000000,100.000000,,,,,,,,,,,,,,,,
1644853783.275792,100.000000,0.000000,4199.743652,4226.794922,4227.051270,4257.948730,4213.205078,4230.641113,4221.538574,4224.871582,4228.077148,4231.538574,4234.487305,4207.948730,4241.025879,4256.666504,0.000000,4.000000,86.000000,,,,0.000000,4.000000,4.000000,4.000000,4.000000,4.000000,4.000000,4.000000,4.000000,4.000000,4.000000,4.000000,4.000000,4.000000,4.000000,100.000000,,,,,,,,,,,,,,,,
1644853783.279733,101.000000,0.000000,4203.205078,4232.436035,4229.102539,4264.358887,4221.025879,4232.563965,4222.948730,4221.666504,4227.948730,4235.897461,4231.153809,4215.128418,4245.769043,4254.487305,0.000000,4.000000,86.000000,,,,0.000000,4.000000,4.000000,4.000000,4.000000,4.000000,4.000000,4.000000,4.000000,4.000000,4.000000,4.000000,4.000000,4.000000,4.000000,100.000000,,,,,,,,,,,,,,,,
1644853783.283673,102.000000,0.000000,4206.282227,4234.358887,4229.358887,4256.922852,4230.256348,4228.461426,4221.410156,4217.820313,4227.179688,4240.641113,4227.563965,4220.512695,4246.666504,4243.333496,0.000000,4.000000,86.000000,,,,0.000000,4.000000,4.000000,4.000000,4.000000,4.000000,4.000000,4.000000,4.000000,4.000000,4.000000,4.000000,4.000000,4.000000,4.000000,100.000000,,,,,,,,,,,,,,,,
1644853783.287613,103.000000,0.000000,4209.487305,4229.743652,4227.436035,4239.871582,4233.974121,4220.769043,4217.307617,4214.871582,4224.871582,4242.820313,4224.102539,4219.743652,4243.205078,4230.256348,0.000000,4.000000,86.000000,,,,0.000000,4.000000,4.000000,4.000000,4.000000,4.000000,4.000000,4.000000,4.000000,4.000000,4.000000,4.000000,4.000000,4.000000,4.000000,100.000000,,,,,,,,,,,,,,,,
1644853783.291553,104.000000,0.000000,4212.820313,4221.538574,4223.846191,4223.461426,4228.333496,4214.487305,4214.487305,4213.846191,4221.282227,4239.871582,4219.487305,4212.820313,4236.153809,4222.820313,0.000000,4.000000,86.000000,,,,0.000000,4.000000,4.000000,4.000000,4.000000,4.000000,4.000000,4.000000,4.000000,4.000000,4.000000,4.000000,4.000000,4.000000,4.000000,100.000000,,,,,,,,,,,,,,,,
1644853783.295593,105.000000,0.000000,4215.256348,4216.282227,4219.615234,4217.051270,4216.666504,4212.948730,4215.128418,4214.743652,4217.307617,4232.179688,4213.589844,4203.974121,4228.461426,4223.974121,0.000000,4.000000,86.000000,,,,0.000000,4.000000,4.000000,4.000000,4.000000,4.000000,4.000000,4.000000,4.000000,4.000000,4.000000,4.000000,4.000000,4.000000,4.000000,100.000000,,,,,,,,,,,,,,,,
1644853783.299533,106.000000,0.000000,4216.282227,4218.717773,4215.897461,4222.051270,4206.794922,4216.025879,4217.820313,4216.410156,4214.615234,4223.333496,4209.358887,4198.333496,4222.820313,4230.897461,0.000000,4.000000,86.000000,,,,0.000000,4.000000,4.000000,4.000000,4.000000,4.000000,4.000000,4.000000,4.000000,4.000000,4.000000,4.000000,4.000000,4.000000,4.000000,100.000000,,,,,,,,,,,,,,,,
1644853783.303473,107.000000,0.000000,4216.153809,4227.948730,4214.102539,4232.436035,4203.846191,4220.512695,4218.974121,4216.794922,4214.102539,4218.461426,4210.128418,4198.333496,4221.410156,4238.333496,0.000000,4.000000,86.000000,,,,0.000000,4.000000,4.000000,4.000000,4.000000,4.000000,4.000000,4.000000,4.000000,4.000000,4.000000,4.000000,4.000000,4.000000,4.000000,100.000000,,,,,,,,,,,,,,,,
1644853783.307413,108.000000,0.000000,4216.538574,4237.436035,4214.615234,4239.743652,4206.410156,4222.563965,4217.692383,4215.128418,4214.743652,4218.846191,4216.538574,4201.922852,4223.461426,4242.051270,0.000000,4.000000,86.000000,,,,0.000000,4.000000,4.000000,4.000000,4.000000,4.000000,4.000000,4.000000,4.000000,4.000000,4.000000,4.000000,4.000000,4.000000,4.000000,100.000000,,,,,,,,,,,,,,,,
1644853783.311353,109.000000,0.000000,4218.077148,4240.641113,4216.666504,4239.358887,4208.717773,4221.666504,4215.512695,4212.051270,4215.000000,4222.307617,4224.871582,4204.487305,4226.666504,4241.025879,0.000000,4.000000,86.000000,,,,0.000000,4.000000,4.000000,4.000000,4.000000,4.000000,4.000000,4.000000,4.000000,4.000000,4.000000,4.000000,4.000000,4.000000,4.000000,100.000000,,,,,,,,,,,,,,,,
1644853783.315293,110.000000,0.000000,4219.358887,4235.897461,4218.461426,4233.717773,4207.051270,4219.102539,4214.615234,4208.974121,4213.589844,4224.102539,4229.615234,4202.948730,4228.205078,4236.666504,0.000000,4.000000,86.000000,,,,0.000000,4.000000,4.000000,4.000000,4.000000,4.000000,4.000000,4.000000,4.000000,4.000000,4.000000,4.000000,4.000000,4.000000,4.000000,100.000000,,,,,,,,,,,,,,,,
1644853783.319233,111.000000,0.000000,4216.794922,4227.307617,4218.974121,4228.974121,4203.077148,4217.307617,4214.102539,4206.666504,4211.025879,4221.922852,4226.538574,4198.333496,4226.666504,4231.153809,0.000000,4.000000,86.000000,,,,0.000000,4.000000,4.000000,4.000000,4.000000,4.000000,4.000000,4.000000,4.000000,4.000000,4.000000,4.000000,4.000000,4.000000,4.000000,100.000000,,,,,,,,,,,,,,,,
1644853783.323174,112.000000,0.000000,4208.205078,4220.256348,4218.333496,4229.358887,4201.153809,4217.051270,4212.307617,4204.615234,4208.333496,4216.025879,4216.538574,4195.000000,4223.205078,4225.512695,0.000000,4.000000,86.000000,,,,0.000000,4.000000,4.000000,4.000000,4.000000,4.000000,4.000000,4.000000,4.000000,4.000000,4.000000,4.000000,4.000000,4.000000,4.000000,100.000000,,,,,,,,,,,,,,,,
1644853783.327114,113.000000,0.000000,4196.282227,4217.307617,4217.563965,4232.820313,4202.436035,4217.179688,4209.230957,4202.692383,4206.025879,4208.717773,4205.641113,4196.025879,4219.871582,4220.128418,0.000000,4.000000,86.000000,,,,0.000000,4.000000,4.000000,4.000000,4.000000,4.000000,4.000000,4.000000,4.000000,4.000000,4.000000,4.000000,4.000000,4.000000,4.000000,100.000000,,,,,,,,,,,,,,,,
1644853783.331054,114.000000,0.000000,4186.794922,4216.794922,4217.820313,4232.948730,4203.461426,4216.153809,4207.307617,4201.794922,4204.102539,4202.436035,4200.641113,4201.153809,4217.692383,4216.538574,0.000000,4.000000,86.000000,,,,0.000000,4.000000,4.000000,4.000000,4.000000,4.000000,4.000000,4.000000,4.000000,4.000000,4.000000,4.000000,4.000000,4.000000,4.000000,100.000000,,,,,,,,,,,,,,,,
1644853783.334994,115.000000,0.000000,4184.487305,4215.512695,4218.846191,4226.538574,4200.897461,4214.358887,4208.846191,4202.563965,4203.205078,4199.487305,4203.717773,4206.794922,4215.769043,4216.666504,0.000000,4.000000,86.000000,,,,0.000000,4.000000,4.000000,4.000000,4.000000,4.000000,4.000000,4.000000,4.000000,4.000000,4.000000,4.000000,4.000000,4.000000,4.000000,100.000000,,,,,,,,,,,,,,,,
1644853783.338934,116.000000,0.000000,4189.871582,4211.922852,4219.358887,4217.179688,4195.128418,4213.333496,4213.077148,4205.769043,4203.974121,4201.794922,4210.769043,4209.358887,4213.333496,4220.384766,0.000000,4.000000,86.000000,,,,0.000000,4.000000,4.000000,4.000000,4.000000,4.000000,4.000000,4.000000,4.000000,4.000000,4.000000,4.000000,4.000000,4.000000,4.000000,100.000000,1.000000,75.000000,4.000000,4.000000,4.000000,4.000000,4.000000,4.000000,1.000000,4.000000,4.000000,4.000000,4.000000,4.000000,4.000000,4.000000
1644853783.342874,117.000000,0.000000,4198.333496,4208.077148,4218.333496,4212.051270,4190.256348,4214.487305,4217.051270,4210.128418,4206.794922,4209.743652,4215.897461,4207.692383,4210.384766,4225.769043,0.000000,4.000000,86.000000,,,,0.000000,4.000000,4.000000,4.000000,4.000000,4.000000,4.000000,4.000000,4.000000,4.000000,4.000000,4.000000,4.000000,4.000000,4.000000,100.000000,,,,,,,,,,,,,,,,
1644853783.346814,118.000000,0.000000,4205.000000,4207.179688,4216.410156,4215.000000,4190.000000,4216.922852,4218.717773,4213.846191,4210.384766,4220.512695,4216.153809,4203.717773,4208.717773,4229.743652,0.000000,4.000000,86.000000,,,,0.000000,4.000000,4.000000,4.000000,4.000000,4.000000,4.000000,4.000000,4.000000,4.000000,4.000000,4.000000,4.000000,4.000000,4.000000,100.000000,,,,,,,,,,,,,,,,
1644853783.350754,119.000000,0.000000,4207.436035,4210.897461,4215.000000,4222.436035,4192.948730,4218.846191,4218.846191,4215.512695,4212.692383,4228.717773,4214.230957,4201.410156,4209.487305,4230.769043,0.000000,4.000000,86.000000,,,,0.000000,4.000000,4.000000,4.000000,4.000000,4.000000,4.000000,4.000000,4.000000,4.000000,4.000000,4.000000,4.000000,4.000000,4.000000,100.000000,,,,,,,,,,,,,,,,
1644853783.354694,120.000000,0.000000,4207.179688,4218.077148,4215.641113,4227.948730,4194.102539,4218.846191,4218.846191,4215.641113,4212.820313,4229.871582,4215.256348,4203.077148,4213.205078,4228.846191,0.000000,4.000000,86.000000,,,,0.000000,4.000000,4.000000,4.000000,4.000000,4.000000,4.000000,4.000000,4.000000,4.000000,4.000000,4.000000,4.000000,4.000000,4.000000,100.000000,,,,,,,,,,,,,,,,
1644853783.358635,121.000000,0.000000,4206.410156,4225.384766,4218.846191,4228.205078,4189.358887,4217.307617,4218.974121,4215.769043,4212.563965,4224.487305,4221.153809,4208.717773,4218.333496,4225.769043,0.000000,4.000000,86.000000,,,,0.000000,4.000000,4.000000,4.000000,4.000000,4.000000,4.000000,4.000000,4.000000,4.000000,4.000000,4.000000,4.000000,4.000000,4.000000,100.000000,,,,,,,,,,,,,,,,
1644853783.362475,122.000000,0.000000,4206.025879,4229.743652,4223.589844,4224.871582,4180.384766,4216.025879,4218.589844,4217.307617,4214.102539,4217.692383,4228.846191,4215.128418,4222.436035,4224.358887,0.000000,4.000000,86.000000,,,,0.000000,4.000000,4.000000,4.000000,4.000000,4.000000,4.000000,4.000000,4.000000,4.000000,4.000000,4.000000,4.000000,4.000000,4.000000,100.000000,,,,,,,,,,,,,,,,
1644853783.366415,123.000000,0.000000,4205.000000,4229.230957,4227.307617,4222.051270,4173.077148,4216.922852,4218.077148,4219.871582,4218.333496,4215.128418,4232.179688,4218.205078,4223.333496,4227.051270,0.000000,4.000000,86.000000,,,,0.000000,4.000000,4.000000,4.000000,4.000000,4.000000,4.000000,4.000000,4.000000,4.000000,4.000000,4.000000,4.000000,4.000000,4.000000,100.000000,,,,,,,,,,,,,,,,
1644853783.370355,124.000000,0.000000,4202.436035,4223.846191,4227.563965,4222.436035,4172.692383,4219.487305,4218.974121,4222.692383,4223.077148,4218.077148,4227.051270,4215.384766,4220.512695,4233.461426,0.000000,4.000000,86.000000,,,,0.000000,4.000000,4.000000,4.000000,4.000000,4.000000,4.000000,4.000000,4.000000,4.000000,4.000000,4.000000,4.000000,4.000000,4.000000,100.000000,,,,,,,,,,,,,,,,
1644853783.374295,125.000000,0.000000,4199.615234,4216.666504,4223.846191,4224.871582,4179.871582,4222.820313,4222.051270,4224.615234,4225.256348,4224.358887,4214.871582,4207.307617,4216.153809,4239.358887,0.000000,4.000000,86.000000,,,,0.000000,4.000000,4.000000,4.000000,4.000000,4.000000,4.000000,4.000000,4.000000,4.000000,4.000000,4.000000,4.000000,4.000000,4.000000,100.000000,,,,,,,,,,,,,,,,
1644853783.378235,126.000000,0.000000,4199.743652,4212.179688,4218.205078,4226.025879,4190.384766,4226.025879,4225.641113,4225.256348,4224.230957,4230.128418,4203.205078,4198.846191,4213.717773,4239.871582,0.000000,4.000000,86.000000,,,,0.000000,4.000000,4.000000,4.000000,4.000000,4.000000,4.000000,4.000000,4.000000,4.000000,4.000000,4.000000,4.000000,4.000000,4.000000,100.000000,,,,,,,,,,,,,,,,
1644853783.382175,127.000000,0.000000,4205.000000,4214.102539,4214.230957,4223.717773,4198.974121,4229.230957,4227.307617,4225.384766,4222.948730,4233.205078,4201.410156,4196.025879,4215.769043,4234.487305,0.000000,4.000000,86.000000,,,,0.000000,4.000000,4.000000,4.000000,4.000000,4.000000,4.000000,4.000000,4.000000,4.000000,4.000000,4.000000,4.000000,4.000000,4.000000,100.000000,,,,,,,,,,,,,,,,
1644853783.386115,128.000000,0.000000,4213.461426,4221.666504,4214.487305,4220.000000,4202.179688,4232.051270,4226.410156,4226.282227,4223.974121,4233.717773,4213.077148,4201.025879,4222.436035,4227.948730,3399.000000,4.000000,86.000000,,,,0.000000,4.000000,4.000000,4.000000,4.000000,4.000000,4.000000,4.000000,4.000000,4.000000,4.000000,4.000000,4.000000,4.000000,4.000000,100.000000,,,,,,,,,,,,,,,,
1644853783.390055,129.000000,0.000000,4220.512695,4229.871582,4219.615234,4218.846191,4200.256348,4232.820313,4225.000000,4228.589844,4227.051270,4233.333496,4230.897461,4210.384766,4231.025879,4225.769043,3250.000000,4.000000,86.000000,,,,0.000000,4.000000,4.000000,4.000000,4.000000,4.000000,4.000000,4.000000,4.000000,4.000000,4.000000,4.000000,4.000000,4.000000,4.000000,100.000000,,,,,,,,,,,,,,,,
1644853783.393996,130.000000,0.000000,4222.436035,4233.205078,4227.051270,4222.820313,4195.256348,4230.384766,4224.615234,4230.769043,4229.102539,4233.589844,4241.153809,4218.205078,4237.820313,4228.974121,3619.000000,4.000000,86.000000,3,1,0,0.000000,4.000000,4.000000,4.000000,4.000000,4.000000,4.000000,4.000000,4.000000,4.000000,4.000000,4.000000,4.000000,4.000000,4.000000,100.000000,,,,,,,,,,,,,,,,
1644853783.397936,131.000000,0.000000,4219.743652,4229.358887,4232.948730,4229.743652,4189.871582,4225.641113,4225.384766,4231.153809,4228.077148,4234.871582,4235.256348,4221.538574,4240.256348,4233.461426,3723.000000,4.000000,86.000000,,,,0.000000,4.000000,4.000000,4.000000,4.000000,4.000000,4.000000,4.000000,4.000000,4.000000,4.000000,4.000000,4.000000,4.000000,4.000000,100.000000,,,,,,,,,,,,,,,,
1644853783.401876,132.000000,0.000000,4216.282227,4221.410156,4234.230957,4235.384766,4186.153809,4221.666504,4225.641113,4229.358887,4225.000000,4236.538574,4217.692383,4221.666504,4238.205078,4235.128418,3529.000000,4.000000,86.000000,,,,0.000000,4.000000,4.000000,4.000000,4.000000,4.000000,4.000000,4.000000,4.000000,4.000000,4.000000,4.000000,4.000000,4.000000,4.000000,100.000000,,,,,,,,,,,,,,,,
1644853783.405816,133.000000,0.000000,4215.256348,4216.025879,4231.282227,4237.692383,4184.615234,4221.410156,4225.384766,4227.307617,4223.333496,4236.794922,4203.461426,4221.282227,4234.102539,4235.128418,3542.000000,4.000000,86.000000,,,,0.000000,4.000000,4.000000,4.000000,4.000000,4.000000,4.000000,4.000000,4.000000,4.000000,4.000000,4.000000,4.000000,4.000000,4.000000,100.000000,,,,,,,,,,,,,,,,
1644853783.409756,134.000000,0.000000,4216.666504,4218.077148,4228.205078,4239.102539,4184.871582,4224.871582,4225.897461,4227.051270,4225.384766,4235.384766,4204.871582,4221.794922,4231.666504,4238.077148,2766.000000,4.000000,86.000000,4,1,0,0.000000,4.000000,4.000000,4.000000,4.000000,4.000000,4.000000,4.000000,4.000000,4.000000,4.000000,4.000000,4.000000,4.000000,4.000000,100.000000,,,,,,,,,,,,,,,,
1644853783.413696,135.000000,0.000000,4218.333496,4228.077148,4229.102539,4243.333496,4187.820313,4229.615234,4228.205078,4229.230957,4231.025879,4233.333496,4222.563965,4223.205078,4233.717773,4245.769043,2904.000000,4.000000,86.000000,,,,0.000000,4.000000,4.000000,4.000000,4.000000,4.000000,4.000000,4.000000,4.000000,4.000000,4.000000,4.000000,4.000000,4.000000,4.000000,100.000000,,,,,,,,,,,,,,,,
1644853783.417636,136.000000,0.000000,4218.205078,4241.153809,4235.256348,4250.000000,4193.461426,4233.333496,4230.769043,4232.179688,4237.436035,4233.077148,4245.256348,4225.000000,4240.000000,4253.333496,3278.000000,4.000000,86.000000,,,,0.000000,4.000000,4.000000,4.000000,4.000000,4.000000,4.000000,4.000000,4.000000,4.000000,4.000000,4.000000,4.000000,4.000000,4.000000,100.000000,,,,,,,,,,,,,,,,
1644853783.421676,137.000000,0.000000,4216.153809,4249.743652,4242.563965,4254.102539,4200.641113,4234.743652,4231.025879,4233.717773,4241.282227,4235.512695,4258.846191,4226.410156,4247.692383,4253.717773,3429.000000,4.000000,86.000000,,,,0.000000,4.000000,4.000000,4.000000,4.000000,4.000000,4.000000,4.000000,4.000000,4.000000,4.000000,4.000000,4.000000,4.000000,4.000000,100.000000,,,,,,,,,,,,,,,,
1644853783.425616,138.000000,0.000000,4213.461426,4248.846191,4245.128418,4250.384766,4206.538574,4234.615234,4228.077148,4232.692383,4240.641113,4239.743652,4256.666504,4226.538574,4252.307617,4245.256348,3535.000000,4.000000,86.000000,,,,0.000000,4.000000,4.000000,4.000000,4.000000,4.000000,4.000000,4.000000,4.000000,4.000000,4.000000,4.000000,4.000000,4.000000,4.000000,100.000000,,,,,,,,,,,,,,,,
1644853783.429556,139.000000,0.000000,4211.666504,4239.230957,4240.384766,4239.743652,4207.820313,4233.077148,4224.358887,4229.743652,4236.538574,4243.589844,4243.333496,4224.743652,4251.922852,4234.358887,2708.000000,4.000000,86.000000,,,,0.000000,4.000000,4.000000,4.000000,4.000000,4.000000,4.000000,4.000000,4.000000,4.000000,4.000000,4.000000,4.000000,4.000000,4.000000,100.000000,,,,,,,,,,,,,,,,
1644853783.433497,140.000000,0.000000,4212.051270,4227.692383,4231.025879,4228.589844,4203.333496,4230.512695,4223.333496,4227.820313,4232.563965,4245.769043,4229.743652,4221.410156,4248.077148,4229.358887,3459.000000,4.000000,86.000000,,,,0.000000,4.000000,4.000000,4.000000,4.000000,4.000000,4.000000,4.000000,4.000000,4.000000,4.000000,4.000000,4.000000,4.000000,4.000000,100.000000,,,,,,,,,,,,,,,,
1644853783.437437,141.000000,0.000000,4214.743652,4221.666504,4222.948730,4223.717773,4195.384766,4227.948730,4225.128418,4228.461426,4231.538574,4246.538574,4225.128418,4217.436035,4244.615234,4233.077148,3386.000000,4.000000,86.000000,,,,0.000000,4.000000,4.000000,4.000000,4.000000,4.000000,4.000000,4.000000,4.000000,4.000000,4.000000,4.000000,4.000000,4.000000,4.000000,100.000000,,,,,,,,,,,,,,,,
1644853783.441377,142.000000,0.000000,4218.077148,4223.589844,4220.000000,4226.282227,4187.692383,4226.282227,4227.051270,4230.897461,4233.974121,4246.794922,4230.512695,4214.358887,4244.230957,4240.384766,3535.000000,4.000000,86.000000,,,,0.000000,4.000000,4.000000,4.000000,4.000000,4.000000,4.000000,4.000000,4.000000,4.000000,4.000000,4.000000,4.000000,4.000000,4.000000,100.000000,,,,,,,,,,,,,,,,
1644853783.445317,143.000000,0.000000,4219.615234,4229.743652,4221.666504,4232.051270,4183.333496,4225.897461,4226.282227,4232.563965,4237.307617,4246.410156,4239.230957,4212.948730,4246.025879,4243.974121,2708.000000,4.000000,86.000000,,,,0.000000,4.000000,4.000000,4.000000,4.000000,4.000000,4.000000,4.000000,4.000000,4.000000,4.000000,4.000000,4.000000,4.000000,4.000000,100.000000,,,,,,,,,,,,,,,,
1644853783.449257,144.000000,0.000000,4218.589844,4233.589844,4224.615234,4235.641113,4182.948730,4225.512695,4223.717773,4231.922852,4237.692383,4243.717773,4242.948730,4212.820313,4246.282227,4240.384766,3459.000000,4.000000,86.000000,,,,0.000000,4.000000,4.000000,4.000000,4.000000,4.000000,4.000000,4.000000,4.000000,4.000000,4.000000,4.000000,4.000000,4.000000,4.000000,100.000000,,,,,,,,,,,,,,,,
1644853783.453197,145.000000,0.000000,4215.897461,4232.051270,4226.153809,4234.230957,4186.282227,4224.230957,4222.179688,4229.358887,4233.333496,4237.692383,4238.461426,4212.820313,4242.692383,4232.051270,3386.000000,4.000000,86.000000,,,,0.000000,4.000000,4.000000,4.000000,4.000000,4.000000,4.000000,4.000000,4.000000,4.000000,4.000000,4.000000,4.000000,4.000000,4.000000,100.000000,,,,,,,,,,,,,,,,
1644853783.457137,146.000000,0.000000,4213.846191,4227.820313,4226.025879,4229.358887,4193.077148,4222.563965,4222.820313,4226.538574,4226.282227,4230.000000,4229.358887,4212.051270,4236.025879,4224.487305,3535.000000,4.000000,86.000000,,,,0.000000,4.000000,4.000000,4.000000,4.000000,4.000000,4.000000,4.000000,4.000000,4.000000,4.000000,4.000000,4.000000,4.000000,4.000000,100.000000,,,,,,,,,,,,,,,,
1644853783.460977,147.000000,0.000000,4213.846191,4225.512695,4225.384766,4225.512695,4201.794922,4221.794922,4224.743652,4224.743652,4221.025879,4224.487305,4222.307617,4210.641113,4230.128418,4221.794922,2708.000000,4.000000,86.000000,,,,0.000000,4.000000,4.000000,4.000000,4.000000,4.000000,4.000000,4.000000,4.000000,4.000000,4.000000,4.000000,4.000000,4.000000,4.000000,100.000000,,,,,,,,,,,,,,,,
1644853783.464917,148.000000,0.000000,4215.897461,4228.077148,4225.256348,4226.666504,4208.461426,4222.948730,4225.769043,4223.974121,4219.871582,4224.487305,4220.769043,4209.743652,4228.589844,4225.128418,3459.000000,4.000000,86.000000,,,,0.000000,4.000000,4.000000,4.000000,4.000000,4.000000,4.000000,4.000000,4.000000,4.000000,4.000000,4.000000,4.000000,4.000000,4.000000,100.000000,,,,,,,,,,,,,,,,
1644853783.468858,149.000000,0.000000,4218.205078,4234.230957,4225.256348,4232.307617,4208.589844,4225.128418,4225.769043,4223.461426,4222.051270,4229.230957,4223.461426,4210.128418,4231.794922,4231.794922,3386.000000,4.000000,86.000000,,,,0.000000,4.000000,4.000000,4.000000,4.000000,4.000000,4.000000,4.000000,4.000000,4.000000,4.000000,4.000000,4.000000,4.000000,4.000000,100.000000,,,,,,,,,,,,,,,,
1644853783.472798,150.000000,0.000000,4219.102539,4240.128418,4224.743652,4238.717773,4202.179688,4226.666504,4225.769043,4222.692383,4224.615234,4234.358887,4226.282227,4211.922852,4236.794922,4238.333496,3535.000000,4.000000,86.000000,,,,0.000000,4.000000,4.000000,4.000000,4.000000,4.000000,4.000000,4.000000,4.000000,4.000000,4.000000,4.000000,4.000000,4.000000,4.000000,100.000000,,,,,,,,,,,,,,,,
1644853783.476738,151.000000,0.000000,4218.333496,4242.436035,4223.974121,4241.794922,4193.461426,4226.025879,4225.897461,4222.179688,4225.512695,4236.922852,4227.436035,4213.717773,4240.000000,4241.666504,2708.000000,4.000000,86.000000,,,,0.000000,4.000000,4.000000,4.000000,4.000000,4.000000,4.000000,4.000000,4.000000,4.000000,4.000000,4.000000,4.000000,4.000000,4.000000,100.000000,,,,,,,,,,,,,,,,
1644853783.480678,152.000000,0.000000,4216.922852,4240.000000,4223.974121,4240.641113,4187.820313,4223.205078,4225.000000,4222.436035,4225.128418,4237.307617,4227.692383,4214.358887,4240.000000,4240.641113,3459.000000,4.000000,86.000000,,,,0.000000,4.000000,4.000000,4.000000,4.000000,4.000000,4.000000,4.000000,4.000000,4.000000,4.000000,4.000000,4.000000,4.000000,4.000000,100.000000,,,,,,,,,,,,,,,,
1644853783.484618,153.000000,0.000000,4216.410156,4234.230957,4225.384766,4237.436035,4187.692383,4220.512695,4222.820313,4223.077148,4224.871582,4238.205078,4228.974121,4213.333496,4238.717773,4237.179688,3386.000000,4.000000,86.000000,,,,0.000000,4.000000,4.000000,4.000000,4.000000,4.000000,4.000000,4.000000,4.000000,4.000000,4.000000,4.000000,4.000000,4.000000,4.000000,100.000000,,,,,,,,,,,,,,,,
1644853783.488558,154.000000,0.000000,4217.179688,4228.589844,4227.563965,4234.487305,4191.666504,4220.512695,4221.153809,4223.333496,4225.769043,4240.512695,4231.538574,4211.410156,4238.846191,4235.769043,3535.000000,4.000000,86.000000,,,,0.000000,4.000000,4.000000,4.000000,4.000000,4.000000,4.000000,4.000000,4.000000,4.000000,4.000000,4.000000,4.000000,4.000000,4.000000,100.000000,,,,,,,,,,,,,,,,
1644853783.492498,155.000000,0.000000,4218.205078,4226.410156,4228.974121,4232.820313,4197.051270,4223.846191,4222.179688,4223.333496,4227.436035,4241.538574,4233.077148,4210.512695,4241.538574,4238.205078,2708.000000,4.000000,86.000000,,,,0.000000,4.000000,4.000000,4.000000,4.000000,4.000000,4.000000,4.000000,4.000000,4.000000,4.000000,4.000000,4.000000,4.000000,4.000000,100.000000,,,,,,,,,,,,,,,,
1644853783.496438,156.000000,0.000000,4217.563965,4228.717773,4227.948730,4232.051270,4201.538574,4228.589844,4225.000000,4223.077148,4228.717773,4237.948730,4230.128418,4211.922852,4244.358887,4241.538574,3459.000000,4.000000,86.000000,,,,0.000000,4.000000,4.000000,4.000000,4.000000,4.000000,4.000000,4.000000,4.000000,4.000000,4.000000,4.000000,4.000000,4.000000,4.000000,100.000000,,,,,,,,,,,,,,,,
1644853783.500378,157.000000,0.000000,4214.102539,4232.948730,4224.487305,4231.922852,4204.102539,4231.025879,4226.410156,4222.692383,4228.589844,4230.384766,4221.794922,4214.487305,4243.717773,4240.000000,3386.000000,4.000000,86.000000,,,,0.000000,4.000000,4.000000,4.000000,4.000000,4.000000,4.000000,4.000000,4.000000,4.000000,4.000000,4.000000,4.000000,4.000000,4.000000,100.000000,,,,,,,,,,,,,,,,
1644853783.504319,158.000000,0.000000,4208.461426,4234.358887,4219.871582,4232.307617,4204.487305,4228.589844,4223.974121,4221.922852,4227.692383,4224.358887,4210.641113,4215.641113,4238.077148,4231.025879,3535.000000,4.000000,86.000000,,,,0.000000,4.000000,4.000000,4.000000,4.000000,4.000000,4.000000,4.000000,4.000000,4.000000,4.000000,4.000000,4.000000,4.000000,4.000000,100.000000,,,,,,,,,,,,,,,,
1644853783.508259,159.000000,0.000000,4202.436035,4229.871582,4216.282227,4232.436035,4202.179688,4222.051270,4219.615234,4220.897461,4226.410156,4224.487305,4202.820313,4213.461426,4228.974121,4219.102539,2708.000000,4.000000,86.000000,,,,0.000000,4.000000,4.000000,4.000000,4.000000,4.000000,4.000000,4.000000,4.000000,4.000000,4.000000,4.000000,4.000000,4.000000,4.000000,100.000000,,,,,,,,,,,,,,,,
1644853783.512199,160.000000,0.000000,4198.333496,4220.769043,4215.641113,4232.179688,4197.436035,4215.256348,4216.922852,4220.512695,4225.384766,4229.871582,4203.333496,4208.717773,4220.512695,4211.794922,3459.000000,4.000000,86.000000,5,1,0,0.000000,4.000000,4.000000,4.000000,4.000000,4.000000,4.000000,4.000000,4.000000,4.000000,4.000000,4.000000,4.000000,4.000000,4.000000,100.000000,,,,,,,,,,,,,,,,
1644853783.516139,161.000000,0.000000,4198.205078,4212.307617,4218.077148,4232.307617,4192.436035,4212.307617,4217.436035,4221.922852,4224.487305,4234.871582,4212.820313,4204.871582,4217.051270,4212.948730,3386.000000,4.000000,86.000000,,,,0.000000,4.000000,4.000000,4.000000,4.000000,4.000000,4.000000,4.000000,4.000000,4.000000,4.000000,4.000000,4.000000,4.000000,4.000000,100.000000,,,,,,,,,,,,,,,,
1644853783.520079,162.000000,0.000000,4203.589844,4210.897461,4221.794922,4234.615234,4191.153809,4214.615234,4218.974121,4224.871582,4224.230957,4235.512695,4226.794922,4204.615234,4220.897461,4220.769043,3535.000000,4.000000,86.000000,,,,0.000000,4.000000,4.000000,4.000000,4.000000,4.000000,4.000000,4.000000,4.000000,4.000000,4.000000,4.000000,4.000000,4.000000,4.000000,100.000000,,,,,,,,,,,,,,,,
1644853783.524019,163.000000,0.000000,4214.358887,4219.615234,4225.000000,4240.256348,4195.769043,4220.128418,4219.102539,4228.589844,4225.641113,4232.820313,4238.205078,4208.333496,4230.000000,4230.641113,2708.000000,4.000000,86.000000,,,,0.000000,4.000000,4.000000,4.000000,4.000000,4.000000,4.000000,4.000000,4.000000,4.000000,4.000000,4.000000,4.000000,4.000000,4.000000,100.000000,,,,,,,,,,,,,,,,
1644853783.527959,164.000000,0.000000,4227.179688,4233.974121,4227.179688,4247.179688,4203.846191,4225.641113,4218.205078,4231.538574,4228.974121,4231.153809,4242.563965,4213.589844,4239.487305,4238.846191,3459.000000,4.000000,86.000000,,,,0.000000,4.000000,4.000000,4.000000,4.000000,4.000000,4.000000,4.000000,4.000000,4.000000,4.000000,4.000000,4.000000,4.000000,4.000000,100.000000,,,,,,,,,,,,,,,,
1644853783.531799,165.000000,0.000000,4236.153809,4244.871582,4229.358887,4250.641113,4209.871582,4229.102539,4218.974121,4232.051270,4232.179688,4232.820313,4240.256348,4217.692383,4243.974121,4243.333496,3386.000000,4.000000,86.000000,,,,0.000000,4.000000,4.000000,4.000000,4.000000,4.000000,4.000000,4.000000,4.000000,4.000000,4.000000,4.000000,4.000000,4.000000,4.000000,100.000000,,,,,,,,,,,,,,,,
1644853783.535739,166.000000,0.000000,4235.769043,4244.871582,4231.922852,4247.051270,4209.230957,4230.000000,4222.051270,4229.487305,4232.436035,4235.384766,4235.256348,4219.615234,4241.794922,4243.205078,3535.000000,4.000000,86.000000,,,,0.000000,4.000000,4.000000,4.000000,4.000000,4.000000,4.000000,4.000000,4.000000,4.000000,4.000000,4.000000,4.000000,4.000000,4.000000,100.000000,,,,,,,,,,,,,,,,
1644853783.539680,167.000000,0.000000,4225.641113,4234.102539,4233.589844,4237.563965,4202.692383,4227.948730,4224.230957,4223.717773,4227.948730,4233.846191,4231.282227,4219.358887,4235.641113,4238.589844,2708.000000,4.000000,86.000000,,,,0.000000,4.000000,4.000000,4.000000,4.000000,4.000000,4.000000,4.000000,4.000000,4.000000,4.000000,4.000000,4.000000,4.000000,4.000000,100.000000,,,,,,,,,,,,,,,,
1644853783.543620,168.000000,0.000000,4211.538574,4220.000000,4232.436035,4226.794922,4195.000000,4224.102539,4222.820313,4216.410156,4219.487305,4225.256348,4227.820313,4217.692383,4229.487305,4231.666504,3459.000000,4.000000,86.000000,,,,0.000000,4.000000,4.000000,4.000000,4.000000,4.000000,4.000000,4.000000,4.000000,4.000000,4.000000,4.000000,4.000000,4.000000,4.000000,100.000000,,,,,,,,,,,,,,,,
1644853783.547560,169.000000,0.000000,4202.436035,4212.436035,4228.589844,4220.000000,4191.282227,4219.358887,4218.205078,4210.384766,4209.743652,4212.051270,4221.153809,4214.487305,4225.256348,4226.153809,3386.000000,4.000000,86.000000,,,,0.000000,4.000000,4.000000,4.000000,4.000000,4.000000,4.000000,4.000000,4.000000,4.000000,4.000000,4.000000,4.000000,4.000000,4.000000,100.000000,,,,,,,,,,,,,,,,
1644853783.551500,170.000000,0.000000,4203.333496,4216.153809,4224.230957,4220.256348,4193.461426,4215.641113,4214.230957,4207.692383,4202.307617,4201.153809,4210.000000,4209.615234,4221.794922,4224.487305,3535.000000,4.000000,86.000000,,,,0.000000,4.000000,4.000000,4.000000,4.000000,4.000000,4.000000,4.000000,4.000000,4.000000,4.000000,4.000000,4.000000,4.000000,4.000000,100.000000,,,,,,,,,,,,,,,,
1644853783.555340,171.000000,0.000000,4212.179688,4227.179688,4221.922852,4226.410156,4199.358887,4214.230957,4213.974121,4208.589844,4200.000000,4199.102539,4197.948730,4204.102539,4217.563965,4225.384766,2708.000000,4.000000,86.000000,,,,0.000000,4.000000,4.000000,4.000000,4.000000,4.000000,4.000000,4.000000,4.000000,4.000000,4.000000,4.000000,4.000000,4.000000,4.000000,100.000000,,,,,,,,,,,,,,,,
1644853783.559280,172.000000,0.000000,4220.897461,4237.051270,4222.179688,4233.974121,4205.000000,4215.256348,4216.153809,4210.769043,4202.436035,4206.153809,4192.179688,4199.487305,4212.692383,4225.000000,3459.000000,4.000000,86.000000,,,,0.000000,4.000000,4.000000,4.000000,4.000000,4.000000,4.000000,4.000000,4.000000,4.000000,4.000000,4.000000,4.000000,4.000000,4.000000,100.000000,,,,,,,,,,,,,,,,
1644853783.563220,173.000000,0.000000,4222.563965,4239.487305,4223.717773,4237.820313,4207.307617,4218.077148,4218.205078,4211.410156,4206.794922,4215.641113,4195.512695,4196.794922,4208.461426,4221.282227,3386.000000,4.000000,86.000000,,,,0.000000,4.000000,4.000000,4.000000,4.000000,4.000000,4.000000,4.000000,4.000000,4.000000,4.000000,4.000000,4.000000,4.000000,4.000000,100.000000,,,,,,,,,,,,,,,,
1644853783.567260,174.000000,0.000000,4216.410156,4235.128418,4225.384766,4236.153809,4205.512695,4221.025879,4218.846191,4210.128418,4209.230957,4218.974121,4204.230957,4195.641113,4206.025879,4217.307617,3535.000000,4.000000,86.000000,,,,0.000000,4.000000,4.000000,4.000000,4.000000,4.000000,4.000000,4.000000,4.000000,4.000000,4.000000,4.000000,4.000000,4.000000,4.000000,100.000000,,,,,,,,,,,,,,,,
1644853783.571200,175.000000,0.000000,4208.589844,4230.256348,4226.282227,4231.538574,4200.641113,4223.589844,4219.615234,4208.717773,4208.205078,4213.333496,4211.538574,4195.256348,4205.512695,4217.563965,2708.000000,4.000000,86.000000,,,,0.000000,4.000000,4.000000,4.000000,4.000000,4.000000,4.000000,4.000000,4.000000,4.000000,4.000000,4.000000,4.000000,4.000000,4.000000,100.000000,,,,,,,,,,,,,,,,
1644853783.575141,176.000000,0.000000,4206.922852,4230.000000,4226.538574,4228.846191,4195.000000,4225.769043,4221.922852,4209.102539,4205.641113,4203.974121,4213.974121,4195.769043,4206.794922,4223.333496,3459.000000,4.000000,86.000000,,,,0.000000,4.000000,4.000000,4.000000,4.000000,4.000000,4.000000,4.000000,4.000000,4.000000,4.000000,4.000000,4.000000,4.000000,4.000000,100.000000,,,,,,,,,,,,,,,,
1644853783.579081,177.000000,0.000000,4214.487305,4234.871582,4226.282227,4230.384766,4191.666504,4228.589844,4224.487305,4211.922852,4205.128418,4199.487305,4213.846191,4197.692383,4210.641113,4231.153809,3386.000000,4.000000,86.000000,,,,0.000000,4.000000,4.000000,4.000000,4.000000,4.000000,4.000000,4.000000,4.000000,4.000000,4.000000,4.000000,4.000000,4.000000,4.000000,100.000000,,,,,,,,,,,,,,,,
1644853783.583021,178.000000,0.000000,4227.563965,4241.025879,4225.897461,4234.743652,4192.820313,4231.410156,4225.512695,4215.897461,4208.461426,4204.487305,4214.871582,4201.282227,4216.922852,4235.897461,3535.000000,4.000000,86.000000,,,,0.000000,4.000000,4.000000,4.000000,4.000000,4.000000,4.000000,4.000000,4.000000,4.000000,4.000000,4.000000,4.000000,4.000000,4.000000,100.000000,,,,,,,,,,,,,,,,
1644853783.586961,179.000000,0.000000,4238.205078,4243.205078,4226.666504,4238.589844,4197.692383,4233.077148,4224.743652,4219.487305,4214.230957,4215.769043,4217.692383,4205.897461,4223.717773,4235.641113,2708.000000,4.000000,86.000000,,,,0.000000,4.000000,4.000000,4.000000,4.000000,4.000000,4.000000,4.000000,4.000000,4.000000,4.000000,4.000000,4.000000,4.000000,4.000000,100.000000,,,,,,,,,,,,,,,,
1644853783.590901,180.000000,0.000000,4240.256348,4239.743652,4229.102539,4238.461426,4203.333496,4232.307617,4223.717773,4221.538574,4219.230957,4225.384766,4219.358887,4210.769043,4228.077148,4231.922852,3459.000000,4.000000,86.000000,,,,0.000000,4.000000,4.000000,4.000000,4.000000,4.000000,4.000000,4.000000,4.000000,4.000000,4.000000,4.000000,4.000000,4.000000,4.000000,100.000000,,,,,,,,,,,,,,,,
1644853783.594841,181.000000,0.000000,4233.333496,4232.948730,4232.436035,4232.948730,4205.769043,4228.974121,4223.717773,4221.794922,4220.641113,4227.692383,4217.563965,4214.743652,4227.948730,4227.051270,3386.000000,4.000000,86.000000,,,,0.000000,4.000000,4.000000,4.000000,4.000000,4.000000,4.000000,4.000000,4.000000,4.000000,4.000000,4.000000,4.000000,4.000000,4.000000,100.000000,,,,,,,,,,,,,,,,
1644853783.598781,182.000000,0.000000,4222.179688,4226.666504,4234.743652,4223.077148,4203.717773,4224.230957,4223.461426,4220.000000,4218.077148,4223.077148,4213.589844,4217.179688,4224.102539,4222.051270,3535.000000,4.000000,86.000000,,,,0.000000,4.000000,4.000000,4.000000,4.000000,4.000000,4.000000,4.000000,4.000000,4.000000,4.000000,4.000000,4.000000,4.000000,4.000000,100.000000,,,,,,,,,,,,,,,,
1644853783.602721,183.000000,0.000000,4213.717773,4223.846191,4234.358887,4211.666504,4199.487305,4220.256348,4221.153809,4216.410156,4213.461426,4215.769043,4212.307617,4216.922852,4219.743652,4218.205078,2708.000000,4.000000,86.000000,,,,0.000000,4.000000,4.000000,4.000000,4.000000,4.000000,4.000000,4.000000,4.000000,4.000000,4.000000,4.000000,4.000000,4.000000,4.000000,100.000000,,,,,,,,,,,,,,,,
1644853783.606561,184.000000,0.000000,4211.410156,4224.615234,4231.922852,4203.461426,4196.922852,4217.948730,4217.948730,4212.051270,4209.871582,4210.512695,4217.436035,4214.743652,4218.077148,4217.692383,3459.000000,4.000000,86.000000,,,,0.000000,4.000000,4.000000,4.000000,4.000000,4.000000,4.000000,4.000000,4.000000,4.000000,4.000000,4.000000,4.000000,4.000000,4.000000,100.000000,,,,,,,,,,,,,,,,
1644853783.610502,185.000000,0.000000,4214.743652,4226.922852,4229.871582,4202.820313,4197.692383,4217.692383,4217.051270,4209.358887,4208.974121,4209.358887,4227.563965,4212.820313,4221.410156,4223.461426,3386.000000,4.000000,86.000000,,,,0.000000,4.000000,4.000000,4.000000,4.000000,4.000000,4.000000,4.000000,4.000000,4.000000,4.000000,4.000000,4.000000,4.000000,4.000000,100.000000,,,,,,,,,,,,,,,,
1644853783.614442,186.000000,0.000000,4219.743652,4228.589844,4229.871582,4211.153809,4199.487305,4219.487305,4219.871582,4209.871582,4210.897461,4212.948730,4235.384766,4213.077148,4229.358887,4234.871582,3535.000000,4.000000,86.000000,,,,0.000000,4.000000,4.000000,4.000000,4.000000,4.000000,4.000000,4.000000,4.000000,4.000000,4.000000,4.000000,4.000000,4.000000,4.000000,100.000000,,,,,,,,,,,,,,,,
1644853783.618382,187.000000,0.000000,4224.102539,4229.230957,4231.666504,4225.128418,4199.230957,4222.820313,4224.230957,4212.948730,4214.743652,4220.769043,4233.974121,4216.282227,4240.128418,4247.563965,2708.000000,4.000000,86.000000,,,,0.000000,4.000000,4.000000,4.000000,4.000000,4.000000,4.000000,4.000000,4.000000,4.000000,4.000000,4.000000,4.000000,4.000000,4.000000,100.000000,,,,,,,,,,,,,,,,
1644853783.622322,188.000000,0.000000,4228.205078,4230.512695,4234.615234,4237.563965,4196.538574,4226.922852,4226.794922,4216.410156,4219.487305,4230.641113,4223.461426,4221.922852,4250.897461,4255.641113,3459.000000,4.000000,86.000000,,,,0.000000,4.000000,4.000000,4.000000,4.000000,4.000000,4.000000,4.000000,4.000000,4.000000,4.000000,4.000000,4.000000,4.000000,4.000000,100.000000,,,,,,,,,,,,,,,,
1644853783.626262,189.000000,0.000000,4233.717773,4234.358887,4238.077148,4242.179688,4195.000000,4230.641113,4227.051270,4218.589844,4223.717773,4238.717773,4211.666504,4227.948730,4257.692383,4257.179688,3386.000000,4.000000,86.000000,,,,0.000000,4.000000,4.000000,4.000000,4.000000,4.000000,4.000000,4.000000,4.000000,4.000000,4.000000,4.000000,4.000000,4.000000,4.000000,100.000000,,,,,,,,,,,,,,,,
1644853783.630202,190.000000,0.000000,4240.128418,4240.256348,4240.897461,4237.436035,4198.974121,4232.692383,4227.307617,4220.256348,4226.282227,4241.153809,4208.717773,4231.794922,4257.692383,4253.205078,3535.000000,4.000000,86.000000,,,,0.000000,4.000000,4.000000,4.000000,4.000000,4.000000,4.000000,4.000000,4.000000,4.000000,4.000000,4.000000,4.000000,4.000000,4.000000,100.000000,,,,,,,,,,,,,,,,
1644853783.634142,191.000000,0.000000,4244.615234,4245.128418,4241.666504,4228.205078,4208.589844,4232.692383,4229.358887,4222.179688,4226.538574,4238.461426,4220.000000,4231.922852,4251.025879,4246.666504,2708.000000,4.000000,86.000000,,,,0.000000,4.000000,4.000000,4.000000,4.000000,4.000000,4.000000,4.000000,4.000000,4.000000,4.000000,4.000000,4.000000,4.000000,4.000000,100.000000,,,,,,,,,,,,,,,,
1644853783.638082,192.000000,0.000000,4244.871582,4246.153809,4239.615234,4222.179688,4219.230957,4232.436035,4232.179688,4224.871582,4226.025879,4235.256348,4241.153809,4229.358887,4242.563965,4240.256348,3459.000000,4.000000,86.000000,,,,0.000000,4.000000,4.000000,4.000000,4.000000,4.000000,4.000000,4.000000,4.000000,4.000000,4.000000,4.000000,4.000000,4.000000,4.000000,100.000000,,,,,,,,,,,,,,,,
1644853783.642022,193.000000,0.000000,4241.666504,4243.333496,4235.641113,4224.358887,4223.846191,4232.948730,4232.820313,4227.179688,4226.666504,4236.666504,4261.153809,4227.051270,4238.461426,4236.410156,3386.000000,4.000000,86.000000,,,,0.000000,4.000000,4.000000,4.000000,4.000000,4.000000,4.000000,4.000000,4.000000,4.000000,4.000000,4.000000,4.000000,4.000000,4.000000,100.000000,,,,,,,,,,,,,,,,
1644853783.645963,194.000000,0.000000,4236.282227,4239.230957,4232.179688,4232.051270,4219.358887,4234.230957,4230.384766,4228.077148,4229.102539,4242.692383,4269.743652,4227.563965,4241.922852,4237.692383,3535.000000,4.000000,86.000000,,,,0.000000,4.000000,4.000000,4.000000,4.000000,4.000000,4.000000,4.000000,4.000000,4.000000,4.000000,4.000000,4.000000,4.000000,4.000000,100.000000,,,,,,,,,,,,,,,,
1644853783.649903,195.000000,0.000000,4229.743652,4235.897461,4231.025879,4236.410156,4209.615234,4234.102539,4227.051270,4227.436035,4231.538574,4247.820313,4263.589844,4230.897461,4250.256348,4243.846191,2708.000000,4.000000,86.000000,,,,0.000000,4.000000,4.000000,4.000000,4.000000,4.000000,4.000000,4.000000,4.000000,4.000000,4.000000,4.000000,4.000000,4.000000,4.000000,100.000000,,,,,,,,,,,,,,,,
1644853783.653843,196.000000,0.000000,4222.179688,4234.358887,4232.692383,4229.871582,4201.666504,4230.897461,4225.512695,4225.641113,4231.794922,4246.794922,4248.205078,4233.589844,4257.692383,4250.641113,3459.000000,4.000000,86.000000,,,,0.000000,4.000000,4.000000,4.000000,4.000000,4.000000,4.000000,4.000000,4.000000,4.000000,4.000000,4.000000,4.000000,4.000000,4.000000,100.000000,,,,,,,,,,,,,,,,
1644853783.657783,197.000000,0.000000,4215.512695,4234.615234,4235.641113,4213.846191,4199.871582,4225.641113,4225.897461,4223.461426,4229.358887,4239.615234,4233.461426,4232.051270,4259.230957,4252.820313,3386.000000,4.000000,86.000000,,,,0.000000,4.000000,4.000000,4.000000,4.000000,4.000000,4.000000,4.000000,4.000000,4.000000,4.000000,4.000000,4.000000,4.000000,4.000000,100.000000,,,,,,,,,,,,,,,,
1644853783.661723,198.000000,0.000000,4213.333496,4236.025879,4237.436035,4198.846191,4202.820313,4221.666504,4226.410156,4221.666504,4226.538574,4231.282227,4226.666504,4226.410156,4254.487305,4248.461426,3535.000000,4.000000,86.000000,,,,0.000000,4.000000,4.000000,4.000000,4.000000,4.000000,4.000000,4.000000,4.000000,4.000000,4.000000,4.000000,4.000000,4.000000,4.000000,100.000000,,,,,,,,,,,,,,,,
1644853783.665663,199.000000,0.000000,4217.179688,4237.179688,4237.179688,4196.153809,4205.897461,4222.179688,4226.153809,4220.897461,4225.897461,4226.922852,4228.589844,4220.512695,4246.538574,4240.256348,2708.000000,4.000000,86.000000,,,,0.000000,4.000000,4.000000,4.000000,4.000000,4.000000,4.000000,4.000000,4.000000,4.000000,4.000000,4.000000,4.000000,4.000000,4.000000,100.000000,,,,,,,,,,,,,,,,
1644853783.669603,200.000000,0.000000,4224.743652,4236.153809,4235.512695,4208.333496,4205.897461,4227.436035,4226.410156,4222.179688,4228.333496,4228.205078,4233.846191,4219.487305,4238.846191,4233.461426,3459.000000,4.000000,86.000000,,,,0.000000,4.000000,4.000000,4.000000,4.000000,4.000000,4.000000,4.000000,4.000000,4.000000,4.000000,4.000000,4.000000,4.000000,4.000000,100.000000,,,,,,,,,,,,,,,,
1644853783.673543,201.000000,0.000000,4229.615234,4231.794922,4234.358887,4226.666504,4203.717773,4233.717773,4227.948730,4225.000000,4232.563965,4232.436035,4236.410156,4224.871582,4233.461426,4230.641113,3386.000000,4.000000,86.000000,,,,0.000000,4.000000,4.000000,4.000000,4.000000,4.000000,4.000000,4.000000,4.000000,4.000000,4.000000,4.000000,4.000000,4.000000,4.000000,100.000000,,,,,,,,,,,,,,,,
1644853783.677483,202.000000,0.000000,4226.794922,4225.769043,4234.230957,4237.948730,4203.461426,4236.282227,4228.974121,4227.436035,4236.153809,4235.769043,4233.974121,4232.436035,4230.641113,4231.025879,3535.000000,4.000000,86.000000,,,,0.000000,4.000000,4.000000,4.000000,4.000000,4.000000,4.000000,4.000000,4.000000,4.000000,4.000000,4.000000,4.000000,4.000000,4.000000,100.000000,,,,,,,,,,,,,,,,
1644853783.681324,203.000000,0.000000,4216.794922,4221.282227,4233.461426,4234.871582,4207.179688,4232.820313,4227.307617,4227.436035,4236.922852,4235.384766,4228.589844,4235.641113,4229.743652,4232.179688,2708.000000,4.000000,86.000000,,,,0.000000,4.000000,4.000000,4.000000,4.000000,4.000000,4.000000,4.000000,4.000000,4.000000,4.000000,4.000000,4.000000,4.000000,4.000000,100.000000,,,,,,,,,,,,,,,,
1644853783.685264,204.000000,0.000000,4205.769043,4220.512695,4230.128418,4221.153809,4212.307617,4225.512695,4223.077148,4224.358887,4234.230957,4231.282227,4224.358887,4230.384766,4230.128418,4232.820313,3459.000000,4.000000,86.000000,,,,0.000000,4.000000,4.000000,4.000000,4.000000,4.000000,4.000000,4.000000,4.000000,4.000000,4.000000,4.000000,4.000000,4.000000,4.000000,100.000000,,,,,,,,,,,,,,,,
1644853783.689204,205.000000,0.000000,4201.538574,4223.333496,4224.615234,4208.461426,4215.000000,4219.358887,4219.743652,4220.000000,4229.358887,4226.410156,4223.589844,4218.846191,4231.666504,4233.846191,3386.000000,4.000000,86.000000,,,,0.000000,4.000000,4.000000,4.000000,4.000000,4.000000,4.000000,4.000000,4.000000,4.000000,4.000000,4.000000,4.000000,4.000000,4.000000,100.000000,,,,,,,,,,,,,,,,
1644853783.693144,206.000000,0.000000,4208.077148,4227.307617,4219.487305,4205.641113,4214.102539,4218.461426,4220.256348,4217.051270,4225.256348,4224.230957,4226.794922,4207.179688,4234.358887,4235.897461,3535.000000,4.000000,86.000000,,,,0.000000,4.000000,4.000000,4.000000,4.000000,4.000000,4.000000,4.000000,4.000000,4.000000,4.000000,4.000000,4.000000,4.000000,4.000000,100.000000,,,,,,,,,,,,,,,,
1644853783.697084,207.000000,0.000000,4223.205078,4230.512695,4218.205078,4212.948730,4211.410156,4223.589844,4224.230957,4216.794922,4224.102539,4226.538574,4232.820313,4201.666504,4237.948730,4238.717773,2708.000000,4.000000,86.000000,,,,0.000000,4.000000,4.000000,4.000000,4.000000,4.000000,4.000000,4.000000,4.000000,4.000000,4.000000,4.000000,4.000000,4.000000,4.000000,100.000000,,,,,,,,,,,,,,,,
1644853783.701024,208.000000,0.000000,4238.589844,4231.410156,4221.410156,4222.692383,4208.846191,4231.025879,4227.820313,4218.717773,4226.410156,4231.538574,4238.717773,4204.871582,4240.897461,4240.384766,3459.000000,4.000000,86.000000,,,,0.000000,4.000000,4.000000,4.000000,4.000000,4.000000,4.000000,4.000000,4.000000,4.000000,4.000000,4.000000,4.000000,4.000000,4.000000,100.000000,,,,,,,,,,,,,,,,
1644853783.704964,209.000000,0.000000,4244.230957,4229.358887,4226.410156,4226.538574,4205.769043,4236.153809,4228.205078,4220.897461,4230.000000,4235.000000,4239.615234,4213.846191,4240.512695,4239.102539,3386.000000,4.000000,86.000000,,,,0.000000,4.000000,4.000000,4.000000,4.000000,4.000000,4.000000,4.000000,4.000000,4.000000,4.000000,4.000000,4.000000,4.000000,4.000000,100.000000,,,,,,,,,,,,,,,,
1644853783.708904,210.000000,0.000000,4235.897461,4224.102539,4228.974121,4222.307617,4200.769043,4236.538574,4226.153809,4221.794922,4232.179688,4234.358887,4231.282227,4221.794922,4235.769043,4234.615234,3535.000000,4.000000,86.000000,,,,0.000000,4.000000,4.000000,4.000000,4.000000,4.000000,4.000000,4.000000,4.000000,4.000000,4.000000,4.000000,4.000000,4.000000,4.000000,100.000000,,,,,,,,,,,,,,,,
1644853783.712844,211.000000,0.000000,4219.871582,4217.436035,4227.692383,4214.871582,4195.384766,4233.461426,4224.487305,4220.897461,4231.666504,4231.153809,4215.897461,4223.589844,4229.230957,4228.589844,2708.000000,4.000000,86.000000,,,,0.000000,4.000000,4.000000,4.000000,4.000000,4.000000,4.000000,4.000000,4.000000,4.000000,4.000000,4.000000,4.000000,4.000000,4.000000,100.000000,,,,,,,,,,,,,,,,
1644853783.716785,212.000000,0.000000,4208.846191,4213.077148,4223.717773,4211.538574,4195.000000,4230.769043,4224.871582,4219.358887,4229.743652,4229.358887,4202.692383,4219.743652,4226.410156,4223.846191,3459.000000,4.000000,86.000000,,,,0.000000,4.000000,4.000000,4.000000,4.000000,4.000000,4.000000,4.000000,4.000000,4.000000,4.000000,4.000000,4.000000,4.000000,4.000000,100.000000,,,,,,,,,,,,,,,,
1644853783.720725,213.000000,0.000000,4210.641113,4214.102539,4219.743652,4215.000000,4203.846191,4231.025879,4226.153809,4218.333496,4228.333496,4230.897461,4201.922852,4214.615234,4230.256348,4222.179688,3386.000000,4.000000,86.000000,,,,0.000000,4.000000,4.000000,4.000000,4.000000,4.000000,4.000000,4.000000,4.000000,4.000000,4.000000,4.000000,4.000000,4.000000,4.000000,100.000000,,,,,,,,,,,,,,,,
1644853783.724665,214.000000,0.000000,4221.666504,4218.846191,4218.205078,4221.410156,4218.461426,4233.205078,4226.794922,4218.846191,4227.820313,4233.205078,4215.897461,4211.794922,4237.948730,4223.589844,3535.000000,4.000000,86.000000,,,,0.000000,4.000000,4.000000,4.000000,4.000000,4.000000,4.000000,4.000000,4.000000,4.000000,4.000000,4.000000,4.000000,4.000000,4.000000,100.000000,,,,,,,,,,,,,,,,
1644853783.728705,215.000000,0.000000,4231.025879,4222.563965,4219.487305,4224.358887,4228.589844,4233.717773,4226.666504,4219.871582,4226.922852,4232.820313,4235.897461,4211.666504,4242.051270,4226.666504,2708.000000,4.000000,86.000000,,,,0.000000,4.000000,4.000000,4.000000,4.000000,4.000000,4.000000,4.000000,4.000000,4.000000,4.000000,4.000000,4.000000,4.000000,4.000000,100.000000,,,,,,,,,,,,,,,,
1644853783.732645,216.000000,0.000000,4230.512695,4222.051270,4222.307617,4221.922852,4225.512695,4230.769043,4226.666504,4220.128418,4223.974121,4228.717773,4248.077148,4211.666504,4237.563965,4229.358887,3459.000000,4.000000,86.000000,,,,0.000000,4.000000,4.000000,4.000000,4.000000,4.000000,4.000000,4.000000,4.000000,4.000000,4.000000,4.000000,4.000000,4.000000,4.000000,100.000000,,,,,,,,,,,,,,,,
1644853783.736585,217.000000,0.000000,4221.410156,4218.717773,4223.846191,4217.692383,4210.000000,4225.256348,4226.538574,4218.589844,4220.000000,4224.102539,4244.358887,4210.256348,4226.666504,4230.256348,3386.000000,4.000000,86.000000,,,,0.000000,4.000000,4.000000,4.000000,4.000000,4.000000,4.000000,4.000000,4.000000,4.000000,4.000000,4.000000,4.000000,4.000000,4.000000,100.000000,,,,,,,,,,,,,,,,
1644853783.740525,218.000000,0.000000,4212.051270,4217.307617,4222.692383,4215.769043,4192.948730,4220.000000,4225.256348,4215.641113,4217.563965,4222.820313,4229.102539,4208.461426,4217.307617,4229.102539,3535.000000,4.000000,86.000000,,,,0.000000,4.000000,4.000000,4.000000,4.000000,4.000000,4.000000,4.000000,4.000000,4.000000,4.000000,4.000000,4.000000,4.000000,4.000000,100.000000,,,,,,,,,,,,,,,,
1644853783.744465,219.000000,0.000000,4209.615234,4220.769043,4219.871582,4217.179688,4186.153809,4217.436035,4222.179688,4213.461426,4218.461426,4226.666504,4214.743652,4207.948730,4217.307617,4227.051270,2708.000000,4.000000,86.000000,,,,0.000000,4.000000,4.000000,4.000000,4.000000,4.000000,4.000000,4.000000,4.000000,4.000000,4.000000,4.000000,4.000000,4.000000,4.000000,100.000000,,,,,,,,,,,,,,,,
1644853783.748405,220.000000,0.000000,4214.487305,4226.410156,4217.948730,4218.846191,4192.307617,4217.436035,4219.615234,4213.333496,4221.922852,4232.436035,4211.410156,4209.358887,4226.666504,4225.384766,3459.000000,4.000000,86.000000,,,,0.000000,4.000000,4.000000,4.000000,4.000000,4.000000,4.000000,4.000000,4.000000,4.000000,4.000000,4.000000,4.000000,4.000000,4.000000,100.000000,,,,,,,,,,,,,,,,
1644853783.752345,221.000000,0.000000,4220.512695,4229.102539,4217.692383,4218.077148,4203.205078,4218.589844,4219.871582,4214.871582,4224.487305,4235.256348,4220.000000,4211.025879,4237.563965,4224.230957,3386.000000,4.000000,86.000000,,,,0.000000,4.000000,4.000000,4.000000,4.000000,4.000000,4.000000,4.000000,4.000000,4.000000,4.000000,4.000000,4.000000,4.000000,4.000000,100.000000,,,,,,,,,,,,,,,,
1644853783.756285,222.000000,0.000000,4221.666504,4225.384766,4218.077148,4214.358887,4207.692383,4219.102539,4222.948730,4215.769043,4223.333496,4231.410156,4232.051270,4209.871582,4240.512695,4221.410156,3535.000000,4.000000,86.000000,,,,0.000000,4.000000,4.000000,4.000000,4.000000,4.000000,4.000000,4.000000,4.000000,4.000000,4.000000,4.000000,4.000000,4.000000,4.000000,100.000000,,,,,,,,,,,,,,,,
1644853783.760226,223.000000,0.000000,4216.538574,4217.307617,4217.179688,4209.230957,4201.794922,4218.589844,4225.512695,4214.615234,4218.974121,4221.794922,4236.794922,4204.358887,4231.922852,4215.512695,2708.000000,4.000000,86.000000,,,,0.000000,4.000000,4.000000,4.000000,4.000000,4.000000,4.000000,4.000000,4.000000,4.000000,4.000000,4.000000,4.000000,4.000000,4.000000,100.000000,,,,,,,,,,,,,,,,
1644853783.764166,224.000000,0.000000,4208.333496,4210.641113,4214.871582,4204.487305,4191.025879,4217.436035,4225.384766,4211.922852,4214.487305,4211.922852,4229.102539,4195.512695,4216.922852,4208.461426,3459.000000,4.000000,86.000000,,,,0.000000,4.000000,4.000000,4.000000,4.000000,4.000000,4.000000,4.000000,4.000000,4.000000,4.000000,4.000000,4.000000,4.000000,4.000000,100.000000,,,,,,,,,,,,,,,,
1644853783.768106,225.000000,0.000000,4201.282227,4209.487305,4212.563965,4201.410156,4185.384766,4216.410156,4223.461426,4210.384766,4212.820313,4207.307617,4212.436035,4186.922852,4204.615234,4204.743652,3386.000000,4.000000,86.000000,,,,0.000000,4.000000,4.000000,4.000000,4.000000,4.000000,4.000000,4.000000,4.000000,4.000000,4.000000,4.000000,4.000000,4.000000,4.000000,100.000000,,,,,,,,,,,,,,,,
1644853783.772046,226.000000,0.000000,4197.307617,4214.102539,4212.179688,4200.000000,4190.000000,4216.410156,4222.436035,4211.794922,4214.615234,4209.102539,4195.384766,4182.051270,4201.666504,4206.794922,3535.000000,4.000000,86.000000,,,,0.000000,4.000000,4.000000,4.000000,4.000000,4.000000,4.000000,4.000000,4.000000,4.000000,4.000000,4.000000,4.000000,4.000000,4.000000,100.000000,,,,,,,,,,,,,,,,
1644853783.775986,227.000000,0.000000,4196.666504,4221.282227,4214.230957,4200.128418,4201.794922,4217.436035,4223.461426,4215.384766,4218.333496,4214.358887,4186.922852,4182.563965,4207.820313,4212.051270,2708.000000,4.000000,86.000000,,,,0.000000,4.000000,4.000000,4.000000,4.000000,4.000000,4.000000,4.000000,4.000000,4.000000,4.000000,4.000000,4.000000,4.000000,4.000000,100.000000,,,,,,,,,,,,,,,,
1644853783.779926,228.000000,0.000000,4199.358887,4226.794922,4216.794922,4202.436035,4212.563965,4218.846191,4225.128418,4218.974121,4222.179688,4219.230957,4190.641113,4187.051270,4217.692383,4215.512695,3459.000000,4.000000,86.000000,,,,0.000000,4.000000,4.000000,4.000000,4.000000,4.000000,4.000000,4.000000,4.000000,4.000000,4.000000,4.000000,4.000000,4.000000,4.000000,100.000000,,,,,,,,,,,,,,,,
1644853783.783866,229.000000,0.000000,4205.000000,4228.077148,4217.051270,4207.051270,4216.538574,4219.358887,4225.384766,4220.641113,4224.743652,4221.922852,4203.589844,4191.794922,4225.128418,4215.000000,3386.000000,4.000000,86.000000,,,,0.000000,4.000000,4.000000,4.000000,4.000000,4.000000,4.000000,4.000000,4.000000,4.000000,4.000000,4.000000,4.000000,4.000000,4.000000,100.000000,,,,,,,,,,,,,,,,
1644853783.787806,230.000000,0.000000,4212.307617,4224.871582,4213.717773,4212.692383,4213.205078,4218.461426,4224.615234,4220.512695,4225.256348,4223.461426,4217.179688,4192.820313,4226.410156,4212.692383,3535.000000,4.000000,86.000000,,,,0.000000,4.000000,4.000000,4.000000,4.000000,4.000000,4.000000,4.000000,4.000000,4.000000,4.000000,4.000000,4.000000,4.000000,4.000000,100.000000,,,,,,,,,,,,,,,,
1644853783.791746,231.000000,0.000000,4218.077148,4218.717773,4208.589844,4216.794922,4206.666504,4216.666504,4225.128418,4219.615234,4223.717773,4224.358887,4222.948730,4188.717773,4221.666504,4211.794922,2708.000000,4.000000,86.000000,,,,0.000000,4.000000,4.000000,4.000000,4.000000,4.000000,4.000000,4.000000,4.000000,4.000000,4.000000,4.000000,4.000000,4.000000,4.000000,100.000000,,,,,,,,,,,,,,,,
1644853783.795687,232.000000,0.000000,4218.589844,4212.692383,4205.128418,4217.948730,4201.538574,4216.025879,4227.563965,4219.230957,4221.410156,4224.743652,4216.922852,4182.307617,4213.717773,4211.794922,3459.000000,4.000000,86.000000,,,,0.000000,4.000000,4.000000,4.000000,4.000000,4.000000,4.000000,4.000000,4.000000,4.000000,4.000000,4.000000,4.000000,4.000000,4.000000,100.000000,,,,,,,,,,,,,,,,
1644853783.799627,233.000000,0.000000,4212.948730,4209.358887,4205.384766,4216.666504,4199.358887,4217.948730,4229.743652,4219.615234,4220.000000,4223.974121,4203.205078,4177.563965,4207.179688,4209.487305,3386.000000,4.000000,86.000000,,,,0.000000,4.000000,4.000000,4.000000,4.000000,4.000000,4.000000,4.000000,4.000000,4.000000,4.000000,4.000000,4.000000,4.000000,4.000000,100.000000,,,,,,,,,,,,,,,,
1644853783.803667,234.000000,0.000000,4204.230957,4210.512695,4208.461426,4213.717773,4199.102539,4221.794922,4228.974121,4219.615234,4219.871582,4222.307617,4191.025879,4176.538574,4205.641113,4204.230957,3535.000000,4.000000,86.000000,,,,0.000000,4.000000,4.000000,4.000000,4.000000,4.000000,4.000000,4.000000,4.000000,4.000000,4.000000,4.000000,4.000000,4.000000,4.000000,100.000000,,,,,,,,,,,,,,,,
1644853783.807607,235.000000,0.000000,4198.077148,4215.000000,4211.410156,4208.974121,4198.077148,4224.871582,4225.384766,4218.077148,4219.743652,4221.025879,4188.589844,4178.717773,4210.384766,4199.615234,2708.000000,4.000000,86.000000,,,,0.000000,4.000000,4.000000,4.000000,4.000000,4.000000,4.000000,4.000000,4.000000,4.000000,4.000000,4.000000,4.000000,4.000000,4.000000,100.000000,,,,,,,,,,,,,,,,
1644853783.811547,236.000000,0.000000,4198.077148,4219.743652,4211.410156,4202.436035,4196.153809,4224.615234,4221.410156,4215.512695,4218.589844,4221.538574,4196.666504,4181.922852,4219.743652,4199.743652,3459.000000,4.000000,86.000000,,,,0.000000,4.000000,4.000000,4.000000,4.000000,4.000000,4.000000,4.000000,4.000000,4.000000,4.000000,4.000000,4.000000,4.000000,4.000000,100.000000,,,,,,,,,,,,,,,,
1644853783.815487,237.000000,0.000000,4202.948730,4221.666504,4208.077148,4195.512695,4195.000000,4220.512695,4219.358887,4213.205078,4217.051270,4223.717773,4208.974121,4183.717773,4229.487305,4204.487305,3386.000000,4.000000,86.000000,,,,0.000000,4.000000,4.000000,4.000000,4.000000,4.000000,4.000000,4.000000,4.000000,4.000000,4.000000,4.000000,4.000000,4.000000,4.000000,100.000000,,,,,,,,,,,,,,,,
1644853783.819427,238.000000,0.000000,4208.333496,4218.974121,4203.717773,4190.769043,4196.153809,4215.384766,4218.846191,4212.307617,4216.794922,4225.512695,4216.794922,4183.717773,4235.512695,4208.333496,3535.000000,4.000000,86.000000,,,,0.000000,4.000000,4.000000,4.000000,4.000000,4.000000,4.000000,4.000000,4.000000,4.000000,4.000000,4.000000,4.000000,4.000000,4.000000,100.000000,,,,,,,,,,,,,,,,
1644853783.823367,239.000000,0.000000,4209.871582,4212.436035,4201.922852,4191.153809,4199.230957,4213.461426,4218.461426,4213.077148,4218.333496,4224.615234,4216.025879,4183.205078,4235.769043,4207.563965,2708.000000,4.000000,86.000000,,,,0.000000,4.000000,4.000000,4.000000,4.000000,4.000000,4.000000,4.000000,4.000000,4.000000,4.000000,4.000000,4.000000,4.000000,4.000000,100.000000,,,,,,,,,,,,,,,,
1644853783.827307,240.000000,0.000000,4206.666504,4205.384766,4204.615234,4197.307617,4202.692383,4217.051270,4218.077148,4214.358887,4220.384766,4220.897461,4209.871582,4184.102539,4231.282227,4203.846191,3459.000000,4.000000,86.000000,,,,0.000000,4.000000,4.000000,4.000000,4.000000,4.000000,4.000000,4.000000,4.000000,4.000000,4.000000,4.000000,4.000000,4.000000,4.000000,100.000000,,,,,,,,,,,,,,,,
1644853783.831247,241.000000,0.000000,4201.282227,4201.794922,4210.641113,4205.897461,4205.897461,4224.230957,4218.717773,4215.256348,4221.666504,4216.666504,4205.256348,4187.692383,4226.153809,4202.307617,3386.000000,4.000000,86.000000,,,,0.000000,4.000000,4.000000,4.000000,4.000000,4.000000,4.000000,4.000000,4.000000,4.000000,4.000000,4.000000,4.000000,4.000000,4.000000,100.000000,,,,,,,,,,,,,,,,
1644853783.835187,242.000000,0.000000,4197.436035,4202.820313,4216.666504,4211.410156,4208.333496,4230.256348,4220.641113,4215.769043,4221.538574,4215.256348,4206.538574,4192.948730,4224.102539,4205.256348,3535.000000,4.000000,86.000000,,,,0.000000,4.000000,4.000000,4.000000,4.000000,4.000000,4.000000,4.000000,4.000000,4.000000,4.000000,4.000000,4.000000,4.000000,4.000000,100.000000,,,,,,,,,,,,,,,,
1644853783.839028,243.000000,0.000000,4197.692383,4205.769043,4219.743652,4210.641113,4208.205078,4231.410156,4222.179688,4216.410156,4221.153809,4218.077148,4212.563965,4198.205078,4226.282227,4209.487305,2708.000000,4.000000,86.000000,,,,0.000000,4.000000,4.000000,4.000000,4.000000,4.000000,4.000000,4.000000,4.000000,4.000000,4.000000,4.000000,4.000000,4.000000,4.000000,100.000000,,,,,,,,,,,,,,,,
1644853783.842968,244.000000,0.000000,4201.794922,4206.666504,4219.102539,4205.512695,4203.974121,4227.820313,4221.666504,4217.179688,4221.025879,4222.436035,4218.333496,4201.794922,4230.384766,4209.615234,3459.000000,4.000000,86.000000,,,,0.000000,4.000000,4.000000,4.000000,4.000000,4.000000,4.000000,4.000000,4.000000,4.000000,4.000000,4.000000,4.000000,4.000000,4.000000,100.000000,1.000000,66.666664,4.000000,4.000000,4.000000,4.000000,4.000000,4.000000,1.000000,4.000000,4.000000,3.000000,4.000000,4.000000,4.000000,4.000000
1644853783.846908,245.000000,0.000000,4207.692383,4204.743652,4216.538574,4201.538574,4196.538574,4223.333496,4219.615234,4217.179688,4220.769043,4224.230957,4220.769043,4203.333496,4232.563965,4203.974121,3386.000000,4.000000,86.000000,,,,0.000000,4.000000,4.000000,4.000000,4.000000,4.000000,4.000000,4.000000,4.000000,4.000000,4.000000,4.000000,4.000000,4.000000,4.000000,100.000000,,,,,,,,,,,,,,,,
1644853783.850848,246.000000,0.000000,4212.436035,4202.948730,4214.615234,4202.820313,4190.256348,4221.282227,4218.333496,4216.025879,4219.743652,4221.282227,4220.641113,4203.205078,4231.410156,4196.794922,3535.000000,4.000000,86.000000,,,,0.000000,4.000000,4.000000,4.000000,4.000000,4.000000,4.000000,4.000000,4.000000,4.000000,4.000000,4.000000,4.000000,4.000000,4.000000,100.000000,,,,,,,,,,,,,,,,
1644853783.854788,247.000000,0.000000,4214.871582,4205.256348,4214.615234,4208.333496,4189.358887,4222.179688,4218.974121,4214.102539,4217.692383,4215.128418,4220.641113,4200.897461,4228.077148,4194.102539,2708.000000,4.000000,86.000000,,,,0.000000,4.000000,4.000000,4.000000,4.000000,4.000000,4.000000,4.000000,4.000000,4.000000,4.000000,4.000000,4.000000,4.000000,4.000000,100.000000,,,,,,,,,,,,,,,,
1644853783.858728,248.000000,0.000000,4214.358887,4211.025879,4215.256348,4213.461426,4194.487305,4223.205078,4219.743652,4211.922852,4214.743652,4210.256348,4221.666504,4196.410156,4225.128418,4198.717773,3459.000000,4.000000,86.000000,,,,0.000000,4.000000,4.000000,4.000000,4.000000,4.000000,4.000000,4.000000,4.000000,4.000000,4.000000,4.000000,4.000000,4.000000,4.000000,100.000000,,,,,,,,,,,,,,,,
1644853783.862668,249.000000,0.000000,4210.641113,4215.512695,4214.230957,4213.717773,4201.922852,4221.153809,4218.205078,4209.615234,4211.282227,4210.384766,4221.538574,4190.384766,4223.974121,4207.179688,3386.000000,4.000000,86.000000,,,,0.000000,4.000000,4.000000,4.000000,4.000000,4.000000,4.000000,4.000000,4.000000,4.000000,4.000000,4.000000,4.000000,4.000000,4.000000,100.000000,,,,,,,,,,,,,,,,
1644853783.866608,250.000000,0.000000,4203.461426,4213.717773,4211.538574,4208.461426,4206.666504,4216.538574,4214.743652,4207.307617,4208.461426,4215.897461,4217.948730,4185.512695,4223.717773,4213.077148,3535.000000,4.000000,86.000000,,,,0.000000,4.000000,4.000000,4.000000,4.000000,4.000000,4.000000,4.000000,4.000000,4.000000,4.000000,4.000000,4.000000,4.000000,4.000000,100.000000,,,,,,,,,,,,,,,,
1644853783.870549,251.000000,0.000000,4195.000000,4206.410156,4209.871582,4201.410156,4207.307617,4212.563965,4212.692383,4205.769043,4207.563965,4222.948730,4211.153809,4184.871582,4223.205078,4212.436035,2708.000000,4.000000,86.000000,,,,0.000000,4.000000,4.000000,4.000000,4.000000,4.000000,4.000000,4.000000,4.000000,4.000000,4.000000,4.000000,4.000000,4.000000,4.000000,100.000000,,,,,,,,,,,,,,,,
1644853783.874489,252.000000,0.000000,4189.487305,4200.000000,4211.538574,4196.538574,4206.282227,4213.333496,4214.358887,4206.153809,4208.846191,4227.179688,4205.000000,4189.615234,4222.436035,4206.794922,3459.000000,4.000000,86.000000,,,,0.000000,4.000000,4.000000,4.000000,4.000000,4.000000,4.000000,4.000000,4.000000,4.000000,4.000000,4.000000,4.000000,4.000000,4.000000,100.000000,,,,,,,,,,,,,,,,
1644853783.878429,253.000000,0.000000,4191.538574,4200.512695,4216.282227,4195.128418,4207.179688,4219.230957,4218.461426,4208.717773,4211.538574,4227.179688,4203.461426,4197.436035,4223.077148,4201.410156,3386.000000,4.000000,86.000000,,,,0.000000,4.000000,4.000000,4.000000,4.000000,4.000000,4.000000,4.000000,4.000000,4.000000,4.000000,4.000000,4.000000,4.000000,4.000000,100.000000,,,,,,,,,,,,,,,,
1644853783.882369,254.000000,0.000000,4202.051270,4208.846191,4220.641113,4196.666504,4211.538574,4227.307617,4221.794922,4212.051270,4214.743652,4225.256348,4208.589844,4204.615234,4227.948730,4201.794922,3535.000000,4.000000,86.000000,,,,0.000000,4.000000,4.000000,4.000000,4.000000,4.000000,4.000000,4.000000,4.000000,4.000000,4.000000,4.000000,4.000000,4.000000,4.000000,100.000000,,,,,,,,,,,,,,,,
1644853783.886309,255.000000,0.000000,4216.666504,4219.615234,4222.179688,4201.794922,4217.307617,4232.563965,4222.692383,4214.358887,4218.077148,4224.358887,4219.102539,4208.461426,4237.692383,4209.615234,113.000000,4.000000,86.000000,,,,0.000000,4.000000,4.000000,4.000000,4.000000,4.000000,4.000000,4.000000,4.000000,4.000000,4.000000,4.000000,4.000000,4.000000,4.000000,100.000000,,,,,,,,,,,,,,,,
1644853783.890249,0.000000,0.000000,4228.589844,4225.769043,4221.153809,4211.666504,4220.641113,4232.948730,4222.692383,4215.641113,4221.153809,4225.769043,4230.641113,4208.974121,4249.615234,4221.538574,3429.000000,4.000000,86.000000,,,,0.000000,4.000000,4.000000,4.000000,4.000000,4.000000,4.000000,4.000000,4.000000,4.000000,4.000000,4.000000,4.000000,4.000000,4.000000,100.000000,,,,,,,,,,,,,,,,
1644853783.894189,1.000000,0.000000,4232.820313,4224.358887,4220.512695,4224.743652,4218.589844,4229.102539,4223.589844,4217.563965,4223.589844,4227.948730,4239.230957,4208.589844,4258.717773,4231.538574,3320.000000,4.000000,86.000000,,,,0.000000,4.000000,4.000000,4.000000,4.000000,4.000000,4.000000,4.000000,4.000000,4.000000,4.000000,4.000000,4.000000,4.000000,4.000000,100.000000,,,,,,,,,,,,,,,,
1644853783.898129,2.000000,0.000000,4229.230957,4217.820313,4221.922852,4234.487305,4211.538574,4224.358887,4224.871582,4221.153809,4225.384766,4229.358887,4242.948730,4209.743652,4261.025879,4235.000000,3570.000000,4.000000,86.000000,,,,0.000000,4.000000,4.000000,4.000000,4.000000,4.000000,4.000000,4.000000,4.000000,4.000000,4.000000,4.000000,4.000000,4.000000,4.000000,100.000000,,,,,,,,,,,,,,,,
1644853783.902069,3.000000,0.000000,4221.025879,4211.794922,4225.128418,4233.846191,4203.846191,4220.641113,4224.358887,4225.256348,4226.410156,4230.000000,4243.461426,4212.820313,4256.282227,4232.436035,3377.000000,4.000000,86.000000,,,,0.000000,4.000000,4.000000,4.000000,4.000000,4.000000,4.000000,4.000000,4.000000,4.000000,4.000000,4.000000,4.000000,4.000000,4.000000,100.000000,,,,,,,,,,,,,,,,
1644853783.906009,4.000000,0.000000,4211.538574,4209.615234,4227.820313,4220.897461,4199.743652,4218.333496,4221.922852,4227.563965,4227.051270,4230.512695,4243.589844,4216.666504,4248.461426,4228.077148,3548.000000,4.000000,86.000000,,,,0.000000,4.000000,4.000000,4.000000,4.000000,4.000000,4.000000,4.000000,4.000000,4.000000,4.000000,4.000000,4.000000,4.000000,4.000000,100.000000,,,,,,,,,,,,,,,,
1644853783.909950,5.000000,0.000000,4203.461426,4210.256348,4228.205078,4202.307617,4200.641113,4216.538574,4219.871582,4227.307617,4227.179688,4230.641113,4243.974121,4219.615234,4242.436035,4226.794922,3428.000000,4.000000,86.000000,,,,0.000000,4.000000,4.000000,4.000000,4.000000,4.000000,4.000000,4.000000,4.000000,4.000000,4.000000,4.000000,4.000000,4.000000,4.000000,100.000000,,,,,,,,,,,,,,,,
1644853783.913790,6.000000,0.000000,4198.333496,4210.000000,4226.410156,4190.384766,4203.589844,4215.384766,4220.256348,4225.897461,4227.179688,4230.000000,4243.589844,4220.641113,4241.153809,4228.974121,2697.000000,4.000000,86.000000,,,,0.000000,4.000000,4.000000,4.000000,4.000000,4.000000,4.000000,4.000000,4.000000,4.000000,4.000000,4.000000,4.000000,4.000000,4.000000,100.000000,,,,,,,,,,,,,,,,
1644853783.917730,7.000000,0.000000,4197.307617,4207.307617,4223.974121,4194.487305,4205.769043,4215.384766,4222.051270,4225.128418,4227.179688,4228.717773,4240.512695,4220.128418,4244.487305,4230.384766,2763.000000,4.000000,86.000000,,,,0.000000,4.000000,4.000000,4.000000,4.000000,4.000000,4.000000,4.000000,4.000000,4.000000,4.000000,4.000000,4.000000,4.000000,4.000000,100.000000,,,,,,,,,,,,,,,,
1644853783.921670,8.000000,0.000000,4200.256348,4203.717773,4222.307617,4211.922852,4206.794922,4216.794922,4222.692383,4225.128418,4227.436035,4227.948730,4234.743652,4218.589844,4249.102539,4226.922852,3296.000000,4.000000,86.000000,,,,0.000000,4.000000,4.000000,4.000000,4.000000,4.000000,4.000000,4.000000,4.000000,4.000000,4.000000,4.000000,4.000000,4.000000,4.000000,100.000000,,,,,,,,,,,,,,,,
1644853783.925610,9.000000,0.000000,4205.128418,4202.436035,4221.538574,4229.487305,4208.717773,4218.461426,4221.153809,4224.358887,4227.307617,4228.077148,4227.307617,4216.410156,4250.897461,4218.461426,3522.000000,4.000000,86.000000,,,,0.000000,4.000000,4.000000,4.000000,4.000000,4.000000,4.000000,4.000000,4.000000,4.000000,4.000000,4.000000,4.000000,4.000000,4.000000,100.000000,,,,,,,,,,,,,,,,
1644853783.929550,10.000000,0.000000,4208.205078,4204.230957,4220.512695,4233.333496,4211.538574,4218.846191,4219.358887,4221.922852,4225.512695,4228.333496,4221.410156,4212.692383,4246.922852,4209.487305,3548.000000,4.000000,86.000000,,,,0.000000,4.000000,4.000000,4.000000,4.000000,4.000000,4.000000,4.000000,4.000000,4.000000,4.000000,4.000000,4.000000,4.000000,4.000000,100.000000,,,,,,,,,,,,,,,,
1644853783.933490,11.000000,0.000000,4207.948730,4207.179688,4218.846191,4221.153809,4213.077148,4217.436035,4220.000000,4217.563965,4221.794922,4226.794922,4220.000000,4206.794922,4238.461426,4205.000000,2315.000000,4.000000,86.000000,,,,0.000000,4.000000,4.000000,4.000000,4.000000,4.000000,4.000000,4.000000,4.000000,4.000000,4.000000,4.000000,4.000000,4.000000,4.000000,100.000000,,,,,,,,,,,,,,,,
1644853783.937430,12.000000,0.000000,4205.000000,4209.487305,4216.922852,4202.820313,4211.538574,4215.769043,4222.436035,4212.179688,4217.307617,4223.717773,4223.717773,4200.256348,4230.384766,4206.410156,3496.000000,4.000000,86.000000,,,,0.000000,4.000000,4.000000,4.000000,4.000000,4.000000,4.000000,4.000000,4.000000,4.000000,4.000000,4.000000,4.000000,4.000000,4.000000,100.000000,,,,,,,,,,,,,,,,
1644853783.941371,13.000000,0.000000,4201.666504,4210.512695,4215.641113,4192.051270,4207.692383,4215.769043,4223.974121,4207.692383,4214.230957,4221.153809,4228.461426,4196.025879,4227.820313,4211.025879,3204.000000,4.000000,86.000000,,,,0.000000,4.000000,4.000000,4.000000,4.000000,4.000000,4.000000,4.000000,4.000000,4.000000,4.000000,4.000000,4.000000,4.000000,4.000000,100.000000,,,,,,,,,,,,,,,,
1644853783.945311,14.000000,0.000000,4200.128418,4210.384766,4215.641113,4195.256348,4204.358887,4217.948730,4222.820313,4206.410156,4214.230957,4220.512695,4228.333496,4196.410156,4231.153809,4215.897461,3548.000000,4.000000,86.000000,,,,0.000000,4.000000,4.000000,4.000000,4.000000,4.000000,4.000000,4.000000,4.000000,4.000000,4.000000,4.000000,4.000000,4.000000,4.000000,100.000000,,,,,,,,,,,,,,,,
1644853783.949251,15.000000,0.000000,4201.410156,4209.358887,4217.307617,4208.589844,4203.077148,4220.769043,4220.641113,4208.974121,4216.538574,4220.769043,4220.769043,4200.128418,4236.282227,4219.743652,2315.000000,4.000000,86.000000,,,,0.000000,4.000000,4.000000,4.000000,4.000000,4.000000,4.000000,4.000000,4.000000,4.000000,4.000000,4.000000,4.000000,4.000000,4.000000,100.000000,,,,,,,,,,,,,,,,
