title:Alex-ACwW7-ZTu90GDCp21famAA, start timestamp:1644854729.392677, stop timestamp:1644854756.452822, headset type:EPOCPLUS, headset serial:3B9AEBFF, headset firmware:626, channels:55, sampling rate:eeg_256, samples:6869      , version:2.1, 
Timestamp,EEG.Counter,EEG.Interpolated,EEG.AF3,EEG.F7,EEG.F3,EEG.FC5,EEG.T7,EEG.P7,EEG.O1,EEG.O2,EEG.P8,EEG.T8,EEG.FC6,EEG.F4,EEG.F8,EEG.AF4,EEG.RawCq,EEG.Battery,EEG.BatteryPercent,MarkerIndex,MarkerType,MarkerValueInt,EEG.MarkerHardware,CQ.AF3,CQ.F7,CQ.F3,CQ.FC5,CQ.T7,CQ.P7,CQ.O1,CQ.O2,CQ.P8,CQ.T8,CQ.FC6,CQ.F4,CQ.F8,CQ.AF4,CQ.Overall,EQ.SampleRateQuality,EQ.OVERALL,EQ.AF3,EQ.F7,EQ.F3,EQ.FC5,EQ.T7,EQ.P7,EQ.O1,EQ.O2,EQ.P8,EQ.T8,EQ.FC6,EQ.F4,EQ.F8,EQ.AF4
1644854729.392677,92.000000,0.000000,4217.436035,4228.333496,4209.230957,4230.641113,4206.410156,4215.512695,4222.563965,4212.948730,4220.000000,4210.641113,4194.615234,4177.051270,4190.000000,4260.256348,0.000000,4.000000,82.000000,,,,0.000000,4.000000,4.000000,4.000000,4.000000,4.000000,4.000000,4.000000,4.000000,4.000000,4.000000,4.000000,4.000000,4.000000,4.000000,100.000000,,,,,,,,,,,,,,,,
1644854729.396717,93.000000,0.000000,4214.487305,4220.512695,4209.871582,4237.563965,4215.641113,4216.666504,4226.282227,4213.974121,4220.897461,4202.436035,4184.230957,4177.692383,4191.410156,4259.102539,0.000000,4.000000,82.000000,,,,0.000000,4.000000,4.000000,4.000000,4.000000,4.000000,4.000000,4.000000,4.000000,4.000000,4.000000,4.000000,4.000000,4.000000,4.000000,100.000000,,,,,,,,,,,,,,,,
1644854729.400657,94.000000,0.000000,4208.205078,4215.897461,4211.794922,4238.717773,4228.077148,4218.205078,4226.794922,4215.641113,4221.153809,4196.538574,4180.769043,4181.794922,4193.974121,4253.717773,0.000000,4.000000,82.000000,,,,0.000000,4.000000,4.000000,4.000000,4.000000,4.000000,4.000000,4.000000,4.000000,4.000000,4.000000,4.000000,4.000000,4.000000,4.000000,100.000000,,,,,,,,,,,,,,,,
1644854729.404597,95.000000,0.000000,4203.717773,4217.051270,4213.974121,4232.948730,4237.436035,4219.230957,4223.846191,4216.282227,4221.922852,4197.179688,4185.641113,4187.692383,4196.794922,4248.974121,0.000000,4.000000,82.000000,,,,0.000000,4.000000,4.000000,4.000000,4.000000,4.000000,4.000000,4.000000,4.000000,4.000000,4.000000,4.000000,4.000000,4.000000,4.000000,100.000000,,,,,,,,,,,,,,,,
1644854729.408537,96.000000,0.000000,4203.974121,4221.666504,4215.512695,4224.871582,4238.077148,4219.102539,4220.769043,4214.743652,4222.307617,4203.589844,4197.692383,4191.666504,4198.974121,4251.282227,0.000000,4.000000,82.000000,,,,0.000000,4.000000,4.000000,4.000000,4.000000,4.000000,4.000000,4.000000,4.000000,4.000000,4.000000,4.000000,4.000000,4.000000,4.000000,100.000000,,,,,,,,,,,,,,,,
1644854729.412478,97.000000,0.000000,4207.307617,4224.615234,4215.769043,4219.358887,4229.615234,4217.692383,4220.128418,4211.666504,4219.615234,4210.256348,4211.410156,4190.897461,4200.000000,4262.051270,0.000000,4.000000,82.000000,,,,0.000000,4.000000,4.000000,4.000000,4.000000,4.000000,4.000000,4.000000,4.000000,4.000000,4.000000,4.000000,4.000000,4.000000,4.000000,100.000000,,,,,,,,,,,,,,,,
1644854729.416418,98.000000,0.000000,4210.000000,4223.205078,4214.358887,4217.820313,4217.948730,4215.512695,4221.410156,4208.333496,4212.820313,4211.538574,4219.615234,4185.512695,4199.230957,4274.615234,0.000000,4.000000,82.000000,,,,0.000000,4.000000,4.000000,4.000000,4.000000,4.000000,4.000000,4.000000,4.000000,4.000000,4.000000,4.000000,4.000000,4.000000,4.000000,100.000000,,,,,,,,,,,,,,,,
1644854729.420358,99.000000,0.000000,4209.230957,4219.615234,4212.051270,4218.589844,4210.256348,4213.974121,4221.410156,4206.282227,4205.512695,4206.794922,4217.436035,4179.743652,4196.025879,4279.615234,0.000000,4.000000,82.000000,,,,0.000000,4.000000,4.000000,4.000000,4.000000,4.000000,4.000000,4.000000,4.000000,4.000000,4.000000,4.000000,4.000000,4.000000,4.000000,100.000000,,,,,,,,,,,,,,,,
1644854729.424298,100.000000,0.000000,4206.666504,4218.205078,4210.769043,4220.128418,4209.743652,4214.230957,4218.974121,4206.666504,4203.077148,4200.384766,4207.692383,4178.846191,4191.025879,4273.077148,0.000000,4.000000,82.000000,,,,0.000000,4.000000,4.000000,4.000000,4.000000,4.000000,4.000000,4.000000,4.000000,4.000000,4.000000,4.000000,4.000000,4.000000,4.000000,100.000000,,,,,,,,,,,,,,,,
1644854729.428238,101.000000,0.000000,4206.538574,4220.897461,4212.307617,4222.820313,4213.205078,4215.897461,4216.410156,4209.487305,4207.948730,4197.051270,4198.589844,4184.871582,4187.563965,4260.384766,0.000000,4.000000,82.000000,,,,0.000000,4.000000,4.000000,4.000000,4.000000,4.000000,4.000000,4.000000,4.000000,4.000000,4.000000,4.000000,4.000000,4.000000,4.000000,100.000000,,,,,,,,,,,,,,,,
1644854729.432178,102.000000,0.000000,4212.179688,4225.769043,4217.051270,4227.436035,4215.641113,4217.948730,4216.922852,4214.230957,4217.436035,4197.179688,4197.820313,4194.615234,4189.230957,4251.025879,0.000000,4.000000,82.000000,,,,0.000000,4.000000,4.000000,4.000000,4.000000,4.000000,4.000000,4.000000,4.000000,4.000000,4.000000,4.000000,4.000000,4.000000,4.000000,100.000000,,,,,,,,,,,,,,,,
1644854729.436118,103.000000,0.000000,4221.794922,4229.615234,4223.589844,4232.051270,4214.230957,4218.717773,4220.256348,4219.871582,4225.769043,4198.589844,4204.871582,4201.922852,4196.410156,4249.871582,0.000000,4.000000,82.000000,,,,0.000000,4.000000,4.000000,4.000000,4.000000,4.000000,4.000000,4.000000,4.000000,4.000000,4.000000,4.000000,4.000000,4.000000,4.000000,100.000000,,,,,,,,,,,,,,,,
1644854729.440058,104.000000,0.000000,4229.230957,4230.384766,4228.846191,4233.974121,4210.512695,4217.436035,4222.948730,4224.230957,4229.102539,4198.717773,4211.282227,4203.461426,4204.615234,4253.974121,0.000000,4.000000,82.000000,,,,0.000000,4.000000,4.000000,4.000000,4.000000,4.000000,4.000000,4.000000,4.000000,4.000000,4.000000,4.000000,4.000000,4.000000,4.000000,100.000000,,,,,,,,,,,,,,,,
1644854729.443998,105.000000,0.000000,4227.820313,4228.333496,4230.641113,4232.563965,4207.563965,4214.487305,4221.922852,4225.897461,4226.922852,4197.051270,4208.589844,4199.871582,4207.692383,4257.563965,0.000000,4.000000,82.000000,,,,0.000000,4.000000,4.000000,4.000000,4.000000,4.000000,4.000000,4.000000,4.000000,4.000000,4.000000,4.000000,4.000000,4.000000,4.000000,100.000000,,,,,,,,,,,,,,,,
1644854729.447938,106.000000,0.000000,4216.153809,4224.743652,4228.589844,4230.512695,4206.922852,4211.538574,4218.717773,4224.743652,4222.179688,4195.641113,4196.794922,4193.717773,4203.717773,4257.436035,0.000000,4.000000,82.000000,,,,0.000000,4.000000,4.000000,4.000000,4.000000,4.000000,4.000000,4.000000,4.000000,4.000000,4.000000,4.000000,4.000000,4.000000,4.000000,100.000000,,,,,,,,,,,,,,,,
1644854729.451879,107.000000,0.000000,4200.128418,4221.282227,4224.487305,4230.769043,4208.589844,4210.128418,4217.307617,4222.307617,4218.846191,4197.436035,4185.384766,4187.563965,4196.025879,4254.230957,0.000000,4.000000,82.000000,,,,0.000000,4.000000,4.000000,4.000000,4.000000,4.000000,4.000000,4.000000,4.000000,4.000000,4.000000,4.000000,4.000000,4.000000,4.000000,100.000000,,,,,,,,,,,,,,,,
1644854729.455819,108.000000,0.000000,4188.717773,4219.871582,4220.641113,4234.358887,4211.794922,4210.641113,4219.358887,4220.769043,4219.743652,4203.846191,4185.384766,4182.820313,4190.512695,4250.128418,0.000000,4.000000,82.000000,,,,0.000000,4.000000,4.000000,4.000000,4.000000,4.000000,4.000000,4.000000,4.000000,4.000000,4.000000,4.000000,4.000000,4.000000,4.000000,100.000000,,,,,,,,,,,,,,,,
1644854729.459759,109.000000,0.000000,4188.333496,4221.282227,4218.077148,4238.333496,4216.282227,4213.077148,4223.333496,4221.153809,4224.487305,4212.436035,4198.974121,4180.256348,4191.025879,4246.025879,0.000000,4.000000,82.000000,,,,0.000000,4.000000,4.000000,4.000000,4.000000,4.000000,4.000000,4.000000,4.000000,4.000000,4.000000,4.000000,4.000000,4.000000,4.000000,100.000000,,,,,,,,,,,,,,,,
1644854729.463699,110.000000,0.000000,4198.333496,4225.512695,4216.282227,4238.717773,4221.282227,4217.051270,4225.769043,4223.846191,4230.512695,4218.846191,4217.563965,4179.743652,4196.282227,4242.692383,0.000000,4.000000,82.000000,,,,0.000000,4.000000,4.000000,4.000000,4.000000,4.000000,4.000000,4.000000,4.000000,4.000000,4.000000,4.000000,4.000000,4.000000,4.000000,100.000000,,,,,,,,,,,,,,,,
1644854729.467639,111.000000,0.000000,4211.922852,4231.153809,4214.102539,4234.487305,4225.256348,4221.410156,4226.410156,4227.307617,4234.230957,4220.512695,4228.846191,4180.384766,4202.692383,4241.794922,0.000000,4.000000,82.000000,,,,0.000000,4.000000,4.000000,4.000000,4.000000,4.000000,4.000000,4.000000,4.000000,4.000000,4.000000,4.000000,4.000000,4.000000,4.000000,100.000000,,,,,,,,,,,,,,,,
1644854729.471579,112.000000,0.000000,4222.051270,4236.538574,4211.153809,4228.974121,4227.179688,4224.743652,4226.410156,4229.230957,4234.230957,4218.077148,4226.794922,4181.025879,4207.820313,4244.871582,0.000000,4.000000,82.000000,,,,0.000000,4.000000,4.000000,4.000000,4.000000,4.000000,4.000000,4.000000,4.000000,4.000000,4.000000,4.000000,4.000000,4.000000,4.000000,100.000000,,,,,,,,,,,,,,,,
1644854729.475419,113.000000,0.000000,4225.769043,4240.128418,4208.846191,4226.538574,4226.282227,4225.641113,4226.666504,4227.948730,4230.897461,4213.974121,4215.769043,4180.512695,4210.897461,4250.641113,0.000000,4.000000,82.000000,,,,0.000000,4.000000,4.000000,4.000000,4.000000,4.000000,4.000000,4.000000,4.000000,4.000000,4.000000,4.000000,4.000000,4.000000,4.000000,100.000000,,,,,,,,,,,,,,,,
1644854729.479359,114.000000,0.000000,4224.358887,4241.282227,4208.333496,4228.461426,4223.333496,4224.102539,4225.769043,4223.205078,4226.666504,4210.000000,4204.615234,4178.333496,4211.794922,4255.384766,0.000000,4.000000,82.000000,,,,0.000000,4.000000,4.000000,4.000000,4.000000,4.000000,4.000000,4.000000,4.000000,4.000000,4.000000,4.000000,4.000000,4.000000,4.000000,100.000000,,,,,,,,,,,,,,,,
1644854729.483300,115.000000,0.000000,4220.512695,4239.871582,4208.974121,4232.307617,4219.871582,4221.153809,4223.077148,4217.307617,4222.948730,4207.436035,4199.487305,4175.769043,4209.871582,4256.666504,0.000000,4.000000,82.000000,,,,0.000000,4.000000,4.000000,4.000000,4.000000,4.000000,4.000000,4.000000,4.000000,4.000000,4.000000,4.000000,4.000000,4.000000,4.000000,100.000000,,,,,,,,,,,,,,,,
1644854729.487240,116.000000,0.000000,4215.641113,4236.410156,4209.871582,4235.000000,4217.948730,4218.205078,4220.897461,4214.102539,4220.512695,4207.179688,4200.641113,4174.615234,4205.769043,4255.128418,0.000000,4.000000,82.000000,,,,0.000000,4.000000,4.000000,4.000000,4.000000,4.000000,4.000000,4.000000,4.000000,4.000000,4.000000,4.000000,4.000000,4.000000,4.000000,100.000000,,,,,,,,,,,,,,,,
1644854729.491180,117.000000,0.000000,4209.871582,4232.948730,4209.743652,4235.641113,4217.820313,4216.025879,4221.538574,4215.128418,4219.102539,4209.230957,4203.461426,4176.282227,4201.794922,4252.307617,0.000000,4.000000,82.000000,,,,0.000000,4.000000,4.000000,4.000000,4.000000,4.000000,4.000000,4.000000,4.000000,4.000000,4.000000,4.000000,4.000000,4.000000,4.000000,100.000000,,,,,,,,,,,,,,,,
1644854729.495120,118.000000,0.000000,4202.948730,4231.153809,4208.333496,4234.743652,4218.205078,4214.358887,4224.615234,4218.846191,4218.589844,4212.179688,4202.692383,4180.000000,4199.743652,4247.948730,0.000000,4.000000,82.000000,,,,0.000000,4.000000,4.000000,4.000000,4.000000,4.000000,4.000000,4.000000,4.000000,4.000000,4.000000,4.000000,4.000000,4.000000,4.000000,100.000000,,,,,,,,,,,,,,,,
1644854729.499060,119.000000,0.000000,4196.282227,4230.897461,4206.025879,4233.205078,4217.307617,4212.820313,4226.153809,4221.410156,4219.102539,4214.358887,4196.666504,4183.333496,4199.871582,4240.641113,0.000000,4.000000,82.000000,,,,0.000000,4.000000,4.000000,4.000000,4.000000,4.000000,4.000000,4.000000,4.000000,4.000000,4.000000,4.000000,4.000000,4.000000,4.000000,100.000000,,,,,,,,,,,,,,,,
1644854729.503000,120.000000,0.000000,4192.051270,4230.641113,4203.846191,4231.666504,4214.230957,4210.897461,4223.717773,4220.384766,4219.743652,4214.358887,4188.077148,4183.717773,4201.025879,4232.436035,0.000000,4.000000,82.000000,,,,0.000000,4.000000,4.000000,4.000000,4.000000,4.000000,4.000000,4.000000,4.000000,4.000000,4.000000,4.000000,4.000000,4.000000,4.000000,100.000000,,,,,,,,,,,,,,,,
1644854729.506940,121.000000,0.000000,4192.179688,4229.102539,4202.692383,4230.769043,4209.871582,4209.102539,4219.102539,4217.051270,4219.615234,4212.307617,4182.436035,4180.256348,4202.051270,4229.487305,0.000000,4.000000,82.000000,,,,0.000000,4.000000,4.000000,4.000000,4.000000,4.000000,4.000000,4.000000,4.000000,4.000000,4.000000,4.000000,4.000000,4.000000,4.000000,100.000000,,,,,,,,,,,,,,,,
1644854729.510880,122.000000,0.000000,4196.153809,4227.563965,4203.717773,4231.794922,4205.641113,4208.846191,4216.538574,4215.000000,4218.205078,4209.615234,4183.717773,4175.769043,4203.333496,4235.384766,0.000000,4.000000,82.000000,,,,0.000000,4.000000,4.000000,4.000000,4.000000,4.000000,4.000000,4.000000,4.000000,4.000000,4.000000,4.000000,4.000000,4.000000,4.000000,100.000000,,,,,,,,,,,,,,,,
1644854729.514820,123.000000,0.000000,4201.410156,4227.692383,4206.666504,4234.743652,4203.205078,4211.282227,4217.820313,4216.538574,4217.307617,4208.461426,4192.051270,4174.230957,4206.025879,4246.410156,0.000000,4.000000,82.000000,,,,0.000000,4.000000,4.000000,4.000000,4.000000,4.000000,4.000000,4.000000,4.000000,4.000000,4.000000,4.000000,4.000000,4.000000,4.000000,100.000000,,,,,,,,,,,,,,,,
1644854729.518760,124.000000,0.000000,4204.743652,4230.384766,4210.128418,4236.922852,4203.205078,4215.769043,4220.641113,4220.897461,4218.333496,4210.000000,4204.487305,4177.692383,4210.641113,4253.461426,0.000000,4.000000,82.000000,,,,0.000000,4.000000,4.000000,4.000000,4.000000,4.000000,4.000000,4.000000,4.000000,4.000000,4.000000,4.000000,4.000000,4.000000,4.000000,100.000000,,,,,,,,,,,,,,,,
1644854729.522701,125.000000,0.000000,4204.615234,4233.589844,4211.794922,4234.102539,4205.384766,4220.000000,4222.051270,4225.128418,4220.897461,4213.205078,4216.282227,4184.358887,4215.641113,4251.025879,0.000000,4.000000,82.000000,,,,0.000000,4.000000,4.000000,4.000000,4.000000,4.000000,4.000000,4.000000,4.000000,4.000000,4.000000,4.000000,4.000000,4.000000,4.000000,100.000000,,,,,,,,,,,,,,,,
1644854729.526641,126.000000,0.000000,4202.051270,4235.000000,4211.282227,4223.974121,4208.461426,4221.153809,4222.051270,4226.794922,4223.333496,4216.025879,4223.333496,4189.102539,4217.692383,4241.922852,0.000000,4.000000,82.000000,,,,0.000000,4.000000,4.000000,4.000000,4.000000,4.000000,4.000000,4.000000,4.000000,4.000000,4.000000,4.000000,4.000000,4.000000,4.000000,100.000000,,,,,,,,,,,,,,,,
1644854729.530581,127.000000,0.000000,4200.256348,4233.717773,4210.256348,4209.871582,4212.307617,4219.102539,4222.820313,4225.641113,4223.846191,4216.794922,4223.846191,4187.948730,4214.102539,4233.846191,0.000000,4.000000,82.000000,,,,0.000000,4.000000,4.000000,4.000000,4.000000,4.000000,4.000000,4.000000,4.000000,4.000000,4.000000,4.000000,4.000000,4.000000,4.000000,100.000000,,,,,,,,,,,,,,,,
1644854729.534521,128.000000,0.000000,4201.025879,4230.512695,4210.384766,4200.256348,4217.051270,4216.410156,4225.000000,4222.692383,4222.436035,4215.897461,4217.948730,4181.666504,4205.641113,4231.282227,3426.000000,4.000000,82.000000,,,,0.000000,4.000000,4.000000,4.000000,4.000000,4.000000,4.000000,4.000000,4.000000,4.000000,4.000000,4.000000,4.000000,4.000000,4.000000,100.000000,,,,,,,,,,,,,,,,
1644854729.538461,129.000000,0.000000,4203.077148,4226.666504,4211.153809,4201.922852,4221.794922,4215.641113,4226.410156,4219.358887,4220.128418,4214.102539,4207.820313,4174.230957,4197.436035,4232.051270,3310.000000,4.000000,82.000000,,,,0.000000,4.000000,4.000000,4.000000,4.000000,4.000000,4.000000,4.000000,4.000000,4.000000,4.000000,4.000000,4.000000,4.000000,4.000000,100.000000,,,,,,,,,,,,,,,,
1644854729.542501,130.000000,0.000000,4203.846191,4223.461426,4211.025879,4213.846191,4223.974121,4217.692383,4224.615234,4216.025879,4217.820313,4211.410156,4196.410156,4169.358887,4194.615234,4231.794922,3553.000000,4.000000,82.000000,,,,0.000000,4.000000,4.000000,4.000000,4.000000,4.000000,4.000000,4.000000,4.000000,4.000000,4.000000,4.000000,4.000000,4.000000,4.000000,100.000000,,,,,,,,,,,,,,,,
1644854729.546441,131.000000,0.000000,4202.692383,4221.922852,4208.717773,4227.051270,4222.179688,4220.256348,4220.641113,4213.717773,4215.897461,4207.436035,4186.666504,4168.205078,4198.589844,4229.230957,3438.000000,4.000000,82.000000,,,,0.000000,4.000000,4.000000,4.000000,4.000000,4.000000,4.000000,4.000000,4.000000,4.000000,4.000000,4.000000,4.000000,4.000000,4.000000,100.000000,,,,,,,,,,,,,,,,
1644854729.550381,132.000000,0.000000,4201.410156,4222.820313,4205.384766,4231.922852,4217.820313,4221.282227,4218.589844,4213.461426,4214.871582,4203.461426,4181.922852,4170.000000,4206.538574,4227.179688,3726.000000,4.000000,82.000000,,,,0.000000,4.000000,4.000000,4.000000,4.000000,4.000000,4.000000,4.000000,4.000000,4.000000,4.000000,4.000000,4.000000,4.000000,4.000000,100.000000,,,,,,,,,,,,,,,,
1644854729.554321,133.000000,0.000000,4202.948730,4225.384766,4203.461426,4226.538574,4213.589844,4219.743652,4220.641113,4216.153809,4215.769043,4202.307617,4184.358887,4173.589844,4214.743652,4228.717773,3298.000000,4.000000,82.000000,,,,0.000000,4.000000,4.000000,4.000000,4.000000,4.000000,4.000000,4.000000,4.000000,4.000000,4.000000,4.000000,4.000000,4.000000,4.000000,100.000000,,,,,,,,,,,,,,,,
1644854729.558261,134.000000,0.000000,4208.205078,4228.974121,4205.256348,4218.077148,4211.922852,4217.436035,4224.871582,4221.153809,4218.846191,4206.410156,4194.615234,4178.846191,4221.666504,4233.589844,2538.000000,4.000000,82.000000,,,,0.000000,4.000000,4.000000,4.000000,4.000000,4.000000,4.000000,4.000000,4.000000,4.000000,4.000000,4.000000,4.000000,4.000000,4.000000,100.000000,,,,,,,,,,,,,,,,
1644854729.562202,135.000000,0.000000,4215.769043,4233.077148,4211.153809,4216.666504,4212.820313,4216.794922,4227.563965,4226.410156,4223.077148,4215.000000,4209.102539,4185.769043,4227.563965,4239.615234,3292.000000,4.000000,82.000000,,,,0.000000,4.000000,4.000000,4.000000,4.000000,4.000000,4.000000,4.000000,4.000000,4.000000,4.000000,4.000000,4.000000,4.000000,4.000000,100.000000,,,,,,,,,,,,,,,,
1644854729.566142,136.000000,0.000000,4222.563965,4237.820313,4219.615234,4226.666504,4214.871582,4218.205078,4227.051270,4229.487305,4225.512695,4223.461426,4220.769043,4192.307617,4231.794922,4245.000000,3327.000000,4.000000,82.000000,,,,0.000000,4.000000,4.000000,4.000000,4.000000,4.000000,4.000000,4.000000,4.000000,4.000000,4.000000,4.000000,4.000000,4.000000,4.000000,100.000000,,,,,,,,,,,,,,,,
1644854729.570082,137.000000,0.000000,4225.384766,4242.436035,4226.794922,4242.948730,4215.897461,4220.000000,4224.358887,4228.461426,4223.846191,4225.897461,4221.922852,4194.871582,4232.051270,4248.077148,3482.000000,4.000000,82.000000,,,,0.000000,4.000000,4.000000,4.000000,4.000000,4.000000,4.000000,4.000000,4.000000,4.000000,4.000000,4.000000,4.000000,4.000000,4.000000,100.000000,,,,,,,,,,,,,,,,
1644854729.574022,138.000000,0.000000,4222.692383,4245.384766,4228.461426,4253.589844,4215.128418,4219.743652,4220.897461,4223.717773,4218.333496,4220.256348,4210.641113,4190.512695,4226.282227,4246.922852,3765.000000,4.000000,82.000000,,,,0.000000,4.000000,4.000000,4.000000,4.000000,4.000000,4.000000,4.000000,4.000000,4.000000,4.000000,4.000000,4.000000,4.000000,4.000000,100.000000,,,,,,,,,,,,,,,,
1644854729.577962,139.000000,0.000000,4215.256348,4244.230957,4223.077148,4249.871582,4212.948730,4216.666504,4217.051270,4217.307617,4211.794922,4210.128418,4193.077148,4180.897461,4215.897461,4240.000000,2315.000000,4.000000,82.000000,,,,0.000000,4.000000,4.000000,4.000000,4.000000,4.000000,4.000000,4.000000,4.000000,4.000000,4.000000,4.000000,4.000000,4.000000,4.000000,100.000000,,,,,,,,,,,,,,,,
1644854729.581902,140.000000,0.000000,4206.025879,4237.948730,4213.077148,4232.820313,4209.871582,4212.051270,4212.948730,4212.692383,4208.205078,4202.179688,4179.487305,4171.025879,4206.025879,4229.871582,3711.000000,4.000000,82.000000,,,,0.000000,4.000000,4.000000,4.000000,4.000000,4.000000,4.000000,4.000000,4.000000,4.000000,4.000000,4.000000,4.000000,4.000000,4.000000,100.000000,,,,,,,,,,,,,,,,
1644854729.585842,141.000000,0.000000,4197.563965,4228.846191,4203.846191,4213.717773,4206.282227,4208.717773,4210.384766,4211.666504,4209.358887,4200.128418,4177.436035,4166.666504,4201.153809,4222.307617,3505.000000,4.000000,82.000000,,,,0.000000,4.000000,4.000000,4.000000,4.000000,4.000000,4.000000,4.000000,4.000000,4.000000,4.000000,4.000000,4.000000,4.000000,4.000000,100.000000,,,,,,,,,,,,,,,,
1644854729.589782,142.000000,0.000000,4191.666504,4221.025879,4199.871582,4204.487305,4202.563965,4208.717773,4211.282227,4213.974121,4213.589844,4202.948730,4186.922852,4169.615234,4202.051270,4221.282227,3765.000000,4.000000,82.000000,,,,0.000000,4.000000,4.000000,4.000000,4.000000,4.000000,4.000000,4.000000,4.000000,4.000000,4.000000,4.000000,4.000000,4.000000,4.000000,100.000000,,,,,,,,,,,,,,,,
1644854729.593722,143.000000,0.000000,4190.256348,4218.846191,4202.307617,4208.974121,4201.410156,4211.538574,4215.512695,4217.051270,4217.948730,4207.051270,4202.692383,4177.563965,4206.538574,4226.025879,2315.000000,4.000000,82.000000,,,,0.000000,4.000000,4.000000,4.000000,4.000000,4.000000,4.000000,4.000000,4.000000,4.000000,4.000000,4.000000,4.000000,4.000000,4.000000,100.000000,,,,,,,,,,,,,,,,
1644854729.597662,144.000000,0.000000,4193.846191,4223.846191,4207.948730,4221.025879,4205.769043,4215.256348,4219.615234,4218.717773,4220.641113,4211.282227,4217.563965,4185.641113,4212.179688,4232.179688,3711.000000,4.000000,82.000000,,,,0.000000,4.000000,4.000000,4.000000,4.000000,4.000000,4.000000,4.000000,4.000000,4.000000,4.000000,4.000000,4.000000,4.000000,4.000000,100.000000,,,,,,,,,,,,,,,,
1644854729.601603,145.000000,0.000000,4202.051270,4233.205078,4213.205078,4230.897461,4216.025879,4217.820313,4220.384766,4218.589844,4222.051270,4216.410156,4226.666504,4190.128418,4217.820313,4236.666504,3505.000000,4.000000,82.000000,,,,0.000000,4.000000,4.000000,4.000000,4.000000,4.000000,4.000000,4.000000,4.000000,4.000000,4.000000,4.000000,4.000000,4.000000,4.000000,100.000000,,,,,,,,,,,,,,,,
1644854729.605543,146.000000,0.000000,4211.282227,4241.282227,4216.025879,4234.102539,4226.922852,4218.589844,4218.205078,4217.436035,4223.333496,4222.436035,4227.820313,4189.487305,4222.307617,4239.487305,3765.000000,4.000000,82.000000,,,,0.000000,4.000000,4.000000,4.000000,4.000000,4.000000,4.000000,4.000000,4.000000,4.000000,4.000000,4.000000,4.000000,4.000000,4.000000,100.000000,,,,,,,,,,,,,,,,
1644854729.609483,147.000000,0.000000,4216.922852,4242.948730,4215.769043,4233.077148,4230.641113,4218.077148,4216.794922,4216.794922,4224.871582,4227.563965,4221.025879,4185.512695,4224.615234,4241.538574,2315.000000,4.000000,82.000000,,,,0.000000,4.000000,4.000000,4.000000,4.000000,4.000000,4.000000,4.000000,4.000000,4.000000,4.000000,4.000000,4.000000,4.000000,4.000000,100.000000,,,,,,,,,,,,,,,,
1644854729.613423,148.000000,0.000000,4215.128418,4237.179688,4212.563965,4231.922852,4223.205078,4217.179688,4218.205078,4217.563965,4225.256348,4228.461426,4209.102539,4180.769043,4224.102539,4241.282227,3711.000000,4.000000,82.000000,,,,0.000000,4.000000,4.000000,4.000000,4.000000,4.000000,4.000000,4.000000,4.000000,4.000000,4.000000,4.000000,4.000000,4.000000,4.000000,100.000000,,,,,,,,,,,,,,,,
1644854729.617263,149.000000,0.000000,4206.666504,4228.589844,4207.436035,4231.410156,4209.102539,4216.922852,4220.897461,4218.717773,4223.589844,4223.717773,4197.307617,4177.948730,4221.153809,4236.410156,3505.000000,4.000000,82.000000,,,,0.000000,4.000000,4.000000,4.000000,4.000000,4.000000,4.000000,4.000000,4.000000,4.000000,4.000000,4.000000,4.000000,4.000000,4.000000,100.000000,,,,,,,,,,,,,,,,
1644854729.621203,150.000000,0.000000,4196.794922,4223.333496,4202.948730,4229.871582,4197.948730,4217.692383,4221.794922,4219.230957,4220.641113,4215.769043,4191.410156,4177.179688,4217.051270,4228.333496,3765.000000,4.000000,82.000000,,,,0.000000,4.000000,4.000000,4.000000,4.000000,4.000000,4.000000,4.000000,4.000000,4.000000,4.000000,4.000000,4.000000,4.000000,4.000000,100.000000,,,,,,,,,,,,,,,,
1644854729.625143,151.000000,0.000000,4192.820313,4225.000000,4202.051270,4227.051270,4197.820313,4219.358887,4220.512695,4219.487305,4218.717773,4210.000000,4194.615234,4178.077148,4213.205078,4223.333496,2315.000000,4.000000,82.000000,,,,0.000000,4.000000,4.000000,4.000000,4.000000,4.000000,4.000000,4.000000,4.000000,4.000000,4.000000,4.000000,4.000000,4.000000,4.000000,100.000000,,,,,,,,,,,,,,,,
1644854729.629083,152.000000,0.000000,4198.461426,4231.538574,4205.897461,4226.025879,4210.128418,4221.153809,4219.743652,4220.256348,4220.256348,4211.025879,4205.641113,4179.743652,4211.153809,4226.794922,3711.000000,4.000000,82.000000,,,,0.000000,4.000000,4.000000,4.000000,4.000000,4.000000,4.000000,4.000000,4.000000,4.000000,4.000000,4.000000,4.000000,4.000000,4.000000,100.000000,,,,,,,,,,,,,,,,
1644854729.633024,153.000000,0.000000,4210.641113,4238.333496,4212.563965,4230.384766,4228.077148,4222.436035,4221.794922,4221.794922,4225.000000,4219.487305,4218.974121,4182.563965,4211.282227,4236.410156,3505.000000,4.000000,82.000000,,,,0.000000,4.000000,4.000000,4.000000,4.000000,4.000000,4.000000,4.000000,4.000000,4.000000,4.000000,4.000000,4.000000,4.000000,4.000000,100.000000,,,,,,,,,,,,,,,,
1644854729.636964,154.000000,0.000000,4221.282227,4242.179688,4218.333496,4240.000000,4241.922852,4222.563965,4224.743652,4223.205078,4230.512695,4231.282227,4228.333496,4187.179688,4213.717773,4244.102539,3765.000000,4.000000,82.000000,,,,0.000000,4.000000,4.000000,4.000000,4.000000,4.000000,4.000000,4.000000,4.000000,4.000000,4.000000,4.000000,4.000000,4.000000,4.000000,100.000000,,,,,,,,,,,,,,,,
1644854729.640904,155.000000,0.000000,4223.717773,4242.563965,4220.128418,4249.615234,4244.230957,4221.794922,4224.743652,4223.333496,4233.846191,4239.230957,4228.974121,4193.589844,4216.922852,4243.205078,2315.000000,4.000000,82.000000,,,,0.000000,4.000000,4.000000,4.000000,4.000000,4.000000,4.000000,4.000000,4.000000,4.000000,4.000000,4.000000,4.000000,4.000000,4.000000,100.000000,,,,,,,,,,,,,,,,
1644854729.644844,156.000000,0.000000,4216.153809,4240.000000,4217.820313,4252.436035,4234.358887,4220.000000,4220.256348,4221.794922,4233.589844,4238.333496,4220.128418,4200.384766,4219.102539,4235.256348,3711.000000,4.000000,82.000000,,,,0.000000,4.000000,4.000000,4.000000,4.000000,4.000000,4.000000,4.000000,4.000000,4.000000,4.000000,4.000000,4.000000,4.000000,4.000000,100.000000,,,,,,,,,,,,,,,,
1644854729.648684,157.000000,0.000000,4203.461426,4234.358887,4214.102539,4245.384766,4217.179688,4217.436035,4214.743652,4219.615234,4229.615234,4229.102539,4205.000000,4205.384766,4219.487305,4228.077148,3505.000000,4.000000,82.000000,,,,0.000000,4.000000,4.000000,4.000000,4.000000,4.000000,4.000000,4.000000,4.000000,4.000000,4.000000,4.000000,4.000000,4.000000,4.000000,100.000000,,,,,,,,,,,,,,,,
1644854729.652624,158.000000,0.000000,4195.256348,4226.282227,4212.436035,4231.666504,4200.384766,4214.871582,4211.794922,4218.333496,4223.974121,4217.436035,4190.512695,4206.666504,4219.102539,4228.589844,3765.000000,4.000000,82.000000,,,,0.000000,4.000000,4.000000,4.000000,4.000000,4.000000,4.000000,4.000000,4.000000,4.000000,4.000000,4.000000,4.000000,4.000000,4.000000,100.000000,,,,,,,,,,,,,,,,
1644854729.656564,159.000000,0.000000,4198.077148,4218.589844,4214.358887,4218.589844,4191.153809,4213.717773,4212.307617,4218.333496,4219.487305,4210.769043,4184.871582,4203.333496,4220.897461,4236.794922,2315.000000,4.000000,82.000000,,,,0.000000,4.000000,4.000000,4.000000,4.000000,4.000000,4.000000,4.000000,4.000000,4.000000,4.000000,4.000000,4.000000,4.000000,4.000000,100.000000,,,,,,,,,,,,,,,,
1644854729.660504,160.000000,0.000000,4210.256348,4215.256348,4218.205078,4212.307617,4193.717773,4214.487305,4213.974121,4218.589844,4218.461426,4212.692383,4192.051270,4196.922852,4225.641113,4247.051270,3711.000000,4.000000,82.000000,,,,0.000000,4.000000,4.000000,4.000000,4.000000,4.000000,4.000000,4.000000,4.000000,4.000000,4.000000,4.000000,4.000000,4.000000,4.000000,100.000000,,,,,,,,,,,,,,,,
1644854729.664444,161.000000,0.000000,4222.436035,4218.333496,4221.410156,4215.256348,4206.666504,4216.282227,4215.128418,4217.692383,4220.641113,4219.358887,4209.358887,4190.000000,4230.256348,4253.333496,3505.000000,4.000000,82.000000,,,,0.000000,4.000000,4.000000,4.000000,4.000000,4.000000,4.000000,4.000000,4.000000,4.000000,4.000000,4.000000,4.000000,4.000000,4.000000,100.000000,,,,,,,,,,,,,,,,
1644854729.668385,162.000000,0.000000,4225.256348,4225.641113,4222.307617,4224.743652,4224.102539,4217.307617,4216.025879,4215.128418,4223.205078,4223.717773,4226.922852,4185.512695,4229.871582,4253.461426,3765.000000,4.000000,82.000000,,,,0.000000,4.000000,4.000000,4.000000,4.000000,4.000000,4.000000,4.000000,4.000000,4.000000,4.000000,4.000000,4.000000,4.000000,4.000000,100.000000,,,,,,,,,,,,,,,,
1644854729.672325,163.000000,0.000000,4217.692383,4232.179688,4221.410156,4234.871582,4237.436035,4216.410156,4216.922852,4211.666504,4223.589844,4221.282227,4235.000000,4184.358887,4223.846191,4250.000000,2315.000000,4.000000,82.000000,,,,0.000000,4.000000,4.000000,4.000000,4.000000,4.000000,4.000000,4.000000,4.000000,4.000000,4.000000,4.000000,4.000000,4.000000,4.000000,100.000000,,,,,,,,,,,,,,,,
1644854729.676265,164.000000,0.000000,4206.794922,4234.487305,4220.000000,4240.384766,4240.128418,4213.974121,4216.666504,4208.717773,4221.282227,4213.846191,4230.512695,4185.384766,4217.179688,4246.666504,3711.000000,4.000000,82.000000,,,,0.000000,4.000000,4.000000,4.000000,4.000000,4.000000,4.000000,4.000000,4.000000,4.000000,4.000000,4.000000,4.000000,4.000000,4.000000,100.000000,,,,,,,,,,,,,,,,
1644854729.680205,165.000000,0.000000,4201.410156,4232.179688,4218.461426,4238.846191,4230.897461,4212.307617,4214.358887,4207.563965,4218.333496,4207.436035,4218.974121,4186.410156,4216.922852,4245.769043,3505.000000,4.000000,82.000000,,,,0.000000,4.000000,4.000000,4.000000,4.000000,4.000000,4.000000,4.000000,4.000000,4.000000,4.000000,4.000000,4.000000,4.000000,4.000000,100.000000,,,,,,,,,,,,,,,,
1644854729.684145,166.000000,0.000000,4205.384766,4229.102539,4217.563965,4231.922852,4214.615234,4212.692383,4211.794922,4209.102539,4216.666504,4206.922852,4208.333496,4187.179688,4224.487305,4247.436035,3765.000000,4.000000,82.000000,,,,0.000000,4.000000,4.000000,4.000000,4.000000,4.000000,4.000000,4.000000,4.000000,4.000000,4.000000,4.000000,4.000000,4.000000,4.000000,100.000000,,,,,,,,,,,,,,,,
1644854729.688085,167.000000,0.000000,4215.128418,4228.974121,4218.077148,4225.000000,4201.282227,4215.256348,4212.436035,4213.461426,4217.563965,4213.589844,4202.436035,4189.487305,4232.948730,4249.871582,2315.000000,4.000000,82.000000,,,,0.000000,4.000000,4.000000,4.000000,4.000000,4.000000,4.000000,4.000000,4.000000,4.000000,4.000000,4.000000,4.000000,4.000000,4.000000,100.000000,,,,,,,,,,,,,,,,
1644854729.692025,168.000000,0.000000,4223.846191,4232.820313,4220.384766,4223.077148,4200.256348,4218.205078,4217.051270,4218.846191,4220.384766,4223.974121,4198.846191,4194.615234,4233.333496,4250.384766,3711.000000,4.000000,82.000000,,,,0.000000,4.000000,4.000000,4.000000,4.000000,4.000000,4.000000,4.000000,4.000000,4.000000,4.000000,4.000000,4.000000,4.000000,4.000000,100.000000,,,,,,,,,,,,,,,,
1644854729.695965,169.000000,0.000000,4226.410156,4237.948730,4223.717773,4227.948730,4212.820313,4220.128418,4222.563965,4222.563965,4223.077148,4232.436035,4193.846191,4200.897461,4222.948730,4247.948730,3505.000000,4.000000,82.000000,,,,0.000000,4.000000,4.000000,4.000000,4.000000,4.000000,4.000000,4.000000,4.000000,4.000000,4.000000,4.000000,4.000000,4.000000,4.000000,100.000000,,,,,,,,,,,,,,,,
1644854729.699905,170.000000,0.000000,4222.948730,4240.256348,4226.410156,4237.563965,4230.641113,4220.256348,4224.358887,4222.563965,4223.589844,4234.487305,4187.820313,4203.461426,4208.846191,4244.615234,3765.000000,4.000000,82.000000,,,,0.000000,4.000000,4.000000,4.000000,4.000000,4.000000,4.000000,4.000000,4.000000,4.000000,4.000000,4.000000,4.000000,4.000000,4.000000,100.000000,,,,,,,,,,,,,,,,
1644854729.703846,171.000000,0.000000,4217.692383,4237.692383,4226.922852,4246.153809,4241.538574,4218.717773,4221.282227,4219.230957,4220.897461,4229.615234,4184.743652,4199.102539,4201.538574,4244.102539,2315.000000,4.000000,82.000000,,,,0.000000,4.000000,4.000000,4.000000,4.000000,4.000000,4.000000,4.000000,4.000000,4.000000,4.000000,4.000000,4.000000,4.000000,4.000000,100.000000,,,,,,,,,,,,,,,,
1644854729.707786,172.000000,0.000000,4214.230957,4232.692383,4224.615234,4248.333496,4239.102539,4216.922852,4217.051270,4215.128418,4215.769043,4221.410156,4188.974121,4189.871582,4206.410156,4247.948730,3711.000000,4.000000,82.000000,,,,0.000000,4.000000,4.000000,4.000000,4.000000,4.000000,4.000000,4.000000,4.000000,4.000000,4.000000,4.000000,4.000000,4.000000,4.000000,100.000000,,,,,,,,,,,,,,,,
1644854729.711726,173.000000,0.000000,4213.461426,4230.769043,4220.769043,4242.563965,4226.794922,4215.897461,4215.897461,4212.692383,4210.512695,4213.846191,4200.512695,4181.794922,4218.974121,4252.948730,3505.000000,4.000000,82.000000,,,,0.000000,4.000000,4.000000,4.000000,4.000000,4.000000,4.000000,4.000000,4.000000,4.000000,4.000000,4.000000,4.000000,4.000000,4.000000,100.000000,,,,,,,,,,,,,,,,
1644854729.715666,174.000000,0.000000,4214.358887,4235.000000,4217.692383,4233.461426,4214.487305,4216.153809,4218.205078,4213.077148,4208.589844,4210.000000,4214.358887,4181.025879,4230.128418,4253.974121,3765.000000,4.000000,82.000000,,,,0.000000,4.000000,4.000000,4.000000,4.000000,4.000000,4.000000,4.000000,4.000000,4.000000,4.000000,4.000000,4.000000,4.000000,4.000000,100.000000,,,,,,,,,,,,,,,,
1644854729.719706,175.000000,0.000000,4216.410156,4243.205078,4216.794922,4227.563965,4210.128418,4217.307617,4220.897461,4215.256348,4211.410156,4210.128418,4223.077148,4188.205078,4234.615234,4248.974121,2315.000000,4.000000,82.000000,,,,0.000000,4.000000,4.000000,4.000000,4.000000,4.000000,4.000000,4.000000,4.000000,4.000000,4.000000,4.000000,4.000000,4.000000,4.000000,100.000000,,,,,,,,,,,,,,,,
1644854729.723646,176.000000,0.000000,4219.358887,4248.589844,4218.077148,4228.589844,4214.487305,4218.205078,4221.153809,4217.563965,4216.794922,4212.563965,4222.179688,4197.563965,4233.589844,4241.153809,3711.000000,4.000000,82.000000,,,,0.000000,4.000000,4.000000,4.000000,4.000000,4.000000,4.000000,4.000000,4.000000,4.000000,4.000000,4.000000,4.000000,4.000000,4.000000,100.000000,,,,,,,,,,,,,,,,
1644854729.727586,177.000000,0.000000,4221.794922,4246.153809,4219.487305,4233.461426,4221.153809,4218.077148,4220.256348,4218.205078,4220.641113,4215.128418,4212.820313,4201.666504,4230.641113,4236.282227,3505.000000,4.000000,82.000000,,,,0.000000,4.000000,4.000000,4.000000,4.000000,4.000000,4.000000,4.000000,4.000000,4.000000,4.000000,4.000000,4.000000,4.000000,4.000000,100.000000,,,,,,,,,,,,,,,,
1644854729.731526,178.000000,0.000000,4220.512695,4236.922852,4219.615234,4235.128418,4223.717773,4216.794922,4220.512695,4217.436035,4220.897461,4216.025879,4201.410156,4197.051270,4226.538574,4236.666504,3765.000000,4.000000,82.000000,,,,0.000000,4.000000,4.000000,4.000000,4.000000,4.000000,4.000000,4.000000,4.000000,4.000000,4.000000,4.000000,4.000000,4.000000,4.000000,100.000000,,,,,,,,,,,,,,,,
1644854729.735466,179.000000,0.000000,4213.461426,4227.307617,4217.692383,4230.000000,4221.538574,4215.512695,4222.179688,4216.282227,4218.717773,4215.512695,4193.846191,4187.051270,4218.974121,4238.589844,2315.000000,4.000000,82.000000,,,,0.000000,4.000000,4.000000,4.000000,4.000000,4.000000,4.000000,4.000000,4.000000,4.000000,4.000000,4.000000,4.000000,4.000000,4.000000,100.000000,,,,,,,,,,,,,,,,
1644854729.739406,180.000000,0.000000,4202.692383,4223.205078,4214.102539,4221.538574,4219.487305,4215.128418,4223.077148,4216.025879,4217.307617,4215.000000,4192.948730,4179.102539,4206.410156,4236.922852,3711.000000,4.000000,82.000000,,,,0.000000,4.000000,4.000000,4.000000,4.000000,4.000000,4.000000,4.000000,4.000000,4.000000,4.000000,4.000000,4.000000,4.000000,4.000000,100.000000,,,,,,,,,,,,,,,,
1644854729.743347,181.000000,0.000000,4193.846191,4225.897461,4209.743652,4217.179688,4221.410156,4216.282227,4221.922852,4216.538574,4217.948730,4216.025879,4197.051270,4178.205078,4191.922852,4231.153809,3505.000000,4.000000,82.000000,,,,0.000000,4.000000,4.000000,4.000000,4.000000,4.000000,4.000000,4.000000,4.000000,4.000000,4.000000,4.000000,4.000000,4.000000,4.000000,100.000000,,,,,,,,,,,,,,,,
1644854729.747287,182.000000,0.000000,4192.436035,4231.922852,4206.153809,4221.153809,4225.641113,4218.077148,4220.000000,4217.051270,4219.102539,4217.948730,4203.205078,4183.077148,4183.846191,4227.307617,3765.000000,4.000000,82.000000,,,,0.000000,4.000000,4.000000,4.000000,4.000000,4.000000,4.000000,4.000000,4.000000,4.000000,4.000000,4.000000,4.000000,4.000000,4.000000,100.000000,,,,,,,,,,,,,,,,
1644854729.751227,183.000000,0.000000,4198.333496,4235.769043,4204.871582,4230.000000,4226.922852,4219.358887,4220.000000,4216.282227,4218.205078,4218.205078,4208.974121,4188.461426,4190.384766,4231.794922,2315.000000,4.000000,82.000000,,,,0.000000,4.000000,4.000000,4.000000,4.000000,4.000000,4.000000,4.000000,4.000000,4.000000,4.000000,4.000000,4.000000,4.000000,4.000000,100.000000,,,,,,,,,,,,,,,,
1644854729.755167,184.000000,0.000000,4206.666504,4235.256348,4206.153809,4236.153809,4222.563965,4219.487305,4221.538574,4213.974121,4215.256348,4214.743652,4212.563965,4189.871582,4211.410156,4243.205078,3711.000000,4.000000,82.000000,,,,0.000000,4.000000,4.000000,4.000000,4.000000,4.000000,4.000000,4.000000,4.000000,4.000000,4.000000,4.000000,4.000000,4.000000,4.000000,100.000000,,,,,,,,,,,,,,,,
1644854729.759107,185.000000,0.000000,4211.794922,4231.666504,4208.974121,4234.743652,4215.897461,4218.461426,4222.436035,4211.794922,4212.692383,4208.974121,4213.077148,4187.563965,4237.179688,4252.436035,3505.000000,4.000000,82.000000,,,,0.000000,4.000000,4.000000,4.000000,4.000000,4.000000,4.000000,4.000000,4.000000,4.000000,4.000000,4.000000,4.000000,4.000000,4.000000,100.000000,,,,,,,,,,,,,,,,
1644854729.763047,186.000000,0.000000,4211.794922,4228.589844,4211.922852,4227.820313,4213.205078,4217.179688,4220.897461,4211.538574,4213.589844,4205.641113,4209.743652,4185.128418,4253.461426,4251.794922,3765.000000,4.000000,82.000000,,,,0.000000,4.000000,4.000000,4.000000,4.000000,4.000000,4.000000,4.000000,4.000000,4.000000,4.000000,4.000000,4.000000,4.000000,4.000000,100.000000,,,,,,,,,,,,,,,,
1644854729.766987,187.000000,0.000000,4208.846191,4228.589844,4213.974121,4221.153809,4217.692383,4216.282227,4218.461426,4214.230957,4218.077148,4208.333496,4204.615234,4185.256348,4252.563965,4242.051270,2315.000000,4.000000,82.000000,,,,0.000000,4.000000,4.000000,4.000000,4.000000,4.000000,4.000000,4.000000,4.000000,4.000000,4.000000,4.000000,4.000000,4.000000,4.000000,100.000000,,,,,,,,,,,,,,,,
1644854729.770927,188.000000,0.000000,4205.897461,4231.666504,4213.974121,4219.358887,4226.025879,4216.282227,4217.692383,4218.717773,4223.717773,4215.897461,4201.282227,4187.051270,4238.205078,4231.538574,3711.000000,4.000000,82.000000,,,,0.000000,4.000000,4.000000,4.000000,4.000000,4.000000,4.000000,4.000000,4.000000,4.000000,4.000000,4.000000,4.000000,4.000000,4.000000,100.000000,,,,,,,,,,,,,,,,
1644854729.774867,189.000000,0.000000,4204.615234,4235.897461,4212.179688,4223.205078,4231.538574,4217.179688,4219.358887,4222.692383,4227.436035,4223.717773,4202.820313,4187.436035,4222.179688,4228.205078,3505.000000,4.000000,82.000000,,,,0.000000,4.000000,4.000000,4.000000,4.000000,4.000000,4.000000,4.000000,4.000000,4.000000,4.000000,4.000000,4.000000,4.000000,4.000000,100.000000,,,,,,,,,,,,,,,,
1644854729.778807,190.000000,0.000000,4205.128418,4238.717773,4209.615234,4230.384766,4230.641113,4217.820313,4220.897461,4223.717773,4227.179688,4227.179688,4209.358887,4186.153809,4214.615234,4233.461426,3765.000000,4.000000,82.000000,,,,0.000000,4.000000,4.000000,4.000000,4.000000,4.000000,4.000000,4.000000,4.000000,4.000000,4.000000,4.000000,4.000000,4.000000,4.000000,100.000000,,,,,,,,,,,,,,,,
1644854729.782748,191.000000,0.000000,4207.179688,4238.974121,4208.589844,4238.077148,4225.384766,4217.436035,4220.512695,4221.025879,4223.461426,4224.871582,4217.179688,4186.025879,4217.179688,4242.179688,2315.000000,4.000000,82.000000,1,1,2,0.000000,4.000000,4.000000,4.000000,4.000000,4.000000,4.000000,4.000000,4.000000,4.000000,4.000000,4.000000,4.000000,4.000000,4.000000,100.000000,,,,,,,,,,,,,,,,
1644854729.786688,192.000000,0.000000,4209.743652,4236.538574,4210.769043,4243.333496,4220.897461,4216.153809,4218.717773,4216.410156,4218.205078,4218.461426,4221.410156,4189.743652,4224.230957,4247.948730,3711.000000,4.000000,82.000000,,,,0.000000,4.000000,4.000000,4.000000,4.000000,4.000000,4.000000,4.000000,4.000000,4.000000,4.000000,4.000000,4.000000,4.000000,4.000000,100.000000,,,,,,,,,,,,,,,,
1644854729.790628,193.000000,0.000000,4211.282227,4232.307617,4215.769043,4244.358887,4219.615234,4215.000000,4218.077148,4212.563965,4213.589844,4211.282227,4219.615234,4196.025879,4229.230957,4247.692383,3505.000000,4.000000,82.000000,,,,0.000000,4.000000,4.000000,4.000000,4.000000,4.000000,4.000000,4.000000,4.000000,4.000000,4.000000,4.000000,4.000000,4.000000,4.000000,100.000000,,,,,,,,,,,,,,,,
1644854729.794668,194.000000,0.000000,4211.538574,4228.333496,4220.897461,4240.128418,4220.769043,4214.871582,4219.358887,4211.410156,4211.282227,4206.153809,4213.333496,4200.641113,4230.384766,4242.436035,3765.000000,4.000000,82.000000,,,,0.000000,4.000000,4.000000,4.000000,4.000000,4.000000,4.000000,4.000000,4.000000,4.000000,4.000000,4.000000,4.000000,4.000000,4.000000,100.000000,1.000000,100.000000,4.000000,4.000000,4.000000,4.000000,4.000000,4.000000,4.000000,4.000000,4.000000,4.000000,4.000000,4.000000,4.000000,4.000000
1644854729.798608,195.000000,0.000000,4211.410156,4226.794922,4223.077148,4231.538574,4221.794922,4215.512695,4221.025879,4212.820313,4211.666504,4204.871582,4206.666504,4200.512695,4229.487305,4235.769043,2315.000000,4.000000,82.000000,,,,0.000000,4.000000,4.000000,4.000000,4.000000,4.000000,4.000000,4.000000,4.000000,4.000000,4.000000,4.000000,4.000000,4.000000,4.000000,100.000000,,,,,,,,,,,,,,,,
1644854729.802548,196.000000,0.000000,4211.410156,4228.717773,4221.538574,4222.692383,4221.538574,4216.025879,4221.025879,4214.487305,4214.615234,4206.666504,4203.077148,4196.282227,4228.205078,4232.307617,3711.000000,4.000000,82.000000,,,,0.000000,4.000000,4.000000,4.000000,4.000000,4.000000,4.000000,4.000000,4.000000,4.000000,4.000000,4.000000,4.000000,4.000000,4.000000,100.000000,,,,,,,,,,,,,,,,
1644854729.806488,197.000000,0.000000,4210.384766,4233.333496,4218.205078,4218.589844,4220.384766,4215.256348,4220.256348,4215.512695,4218.589844,4208.461426,4203.461426,4191.794922,4225.128418,4234.615234,3505.000000,4.000000,82.000000,,,,0.000000,4.000000,4.000000,4.000000,4.000000,4.000000,4.000000,4.000000,4.000000,4.000000,4.000000,4.000000,4.000000,4.000000,4.000000,100.000000,,,,,,,,,,,,,,,,
1644854729.810428,198.000000,0.000000,4207.051270,4238.333496,4216.666504,4221.282227,4220.000000,4213.846191,4221.025879,4216.922852,4221.666504,4207.563965,4205.512695,4191.153809,4219.102539,4241.153809,3765.000000,4.000000,82.000000,,,,0.000000,4.000000,4.000000,4.000000,4.000000,4.000000,4.000000,4.000000,4.000000,4.000000,4.000000,4.000000,4.000000,4.000000,4.000000,100.000000,,,,,,,,,,,,,,,,
1644854729.814368,199.000000,0.000000,4202.563965,4240.384766,4218.846191,4228.205078,4220.512695,4212.692383,4223.717773,4219.871582,4222.436035,4203.974121,4206.025879,4195.000000,4210.512695,4246.282227,2315.000000,4.000000,82.000000,,,,0.000000,4.000000,4.000000,4.000000,4.000000,4.000000,4.000000,4.000000,4.000000,4.000000,4.000000,4.000000,4.000000,4.000000,4.000000,100.000000,,,,,,,,,,,,,,,,
1644854729.818308,200.000000,0.000000,4199.743652,4238.717773,4222.948730,4233.333496,4220.641113,4213.077148,4225.897461,4223.333496,4221.410156,4201.666504,4203.589844,4200.897461,4202.820313,4245.000000,3711.000000,4.000000,82.000000,,,,0.000000,4.000000,4.000000,4.000000,4.000000,4.000000,4.000000,4.000000,4.000000,4.000000,4.000000,4.000000,4.000000,4.000000,4.000000,100.000000,,,,,,,,,,,,,,,,
1644854729.822249,201.000000,0.000000,4201.794922,4235.512695,4226.410156,4232.692383,4220.000000,4214.615234,4225.128418,4225.384766,4220.384766,4203.974121,4200.512695,4205.256348,4199.487305,4237.307617,3505.000000,4.000000,82.000000,,,,0.000000,4.000000,4.000000,4.000000,4.000000,4.000000,4.000000,4.000000,4.000000,4.000000,4.000000,4.000000,4.000000,4.000000,4.000000,100.000000,,,,,,,,,,,,,,,,
1644854729.826189,202.000000,0.000000,4209.743652,4233.589844,4228.333496,4228.077148,4219.743652,4216.153809,4222.948730,4225.384766,4221.410156,4210.512695,4199.743652,4206.282227,4202.563965,4229.615234,3765.000000,4.000000,82.000000,,,,0.000000,4.000000,4.000000,4.000000,4.000000,4.000000,4.000000,4.000000,4.000000,4.000000,4.000000,4.000000,4.000000,4.000000,4.000000,100.000000,,,,,,,,,,,,,,,,
1644854729.830129,203.000000,0.000000,4221.538574,4233.846191,4230.128418,4225.769043,4221.410156,4216.282227,4222.820313,4224.743652,4224.230957,4217.307617,4203.077148,4204.871582,4210.897461,4228.461426,2315.000000,4.000000,82.000000,,,,0.000000,4.000000,4.000000,4.000000,4.000000,4.000000,4.000000,4.000000,4.000000,4.000000,4.000000,4.000000,4.000000,4.000000,4.000000,100.000000,,,,,,,,,,,,,,,,
1644854729.834069,204.000000,0.000000,4232.051270,4234.487305,4232.307617,4230.384766,4224.615234,4215.641113,4226.025879,4225.512695,4227.051270,4220.384766,4210.000000,4203.333496,4221.666504,4235.641113,3711.000000,4.000000,82.000000,,,,0.000000,4.000000,4.000000,4.000000,4.000000,4.000000,4.000000,4.000000,4.000000,4.000000,4.000000,4.000000,4.000000,4.000000,4.000000,100.000000,,,,,,,,,,,,,,,,
1644854729.838009,205.000000,0.000000,4235.641113,4232.563965,4233.717773,4240.000000,4226.794922,4216.538574,4230.128418,4227.563965,4228.205078,4218.846191,4218.461426,4202.948730,4231.282227,4246.666504,3505.000000,4.000000,82.000000,,,,0.000000,4.000000,4.000000,4.000000,4.000000,4.000000,4.000000,4.000000,4.000000,4.000000,4.000000,4.000000,4.000000,4.000000,4.000000,100.000000,,,,,,,,,,,,,,,,
1644854729.841949,206.000000,0.000000,4229.743652,4227.948730,4232.692383,4247.948730,4226.025879,4220.641113,4231.538574,4229.358887,4227.307617,4214.743652,4225.128418,4203.333496,4237.563965,4255.769043,3765.000000,4.000000,82.000000,,,,0.000000,4.000000,4.000000,4.000000,4.000000,4.000000,4.000000,4.000000,4.000000,4.000000,4.000000,4.000000,4.000000,4.000000,4.000000,100.000000,,,,,,,,,,,,,,,,
1644854729.845889,207.000000,0.000000,4217.179688,4223.077148,4229.230957,4248.717773,4223.205078,4226.794922,4229.743652,4228.974121,4224.871582,4211.410156,4226.922852,4202.563965,4240.000000,4260.128418,2315.000000,4.000000,82.000000,,,,0.000000,4.000000,4.000000,4.000000,4.000000,4.000000,4.000000,4.000000,4.000000,4.000000,4.000000,4.000000,4.000000,4.000000,4.000000,100.000000,,,,,,,,,,,,,,,,
1644854729.849829,208.000000,0.000000,4205.384766,4221.922852,4225.384766,4242.179688,4221.794922,4231.666504,4227.307617,4226.538574,4222.051270,4211.025879,4222.563965,4200.384766,4238.461426,4259.615234,3711.000000,4.000000,82.000000,,,,0.000000,4.000000,4.000000,4.000000,4.000000,4.000000,4.000000,4.000000,4.000000,4.000000,4.000000,4.000000,4.000000,4.000000,4.000000,100.000000,,,,,,,,,,,,,,,,
1644854729.853769,209.000000,0.000000,4201.538574,4226.282227,4223.077148,4232.692383,4224.358887,4232.179688,4226.153809,4223.589844,4220.000000,4212.948730,4214.615234,4197.820313,4233.461426,4254.743652,3505.000000,4.000000,82.000000,,,,0.000000,4.000000,4.000000,4.000000,4.000000,4.000000,4.000000,4.000000,4.000000,4.000000,4.000000,4.000000,4.000000,4.000000,4.000000,100.000000,,,,,,,,,,,,,,,,
1644854729.857709,210.000000,0.000000,4207.563965,4234.615234,4222.820313,4225.512695,4230.641113,4228.589844,4225.641113,4221.794922,4219.615234,4215.128418,4207.436035,4195.897461,4226.025879,4245.769043,3765.000000,4.000000,82.000000,,,,0.000000,4.000000,4.000000,4.000000,4.000000,4.000000,4.000000,4.000000,4.000000,4.000000,4.000000,4.000000,4.000000,4.000000,4.000000,100.000000,,,,,,,,,,,,,,,,
1644854729.861650,211.000000,0.000000,4218.077148,4242.307617,4222.948730,4223.717773,4236.538574,4223.846191,4224.358887,4221.794922,4221.025879,4215.512695,4203.333496,4194.615234,4217.563965,4235.769043,2315.000000,4.000000,82.000000,,,,0.000000,4.000000,4.000000,4.000000,4.000000,4.000000,4.000000,4.000000,4.000000,4.000000,4.000000,4.000000,4.000000,4.000000,4.000000,100.000000,,,,,,,,,,,,,,,,
1644854729.865490,212.000000,0.000000,4225.512695,4245.256348,4221.922852,4227.436035,4238.461426,4221.025879,4222.948730,4222.563965,4223.077148,4213.589844,4201.666504,4192.436035,4210.000000,4229.871582,3711.000000,4.000000,82.000000,,,,0.000000,4.000000,4.000000,4.000000,4.000000,4.000000,4.000000,4.000000,4.000000,4.000000,4.000000,4.000000,4.000000,4.000000,4.000000,100.000000,,,,,,,,,,,,,,,,
1644854729.869430,213.000000,0.000000,4225.384766,4241.666504,4219.358887,4234.487305,4236.025879,4221.153809,4223.077148,4222.692383,4223.077148,4209.230957,4200.384766,4188.461426,4205.769043,4232.436035,3505.000000,4.000000,82.000000,,,,0.000000,4.000000,4.000000,4.000000,4.000000,4.000000,4.000000,4.000000,4.000000,4.000000,4.000000,4.000000,4.000000,4.000000,4.000000,100.000000,,,,,,,,,,,,,,,,
1644854729.873370,214.000000,0.000000,4219.102539,4233.717773,4216.025879,4241.153809,4232.179688,4222.436035,4224.743652,4221.282227,4219.871582,4202.820313,4199.615234,4184.743652,4206.538574,4241.025879,3765.000000,4.000000,82.000000,,,,0.000000,4.000000,4.000000,4.000000,4.000000,4.000000,4.000000,4.000000,4.000000,4.000000,4.000000,4.000000,4.000000,4.000000,4.000000,100.000000,,,,,,,,,,,,,,,,
1644854729.877310,215.000000,0.000000,4210.897461,4225.641113,4213.589844,4245.128418,4229.487305,4222.692383,4225.512695,4218.846191,4214.871582,4195.641113,4200.256348,4183.333496,4211.666504,4247.179688,2315.000000,4.000000,82.000000,,,,0.000000,4.000000,4.000000,4.000000,4.000000,4.000000,4.000000,4.000000,4.000000,4.000000,4.000000,4.000000,4.000000,4.000000,4.000000,100.000000,,,,,,,,,,,,,,,,
1644854729.881250,216.000000,0.000000,4203.461426,4221.282227,4212.179688,4245.384766,4227.563965,4221.153809,4222.436035,4216.666504,4211.282227,4190.128418,4202.436035,4185.000000,4217.948730,4244.230957,3711.000000,4.000000,82.000000,,,,0.000000,4.000000,4.000000,4.000000,4.000000,4.000000,4.000000,4.000000,4.000000,4.000000,4.000000,4.000000,4.000000,4.000000,4.000000,100.000000,,,,,,,,,,,,,,,,
1644854729.885190,217.000000,0.000000,4196.538574,4220.897461,4211.410156,4242.563965,4224.102539,4218.717773,4217.307617,4215.641113,4211.282227,4188.461426,4203.846191,4187.563965,4220.641113,4233.717773,3505.000000,4.000000,82.000000,,,,0.000000,4.000000,4.000000,4.000000,4.000000,4.000000,4.000000,4.000000,4.000000,4.000000,4.000000,4.000000,4.000000,4.000000,4.000000,100.000000,,,,,,,,,,,,,,,,
1644854729.889130,218.000000,0.000000,4189.487305,4223.077148,4210.641113,4237.692383,4218.461426,4216.794922,4214.230957,4215.897461,4213.846191,4191.794922,4201.922852,4188.333496,4217.563965,4224.743652,3765.000000,4.000000,82.000000,2,1,2,0.000000,4.000000,4.000000,4.000000,4.000000,4.000000,4.000000,4.000000,4.000000,4.000000,4.000000,4.000000,4.000000,4.000000,4.000000,100.000000,,,,,,,,,,,,,,,,
1644854729.893071,219.000000,0.000000,4184.487305,4225.641113,4210.128418,4232.051270,4213.205078,4216.410156,4216.282227,4217.051270,4217.563965,4199.358887,4197.563965,4186.025879,4211.410156,4224.871582,2315.000000,4.000000,82.000000,,,,0.000000,4.000000,4.000000,4.000000,4.000000,4.000000,4.000000,4.000000,4.000000,4.000000,4.000000,4.000000,4.000000,4.000000,4.000000,100.000000,,,,,,,,,,,,,,,,
1644854729.897011,220.000000,0.000000,4185.128418,4228.205078,4210.512695,4227.436035,4212.563965,4217.563965,4221.538574,4218.205078,4221.282227,4209.358887,4194.487305,4182.307617,4207.692383,4234.615234,3711.000000,4.000000,82.000000,,,,0.000000,4.000000,4.000000,4.000000,4.000000,4.000000,4.000000,4.000000,4.000000,4.000000,4.000000,4.000000,4.000000,4.000000,4.000000,100.000000,,,,,,,,,,,,,,,,
1644854729.900951,221.000000,0.000000,4193.461426,4230.897461,4211.794922,4225.641113,4219.230957,4219.743652,4225.769043,4219.230957,4224.358887,4218.974121,4196.666504,4179.871582,4211.282227,4247.307617,3505.000000,4.000000,82.000000,,,,0.000000,4.000000,4.000000,4.000000,4.000000,4.000000,4.000000,4.000000,4.000000,4.000000,4.000000,4.000000,4.000000,4.000000,4.000000,100.000000,,,,,,,,,,,,,,,,
1644854729.904891,222.000000,0.000000,4206.538574,4232.692383,4213.333496,4227.051270,4230.897461,4222.563965,4226.922852,4220.512695,4226.794922,4226.153809,4203.589844,4180.512695,4221.794922,4255.512695,3765.000000,4.000000,82.000000,,,,0.000000,4.000000,4.000000,4.000000,4.000000,4.000000,4.000000,4.000000,4.000000,4.000000,4.000000,4.000000,4.000000,4.000000,4.000000,100.000000,,,,,,,,,,,,,,,,
1644854729.908831,223.000000,0.000000,4217.179688,4232.563965,4214.358887,4231.410156,4242.692383,4225.512695,4227.179688,4222.563965,4228.333496,4229.871582,4211.410156,4183.333496,4233.717773,4255.512695,2315.000000,4.000000,82.000000,,,,0.000000,4.000000,4.000000,4.000000,4.000000,4.000000,4.000000,4.000000,4.000000,4.000000,4.000000,4.000000,4.000000,4.000000,4.000000,100.000000,,,,,,,,,,,,,,,,
1644854729.912771,224.000000,0.000000,4220.000000,4230.641113,4214.102539,4238.077148,4249.358887,4228.077148,4228.717773,4225.000000,4229.871582,4229.615234,4216.153809,4186.666504,4240.256348,4248.717773,3711.000000,4.000000,82.000000,,,,0.000000,4.000000,4.000000,4.000000,4.000000,4.000000,4.000000,4.000000,4.000000,4.000000,4.000000,4.000000,4.000000,4.000000,4.000000,100.000000,,,,,,,,,,,,,,,,
1644854729.916711,225.000000,0.000000,4215.384766,4229.743652,4213.077148,4245.897461,4248.717773,4229.743652,4231.025879,4227.436035,4232.051270,4226.153809,4217.179688,4189.743652,4239.230957,4239.487305,3505.000000,4.000000,82.000000,,,,0.000000,4.000000,4.000000,4.000000,4.000000,4.000000,4.000000,4.000000,4.000000,4.000000,4.000000,4.000000,4.000000,4.000000,4.000000,100.000000,,,,,,,,,,,,,,,,
1644854729.920551,226.000000,0.000000,4208.717773,4231.538574,4212.820313,4251.794922,4242.051270,4229.871582,4231.666504,4229.102539,4234.615234,4220.769043,4216.922852,4192.820313,4232.820313,4232.948730,3765.000000,4.000000,82.000000,,,,0.000000,4.000000,4.000000,4.000000,4.000000,4.000000,4.000000,4.000000,4.000000,4.000000,4.000000,4.000000,4.000000,4.000000,4.000000,100.000000,,,,,,,,,,,,,,,,
1644854729.924491,227.000000,0.000000,4205.512695,4235.000000,4213.846191,4251.794922,4232.948730,4227.179688,4229.487305,4229.743652,4235.512695,4214.743652,4217.179688,4196.282227,4225.256348,4232.051270,2315.000000,4.000000,82.000000,,,,0.000000,4.000000,4.000000,4.000000,4.000000,4.000000,4.000000,4.000000,4.000000,4.000000,4.000000,4.000000,4.000000,4.000000,4.000000,100.000000,,,,,,,,,,,,,,,,
1644854729.928432,228.000000,0.000000,4206.410156,4235.769043,4215.512695,4243.974121,4225.000000,4222.179688,4226.153809,4228.589844,4232.948730,4208.333496,4218.461426,4198.974121,4218.589844,4235.769043,3711.000000,4.000000,82.000000,,,,0.000000,4.000000,4.000000,4.000000,4.000000,4.000000,4.000000,4.000000,4.000000,4.000000,4.000000,4.000000,4.000000,4.000000,4.000000,100.000000,,,,,,,,,,,,,,,,
1644854729.932372,229.000000,0.000000,4207.948730,4231.538574,4216.025879,4232.179688,4220.256348,4216.794922,4223.717773,4225.256348,4227.051270,4202.436035,4218.717773,4199.230957,4212.948730,4239.487305,3505.000000,4.000000,82.000000,,,,0.000000,4.000000,4.000000,4.000000,4.000000,4.000000,4.000000,4.000000,4.000000,4.000000,4.000000,4.000000,4.000000,4.000000,4.000000,100.000000,,,,,,,,,,,,,,,,
1644854729.936312,230.000000,0.000000,4206.794922,4223.974121,4214.743652,4224.487305,4218.589844,4214.230957,4223.077148,4220.256348,4220.769043,4199.615234,4216.153809,4196.153809,4208.077148,4238.461426,3765.000000,4.000000,82.000000,,,,0.000000,4.000000,4.000000,4.000000,4.000000,4.000000,4.000000,4.000000,4.000000,4.000000,4.000000,4.000000,4.000000,4.000000,4.000000,100.000000,,,,,,,,,,,,,,,,
1644854729.940252,231.000000,0.000000,4203.589844,4218.077148,4212.563965,4227.307617,4218.205078,4215.897461,4223.333496,4215.769043,4217.692383,4202.563965,4209.743652,4191.153809,4204.743652,4232.563965,2315.000000,4.000000,82.000000,,,,0.000000,4.000000,4.000000,4.000000,4.000000,4.000000,4.000000,4.000000,4.000000,4.000000,4.000000,4.000000,4.000000,4.000000,4.000000,100.000000,,,,,,,,,,,,,,,,
1644854729.944192,232.000000,0.000000,4201.794922,4217.436035,4211.794922,4237.948730,4217.436035,4220.512695,4223.589844,4213.846191,4218.974121,4210.256348,4200.000000,4186.922852,4204.230957,4227.307617,3711.000000,4.000000,82.000000,,,,0.000000,4.000000,4.000000,4.000000,4.000000,4.000000,4.000000,4.000000,4.000000,4.000000,4.000000,4.000000,4.000000,4.000000,4.000000,100.000000,,,,,,,,,,,,,,,,
1644854729.948132,233.000000,0.000000,4203.717773,4221.282227,4213.717773,4246.538574,4216.153809,4224.743652,4224.743652,4215.000000,4222.436035,4217.179688,4189.615234,4186.153809,4206.922852,4228.205078,3505.000000,4.000000,82.000000,,,,0.000000,4.000000,4.000000,4.000000,4.000000,4.000000,4.000000,4.000000,4.000000,4.000000,4.000000,4.000000,4.000000,4.000000,4.000000,100.000000,,,,,,,,,,,,,,,,
1644854729.952072,234.000000,0.000000,4208.077148,4226.025879,4217.948730,4244.615234,4215.384766,4226.153809,4226.922852,4217.692383,4224.871582,4217.948730,4182.692383,4189.230957,4212.948730,4235.769043,3765.000000,4.000000,82.000000,,,,0.000000,4.000000,4.000000,4.000000,4.000000,4.000000,4.000000,4.000000,4.000000,4.000000,4.000000,4.000000,4.000000,4.000000,4.000000,100.000000,,,,,,,,,,,,,,,,
1644854729.956012,235.000000,0.000000,4211.666504,4228.205078,4222.436035,4232.307617,4216.666504,4223.974121,4228.333496,4219.615234,4224.743652,4212.563965,4183.205078,4194.743652,4221.153809,4244.230957,2315.000000,4.000000,82.000000,,,,0.000000,4.000000,4.000000,4.000000,4.000000,4.000000,4.000000,4.000000,4.000000,4.000000,4.000000,4.000000,4.000000,4.000000,4.000000,100.000000,,,,,,,,,,,,,,,,
1644854729.959952,236.000000,0.000000,4212.051270,4227.179688,4224.871582,4218.333496,4221.153809,4220.000000,4227.436035,4218.974121,4222.820313,4206.153809,4193.333496,4200.256348,4230.641113,4247.948730,3711.000000,4.000000,82.000000,,,,0.000000,4.000000,4.000000,4.000000,4.000000,4.000000,4.000000,4.000000,4.000000,4.000000,4.000000,4.000000,4.000000,4.000000,4.000000,100.000000,,,,,,,,,,,,,,,,
1644854729.963893,237.000000,0.000000,4208.717773,4224.230957,4223.846191,4212.692383,4228.333496,4216.410156,4224.230957,4216.538574,4221.666504,4204.743652,4210.641113,4203.717773,4240.128418,4246.025879,3505.000000,4.000000,82.000000,,,,0.000000,4.000000,4.000000,4.000000,4.000000,4.000000,4.000000,4.000000,4.000000,4.000000,4.000000,4.000000,4.000000,4.000000,4.000000,100.000000,,,,,,,,,,,,,,,,
1644854729.967833,238.000000,0.000000,4204.230957,4221.922852,4220.256348,4218.846191,4234.871582,4214.871582,4221.794922,4214.743652,4222.692383,4209.871582,4228.717773,4204.487305,4248.461426,4243.333496,3765.000000,4.000000,82.000000,,,,0.000000,4.000000,4.000000,4.000000,4.000000,4.000000,4.000000,4.000000,4.000000,4.000000,4.000000,4.000000,4.000000,4.000000,4.000000,100.000000,,,,,,,,,,,,,,,,
1644854729.971773,239.000000,0.000000,4202.692383,4222.563965,4216.410156,4231.794922,4237.179688,4215.512695,4221.922852,4215.641113,4225.000000,4218.589844,4240.000000,4203.077148,4254.358887,4244.615234,2315.000000,4.000000,82.000000,,,,0.000000,4.000000,4.000000,4.000000,4.000000,4.000000,4.000000,4.000000,4.000000,4.000000,4.000000,4.000000,4.000000,4.000000,4.000000,100.000000,,,,,,,,,,,,,,,,
1644854729.975713,240.000000,0.000000,4207.051270,4226.666504,4215.128418,4242.820313,4234.102539,4217.307617,4223.333496,4218.717773,4226.794922,4226.410156,4240.256348,4201.153809,4256.794922,4249.487305,3711.000000,4.000000,82.000000,,,,0.000000,4.000000,4.000000,4.000000,4.000000,4.000000,4.000000,4.000000,4.000000,4.000000,4.000000,4.000000,4.000000,4.000000,4.000000,100.000000,,,,,,,,,,,,,,,,
1644854729.979653,241.000000,0.000000,4216.538574,4232.051270,4217.051270,4245.384766,4228.589844,4218.974121,4223.333496,4222.051270,4227.051270,4230.641113,4231.666504,4201.025879,4256.282227,4254.230957,3505.000000,4.000000,82.000000,,,,0.000000,4.000000,4.000000,4.000000,4.000000,4.000000,4.000000,4.000000,4.000000,4.000000,4.000000,4.000000,4.000000,4.000000,4.000000,100.000000,,,,,,,,,,,,,,,,
1644854729.983593,242.000000,0.000000,4226.538574,4235.641113,4221.025879,4239.615234,4224.615234,4219.487305,4221.410156,4224.102539,4226.666504,4231.153809,4221.282227,4203.333496,4254.230957,4256.153809,3765.000000,4.000000,82.000000,,,,0.000000,4.000000,4.000000,4.000000,4.000000,4.000000,4.000000,4.000000,4.000000,4.000000,4.000000,4.000000,4.000000,4.000000,4.000000,100.000000,,,,,,,,,,,,,,,,
1644854729.987533,243.000000,0.000000,4232.307617,4235.641113,4224.743652,4231.282227,4224.102539,4218.717773,4220.000000,4225.384766,4227.820313,4229.487305,4216.282227,4206.794922,4252.436035,4256.025879,2315.000000,4.000000,82.000000,,,,0.000000,4.000000,4.000000,4.000000,4.000000,4.000000,4.000000,4.000000,4.000000,4.000000,4.000000,4.000000,4.000000,4.000000,4.000000,100.000000,,,,,,,,,,,,,,,,
1644854729.991373,244.000000,0.000000,4232.692383,4233.077148,4226.282227,4227.051270,4225.897461,4217.563965,4221.153809,4227.563965,4232.051270,4227.179688,4218.974121,4209.871582,4251.538574,4256.025879,3711.000000,4.000000,82.000000,,,,0.000000,4.000000,4.000000,4.000000,4.000000,4.000000,4.000000,4.000000,4.000000,4.000000,4.000000,4.000000,4.000000,4.000000,4.000000,100.000000,,,,,,,,,,,,,,,,
1644854729.995313,245.000000,0.000000,4229.358887,4230.897461,4225.256348,4229.230957,4227.948730,4217.179688,4223.589844,4231.153809,4237.948730,4226.025879,4226.153809,4211.025879,4250.512695,4256.153809,3505.000000,4.000000,82.000000,,,,0.000000,4.000000,4.000000,4.000000,4.000000,4.000000,4.000000,4.000000,4.000000,4.000000,4.000000,4.000000,4.000000,4.000000,4.000000,100.000000,,,,,,,,,,,,,,,,
1644854729.999254,246.000000,0.000000,4224.743652,4230.128418,4223.205078,4234.487305,4228.846191,4217.820313,4223.846191,4234.230957,4242.051270,4226.538574,4231.410156,4209.871582,4247.948730,4254.102539,3765.000000,4.000000,82.000000,,,,0.000000,4.000000,4.000000,4.000000,4.000000,4.000000,4.000000,4.000000,4.000000,4.000000,4.000000,4.000000,4.000000,4.000000,4.000000,100.000000,,,,,,,,,,,,,,,,
1644854730.003194,247.000000,0.000000,4220.384766,4230.000000,4222.563965,4238.333496,4227.436035,4218.333496,4221.153809,4234.487305,4241.538574,4228.077148,4230.641113,4207.051270,4243.333496,4249.615234,2315.000000,4.000000,82.000000,,,,0.000000,4.000000,4.000000,4.000000,4.000000,4.000000,4.000000,4.000000,4.000000,4.000000,4.000000,4.000000,4.000000,4.000000,4.000000,100.000000,,,,,,,,,,,,,,,,
1644854730.007134,248.000000,0.000000,4217.820313,4229.102539,4225.384766,4240.384766,4223.846191,4218.205078,4218.333496,4231.794922,4236.282227,4228.974121,4225.769043,4204.487305,4238.205078,4245.897461,3711.000000,4.000000,82.000000,,,,0.000000,4.000000,4.000000,4.000000,4.000000,4.000000,4.000000,4.000000,4.000000,4.000000,4.000000,4.000000,4.000000,4.000000,4.000000,100.000000,,,,,,,,,,,,,,,,
1644854730.011074,249.000000,0.000000,4217.948730,4228.205078,4230.769043,4243.717773,4220.641113,4217.820313,4219.487305,4228.077148,4229.615234,4228.717773,4222.820313,4204.743652,4235.384766,4246.538574,3505.000000,4.000000,82.000000,,,,0.000000,4.000000,4.000000,4.000000,4.000000,4.000000,4.000000,4.000000,4.000000,4.000000,4.000000,4.000000,4.000000,4.000000,4.000000,100.000000,,,,,,,,,,,,,,,,
1644854730.015014,250.000000,0.000000,4220.384766,4229.230957,4236.025879,4249.487305,4221.794922,4218.077148,4224.102539,4226.025879,4225.897461,4227.307617,4226.282227,4208.333496,4236.794922,4251.153809,3765.000000,4.000000,82.000000,,,,0.000000,4.000000,4.000000,4.000000,4.000000,4.000000,4.000000,4.000000,4.000000,4.000000,4.000000,4.000000,4.000000,4.000000,4.000000,100.000000,,,,,,,,,,,,,,,,
1644854730.018954,251.000000,0.000000,4222.179688,4233.077148,4238.077148,4253.846191,4229.615234,4218.846191,4227.563965,4226.410156,4227.051270,4225.641113,4234.358887,4213.077148,4241.922852,4255.641113,2315.000000,4.000000,82.000000,3,1,2,0.000000,4.000000,4.000000,4.000000,4.000000,4.000000,4.000000,4.000000,4.000000,4.000000,4.000000,4.000000,4.000000,4.000000,4.000000,100.000000,,,,,,,,,,,,,,,,
1644854730.022894,252.000000,0.000000,4221.025879,4236.922852,4236.282227,4252.051270,4240.769043,4219.102539,4226.282227,4227.692383,4230.897461,4223.589844,4240.128418,4215.897461,4247.820313,4257.307617,3711.000000,4.000000,82.000000,,,,0.000000,4.000000,4.000000,4.000000,4.000000,4.000000,4.000000,4.000000,4.000000,4.000000,4.000000,4.000000,4.000000,4.000000,4.000000,100.000000,,,,,,,,,,,,,,,,
1644854730.026834,253.000000,0.000000,4217.692383,4237.692383,4232.307617,4244.358887,4247.948730,4218.589844,4221.794922,4227.692383,4233.717773,4222.179688,4237.948730,4215.000000,4251.025879,4257.948730,3505.000000,4.000000,82.000000,,,,0.000000,4.000000,4.000000,4.000000,4.000000,4.000000,4.000000,4.000000,4.000000,4.000000,4.000000,4.000000,4.000000,4.000000,4.000000,100.000000,,,,,,,,,,,,,,,,
1644854730.030774,254.000000,0.000000,4215.897461,4234.615234,4229.487305,4236.666504,4246.025879,4217.307617,4218.846191,4225.769043,4232.820313,4222.307617,4227.948730,4210.384766,4250.897461,4260.384766,3765.000000,4.000000,82.000000,,,,0.000000,4.000000,4.000000,4.000000,4.000000,4.000000,4.000000,4.000000,4.000000,4.000000,4.000000,4.000000,4.000000,4.000000,4.000000,100.000000,,,,,,,,,,,,,,,,
1644854730.034715,255.000000,0.000000,4219.615234,4230.769043,4229.615234,4233.717773,4236.282227,4216.410156,4219.743652,4223.205078,4228.974121,4224.358887,4216.922852,4204.615234,4248.461426,4264.102539,112.000000,4.000000,82.000000,,,,0.000000,4.000000,4.000000,4.000000,4.000000,4.000000,4.000000,4.000000,4.000000,4.000000,4.000000,4.000000,4.000000,4.000000,4.000000,100.000000,,,,,,,,,,,,,,,,
1644854730.038655,0.000000,0.000000,4227.820313,4229.743652,4232.179688,4234.615234,4225.641113,4216.410156,4222.436035,4220.769043,4224.743652,4227.307617,4212.051270,4201.282227,4245.000000,4265.256348,3174.000000,4.000000,82.000000,,,,0.000000,4.000000,4.000000,4.000000,4.000000,4.000000,4.000000,4.000000,4.000000,4.000000,4.000000,4.000000,4.000000,4.000000,4.000000,100.000000,,,,,,,,,,,,,,,,
1644854730.042595,1.000000,0.000000,4234.871582,4232.436035,4234.615234,4234.358887,4220.128418,4217.179688,4223.461426,4218.717773,4221.666504,4227.820313,4215.128418,4202.179688,4240.256348,4260.769043,3328.000000,4.000000,82.000000,4,1,2,0.000000,4.000000,4.000000,4.000000,4.000000,4.000000,4.000000,4.000000,4.000000,4.000000,4.000000,4.000000,4.000000,4.000000,4.000000,100.000000,,,,,,,,,,,,,,,,
1644854730.046535,2.000000,0.000000,4233.846191,4235.769043,4234.358887,4229.743652,4220.384766,4217.563965,4222.692383,4216.025879,4219.230957,4222.563965,4220.641113,4205.384766,4233.461426,4252.436035,3537.000000,4.000000,82.000000,,,,0.000000,4.000000,4.000000,4.000000,4.000000,4.000000,4.000000,4.000000,4.000000,4.000000,4.000000,4.000000,4.000000,4.000000,4.000000,100.000000,,,,,,,,,,,,,,,,
1644854730.050475,3.000000,0.000000,4222.563965,4235.256348,4230.128418,4222.948730,4222.692383,4216.794922,4222.051270,4213.205078,4215.769043,4210.641113,4221.153809,4206.410156,4224.743652,4244.871582,3508.000000,4.000000,82.000000,,,,0.000000,4.000000,4.000000,4.000000,4.000000,4.000000,4.000000,4.000000,4.000000,4.000000,4.000000,4.000000,4.000000,4.000000,4.000000,100.000000,,,,,,,,,,,,,,,,
1644854730.054415,4.000000,0.000000,4206.153809,4229.102539,4222.563965,4219.230957,4224.358887,4215.512695,4222.563965,4211.410156,4211.666504,4196.282227,4214.871582,4202.563965,4216.282227,4240.128418,3578.000000,4.000000,82.000000,,,,0.000000,4.000000,4.000000,4.000000,4.000000,4.000000,4.000000,4.000000,4.000000,4.000000,4.000000,4.000000,4.000000,4.000000,4.000000,100.000000,,,,,,,,,,,,,,,,
1644854730.058255,5.000000,0.000000,4193.717773,4220.641113,4214.487305,4222.563965,4226.666504,4215.641113,4223.333496,4212.051270,4208.974121,4186.153809,4206.666504,4195.641113,4210.256348,4237.307617,3094.000000,4.000000,82.000000,,,,0.000000,4.000000,4.000000,4.000000,4.000000,4.000000,4.000000,4.000000,4.000000,4.000000,4.000000,4.000000,4.000000,4.000000,4.000000,100.000000,,,,,,,,,,,,,,,,
1644854730.062195,6.000000,0.000000,4192.436035,4215.000000,4209.487305,4231.666504,4232.307617,4218.333496,4223.717773,4215.256348,4210.384766,4185.384766,4203.589844,4190.512695,4206.666504,4235.384766,2369.000000,4.000000,82.000000,,,,0.000000,4.000000,4.000000,4.000000,4.000000,4.000000,4.000000,4.000000,4.000000,4.000000,4.000000,4.000000,4.000000,4.000000,4.000000,100.000000,,,,,,,,,,,,,,,,
1644854730.066135,7.000000,0.000000,4201.410156,4215.000000,4209.871582,4241.410156,4241.025879,4223.077148,4225.000000,4220.256348,4216.025879,4193.974121,4207.563965,4191.538574,4204.102539,4235.000000,2857.000000,4.000000,82.000000,,,,0.000000,4.000000,4.000000,4.000000,4.000000,4.000000,4.000000,4.000000,4.000000,4.000000,4.000000,4.000000,4.000000,4.000000,4.000000,100.000000,,,,,,,,,,,,,,,,
1644854730.070076,8.000000,0.000000,4213.205078,4219.230957,4214.230957,4246.538574,4248.461426,4227.179688,4228.205078,4225.128418,4223.589844,4206.794922,4213.846191,4198.205078,4202.051270,4237.307617,3034.000000,4.000000,82.000000,,,,0.000000,4.000000,4.000000,4.000000,4.000000,4.000000,4.000000,4.000000,4.000000,4.000000,4.000000,4.000000,4.000000,4.000000,4.000000,100.000000,,,,,,,,,,,,,,,,
1644854730.074016,9.000000,0.000000,4219.615234,4223.333496,4218.974121,4243.974121,4248.974121,4228.461426,4232.051270,4228.333496,4229.615234,4218.333496,4215.769043,4206.153809,4202.563965,4241.538574,3515.000000,4.000000,82.000000,,,,0.000000,4.000000,4.000000,4.000000,4.000000,4.000000,4.000000,4.000000,4.000000,4.000000,4.000000,4.000000,4.000000,4.000000,4.000000,100.000000,,,,,,,,,,,,,,,,
1644854730.077956,10.000000,0.000000,4218.205078,4223.974121,4220.641113,4234.358887,4241.410156,4226.282227,4233.077148,4228.589844,4231.794922,4225.000000,4211.794922,4209.743652,4209.358887,4245.512695,3579.000000,4.000000,82.000000,,,,0.000000,4.000000,4.000000,4.000000,4.000000,4.000000,4.000000,4.000000,4.000000,4.000000,4.000000,4.000000,4.000000,4.000000,4.000000,100.000000,,,,,,,,,,,,,,,,
1644854730.081896,11.000000,0.000000,4213.205078,4221.794922,4219.102539,4221.410156,4230.128418,4222.179688,4230.000000,4226.922852,4230.897461,4226.538574,4206.410156,4206.410156,4223.077148,4248.589844,2353.000000,4.000000,82.000000,,,,0.000000,4.000000,4.000000,4.000000,4.000000,4.000000,4.000000,4.000000,4.000000,4.000000,4.000000,4.000000,4.000000,4.000000,4.000000,100.000000,,,,,,,,,,,,,,,,
1644854730.085836,12.000000,0.000000,4210.128418,4219.615234,4216.410156,4211.153809,4221.410156,4218.333496,4225.641113,4225.641113,4229.102539,4223.974121,4205.384766,4198.077148,4238.589844,4251.666504,3506.000000,4.000000,82.000000,,,,0.000000,4.000000,4.000000,4.000000,4.000000,4.000000,4.000000,4.000000,4.000000,4.000000,4.000000,4.000000,4.000000,4.000000,4.000000,100.000000,,,,,,,,,,,,,,,,
1644854730.089776,13.000000,0.000000,4210.128418,4218.846191,4215.384766,4207.692383,4218.717773,4215.769043,4223.974121,4226.025879,4227.692383,4219.230957,4208.717773,4189.102539,4247.692383,4254.615234,3486.000000,4.000000,82.000000,,,,0.000000,4.000000,4.000000,4.000000,4.000000,4.000000,4.000000,4.000000,4.000000,4.000000,4.000000,4.000000,4.000000,4.000000,4.000000,100.000000,,,,,,,,,,,,,,,,
1644854730.093716,14.000000,0.000000,4210.384766,4218.717773,4216.153809,4209.743652,4220.128418,4215.256348,4225.512695,4227.436035,4226.666504,4213.589844,4212.307617,4183.589844,4245.384766,4255.128418,3579.000000,4.000000,82.000000,,,,0.000000,4.000000,4.000000,4.000000,4.000000,4.000000,4.000000,4.000000,4.000000,4.000000,4.000000,4.000000,4.000000,4.000000,4.000000,100.000000,,,,,,,,,,,,,,,,
1644854730.097656,15.000000,0.000000,4208.333496,4217.692383,4217.051270,4212.948730,4222.051270,4216.794922,4227.436035,4227.563965,4225.641113,4208.205078,4213.077148,4182.692383,4234.358887,4250.897461,2353.000000,4.000000,82.000000,,,,0.000000,4.000000,4.000000,4.000000,4.000000,4.000000,4.000000,4.000000,4.000000,4.000000,4.000000,4.000000,4.000000,4.000000,4.000000,100.000000,,,,,,,,,,,,,,,,
1644854730.101596,16.000000,0.000000,4205.256348,4216.025879,4215.769043,4214.102539,4222.820313,4219.615234,4227.179688,4225.641113,4225.000000,4204.615234,4212.307617,4184.358887,4222.563965,4243.846191,3506.000000,4.000000,82.000000,,,,0.000000,4.000000,4.000000,4.000000,4.000000,4.000000,4.000000,4.000000,4.000000,4.000000,4.000000,4.000000,4.000000,4.000000,4.000000,100.000000,,,,,,,,,,,,,,,,
1644854730.105537,17.000000,0.000000,4203.846191,4215.641113,4212.051270,4213.333496,4223.077148,4221.410156,4225.256348,4222.820313,4224.743652,4203.717773,4212.820313,4186.153809,4216.922852,4238.974121,3486.000000,4.000000,82.000000,,,,0.000000,4.000000,4.000000,4.000000,4.000000,4.000000,4.000000,4.000000,4.000000,4.000000,4.000000,4.000000,4.000000,4.000000,4.000000,100.000000,,,,,,,,,,,,,,,,
1644854730.109477,18.000000,0.000000,4204.487305,4216.794922,4207.820313,4212.948730,4223.717773,4220.000000,4223.974121,4220.641113,4224.358887,4205.512695,4213.589844,4185.769043,4218.461426,4239.230957,3579.000000,4.000000,82.000000,,,,0.000000,4.000000,4.000000,4.000000,4.000000,4.000000,4.000000,4.000000,4.000000,4.000000,4.000000,4.000000,4.000000,4.000000,4.000000,100.000000,,,,,,,,,,,,,,,,
1644854730.113417,19.000000,0.000000,4204.487305,4217.692383,4205.256348,4213.846191,4223.974121,4214.615234,4223.589844,4219.358887,4222.307617,4208.846191,4210.384766,4183.717773,4222.051270,4241.666504,2353.000000,4.000000,82.000000,,,,0.000000,4.000000,4.000000,4.000000,4.000000,4.000000,4.000000,4.000000,4.000000,4.000000,4.000000,4.000000,4.000000,4.000000,4.000000,100.000000,,,,,,,,,,,,,,,,
1644854730.117357,20.000000,0.000000,4200.897461,4215.384766,4204.871582,4215.128418,4222.436035,4207.563965,4222.307617,4217.563965,4218.846191,4212.563965,4201.538574,4181.794922,4220.897461,4240.000000,3506.000000,4.000000,82.000000,,,,0.000000,4.000000,4.000000,4.000000,4.000000,4.000000,4.000000,4.000000,4.000000,4.000000,4.000000,4.000000,4.000000,4.000000,4.000000,100.000000,,,,,,,,,,,,,,,,
1644854730.121297,21.000000,0.000000,4194.230957,4208.974121,4205.769043,4215.897461,4219.743652,4202.692383,4218.974121,4214.358887,4215.769043,4215.641113,4191.153809,4182.307617,4212.692383,4232.692383,3486.000000,4.000000,82.000000,,,,0.000000,4.000000,4.000000,4.000000,4.000000,4.000000,4.000000,4.000000,4.000000,4.000000,4.000000,4.000000,4.000000,4.000000,4.000000,100.000000,,,,,,,,,,,,,,,,
1644854730.125237,22.000000,0.000000,4188.974121,4200.897461,4207.307617,4216.025879,4218.077148,4203.077148,4216.153809,4211.538574,4215.128418,4217.179688,4186.922852,4184.871582,4201.025879,4225.128418,3579.000000,4.000000,82.000000,,,,0.000000,4.000000,4.000000,4.000000,4.000000,4.000000,4.000000,4.000000,4.000000,4.000000,4.000000,4.000000,4.000000,4.000000,4.000000,100.000000,,,,,,,,,,,,,,,,
1644854730.129177,23.000000,0.000000,4189.615234,4195.769043,4210.128418,4217.307617,4219.871582,4208.717773,4217.307617,4211.794922,4217.436035,4216.922852,4193.205078,4187.307617,4192.436035,4224.871582,2353.000000,4.000000,82.000000,,,,0.000000,4.000000,4.000000,4.000000,4.000000,4.000000,4.000000,4.000000,4.000000,4.000000,4.000000,4.000000,4.000000,4.000000,4.000000,100.000000,,,,,,,,,,,,,,,,
1644854730.133017,24.000000,0.000000,4197.948730,4197.436035,4214.487305,4221.282227,4225.641113,4216.666504,4223.077148,4216.666504,4221.410156,4215.384766,4206.666504,4188.077148,4192.563965,4234.102539,3506.000000,4.000000,82.000000,,,,0.000000,4.000000,4.000000,4.000000,4.000000,4.000000,4.000000,4.000000,4.000000,4.000000,4.000000,4.000000,4.000000,4.000000,4.000000,100.000000,,,,,,,,,,,,,,,,
1644854730.136957,25.000000,0.000000,4211.025879,4207.051270,4218.589844,4227.820313,4232.563965,4222.692383,4229.358887,4224.358887,4225.769043,4213.205078,4218.589844,4187.179688,4201.666504,4247.563965,3486.000000,4.000000,82.000000,,,,0.000000,4.000000,4.000000,4.000000,4.000000,4.000000,4.000000,4.000000,4.000000,4.000000,4.000000,4.000000,4.000000,4.000000,4.000000,100.000000,,,,,,,,,,,,,,,,
1644854730.140898,26.000000,0.000000,4222.820313,4221.153809,4219.487305,4232.948730,4235.769043,4223.846191,4231.666504,4230.256348,4228.717773,4211.025879,4221.153809,4186.538574,4214.871582,4256.794922,3579.000000,4.000000,82.000000,,,,0.000000,4.000000,4.000000,4.000000,4.000000,4.000000,4.000000,4.000000,4.000000,4.000000,4.000000,4.000000,4.000000,4.000000,4.000000,100.000000,,,,,,,,,,,,,,,,
1644854730.144838,27.000000,0.000000,4227.692383,4232.948730,4215.641113,4231.538574,4231.666504,4220.769043,4229.487305,4231.282227,4228.589844,4208.461426,4213.846191,4187.307617,4225.384766,4257.307617,2353.000000,4.000000,82.000000,,,,0.000000,4.000000,4.000000,4.000000,4.000000,4.000000,4.000000,4.000000,4.000000,4.000000,4.000000,4.000000,4.000000,4.000000,4.000000,100.000000,,,,,,,,,,,,,,,,
1644854730.148678,28.000000,0.000000,4223.205078,4236.282227,4209.230957,4221.794922,4220.897461,4216.282227,4226.282227,4227.436035,4224.358887,4205.769043,4204.358887,4188.846191,4229.102539,4251.410156,3506.000000,4.000000,82.000000,,,,0.000000,4.000000,4.000000,4.000000,4.000000,4.000000,4.000000,4.000000,4.000000,4.000000,4.000000,4.000000,4.000000,4.000000,4.000000,100.000000,,,,,,,,,,,,,,,,
1644854730.152618,29.000000,0.000000,4212.563965,4230.256348,4204.487305,4209.102539,4209.615234,4213.846191,4225.256348,4222.436035,4217.820313,4204.487305,4201.025879,4189.743652,4227.436035,4245.128418,3486.000000,4.000000,82.000000,,,,0.000000,4.000000,4.000000,4.000000,4.000000,4.000000,4.000000,4.000000,4.000000,4.000000,4.000000,4.000000,4.000000,4.000000,4.000000,100.000000,,,,,,,,,,,,,,,,
1644854730.156558,30.000000,0.000000,4202.179688,4220.256348,4204.615234,4202.436035,4205.641113,4215.000000,4226.282227,4220.256348,4214.102539,4207.051270,4206.153809,4189.358887,4225.128418,4243.589844,3579.000000,4.000000,82.000000,,,,0.000000,4.000000,4.000000,4.000000,4.000000,4.000000,4.000000,4.000000,4.000000,4.000000,4.000000,4.000000,4.000000,4.000000,4.000000,100.000000,,,,,,,,,,,,,,,,
1644854730.160498,31.000000,0.000000,4196.922852,4213.333496,4208.717773,4207.948730,4212.692383,4218.974121,4227.436035,4222.692383,4216.794922,4214.230957,4213.717773,4188.077148,4225.769043,4247.563965,2353.000000,4.000000,82.000000,,,,0.000000,4.000000,4.000000,4.000000,4.000000,4.000000,4.000000,4.000000,4.000000,4.000000,4.000000,4.000000,4.000000,4.000000,4.000000,100.000000,,,,,,,,,,,,,,,,
1644854730.164438,32.000000,0.000000,4196.922852,4212.307617,4212.948730,4222.436035,4226.666504,4222.692383,4227.179688,4227.436035,4224.358887,4222.692383,4215.000000,4186.922852,4228.717773,4253.717773,0.000000,4.000000,82.000000,,,,0.000000,4.000000,4.000000,4.000000,4.000000,4.000000,4.000000,4.000000,4.000000,4.000000,4.000000,4.000000,4.000000,4.000000,4.000000,100.000000,,,,,,,,,,,,,,,,
1644854730.168378,33.000000,0.000000,4198.717773,4213.717773,4213.205078,4235.000000,4237.820313,4223.333496,4226.282227,4230.641113,4230.897461,4225.897461,4207.051270,4186.153809,4229.615234,4256.922852,0.000000,4.000000,82.000000,,,,0.000000,4.000000,4.000000,4.000000,4.000000,4.000000,4.000000,4.000000,4.000000,4.000000,4.000000,4.000000,4.000000,4.000000,4.000000,100.000000,,,,,,,,,,,,,,,,
1644854730.172319,34.000000,0.000000,4198.717773,4212.307617,4208.589844,4235.384766,4238.461426,4220.128418,4224.743652,4229.358887,4231.153809,4219.615234,4195.641113,4184.743652,4224.871582,4252.948730,0.000000,4.000000,82.000000,,,,0.000000,4.000000,4.000000,4.000000,4.000000,4.000000,4.000000,4.000000,4.000000,4.000000,4.000000,4.000000,4.000000,4.000000,4.000000,100.000000,,,,,,,,,,,,,,,,
1644854730.176259,35.000000,0.000000,4196.410156,4206.025879,4201.410156,4221.794922,4228.205078,4215.000000,4221.794922,4223.974121,4224.615234,4206.025879,4189.487305,4181.538574,4214.743652,4241.666504,0.000000,4.000000,82.000000,,,,0.000000,4.000000,4.000000,4.000000,4.000000,4.000000,4.000000,4.000000,4.000000,4.000000,4.000000,4.000000,4.000000,4.000000,4.000000,100.000000,,,,,,,,,,,,,,,,
1644854730.180199,36.000000,0.000000,4194.358887,4198.461426,4195.256348,4203.205078,4213.846191,4210.384766,4217.051270,4217.820313,4215.641113,4193.333496,4192.948730,4176.282227,4203.333496,4228.205078,0.000000,4.000000,82.000000,,,,0.000000,4.000000,4.000000,4.000000,4.000000,4.000000,4.000000,4.000000,4.000000,4.000000,4.000000,4.000000,4.000000,4.000000,4.000000,100.000000,,,,,,,,,,,,,,,,
1644854730.184139,37.000000,0.000000,4194.871582,4194.358887,4192.563965,4191.153809,4203.205078,4208.333496,4213.077148,4214.871582,4209.871582,4189.487305,4202.051270,4170.384766,4195.512695,4220.256348,0.000000,4.000000,82.000000,,,,0.000000,4.000000,4.000000,4.000000,4.000000,4.000000,4.000000,4.000000,4.000000,4.000000,4.000000,4.000000,4.000000,4.000000,4.000000,100.000000,,,,,,,,,,,,,,,,
1644854730.188079,38.000000,0.000000,4197.179688,4195.897461,4193.717773,4191.666504,4199.743652,4209.358887,4213.077148,4216.666504,4209.487305,4195.256348,4208.461426,4167.179688,4194.102539,4221.794922,0.000000,4.000000,82.000000,,,,0.000000,4.000000,4.000000,4.000000,4.000000,4.000000,4.000000,4.000000,4.000000,4.000000,4.000000,4.000000,4.000000,4.000000,4.000000,100.000000,,,,,,,,,,,,,,,,
1644854730.192019,39.000000,0.000000,4197.948730,4200.641113,4197.307617,4201.025879,4201.410156,4212.307617,4217.563965,4221.153809,4213.717773,4204.230957,4207.563965,4168.717773,4198.589844,4230.000000,0.000000,4.000000,82.000000,,,,0.000000,4.000000,4.000000,4.000000,4.000000,4.000000,4.000000,4.000000,4.000000,4.000000,4.000000,4.000000,4.000000,4.000000,4.000000,100.000000,,,,,,,,,,,,,,,,
1644854730.195959,40.000000,0.000000,4195.384766,4204.487305,4201.410156,4210.641113,4203.461426,4215.641113,4222.692383,4224.230957,4218.974121,4208.717773,4201.153809,4174.230957,4206.538574,4237.307617,0.000000,4.000000,82.000000,,,,0.000000,4.000000,4.000000,4.000000,4.000000,4.000000,4.000000,4.000000,4.000000,4.000000,4.000000,4.000000,4.000000,4.000000,4.000000,100.000000,,,,,,,,,,,,,,,,
1644854730.199899,41.000000,0.000000,4191.025879,4205.128418,4205.128418,4215.128418,4202.820313,4217.563965,4224.102539,4223.717773,4222.051270,4205.897461,4195.000000,4180.384766,4216.025879,4238.846191,0.000000,4.000000,82.000000,,,,0.000000,4.000000,4.000000,4.000000,4.000000,4.000000,4.000000,4.000000,4.000000,4.000000,4.000000,4.000000,4.000000,4.000000,4.000000,100.000000,,,,,,,,,,,,,,,,
1644854730.203839,42.000000,0.000000,4188.974121,4204.487305,4208.333496,4214.871582,4200.384766,4217.436035,4221.410156,4220.641113,4221.794922,4200.384766,4193.461426,4184.358887,4225.512695,4236.410156,0.000000,4.000000,82.000000,,,,0.000000,4.000000,4.000000,4.000000,4.000000,4.000000,4.000000,4.000000,4.000000,4.000000,4.000000,4.000000,4.000000,4.000000,4.000000,100.000000,,,,,,,,,,,,,,,,
1644854730.207779,43.000000,0.000000,4192.307617,4205.256348,4212.051270,4213.974121,4201.410156,4215.641113,4218.461426,4217.820313,4219.871582,4198.974121,4195.769043,4185.512695,4233.205078,4236.025879,0.000000,4.000000,82.000000,,,,0.000000,4.000000,4.000000,4.000000,4.000000,4.000000,4.000000,4.000000,4.000000,4.000000,4.000000,4.000000,4.000000,4.000000,4.000000,100.000000,,,,,,,,,,,,,,,,
1644854730.211620,44.000000,0.000000,4200.256348,4208.461426,4216.282227,4215.000000,4210.128418,4213.974121,4218.846191,4217.948730,4219.358887,4204.487305,4198.717773,4186.282227,4236.794922,4241.025879,0.000000,4.000000,82.000000,,,,0.000000,4.000000,4.000000,4.000000,4.000000,4.000000,4.000000,4.000000,4.000000,4.000000,4.000000,4.000000,4.000000,4.000000,4.000000,100.000000,,,,,,,,,,,,,,,,
1644854730.215560,45.000000,0.000000,4209.102539,4212.179688,4220.000000,4217.692383,4225.384766,4214.102539,4222.436035,4221.538574,4222.820313,4214.358887,4199.871582,4189.487305,4235.384766,4249.102539,0.000000,4.000000,82.000000,,,,0.000000,4.000000,4.000000,4.000000,4.000000,4.000000,4.000000,4.000000,4.000000,4.000000,4.000000,4.000000,4.000000,4.000000,4.000000,100.000000,,,,,,,,,,,,,,,,
1644854730.219500,46.000000,0.000000,4215.128418,4213.461426,4222.179688,4219.743652,4240.128418,4217.051270,4225.769043,4227.179688,4229.230957,4223.461426,4199.871582,4195.769043,4230.641113,4255.000000,0.000000,4.000000,82.000000,,,,0.000000,4.000000,4.000000,4.000000,4.000000,4.000000,4.000000,4.000000,4.000000,4.000000,4.000000,4.000000,4.000000,4.000000,4.000000,100.000000,,,,,,,,,,,,,,,,
1644854730.223440,47.000000,0.000000,4217.051270,4211.794922,4222.179688,4219.743652,4246.410156,4222.436035,4226.922852,4232.307617,4235.256348,4227.692383,4202.179688,4202.692383,4225.384766,4256.282227,0.000000,4.000000,82.000000,,,,0.000000,4.000000,4.000000,4.000000,4.000000,4.000000,4.000000,4.000000,4.000000,4.000000,4.000000,4.000000,4.000000,4.000000,4.000000,100.000000,,,,,,,,,,,,,,,,
1644854730.227380,48.000000,0.000000,4216.282227,4208.974121,4220.512695,4218.077148,4241.666504,4227.692383,4226.538574,4234.871582,4237.820313,4227.307617,4209.871582,4206.538574,4221.922852,4254.615234,0.000000,4.000000,82.000000,,,,0.000000,4.000000,4.000000,4.000000,4.000000,4.000000,4.000000,4.000000,4.000000,4.000000,4.000000,4.000000,4.000000,4.000000,4.000000,100.000000,,,,,,,,,,,,,,,,
1644854730.231320,49.000000,0.000000,4215.384766,4207.820313,4218.461426,4216.410156,4230.384766,4230.641113,4226.025879,4233.974121,4235.769043,4224.615234,4222.051270,4205.769043,4220.769043,4252.692383,0.000000,4.000000,82.000000,,,,0.000000,4.000000,4.000000,4.000000,4.000000,4.000000,4.000000,4.000000,4.000000,4.000000,4.000000,4.000000,4.000000,4.000000,4.000000,100.000000,,,,,,,,,,,,,,,,
1644854730.235260,50.000000,0.000000,4214.743652,4209.615234,4217.051270,4216.538574,4219.615234,4229.615234,4224.487305,4229.358887,4230.769043,4221.794922,4232.820313,4201.410156,4220.256348,4250.384766,0.000000,4.000000,82.000000,,,,0.000000,4.000000,4.000000,4.000000,4.000000,4.000000,4.000000,4.000000,4.000000,4.000000,4.000000,4.000000,4.000000,4.000000,4.000000,100.000000,,,,,,,,,,,,,,,,
1644854730.239200,51.000000,0.000000,4212.692383,4211.794922,4215.769043,4218.333496,4213.077148,4225.769043,4220.641113,4222.051270,4224.871582,4219.102539,4235.256348,4196.025879,4218.333496,4246.025879,0.000000,4.000000,82.000000,,,,0.000000,4.000000,4.000000,4.000000,4.000000,4.000000,4.000000,4.000000,4.000000,4.000000,4.000000,4.000000,4.000000,4.000000,4.000000,100.000000,,,,,,,,,,,,,,,,
1644854730.243141,52.000000,0.000000,4207.692383,4211.666504,4214.102539,4220.256348,4209.230957,4220.897461,4215.384766,4214.615234,4219.743652,4214.871582,4226.666504,4191.025879,4214.358887,4239.871582,0.000000,4.000000,82.000000,,,,0.000000,4.000000,4.000000,4.000000,4.000000,4.000000,4.000000,4.000000,4.000000,4.000000,4.000000,4.000000,4.000000,4.000000,4.000000,100.000000,,,,,,,,,,,,,,,,
1644854730.247081,53.000000,0.000000,4201.794922,4208.846191,4211.153809,4220.641113,4205.897461,4217.307617,4212.307617,4210.128418,4216.153809,4209.102539,4211.410156,4187.179688,4210.641113,4235.128418,0.000000,4.000000,82.000000,,,,0.000000,4.000000,4.000000,4.000000,4.000000,4.000000,4.000000,4.000000,4.000000,4.000000,4.000000,4.000000,4.000000,4.000000,4.000000,100.000000,,,,,,,,,,,,,,,,
1644854730.251021,54.000000,0.000000,4199.615234,4206.538574,4207.820313,4218.846191,4203.589844,4216.410156,4213.461426,4209.615234,4214.102539,4204.871582,4197.948730,4184.743652,4210.256348,4235.000000,0.000000,4.000000,82.000000,,,,0.000000,4.000000,4.000000,4.000000,4.000000,4.000000,4.000000,4.000000,4.000000,4.000000,4.000000,4.000000,4.000000,4.000000,4.000000,100.000000,,,,,,,,,,,,,,,,
1644854730.254961,55.000000,0.000000,4204.230957,4208.589844,4205.128418,4216.153809,4205.512695,4217.563965,4216.538574,4211.410156,4213.077148,4205.897461,4193.205078,4183.589844,4215.897461,4238.717773,0.000000,4.000000,82.000000,,,,0.000000,4.000000,4.000000,4.000000,4.000000,4.000000,4.000000,4.000000,4.000000,4.000000,4.000000,4.000000,4.000000,4.000000,4.000000,100.000000,,,,,,,,,,,,,,,,
1644854730.258901,56.000000,0.000000,4213.589844,4214.487305,4204.230957,4214.615234,4213.205078,4218.974121,4217.436035,4212.692383,4212.307617,4212.436035,4197.051270,4182.948730,4227.051270,4243.077148,0.000000,4.000000,82.000000,,,,0.000000,4.000000,4.000000,4.000000,4.000000,4.000000,4.000000,4.000000,4.000000,4.000000,4.000000,4.000000,4.000000,4.000000,4.000000,100.000000,,,,,,,,,,,,,,,,
1644854730.262841,57.000000,0.000000,4221.410156,4220.384766,4205.641113,4215.512695,4223.846191,4219.230957,4214.871582,4212.692383,4211.282227,4220.128418,4203.974121,4182.307617,4239.871582,4245.897461,0.000000,4.000000,82.000000,,,,0.000000,4.000000,4.000000,4.000000,4.000000,4.000000,4.000000,4.000000,4.000000,4.000000,4.000000,4.000000,4.000000,4.000000,4.000000,100.000000,,,,,,,,,,,,,,,,
1644854730.266781,58.000000,0.000000,4222.563965,4222.692383,4209.230957,4218.717773,4232.307617,4218.589844,4212.436035,4212.820313,4210.128418,4223.333496,4207.563965,4181.538574,4248.846191,4247.307617,0.000000,4.000000,82.000000,,,,0.000000,4.000000,4.000000,4.000000,4.000000,4.000000,4.000000,4.000000,4.000000,4.000000,4.000000,4.000000,4.000000,4.000000,4.000000,100.000000,,,,,,,,,,,,,,,,
1644854730.270721,59.000000,0.000000,4217.948730,4221.794922,4214.102539,4221.410156,4234.871582,4218.589844,4214.487305,4215.384766,4210.384766,4220.769043,4207.179688,4182.179688,4250.641113,4247.820313,0.000000,4.000000,82.000000,,,,0.000000,4.000000,4.000000,4.000000,4.000000,4.000000,4.000000,4.000000,4.000000,4.000000,4.000000,4.000000,4.000000,4.000000,4.000000,100.000000,,,,,,,,,,,,,,,,
1644854730.274661,60.000000,0.000000,4213.077148,4221.282227,4218.077148,4220.769043,4232.820313,4220.256348,4221.025879,4221.153809,4213.846191,4216.794922,4207.307617,4186.410156,4246.538574,4247.820313,0.000000,4.000000,82.000000,,,,0.000000,4.000000,4.000000,4.000000,4.000000,4.000000,4.000000,4.000000,4.000000,4.000000,4.000000,4.000000,4.000000,4.000000,4.000000,100.000000,,,,,,,,,,,,,,,,
1644854730.278601,61.000000,0.000000,4213.077148,4224.102539,4219.871582,4216.794922,4230.256348,4222.692383,4227.179688,4228.077148,4220.769043,4217.563965,4211.922852,4194.230957,4241.538574,4247.051270,0.000000,4.000000,82.000000,,,,0.000000,4.000000,4.000000,4.000000,4.000000,4.000000,4.000000,4.000000,4.000000,4.000000,4.000000,4.000000,4.000000,4.000000,4.000000,100.000000,,,,,,,,,,,,,,,,
1644854730.282442,62.000000,0.000000,4218.205078,4229.230957,4219.615234,4212.051270,4229.871582,4223.589844,4228.717773,4232.820313,4227.948730,4224.230957,4219.102539,4202.948730,4240.000000,4246.282227,0.000000,4.000000,82.000000,,,,0.000000,4.000000,4.000000,4.000000,4.000000,4.000000,4.000000,4.000000,4.000000,4.000000,4.000000,4.000000,4.000000,4.000000,4.000000,100.000000,,,,,,,,,,,,,,,,
1644854730.286382,63.000000,0.000000,4224.230957,4232.820313,4218.461426,4210.641113,4229.743652,4221.666504,4225.512695,4232.051270,4231.025879,4231.538574,4223.205078,4207.692383,4241.794922,4246.538574,0.000000,4.000000,82.000000,,,,0.000000,4.000000,4.000000,4.000000,4.000000,4.000000,4.000000,4.000000,4.000000,4.000000,4.000000,4.000000,4.000000,4.000000,4.000000,100.000000,,,,,,,,,,,,,,,,
1644854730.290322,64.000000,0.000000,4225.897461,4231.922852,4217.436035,4215.000000,4226.153809,4218.205078,4221.153809,4226.153809,4227.692383,4232.820313,4221.153809,4205.641113,4244.230957,4246.410156,0.000000,4.000000,82.000000,,,,0.000000,4.000000,4.000000,4.000000,4.000000,4.000000,4.000000,4.000000,4.000000,4.000000,4.000000,4.000000,4.000000,4.000000,4.000000,100.000000,,,,,,,,,,,,,,,,
1644854730.294262,65.000000,0.000000,4221.153809,4226.794922,4216.666504,4224.102539,4217.563965,4215.512695,4218.461426,4218.461426,4219.487305,4225.897461,4215.384766,4197.820313,4244.358887,4243.846191,0.000000,4.000000,82.000000,,,,0.000000,4.000000,4.000000,4.000000,4.000000,4.000000,4.000000,4.000000,4.000000,4.000000,4.000000,4.000000,4.000000,4.000000,4.000000,100.000000,,,,,,,,,,,,,,,,
1644854730.298202,66.000000,0.000000,4212.307617,4220.128418,4215.641113,4233.461426,4208.205078,4215.384766,4217.820313,4212.820313,4210.897461,4214.615234,4211.153809,4189.230957,4242.307617,4238.205078,0.000000,4.000000,82.000000,,,,0.000000,4.000000,4.000000,4.000000,4.000000,4.000000,4.000000,4.000000,4.000000,4.000000,4.000000,4.000000,4.000000,4.000000,4.000000,100.000000,1.000000,100.000000,4.000000,4.000000,4.000000,4.000000,4.000000,4.000000,4.000000,4.000000,4.000000,4.000000,4.000000,4.000000,4.000000,4.000000
1644854730.302142,67.000000,0.000000,4203.589844,4214.871582,4214.743652,4238.333496,4204.743652,4217.692383,4218.205078,4210.512695,4206.410156,4205.512695,4211.282227,4184.743652,4239.871582,4232.948730,0.000000,4.000000,82.000000,,,,0.000000,4.000000,4.000000,4.000000,4.000000,4.000000,4.000000,4.000000,4.000000,4.000000,4.000000,4.000000,4.000000,4.000000,4.000000,100.000000,,,,,,,,,,,,,,,,
1644854730.306082,68.000000,0.000000,4198.589844,4212.307617,4214.615234,4236.794922,4210.512695,4220.000000,4219.358887,4210.769043,4206.410156,4202.307617,4213.205078,4185.512695,4238.717773,4232.179688,0.000000,4.000000,82.000000,,,,0.000000,4.000000,4.000000,4.000000,4.000000,4.000000,4.000000,4.000000,4.000000,4.000000,4.000000,4.000000,4.000000,4.000000,4.000000,100.000000,,,,,,,,,,,,,,,,
1644854730.310022,69.000000,0.000000,4198.333496,4212.692383,4215.897461,4231.153809,4221.153809,4219.743652,4221.666504,4212.051270,4208.589844,4204.615234,4211.666504,4188.717773,4238.461426,4236.025879,0.000000,4.000000,82.000000,,,,0.000000,4.000000,4.000000,4.000000,4.000000,4.000000,4.000000,4.000000,4.000000,4.000000,4.000000,4.000000,4.000000,4.000000,4.000000,100.000000,,,,,,,,,,,,,,,,
1644854730.313963,70.000000,0.000000,4201.153809,4215.384766,4217.179688,4225.769043,4228.589844,4216.666504,4224.230957,4213.205078,4210.769043,4209.230957,4204.871582,4190.512695,4237.692383,4238.589844,0.000000,4.000000,82.000000,,,,0.000000,4.000000,4.000000,4.000000,4.000000,4.000000,4.000000,4.000000,4.000000,4.000000,4.000000,4.000000,4.000000,4.000000,4.000000,100.000000,,,,,,,,,,,,,,,,
1644854730.317903,71.000000,0.000000,4204.743652,4218.717773,4216.794922,4222.179688,4227.948730,4213.589844,4225.769043,4214.615234,4212.820313,4213.333496,4196.922852,4189.615234,4235.256348,4233.717773,0.000000,4.000000,82.000000,,,,0.000000,4.000000,4.000000,4.000000,4.000000,4.000000,4.000000,4.000000,4.000000,4.000000,4.000000,4.000000,4.000000,4.000000,4.000000,100.000000,,,,,,,,,,,,,,,,
1644854730.321843,72.000000,0.000000,4207.436035,4220.769043,4213.846191,4218.846191,4222.051270,4213.461426,4226.153809,4217.179688,4215.769043,4215.256348,4194.487305,4187.307617,4231.410156,4222.051270,0.000000,4.000000,82.000000,,,,0.000000,4.000000,4.000000,4.000000,4.000000,4.000000,4.000000,4.000000,4.000000,4.000000,4.000000,4.000000,4.000000,4.000000,4.000000,100.000000,,,,,,,,,,,,,,,,
1644854730.325783,73.000000,0.000000,4208.589844,4220.256348,4209.743652,4213.077148,4217.051270,4217.563965,4227.051270,4221.025879,4219.871582,4214.871582,4200.128418,4185.769043,4227.436035,4212.051270,0.000000,4.000000,82.000000,,,,0.000000,4.000000,4.000000,4.000000,4.000000,4.000000,4.000000,4.000000,4.000000,4.000000,4.000000,4.000000,4.000000,4.000000,4.000000,100.000000,,,,,,,,,,,,,,,,
1644854730.329723,74.000000,0.000000,4207.820313,4217.436035,4206.922852,4205.256348,4216.282227,4223.333496,4229.102539,4224.615234,4223.333496,4212.948730,4209.615234,4186.025879,4224.487305,4212.051270,0.000000,4.000000,82.000000,,,,0.000000,4.000000,4.000000,4.000000,4.000000,4.000000,4.000000,4.000000,4.000000,4.000000,4.000000,4.000000,4.000000,4.000000,4.000000,100.000000,,,,,,,,,,,,,,,,
1644854730.333663,75.000000,0.000000,4205.384766,4213.717773,4205.897461,4198.077148,4217.307617,4227.051270,4230.641113,4226.025879,4224.358887,4210.897461,4216.410156,4187.051270,4222.948730,4221.666504,0.000000,4.000000,82.000000,,,,0.000000,4.000000,4.000000,4.000000,4.000000,4.000000,4.000000,4.000000,4.000000,4.000000,4.000000,4.000000,4.000000,4.000000,4.000000,100.000000,,,,,,,,,,,,,,,,
1644854730.337603,76.000000,0.000000,4202.307617,4210.384766,4205.769043,4195.000000,4215.769043,4226.282227,4229.102539,4224.230957,4222.820313,4210.641113,4217.179688,4188.077148,4221.922852,4231.922852,0.000000,4.000000,82.000000,,,,0.000000,4.000000,4.000000,4.000000,4.000000,4.000000,4.000000,4.000000,4.000000,4.000000,4.000000,4.000000,4.000000,4.000000,4.000000,100.000000,,,,,,,,,,,,,,,,
1644854730.341543,77.000000,0.000000,4199.615234,4207.692383,4205.256348,4196.794922,4209.743652,4221.538574,4224.615234,4219.743652,4220.000000,4212.436035,4212.948730,4188.333496,4220.128418,4233.461426,0.000000,4.000000,82.000000,,,,0.000000,4.000000,4.000000,4.000000,4.000000,4.000000,4.000000,4.000000,4.000000,4.000000,4.000000,4.000000,4.000000,4.000000,4.000000,100.000000,,,,,,,,,,,,,,,,
1644854730.345483,78.000000,0.000000,4198.205078,4205.512695,4203.846191,4203.077148,4202.179688,4215.897461,4220.641113,4215.000000,4217.820313,4215.384766,4207.307617,4187.820313,4217.563965,4224.871582,0.000000,4.000000,82.000000,,,,0.000000,4.000000,4.000000,4.000000,4.000000,4.000000,4.000000,4.000000,4.000000,4.000000,4.000000,4.000000,4.000000,4.000000,4.000000,100.000000,,,,,,,,,,,,,,,,
1644854730.349423,79.000000,0.000000,4198.717773,4204.743652,4202.307617,4211.794922,4198.589844,4212.948730,4220.384766,4212.948730,4217.692383,4217.948730,4203.589844,4186.794922,4217.179688,4214.230957,0.000000,4.000000,82.000000,,,,0.000000,4.000000,4.000000,4.000000,4.000000,4.000000,4.000000,4.000000,4.000000,4.000000,4.000000,4.000000,4.000000,4.000000,4.000000,100.000000,,,,,,,,,,,,,,,,
1644854730.353463,80.000000,0.000000,4203.077148,4207.436035,4202.563965,4220.384766,4202.051270,4213.974121,4223.205078,4215.256348,4219.615234,4220.512695,4203.461426,4185.769043,4223.461426,4210.897461,0.000000,4.000000,82.000000,,,,0.000000,4.000000,4.000000,4.000000,4.000000,4.000000,4.000000,4.000000,4.000000,4.000000,4.000000,4.000000,4.000000,4.000000,4.000000,100.000000,,,,,,,,,,,,,,,,
1644854730.357404,81.000000,0.000000,4211.538574,4213.846191,4205.384766,4225.512695,4211.282227,4217.436035,4225.384766,4220.256348,4222.948730,4223.846191,4206.153809,4185.384766,4237.436035,4218.589844,0.000000,4.000000,82.000000,,,,0.000000,4.000000,4.000000,4.000000,4.000000,4.000000,4.000000,4.000000,4.000000,4.000000,4.000000,4.000000,4.000000,4.000000,4.000000,100.000000,,,,,,,,,,,,,,,,
1644854730.361344,82.000000,0.000000,4221.282227,4220.897461,4210.256348,4224.615234,4220.384766,4220.641113,4224.743652,4224.871582,4226.025879,4226.794922,4209.358887,4186.282227,4253.589844,4232.948730,0.000000,4.000000,82.000000,,,,0.000000,4.000000,4.000000,4.000000,4.000000,4.000000,4.000000,4.000000,4.000000,4.000000,4.000000,4.000000,4.000000,4.000000,4.000000,100.000000,,,,,,,,,,,,,,,,
1644854730.365284,83.000000,0.000000,4226.282227,4224.487305,4215.000000,4217.563965,4223.461426,4221.794922,4222.692383,4227.051270,4227.948730,4226.666504,4211.153809,4189.102539,4262.563965,4245.897461,0.000000,4.000000,82.000000,,,,0.000000,4.000000,4.000000,4.000000,4.000000,4.000000,4.000000,4.000000,4.000000,4.000000,4.000000,4.000000,4.000000,4.000000,4.000000,100.000000,,,,,,,,,,,,,,,,
1644854730.369224,84.000000,0.000000,4222.436035,4222.179688,4217.692383,4208.077148,4219.871582,4220.512695,4222.179688,4226.410156,4227.820313,4221.025879,4211.282227,4193.461426,4258.461426,4251.025879,0.000000,4.000000,82.000000,,,,0.000000,4.000000,4.000000,4.000000,4.000000,4.000000,4.000000,4.000000,4.000000,4.000000,4.000000,4.000000,4.000000,4.000000,4.000000,100.000000,,,,,,,,,,,,,,,,
1644854730.373164,85.000000,0.000000,4211.538574,4215.512695,4218.205078,4201.922852,4214.487305,4217.948730,4223.846191,4224.615234,4225.769043,4211.666504,4210.512695,4197.948730,4244.871582,4246.794922,0.000000,4.000000,82.000000,,,,0.000000,4.000000,4.000000,4.000000,4.000000,4.000000,4.000000,4.000000,4.000000,4.000000,4.000000,4.000000,4.000000,4.000000,4.000000,100.000000,,,,,,,,,,,,,,,,
1644854730.377104,86.000000,0.000000,4201.410156,4209.615234,4217.436035,4203.333496,4212.179688,4215.769043,4225.000000,4222.692383,4222.692383,4204.102539,4210.384766,4200.897461,4232.051270,4236.153809,0.000000,4.000000,82.000000,,,,0.000000,4.000000,4.000000,4.000000,4.000000,4.000000,4.000000,4.000000,4.000000,4.000000,4.000000,4.000000,4.000000,4.000000,4.000000,100.000000,,,,,,,,,,,,,,,,
1644854730.381044,87.000000,0.000000,4198.589844,4209.487305,4216.282227,4210.641113,4212.563965,4214.615234,4222.820313,4221.410156,4219.615234,4203.077148,4212.692383,4201.538574,4227.692383,4225.641113,0.000000,4.000000,82.000000,,,,0.000000,4.000000,4.000000,4.000000,4.000000,4.000000,4.000000,4.000000,4.000000,4.000000,4.000000,4.000000,4.000000,4.000000,4.000000,100.000000,,,,,,,,,,,,,,,,
1644854730.384984,88.000000,0.000000,4203.974121,4214.743652,4215.641113,4217.820313,4211.538574,4214.358887,4218.717773,4221.153809,4216.794922,4207.820313,4217.820313,4200.512695,4230.897461,4221.282227,0.000000,4.000000,82.000000,,,,0.000000,4.000000,4.000000,4.000000,4.000000,4.000000,4.000000,4.000000,4.000000,4.000000,4.000000,4.000000,4.000000,4.000000,4.000000,100.000000,,,,,,,,,,,,,,,,
1644854730.388924,89.000000,0.000000,4211.922852,4220.000000,4215.000000,4217.948730,4206.282227,4213.974121,4216.410156,4221.153809,4214.102539,4213.333496,4224.615234,4199.615234,4233.589844,4224.487305,0.000000,4.000000,82.000000,,,,0.000000,4.000000,4.000000,4.000000,4.000000,4.000000,4.000000,4.000000,4.000000,4.000000,4.000000,4.000000,4.000000,4.000000,4.000000,100.000000,,,,,,,,,,,,,,,,
1644854730.392865,90.000000,0.000000,4216.794922,4219.615234,4214.102539,4210.000000,4199.358887,4213.589844,4217.948730,4220.512695,4211.282227,4214.871582,4229.358887,4199.871582,4229.871582,4231.282227,0.000000,4.000000,82.000000,,,,0.000000,4.000000,4.000000,4.000000,4.000000,4.000000,4.000000,4.000000,4.000000,4.000000,4.000000,4.000000,4.000000,4.000000,4.000000,100.000000,,,,,,,,,,,,,,,,
1644854730.396805,91.000000,0.000000,4217.436035,4213.333496,4212.820313,4200.000000,4196.794922,4213.974121,4221.410156,4218.846191,4209.102539,4212.051270,4228.077148,4201.282227,4222.051270,4235.641113,0.000000,4.000000,82.000000,,,,0.000000,4.000000,4.000000,4.000000,4.000000,4.000000,4.000000,4.000000,4.000000,4.000000,4.000000,4.000000,4.000000,4.000000,4.000000,100.000000,,,,,,,,,,,,,,,,
1644854730.400745,92.000000,0.000000,4216.410156,4206.410156,4211.922852,4197.436035,4201.538574,4214.871582,4223.589844,4216.538574,4208.461426,4208.205078,4218.461426,4203.077148,4217.820313,4235.128418,0.000000,4.000000,82.000000,,,,0.000000,4.000000,4.000000,4.000000,4.000000,4.000000,4.000000,4.000000,4.000000,4.000000,4.000000,4.000000,4.000000,4.000000,4.000000,100.000000,,,,,,,,,,,,,,,,
1644854730.404685,93.000000,0.000000,4216.410156,4204.358887,4212.820313,4206.794922,4211.025879,4215.769043,4223.846191,4215.384766,4208.974121,4207.051270,4203.461426,4204.358887,4223.333496,4232.820313,0.000000,4.000000,82.000000,,,,0.000000,4.000000,4.000000,4.000000,4.000000,4.000000,4.000000,4.000000,4.000000,4.000000,4.000000,4.000000,4.000000,4.000000,4.000000,100.000000,,,,,,,,,,,,,,,,
1644854730.408625,94.000000,0.000000,4216.538574,4208.205078,4215.256348,4222.307617,4218.846191,4216.025879,4224.615234,4216.410156,4209.615234,4209.102539,4191.153809,4204.871582,4235.897461,4232.563965,0.000000,4.000000,82.000000,,,,0.000000,4.000000,4.000000,4.000000,4.000000,4.000000,4.000000,4.000000,4.000000,4.000000,4.000000,4.000000,4.000000,4.000000,4.000000,100.000000,,,,,,,,,,,,,,,,
1644854730.412565,95.000000,0.000000,4214.615234,4214.230957,4217.692383,4230.384766,4220.384766,4215.897461,4226.922852,4218.846191,4208.974121,4211.538574,4189.487305,4204.358887,4246.794922,4234.871582,0.000000,4.000000,82.000000,,,,0.000000,4.000000,4.000000,4.000000,4.000000,4.000000,4.000000,4.000000,4.000000,4.000000,4.000000,4.000000,4.000000,4.000000,4.000000,100.000000,,,,,,,,,,,,,,,,
1644854730.416505,96.000000,0.000000,4209.615234,4216.666504,4218.077148,4221.025879,4215.769043,4216.282227,4229.102539,4220.256348,4207.307617,4211.282227,4199.487305,4202.948730,4247.563965,4236.794922,0.000000,4.000000,82.000000,,,,0.000000,4.000000,4.000000,4.000000,4.000000,4.000000,4.000000,4.000000,4.000000,4.000000,4.000000,4.000000,4.000000,4.000000,4.000000,100.000000,,,,,,,,,,,,,,,,
1644854730.420445,97.000000,0.000000,4204.230957,4213.205078,4216.025879,4197.179688,4207.948730,4217.051270,4228.717773,4218.974121,4206.282227,4207.563965,4213.717773,4200.128418,4237.948730,4235.769043,0.000000,4.000000,82.000000,,,,0.000000,4.000000,4.000000,4.000000,4.000000,4.000000,4.000000,4.000000,4.000000,4.000000,4.000000,4.000000,4.000000,4.000000,4.000000,100.000000,,,,,,,,,,,,,,,,
1644854730.424485,98.000000,0.000000,4202.692383,4206.538574,4213.589844,4174.102539,4201.153809,4217.307617,4226.025879,4216.153809,4207.051270,4203.077148,4222.307617,4196.282227,4225.384766,4233.333496,0.000000,4.000000,82.000000,,,,0.000000,4.000000,4.000000,4.000000,4.000000,4.000000,4.000000,4.000000,4.000000,4.000000,4.000000,4.000000,4.000000,4.000000,4.000000,100.000000,,,,,,,,,,,,,,,,
1644854730.428425,99.000000,0.000000,4207.307617,4202.051270,4213.205078,4168.205078,4198.846191,4216.410156,4224.102539,4214.871582,4209.487305,4201.153809,4221.282227,4193.077148,4218.846191,4232.179688,0.000000,4.000000,82.000000,,,,0.000000,4.000000,4.000000,4.000000,4.000000,4.000000,4.000000,4.000000,4.000000,4.000000,4.000000,4.000000,4.000000,4.000000,4.000000,100.000000,,,,,,,,,,,,,,,,
1644854730.432365,100.000000,0.000000,4215.512695,4203.589844,4215.512695,4183.205078,4201.794922,4215.000000,4224.615234,4217.179688,4212.436035,4203.205078,4214.615234,4192.692383,4221.922852,4231.794922,0.000000,4.000000,82.000000,,,,0.000000,4.000000,4.000000,4.000000,4.000000,4.000000,4.000000,4.000000,4.000000,4.000000,4.000000,4.000000,4.000000,4.000000,4.000000,100.000000,,,,,,,,,,,,,,,,
1644854730.436306,101.000000,0.000000,4221.025879,4210.384766,4218.589844,4208.589844,4207.820313,4214.230957,4226.282227,4221.410156,4214.230957,4207.820313,4209.487305,4196.025879,4229.871582,4228.846191,0.000000,4.000000,82.000000,,,,0.000000,4.000000,4.000000,4.000000,4.000000,4.000000,4.000000,4.000000,4.000000,4.000000,4.000000,4.000000,4.000000,4.000000,4.000000,100.000000,,,,,,,,,,,,,,,,
1644854730.440246,102.000000,0.000000,4218.205078,4218.333496,4219.871582,4227.820313,4212.563965,4215.000000,4226.410156,4224.102539,4213.717773,4211.282227,4210.256348,4201.153809,4233.974121,4221.922852,0.000000,4.000000,82.000000,,,,0.000000,4.000000,4.000000,4.000000,4.000000,4.000000,4.000000,4.000000,4.000000,4.000000,4.000000,4.000000,4.000000,4.000000,4.000000,100.000000,,,,,,,,,,,,,,,,
1644854730.444186,103.000000,0.000000,4206.538574,4222.948730,4218.589844,4230.384766,4212.948730,4217.179688,4225.000000,4223.589844,4211.666504,4212.051270,4216.025879,4204.358887,4230.384766,4214.871582,0.000000,4.000000,82.000000,,,,0.000000,4.000000,4.000000,4.000000,4.000000,4.000000,4.000000,4.000000,4.000000,4.000000,4.000000,4.000000,4.000000,4.000000,4.000000,100.000000,,,,,,,,,,,,,,,,
1644854730.448126,104.000000,0.000000,4192.307617,4221.666504,4216.410156,4217.820313,4209.487305,4219.102539,4224.358887,4221.153809,4209.743652,4211.794922,4221.794922,4202.948730,4222.692383,4214.230957,0.000000,4.000000,82.000000,,,,0.000000,4.000000,4.000000,4.000000,4.000000,4.000000,4.000000,4.000000,4.000000,4.000000,4.000000,4.000000,4.000000,4.000000,4.000000,100.000000,,,,,,,,,,,,,,,,
1644854730.452066,105.000000,0.000000,4183.589844,4215.769043,4216.025879,4200.384766,4206.410156,4219.615234,4225.897461,4219.487305,4209.871582,4213.589844,4222.307617,4196.794922,4218.333496,4221.922852,0.000000,4.000000,82.000000,,,,0.000000,4.000000,4.000000,4.000000,4.000000,4.000000,4.000000,4.000000,4.000000,4.000000,4.000000,4.000000,4.000000,4.000000,4.000000,100.000000,,,,,,,,,,,,,,,,
1644854730.456006,106.000000,0.000000,4184.743652,4208.846191,4217.307617,4189.102539,4207.820313,4218.461426,4227.948730,4220.128418,4211.922852,4217.948730,4215.897461,4189.102539,4221.538574,4233.461426,0.000000,4.000000,82.000000,,,,0.000000,4.000000,4.000000,4.000000,4.000000,4.000000,4.000000,4.000000,4.000000,4.000000,4.000000,4.000000,4.000000,4.000000,4.000000,100.000000,,,,,,,,,,,,,,,,
1644854730.459946,107.000000,0.000000,4193.333496,4204.230957,4217.563965,4188.589844,4213.333496,4217.307617,4227.820313,4221.794922,4214.615234,4222.051270,4205.384766,4183.333496,4229.743652,4241.538574,0.000000,4.000000,82.000000,,,,0.000000,4.000000,4.000000,4.000000,4.000000,4.000000,4.000000,4.000000,4.000000,4.000000,4.000000,4.000000,4.000000,4.000000,4.000000,100.000000,,,,,,,,,,,,,,,,
1644854730.463886,108.000000,0.000000,4203.717773,4203.717773,4215.384766,4196.794922,4218.846191,4217.948730,4225.512695,4223.077148,4216.282227,4222.307617,4197.563965,4182.051270,4236.922852,4243.077148,0.000000,4.000000,82.000000,,,,0.000000,4.000000,4.000000,4.000000,4.000000,4.000000,4.000000,4.000000,4.000000,4.000000,4.000000,4.000000,4.000000,4.000000,4.000000,100.000000,,,,,,,,,,,,,,,,
1644854730.467826,109.000000,0.000000,4212.307617,4208.333496,4212.563965,4207.563965,4220.384766,4220.769043,4224.102539,4223.717773,4216.922852,4218.846191,4197.948730,4185.512695,4238.974121,4240.769043,0.000000,4.000000,82.000000,,,,0.000000,4.000000,4.000000,4.000000,4.000000,4.000000,4.000000,4.000000,4.000000,4.000000,4.000000,4.000000,4.000000,4.000000,4.000000,100.000000,,,,,,,,,,,,,,,,
1644854730.471767,110.000000,0.000000,4219.871582,4218.077148,4212.948730,4216.410156,4217.820313,4224.871582,4226.153809,4225.256348,4217.948730,4215.897461,4207.820313,4192.563965,4237.051270,4239.358887,0.000000,4.000000,82.000000,,,,0.000000,4.000000,4.000000,4.000000,4.000000,4.000000,4.000000,4.000000,4.000000,4.000000,4.000000,4.000000,4.000000,4.000000,4.000000,100.000000,,,,,,,,,,,,,,,,
1644854730.475707,111.000000,0.000000,4228.077148,4230.769043,4218.846191,4222.436035,4214.743652,4228.333496,4229.615234,4228.333496,4221.153809,4218.461426,4222.563965,4201.025879,4236.025879,4240.769043,0.000000,4.000000,82.000000,,,,0.000000,4.000000,4.000000,4.000000,4.000000,4.000000,4.000000,4.000000,4.000000,4.000000,4.000000,4.000000,4.000000,4.000000,4.000000,100.000000,,,,,,,,,,,,,,,,
1644854730.479647,112.000000,0.000000,4235.769043,4240.641113,4227.307617,4227.179688,4213.974121,4229.871582,4231.282227,4231.410156,4226.153809,4226.922852,4234.230957,4208.077148,4238.846191,4243.333496,0.000000,4.000000,82.000000,,,,0.000000,4.000000,4.000000,4.000000,4.000000,4.000000,4.000000,4.000000,4.000000,4.000000,4.000000,4.000000,4.000000,4.000000,4.000000,100.000000,,,,,,,,,,,,,,,,
1644854730.483587,113.000000,0.000000,4238.205078,4240.769043,4232.563965,4231.282227,4215.641113,4229.358887,4230.000000,4232.307617,4230.128418,4235.897461,4237.179688,4210.897461,4243.974121,4244.358887,0.000000,4.000000,82.000000,,,,0.000000,4.000000,4.000000,4.000000,4.000000,4.000000,4.000000,4.000000,4.000000,4.000000,4.000000,4.000000,4.000000,4.000000,4.000000,100.000000,,,,,,,,,,,,,,,,
1644854730.487527,114.000000,0.000000,4232.051270,4229.615234,4230.384766,4232.179688,4217.051270,4227.307617,4227.820313,4230.256348,4230.256348,4238.333496,4230.769043,4208.461426,4247.051270,4242.436035,0.000000,4.000000,82.000000,,,,0.000000,4.000000,4.000000,4.000000,4.000000,4.000000,4.000000,4.000000,4.000000,4.000000,4.000000,4.000000,4.000000,4.000000,4.000000,100.000000,,,,,,,,,,,,,,,,
1644854730.491467,115.000000,0.000000,4219.743652,4213.974121,4222.563965,4227.436035,4216.410156,4224.871582,4227.436035,4226.410156,4226.666504,4231.922852,4219.102539,4202.179688,4245.384766,4238.333496,0.000000,4.000000,82.000000,,,,0.000000,4.000000,4.000000,4.000000,4.000000,4.000000,4.000000,4.000000,4.000000,4.000000,4.000000,4.000000,4.000000,4.000000,4.000000,100.000000,,,,,,,,,,,,,,,,
1644854730.495507,116.000000,0.000000,4210.000000,4204.615234,4214.230957,4218.846191,4215.256348,4222.692383,4227.820313,4222.563965,4222.307617,4221.282227,4208.974121,4196.025879,4240.897461,4234.102539,0.000000,4.000000,82.000000,,,,0.000000,4.000000,4.000000,4.000000,4.000000,4.000000,4.000000,4.000000,4.000000,4.000000,4.000000,4.000000,4.000000,4.000000,4.000000,100.000000,,,,,,,,,,,,,,,,
1644854730.499447,117.000000,0.000000,4210.384766,4208.461426,4210.256348,4212.820313,4216.666504,4220.897461,4226.794922,4219.743652,4219.871582,4214.487305,4205.641113,4193.077148,4238.461426,4232.436035,0.000000,4.000000,82.000000,,,,0.000000,4.000000,4.000000,4.000000,4.000000,4.000000,4.000000,4.000000,4.000000,4.000000,4.000000,4.000000,4.000000,4.000000,4.000000,100.000000,,,,,,,,,,,,,,,,
1644854730.503387,118.000000,0.000000,4221.282227,4223.461426,4211.922852,4215.128418,4222.436035,4219.358887,4223.717773,4218.333496,4219.615234,4215.641113,4210.128418,4194.615234,4241.282227,4235.384766,0.000000,4.000000,82.000000,,,,0.000000,4.000000,4.000000,4.000000,4.000000,4.000000,4.000000,4.000000,4.000000,4.000000,4.000000,4.000000,4.000000,4.000000,4.000000,100.000000,,,,,,,,,,,,,,,,
1644854730.507327,119.000000,0.000000,4235.641113,4240.897461,4217.436035,4224.358887,4229.871582,4218.333496,4220.641113,4218.077148,4219.230957,4221.794922,4218.333496,4198.717773,4247.307617,4242.436035,0.000000,4.000000,82.000000,,,,0.000000,4.000000,4.000000,4.000000,4.000000,4.000000,4.000000,4.000000,4.000000,4.000000,4.000000,4.000000,4.000000,4.000000,4.000000,100.000000,,,,,,,,,,,,,,,,
1644854730.511267,120.000000,0.000000,4244.487305,4252.692383,4224.487305,4233.205078,4234.358887,4217.820313,4220.128418,4218.461426,4217.051270,4226.282227,4223.461426,4202.692383,4251.153809,4248.974121,0.000000,4.000000,82.000000,,,,0.000000,4.000000,4.000000,4.000000,4.000000,4.000000,4.000000,4.000000,4.000000,4.000000,4.000000,4.000000,4.000000,4.000000,4.000000,100.000000,,,,,,,,,,,,,,,,
1644854730.515208,121.000000,0.000000,4243.974121,4255.641113,4230.897461,4234.743652,4232.307617,4217.692383,4221.410156,4218.333496,4213.205078,4224.615234,4222.051270,4204.102539,4247.948730,4250.256348,0.000000,4.000000,82.000000,,,,0.000000,4.000000,4.000000,4.000000,4.000000,4.000000,4.000000,4.000000,4.000000,4.000000,4.000000,4.000000,4.000000,4.000000,4.000000,100.000000,,,,,,,,,,,,,,,,
1644854730.519148,122.000000,0.000000,4237.051270,4251.794922,4234.230957,4228.077148,4225.384766,4217.692383,4222.179688,4216.410156,4209.871582,4217.436035,4216.153809,4202.179688,4237.692383,4245.256348,0.000000,4.000000,82.000000,,,,0.000000,4.000000,4.000000,4.000000,4.000000,4.000000,4.000000,4.000000,4.000000,4.000000,4.000000,4.000000,4.000000,4.000000,4.000000,100.000000,,,,,,,,,,,,,,,,
1644854730.523188,123.000000,0.000000,4229.487305,4245.128418,4233.589844,4219.615234,4218.077148,4217.436035,4221.153809,4212.563965,4207.692383,4208.974121,4210.256348,4197.179688,4224.487305,4238.077148,0.000000,4.000000,82.000000,,,,0.000000,4.000000,4.000000,4.000000,4.000000,4.000000,4.000000,4.000000,4.000000,4.000000,4.000000,4.000000,4.000000,4.000000,4.000000,100.000000,,,,,,,,,,,,,,,,
1644854730.527128,124.000000,0.000000,4226.666504,4239.743652,4229.487305,4218.333496,4214.487305,4216.922852,4219.871582,4207.948730,4205.384766,4202.563965,4206.153809,4190.641113,4213.205078,4234.487305,0.000000,4.000000,82.000000,,,,0.000000,4.000000,4.000000,4.000000,4.000000,4.000000,4.000000,4.000000,4.000000,4.000000,4.000000,4.000000,4.000000,4.000000,4.000000,100.000000,,,,,,,,,,,,,,,,
1644854730.531168,125.000000,0.000000,4230.897461,4238.717773,4224.487305,4228.333496,4214.230957,4216.410156,4220.128418,4204.487305,4201.153809,4198.205078,4202.179688,4184.230957,4206.794922,4237.051270,0.000000,4.000000,82.000000,,,,0.000000,4.000000,4.000000,4.000000,4.000000,4.000000,4.000000,4.000000,4.000000,4.000000,4.000000,4.000000,4.000000,4.000000,4.000000,100.000000,,,,,,,,,,,,,,,,
1644854730.535108,126.000000,0.000000,4239.743652,4242.563965,4221.666504,4245.128418,4214.358887,4216.922852,4221.410156,4203.333496,4195.384766,4194.102539,4197.948730,4180.256348,4205.512695,4242.948730,0.000000,4.000000,82.000000,,,,0.000000,4.000000,4.000000,4.000000,4.000000,4.000000,4.000000,4.000000,4.000000,4.000000,4.000000,4.000000,4.000000,4.000000,4.000000,100.000000,,,,,,,,,,,,,,,,
1644854730.539048,127.000000,0.000000,4247.692383,4249.102539,4222.436035,4258.333496,4213.717773,4219.230957,4222.051270,4204.615234,4191.025879,4189.871582,4194.871582,4180.897461,4207.179688,4247.307617,0.000000,4.000000,82.000000,,,,0.000000,4.000000,4.000000,4.000000,4.000000,4.000000,4.000000,4.000000,4.000000,4.000000,4.000000,4.000000,4.000000,4.000000,4.000000,100.000000,,,,,,,,,,,,,,,,
1644854730.542988,128.000000,0.000000,4249.743652,4253.589844,4225.769043,4259.615234,4214.358887,4223.205078,4222.051270,4207.948730,4191.153809,4188.333496,4194.615234,4186.282227,4207.051270,4246.410156,3378.000000,4.000000,82.000000,,,,0.000000,4.000000,4.000000,4.000000,4.000000,4.000000,4.000000,4.000000,4.000000,4.000000,4.000000,4.000000,4.000000,4.000000,4.000000,100.000000,,,,,,,,,,,,,,,,
1644854730.546928,129.000000,0.000000,4243.974121,4251.922852,4228.589844,4248.589844,4219.230957,4227.051270,4223.205078,4212.051270,4195.512695,4191.538574,4195.641113,4193.846191,4200.897461,4240.384766,3538.000000,4.000000,82.000000,,,,0.000000,4.000000,4.000000,4.000000,4.000000,4.000000,4.000000,4.000000,4.000000,4.000000,4.000000,4.000000,4.000000,4.000000,4.000000,100.000000,,,,,,,,,,,,,,,,
1644854730.550868,130.000000,0.000000,4231.922852,4242.820313,4227.307617,4231.922852,4227.948730,4228.717773,4225.897461,4214.871582,4201.025879,4197.179688,4194.743652,4198.974121,4188.205078,4230.897461,3546.000000,4.000000,82.000000,,,,0.000000,4.000000,4.000000,4.000000,4.000000,4.000000,4.000000,4.000000,4.000000,4.000000,4.000000,4.000000,4.000000,4.000000,4.000000,100.000000,,,,,,,,,,,,,,,,
1644854730.554808,131.000000,0.000000,4217.307617,4230.000000,4220.769043,4218.077148,4236.025879,4227.436035,4228.333496,4215.000000,4204.487305,4200.000000,4190.000000,4197.820313,4173.589844,4219.487305,3712.000000,4.000000,82.000000,,,,0.000000,4.000000,4.000000,4.000000,4.000000,4.000000,4.000000,4.000000,4.000000,4.000000,4.000000,4.000000,4.000000,4.000000,4.000000,100.000000,,,,,,,,,,,,,,,,
1644854730.558749,132.000000,0.000000,4203.077148,4219.358887,4211.282227,4211.025879,4237.563965,4224.230957,4227.563965,4212.436035,4204.615234,4195.897461,4183.461426,4191.538574,4163.717773,4208.461426,3539.000000,4.000000,82.000000,,,,0.000000,4.000000,4.000000,4.000000,4.000000,4.000000,4.000000,4.000000,4.000000,4.000000,4.000000,4.000000,4.000000,4.000000,4.000000,100.000000,,,,,,,,,,,,,,,,
