title:Alex-K1MZfv6CuarF-_jlQrdpaA, start timestamp:1645707555.097534, stop timestamp:1645707581.369458, headset type:EPOCPLUS, headset serial:3B9AEBFF, headset firmware:626, channels:55, sampling rate:eeg_256, samples:6669      , version:2.1, 
Timestamp,EEG.Counter,EEG.Interpolated,EEG.AF3,EEG.F7,EEG.F3,EEG.FC5,EEG.T7,EEG.P7,EEG.O1,EEG.O2,EEG.P8,EEG.T8,EEG.FC6,EEG.F4,EEG.F8,EEG.AF4,EEG.RawCq,EEG.Battery,EEG.BatteryPercent,MarkerIndex,MarkerType,MarkerValueInt,EEG.MarkerHardware,CQ.AF3,CQ.F7,CQ.F3,CQ.FC5,CQ.T7,CQ.P7,CQ.O1,CQ.O2,CQ.P8,CQ.T8,CQ.FC6,CQ.F4,CQ.F8,CQ.AF4,CQ.Overall,EQ.SampleRateQuality,EQ.OVERALL,EQ.AF3,EQ.F7,EQ.F3,EQ.FC5,EQ.T7,EQ.P7,EQ.O1,EQ.O2,EQ.P8,EQ.T8,EQ.FC6,EQ.F4,EQ.F8,EQ.AF4
1645707555.097534,75.000000,0.000000,4172.436035,4181.153809,4190.512695,4133.461426,4171.025879,4160.512695,4196.282227,4200.512695,4210.128418,4138.461426,4153.717773,4123.717773,4166.666504,4140.769043,0.000000,4.000000,95.000000,,,,0.000000,4.000000,4.000000,4.000000,4.000000,4.000000,4.000000,4.000000,4.000000,4.000000,4.000000,4.000000,4.000000,4.000000,4.000000,100.000000,,,,,,,,,,,,,,,,
1645707555.101374,76.000000,0.000000,4171.922852,4180.128418,4189.358887,4137.820313,4167.820313,4161.922852,4196.153809,4201.410156,4211.153809,4145.128418,4156.538574,4124.230957,4170.641113,4148.589844,0.000000,4.000000,95.000000,,,,0.000000,4.000000,4.000000,4.000000,4.000000,4.000000,4.000000,4.000000,4.000000,4.000000,4.000000,4.000000,4.000000,4.000000,4.000000,100.000000,,,,,,,,,,,,,,,,
1645707555.105314,77.000000,0.000000,4172.563965,4177.436035,4186.922852,4141.282227,4165.128418,4160.000000,4195.769043,4203.333496,4212.948730,4151.794922,4157.692383,4123.717773,4169.743652,4149.358887,0.000000,4.000000,95.000000,,,,0.000000,4.000000,4.000000,4.000000,4.000000,4.000000,4.000000,4.000000,4.000000,4.000000,4.000000,4.000000,4.000000,4.000000,4.000000,100.000000,,,,,,,,,,,,,,,,
1645707555.109254,78.000000,0.000000,4173.077148,4173.589844,4183.333496,4142.051270,4163.077148,4155.384766,4194.615234,4204.871582,4213.589844,4154.102539,4156.794922,4122.051270,4165.000000,4142.436035,0.000000,4.000000,95.000000,,,,0.000000,4.000000,4.000000,4.000000,4.000000,4.000000,4.000000,4.000000,4.000000,4.000000,4.000000,4.000000,4.000000,4.000000,4.000000,100.000000,,,,,,,,,,,,,,,,
1645707555.113195,79.000000,0.000000,4172.820313,4171.794922,4179.871582,4140.769043,4162.179688,4151.025879,4193.077148,4205.128418,4213.077148,4152.307617,4155.897461,4119.743652,4160.641113,4133.333496,0.000000,4.000000,95.000000,,,,0.000000,4.000000,4.000000,4.000000,4.000000,4.000000,4.000000,4.000000,4.000000,4.000000,4.000000,4.000000,4.000000,4.000000,4.000000,100.000000,,,,,,,,,,,,,,,,
1645707555.117135,80.000000,0.000000,4172.563965,4173.717773,4178.974121,4138.461426,4162.436035,4149.871582,4192.563965,4204.871582,4212.436035,4150.128418,4156.153809,4118.205078,4159.102539,4129.230957,0.000000,4.000000,95.000000,,,,0.000000,4.000000,4.000000,4.000000,4.000000,4.000000,4.000000,4.000000,4.000000,4.000000,4.000000,4.000000,4.000000,4.000000,4.000000,100.000000,,,,,,,,,,,,,,,,
1645707555.121075,81.000000,0.000000,4172.820313,4177.692383,4181.025879,4135.641113,4162.692383,4151.922852,4194.358887,4205.384766,4212.692383,4150.128418,4156.922852,4118.333496,4158.846191,4132.051270,0.000000,4.000000,95.000000,,,,0.000000,4.000000,4.000000,4.000000,4.000000,4.000000,4.000000,4.000000,4.000000,4.000000,4.000000,4.000000,4.000000,4.000000,4.000000,100.000000,,,,,,,,,,,,,,,,
1645707555.125015,82.000000,0.000000,4174.358887,4180.256348,4184.230957,4132.820313,4162.563965,4154.871582,4197.563965,4206.282227,4213.461426,4152.179688,4156.538574,4120.512695,4157.563965,4138.461426,0.000000,4.000000,95.000000,,,,0.000000,4.000000,4.000000,4.000000,4.000000,4.000000,4.000000,4.000000,4.000000,4.000000,4.000000,4.000000,4.000000,4.000000,4.000000,100.000000,,,,,,,,,,,,,,,,
1645707555.128955,83.000000,0.000000,4176.922852,4179.487305,4185.769043,4131.025879,4162.692383,4156.282227,4199.230957,4205.512695,4213.846191,4153.974121,4153.846191,4123.205078,4155.256348,4143.589844,0.000000,4.000000,95.000000,,,,0.000000,4.000000,4.000000,4.000000,4.000000,4.000000,4.000000,4.000000,4.000000,4.000000,4.000000,4.000000,4.000000,4.000000,4.000000,100.000000,,,,,,,,,,,,,,,,
1645707555.132895,84.000000,0.000000,4179.358887,4175.769043,4185.256348,4131.282227,4163.589844,4155.897461,4197.179688,4202.051270,4213.205078,4154.102539,4150.000000,4124.358887,4154.102539,4145.128418,0.000000,4.000000,95.000000,,,,0.000000,4.000000,4.000000,4.000000,4.000000,4.000000,4.000000,4.000000,4.000000,4.000000,4.000000,4.000000,4.000000,4.000000,4.000000,100.000000,,,,,,,,,,,,,,,,
1645707555.136835,85.000000,0.000000,4180.384766,4172.051270,4185.000000,4133.589844,4165.000000,4154.615234,4192.563965,4197.051270,4211.410156,4152.820313,4146.922852,4123.461426,4156.410156,4143.205078,0.000000,4.000000,95.000000,,,,0.000000,4.000000,4.000000,4.000000,4.000000,4.000000,4.000000,4.000000,4.000000,4.000000,4.000000,4.000000,4.000000,4.000000,4.000000,100.000000,,,,,,,,,,,,,,,,
1645707555.140775,86.000000,0.000000,4179.487305,4170.897461,4187.307617,4136.410156,4165.512695,4153.974121,4188.846191,4193.333496,4208.846191,4151.282227,4146.282227,4122.179688,4161.922852,4139.487305,0.000000,4.000000,95.000000,,,,0.000000,4.000000,4.000000,4.000000,4.000000,4.000000,4.000000,4.000000,4.000000,4.000000,4.000000,4.000000,4.000000,4.000000,4.000000,100.000000,,,,,,,,,,,,,,,,
1645707555.144715,87.000000,0.000000,4177.692383,4173.717773,4191.666504,4137.436035,4164.871582,4154.743652,4188.846191,4192.563965,4206.922852,4150.128418,4148.461426,4122.307617,4168.205078,4136.666504,0.000000,4.000000,95.000000,,,,0.000000,4.000000,4.000000,4.000000,4.000000,4.000000,4.000000,4.000000,4.000000,4.000000,4.000000,4.000000,4.000000,4.000000,4.000000,100.000000,,,,,,,,,,,,,,,,
1645707555.148655,88.000000,0.000000,4176.282227,4178.589844,4195.256348,4135.641113,4164.358887,4156.282227,4191.666504,4194.102539,4206.538574,4148.846191,4151.922852,4123.717773,4171.666504,4136.922852,0.000000,4.000000,95.000000,,,,0.000000,4.000000,4.000000,4.000000,4.000000,4.000000,4.000000,4.000000,4.000000,4.000000,4.000000,4.000000,4.000000,4.000000,4.000000,100.000000,,,,,,,,,,,,,,,,
1645707555.152596,89.000000,0.000000,4175.000000,4181.538574,4195.128418,4131.410156,4164.102539,4157.179688,4193.205078,4195.512695,4207.436035,4146.025879,4153.717773,4124.358887,4169.743652,4140.641113,0.000000,4.000000,95.000000,,,,0.000000,4.000000,4.000000,4.000000,4.000000,4.000000,4.000000,4.000000,4.000000,4.000000,4.000000,4.000000,4.000000,4.000000,4.000000,100.000000,,,,,,,,,,,,,,,,
1645707555.156536,90.000000,0.000000,4172.563965,4178.717773,4191.025879,4126.666504,4162.436035,4155.256348,4190.512695,4195.256348,4207.436035,4140.384766,4152.051270,4122.051270,4162.307617,4144.743652,0.000000,4.000000,95.000000,,,,0.000000,4.000000,4.000000,4.000000,4.000000,4.000000,4.000000,4.000000,4.000000,4.000000,4.000000,4.000000,4.000000,4.000000,4.000000,100.000000,,,,,,,,,,,,,,,,
1645707555.160576,91.000000,0.000000,4168.205078,4169.871582,4185.641113,4122.307617,4158.077148,4149.871582,4184.743652,4192.820313,4205.256348,4132.307617,4147.436035,4116.410156,4152.436035,4145.256348,0.000000,4.000000,95.000000,,,,0.000000,4.000000,4.000000,4.000000,4.000000,4.000000,4.000000,4.000000,4.000000,4.000000,4.000000,4.000000,4.000000,4.000000,4.000000,100.000000,,,,,,,,,,,,,,,,
1645707555.164516,92.000000,0.000000,4163.333496,4160.384766,4181.922852,4117.948730,4151.922852,4143.205078,4179.743652,4188.974121,4201.538574,4124.871582,4142.820313,4109.487305,4144.871582,4140.128418,0.000000,4.000000,95.000000,,,,0.000000,4.000000,4.000000,4.000000,4.000000,4.000000,4.000000,4.000000,4.000000,4.000000,4.000000,4.000000,4.000000,4.000000,4.000000,100.000000,,,,,,,,,,,,,,,,
1645707555.168456,93.000000,0.000000,4159.743652,4157.051270,4180.512695,4112.820313,4147.436035,4139.871582,4178.589844,4185.000000,4198.717773,4122.307617,4140.512695,4104.871582,4142.563965,4131.282227,0.000000,4.000000,95.000000,,,,0.000000,4.000000,4.000000,4.000000,4.000000,4.000000,4.000000,4.000000,4.000000,4.000000,4.000000,4.000000,4.000000,4.000000,4.000000,100.000000,,,,,,,,,,,,,,,,
1645707555.172396,94.000000,0.000000,4158.717773,4162.307617,4179.871582,4107.436035,4146.922852,4141.922852,4180.384766,4181.922852,4198.461426,4126.666504,4140.897461,4104.871582,4144.871582,4123.717773,0.000000,4.000000,95.000000,,,,0.000000,4.000000,4.000000,4.000000,4.000000,4.000000,4.000000,4.000000,4.000000,4.000000,4.000000,4.000000,4.000000,4.000000,4.000000,100.000000,,,,,,,,,,,,,,,,
1645707555.176336,95.000000,0.000000,4159.102539,4171.410156,4178.205078,4103.846191,4150.000000,4147.307617,4182.436035,4180.641113,4199.743652,4134.615234,4141.794922,4108.717773,4147.307617,4120.897461,0.000000,4.000000,95.000000,,,,0.000000,4.000000,4.000000,4.000000,4.000000,4.000000,4.000000,4.000000,4.000000,4.000000,4.000000,4.000000,4.000000,4.000000,4.000000,100.000000,,,,,,,,,,,,,,,,
1645707555.180276,96.000000,0.000000,4160.000000,4177.307617,4175.641113,4105.000000,4153.717773,4151.666504,4183.205078,4181.538574,4200.641113,4140.769043,4141.153809,4112.563965,4146.538574,4122.820313,0.000000,4.000000,95.000000,,,,0.000000,4.000000,4.000000,4.000000,4.000000,4.000000,4.000000,4.000000,4.000000,4.000000,4.000000,4.000000,4.000000,4.000000,4.000000,100.000000,,,,,,,,,,,,,,,,
1645707555.184116,97.000000,0.000000,4161.282227,4176.153809,4173.717773,4111.794922,4156.025879,4152.307617,4182.948730,4184.743652,4200.512695,4141.410156,4139.615234,4112.563965,4143.333496,4125.897461,0.000000,4.000000,95.000000,,,,0.000000,4.000000,4.000000,4.000000,4.000000,4.000000,4.000000,4.000000,4.000000,4.000000,4.000000,4.000000,4.000000,4.000000,4.000000,100.000000,,,,,,,,,,,,,,,,
1645707555.188057,98.000000,0.000000,4162.820313,4170.512695,4174.230957,4122.436035,4157.436035,4150.641113,4183.077148,4189.230957,4200.512695,4138.333496,4139.487305,4108.333496,4142.179688,4126.282227,0.000000,4.000000,95.000000,,,,0.000000,4.000000,4.000000,4.000000,4.000000,4.000000,4.000000,4.000000,4.000000,4.000000,4.000000,4.000000,4.000000,4.000000,4.000000,100.000000,,,,,,,,,,,,,,,,
1645707555.191997,99.000000,0.000000,4163.974121,4165.641113,4176.922852,4131.794922,4159.230957,4149.230957,4183.589844,4192.820313,4201.794922,4136.025879,4141.666504,4102.692383,4146.025879,4122.179688,0.000000,4.000000,95.000000,,,,0.000000,4.000000,4.000000,4.000000,4.000000,4.000000,4.000000,4.000000,4.000000,4.000000,4.000000,4.000000,4.000000,4.000000,4.000000,100.000000,,,,,,,,,,,,,,,,
1645707555.196037,100.000000,0.000000,4163.077148,4163.846191,4179.743652,4134.743652,4160.769043,4149.358887,4184.358887,4193.846191,4203.717773,4136.410156,4144.743652,4099.743652,4152.692383,4114.871582,0.000000,4.000000,95.000000,,,,0.000000,4.000000,4.000000,4.000000,4.000000,4.000000,4.000000,4.000000,4.000000,4.000000,4.000000,4.000000,4.000000,4.000000,4.000000,100.000000,,,,,,,,,,,,,,,,
1645707555.199977,101.000000,0.000000,4159.487305,4163.461426,4180.000000,4129.615234,4159.871582,4149.358887,4184.615234,4192.436035,4204.487305,4138.461426,4146.025879,4100.897461,4156.538574,4109.102539,0.000000,4.000000,95.000000,,,,0.000000,4.000000,4.000000,4.000000,4.000000,4.000000,4.000000,4.000000,4.000000,4.000000,4.000000,4.000000,4.000000,4.000000,4.000000,100.000000,,,,,,,,,,,,,,,,
1645707555.203917,102.000000,0.000000,4155.000000,4162.436035,4176.153809,4119.358887,4155.512695,4147.436035,4184.358887,4189.871582,4203.333496,4139.102539,4144.871582,4104.230957,4154.230957,4109.102539,0.000000,4.000000,95.000000,,,,0.000000,4.000000,4.000000,4.000000,4.000000,4.000000,4.000000,4.000000,4.000000,4.000000,4.000000,4.000000,4.000000,4.000000,4.000000,100.000000,,,,,,,,,,,,,,,,
1645707555.207857,103.000000,0.000000,4152.820313,4161.153809,4169.487305,4109.230957,4149.871582,4143.717773,4183.333496,4187.820313,4201.538574,4137.436035,4143.333496,4106.025879,4147.820313,4115.897461,0.000000,4.000000,95.000000,,,,0.000000,4.000000,4.000000,4.000000,4.000000,4.000000,4.000000,4.000000,4.000000,4.000000,4.000000,4.000000,4.000000,4.000000,4.000000,100.000000,,,,,,,,,,,,,,,,
1645707555.211797,104.000000,0.000000,4155.256348,4161.922852,4162.820313,4103.461426,4146.538574,4140.512695,4181.538574,4187.692383,4200.384766,4134.743652,4144.102539,4104.230957,4142.948730,4125.384766,0.000000,4.000000,95.000000,,,,0.000000,4.000000,4.000000,4.000000,4.000000,4.000000,4.000000,4.000000,4.000000,4.000000,4.000000,4.000000,4.000000,4.000000,4.000000,100.000000,,,,,,,,,,,,,,,,
1645707555.215737,105.000000,0.000000,4160.641113,4165.000000,4160.000000,4103.077148,4146.794922,4139.102539,4180.000000,4189.358887,4200.641113,4132.436035,4147.051270,4099.487305,4143.077148,4131.794922,0.000000,4.000000,95.000000,,,,0.000000,4.000000,4.000000,4.000000,4.000000,4.000000,4.000000,4.000000,4.000000,4.000000,4.000000,4.000000,4.000000,4.000000,4.000000,100.000000,,,,,,,,,,,,,,,,
1645707555.219677,106.000000,0.000000,4164.487305,4167.051270,4162.563965,4106.666504,4148.717773,4139.487305,4180.256348,4192.179688,4201.538574,4131.025879,4149.487305,4094.230713,4147.563965,4132.051270,0.000000,4.000000,95.000000,,,,0.000000,4.000000,4.000000,4.000000,4.000000,4.000000,4.000000,4.000000,4.000000,4.000000,4.000000,4.000000,4.000000,4.000000,4.000000,100.000000,,,,,,,,,,,,,,,,
1645707555.223617,107.000000,0.000000,4163.717773,4164.743652,4169.102539,4112.948730,4150.000000,4139.871582,4182.307617,4194.358887,4202.436035,4130.769043,4148.589844,4090.769287,4152.051270,4128.333496,0.000000,4.000000,95.000000,,,,0.000000,4.000000,4.000000,4.000000,4.000000,4.000000,4.000000,4.000000,4.000000,4.000000,4.000000,4.000000,4.000000,4.000000,4.000000,100.000000,,,,,,,,,,,,,,,,
1645707555.227557,108.000000,0.000000,4159.230957,4158.974121,4175.384766,4120.384766,4149.102539,4139.871582,4184.102539,4194.230957,4202.436035,4132.436035,4144.615234,4090.641113,4153.205078,4124.615234,0.000000,4.000000,95.000000,,,,0.000000,4.000000,4.000000,4.000000,4.000000,4.000000,4.000000,4.000000,4.000000,4.000000,4.000000,4.000000,4.000000,4.000000,4.000000,100.000000,,,,,,,,,,,,,,,,
1645707555.231498,109.000000,0.000000,4155.897461,4154.615234,4178.461426,4127.692383,4146.282227,4139.487305,4182.820313,4191.410156,4201.794922,4136.410156,4140.000000,4093.461426,4150.256348,4122.948730,0.000000,4.000000,95.000000,,,,0.000000,4.000000,4.000000,4.000000,4.000000,4.000000,4.000000,4.000000,4.000000,4.000000,4.000000,4.000000,4.000000,4.000000,4.000000,100.000000,,,,,,,,,,,,,,,,
1645707555.235438,110.000000,0.000000,4157.436035,4156.153809,4178.077148,4133.205078,4142.051270,4138.589844,4177.820313,4187.179688,4201.282227,4140.256348,4136.922852,4097.820313,4145.256348,4122.948730,0.000000,4.000000,95.000000,,,,0.000000,4.000000,4.000000,4.000000,4.000000,4.000000,4.000000,4.000000,4.000000,4.000000,4.000000,4.000000,4.000000,4.000000,4.000000,100.000000,,,,,,,,,,,,,,,,
1645707555.239378,111.000000,0.000000,4162.820313,4162.948730,4176.410156,4135.000000,4137.307617,4136.538574,4172.179688,4183.974121,4201.153809,4139.615234,4135.256348,4101.025879,4141.282227,4124.743652,0.000000,4.000000,95.000000,,,,0.000000,4.000000,4.000000,4.000000,4.000000,4.000000,4.000000,4.000000,4.000000,4.000000,4.000000,4.000000,4.000000,4.000000,4.000000,100.000000,,,,,,,,,,,,,,,,
1645707555.243318,112.000000,0.000000,4167.563965,4169.871582,4175.384766,4130.897461,4134.487305,4133.717773,4170.512695,4184.102539,4200.897461,4133.461426,4134.615234,4101.538574,4140.512695,4128.205078,0.000000,4.000000,95.000000,,,,0.000000,4.000000,4.000000,4.000000,4.000000,4.000000,4.000000,4.000000,4.000000,4.000000,4.000000,4.000000,4.000000,4.000000,4.000000,100.000000,1.000000,100.000000,4.000000,4.000000,4.000000,4.000000,4.000000,4.000000,4.000000,4.000000,4.000000,4.000000,4.000000,4.000000,4.000000,4.000000
1645707555.247258,113.000000,0.000000,4169.487305,4172.436035,4175.512695,4121.025879,4136.153809,4132.051270,4174.358887,4187.820313,4200.256348,4126.794922,4136.282227,4100.512695,4142.820313,4132.307617,0.000000,4.000000,95.000000,,,,0.000000,4.000000,4.000000,4.000000,4.000000,4.000000,4.000000,4.000000,4.000000,4.000000,4.000000,4.000000,4.000000,4.000000,4.000000,100.000000,,,,,,,,,,,,,,,,
1645707555.251298,114.000000,0.000000,4170.256348,4170.128418,4176.410156,4109.615234,4142.820313,4133.846191,4181.153809,4192.948730,4200.256348,4127.179688,4141.794922,4101.538574,4147.179688,4133.717773,0.000000,4.000000,95.000000,,,,0.000000,4.000000,4.000000,4.000000,4.000000,4.000000,4.000000,4.000000,4.000000,4.000000,4.000000,4.000000,4.000000,4.000000,4.000000,100.000000,,,,,,,,,,,,,,,,
1645707555.255238,115.000000,0.000000,4173.205078,4166.153809,4177.563965,4103.717773,4151.794922,4139.358887,4185.897461,4196.794922,4202.051270,4136.410156,4150.384766,4106.922852,4151.538574,4129.358887,0.000000,4.000000,95.000000,,,,0.000000,4.000000,4.000000,4.000000,4.000000,4.000000,4.000000,4.000000,4.000000,4.000000,4.000000,4.000000,4.000000,4.000000,4.000000,100.000000,,,,,,,,,,,,,,,,
1645707555.259178,116.000000,0.000000,4177.436035,4164.487305,4179.230957,4107.179688,4157.307617,4145.000000,4185.897461,4197.436035,4205.769043,4146.922852,4158.077148,4115.256348,4153.717773,4120.769043,0.000000,4.000000,95.000000,,,,0.000000,4.000000,4.000000,4.000000,4.000000,4.000000,4.000000,4.000000,4.000000,4.000000,4.000000,4.000000,4.000000,4.000000,4.000000,100.000000,,,,,,,,,,,,,,,,
1645707555.263118,117.000000,0.000000,4178.717773,4165.769043,4180.000000,4116.410156,4155.000000,4146.282227,4181.410156,4194.871582,4208.974121,4147.436035,4160.641113,4121.282227,4152.436035,4113.717773,0.000000,4.000000,95.000000,,,,0.000000,4.000000,4.000000,4.000000,4.000000,4.000000,4.000000,4.000000,4.000000,4.000000,4.000000,4.000000,4.000000,4.000000,4.000000,100.000000,,,,,,,,,,,,,,,,
1645707555.267058,118.000000,0.000000,4173.205078,4167.307617,4178.461426,4122.436035,4146.025879,4141.666504,4174.615234,4190.128418,4208.846191,4133.846191,4156.922852,4120.512695,4148.077148,4114.358887,0.000000,4.000000,95.000000,,,,0.000000,4.000000,4.000000,4.000000,4.000000,4.000000,4.000000,4.000000,4.000000,4.000000,4.000000,4.000000,4.000000,4.000000,4.000000,100.000000,,,,,,,,,,,,,,,,
1645707555.270999,119.000000,0.000000,4162.436035,4165.897461,4174.102539,4118.589844,4136.666504,4133.846191,4168.846191,4184.230957,4204.358887,4114.230957,4149.102539,4112.436035,4142.820313,4123.717773,0.000000,4.000000,95.000000,,,,0.000000,4.000000,4.000000,4.000000,4.000000,4.000000,4.000000,4.000000,4.000000,4.000000,4.000000,4.000000,4.000000,4.000000,4.000000,100.000000,,,,,,,,,,,,,,,,
1645707555.274939,120.000000,0.000000,4152.563965,4160.641113,4168.589844,4107.179688,4133.205078,4127.820313,4166.282227,4178.846191,4197.820313,4101.666504,4140.641113,4101.410156,4138.846191,4135.897461,0.000000,4.000000,95.000000,,,,0.000000,4.000000,4.000000,4.000000,4.000000,4.000000,4.000000,4.000000,4.000000,4.000000,4.000000,4.000000,4.000000,4.000000,4.000000,100.000000,,,,,,,,,,,,,,,,
1645707555.278879,121.000000,0.000000,4149.102539,4154.230957,4165.128418,4097.051270,4136.666504,4126.794922,4168.205078,4175.641113,4192.820313,4103.461426,4134.358887,4093.589844,4136.922852,4142.948730,0.000000,4.000000,95.000000,,,,0.000000,4.000000,4.000000,4.000000,4.000000,4.000000,4.000000,4.000000,4.000000,4.000000,4.000000,4.000000,4.000000,4.000000,4.000000,100.000000,,,,,,,,,,,,,,,,
1645707555.282819,122.000000,0.000000,4152.436035,4150.897461,4165.128418,4095.641113,4143.589844,4130.769043,4173.974121,4176.025879,4192.563965,4116.538574,4131.282227,4092.820557,4135.897461,4140.641113,0.000000,4.000000,95.000000,,,,0.000000,4.000000,4.000000,4.000000,4.000000,4.000000,4.000000,4.000000,4.000000,4.000000,4.000000,4.000000,4.000000,4.000000,4.000000,100.000000,,,,,,,,,,,,,,,,
1645707555.286759,123.000000,0.000000,4158.205078,4152.948730,4167.563965,4102.948730,4149.871582,4137.307617,4180.641113,4179.487305,4196.410156,4131.538574,4132.179688,4098.205078,4134.743652,4131.922852,0.000000,4.000000,95.000000,,,,0.000000,4.000000,4.000000,4.000000,4.000000,4.000000,4.000000,4.000000,4.000000,4.000000,4.000000,4.000000,4.000000,4.000000,4.000000,100.000000,,,,,,,,,,,,,,,,
1645707555.290699,124.000000,0.000000,4160.897461,4158.589844,4170.000000,4113.589844,4153.717773,4143.846191,4185.256348,4184.615234,4201.922852,4140.897461,4136.794922,4105.128418,4133.333496,4124.487305,0.000000,4.000000,95.000000,,,,0.000000,4.000000,4.000000,4.000000,4.000000,4.000000,4.000000,4.000000,4.000000,4.000000,4.000000,4.000000,4.000000,4.000000,4.000000,100.000000,,,,,,,,,,,,,,,,
1645707555.294639,125.000000,0.000000,4158.461426,4163.717773,4170.897461,4120.897461,4155.769043,4147.692383,4186.282227,4189.102539,4205.384766,4142.179688,4142.820313,4108.974121,4132.436035,4123.461426,0.000000,4.000000,95.000000,,,,0.000000,4.000000,4.000000,4.000000,4.000000,4.000000,4.000000,4.000000,4.000000,4.000000,4.000000,4.000000,4.000000,4.000000,4.000000,100.000000,,,,,,,,,,,,,,,,
1645707555.298579,126.000000,0.000000,4152.179688,4164.615234,4170.512695,4121.538574,4156.153809,4147.051270,4184.615234,4191.666504,4205.000000,4137.563965,4147.179688,4107.820313,4132.820313,4126.666504,0.000000,4.000000,95.000000,,,,0.000000,4.000000,4.000000,4.000000,4.000000,4.000000,4.000000,4.000000,4.000000,4.000000,4.000000,4.000000,4.000000,4.000000,4.000000,100.000000,,,,,,,,,,,,,,,,
1645707555.302519,127.000000,0.000000,4146.282227,4161.538574,4169.487305,4115.769043,4154.615234,4142.436035,4182.820313,4191.922852,4202.051270,4131.025879,4147.820313,4102.948730,4134.358887,4127.051270,0.000000,4.000000,95.000000,,,,0.000000,4.000000,4.000000,4.000000,4.000000,4.000000,4.000000,4.000000,4.000000,4.000000,4.000000,4.000000,4.000000,4.000000,4.000000,100.000000,,,,,,,,,,,,,,,,
1645707555.306459,128.000000,0.000000,4144.871582,4158.333496,4167.820313,4106.282227,4150.769043,4136.922852,4182.051270,4190.897461,4199.102539,4126.922852,4145.512695,4097.692383,4136.410156,4120.000000,3218.000000,4.000000,95.000000,,,,0.000000,4.000000,4.000000,4.000000,4.000000,4.000000,4.000000,4.000000,4.000000,4.000000,4.000000,4.000000,4.000000,4.000000,4.000000,100.000000,,,,,,,,,,,,,,,,
1645707555.310400,129.000000,0.000000,4149.358887,4158.717773,4165.769043,4097.307617,4146.025879,4134.487305,4182.179688,4189.102539,4198.461426,4127.692383,4143.333496,4094.615479,4138.717773,4109.230957,3260.000000,4.000000,95.000000,,,,0.000000,4.000000,4.000000,4.000000,4.000000,4.000000,4.000000,4.000000,4.000000,4.000000,4.000000,4.000000,4.000000,4.000000,4.000000,100.000000,,,,,,,,,,,,,,,,
1645707555.314340,130.000000,0.000000,4157.051270,4162.948730,4163.846191,4092.948730,4142.307617,4136.794922,4182.563965,4187.051270,4200.256348,4131.666504,4143.974121,4093.974365,4141.153809,4103.077148,3520.000000,4.000000,95.000000,,,,0.000000,4.000000,4.000000,4.000000,4.000000,4.000000,4.000000,4.000000,4.000000,4.000000,4.000000,4.000000,4.000000,4.000000,4.000000,100.000000,,,,,,,,,,,,,,,,
1645707555.318280,131.000000,0.000000,4163.205078,4168.077148,4164.230957,4095.512939,4141.282227,4141.025879,4183.205078,4185.641113,4202.179688,4134.743652,4147.179688,4094.743652,4143.974121,4107.436035,3317.000000,4.000000,95.000000,,,,0.000000,4.000000,4.000000,4.000000,4.000000,4.000000,4.000000,4.000000,4.000000,4.000000,4.000000,4.000000,4.000000,4.000000,4.000000,100.000000,,,,,,,,,,,,,,,,
1645707555.322120,132.000000,0.000000,4164.615234,4170.769043,4168.205078,4103.589844,4142.948730,4143.589844,4184.230957,4185.897461,4202.563965,4133.461426,4151.666504,4096.282227,4146.666504,4119.102539,3519.000000,4.000000,95.000000,,,,0.000000,4.000000,4.000000,4.000000,4.000000,4.000000,4.000000,4.000000,4.000000,4.000000,4.000000,4.000000,4.000000,4.000000,4.000000,100.000000,,,,,,,,,,,,,,,,
1645707555.326060,133.000000,0.000000,4163.205078,4170.256348,4175.384766,4112.307617,4146.025879,4143.077148,4184.615234,4188.461426,4201.794922,4128.846191,4155.128418,4098.974121,4148.974121,4129.871582,3505.000000,4.000000,95.000000,,,,0.000000,4.000000,4.000000,4.000000,4.000000,4.000000,4.000000,4.000000,4.000000,4.000000,4.000000,4.000000,4.000000,4.000000,4.000000,100.000000,,,,,,,,,,,,,,,,
1645707555.330000,134.000000,0.000000,4162.692383,4168.205078,4182.563965,4116.538574,4149.230957,4140.769043,4182.820313,4191.922852,4201.410156,4125.256348,4156.922852,4103.333496,4150.512695,4132.820313,3070.000000,4.000000,95.000000,,,,0.000000,4.000000,4.000000,4.000000,4.000000,4.000000,4.000000,4.000000,4.000000,4.000000,4.000000,4.000000,4.000000,4.000000,4.000000,100.000000,,,,,,,,,,,,,,,,
1645707555.333940,135.000000,0.000000,4164.743652,4165.897461,4186.794922,4113.974121,4150.769043,4139.615234,4179.102539,4194.358887,4202.563965,4125.641113,4157.563965,4108.717773,4151.153809,4127.436035,2493.000000,4.000000,95.000000,,,,0.000000,4.000000,4.000000,4.000000,4.000000,4.000000,4.000000,4.000000,4.000000,4.000000,4.000000,4.000000,4.000000,4.000000,4.000000,100.000000,,,,,,,,,,,,,,,,
1645707555.337880,136.000000,0.000000,4166.666504,4163.333496,4187.051270,4106.025879,4149.230957,4140.128418,4176.025879,4194.102539,4204.615234,4129.743652,4157.692383,4112.436035,4150.256348,4118.461426,1356.000000,4.000000,95.000000,,,,0.000000,4.000000,4.000000,4.000000,4.000000,4.000000,4.000000,4.000000,4.000000,4.000000,4.000000,4.000000,4.000000,4.000000,4.000000,100.000000,,,,,,,,,,,,,,,,
1645707555.341821,137.000000,0.000000,4165.128418,4159.487305,4184.743652,4097.436035,4145.128418,4141.153809,4176.153809,4191.410156,4205.512695,4134.230957,4158.205078,4112.563965,4147.436035,4112.563965,3305.000000,4.000000,95.000000,,,,0.000000,4.000000,4.000000,4.000000,4.000000,4.000000,4.000000,4.000000,4.000000,4.000000,4.000000,4.000000,4.000000,4.000000,4.000000,100.000000,,,,,,,,,,,,,,,,
1645707555.345761,138.000000,0.000000,4160.256348,4155.384766,4181.666504,4094.102539,4140.769043,4141.153809,4178.846191,4187.051270,4204.358887,4136.410156,4158.846191,4108.589844,4143.333496,4114.487305,2989.000000,4.000000,95.000000,,,,0.000000,4.000000,4.000000,4.000000,4.000000,4.000000,4.000000,4.000000,4.000000,4.000000,4.000000,4.000000,4.000000,4.000000,4.000000,100.000000,,,,,,,,,,,,,,,,
1645707555.349701,139.000000,0.000000,4156.538574,4153.717773,4178.589844,4099.487305,4139.871582,4139.487305,4180.641113,4182.436035,4201.538574,4136.153809,4159.615234,4102.307617,4140.512695,4124.487305,3537.000000,4.000000,95.000000,,,,0.000000,4.000000,4.000000,4.000000,4.000000,4.000000,4.000000,4.000000,4.000000,4.000000,4.000000,4.000000,4.000000,4.000000,4.000000,100.000000,,,,,,,,,,,,,,,,
1645707555.353641,140.000000,0.000000,4158.205078,4157.820313,4175.512695,4111.410156,4143.846191,4137.051270,4179.102539,4179.102539,4199.102539,4135.769043,4161.410156,4097.436035,4141.410156,4137.436035,3131.000000,4.000000,95.000000,,,,0.000000,4.000000,4.000000,4.000000,4.000000,4.000000,4.000000,4.000000,4.000000,4.000000,4.000000,4.000000,4.000000,4.000000,4.000000,100.000000,,,,,,,,,,,,,,,,
1645707555.357581,141.000000,0.000000,4165.769043,4167.563965,4172.948730,4122.563965,4150.641113,4135.128418,4175.384766,4179.102539,4198.974121,4137.563965,4164.615234,4096.794922,4146.410156,4145.128418,3286.000000,4.000000,95.000000,,,,0.000000,4.000000,4.000000,4.000000,4.000000,4.000000,4.000000,4.000000,4.000000,4.000000,4.000000,4.000000,4.000000,4.000000,4.000000,100.000000,,,,,,,,,,,,,,,,
1645707555.361421,142.000000,0.000000,4174.102539,4179.487305,4172.307617,4125.769043,4156.153809,4135.384766,4173.846191,4182.820313,4201.922852,4141.666504,4168.333496,4101.153809,4153.717773,4143.077148,2989.000000,4.000000,95.000000,,,,0.000000,4.000000,4.000000,4.000000,4.000000,4.000000,4.000000,4.000000,4.000000,4.000000,4.000000,4.000000,4.000000,4.000000,4.000000,100.000000,,,,,,,,,,,,,,,,
1645707555.365361,143.000000,0.000000,4177.692383,4187.948730,4173.974121,4120.000000,4158.589844,4139.230957,4177.179688,4188.333496,4205.897461,4147.051270,4171.025879,4108.333496,4160.641113,4133.846191,3537.000000,4.000000,95.000000,,,,0.000000,4.000000,4.000000,4.000000,4.000000,4.000000,4.000000,4.000000,4.000000,4.000000,4.000000,4.000000,4.000000,4.000000,4.000000,100.000000,,,,,,,,,,,,,,,,
1645707555.369301,144.000000,0.000000,4173.974121,4189.743652,4176.666504,4110.769043,4158.589844,4145.512695,4183.333496,4192.307617,4208.077148,4151.410156,4171.410156,4113.846191,4164.871582,4125.769043,3131.000000,4.000000,95.000000,,,,0.000000,4.000000,4.000000,4.000000,4.000000,4.000000,4.000000,4.000000,4.000000,4.000000,4.000000,4.000000,4.000000,4.000000,4.000000,100.000000,,,,,,,,,,,,,,,,
1645707555.373241,145.000000,0.000000,4165.256348,4184.743652,4177.692383,4105.000000,4157.692383,4150.512695,4187.307617,4192.051270,4207.051270,4152.179688,4168.717773,4113.717773,4164.487305,4124.743652,3286.000000,4.000000,95.000000,,,,0.000000,4.000000,4.000000,4.000000,4.000000,4.000000,4.000000,4.000000,4.000000,4.000000,4.000000,4.000000,4.000000,4.000000,4.000000,100.000000,,,,,,,,,,,,,,,,
1645707555.377182,146.000000,0.000000,4156.666504,4176.025879,4175.512695,4105.512695,4156.282227,4150.641113,4186.538574,4188.846191,4203.974121,4147.948730,4163.205078,4107.563965,4158.846191,4129.102539,2989.000000,4.000000,95.000000,,,,0.000000,4.000000,4.000000,4.000000,4.000000,4.000000,4.000000,4.000000,4.000000,4.000000,4.000000,4.000000,4.000000,4.000000,4.000000,100.000000,,,,,,,,,,,,,,,,
1645707555.381122,147.000000,0.000000,4152.436035,4168.077148,4170.897461,4110.128418,4154.615234,4146.538574,4183.333496,4186.538574,4201.538574,4140.128418,4156.538574,4099.871582,4150.000000,4131.666504,3537.000000,4.000000,95.000000,,,,0.000000,4.000000,4.000000,4.000000,4.000000,4.000000,4.000000,4.000000,4.000000,4.000000,4.000000,4.000000,4.000000,4.000000,4.000000,100.000000,,,,,,,,,,,,,,,,
1645707555.385062,148.000000,0.000000,4154.230957,4165.000000,4166.794922,4114.615234,4155.128418,4142.948730,4182.051270,4188.461426,4202.436035,4133.077148,4151.922852,4096.282227,4142.436035,4127.179688,3131.000000,4.000000,95.000000,,,,0.000000,4.000000,4.000000,4.000000,4.000000,4.000000,4.000000,4.000000,4.000000,4.000000,4.000000,4.000000,4.000000,4.000000,4.000000,100.000000,,,,,,,,,,,,,,,,
1645707555.389002,149.000000,0.000000,4160.256348,4168.077148,4165.256348,4116.282227,4160.128418,4144.871582,4184.871582,4193.846191,4206.025879,4130.769043,4152.820313,4099.871582,4140.641113,4116.666504,3286.000000,4.000000,95.000000,,,,0.000000,4.000000,4.000000,4.000000,4.000000,4.000000,4.000000,4.000000,4.000000,4.000000,4.000000,4.000000,4.000000,4.000000,4.000000,100.000000,,,,,,,,,,,,,,,,
1645707555.392942,150.000000,0.000000,4165.769043,4174.230957,4165.769043,4114.102539,4168.333496,4151.538574,4189.487305,4198.333496,4209.743652,4133.589844,4158.974121,4107.179688,4144.487305,4106.410156,2989.000000,4.000000,95.000000,,,,0.000000,4.000000,4.000000,4.000000,4.000000,4.000000,4.000000,4.000000,4.000000,4.000000,4.000000,4.000000,4.000000,4.000000,4.000000,100.000000,,,,,,,,,,,,,,,,
1645707555.396882,151.000000,0.000000,4166.153809,4177.820313,4166.538574,4109.743652,4173.717773,4157.692383,4191.666504,4197.948730,4210.384766,4137.563965,4165.512695,4111.153809,4149.358887,4102.436035,3537.000000,4.000000,95.000000,,,,0.000000,4.000000,4.000000,4.000000,4.000000,4.000000,4.000000,4.000000,4.000000,4.000000,4.000000,4.000000,4.000000,4.000000,4.000000,100.000000,,,,,,,,,,,,,,,,
1645707555.400822,152.000000,0.000000,4160.128418,4175.256348,4165.769043,4106.922852,4170.769043,4157.179688,4189.871582,4192.820313,4206.794922,4138.205078,4165.384766,4106.666504,4149.487305,4106.282227,3131.000000,4.000000,95.000000,,,,0.000000,4.000000,4.000000,4.000000,4.000000,4.000000,4.000000,4.000000,4.000000,4.000000,4.000000,4.000000,4.000000,4.000000,4.000000,100.000000,,,,,,,,,,,,,,,,
1645707555.404762,153.000000,0.000000,4152.051270,4168.589844,4163.205078,4108.846191,4160.384766,4149.871582,4185.641113,4186.282227,4201.153809,4135.128418,4156.794922,4095.000000,4143.846191,4115.641113,3286.000000,4.000000,95.000000,,,,0.000000,4.000000,4.000000,4.000000,4.000000,4.000000,4.000000,4.000000,4.000000,4.000000,4.000000,4.000000,4.000000,4.000000,4.000000,100.000000,,,,,,,,,,,,,,,,
1645707555.408702,154.000000,0.000000,4148.717773,4163.717773,4161.025879,4116.025879,4150.641113,4141.922852,4182.948730,4182.692383,4197.051270,4132.436035,4146.153809,4084.102539,4136.282227,4126.153809,2989.000000,4.000000,95.000000,,,,0.000000,4.000000,4.000000,4.000000,4.000000,4.000000,4.000000,4.000000,4.000000,4.000000,4.000000,4.000000,4.000000,4.000000,4.000000,100.000000,,,,,,,,,,,,,,,,
1645707555.412643,155.000000,0.000000,4153.846191,4165.000000,4161.922852,4123.974121,4150.000000,4140.769043,4183.974121,4184.358887,4196.794922,4134.358887,4142.307617,4082.692383,4131.794922,4133.589844,3537.000000,4.000000,95.000000,,,,0.000000,4.000000,4.000000,4.000000,4.000000,4.000000,4.000000,4.000000,4.000000,4.000000,4.000000,4.000000,4.000000,4.000000,4.000000,100.000000,,,,,,,,,,,,,,,,
1645707555.416583,156.000000,0.000000,4165.000000,4171.922852,4167.563965,4127.307617,4160.000000,4147.820313,4188.333496,4190.256348,4199.743652,4140.000000,4148.205078,4092.435791,4131.794922,4134.230957,3131.000000,4.000000,95.000000,1,1,3,0.000000,4.000000,4.000000,4.000000,4.000000,4.000000,4.000000,4.000000,4.000000,4.000000,4.000000,4.000000,4.000000,4.000000,4.000000,100.000000,,,,,,,,,,,,,,,,
1645707555.420523,157.000000,0.000000,4176.025879,4179.230957,4175.512695,4124.487305,4172.948730,4157.563965,4192.948730,4196.666504,4203.205078,4144.230957,4157.563965,4106.794922,4132.563965,4128.205078,3286.000000,4.000000,95.000000,,,,0.000000,4.000000,4.000000,4.000000,4.000000,4.000000,4.000000,4.000000,4.000000,4.000000,4.000000,4.000000,4.000000,4.000000,4.000000,100.000000,,,,,,,,,,,,,,,,
1645707555.424463,158.000000,0.000000,4181.538574,4181.538574,4181.410156,4120.512695,4179.871582,4162.436035,4194.358887,4199.615234,4204.487305,4142.820313,4161.666504,4117.307617,4130.897461,4120.384766,2989.000000,4.000000,95.000000,,,,0.000000,4.000000,4.000000,4.000000,4.000000,4.000000,4.000000,4.000000,4.000000,4.000000,4.000000,4.000000,4.000000,4.000000,4.000000,100.000000,,,,,,,,,,,,,,,,
1645707555.428403,159.000000,0.000000,4180.641113,4178.717773,4182.179688,4122.563965,4177.051270,4159.487305,4191.025879,4196.922852,4203.461426,4137.051270,4157.692383,4119.743652,4127.307617,4118.717773,3537.000000,4.000000,95.000000,,,,0.000000,4.000000,4.000000,4.000000,4.000000,4.000000,4.000000,4.000000,4.000000,4.000000,4.000000,4.000000,4.000000,4.000000,4.000000,100.000000,,,,,,,,,,,,,,,,
1645707555.432343,160.000000,0.000000,4177.051270,4175.256348,4179.871582,4132.051270,4168.589844,4152.051270,4184.615234,4190.512695,4201.922852,4133.205078,4151.410156,4116.666504,4125.897461,4127.692383,3131.000000,4.000000,95.000000,,,,0.000000,4.000000,4.000000,4.000000,4.000000,4.000000,4.000000,4.000000,4.000000,4.000000,4.000000,4.000000,4.000000,4.000000,4.000000,100.000000,,,,,,,,,,,,,,,,
1645707555.436283,161.000000,0.000000,4175.128418,4175.641113,4179.230957,4142.948730,4161.153809,4146.153809,4179.487305,4185.128418,4201.282227,4135.384766,4150.769043,4113.205078,4129.102539,4143.205078,3286.000000,4.000000,95.000000,,,,0.000000,4.000000,4.000000,4.000000,4.000000,4.000000,4.000000,4.000000,4.000000,4.000000,4.000000,4.000000,4.000000,4.000000,4.000000,100.000000,,,,,,,,,,,,,,,,
1645707555.440223,162.000000,0.000000,4176.025879,4180.641113,4183.333496,4147.051270,4159.102539,4145.384766,4178.974121,4185.000000,4201.666504,4142.307617,4158.205078,4112.436035,4135.384766,4155.000000,2989.000000,4.000000,95.000000,,,,0.000000,4.000000,4.000000,4.000000,4.000000,4.000000,4.000000,4.000000,4.000000,4.000000,4.000000,4.000000,4.000000,4.000000,4.000000,100.000000,,,,,,,,,,,,,,,,
1645707555.444163,163.000000,0.000000,4177.692383,4186.794922,4190.000000,4141.666504,4162.563965,4148.974121,4182.820313,4189.615234,4201.922852,4148.589844,4167.948730,4114.358887,4140.512695,4154.487305,3537.000000,4.000000,95.000000,,,,0.000000,4.000000,4.000000,4.000000,4.000000,4.000000,4.000000,4.000000,4.000000,4.000000,4.000000,4.000000,4.000000,4.000000,4.000000,100.000000,,,,,,,,,,,,,,,,
1645707555.448203,164.000000,0.000000,4177.179688,4188.846191,4193.461426,4131.410156,4167.948730,4152.948730,4186.922852,4194.487305,4201.666504,4150.256348,4171.538574,4117.051270,4141.666504,4141.410156,3131.000000,4.000000,95.000000,,,,0.000000,4.000000,4.000000,4.000000,4.000000,4.000000,4.000000,4.000000,4.000000,4.000000,4.000000,4.000000,4.000000,4.000000,4.000000,100.000000,,,,,,,,,,,,,,,,
1645707555.452143,165.000000,0.000000,4173.974121,4184.743652,4189.102539,4123.717773,4170.897461,4153.461426,4186.922852,4194.615234,4201.410156,4146.666504,4164.487305,4117.692383,4138.461426,4124.230957,3286.000000,4.000000,95.000000,,,,0.000000,4.000000,4.000000,4.000000,4.000000,4.000000,4.000000,4.000000,4.000000,4.000000,4.000000,4.000000,4.000000,4.000000,4.000000,100.000000,,,,,,,,,,,,,,,,
1645707555.456084,166.000000,0.000000,4169.871582,4176.282227,4178.589844,4122.051270,4169.230957,4149.871582,4181.922852,4189.230957,4201.538574,4139.871582,4150.384766,4115.128418,4133.717773,4113.589844,2989.000000,4.000000,95.000000,,,,0.000000,4.000000,4.000000,4.000000,4.000000,4.000000,4.000000,4.000000,4.000000,4.000000,4.000000,4.000000,4.000000,4.000000,4.000000,100.000000,,,,,,,,,,,,,,,,
1645707555.460024,167.000000,0.000000,4166.538574,4168.333496,4168.333496,4123.717773,4163.717773,4144.358887,4175.769043,4181.666504,4201.410156,4133.205078,4138.461426,4110.512695,4129.743652,4113.974121,3537.000000,4.000000,95.000000,,,,0.000000,4.000000,4.000000,4.000000,4.000000,4.000000,4.000000,4.000000,4.000000,4.000000,4.000000,4.000000,4.000000,4.000000,4.000000,100.000000,,,,,,,,,,,,,,,,
1645707555.463864,168.000000,0.000000,4164.615234,4165.897461,4164.615234,4123.717773,4158.077148,4140.256348,4172.563965,4176.666504,4200.384766,4130.128418,4137.307617,4106.282227,4127.948730,4122.179688,3131.000000,4.000000,95.000000,,,,0.000000,4.000000,4.000000,4.000000,4.000000,4.000000,4.000000,4.000000,4.000000,4.000000,4.000000,4.000000,4.000000,4.000000,4.000000,100.000000,,,,,,,,,,,,,,,,
1645707555.467804,169.000000,0.000000,4164.615234,4170.128418,4167.820313,4120.512695,4155.897461,4139.871582,4173.205078,4176.538574,4198.846191,4132.436035,4147.179688,4104.743652,4128.205078,4129.743652,3286.000000,4.000000,95.000000,,,,0.000000,4.000000,4.000000,4.000000,4.000000,4.000000,4.000000,4.000000,4.000000,4.000000,4.000000,4.000000,4.000000,4.000000,4.000000,100.000000,,,,,,,,,,,,,,,,
1645707555.471744,170.000000,0.000000,4166.410156,4177.820313,4173.077148,4117.307617,4158.461426,4142.692383,4175.769043,4180.128418,4198.589844,4137.948730,4160.384766,4106.025879,4129.358887,4130.769043,2989.000000,4.000000,95.000000,,,,0.000000,4.000000,4.000000,4.000000,4.000000,4.000000,4.000000,4.000000,4.000000,4.000000,4.000000,4.000000,4.000000,4.000000,4.000000,100.000000,,,,,,,,,,,,,,,,
1645707555.475684,171.000000,0.000000,4168.717773,4183.974121,4175.000000,4119.102539,4163.333496,4146.282227,4177.820313,4185.128418,4200.769043,4141.794922,4167.051270,4108.717773,4130.769043,4124.743652,3537.000000,4.000000,95.000000,,,,0.000000,4.000000,4.000000,4.000000,4.000000,4.000000,4.000000,4.000000,4.000000,4.000000,4.000000,4.000000,4.000000,4.000000,4.000000,100.000000,,,,,,,,,,,,,,,,
1645707555.479624,172.000000,0.000000,4169.871582,4184.487305,4171.794922,4126.410156,4166.410156,4147.948730,4178.589844,4189.487305,4204.615234,4140.256348,4162.948730,4110.512695,4131.666504,4116.282227,3131.000000,4.000000,95.000000,,,,0.000000,4.000000,4.000000,4.000000,4.000000,4.000000,4.000000,4.000000,4.000000,4.000000,4.000000,4.000000,4.000000,4.000000,4.000000,100.000000,,,,,,,,,,,,,,,,
1645707555.483564,173.000000,0.000000,4168.717773,4179.230957,4165.384766,4135.128418,4165.128418,4147.051270,4178.974121,4192.179688,4207.307617,4135.256348,4153.077148,4110.128418,4132.563965,4111.538574,3286.000000,4.000000,95.000000,,,,0.000000,4.000000,4.000000,4.000000,4.000000,4.000000,4.000000,4.000000,4.000000,4.000000,4.000000,4.000000,4.000000,4.000000,4.000000,100.000000,,,,,,,,,,,,,,,,
1645707555.487505,174.000000,0.000000,4166.410156,4171.410156,4159.871582,4139.358887,4161.282227,4145.512695,4180.000000,4192.307617,4207.436035,4132.563965,4147.307617,4107.948730,4134.615234,4113.974121,2989.000000,4.000000,95.000000,,,,0.000000,4.000000,4.000000,4.000000,4.000000,4.000000,4.000000,4.000000,4.000000,4.000000,4.000000,4.000000,4.000000,4.000000,4.000000,100.000000,,,,,,,,,,,,,,,,
1645707555.491445,175.000000,0.000000,4164.487305,4164.743652,4157.948730,4137.307617,4158.333496,4145.769043,4181.282227,4190.256348,4205.128418,4136.153809,4151.282227,4106.282227,4138.589844,4122.179688,3537.000000,4.000000,95.000000,,,,0.000000,4.000000,4.000000,4.000000,4.000000,4.000000,4.000000,4.000000,4.000000,4.000000,4.000000,4.000000,4.000000,4.000000,4.000000,100.000000,,,,,,,,,,,,,,,,
1645707555.495385,176.000000,0.000000,4163.205078,4161.410156,4159.230957,4131.153809,4158.846191,4148.589844,4182.051270,4187.179688,4202.692383,4143.333496,4162.179688,4107.051270,4143.717773,4130.641113,3131.000000,4.000000,95.000000,,,,0.000000,4.000000,4.000000,4.000000,4.000000,4.000000,4.000000,4.000000,4.000000,4.000000,4.000000,4.000000,4.000000,4.000000,4.000000,100.000000,,,,,,,,,,,,,,,,
1645707555.499325,177.000000,0.000000,4161.922852,4161.025879,4161.538574,4124.871582,4161.153809,4151.666504,4182.307617,4185.128418,4201.025879,4147.179688,4171.922852,4110.000000,4146.922852,4134.102539,3286.000000,4.000000,95.000000,,,,0.000000,4.000000,4.000000,4.000000,4.000000,4.000000,4.000000,4.000000,4.000000,4.000000,4.000000,4.000000,4.000000,4.000000,4.000000,100.000000,,,,,,,,,,,,,,,,
1645707555.503265,178.000000,0.000000,4160.256348,4162.051270,4162.307617,4121.153809,4162.563965,4152.948730,4183.205078,4185.897461,4200.256348,4144.230957,4174.358887,4113.589844,4145.897461,4131.538574,2989.000000,4.000000,95.000000,,,,0.000000,4.000000,4.000000,4.000000,4.000000,4.000000,4.000000,4.000000,4.000000,4.000000,4.000000,4.000000,4.000000,4.000000,4.000000,100.000000,,,,,,,,,,,,,,,,
1645707555.507205,179.000000,0.000000,4160.128418,4164.615234,4160.897461,4121.025879,4162.563965,4152.307617,4185.256348,4189.615234,4200.512695,4138.461426,4170.384766,4115.256348,4141.922852,4126.666504,3537.000000,4.000000,95.000000,,,,0.000000,4.000000,4.000000,4.000000,4.000000,4.000000,4.000000,4.000000,4.000000,4.000000,4.000000,4.000000,4.000000,4.000000,4.000000,100.000000,,,,,,,,,,,,,,,,
1645707555.511145,180.000000,0.000000,4163.589844,4170.128418,4158.589844,4123.205078,4163.205078,4151.794922,4187.948730,4195.000000,4202.051270,4137.563965,4165.769043,4114.102539,4138.717773,4124.615234,3131.000000,4.000000,95.000000,,,,0.000000,4.000000,4.000000,4.000000,4.000000,4.000000,4.000000,4.000000,4.000000,4.000000,4.000000,4.000000,4.000000,4.000000,4.000000,100.000000,,,,,,,,,,,,,,,,
1645707555.515085,181.000000,0.000000,4170.641113,4177.948730,4157.307617,4126.153809,4166.282227,4152.948730,4189.743652,4200.000000,4205.512695,4145.256348,4164.743652,4110.897461,4139.743652,4127.948730,3286.000000,4.000000,95.000000,,,,0.000000,4.000000,4.000000,4.000000,4.000000,4.000000,4.000000,4.000000,4.000000,4.000000,4.000000,4.000000,4.000000,4.000000,4.000000,100.000000,,,,,,,,,,,,,,,,
1645707555.519025,182.000000,0.000000,4177.820313,4185.000000,4158.846191,4128.846191,4170.641113,4154.871582,4190.000000,4202.179688,4210.000000,4157.436035,4166.666504,4108.974121,4144.871582,4135.769043,2989.000000,4.000000,95.000000,,,,0.000000,4.000000,4.000000,4.000000,4.000000,4.000000,4.000000,4.000000,4.000000,4.000000,4.000000,4.000000,4.000000,4.000000,4.000000,100.000000,,,,,,,,,,,,,,,,
1645707555.522965,183.000000,0.000000,4180.769043,4186.666504,4162.307617,4130.897461,4173.205078,4156.153809,4188.974121,4200.384766,4213.333496,4165.384766,4168.461426,4110.641113,4151.025879,4143.589844,3537.000000,4.000000,95.000000,,,,0.000000,4.000000,4.000000,4.000000,4.000000,4.000000,4.000000,4.000000,4.000000,4.000000,4.000000,4.000000,4.000000,4.000000,4.000000,100.000000,,,,,,,,,,,,,,,,
1645707555.526906,184.000000,0.000000,4178.461426,4182.307617,4164.871582,4133.205078,4171.410156,4155.897461,4187.436035,4195.384766,4212.820313,4163.717773,4168.974121,4115.769043,4154.358887,4147.307617,3131.000000,4.000000,95.000000,,,,0.000000,4.000000,4.000000,4.000000,4.000000,4.000000,4.000000,4.000000,4.000000,4.000000,4.000000,4.000000,4.000000,4.000000,4.000000,100.000000,,,,,,,,,,,,,,,,
1645707555.530946,185.000000,0.000000,4174.230957,4174.871582,4164.487305,4137.051270,4166.025879,4154.871582,4185.128418,4189.487305,4208.717773,4154.743652,4169.358887,4121.282227,4153.205078,4144.358887,3286.000000,4.000000,95.000000,,,,0.000000,4.000000,4.000000,4.000000,4.000000,4.000000,4.000000,4.000000,4.000000,4.000000,4.000000,4.000000,4.000000,4.000000,4.000000,100.000000,,,,,,,,,,,,,,,,
1645707555.534886,186.000000,0.000000,4171.538574,4168.974121,4161.410156,4142.307617,4160.000000,4153.589844,4182.436035,4185.256348,4203.846191,4145.897461,4170.384766,4124.102539,4148.589844,4136.794922,2989.000000,4.000000,95.000000,,,,0.000000,4.000000,4.000000,4.000000,4.000000,4.000000,4.000000,4.000000,4.000000,4.000000,4.000000,4.000000,4.000000,4.000000,4.000000,100.000000,,,,,,,,,,,,,,,,
1645707555.538826,187.000000,0.000000,4171.538574,4167.179688,4158.846191,4146.538574,4156.538574,4152.179688,4180.897461,4183.974121,4201.666504,4142.692383,4170.512695,4123.974121,4143.461426,4129.230957,3537.000000,4.000000,95.000000,,,,0.000000,4.000000,4.000000,4.000000,4.000000,4.000000,4.000000,4.000000,4.000000,4.000000,4.000000,4.000000,4.000000,4.000000,4.000000,100.000000,,,,,,,,,,,,,,,,
1645707555.542766,188.000000,0.000000,4172.820313,4169.102539,4159.487305,4146.282227,4156.538574,4151.153809,4181.794922,4185.512695,4202.563965,4144.871582,4167.307617,4122.563965,4140.256348,4126.538574,3131.000000,4.000000,95.000000,2,1,3,0.000000,4.000000,4.000000,4.000000,4.000000,4.000000,4.000000,4.000000,4.000000,4.000000,4.000000,4.000000,4.000000,4.000000,4.000000,100.000000,,,,,,,,,,,,,,,,
1645707555.546706,189.000000,0.000000,4173.974121,4172.436035,4163.333496,4140.256348,4159.743652,4151.282227,4184.871582,4188.333496,4205.256348,4147.563965,4160.897461,4121.794922,4140.384766,4130.769043,3286.000000,4.000000,95.000000,,,,0.000000,4.000000,4.000000,4.000000,4.000000,4.000000,4.000000,4.000000,4.000000,4.000000,4.000000,4.000000,4.000000,4.000000,4.000000,100.000000,,,,,,,,,,,,,,,,
1645707555.550646,190.000000,0.000000,4173.974121,4174.871582,4167.692383,4131.666504,4164.615234,4153.077148,4187.820313,4190.641113,4207.692383,4147.051270,4154.230957,4122.307617,4143.077148,4139.230957,2989.000000,4.000000,95.000000,,,,0.000000,4.000000,4.000000,4.000000,4.000000,4.000000,4.000000,4.000000,4.000000,4.000000,4.000000,4.000000,4.000000,4.000000,4.000000,100.000000,,,,,,,,,,,,,,,,
1645707555.554586,191.000000,0.000000,4172.820313,4174.358887,4170.384766,4125.769043,4168.974121,4155.897461,4188.205078,4192.179688,4208.589844,4142.820313,4151.153809,4123.589844,4146.666504,4145.897461,3537.000000,4.000000,95.000000,,,,0.000000,4.000000,4.000000,4.000000,4.000000,4.000000,4.000000,4.000000,4.000000,4.000000,4.000000,4.000000,4.000000,4.000000,4.000000,100.000000,,,,,,,,,,,,,,,,
1645707555.558526,192.000000,0.000000,4170.384766,4169.743652,4171.025879,4126.153809,4170.256348,4157.948730,4186.794922,4193.589844,4207.948730,4138.077148,4152.692383,4124.487305,4148.589844,4145.897461,3131.000000,4.000000,95.000000,,,,0.000000,4.000000,4.000000,4.000000,4.000000,4.000000,4.000000,4.000000,4.000000,4.000000,4.000000,4.000000,4.000000,4.000000,4.000000,100.000000,,,,,,,,,,,,,,,,
1645707555.562466,193.000000,0.000000,4167.820313,4162.563965,4170.641113,4131.282227,4167.692383,4158.077148,4185.769043,4195.000000,4206.538574,4135.897461,4156.282227,4123.846191,4147.820313,4139.615234,3286.000000,4.000000,95.000000,,,,0.000000,4.000000,4.000000,4.000000,4.000000,4.000000,4.000000,4.000000,4.000000,4.000000,4.000000,4.000000,4.000000,4.000000,4.000000,100.000000,,,,,,,,,,,,,,,,
1645707555.566407,194.000000,0.000000,4167.307617,4157.820313,4170.641113,4135.641113,4163.974121,4157.307617,4187.307617,4195.512695,4205.256348,4138.077148,4158.717773,4121.794922,4145.512695,4132.692383,2989.000000,4.000000,95.000000,,,,0.000000,4.000000,4.000000,4.000000,4.000000,4.000000,4.000000,4.000000,4.000000,4.000000,4.000000,4.000000,4.000000,4.000000,4.000000,100.000000,,,,,,,,,,,,,,,,
1645707555.570347,195.000000,0.000000,4170.769043,4160.769043,4171.025879,4135.000000,4163.461426,4157.820313,4190.384766,4195.000000,4205.384766,4143.589844,4159.487305,4120.000000,4143.717773,4131.025879,3537.000000,4.000000,95.000000,,,,0.000000,4.000000,4.000000,4.000000,4.000000,4.000000,4.000000,4.000000,4.000000,4.000000,4.000000,4.000000,4.000000,4.000000,4.000000,100.000000,,,,,,,,,,,,,,,,
1645707555.574287,196.000000,0.000000,4177.692383,4172.179688,4172.051270,4130.000000,4168.205078,4160.897461,4193.333496,4194.358887,4207.820313,4150.384766,4160.256348,4120.256348,4144.230957,4134.487305,3131.000000,4.000000,95.000000,,,,0.000000,4.000000,4.000000,4.000000,4.000000,4.000000,4.000000,4.000000,4.000000,4.000000,4.000000,4.000000,4.000000,4.000000,4.000000,100.000000,,,,,,,,,,,,,,,,
1645707555.578227,197.000000,0.000000,4185.128418,4186.025879,4173.333496,4125.256348,4175.897461,4164.871582,4195.000000,4195.641113,4211.794922,4155.384766,4162.436035,4122.948730,4146.922852,4137.307617,3286.000000,4.000000,95.000000,,,,0.000000,4.000000,4.000000,4.000000,4.000000,4.000000,4.000000,4.000000,4.000000,4.000000,4.000000,4.000000,4.000000,4.000000,4.000000,100.000000,,,,,,,,,,,,,,,,
1645707555.582167,198.000000,0.000000,4189.358887,4194.102539,4175.128418,4125.000000,4182.436035,4166.922852,4195.897461,4200.128418,4215.000000,4157.051270,4165.512695,4127.051270,4150.641113,4134.487305,2989.000000,4.000000,95.000000,,,,0.000000,4.000000,4.000000,4.000000,4.000000,4.000000,4.000000,4.000000,4.000000,4.000000,4.000000,4.000000,4.000000,4.000000,4.000000,100.000000,,,,,,,,,,,,,,,,
1645707555.586107,199.000000,0.000000,4188.974121,4193.205078,4176.410156,4129.871582,4185.000000,4166.153809,4196.538574,4205.512695,4215.384766,4155.641113,4168.077148,4130.769043,4153.974121,4127.307617,3537.000000,4.000000,95.000000,,,,0.000000,4.000000,4.000000,4.000000,4.000000,4.000000,4.000000,4.000000,4.000000,4.000000,4.000000,4.000000,4.000000,4.000000,4.000000,100.000000,,,,,,,,,,,,,,,,
1645707555.590047,200.000000,0.000000,4185.512695,4187.307617,4176.153809,4136.538574,4183.333496,4163.974121,4196.025879,4207.692383,4212.692383,4153.077148,4170.256348,4133.333496,4155.641113,4121.922852,3131.000000,4.000000,95.000000,,,,0.000000,4.000000,4.000000,4.000000,4.000000,4.000000,4.000000,4.000000,4.000000,4.000000,4.000000,4.000000,4.000000,4.000000,4.000000,100.000000,,,,,,,,,,,,,,,,
1645707555.593987,201.000000,0.000000,4181.794922,4182.692383,4174.102539,4140.512695,4178.846191,4161.538574,4193.077148,4204.102539,4208.589844,4150.384766,4171.922852,4134.102539,4154.743652,4122.179688,3286.000000,4.000000,95.000000,,,,0.000000,4.000000,4.000000,4.000000,4.000000,4.000000,4.000000,4.000000,4.000000,4.000000,4.000000,4.000000,4.000000,4.000000,4.000000,100.000000,,,,,,,,,,,,,,,,
1645707555.597927,202.000000,0.000000,4179.230957,4182.692383,4170.256348,4139.743652,4173.205078,4159.102539,4188.461426,4196.666504,4205.641113,4147.436035,4172.307617,4132.436035,4150.769043,4127.179688,2989.000000,4.000000,95.000000,,,,0.000000,4.000000,4.000000,4.000000,4.000000,4.000000,4.000000,4.000000,4.000000,4.000000,4.000000,4.000000,4.000000,4.000000,4.000000,100.000000,,,,,,,,,,,,,,,,
1645707555.601867,203.000000,0.000000,4177.820313,4185.384766,4165.256348,4135.128418,4168.717773,4156.410156,4184.102539,4190.512695,4205.256348,4144.487305,4170.000000,4128.077148,4144.871582,4133.077148,3537.000000,4.000000,95.000000,,,,0.000000,4.000000,4.000000,4.000000,4.000000,4.000000,4.000000,4.000000,4.000000,4.000000,4.000000,4.000000,4.000000,4.000000,4.000000,100.000000,,,,,,,,,,,,,,,,
1645707555.605907,204.000000,0.000000,4177.307617,4187.051270,4160.384766,4129.615234,4168.077148,4154.102539,4181.794922,4190.000000,4207.179688,4143.461426,4165.512695,4122.563965,4140.641113,4137.948730,3131.000000,4.000000,95.000000,,,,0.000000,4.000000,4.000000,4.000000,4.000000,4.000000,4.000000,4.000000,4.000000,4.000000,4.000000,4.000000,4.000000,4.000000,4.000000,100.000000,,,,,,,,,,,,,,,,
1645707555.609848,205.000000,0.000000,4178.333496,4185.769043,4157.948730,4126.538574,4172.051270,4153.589844,4181.282227,4194.615234,4210.512695,4145.897461,4161.025879,4118.974121,4141.538574,4143.205078,3286.000000,4.000000,95.000000,,,,0.000000,4.000000,4.000000,4.000000,4.000000,4.000000,4.000000,4.000000,4.000000,4.000000,4.000000,4.000000,4.000000,4.000000,4.000000,100.000000,,,,,,,,,,,,,,,,
1645707555.613788,206.000000,0.000000,4181.153809,4182.179688,4159.615234,4126.922852,4178.333496,4155.769043,4182.051270,4200.000000,4213.333496,4150.641113,4159.358887,4120.512695,4147.948730,4150.128418,2989.000000,4.000000,95.000000,,,,0.000000,4.000000,4.000000,4.000000,4.000000,4.000000,4.000000,4.000000,4.000000,4.000000,4.000000,4.000000,4.000000,4.000000,4.000000,100.000000,,,,,,,,,,,,,,,,
1645707555.617728,207.000000,0.000000,4184.230957,4177.692383,4165.256348,4129.871582,4182.051270,4159.358887,4183.717773,4201.153809,4213.846191,4153.461426,4160.512695,4126.410156,4156.025879,4156.794922,3537.000000,4.000000,95.000000,,,,0.000000,4.000000,4.000000,4.000000,4.000000,4.000000,4.000000,4.000000,4.000000,4.000000,4.000000,4.000000,4.000000,4.000000,4.000000,100.000000,,,,,,,,,,,,,,,,
1645707555.621668,208.000000,0.000000,4185.769043,4174.871582,4172.307617,4133.974121,4179.871582,4162.436035,4186.025879,4197.179688,4211.410156,4150.897461,4161.922852,4132.820313,4160.256348,4158.846191,3131.000000,4.000000,95.000000,,,,0.000000,4.000000,4.000000,4.000000,4.000000,4.000000,4.000000,4.000000,4.000000,4.000000,4.000000,4.000000,4.000000,4.000000,4.000000,100.000000,,,,,,,,,,,,,,,,
1645707555.625608,209.000000,0.000000,4185.512695,4176.282227,4176.538574,4138.333496,4173.077148,4163.974121,4188.333496,4190.897461,4207.307617,4143.589844,4161.410156,4135.384766,4157.948730,4153.205078,3286.000000,4.000000,95.000000,,,,0.000000,4.000000,4.000000,4.000000,4.000000,4.000000,4.000000,4.000000,4.000000,4.000000,4.000000,4.000000,4.000000,4.000000,4.000000,100.000000,,,,,,,,,,,,,,,,
1645707555.629548,210.000000,0.000000,4184.743652,4182.563965,4175.641113,4142.692383,4167.563965,4164.743652,4189.358887,4186.666504,4204.487305,4136.666504,4159.230957,4133.077148,4151.666504,4142.307617,2989.000000,4.000000,95.000000,,,,0.000000,4.000000,4.000000,4.000000,4.000000,4.000000,4.000000,4.000000,4.000000,4.000000,4.000000,4.000000,4.000000,4.000000,4.000000,100.000000,,,,,,,,,,,,,,,,
1645707555.633488,211.000000,0.000000,4184.230957,4190.641113,4171.153809,4146.153809,4167.820313,4166.025879,4188.717773,4186.794922,4204.487305,4134.615234,4157.307617,4128.717773,4146.666504,4133.589844,3537.000000,4.000000,95.000000,,,,0.000000,4.000000,4.000000,4.000000,4.000000,4.000000,4.000000,4.000000,4.000000,4.000000,4.000000,4.000000,4.000000,4.000000,4.000000,100.000000,,,,,,,,,,,,,,,,
1645707555.637428,212.000000,0.000000,4183.974121,4195.256348,4167.179688,4146.794922,4173.846191,4168.205078,4187.820313,4190.512695,4206.025879,4137.692383,4157.179688,4126.410156,4145.897461,4132.563965,3131.000000,4.000000,95.000000,,,,0.000000,4.000000,4.000000,4.000000,4.000000,4.000000,4.000000,4.000000,4.000000,4.000000,4.000000,4.000000,4.000000,4.000000,4.000000,100.000000,,,,,,,,,,,,,,,,
1645707555.641368,213.000000,0.000000,4183.717773,4193.333496,4167.051270,4142.948730,4181.025879,4170.384766,4188.589844,4194.743652,4206.922852,4142.307617,4157.820313,4127.820313,4147.692383,4138.461426,3286.000000,4.000000,95.000000,,,,0.000000,4.000000,4.000000,4.000000,4.000000,4.000000,4.000000,4.000000,4.000000,4.000000,4.000000,4.000000,4.000000,4.000000,4.000000,100.000000,,,,,,,,,,,,,,,,
1645707555.645309,214.000000,0.000000,4184.615234,4186.794922,4171.025879,4135.897461,4184.743652,4171.794922,4192.051270,4196.410156,4206.025879,4144.487305,4158.846191,4131.794922,4148.205078,4144.358887,2989.000000,4.000000,95.000000,,,,0.000000,4.000000,4.000000,4.000000,4.000000,4.000000,4.000000,4.000000,4.000000,4.000000,4.000000,4.000000,4.000000,4.000000,4.000000,100.000000,,,,,,,,,,,,,,,,
1645707555.649249,215.000000,0.000000,4187.563965,4181.666504,4176.410156,4130.384766,4184.230957,4172.820313,4196.410156,4194.358887,4204.230957,4142.563965,4160.641113,4136.666504,4145.897461,4142.820313,3537.000000,4.000000,95.000000,,,,0.000000,4.000000,4.000000,4.000000,4.000000,4.000000,4.000000,4.000000,4.000000,4.000000,4.000000,4.000000,4.000000,4.000000,4.000000,100.000000,,,,,,,,,,,,,,,,
1645707555.653189,216.000000,0.000000,4192.307617,4181.794922,4179.743652,4131.666504,4182.948730,4174.102539,4198.974121,4189.871582,4202.820313,4138.589844,4163.846191,4140.769043,4142.563965,4133.077148,3131.000000,4.000000,95.000000,,,,0.000000,4.000000,4.000000,4.000000,4.000000,4.000000,4.000000,4.000000,4.000000,4.000000,4.000000,4.000000,4.000000,4.000000,4.000000,100.000000,,,,,,,,,,,,,,,,
1645707555.657129,217.000000,0.000000,4196.794922,4186.538574,4179.743652,4140.256348,4183.974121,4175.769043,4199.358887,4186.282227,4202.820313,4136.282227,4167.692383,4144.487305,4141.538574,4121.794922,3286.000000,4.000000,95.000000,,,,0.000000,4.000000,4.000000,4.000000,4.000000,4.000000,4.000000,4.000000,4.000000,4.000000,4.000000,4.000000,4.000000,4.000000,4.000000,100.000000,,,,,,,,,,,,,,,,
1645707555.661069,218.000000,0.000000,4199.102539,4191.538574,4177.820313,4152.563965,4187.436035,4177.307617,4199.102539,4186.153809,4204.871582,4138.589844,4171.025879,4148.077148,4144.871582,4117.948730,2989.000000,4.000000,95.000000,,,,0.000000,4.000000,4.000000,4.000000,4.000000,4.000000,4.000000,4.000000,4.000000,4.000000,4.000000,4.000000,4.000000,4.000000,4.000000,100.000000,,,,,,,,,,,,,,,,
1645707555.665009,219.000000,0.000000,4198.974121,4192.820313,4176.025879,4163.205078,4190.384766,4178.205078,4199.615234,4190.128418,4208.589844,4146.153809,4173.461426,4151.153809,4151.538574,4126.025879,3537.000000,4.000000,95.000000,,,,0.000000,4.000000,4.000000,4.000000,4.000000,4.000000,4.000000,4.000000,4.000000,4.000000,4.000000,4.000000,4.000000,4.000000,4.000000,100.000000,,,,,,,,,,,,,,,,
1645707555.668949,220.000000,0.000000,4197.820313,4190.128418,4174.871582,4167.436035,4190.128418,4178.077148,4200.897461,4196.282227,4213.333496,4156.282227,4175.769043,4151.282227,4158.461426,4142.820313,3131.000000,4.000000,95.000000,,,,0.000000,4.000000,4.000000,4.000000,4.000000,4.000000,4.000000,4.000000,4.000000,4.000000,4.000000,4.000000,4.000000,4.000000,4.000000,100.000000,,,,,,,,,,,,,,,,
1645707555.672889,221.000000,0.000000,4197.436035,4185.256348,4174.358887,4163.717773,4186.538574,4177.307617,4201.153809,4201.794922,4217.563965,4164.102539,4178.589844,4146.794922,4163.077148,4160.256348,3286.000000,4.000000,95.000000,,,,0.000000,4.000000,4.000000,4.000000,4.000000,4.000000,4.000000,4.000000,4.000000,4.000000,4.000000,4.000000,4.000000,4.000000,4.000000,100.000000,,,,,,,,,,,,,,,,
1645707555.676829,222.000000,0.000000,4197.820313,4181.410156,4173.846191,4154.230957,4182.051270,4175.897461,4199.871582,4205.128418,4219.487305,4166.025879,4180.769043,4138.974121,4164.487305,4171.153809,2989.000000,4.000000,95.000000,,,,0.000000,4.000000,4.000000,4.000000,4.000000,4.000000,4.000000,4.000000,4.000000,4.000000,4.000000,4.000000,4.000000,4.000000,4.000000,100.000000,,,,,,,,,,,,,,,,
1645707555.680869,223.000000,0.000000,4197.692383,4180.769043,4173.589844,4144.743652,4180.256348,4174.487305,4197.692383,4206.025879,4218.461426,4162.307617,4181.538574,4132.307617,4163.717773,4172.051270,3537.000000,4.000000,95.000000,,,,0.000000,4.000000,4.000000,4.000000,4.000000,4.000000,4.000000,4.000000,4.000000,4.000000,4.000000,4.000000,4.000000,4.000000,4.000000,100.000000,,,,,,,,,,,,,,,,
1645707555.684809,224.000000,0.000000,4196.153809,4183.846191,4173.846191,4142.179688,4182.820313,4173.717773,4195.769043,4205.384766,4215.897461,4156.410156,4181.410156,4132.307617,4163.589844,4165.128418,3131.000000,4.000000,95.000000,3,1,3,0.000000,4.000000,4.000000,4.000000,4.000000,4.000000,4.000000,4.000000,4.000000,4.000000,4.000000,4.000000,4.000000,4.000000,4.000000,100.000000,,,,,,,,,,,,,,,,
1645707555.688750,225.000000,0.000000,4193.717773,4189.230957,4173.461426,4149.102539,4188.205078,4174.358887,4194.230957,4203.333496,4214.102539,4152.820313,4181.025879,4139.487305,4166.153809,4155.512695,3286.000000,4.000000,95.000000,,,,0.000000,4.000000,4.000000,4.000000,4.000000,4.000000,4.000000,4.000000,4.000000,4.000000,4.000000,4.000000,4.000000,4.000000,4.000000,100.000000,,,,,,,,,,,,,,,,
1645707555.692690,226.000000,0.000000,4191.410156,4193.974121,4170.897461,4160.769043,4192.179688,4176.025879,4191.794922,4200.128418,4213.974121,4153.333496,4179.871582,4148.974121,4170.512695,4148.717773,2989.000000,4.000000,95.000000,,,,0.000000,4.000000,4.000000,4.000000,4.000000,4.000000,4.000000,4.000000,4.000000,4.000000,4.000000,4.000000,4.000000,4.000000,4.000000,100.000000,,,,,,,,,,,,,,,,
1645707555.696630,227.000000,0.000000,4189.358887,4195.897461,4166.025879,4167.820313,4190.512695,4177.051270,4188.461426,4196.794922,4215.384766,4156.666504,4176.538574,4153.077148,4173.589844,4147.051270,3537.000000,4.000000,95.000000,,,,0.000000,4.000000,4.000000,4.000000,4.000000,4.000000,4.000000,4.000000,4.000000,4.000000,4.000000,4.000000,4.000000,4.000000,4.000000,100.000000,,,,,,,,,,,,,,,,
1645707555.700570,228.000000,0.000000,4187.051270,4194.230957,4161.282227,4164.615234,4182.563965,4175.512695,4185.897461,4194.871582,4217.051270,4158.974121,4170.897461,4147.948730,4172.563965,4148.846191,3131.000000,4.000000,95.000000,,,,0.000000,4.000000,4.000000,4.000000,4.000000,4.000000,4.000000,4.000000,4.000000,4.000000,4.000000,4.000000,4.000000,4.000000,4.000000,100.000000,,,,,,,,,,,,,,,,
1645707555.704510,229.000000,0.000000,4184.487305,4190.384766,4159.743652,4154.102539,4172.820313,4171.538574,4186.153809,4195.256348,4217.692383,4157.948730,4165.641113,4136.794922,4168.077148,4150.641113,3286.000000,4.000000,95.000000,,,,0.000000,4.000000,4.000000,4.000000,4.000000,4.000000,4.000000,4.000000,4.000000,4.000000,4.000000,4.000000,4.000000,4.000000,4.000000,100.000000,,,,,,,,,,,,,,,,
1645707555.708450,230.000000,0.000000,4182.820313,4185.384766,4162.563965,4145.769043,4167.563965,4167.820313,4189.102539,4196.922852,4216.922852,4155.128418,4164.358887,4127.820313,4163.205078,4150.512695,2989.000000,4.000000,95.000000,,,,0.000000,4.000000,4.000000,4.000000,4.000000,4.000000,4.000000,4.000000,4.000000,4.000000,4.000000,4.000000,4.000000,4.000000,4.000000,100.000000,,,,,,,,,,,,,,,,
1645707555.712390,231.000000,0.000000,4183.077148,4179.102539,4167.563965,4147.692383,4170.384766,4166.794922,4191.794922,4197.820313,4215.512695,4153.974121,4168.846191,4127.563965,4161.410156,4147.948730,3537.000000,4.000000,95.000000,,,,0.000000,4.000000,4.000000,4.000000,4.000000,4.000000,4.000000,4.000000,4.000000,4.000000,4.000000,4.000000,4.000000,4.000000,4.000000,100.000000,,,,,,,,,,,,,,,,
1645707555.716330,232.000000,0.000000,4185.000000,4171.922852,4171.794922,4160.128418,4178.974121,4168.333496,4191.922852,4196.922852,4213.974121,4155.897461,4176.794922,4137.179688,4162.563965,4144.358887,3131.000000,4.000000,95.000000,,,,0.000000,4.000000,4.000000,4.000000,4.000000,4.000000,4.000000,4.000000,4.000000,4.000000,4.000000,4.000000,4.000000,4.000000,4.000000,100.000000,,,,,,,,,,,,,,,,
1645707555.720270,233.000000,0.000000,4187.436035,4165.769043,4173.461426,4175.384766,4186.794922,4170.000000,4189.487305,4194.871582,4212.820313,4158.717773,4183.333496,4151.025879,4164.358887,4141.410156,3286.000000,4.000000,95.000000,,,,0.000000,4.000000,4.000000,4.000000,4.000000,4.000000,4.000000,4.000000,4.000000,4.000000,4.000000,4.000000,4.000000,4.000000,4.000000,100.000000,,,,,,,,,,,,,,,,
1645707555.724211,234.000000,0.000000,4189.230957,4163.974121,4173.077148,4183.974121,4189.102539,4169.871582,4186.538574,4192.820313,4211.666504,4159.230957,4184.871582,4160.384766,4164.487305,4141.666504,2989.000000,4.000000,95.000000,,,,0.000000,4.000000,4.000000,4.000000,4.000000,4.000000,4.000000,4.000000,4.000000,4.000000,4.000000,4.000000,4.000000,4.000000,4.000000,100.000000,,,,,,,,,,,,,,,,
1645707555.728151,235.000000,0.000000,4190.384766,4169.102539,4171.794922,4181.410156,4186.410156,4167.820313,4183.974121,4190.512695,4210.384766,4156.922852,4182.436035,4159.871582,4162.948730,4146.922852,3537.000000,4.000000,95.000000,,,,0.000000,4.000000,4.000000,4.000000,4.000000,4.000000,4.000000,4.000000,4.000000,4.000000,4.000000,4.000000,4.000000,4.000000,4.000000,100.000000,,,,,,,,,,,,,,,,
1645707555.732091,236.000000,0.000000,4191.410156,4179.487305,4170.897461,4170.384766,4182.948730,4165.897461,4182.051270,4186.922852,4208.974121,4154.230957,4179.487305,4150.641113,4161.922852,4155.641113,3131.000000,4.000000,95.000000,,,,0.000000,4.000000,4.000000,4.000000,4.000000,4.000000,4.000000,4.000000,4.000000,4.000000,4.000000,4.000000,4.000000,4.000000,4.000000,100.000000,,,,,,,,,,,,,,,,
1645707555.736031,237.000000,0.000000,4192.179688,4190.897461,4171.153809,4157.436035,4182.563965,4165.256348,4180.769043,4181.922852,4207.820313,4152.692383,4178.974121,4139.615234,4162.563965,4163.077148,3286.000000,4.000000,95.000000,,,,0.000000,4.000000,4.000000,4.000000,4.000000,4.000000,4.000000,4.000000,4.000000,4.000000,4.000000,4.000000,4.000000,4.000000,4.000000,100.000000,,,,,,,,,,,,,,,,
1645707555.739971,238.000000,0.000000,4192.436035,4197.820313,4173.589844,4149.487305,4185.128418,4165.512695,4180.512695,4177.692383,4206.794922,4152.179688,4181.025879,4134.358887,4163.974121,4164.615234,2989.000000,4.000000,95.000000,,,,0.000000,4.000000,4.000000,4.000000,4.000000,4.000000,4.000000,4.000000,4.000000,4.000000,4.000000,4.000000,4.000000,4.000000,4.000000,100.000000,,,,,,,,,,,,,,,,
1645707555.743911,239.000000,0.000000,4191.922852,4198.717773,4177.692383,4150.769043,4188.846191,4166.410156,4181.922852,4176.282227,4205.512695,4151.922852,4183.205078,4137.307617,4163.717773,4160.000000,3537.000000,4.000000,95.000000,,,,0.000000,4.000000,4.000000,4.000000,4.000000,4.000000,4.000000,4.000000,4.000000,4.000000,4.000000,4.000000,4.000000,4.000000,4.000000,100.000000,,,,,,,,,,,,,,,,
1645707555.747851,240.000000,0.000000,4192.051270,4195.256348,4181.794922,4160.897461,4192.307617,4168.077148,4184.615234,4178.589844,4204.358887,4152.820313,4183.333496,4145.128418,4161.666504,4154.487305,3131.000000,4.000000,95.000000,,,,0.000000,4.000000,4.000000,4.000000,4.000000,4.000000,4.000000,4.000000,4.000000,4.000000,4.000000,4.000000,4.000000,4.000000,4.000000,100.000000,1.000000,100.000000,4.000000,4.000000,4.000000,4.000000,4.000000,4.000000,4.000000,4.000000,4.000000,4.000000,4.000000,4.000000,4.000000,4.000000
1645707555.751791,241.000000,0.000000,4194.230957,4191.282227,4184.102539,4174.871582,4195.256348,4171.410156,4187.179688,4183.461426,4203.846191,4154.871582,4181.410156,4152.436035,4159.871582,4153.333496,3286.000000,4.000000,95.000000,,,,0.000000,4.000000,4.000000,4.000000,4.000000,4.000000,4.000000,4.000000,4.000000,4.000000,4.000000,4.000000,4.000000,4.000000,4.000000,100.000000,,,,,,,,,,,,,,,,
1645707555.755631,242.000000,0.000000,4198.077148,4188.974121,4184.230957,4186.282227,4196.922852,4175.512695,4188.974121,4188.974121,4204.743652,4156.794922,4178.717773,4155.512695,4161.153809,4156.922852,2989.000000,4.000000,95.000000,,,,0.000000,4.000000,4.000000,4.000000,4.000000,4.000000,4.000000,4.000000,4.000000,4.000000,4.000000,4.000000,4.000000,4.000000,4.000000,100.000000,,,,,,,,,,,,,,,,
1645707555.759572,243.000000,0.000000,4200.769043,4188.205078,4183.077148,4189.487305,4196.153809,4177.692383,4190.384766,4193.205078,4207.051270,4156.025879,4176.153809,4153.717773,4165.384766,4161.410156,3537.000000,4.000000,95.000000,,,,0.000000,4.000000,4.000000,4.000000,4.000000,4.000000,4.000000,4.000000,4.000000,4.000000,4.000000,4.000000,4.000000,4.000000,4.000000,100.000000,,,,,,,,,,,,,,,,
1645707555.763512,244.000000,0.000000,4200.256348,4188.717773,4181.538574,4183.205078,4193.205078,4176.538574,4192.692383,4195.384766,4210.128418,4152.563965,4173.974121,4149.230957,4170.384766,4162.820313,3131.000000,4.000000,95.000000,,,,0.000000,4.000000,4.000000,4.000000,4.000000,4.000000,4.000000,4.000000,4.000000,4.000000,4.000000,4.000000,4.000000,4.000000,4.000000,100.000000,,,,,,,,,,,,,,,,
1645707555.767452,245.000000,0.000000,4198.077148,4190.897461,4179.230957,4171.282227,4190.897461,4173.846191,4195.769043,4195.256348,4213.205078,4150.384766,4173.461426,4145.256348,4173.717773,4160.256348,3286.000000,4.000000,95.000000,,,,0.000000,4.000000,4.000000,4.000000,4.000000,4.000000,4.000000,4.000000,4.000000,4.000000,4.000000,4.000000,4.000000,4.000000,4.000000,100.000000,,,,,,,,,,,,,,,,
1645707555.771392,246.000000,0.000000,4197.436035,4194.358887,4176.538574,4161.153809,4192.436035,4173.333496,4197.948730,4193.717773,4215.769043,4153.589844,4175.256348,4143.717773,4174.871582,4154.615234,2989.000000,4.000000,95.000000,,,,0.000000,4.000000,4.000000,4.000000,4.000000,4.000000,4.000000,4.000000,4.000000,4.000000,4.000000,4.000000,4.000000,4.000000,4.000000,100.000000,,,,,,,,,,,,,,,,
1645707555.775332,247.000000,0.000000,4198.974121,4197.436035,4174.102539,4160.128418,4197.692383,4176.410156,4198.205078,4193.077148,4217.436035,4161.922852,4178.717773,4144.102539,4174.615234,4147.563965,3537.000000,4.000000,95.000000,,,,0.000000,4.000000,4.000000,4.000000,4.000000,4.000000,4.000000,4.000000,4.000000,4.000000,4.000000,4.000000,4.000000,4.000000,4.000000,100.000000,,,,,,,,,,,,,,,,
1645707555.779272,248.000000,0.000000,4200.384766,4196.922852,4172.820313,4169.358887,4203.077148,4181.153809,4197.307617,4194.743652,4217.692383,4169.615234,4181.666504,4144.743652,4173.461426,4141.025879,3131.000000,4.000000,95.000000,,,,0.000000,4.000000,4.000000,4.000000,4.000000,4.000000,4.000000,4.000000,4.000000,4.000000,4.000000,4.000000,4.000000,4.000000,4.000000,100.000000,,,,,,,,,,,,,,,,
1645707555.783212,249.000000,0.000000,4197.948730,4191.922852,4172.563965,4182.820313,4204.102539,4184.871582,4197.307617,4197.820313,4216.922852,4171.153809,4182.179688,4145.000000,4172.307617,4137.436035,3286.000000,4.000000,95.000000,,,,0.000000,4.000000,4.000000,4.000000,4.000000,4.000000,4.000000,4.000000,4.000000,4.000000,4.000000,4.000000,4.000000,4.000000,4.000000,100.000000,,,,,,,,,,,,,,,,
1645707555.787152,250.000000,0.000000,4191.282227,4185.000000,4172.692383,4190.641113,4200.256348,4186.153809,4199.102539,4200.128418,4215.897461,4166.794922,4181.538574,4145.897461,4172.307617,4138.846191,2989.000000,4.000000,95.000000,,,,0.000000,4.000000,4.000000,4.000000,4.000000,4.000000,4.000000,4.000000,4.000000,4.000000,4.000000,4.000000,4.000000,4.000000,4.000000,100.000000,,,,,,,,,,,,,,,,
1645707555.791092,251.000000,0.000000,4183.974121,4181.410156,4173.077148,4186.794922,4195.641113,4186.025879,4201.538574,4200.512695,4215.897461,4162.307617,4182.307617,4148.589844,4174.743652,4145.897461,3537.000000,4.000000,95.000000,,,,0.000000,4.000000,4.000000,4.000000,4.000000,4.000000,4.000000,4.000000,4.000000,4.000000,4.000000,4.000000,4.000000,4.000000,4.000000,100.000000,,,,,,,,,,,,,,,,
1645707555.795033,252.000000,0.000000,4180.769043,4184.487305,4175.256348,4174.743652,4195.641113,4186.282227,4203.333496,4200.128418,4217.179688,4163.589844,4185.256348,4152.563965,4178.974121,4156.410156,3131.000000,4.000000,95.000000,,,,0.000000,4.000000,4.000000,4.000000,4.000000,4.000000,4.000000,4.000000,4.000000,4.000000,4.000000,4.000000,4.000000,4.000000,4.000000,100.000000,,,,,,,,,,,,,,,,
1645707555.798973,253.000000,0.000000,4183.846191,4192.948730,4180.000000,4164.102539,4201.282227,4187.307617,4203.846191,4200.897461,4218.589844,4170.641113,4189.102539,4155.769043,4182.179688,4166.410156,3286.000000,4.000000,95.000000,,,,0.000000,4.000000,4.000000,4.000000,4.000000,4.000000,4.000000,4.000000,4.000000,4.000000,4.000000,4.000000,4.000000,4.000000,4.000000,100.000000,,,,,,,,,,,,,,,,
1645707555.802913,254.000000,0.000000,4191.153809,4201.538574,4186.153809,4163.461426,4208.461426,4188.205078,4203.205078,4203.717773,4218.846191,4178.077148,4192.179688,4156.538574,4181.666504,4171.922852,2989.000000,4.000000,95.000000,,,,0.000000,4.000000,4.000000,4.000000,4.000000,4.000000,4.000000,4.000000,4.000000,4.000000,4.000000,4.000000,4.000000,4.000000,4.000000,100.000000,,,,,,,,,,,,,,,,
1645707555.806853,255.000000,0.000000,4198.333496,4205.256348,4190.128418,4173.205078,4212.051270,4188.461426,4201.025879,4206.282227,4216.922852,4181.538574,4193.974121,4154.615234,4176.922852,4171.282227,115.000000,4.000000,95.000000,,,,0.000000,4.000000,4.000000,4.000000,4.000000,4.000000,4.000000,4.000000,4.000000,4.000000,4.000000,4.000000,4.000000,4.000000,4.000000,100.000000,,,,,,,,,,,,,,,,
1645707555.810793,0.000000,0.000000,4201.922852,4203.333496,4189.871582,4185.256348,4209.358887,4187.179688,4197.051270,4205.128418,4213.846191,4180.512695,4195.641113,4152.307617,4171.794922,4166.282227,3418.000000,4.000000,95.000000,,,,0.000000,4.000000,4.000000,4.000000,4.000000,4.000000,4.000000,4.000000,4.000000,4.000000,4.000000,4.000000,4.000000,4.000000,4.000000,100.000000,,,,,,,,,,,,,,,,
1645707555.814733,1.000000,0.000000,4201.666504,4198.205078,4186.410156,4190.384766,4202.179688,4184.230957,4191.666504,4199.358887,4210.769043,4177.179688,4197.051270,4151.666504,4170.128418,4161.025879,3251.000000,4.000000,95.000000,,,,0.000000,4.000000,4.000000,4.000000,4.000000,4.000000,4.000000,4.000000,4.000000,4.000000,4.000000,4.000000,4.000000,4.000000,4.000000,100.000000,,,,,,,,,,,,,,,,
1645707555.818673,2.000000,0.000000,4199.230957,4192.692383,4183.333496,4186.538574,4194.871582,4180.000000,4187.307617,4191.538574,4208.846191,4172.820313,4196.666504,4153.333496,4172.563965,4158.717773,3522.000000,4.000000,95.000000,,,,0.000000,4.000000,4.000000,4.000000,4.000000,4.000000,4.000000,4.000000,4.000000,4.000000,4.000000,4.000000,4.000000,4.000000,4.000000,100.000000,,,,,,,,,,,,,,,,
1645707555.822613,3.000000,0.000000,4196.666504,4189.487305,4183.846191,4179.230957,4191.153809,4176.153809,4185.769043,4186.282227,4208.205078,4167.307617,4193.205078,4156.666504,4176.153809,4159.487305,3453.000000,4.000000,95.000000,,,,0.000000,4.000000,4.000000,4.000000,4.000000,4.000000,4.000000,4.000000,4.000000,4.000000,4.000000,4.000000,4.000000,4.000000,4.000000,100.000000,,,,,,,,,,,,,,,,
1645707555.826553,4.000000,0.000000,4195.897461,4189.487305,4188.077148,4176.153809,4192.948730,4174.615234,4187.179688,4186.538574,4208.717773,4160.769043,4188.205078,4160.512695,4178.077148,4161.666504,3522.000000,4.000000,95.000000,,,,0.000000,4.000000,4.000000,4.000000,4.000000,4.000000,4.000000,4.000000,4.000000,4.000000,4.000000,4.000000,4.000000,4.000000,4.000000,100.000000,,,,,,,,,,,,,,,,
1645707555.830394,5.000000,0.000000,4197.948730,4192.436035,4193.589844,4179.615234,4198.717773,4175.769043,4189.487305,4190.641113,4209.743652,4155.384766,4185.128418,4165.000000,4177.820313,4163.846191,3667.000000,4.000000,95.000000,,,,0.000000,4.000000,4.000000,4.000000,4.000000,4.000000,4.000000,4.000000,4.000000,4.000000,4.000000,4.000000,4.000000,4.000000,4.000000,100.000000,,,,,,,,,,,,,,,,
1645707555.834334,6.000000,0.000000,4201.538574,4197.051270,4197.692383,4185.769043,4204.487305,4178.205078,4190.641113,4194.358887,4209.871582,4154.230957,4185.641113,4169.871582,4176.922852,4165.769043,3211.000000,4.000000,95.000000,,,,0.000000,4.000000,4.000000,4.000000,4.000000,4.000000,4.000000,4.000000,4.000000,4.000000,4.000000,4.000000,4.000000,4.000000,4.000000,100.000000,,,,,,,,,,,,,,,,
1645707555.838274,7.000000,0.000000,4204.615234,4200.769043,4198.974121,4188.461426,4205.897461,4179.487305,4190.256348,4194.871582,4208.461426,4158.589844,4188.461426,4173.717773,4176.153809,4167.692383,2936.000000,4.000000,95.000000,,,,0.000000,4.000000,4.000000,4.000000,4.000000,4.000000,4.000000,4.000000,4.000000,4.000000,4.000000,4.000000,4.000000,4.000000,4.000000,100.000000,,,,,,,,,,,,,,,,
1645707555.842214,8.000000,0.000000,4205.769043,4201.410156,4197.948730,4184.871582,4202.051270,4178.077148,4190.256348,4192.436035,4205.897461,4166.025879,4190.641113,4174.615234,4175.128418,4168.205078,1619.000000,4.000000,95.000000,,,,0.000000,4.000000,4.000000,4.000000,4.000000,4.000000,4.000000,4.000000,4.000000,4.000000,4.000000,4.000000,4.000000,4.000000,4.000000,100.000000,,,,,,,,,,,,,,,,
1645707555.846154,9.000000,0.000000,4205.512695,4198.846191,4195.384766,4178.333496,4196.794922,4175.000000,4191.794922,4189.743652,4204.230957,4172.051270,4191.538574,4172.307617,4172.948730,4166.282227,3306.000000,4.000000,95.000000,,,,0.000000,4.000000,4.000000,4.000000,4.000000,4.000000,4.000000,4.000000,4.000000,4.000000,4.000000,4.000000,4.000000,4.000000,4.000000,100.000000,,,,,,,,,,,,,,,,
1645707555.850094,10.000000,0.000000,4206.153809,4195.384766,4192.179688,4175.256348,4195.512695,4173.205078,4194.615234,4189.871582,4204.615234,4173.589844,4192.051270,4169.102539,4170.384766,4163.205078,2986.000000,4.000000,95.000000,,,,0.000000,4.000000,4.000000,4.000000,4.000000,4.000000,4.000000,4.000000,4.000000,4.000000,4.000000,4.000000,4.000000,4.000000,4.000000,100.000000,,,,,,,,,,,,,,,,
1645707555.854034,11.000000,0.000000,4208.205078,4193.974121,4189.743652,4178.846191,4200.256348,4175.128418,4197.307617,4193.974121,4207.563965,4171.666504,4193.974121,4168.717773,4169.102539,4162.820313,3469.000000,4.000000,95.000000,,,,0.000000,4.000000,4.000000,4.000000,4.000000,4.000000,4.000000,4.000000,4.000000,4.000000,4.000000,4.000000,4.000000,4.000000,4.000000,100.000000,,,,,,,,,,,,,,,,
1645707555.857974,12.000000,0.000000,4210.256348,4195.128418,4189.743652,4187.179688,4207.563965,4180.256348,4199.615234,4201.025879,4211.794922,4169.358887,4196.666504,4172.820313,4170.384766,4166.794922,3346.000000,4.000000,95.000000,,,,0.000000,4.000000,4.000000,4.000000,4.000000,4.000000,4.000000,4.000000,4.000000,4.000000,4.000000,4.000000,4.000000,4.000000,4.000000,100.000000,,,,,,,,,,,,,,,,
1645707555.861914,13.000000,0.000000,4209.871582,4196.282227,4191.538574,4194.487305,4211.282227,4185.769043,4202.179688,4208.461426,4215.384766,4169.230957,4197.563965,4179.615234,4172.563965,4172.820313,3286.000000,4.000000,95.000000,,,,0.000000,4.000000,4.000000,4.000000,4.000000,4.000000,4.000000,4.000000,4.000000,4.000000,4.000000,4.000000,4.000000,4.000000,4.000000,100.000000,,,,,,,,,,,,,,,,
1645707555.865855,14.000000,0.000000,4205.769043,4194.615234,4193.077148,4196.410156,4208.461426,4188.974121,4204.871582,4213.717773,4216.794922,4171.922852,4194.230957,4183.974121,4172.179688,4175.512695,2986.000000,4.000000,95.000000,,,,0.000000,4.000000,4.000000,4.000000,4.000000,4.000000,4.000000,4.000000,4.000000,4.000000,4.000000,4.000000,4.000000,4.000000,4.000000,100.000000,,,,,,,,,,,,,,,,
1645707555.869795,15.000000,0.000000,4199.230957,4190.512695,4192.051270,4192.820313,4201.538574,4189.487305,4206.666504,4215.641113,4216.410156,4176.025879,4187.307617,4182.051270,4166.922852,4172.179688,3469.000000,4.000000,95.000000,,,,0.000000,4.000000,4.000000,4.000000,4.000000,4.000000,4.000000,4.000000,4.000000,4.000000,4.000000,4.000000,4.000000,4.000000,4.000000,100.000000,,,,,,,,,,,,,,,,
1645707555.873735,16.000000,0.000000,4193.077148,4187.051270,4188.717773,4186.922852,4196.025879,4188.589844,4206.922852,4215.000000,4215.641113,4179.230957,4180.769043,4174.102539,4157.820313,4165.000000,3346.000000,4.000000,95.000000,,,,0.000000,4.000000,4.000000,4.000000,4.000000,4.000000,4.000000,4.000000,4.000000,4.000000,4.000000,4.000000,4.000000,4.000000,4.000000,100.000000,,,,,,,,,,,,,,,,
1645707555.877675,17.000000,0.000000,4189.487305,4186.410156,4185.641113,4182.563965,4194.615234,4188.333496,4206.794922,4213.846191,4215.641113,4180.128418,4178.461426,4164.743652,4149.358887,4159.102539,3286.000000,4.000000,95.000000,,,,0.000000,4.000000,4.000000,4.000000,4.000000,4.000000,4.000000,4.000000,4.000000,4.000000,4.000000,4.000000,4.000000,4.000000,4.000000,100.000000,,,,,,,,,,,,,,,,
1645707555.881615,18.000000,0.000000,4189.358887,4188.589844,4185.384766,4181.794922,4196.282227,4189.615234,4208.077148,4214.743652,4216.666504,4179.358887,4182.051270,4158.974121,4147.307617,4159.487305,2986.000000,4.000000,95.000000,,,,0.000000,4.000000,4.000000,4.000000,4.000000,4.000000,4.000000,4.000000,4.000000,4.000000,4.000000,4.000000,4.000000,4.000000,4.000000,100.000000,,,,,,,,,,,,,,,,
1645707555.885555,19.000000,0.000000,4193.205078,4192.436035,4188.205078,4184.358887,4198.077148,4191.922852,4211.282227,4218.205078,4218.205078,4180.000000,4190.000000,4158.846191,4154.487305,4167.692383,3469.000000,4.000000,95.000000,,,,0.000000,4.000000,4.000000,4.000000,4.000000,4.000000,4.000000,4.000000,4.000000,4.000000,4.000000,4.000000,4.000000,4.000000,4.000000,100.000000,,,,,,,,,,,,,,,,
1645707555.889495,20.000000,0.000000,4200.256348,4197.051270,4192.051270,4187.948730,4198.589844,4194.615234,4214.743652,4223.461426,4220.384766,4184.230957,4199.871582,4163.205078,4168.846191,4180.897461,3346.000000,4.000000,95.000000,,,,0.000000,4.000000,4.000000,4.000000,4.000000,4.000000,4.000000,4.000000,4.000000,4.000000,4.000000,4.000000,4.000000,4.000000,4.000000,100.000000,,,,,,,,,,,,,,,,
1645707555.893435,21.000000,0.000000,4208.846191,4201.666504,4195.000000,4189.615234,4198.461426,4197.436035,4216.794922,4229.102539,4223.589844,4191.410156,4209.487305,4169.102539,4184.102539,4191.922852,3286.000000,4.000000,95.000000,,,,0.000000,4.000000,4.000000,4.000000,4.000000,4.000000,4.000000,4.000000,4.000000,4.000000,4.000000,4.000000,4.000000,4.000000,4.000000,100.000000,,,,,,,,,,,,,,,,
1645707555.897375,22.000000,0.000000,4215.512695,4205.000000,4197.307617,4188.717773,4198.974121,4200.256348,4217.692383,4234.358887,4227.436035,4197.948730,4216.538574,4174.743652,4192.820313,4193.717773,2986.000000,4.000000,95.000000,,,,0.000000,4.000000,4.000000,4.000000,4.000000,4.000000,4.000000,4.000000,4.000000,4.000000,4.000000,4.000000,4.000000,4.000000,4.000000,100.000000,,,,,,,,,,,,,,,,
1645707555.901415,23.000000,0.000000,4216.794922,4204.615234,4200.897461,4186.282227,4201.025879,4202.820313,4219.102539,4238.717773,4230.384766,4201.153809,4220.000000,4179.230957,4192.307617,4184.871582,3469.000000,4.000000,95.000000,,,,0.000000,4.000000,4.000000,4.000000,4.000000,4.000000,4.000000,4.000000,4.000000,4.000000,4.000000,4.000000,4.000000,4.000000,4.000000,100.000000,,,,,,,,,,,,,,,,
1645707555.905356,24.000000,0.000000,4212.948730,4199.871582,4205.897461,4185.000000,4204.487305,4204.615234,4221.922852,4241.153809,4231.025879,4200.769043,4219.871582,4182.179688,4186.153809,4172.051270,3346.000000,4.000000,95.000000,,,,0.000000,4.000000,4.000000,4.000000,4.000000,4.000000,4.000000,4.000000,4.000000,4.000000,4.000000,4.000000,4.000000,4.000000,4.000000,100.000000,,,,,,,,,,,,,,,,
1645707555.909296,25.000000,0.000000,4206.922852,4192.563965,4209.871582,4185.897461,4208.589844,4205.512695,4224.615234,4240.000000,4229.615234,4198.589844,4218.077148,4182.692383,4180.384766,4165.641113,3286.000000,4.000000,95.000000,,,,0.000000,4.000000,4.000000,4.000000,4.000000,4.000000,4.000000,4.000000,4.000000,4.000000,4.000000,4.000000,4.000000,4.000000,4.000000,100.000000,,,,,,,,,,,,,,,,
1645707555.913236,26.000000,0.000000,4202.436035,4186.025879,4210.384766,4188.205078,4211.025879,4205.384766,4223.974121,4235.000000,4227.307617,4195.769043,4216.025879,4179.615234,4178.077148,4170.256348,2986.000000,4.000000,95.000000,,,,0.000000,4.000000,4.000000,4.000000,4.000000,4.000000,4.000000,4.000000,4.000000,4.000000,4.000000,4.000000,4.000000,4.000000,4.000000,100.000000,,,,,,,,,,,,,,,,
1645707555.917176,27.000000,0.000000,4200.256348,4182.692383,4207.307617,4188.333496,4209.230957,4203.461426,4219.487305,4228.205078,4225.128418,4192.436035,4213.589844,4172.948730,4177.307617,4180.512695,3469.000000,4.000000,95.000000,,,,0.000000,4.000000,4.000000,4.000000,4.000000,4.000000,4.000000,4.000000,4.000000,4.000000,4.000000,4.000000,4.000000,4.000000,4.000000,100.000000,,,,,,,,,,,,,,,,
1645707555.921116,28.000000,0.000000,4199.871582,4183.846191,4202.820313,4183.589844,4202.948730,4199.230957,4213.846191,4222.307617,4223.333496,4188.205078,4209.615234,4164.615234,4174.102539,4186.538574,3346.000000,4.000000,95.000000,,,,0.000000,4.000000,4.000000,4.000000,4.000000,4.000000,4.000000,4.000000,4.000000,4.000000,4.000000,4.000000,4.000000,4.000000,4.000000,100.000000,,,,,,,,,,,,,,,,
1645707555.925056,29.000000,0.000000,4200.512695,4189.487305,4199.743652,4174.230957,4196.025879,4194.358887,4210.641113,4218.974121,4221.666504,4184.487305,4204.358887,4158.461426,4168.461426,4183.589844,3286.000000,4.000000,95.000000,,,,0.000000,4.000000,4.000000,4.000000,4.000000,4.000000,4.000000,4.000000,4.000000,4.000000,4.000000,4.000000,4.000000,4.000000,4.000000,100.000000,,,,,,,,,,,,,,,,
1645707555.928996,30.000000,0.000000,4202.948730,4197.948730,4200.000000,4165.256348,4194.358887,4192.307617,4211.282227,4218.077148,4219.871582,4183.077148,4200.000000,4157.563965,4164.487305,4176.410156,2986.000000,4.000000,95.000000,,,,0.000000,4.000000,4.000000,4.000000,4.000000,4.000000,4.000000,4.000000,4.000000,4.000000,4.000000,4.000000,4.000000,4.000000,4.000000,100.000000,,,,,,,,,,,,,,,,
1645707555.932936,31.000000,0.000000,4207.692383,4205.641113,4203.717773,4162.820313,4200.769043,4194.487305,4214.102539,4218.589844,4218.846191,4184.871582,4198.333496,4162.436035,4166.282227,4173.717773,3469.000000,4.000000,95.000000,,,,0.000000,4.000000,4.000000,4.000000,4.000000,4.000000,4.000000,4.000000,4.000000,4.000000,4.000000,4.000000,4.000000,4.000000,4.000000,100.000000,,,,,,,,,,,,,,,,
1645707555.936876,32.000000,0.000000,4212.820313,4208.205078,4209.487305,4169.615234,4211.538574,4198.974121,4216.153809,4219.487305,4220.000000,4187.692383,4199.615234,4170.256348,4173.333496,4179.102539,0.000000,4.000000,95.000000,,,,0.000000,4.000000,4.000000,4.000000,4.000000,4.000000,4.000000,4.000000,4.000000,4.000000,4.000000,4.000000,4.000000,4.000000,4.000000,100.000000,,,,,,,,,,,,,,,,
1645707555.940816,33.000000,0.000000,4215.512695,4203.717773,4214.487305,4181.538574,4219.358887,4202.051270,4216.410156,4220.256348,4222.820313,4188.461426,4201.153809,4177.307617,4180.512695,4188.974121,0.000000,4.000000,95.000000,,,,0.000000,4.000000,4.000000,4.000000,4.000000,4.000000,4.000000,4.000000,4.000000,4.000000,4.000000,4.000000,4.000000,4.000000,4.000000,100.000000,,,,,,,,,,,,,,,,
1645707555.944757,34.000000,0.000000,4214.487305,4195.641113,4216.666504,4190.000000,4219.743652,4201.153809,4215.512695,4220.769043,4225.384766,4186.922852,4201.025879,4182.179688,4182.692383,4195.769043,0.000000,4.000000,95.000000,,,,0.000000,4.000000,4.000000,4.000000,4.000000,4.000000,4.000000,4.000000,4.000000,4.000000,4.000000,4.000000,4.000000,4.000000,4.000000,100.000000,,,,,,,,,,,,,,,,
1645707555.948697,35.000000,0.000000,4211.282227,4190.256348,4215.512695,4188.333496,4213.717773,4197.948730,4214.487305,4220.256348,4226.153809,4185.256348,4198.717773,4184.871582,4179.230957,4194.230957,0.000000,4.000000,95.000000,,,,0.000000,4.000000,4.000000,4.000000,4.000000,4.000000,4.000000,4.000000,4.000000,4.000000,4.000000,4.000000,4.000000,4.000000,4.000000,100.000000,,,,,,,,,,,,,,,,
1645707555.952637,36.000000,0.000000,4208.461426,4191.410156,4211.922852,4177.179688,4206.410156,4195.256348,4213.717773,4218.846191,4225.256348,4185.641113,4195.128418,4185.641113,4173.717773,4183.974121,0.000000,4.000000,95.000000,,,,0.000000,4.000000,4.000000,4.000000,4.000000,4.000000,4.000000,4.000000,4.000000,4.000000,4.000000,4.000000,4.000000,4.000000,4.000000,100.000000,,,,,,,,,,,,,,,,
1645707555.956577,37.000000,0.000000,4207.307617,4197.051270,4208.205078,4164.487305,4201.410156,4195.128418,4213.846191,4217.436035,4223.589844,4186.666504,4190.641113,4184.358887,4170.384766,4169.230957,0.000000,4.000000,95.000000,,,,0.000000,4.000000,4.000000,4.000000,4.000000,4.000000,4.000000,4.000000,4.000000,4.000000,4.000000,4.000000,4.000000,4.000000,4.000000,100.000000,,,,,,,,,,,,,,,,
1645707555.960517,38.000000,0.000000,4207.179688,4201.794922,4206.410156,4159.358887,4199.743652,4197.051270,4215.641113,4217.563965,4222.051270,4185.000000,4186.153809,4181.025879,4171.282227,4156.538574,0.000000,4.000000,95.000000,,,,0.000000,4.000000,4.000000,4.000000,4.000000,4.000000,4.000000,4.000000,4.000000,4.000000,4.000000,4.000000,4.000000,4.000000,4.000000,100.000000,,,,,,,,,,,,,,,,
1645707555.964457,39.000000,0.000000,4206.410156,4202.436035,4207.051270,4165.256348,4200.256348,4199.615234,4218.717773,4220.128418,4221.025879,4180.256348,4183.589844,4177.563965,4175.384766,4152.051270,0.000000,4.000000,95.000000,,,,0.000000,4.000000,4.000000,4.000000,4.000000,4.000000,4.000000,4.000000,4.000000,4.000000,4.000000,4.000000,4.000000,4.000000,4.000000,100.000000,,,,,,,,,,,,,,,,
1645707555.968397,40.000000,0.000000,4203.974121,4199.487305,4208.846191,4177.307617,4202.307617,4201.794922,4221.025879,4224.358887,4220.897461,4176.282227,4185.897461,4175.897461,4180.897461,4157.820313,0.000000,4.000000,95.000000,,,,0.000000,4.000000,4.000000,4.000000,4.000000,4.000000,4.000000,4.000000,4.000000,4.000000,4.000000,4.000000,4.000000,4.000000,4.000000,100.000000,,,,,,,,,,,,,,,,
1645707555.972337,41.000000,0.000000,4200.256348,4196.025879,4209.487305,4186.538574,4205.641113,4202.948730,4220.769043,4227.948730,4221.922852,4178.077148,4193.333496,4176.538574,4185.512695,4170.512695,0.000000,4.000000,95.000000,,,,0.000000,4.000000,4.000000,4.000000,4.000000,4.000000,4.000000,4.000000,4.000000,4.000000,4.000000,4.000000,4.000000,4.000000,4.000000,100.000000,,,,,,,,,,,,,,,,
1645707555.976377,42.000000,0.000000,4196.025879,4193.974121,4207.307617,4186.794922,4208.333496,4202.307617,4217.820313,4228.974121,4223.461426,4186.410156,4201.922852,4177.436035,4187.436035,4182.820313,0.000000,4.000000,95.000000,,,,0.000000,4.000000,4.000000,4.000000,4.000000,4.000000,4.000000,4.000000,4.000000,4.000000,4.000000,4.000000,4.000000,4.000000,4.000000,100.000000,,,,,,,,,,,,,,,,
1645707555.980317,43.000000,0.000000,4192.563965,4192.563965,4202.563965,4177.692383,4207.948730,4199.743652,4213.974121,4226.794922,4224.358887,4195.897461,4205.897461,4176.153809,4185.769043,4188.461426,0.000000,4.000000,95.000000,,,,0.000000,4.000000,4.000000,4.000000,4.000000,4.000000,4.000000,4.000000,4.000000,4.000000,4.000000,4.000000,4.000000,4.000000,4.000000,100.000000,,,,,,,,,,,,,,,,
1645707555.984258,44.000000,0.000000,4190.769043,4190.000000,4196.666504,4164.871582,4203.974121,4196.410156,4212.307617,4223.205078,4224.230957,4199.871582,4202.948730,4172.563965,4182.051270,4186.153809,0.000000,4.000000,95.000000,,,,0.000000,4.000000,4.000000,4.000000,4.000000,4.000000,4.000000,4.000000,4.000000,4.000000,4.000000,4.000000,4.000000,4.000000,4.000000,100.000000,,,,,,,,,,,,,,,,
1645707555.988198,45.000000,0.000000,4190.384766,4186.410156,4191.922852,4155.256348,4198.846191,4194.615234,4213.205078,4220.769043,4223.846191,4196.025879,4196.922852,4168.589844,4178.589844,4178.717773,0.000000,4.000000,95.000000,,,,0.000000,4.000000,4.000000,4.000000,4.000000,4.000000,4.000000,4.000000,4.000000,4.000000,4.000000,4.000000,4.000000,4.000000,4.000000,100.000000,,,,,,,,,,,,,,,,
1645707555.992138,46.000000,0.000000,4191.153809,4182.307617,4190.384766,4152.820313,4196.282227,4195.384766,4215.256348,4220.769043,4223.717773,4188.077148,4193.333496,4167.051270,4177.692383,4171.153809,0.000000,4.000000,95.000000,,,,0.000000,4.000000,4.000000,4.000000,4.000000,4.000000,4.000000,4.000000,4.000000,4.000000,4.000000,4.000000,4.000000,4.000000,4.000000,100.000000,,,,,,,,,,,,,,,,
1645707555.996078,47.000000,0.000000,4191.538574,4179.102539,4192.436035,4156.410156,4197.820313,4197.307617,4216.666504,4222.692383,4222.820313,4182.307617,4194.230957,4168.846191,4178.974121,4167.051270,0.000000,4.000000,95.000000,,,,0.000000,4.000000,4.000000,4.000000,4.000000,4.000000,4.000000,4.000000,4.000000,4.000000,4.000000,4.000000,4.000000,4.000000,4.000000,100.000000,,,,,,,,,,,,,,,,
1645707556.000018,48.000000,0.000000,4191.410156,4177.948730,4197.820313,4161.794922,4201.025879,4197.820313,4216.410156,4224.871582,4220.769043,4182.051270,4196.922852,4172.563965,4181.282227,4167.179688,0.000000,4.000000,95.000000,,,,0.000000,4.000000,4.000000,4.000000,4.000000,4.000000,4.000000,4.000000,4.000000,4.000000,4.000000,4.000000,4.000000,4.000000,4.000000,100.000000,,,,,,,,,,,,,,,,
1645707556.003958,49.000000,0.000000,4191.538574,4180.000000,4204.487305,4165.384766,4202.820313,4195.512695,4214.615234,4225.384766,4217.948730,4185.897461,4198.333496,4176.410156,4182.692383,4170.384766,0.000000,4.000000,95.000000,,,,0.000000,4.000000,4.000000,4.000000,4.000000,4.000000,4.000000,4.000000,4.000000,4.000000,4.000000,4.000000,4.000000,4.000000,4.000000,100.000000,,,,,,,,,,,,,,,,
1645707556.007898,50.000000,0.000000,4193.333496,4185.641113,4209.487305,4165.897461,4202.051270,4192.051270,4211.666504,4222.948730,4216.410156,4190.641113,4198.461426,4179.358887,4183.333496,4175.384766,0.000000,4.000000,95.000000,,,,0.000000,4.000000,4.000000,4.000000,4.000000,4.000000,4.000000,4.000000,4.000000,4.000000,4.000000,4.000000,4.000000,4.000000,4.000000,100.000000,,,,,,,,,,,,,,,,
1645707556.011838,51.000000,0.000000,4197.179688,4193.333496,4210.641113,4165.256348,4199.871582,4189.487305,4208.077148,4217.436035,4216.410156,4193.205078,4199.615234,4181.410156,4183.717773,4181.666504,0.000000,4.000000,95.000000,,,,0.000000,4.000000,4.000000,4.000000,4.000000,4.000000,4.000000,4.000000,4.000000,4.000000,4.000000,4.000000,4.000000,4.000000,4.000000,100.000000,,,,,,,,,,,,,,,,
1645707556.015778,52.000000,0.000000,4201.410156,4199.615234,4209.230957,4165.256348,4197.436035,4188.717773,4205.512695,4210.897461,4217.179688,4192.179688,4202.436035,4182.820313,4184.615234,4189.102539,0.000000,4.000000,95.000000,,,,0.000000,4.000000,4.000000,4.000000,4.000000,4.000000,4.000000,4.000000,4.000000,4.000000,4.000000,4.000000,4.000000,4.000000,4.000000,100.000000,,,,,,,,,,,,,,,,
1645707556.019718,53.000000,0.000000,4204.615234,4201.282227,4208.461426,4167.179688,4195.769043,4189.358887,4205.897461,4206.794922,4217.179688,4188.205078,4205.000000,4184.102539,4186.025879,4196.538574,0.000000,4.000000,95.000000,,,,0.000000,4.000000,4.000000,4.000000,4.000000,4.000000,4.000000,4.000000,4.000000,4.000000,4.000000,4.000000,4.000000,4.000000,4.000000,100.000000,,,,,,,,,,,,,,,,
1645707556.023659,54.000000,0.000000,4206.282227,4197.692383,4211.153809,4171.410156,4195.256348,4190.641113,4209.358887,4207.051270,4216.025879,4183.461426,4205.384766,4186.025879,4188.461426,4202.179688,0.000000,4.000000,95.000000,,,,0.000000,4.000000,4.000000,4.000000,4.000000,4.000000,4.000000,4.000000,4.000000,4.000000,4.000000,4.000000,4.000000,4.000000,4.000000,100.000000,,,,,,,,,,,,,,,,
1645707556.027599,55.000000,0.000000,4207.179688,4192.307617,4217.051270,4177.692383,4196.666504,4192.563965,4212.948730,4210.384766,4215.128418,4180.897461,4203.717773,4189.487305,4192.436035,4204.487305,0.000000,4.000000,95.000000,,,,0.000000,4.000000,4.000000,4.000000,4.000000,4.000000,4.000000,4.000000,4.000000,4.000000,4.000000,4.000000,4.000000,4.000000,4.000000,100.000000,,,,,,,,,,,,,,,,
1645707556.031539,56.000000,0.000000,4208.333496,4189.743652,4222.563965,4185.000000,4199.871582,4194.487305,4212.948730,4212.948730,4215.641113,4181.666504,4202.692383,4194.871582,4197.179688,4203.077148,0.000000,4.000000,95.000000,,,,0.000000,4.000000,4.000000,4.000000,4.000000,4.000000,4.000000,4.000000,4.000000,4.000000,4.000000,4.000000,4.000000,4.000000,4.000000,100.000000,,,,,,,,,,,,,,,,
1645707556.035479,57.000000,0.000000,4209.871582,4191.922852,4224.871582,4190.128418,4203.077148,4195.384766,4208.717773,4212.179688,4216.666504,4183.846191,4203.717773,4200.769043,4200.000000,4198.077148,0.000000,4.000000,95.000000,,,,0.000000,4.000000,4.000000,4.000000,4.000000,4.000000,4.000000,4.000000,4.000000,4.000000,4.000000,4.000000,4.000000,4.000000,4.000000,100.000000,,,,,,,,,,,,,,,,
1645707556.039419,58.000000,0.000000,4211.025879,4197.179688,4223.717773,4189.615234,4203.974121,4193.717773,4203.333496,4208.205078,4216.410156,4184.102539,4205.641113,4205.256348,4198.333496,4191.410156,0.000000,4.000000,95.000000,,,,0.000000,4.000000,4.000000,4.000000,4.000000,4.000000,4.000000,4.000000,4.000000,4.000000,4.000000,4.000000,4.000000,4.000000,4.000000,100.000000,,,,,,,,,,,,,,,,
1645707556.043359,59.000000,0.000000,4211.025879,4202.436035,4221.410156,4184.230957,4201.666504,4189.743652,4200.769043,4204.102539,4214.615234,4181.410156,4205.128418,4206.025879,4193.077148,4186.025879,0.000000,4.000000,95.000000,,,,0.000000,4.000000,4.000000,4.000000,4.000000,4.000000,4.000000,4.000000,4.000000,4.000000,4.000000,4.000000,4.000000,4.000000,4.000000,100.000000,,,,,,,,,,,,,,,,
1645707556.047299,60.000000,0.000000,4210.512695,4206.153809,4220.128418,4178.974121,4198.333496,4186.153809,4202.051270,4202.820313,4212.436035,4178.846191,4201.025879,4202.563965,4188.461426,4185.000000,0.000000,4.000000,95.000000,,,,0.000000,4.000000,4.000000,4.000000,4.000000,4.000000,4.000000,4.000000,4.000000,4.000000,4.000000,4.000000,4.000000,4.000000,4.000000,100.000000,,,,,,,,,,,,,,,,
1645707556.051139,61.000000,0.000000,4211.153809,4208.974121,4220.512695,4179.358887,4197.179688,4185.897461,4205.512695,4204.487305,4211.282227,4180.256348,4195.512695,4196.666504,4188.974121,4189.230957,0.000000,4.000000,95.000000,,,,0.000000,4.000000,4.000000,4.000000,4.000000,4.000000,4.000000,4.000000,4.000000,4.000000,4.000000,4.000000,4.000000,4.000000,4.000000,100.000000,,,,,,,,,,,,,,,,
1645707556.055080,62.000000,0.000000,4213.974121,4211.410156,4221.538574,4186.794922,4199.230957,4189.487305,4208.461426,4207.692383,4211.153809,4185.897461,4191.922852,4191.666504,4194.743652,4195.128418,0.000000,4.000000,95.000000,,,,0.000000,4.000000,4.000000,4.000000,4.000000,4.000000,4.000000,4.000000,4.000000,4.000000,4.000000,4.000000,4.000000,4.000000,4.000000,100.000000,,,,,,,,,,,,,,,,
1645707556.059020,63.000000,0.000000,4217.563965,4212.692383,4222.051270,4196.538574,4202.307617,4194.487305,4210.128418,4211.025879,4211.538574,4190.897461,4192.179688,4189.230957,4201.153809,4198.333496,0.000000,4.000000,95.000000,,,,0.000000,4.000000,4.000000,4.000000,4.000000,4.000000,4.000000,4.000000,4.000000,4.000000,4.000000,4.000000,4.000000,4.000000,4.000000,100.000000,,,,,,,,,,,,,,,,
1645707556.062960,64.000000,0.000000,4219.102539,4211.794922,4221.025879,4201.282227,4203.717773,4197.820313,4211.410156,4214.102539,4212.692383,4190.769043,4195.128418,4188.333496,4202.563965,4196.410156,0.000000,4.000000,95.000000,,,,0.000000,4.000000,4.000000,4.000000,4.000000,4.000000,4.000000,4.000000,4.000000,4.000000,4.000000,4.000000,4.000000,4.000000,4.000000,100.000000,,,,,,,,,,,,,,,,
1645707556.066900,65.000000,0.000000,4217.436035,4208.974121,4218.077148,4197.563965,4203.205078,4198.333496,4212.948730,4216.922852,4214.871582,4185.512695,4197.692383,4186.666504,4197.948730,4190.897461,0.000000,4.000000,95.000000,,,,0.000000,4.000000,4.000000,4.000000,4.000000,4.000000,4.000000,4.000000,4.000000,4.000000,4.000000,4.000000,4.000000,4.000000,4.000000,100.000000,,,,,,,,,,,,,,,,
1645707556.070840,66.000000,0.000000,4213.974121,4205.769043,4213.717773,4188.205078,4202.563965,4197.692383,4214.102539,4219.358887,4217.563965,4180.512695,4197.436035,4183.461426,4191.538574,4186.025879,0.000000,4.000000,95.000000,,,,0.000000,4.000000,4.000000,4.000000,4.000000,4.000000,4.000000,4.000000,4.000000,4.000000,4.000000,4.000000,4.000000,4.000000,4.000000,100.000000,,,,,,,,,,,,,,,,
1645707556.074780,67.000000,0.000000,4211.538574,4203.974121,4209.358887,4180.384766,4202.692383,4198.077148,4214.230957,4220.897461,4219.358887,4180.641113,4193.974121,4179.102539,4188.589844,4184.487305,0.000000,4.000000,95.000000,,,,0.000000,4.000000,4.000000,4.000000,4.000000,4.000000,4.000000,4.000000,4.000000,4.000000,4.000000,4.000000,4.000000,4.000000,4.000000,100.000000,,,,,,,,,,,,,,,,
1645707556.078720,68.000000,0.000000,4211.025879,4204.102539,4206.410156,4179.358887,4202.692383,4199.487305,4213.974121,4221.538574,4219.487305,4186.538574,4189.871582,4175.641113,4190.897461,4185.128418,0.000000,4.000000,95.000000,,,,0.000000,4.000000,4.000000,4.000000,4.000000,4.000000,4.000000,4.000000,4.000000,4.000000,4.000000,4.000000,4.000000,4.000000,4.000000,100.000000,,,,,,,,,,,,,,,,
1645707556.082560,69.000000,0.000000,4212.307617,4205.384766,4205.897461,4184.102539,4202.179688,4200.769043,4214.743652,4221.794922,4218.205078,4194.230957,4188.589844,4174.615234,4195.897461,4185.128418,0.000000,4.000000,95.000000,,,,0.000000,4.000000,4.000000,4.000000,4.000000,4.000000,4.000000,4.000000,4.000000,4.000000,4.000000,4.000000,4.000000,4.000000,4.000000,100.000000,,,,,,,,,,,,,,,,
1645707556.086500,70.000000,0.000000,4214.230957,4206.794922,4207.179688,4189.230957,4202.307617,4201.666504,4217.179688,4222.051270,4217.307617,4199.487305,4192.179688,4176.025879,4200.256348,4183.589844,0.000000,4.000000,95.000000,,,,0.000000,4.000000,4.000000,4.000000,4.000000,4.000000,4.000000,4.000000,4.000000,4.000000,4.000000,4.000000,4.000000,4.000000,4.000000,100.000000,,,,,,,,,,,,,,,,
1645707556.090441,71.000000,0.000000,4215.384766,4207.179688,4209.102539,4191.153809,4204.615234,4202.948730,4219.743652,4222.820313,4217.692383,4201.025879,4199.230957,4179.358887,4202.051270,4181.794922,0.000000,4.000000,95.000000,,,,0.000000,4.000000,4.000000,4.000000,4.000000,4.000000,4.000000,4.000000,4.000000,4.000000,4.000000,4.000000,4.000000,4.000000,4.000000,100.000000,,,,,,,,,,,,,,,,
1645707556.094381,72.000000,0.000000,4214.358887,4205.256348,4210.897461,4189.743652,4208.974121,4204.743652,4220.897461,4224.358887,4219.358887,4200.256348,4205.769043,4182.948730,4202.563965,4181.025879,0.000000,4.000000,95.000000,,,,0.000000,4.000000,4.000000,4.000000,4.000000,4.000000,4.000000,4.000000,4.000000,4.000000,4.000000,4.000000,4.000000,4.000000,4.000000,100.000000,,,,,,,,,,,,,,,,
1645707556.098321,73.000000,0.000000,4210.897461,4200.769043,4212.563965,4187.692383,4212.563965,4205.769043,4220.128418,4226.538574,4220.641113,4199.230957,4208.717773,4185.128418,4203.077148,4181.410156,0.000000,4.000000,95.000000,,,,0.000000,4.000000,4.000000,4.000000,4.000000,4.000000,4.000000,4.000000,4.000000,4.000000,4.000000,4.000000,4.000000,4.000000,4.000000,100.000000,,,,,,,,,,,,,,,,
1645707556.102261,74.000000,0.000000,4206.538574,4195.128418,4214.102539,4186.538574,4212.436035,4204.743652,4218.846191,4228.461426,4220.384766,4198.717773,4207.436035,4185.384766,4204.230957,4182.820313,0.000000,4.000000,95.000000,,,,0.000000,4.000000,4.000000,4.000000,4.000000,4.000000,4.000000,4.000000,4.000000,4.000000,4.000000,4.000000,4.000000,4.000000,4.000000,100.000000,,,,,,,,,,,,,,,,
1645707556.106201,75.000000,0.000000,4204.615234,4192.436035,4215.128418,4186.538574,4208.846191,4202.051270,4217.820313,4228.589844,4218.461426,4198.333496,4204.358887,4184.487305,4206.153809,4185.769043,0.000000,4.000000,95.000000,,,,0.000000,4.000000,4.000000,4.000000,4.000000,4.000000,4.000000,4.000000,4.000000,4.000000,4.000000,4.000000,4.000000,4.000000,4.000000,100.000000,,,,,,,,,,,,,,,,
1645707556.110141,76.000000,0.000000,4208.077148,4195.769043,4215.641113,4187.307617,4204.871582,4199.615234,4217.307617,4226.153809,4216.282227,4197.820313,4202.179688,4183.846191,4208.333496,4190.384766,0.000000,4.000000,95.000000,,,,0.000000,4.000000,4.000000,4.000000,4.000000,4.000000,4.000000,4.000000,4.000000,4.000000,4.000000,4.000000,4.000000,4.000000,4.000000,100.000000,,,,,,,,,,,,,,,,
1645707556.114081,77.000000,0.000000,4216.410156,4204.102539,4216.410156,4188.717773,4203.974121,4199.615234,4216.922852,4222.436035,4215.512695,4197.051270,4202.563965,4185.256348,4210.641113,4194.615234,0.000000,4.000000,95.000000,,,,0.000000,4.000000,4.000000,4.000000,4.000000,4.000000,4.000000,4.000000,4.000000,4.000000,4.000000,4.000000,4.000000,4.000000,4.000000,100.000000,,,,,,,,,,,,,,,,
1645707556.118021,78.000000,0.000000,4225.256348,4212.948730,4218.205078,4190.384766,4207.051270,4202.179688,4217.307617,4220.128418,4216.922852,4196.410156,4204.743652,4188.589844,4213.846191,4195.769043,0.000000,4.000000,95.000000,,,,0.000000,4.000000,4.000000,4.000000,4.000000,4.000000,4.000000,4.000000,4.000000,4.000000,4.000000,4.000000,4.000000,4.000000,4.000000,100.000000,,,,,,,,,,,,,,,,
1645707556.121961,79.000000,0.000000,4229.615234,4217.179688,4221.538574,4191.794922,4212.692383,4205.897461,4218.589844,4220.897461,4218.974121,4196.410156,4207.436035,4192.948730,4218.589844,4193.589844,0.000000,4.000000,95.000000,,,,0.000000,4.000000,4.000000,4.000000,4.000000,4.000000,4.000000,4.000000,4.000000,4.000000,4.000000,4.000000,4.000000,4.000000,4.000000,100.000000,,,,,,,,,,,,,,,,
1645707556.125902,80.000000,0.000000,4228.717773,4216.410156,4225.000000,4192.820313,4218.333496,4208.846191,4220.384766,4223.846191,4219.487305,4197.692383,4210.128418,4196.538574,4225.384766,4191.282227,0.000000,4.000000,95.000000,,,,0.000000,4.000000,4.000000,4.000000,4.000000,4.000000,4.000000,4.000000,4.000000,4.000000,4.000000,4.000000,4.000000,4.000000,4.000000,100.000000,,,,,,,,,,,,,,,,
1645707556.129842,81.000000,0.000000,4226.282227,4213.846191,4227.563965,4194.102539,4222.436035,4210.512695,4221.282227,4226.282227,4218.205078,4200.000000,4213.589844,4198.717773,4233.077148,4193.205078,0.000000,4.000000,95.000000,,,,0.000000,4.000000,4.000000,4.000000,4.000000,4.000000,4.000000,4.000000,4.000000,4.000000,4.000000,4.000000,4.000000,4.000000,4.000000,100.000000,,,,,,,,,,,,,,,,
1645707556.133782,82.000000,0.000000,4226.794922,4213.717773,4229.230957,4196.794922,4224.230957,4211.282227,4220.512695,4226.538574,4216.410156,4201.922852,4217.820313,4199.487305,4239.743652,4201.538574,0.000000,4.000000,95.000000,,,,0.000000,4.000000,4.000000,4.000000,4.000000,4.000000,4.000000,4.000000,4.000000,4.000000,4.000000,4.000000,4.000000,4.000000,4.000000,100.000000,,,,,,,,,,,,,,,,
1645707556.137722,83.000000,0.000000,4231.153809,4216.794922,4230.641113,4200.769043,4223.589844,4211.410156,4218.846191,4225.128418,4216.410156,4201.538574,4221.025879,4199.743652,4244.102539,4213.461426,0.000000,4.000000,95.000000,,,,0.000000,4.000000,4.000000,4.000000,4.000000,4.000000,4.000000,4.000000,4.000000,4.000000,4.000000,4.000000,4.000000,4.000000,4.000000,100.000000,,,,,,,,,,,,,,,,
1645707556.141662,84.000000,0.000000,4237.051270,4220.512695,4232.307617,4203.717773,4221.282227,4210.256348,4217.948730,4223.846191,4218.974121,4199.358887,4221.410156,4200.641113,4247.307617,4223.974121,0.000000,4.000000,95.000000,,,,0.000000,4.000000,4.000000,4.000000,4.000000,4.000000,4.000000,4.000000,4.000000,4.000000,4.000000,4.000000,4.000000,4.000000,4.000000,100.000000,,,,,,,,,,,,,,,,
1645707556.145602,85.000000,0.000000,4242.948730,4222.948730,4234.102539,4203.077148,4218.974121,4207.692383,4218.333496,4224.230957,4222.692383,4198.205078,4220.384766,4203.333496,4252.563965,4231.025879,0.000000,4.000000,95.000000,,,,0.000000,4.000000,4.000000,4.000000,4.000000,4.000000,4.000000,4.000000,4.000000,4.000000,4.000000,4.000000,4.000000,4.000000,4.000000,100.000000,,,,,,,,,,,,,,,,
1645707556.149442,86.000000,0.000000,4250.384766,4224.487305,4236.666504,4198.461426,4218.717773,4204.230957,4219.230957,4226.410156,4225.384766,4200.897461,4221.666504,4209.102539,4262.948730,4237.307617,0.000000,4.000000,95.000000,,,,0.000000,4.000000,4.000000,4.000000,4.000000,4.000000,4.000000,4.000000,4.000000,4.000000,4.000000,4.000000,4.000000,4.000000,4.000000,100.000000,,,,,,,,,,,,,,,,
1645707556.153382,87.000000,0.000000,4261.025879,4227.051270,4241.025879,4193.333496,4220.897461,4201.153809,4219.358887,4229.487305,4225.512695,4206.922852,4228.589844,4217.692383,4277.692383,4247.692383,0.000000,4.000000,95.000000,,,,0.000000,4.000000,4.000000,4.000000,4.000000,4.000000,4.000000,4.000000,4.000000,4.000000,4.000000,4.000000,4.000000,4.000000,4.000000,100.000000,,,,,,,,,,,,,,,,
1645707556.157322,88.000000,0.000000,4274.102539,4231.922852,4246.922852,4193.205078,4223.205078,4198.974121,4218.205078,4231.410156,4223.589844,4212.820313,4239.615234,4227.436035,4292.307617,4263.974121,0.000000,4.000000,95.000000,,,,0.000000,4.000000,4.000000,4.000000,4.000000,4.000000,4.000000,4.000000,4.000000,4.000000,4.000000,4.000000,4.000000,4.000000,4.000000,100.000000,,,,,,,,,,,,,,,,
1645707556.161263,89.000000,0.000000,4285.641113,4238.077148,4252.820313,4201.153809,4222.692383,4197.436035,4216.794922,4230.641113,4221.025879,4214.487305,4249.487305,4235.641113,4302.051270,4282.051270,0.000000,4.000000,95.000000,,,,0.000000,4.000000,4.000000,4.000000,4.000000,4.000000,4.000000,4.000000,4.000000,4.000000,4.000000,4.000000,4.000000,4.000000,4.000000,100.000000,,,,,,,,,,,,,,,,
1645707556.165203,90.000000,0.000000,4292.179688,4243.077148,4256.282227,4214.615234,4218.461426,4196.922852,4215.641113,4227.051270,4218.589844,4210.897461,4253.205078,4240.384766,4306.410156,4294.743652,0.000000,4.000000,95.000000,,,,0.000000,4.000000,4.000000,4.000000,4.000000,4.000000,4.000000,4.000000,4.000000,4.000000,4.000000,4.000000,4.000000,4.000000,4.000000,100.000000,,,,,,,,,,,,,,,,
1645707556.169143,91.000000,0.000000,4293.461426,4244.871582,4256.538574,4226.282227,4212.692383,4196.794922,4213.846191,4221.410156,4217.051270,4205.641113,4250.897461,4242.179688,4310.128418,4297.436035,0.000000,4.000000,95.000000,,,,0.000000,4.000000,4.000000,4.000000,4.000000,4.000000,4.000000,4.000000,4.000000,4.000000,4.000000,4.000000,4.000000,4.000000,4.000000,100.000000,,,,,,,,,,,,,,,,
1645707556.173083,92.000000,0.000000,4293.333496,4243.333496,4255.769043,4228.717773,4208.205078,4196.025879,4210.641113,4215.897461,4216.538574,4203.205078,4247.948730,4243.333496,4318.461426,4292.692383,0.000000,4.000000,95.000000,,,,0.000000,4.000000,4.000000,4.000000,4.000000,4.000000,4.000000,4.000000,4.000000,4.000000,4.000000,4.000000,4.000000,4.000000,4.000000,100.000000,,,,,,,,,,,,,,,,
1645707556.177023,93.000000,0.000000,4295.897461,4240.512695,4256.922852,4220.641113,4205.769043,4193.461426,4206.410156,4212.692383,4217.307617,4205.897461,4249.743652,4246.410156,4333.077148,4290.256348,0.000000,4.000000,95.000000,,,,0.000000,4.000000,4.000000,4.000000,4.000000,4.000000,4.000000,4.000000,4.000000,4.000000,4.000000,4.000000,4.000000,4.000000,4.000000,100.000000,,,,,,,,,,,,,,,,
1645707556.180963,94.000000,0.000000,4302.307617,4239.102539,4261.410156,4209.102539,4203.974121,4188.974121,4203.333496,4212.692383,4218.461426,4211.538574,4257.948730,4251.922852,4350.641113,4299.743652,0.000000,4.000000,95.000000,,,,0.000000,4.000000,4.000000,4.000000,4.000000,4.000000,4.000000,4.000000,4.000000,4.000000,4.000000,4.000000,4.000000,4.000000,4.000000,100.000000,,,,,,,,,,,,,,,,
1645707556.184903,95.000000,0.000000,4309.615234,4240.512695,4267.051270,4203.974121,4201.922852,4184.230957,4202.436035,4214.102539,4218.846191,4214.871582,4268.846191,4257.820313,4365.256348,4322.051270,0.000000,4.000000,95.000000,,,,0.000000,4.000000,4.000000,4.000000,4.000000,4.000000,4.000000,4.000000,4.000000,4.000000,4.000000,4.000000,4.000000,4.000000,4.000000,100.000000,,,,,,,,,,,,,,,,
1645707556.188843,96.000000,0.000000,4313.589844,4243.205078,4269.871582,4209.743652,4199.743652,4181.153809,4202.436035,4214.230957,4217.563965,4212.307617,4275.897461,4261.666504,4372.563965,4345.512695,0.000000,4.000000,95.000000,,,,0.000000,4.000000,4.000000,4.000000,4.000000,4.000000,4.000000,4.000000,4.000000,4.000000,4.000000,4.000000,4.000000,4.000000,4.000000,100.000000,,,,,,,,,,,,,,,,
1645707556.192783,97.000000,0.000000,4312.692383,4243.974121,4267.948730,4220.769043,4197.692383,4180.256348,4201.538574,4211.025879,4214.615234,4202.948730,4274.743652,4262.692383,4372.436035,4353.589844,0.000000,4.000000,95.000000,,,,0.000000,4.000000,4.000000,4.000000,4.000000,4.000000,4.000000,4.000000,4.000000,4.000000,4.000000,4.000000,4.000000,4.000000,4.000000,100.000000,,,,,,,,,,,,,,,,
1645707556.196724,98.000000,0.000000,4308.461426,4240.769043,4262.820313,4227.051270,4195.256348,4179.743652,4198.589844,4205.384766,4211.025879,4190.512695,4265.128418,4261.794922,4368.717773,4338.333496,0.000000,4.000000,95.000000,,,,0.000000,4.000000,4.000000,4.000000,4.000000,4.000000,4.000000,4.000000,4.000000,4.000000,4.000000,4.000000,4.000000,4.000000,4.000000,100.000000,,,,,,,,,,,,,,,,
1645707556.200664,99.000000,0.000000,4303.846191,4235.512695,4258.589844,4223.589844,4191.538574,4178.205078,4194.743652,4200.512695,4208.205078,4181.666504,4252.436035,4260.512695,4366.282227,4309.615234,0.000000,4.000000,95.000000,,,,0.000000,4.000000,4.000000,4.000000,4.000000,4.000000,4.000000,4.000000,4.000000,4.000000,4.000000,4.000000,4.000000,4.000000,4.000000,100.000000,,,,,,,,,,,,,,,,
1645707556.204604,100.000000,0.000000,4303.077148,4233.205078,4258.205078,4215.256348,4188.333496,4175.897461,4193.077148,4199.487305,4207.436035,4182.179688,4245.512695,4260.128418,4369.102539,4289.358887,0.000000,4.000000,95.000000,,,,0.000000,4.000000,4.000000,4.000000,4.000000,4.000000,4.000000,4.000000,4.000000,4.000000,4.000000,4.000000,4.000000,4.000000,4.000000,100.000000,,,,,,,,,,,,,,,,
1645707556.208544,101.000000,0.000000,4309.358887,4238.974121,4261.153809,4212.307617,4188.589844,4175.512695,4194.487305,4203.077148,4209.871582,4193.077148,4251.153809,4261.538574,4378.461426,4296.794922,0.000000,4.000000,95.000000,,,,0.000000,4.000000,4.000000,4.000000,4.000000,4.000000,4.000000,4.000000,4.000000,4.000000,4.000000,4.000000,4.000000,4.000000,4.000000,100.000000,,,,,,,,,,,,,,,,
1645707556.212484,102.000000,0.000000,4323.846191,4252.436035,4264.615234,4220.512695,4194.487305,4179.102539,4198.205078,4209.358887,4214.358887,4208.333496,4268.974121,4264.230957,4392.948730,4332.563965,0.000000,4.000000,95.000000,,,,0.000000,4.000000,4.000000,4.000000,4.000000,4.000000,4.000000,4.000000,4.000000,4.000000,4.000000,4.000000,4.000000,4.000000,4.000000,100.000000,,,,,,,,,,,,,,,,
1645707556.216524,103.000000,0.000000,4341.794922,4266.794922,4265.000000,4235.128418,4203.205078,4185.512695,4202.179688,4215.769043,4218.205078,4218.974121,4289.487305,4266.153809,4408.333496,4377.307617,0.000000,4.000000,95.000000,,,,0.000000,4.000000,4.000000,4.000000,4.000000,4.000000,4.000000,4.000000,4.000000,4.000000,4.000000,4.000000,4.000000,4.000000,4.000000,100.000000,,,,,,,,,,,,,,,,
1645707556.220464,104.000000,0.000000,4353.333496,4272.436035,4261.025879,4244.743652,4209.487305,4190.512695,4205.256348,4220.897461,4219.102539,4219.102539,4301.538574,4265.128418,4419.487305,4405.128418,0.000000,4.000000,95.000000,,,,0.000000,4.000000,4.000000,4.000000,4.000000,4.000000,4.000000,4.000000,4.000000,4.000000,4.000000,4.000000,4.000000,4.000000,4.000000,100.000000,,,,,,,,,,,,,,,,
1645707556.224404,105.000000,0.000000,4348.974121,4263.974121,4254.230957,4241.025879,4209.358887,4191.153809,4207.051270,4224.358887,4217.436035,4211.282227,4300.000000,4260.641113,4423.205078,4401.282227,0.000000,4.000000,95.000000,,,,0.000000,4.000000,4.000000,4.000000,4.000000,4.000000,4.000000,4.000000,4.000000,4.000000,4.000000,4.000000,4.000000,4.000000,4.000000,100.000000,,,,,,,,,,,,,,,,
1645707556.228344,106.000000,0.000000,4327.563965,4244.230957,4247.692383,4225.000000,4203.846191,4187.307617,4206.794922,4226.153809,4215.128418,4203.461426,4289.358887,4254.871582,4421.410156,4373.717773,0.000000,4.000000,95.000000,,,,0.000000,4.000000,4.000000,4.000000,4.000000,4.000000,4.000000,4.000000,4.000000,4.000000,4.000000,4.000000,4.000000,4.000000,4.000000,100.000000,,,,,,,,,,,,,,,,
1645707556.232284,107.000000,0.000000,4298.333496,4222.436035,4245.128418,4206.025879,4196.282227,4181.794922,4203.717773,4226.025879,4214.230957,4202.179688,4279.487305,4251.282227,4419.487305,4345.256348,0.000000,4.000000,95.000000,,,,0.000000,4.000000,4.000000,4.000000,4.000000,4.000000,4.000000,4.000000,4.000000,4.000000,4.000000,4.000000,4.000000,4.000000,4.000000,100.000000,,,,,,,,,,,,,,,,
1645707556.236224,108.000000,0.000000,4275.769043,4208.205078,4247.436035,4193.974121,4190.000000,4177.179688,4198.974121,4223.974121,4215.000000,4207.563965,4277.307617,4250.641113,4422.307617,4335.897461,0.000000,4.000000,95.000000,,,,0.000000,4.000000,4.000000,4.000000,4.000000,4.000000,4.000000,4.000000,4.000000,4.000000,4.000000,4.000000,4.000000,4.000000,4.000000,100.000000,,,,,,,,,,,,,,,,
1645707556.240165,109.000000,0.000000,4270.641113,4205.769043,4252.051270,4191.922852,4186.794922,4175.000000,4195.128418,4221.153809,4216.282227,4213.717773,4282.692383,4250.769043,4430.384766,4347.948730,0.000000,4.000000,95.000000,,,,0.000000,4.000000,4.000000,4.000000,4.000000,4.000000,4.000000,4.000000,4.000000,4.000000,4.000000,4.000000,4.000000,4.000000,4.000000,100.000000,,,,,,,,,,,,,,,,
1645707556.244105,110.000000,0.000000,4282.948730,4213.077148,4254.743652,4196.410156,4186.922852,4175.128418,4195.256348,4219.358887,4217.307617,4215.512695,4290.256348,4248.589844,4441.282227,4366.666504,0.000000,4.000000,95.000000,,,,0.000000,4.000000,4.000000,4.000000,4.000000,4.000000,4.000000,4.000000,4.000000,4.000000,4.000000,4.000000,4.000000,4.000000,4.000000,100.000000,,,,,,,,,,,,,,,,
1645707556.248045,111.000000,0.000000,4303.077148,4223.846191,4252.692383,4201.538574,4189.871582,4177.307617,4199.102539,4220.128418,4217.563965,4212.948730,4295.000000,4243.461426,4451.922852,4375.641113,0.000000,4.000000,95.000000,,,,0.000000,4.000000,4.000000,4.000000,4.000000,4.000000,4.000000,4.000000,4.000000,4.000000,4.000000,4.000000,4.000000,4.000000,4.000000,100.000000,,,,,,,,,,,,,,,,
1645707556.251985,112.000000,0.000000,4317.051270,4230.384766,4246.666504,4204.102539,4194.102539,4180.897461,4203.461426,4223.589844,4217.820313,4210.128418,4296.153809,4238.333496,4459.871582,4368.461426,0.000000,4.000000,95.000000,,,,0.000000,4.000000,4.000000,4.000000,4.000000,4.000000,4.000000,4.000000,4.000000,4.000000,4.000000,4.000000,4.000000,4.000000,4.000000,100.000000,1.000000,50.000000,4.000000,4.000000,4.000000,4.000000,4.000000,4.000000,4.000000,4.000000,4.000000,4.000000,4.000000,4.000000,1.000000,1.000000
1645707556.255925,113.000000,0.000000,4314.871582,4228.077148,4241.025879,4203.205078,4196.666504,4183.589844,4205.512695,4228.461426,4218.077148,4209.871582,4295.000000,4236.410156,4463.461426,4351.538574,0.000000,4.000000,95.000000,,,,0.000000,4.000000,4.000000,4.000000,4.000000,4.000000,4.000000,4.000000,4.000000,4.000000,4.000000,4.000000,4.000000,4.000000,4.000000,100.000000,,,,,,,,,,,,,,,,
1645707556.259865,114.000000,0.000000,4296.153809,4217.307617,4240.384766,4200.128418,4195.512695,4183.717773,4204.615234,4232.563965,4218.077148,4211.538574,4293.717773,4238.846191,4463.205078,4335.512695,0.000000,4.000000,95.000000,,,,0.000000,4.000000,4.000000,4.000000,4.000000,4.000000,4.000000,4.000000,4.000000,4.000000,4.000000,4.000000,4.000000,4.000000,4.000000,100.000000,,,,,,,,,,,,,,,,
1645707556.263805,115.000000,0.000000,4271.666504,4203.589844,4245.384766,4196.410156,4190.641113,4181.282227,4202.051270,4232.948730,4217.563965,4212.436035,4293.077148,4243.974121,4461.025879,4326.794922,0.000000,4.000000,95.000000,,,,0.000000,4.000000,4.000000,4.000000,4.000000,4.000000,4.000000,4.000000,4.000000,4.000000,4.000000,4.000000,4.000000,4.000000,4.000000,100.000000,,,,,,,,,,,,,,,,
