title:Alex-0MQzwkk0Xf2cAEjGlW5igg, start timestamp:1645707429.009670, stop timestamp:1645707454.977462, headset type:EPOCPLUS, headset serial:3B9AEBFF, headset firmware:626, channels:55, sampling rate:eeg_256, samples:6591      , version:2.1, 
Timestamp,EEG.Counter,EEG.Interpolated,EEG.AF3,EEG.F7,EEG.F3,EEG.FC5,EEG.T7,EEG.P7,EEG.O1,EEG.O2,EEG.P8,EEG.T8,EEG.FC6,EEG.F4,EEG.F8,EEG.AF4,EEG.RawCq,EEG.Battery,EEG.BatteryPercent,MarkerIndex,MarkerType,MarkerValueInt,EEG.MarkerHardware,CQ.AF3,CQ.F7,CQ.F3,CQ.FC5,CQ.T7,CQ.P7,CQ.O1,CQ.O2,CQ.P8,CQ.T8,CQ.FC6,CQ.F4,CQ.F8,CQ.AF4,CQ.Overall,EQ.SampleRateQuality,EQ.OVERALL,EQ.AF3,EQ.F7,EQ.F3,EQ.FC5,EQ.T7,EQ.P7,EQ.O1,EQ.O2,EQ.P8,EQ.T8,EQ.FC6,EQ.F4,EQ.F8,EQ.AF4
1645707429.009670,77.000000,0.000000,4221.538574,4218.205078,4209.615234,4192.307617,4204.230957,4195.256348,4214.871582,4219.230957,4218.589844,4191.025879,4217.307617,4156.666504,4205.256348,4190.384766,0.000000,4.000000,95.000000,,,,0.000000,4.000000,4.000000,4.000000,4.000000,4.000000,4.000000,4.000000,4.000000,4.000000,4.000000,4.000000,4.000000,4.000000,4.000000,100.000000,,,,,,,,,,,,,,,,
1645707429.013710,78.000000,0.000000,4217.051270,4218.589844,4209.230957,4182.820313,4203.077148,4194.871582,4215.128418,4218.846191,4218.461426,4188.077148,4220.769043,4155.769043,4204.871582,4193.589844,0.000000,4.000000,95.000000,,,,0.000000,4.000000,4.000000,4.000000,4.000000,4.000000,4.000000,4.000000,4.000000,4.000000,4.000000,4.000000,4.000000,4.000000,4.000000,100.000000,,,,,,,,,,,,,,,,
1645707429.017650,79.000000,0.000000,4210.256348,4215.897461,4207.692383,4172.563965,4199.230957,4194.871582,4215.128418,4214.871582,4217.692383,4182.051270,4219.102539,4153.077148,4200.897461,4192.948730,0.000000,4.000000,95.000000,,,,0.000000,4.000000,4.000000,4.000000,4.000000,4.000000,4.000000,4.000000,4.000000,4.000000,4.000000,4.000000,4.000000,4.000000,4.000000,100.000000,,,,,,,,,,,,,,,,
1645707429.021590,80.000000,0.000000,4206.538574,4211.794922,4205.897461,4168.077148,4197.692383,4196.025879,4214.487305,4208.717773,4216.538574,4177.563965,4212.948730,4151.025879,4196.922852,4187.692383,0.000000,4.000000,95.000000,,,,0.000000,4.000000,4.000000,4.000000,4.000000,4.000000,4.000000,4.000000,4.000000,4.000000,4.000000,4.000000,4.000000,4.000000,4.000000,100.000000,,,,,,,,,,,,,,,,
1645707429.025530,81.000000,0.000000,4208.461426,4208.846191,4205.384766,4172.179688,4201.538574,4197.563965,4213.461426,4204.358887,4215.769043,4177.307617,4206.153809,4151.538574,4196.153809,4181.538574,0.000000,4.000000,95.000000,,,,0.000000,4.000000,4.000000,4.000000,4.000000,4.000000,4.000000,4.000000,4.000000,4.000000,4.000000,4.000000,4.000000,4.000000,4.000000,100.000000,,,,,,,,,,,,,,,,
1645707429.029470,82.000000,0.000000,4213.846191,4208.205078,4206.410156,4182.179688,4208.333496,4197.307617,4212.948730,4204.487305,4215.641113,4180.000000,4201.794922,4154.743652,4198.589844,4179.871582,0.000000,4.000000,95.000000,,,,0.000000,4.000000,4.000000,4.000000,4.000000,4.000000,4.000000,4.000000,4.000000,4.000000,4.000000,4.000000,4.000000,4.000000,4.000000,100.000000,,,,,,,,,,,,,,,,
1645707429.033410,83.000000,0.000000,4218.717773,4209.487305,4207.307617,4191.538574,4213.205078,4194.230957,4213.461426,4208.461426,4215.897461,4182.179688,4201.794922,4159.615234,4201.794922,4184.102539,0.000000,4.000000,95.000000,,,,0.000000,4.000000,4.000000,4.000000,4.000000,4.000000,4.000000,4.000000,4.000000,4.000000,4.000000,4.000000,4.000000,4.000000,4.000000,100.000000,,,,,,,,,,,,,,,,
1645707429.037350,84.000000,0.000000,4220.897461,4211.922852,4206.025879,4195.256348,4212.436035,4189.871582,4213.846191,4212.692383,4216.153809,4182.051270,4205.769043,4164.230957,4204.102539,4191.153809,0.000000,4.000000,95.000000,,,,0.000000,4.000000,4.000000,4.000000,4.000000,4.000000,4.000000,4.000000,4.000000,4.000000,4.000000,4.000000,4.000000,4.000000,4.000000,100.000000,,,,,,,,,,,,,,,,
1645707429.041290,85.000000,0.000000,4221.282227,4214.615234,4201.538574,4191.922852,4206.410156,4186.666504,4212.307617,4213.461426,4216.410156,4181.025879,4211.410156,4166.410156,4204.743652,4195.641113,0.000000,4.000000,95.000000,,,,0.000000,4.000000,4.000000,4.000000,4.000000,4.000000,4.000000,4.000000,4.000000,4.000000,4.000000,4.000000,4.000000,4.000000,4.000000,100.000000,,,,,,,,,,,,,,,,
1645707429.045230,86.000000,0.000000,4221.025879,4216.410156,4195.897461,4184.230957,4197.692383,4185.769043,4208.974121,4210.769043,4217.051270,4181.025879,4214.487305,4164.871582,4203.846191,4195.128418,0.000000,4.000000,95.000000,,,,0.000000,4.000000,4.000000,4.000000,4.000000,4.000000,4.000000,4.000000,4.000000,4.000000,4.000000,4.000000,4.000000,4.000000,4.000000,100.000000,,,,,,,,,,,,,,,,
1645707429.049171,87.000000,0.000000,4220.128418,4216.538574,4192.179688,4176.666504,4190.256348,4186.538574,4205.641113,4207.436035,4217.563965,4182.307617,4211.922852,4160.512695,4201.282227,4190.641113,0.000000,4.000000,95.000000,,,,0.000000,4.000000,4.000000,4.000000,4.000000,4.000000,4.000000,4.000000,4.000000,4.000000,4.000000,4.000000,4.000000,4.000000,4.000000,100.000000,,,,,,,,,,,,,,,,
1645707429.053111,88.000000,0.000000,4217.051270,4214.743652,4192.051270,4172.179688,4187.307617,4186.922852,4204.487305,4206.153809,4216.922852,4183.717773,4204.487305,4155.256348,4197.307617,4186.666504,0.000000,4.000000,95.000000,,,,0.000000,4.000000,4.000000,4.000000,4.000000,4.000000,4.000000,4.000000,4.000000,4.000000,4.000000,4.000000,4.000000,4.000000,4.000000,100.000000,,,,,,,,,,,,,,,,
1645707429.057051,89.000000,0.000000,4211.153809,4211.922852,4194.358887,4171.666504,4190.128418,4186.025879,4205.128418,4206.538574,4214.743652,4184.230957,4197.051270,4150.769043,4193.717773,4186.025879,0.000000,4.000000,95.000000,,,,0.000000,4.000000,4.000000,4.000000,4.000000,4.000000,4.000000,4.000000,4.000000,4.000000,4.000000,4.000000,4.000000,4.000000,4.000000,100.000000,,,,,,,,,,,,,,,,
1645707429.060991,90.000000,0.000000,4203.717773,4208.846191,4196.794922,4173.846191,4196.922852,4184.487305,4205.256348,4206.538574,4212.307617,4184.102539,4194.487305,4148.461426,4192.436035,4187.563965,0.000000,4.000000,95.000000,,,,0.000000,4.000000,4.000000,4.000000,4.000000,4.000000,4.000000,4.000000,4.000000,4.000000,4.000000,4.000000,4.000000,4.000000,4.000000,100.000000,,,,,,,,,,,,,,,,
1645707429.064931,91.000000,0.000000,4197.820313,4205.512695,4197.563965,4176.666504,4203.333496,4183.589844,4203.974121,4205.384766,4210.641113,4183.589844,4197.563965,4148.717773,4193.974121,4187.051270,0.000000,4.000000,95.000000,,,,0.000000,4.000000,4.000000,4.000000,4.000000,4.000000,4.000000,4.000000,4.000000,4.000000,4.000000,4.000000,4.000000,4.000000,4.000000,100.000000,,,,,,,,,,,,,,,,
1645707429.068871,92.000000,0.000000,4195.641113,4202.179688,4197.051270,4178.717773,4204.871582,4183.461426,4202.179688,4204.230957,4210.641113,4182.307617,4203.205078,4150.641113,4197.436035,4181.794922,0.000000,4.000000,95.000000,,,,0.000000,4.000000,4.000000,4.000000,4.000000,4.000000,4.000000,4.000000,4.000000,4.000000,4.000000,4.000000,4.000000,4.000000,4.000000,100.000000,,,,,,,,,,,,,,,,
1645707429.072811,93.000000,0.000000,4197.436035,4199.743652,4196.538574,4178.846191,4201.410156,4183.589844,4201.794922,4204.230957,4211.538574,4180.256348,4207.563965,4153.205078,4201.153809,4174.487305,0.000000,4.000000,95.000000,,,,0.000000,4.000000,4.000000,4.000000,4.000000,4.000000,4.000000,4.000000,4.000000,4.000000,4.000000,4.000000,4.000000,4.000000,4.000000,100.000000,,,,,,,,,,,,,,,,
1645707429.076751,94.000000,0.000000,4201.282227,4199.487305,4196.410156,4177.692383,4197.179688,4183.461426,4202.948730,4205.384766,4212.436035,4178.717773,4209.615234,4155.128418,4203.974121,4170.641113,0.000000,4.000000,95.000000,,,,0.000000,4.000000,4.000000,4.000000,4.000000,4.000000,4.000000,4.000000,4.000000,4.000000,4.000000,4.000000,4.000000,4.000000,4.000000,100.000000,,,,,,,,,,,,,,,,
1645707429.080691,95.000000,0.000000,4204.871582,4202.436035,4196.153809,4176.410156,4196.538574,4182.692383,4203.846191,4206.410156,4212.563965,4178.461426,4210.256348,4157.179688,4205.000000,4173.333496,0.000000,4.000000,95.000000,,,,0.000000,4.000000,4.000000,4.000000,4.000000,4.000000,4.000000,4.000000,4.000000,4.000000,4.000000,4.000000,4.000000,4.000000,4.000000,100.000000,,,,,,,,,,,,,,,,
1645707429.084532,96.000000,0.000000,4207.179688,4208.333496,4195.384766,4176.282227,4199.871582,4181.282227,4202.948730,4207.051270,4212.179688,4179.358887,4211.153809,4160.000000,4203.461426,4180.000000,0.000000,4.000000,95.000000,,,,0.000000,4.000000,4.000000,4.000000,4.000000,4.000000,4.000000,4.000000,4.000000,4.000000,4.000000,4.000000,4.000000,4.000000,4.000000,100.000000,,,,,,,,,,,,,,,,
1645707429.088472,97.000000,0.000000,4208.717773,4214.871582,4195.128418,4177.051270,4203.333496,4179.615234,4201.410156,4207.820313,4212.051270,4180.256348,4212.179688,4163.461426,4200.128418,4185.128418,0.000000,4.000000,95.000000,,,,0.000000,4.000000,4.000000,4.000000,4.000000,4.000000,4.000000,4.000000,4.000000,4.000000,4.000000,4.000000,4.000000,4.000000,4.000000,100.000000,,,,,,,,,,,,,,,,
1645707429.092412,98.000000,0.000000,4211.410156,4219.230957,4196.282227,4177.820313,4203.717773,4178.077148,4201.410156,4210.000000,4212.948730,4180.769043,4212.179688,4165.384766,4197.179688,4185.769043,0.000000,4.000000,95.000000,,,,0.000000,4.000000,4.000000,4.000000,4.000000,4.000000,4.000000,4.000000,4.000000,4.000000,4.000000,4.000000,4.000000,4.000000,4.000000,100.000000,,,,,,,,,,,,,,,,
1645707429.096352,99.000000,0.000000,4216.153809,4220.000000,4199.230957,4178.333496,4201.410156,4177.692383,4203.846191,4213.461426,4214.871582,4181.538574,4210.384766,4163.846191,4197.051270,4183.846191,0.000000,4.000000,95.000000,,,,0.000000,4.000000,4.000000,4.000000,4.000000,4.000000,4.000000,4.000000,4.000000,4.000000,4.000000,4.000000,4.000000,4.000000,4.000000,100.000000,,,,,,,,,,,,,,,,
1645707429.100392,100.000000,0.000000,4221.410156,4217.563965,4202.820313,4179.230957,4199.102539,4179.230957,4206.538574,4216.153809,4217.051270,4183.846191,4208.077148,4159.743652,4200.128418,4183.461426,0.000000,4.000000,95.000000,,,,0.000000,4.000000,4.000000,4.000000,4.000000,4.000000,4.000000,4.000000,4.000000,4.000000,4.000000,4.000000,4.000000,4.000000,4.000000,100.000000,,,,,,,,,,,,,,,,
1645707429.104332,101.000000,0.000000,4223.846191,4213.205078,4205.512695,4180.384766,4198.846191,4182.179688,4207.563965,4216.538574,4218.333496,4186.794922,4207.179688,4156.153809,4203.974121,4186.153809,0.000000,4.000000,95.000000,,,,0.000000,4.000000,4.000000,4.000000,4.000000,4.000000,4.000000,4.000000,4.000000,4.000000,4.000000,4.000000,4.000000,4.000000,4.000000,100.000000,,,,,,,,,,,,,,,,
1645707429.108272,102.000000,0.000000,4221.153809,4208.333496,4206.538574,4181.153809,4200.512695,4184.743652,4206.666504,4214.615234,4218.205078,4188.077148,4208.974121,4155.897461,4206.025879,4190.000000,0.000000,4.000000,95.000000,,,,0.000000,4.000000,4.000000,4.000000,4.000000,4.000000,4.000000,4.000000,4.000000,4.000000,4.000000,4.000000,4.000000,4.000000,4.000000,100.000000,,,,,,,,,,,,,,,,
1645707429.112212,103.000000,0.000000,4214.871582,4205.128418,4206.153809,4180.512695,4202.692383,4185.256348,4205.897461,4212.563965,4217.307617,4186.922852,4213.461426,4158.974121,4206.282227,4191.794922,0.000000,4.000000,95.000000,,,,0.000000,4.000000,4.000000,4.000000,4.000000,4.000000,4.000000,4.000000,4.000000,4.000000,4.000000,4.000000,4.000000,4.000000,4.000000,100.000000,,,,,,,,,,,,,,,,
1645707429.116152,104.000000,0.000000,4209.743652,4205.512695,4205.000000,4179.102539,4204.487305,4184.487305,4206.153809,4212.051270,4216.666504,4184.871582,4219.358887,4162.948730,4206.922852,4190.256348,0.000000,4.000000,95.000000,,,,0.000000,4.000000,4.000000,4.000000,4.000000,4.000000,4.000000,4.000000,4.000000,4.000000,4.000000,4.000000,4.000000,4.000000,4.000000,100.000000,,,,,,,,,,,,,,,,
1645707429.120092,105.000000,0.000000,4209.743652,4209.871582,4203.205078,4178.333496,4205.897461,4184.871582,4207.179688,4213.589844,4217.051270,4184.871582,4225.384766,4164.615234,4209.102539,4186.794922,0.000000,4.000000,95.000000,,,,0.000000,4.000000,4.000000,4.000000,4.000000,4.000000,4.000000,4.000000,4.000000,4.000000,4.000000,4.000000,4.000000,4.000000,4.000000,100.000000,,,,,,,,,,,,,,,,
1645707429.124033,106.000000,0.000000,4214.871582,4215.128418,4201.282227,4177.948730,4206.153809,4187.179688,4207.692383,4215.256348,4218.077148,4187.436035,4229.358887,4162.948730,4211.282227,4183.205078,0.000000,4.000000,95.000000,,,,0.000000,4.000000,4.000000,4.000000,4.000000,4.000000,4.000000,4.000000,4.000000,4.000000,4.000000,4.000000,4.000000,4.000000,4.000000,100.000000,,,,,,,,,,,,,,,,
1645707429.127973,107.000000,0.000000,4220.512695,4216.922852,4200.000000,4177.051270,4204.615234,4189.743652,4207.563965,4215.000000,4218.461426,4190.384766,4229.230957,4159.615234,4210.512695,4180.897461,0.000000,4.000000,95.000000,,,,0.000000,4.000000,4.000000,4.000000,4.000000,4.000000,4.000000,4.000000,4.000000,4.000000,4.000000,4.000000,4.000000,4.000000,4.000000,100.000000,,,,,,,,,,,,,,,,
1645707429.131913,108.000000,0.000000,4221.922852,4213.846191,4199.358887,4175.512695,4202.051270,4190.512695,4207.307617,4212.179688,4217.436035,4191.282227,4224.871582,4157.692383,4205.641113,4181.153809,0.000000,4.000000,95.000000,,,,0.000000,4.000000,4.000000,4.000000,4.000000,4.000000,4.000000,4.000000,4.000000,4.000000,4.000000,4.000000,4.000000,4.000000,4.000000,100.000000,,,,,,,,,,,,,,,,
1645707429.135853,109.000000,0.000000,4218.974121,4209.230957,4199.615234,4175.128418,4201.282227,4189.487305,4207.051270,4208.205078,4215.769043,4190.128418,4218.461426,4159.102539,4199.743652,4184.358887,0.000000,4.000000,95.000000,,,,0.000000,4.000000,4.000000,4.000000,4.000000,4.000000,4.000000,4.000000,4.000000,4.000000,4.000000,4.000000,4.000000,4.000000,4.000000,100.000000,,,,,,,,,,,,,,,,
1645707429.139793,110.000000,0.000000,4215.128418,4207.436035,4200.000000,4177.820313,4205.384766,4188.461426,4206.282227,4205.128418,4214.871582,4188.077148,4213.589844,4163.589844,4198.589844,4190.641113,0.000000,4.000000,95.000000,,,,0.000000,4.000000,4.000000,4.000000,4.000000,4.000000,4.000000,4.000000,4.000000,4.000000,4.000000,4.000000,4.000000,4.000000,4.000000,100.000000,,,,,,,,,,,,,,,,
1645707429.143733,111.000000,0.000000,4214.358887,4209.230957,4200.128418,4182.563965,4213.461426,4188.974121,4204.743652,4204.230957,4215.641113,4185.897461,4212.051270,4167.948730,4204.102539,4197.563965,0.000000,4.000000,95.000000,,,,0.000000,4.000000,4.000000,4.000000,4.000000,4.000000,4.000000,4.000000,4.000000,4.000000,4.000000,4.000000,4.000000,4.000000,4.000000,100.000000,,,,,,,,,,,,,,,,
1645707429.147673,112.000000,0.000000,4216.282227,4211.666504,4200.256348,4185.512695,4220.641113,4190.000000,4203.461426,4204.487305,4216.794922,4182.820313,4212.563965,4168.461426,4212.563965,4201.794922,0.000000,4.000000,95.000000,,,,0.000000,4.000000,4.000000,4.000000,4.000000,4.000000,4.000000,4.000000,4.000000,4.000000,4.000000,4.000000,4.000000,4.000000,4.000000,100.000000,,,,,,,,,,,,,,,,
1645707429.151613,113.000000,0.000000,4218.077148,4211.666504,4200.128418,4184.615234,4221.410156,4189.615234,4203.077148,4204.358887,4216.794922,4177.948730,4213.333496,4163.333496,4217.692383,4200.897461,0.000000,4.000000,95.000000,,,,0.000000,4.000000,4.000000,4.000000,4.000000,4.000000,4.000000,4.000000,4.000000,4.000000,4.000000,4.000000,4.000000,4.000000,4.000000,100.000000,,,,,,,,,,,,,,,,
1645707429.155553,114.000000,0.000000,4217.563965,4210.256348,4199.358887,4180.897461,4214.743652,4187.563965,4203.461426,4202.692383,4215.384766,4172.563965,4213.974121,4155.000000,4216.153809,4195.256348,0.000000,4.000000,95.000000,,,,0.000000,4.000000,4.000000,4.000000,4.000000,4.000000,4.000000,4.000000,4.000000,4.000000,4.000000,4.000000,4.000000,4.000000,4.000000,100.000000,,,,,,,,,,,,,,,,
1645707429.159493,115.000000,0.000000,4215.256348,4210.641113,4197.436035,4178.333496,4204.487305,4184.871582,4203.461426,4200.512695,4213.974121,4170.256348,4214.871582,4149.102539,4210.769043,4188.461426,0.000000,4.000000,95.000000,,,,0.000000,4.000000,4.000000,4.000000,4.000000,4.000000,4.000000,4.000000,4.000000,4.000000,4.000000,4.000000,4.000000,4.000000,4.000000,100.000000,,,,,,,,,,,,,,,,
1645707429.163533,116.000000,0.000000,4213.205078,4213.205078,4195.256348,4178.461426,4196.666504,4183.333496,4202.692383,4200.128418,4214.230957,4174.102539,4216.538574,4149.487305,4205.769043,4184.102539,0.000000,4.000000,95.000000,,,,0.000000,4.000000,4.000000,4.000000,4.000000,4.000000,4.000000,4.000000,4.000000,4.000000,4.000000,4.000000,4.000000,4.000000,4.000000,100.000000,,,,,,,,,,,,,,,,
1645707429.167474,117.000000,0.000000,4211.538574,4215.128418,4194.230957,4179.743652,4195.256348,4183.205078,4202.563965,4203.846191,4216.666504,4182.692383,4217.307617,4156.282227,4202.692383,4182.563965,0.000000,4.000000,95.000000,,,,0.000000,4.000000,4.000000,4.000000,4.000000,4.000000,4.000000,4.000000,4.000000,4.000000,4.000000,4.000000,4.000000,4.000000,4.000000,100.000000,,,,,,,,,,,,,,,,
1645707429.171414,118.000000,0.000000,4209.615234,4212.563965,4194.743652,4178.717773,4199.743652,4183.717773,4204.743652,4211.410156,4220.000000,4190.897461,4216.025879,4165.128418,4199.230957,4181.794922,0.000000,4.000000,95.000000,,,,0.000000,4.000000,4.000000,4.000000,4.000000,4.000000,4.000000,4.000000,4.000000,4.000000,4.000000,4.000000,4.000000,4.000000,4.000000,100.000000,,,,,,,,,,,,,,,,
1645707429.175354,119.000000,0.000000,4207.436035,4205.897461,4195.384766,4174.615234,4205.897461,4184.230957,4208.589844,4219.358887,4222.436035,4193.717773,4212.948730,4171.282227,4191.794922,4179.615234,0.000000,4.000000,95.000000,,,,0.000000,4.000000,4.000000,4.000000,4.000000,4.000000,4.000000,4.000000,4.000000,4.000000,4.000000,4.000000,4.000000,4.000000,4.000000,100.000000,,,,,,,,,,,,,,,,
1645707429.179294,120.000000,0.000000,4206.538574,4200.641113,4193.974121,4170.769043,4209.230957,4185.128418,4211.538574,4223.461426,4222.563965,4190.512695,4210.641113,4171.538574,4180.641113,4175.897461,0.000000,4.000000,95.000000,,,,0.000000,4.000000,4.000000,4.000000,4.000000,4.000000,4.000000,4.000000,4.000000,4.000000,4.000000,4.000000,4.000000,4.000000,4.000000,100.000000,,,,,,,,,,,,,,,,
1645707429.183234,121.000000,0.000000,4207.307617,4202.179688,4190.384766,4171.282227,4207.692383,4186.666504,4211.410156,4222.436035,4220.769043,4184.743652,4210.641113,4165.641113,4169.743652,4172.563965,0.000000,4.000000,95.000000,,,,0.000000,4.000000,4.000000,4.000000,4.000000,4.000000,4.000000,4.000000,4.000000,4.000000,4.000000,4.000000,4.000000,4.000000,4.000000,100.000000,,,,,,,,,,,,,,,,
1645707429.187174,122.000000,0.000000,4208.205078,4210.000000,4186.666504,4176.666504,4202.436035,4187.948730,4208.077148,4218.461426,4218.205078,4180.641113,4212.436035,4156.538574,4164.743652,4170.384766,0.000000,4.000000,95.000000,,,,0.000000,4.000000,4.000000,4.000000,4.000000,4.000000,4.000000,4.000000,4.000000,4.000000,4.000000,4.000000,4.000000,4.000000,4.000000,100.000000,,,,,,,,,,,,,,,,
1645707429.191114,123.000000,0.000000,4206.666504,4217.692383,4185.512695,4182.563965,4196.282227,4187.692383,4204.102539,4215.000000,4216.410156,4179.230957,4213.846191,4149.230957,4168.077148,4168.717773,0.000000,4.000000,95.000000,,,,0.000000,4.000000,4.000000,4.000000,4.000000,4.000000,4.000000,4.000000,4.000000,4.000000,4.000000,4.000000,4.000000,4.000000,4.000000,100.000000,,,,,,,,,,,,,,,,
1645707429.195054,124.000000,0.000000,4202.307617,4218.717773,4187.563965,4183.205078,4193.205078,4185.769043,4201.922852,4213.717773,4215.641113,4179.102539,4214.102539,4148.333496,4177.948730,4167.179688,0.000000,4.000000,95.000000,,,,0.000000,4.000000,4.000000,4.000000,4.000000,4.000000,4.000000,4.000000,4.000000,4.000000,4.000000,4.000000,4.000000,4.000000,4.000000,100.000000,,,,,,,,,,,,,,,,
1645707429.198994,125.000000,0.000000,4198.205078,4212.436035,4191.282227,4177.436035,4195.641113,4183.717773,4201.922852,4213.589844,4215.641113,4179.230957,4213.974121,4153.717773,4189.358887,4167.051270,0.000000,4.000000,95.000000,,,,0.000000,4.000000,4.000000,4.000000,4.000000,4.000000,4.000000,4.000000,4.000000,4.000000,4.000000,4.000000,4.000000,4.000000,4.000000,100.000000,,,,,,,,,,,,,,,,
1645707429.202935,126.000000,0.000000,4198.077148,4204.230957,4194.230957,4169.871582,4202.563965,4182.820313,4203.077148,4213.205078,4216.410156,4180.256348,4214.230957,4161.025879,4197.179688,4170.384766,0.000000,4.000000,95.000000,,,,0.000000,4.000000,4.000000,4.000000,4.000000,4.000000,4.000000,4.000000,4.000000,4.000000,4.000000,4.000000,4.000000,4.000000,4.000000,100.000000,,,,,,,,,,,,,,,,
1645707429.206875,127.000000,0.000000,4202.436035,4199.871582,4195.384766,4167.051270,4209.615234,4183.077148,4204.487305,4212.436035,4217.436035,4182.179688,4213.717773,4164.358887,4198.333496,4177.436035,0.000000,4.000000,95.000000,,,,0.000000,4.000000,4.000000,4.000000,4.000000,4.000000,4.000000,4.000000,4.000000,4.000000,4.000000,4.000000,4.000000,4.000000,4.000000,100.000000,,,,,,,,,,,,,,,,
1645707429.210815,128.000000,0.000000,4208.077148,4202.051270,4194.871582,4172.051270,4211.666504,4183.461426,4205.512695,4211.922852,4217.563965,4183.846191,4211.282227,4161.922852,4194.230957,4184.871582,3200.000000,4.000000,95.000000,,,,0.000000,4.000000,4.000000,4.000000,4.000000,4.000000,4.000000,4.000000,4.000000,4.000000,4.000000,4.000000,4.000000,4.000000,4.000000,100.000000,,,,,,,,,,,,,,,,
1645707429.214755,129.000000,0.000000,4210.384766,4208.205078,4193.461426,4182.179688,4207.179688,4183.461426,4206.025879,4211.282227,4215.897461,4182.820313,4206.922852,4156.922852,4189.102539,4188.461426,3310.000000,4.000000,95.000000,,,,0.000000,4.000000,4.000000,4.000000,4.000000,4.000000,4.000000,4.000000,4.000000,4.000000,4.000000,4.000000,4.000000,4.000000,4.000000,100.000000,,,,,,,,,,,,,,,,
1645707429.218695,130.000000,0.000000,4207.692383,4214.102539,4191.666504,4191.666504,4199.871582,4183.589844,4205.000000,4209.358887,4213.205078,4178.717773,4203.077148,4154.487305,4187.692383,4186.538574,3513.000000,4.000000,95.000000,,,,0.000000,4.000000,4.000000,4.000000,4.000000,4.000000,4.000000,4.000000,4.000000,4.000000,4.000000,4.000000,4.000000,4.000000,4.000000,100.000000,,,,,,,,,,,,,,,,
1645707429.222635,131.000000,0.000000,4202.307617,4216.538574,4190.256348,4195.512695,4196.025879,4184.102539,4202.179688,4206.025879,4211.410156,4174.230957,4201.538574,4157.820313,4190.897461,4180.256348,3553.000000,4.000000,95.000000,,,,0.000000,4.000000,4.000000,4.000000,4.000000,4.000000,4.000000,4.000000,4.000000,4.000000,4.000000,4.000000,4.000000,4.000000,4.000000,100.000000,,,,,,,,,,,,,,,,
1645707429.226575,132.000000,0.000000,4198.589844,4215.512695,4190.128418,4191.922852,4198.077148,4184.487305,4199.358887,4203.077148,4211.410156,4172.563965,4202.436035,4165.256348,4195.000000,4172.051270,3501.000000,4.000000,95.000000,,,,0.000000,4.000000,4.000000,4.000000,4.000000,4.000000,4.000000,4.000000,4.000000,4.000000,4.000000,4.000000,4.000000,4.000000,4.000000,100.000000,,,,,,,,,,,,,,,,
1645707429.230515,133.000000,0.000000,4200.000000,4212.436035,4192.179688,4183.333496,4203.589844,4183.846191,4199.230957,4202.948730,4212.563965,4174.871582,4203.974121,4172.179688,4195.641113,4164.615234,3404.000000,4.000000,95.000000,,,,0.000000,4.000000,4.000000,4.000000,4.000000,4.000000,4.000000,4.000000,4.000000,4.000000,4.000000,4.000000,4.000000,4.000000,4.000000,100.000000,,,,,,,,,,,,,,,,
1645707429.234355,134.000000,0.000000,4206.538574,4208.717773,4195.641113,4174.230957,4207.179688,4182.563965,4202.436035,4206.410156,4213.333496,4179.230957,4204.871582,4173.974121,4192.179688,4161.794922,2915.000000,4.000000,95.000000,,,,0.000000,4.000000,4.000000,4.000000,4.000000,4.000000,4.000000,4.000000,4.000000,4.000000,4.000000,4.000000,4.000000,4.000000,4.000000,100.000000,,,,,,,,,,,,,,,,
1645707429.238296,135.000000,0.000000,4215.384766,4205.000000,4199.871582,4168.846191,4206.153809,4181.538574,4206.538574,4210.641113,4212.563965,4181.922852,4204.871582,4169.743652,4188.333496,4165.769043,2873.000000,4.000000,95.000000,,,,0.000000,4.000000,4.000000,4.000000,4.000000,4.000000,4.000000,4.000000,4.000000,4.000000,4.000000,4.000000,4.000000,4.000000,4.000000,100.000000,,,,,,,,,,,,,,,,
1645707429.242236,136.000000,0.000000,4221.538574,4202.179688,4203.974121,4169.102539,4201.538574,4181.538574,4207.820313,4212.051270,4210.641113,4180.769043,4205.000000,4162.179688,4188.717773,4175.128418,1374.000000,4.000000,95.000000,,,,0.000000,4.000000,4.000000,4.000000,4.000000,4.000000,4.000000,4.000000,4.000000,4.000000,4.000000,4.000000,4.000000,4.000000,4.000000,100.000000,,,,,,,,,,,,,,,,
1645707429.246176,137.000000,0.000000,4222.307617,4201.282227,4207.820313,4173.589844,4197.563965,4182.436035,4205.384766,4209.871582,4208.846191,4176.282227,4205.769043,4155.769043,4194.743652,4185.384766,3299.000000,4.000000,95.000000,,,,0.000000,4.000000,4.000000,4.000000,4.000000,4.000000,4.000000,4.000000,4.000000,4.000000,4.000000,4.000000,4.000000,4.000000,4.000000,100.000000,,,,,,,,,,,,,,,,
1645707429.250116,138.000000,0.000000,4217.692383,4203.589844,4210.769043,4180.256348,4197.179688,4183.077148,4201.922852,4207.179688,4209.230957,4171.922852,4207.051270,4154.230957,4203.333496,4192.307617,3082.000000,4.000000,95.000000,,,,0.000000,4.000000,4.000000,4.000000,4.000000,4.000000,4.000000,4.000000,4.000000,4.000000,4.000000,4.000000,4.000000,4.000000,4.000000,100.000000,,,,,,,,,,,,,,,,
1645707429.254056,139.000000,0.000000,4211.666504,4208.846191,4211.666504,4186.666504,4200.128418,4182.948730,4200.897461,4206.922852,4212.436035,4171.666504,4209.871582,4157.820313,4210.000000,4195.384766,3543.000000,4.000000,95.000000,,,,0.000000,4.000000,4.000000,4.000000,4.000000,4.000000,4.000000,4.000000,4.000000,4.000000,4.000000,4.000000,4.000000,4.000000,4.000000,100.000000,,,,,,,,,,,,,,,,
1645707429.257996,140.000000,0.000000,4208.077148,4214.871582,4209.102539,4191.282227,4204.102539,4182.051270,4202.051270,4208.717773,4216.922852,4176.410156,4214.871582,4163.846191,4211.666504,4196.153809,3386.000000,4.000000,95.000000,,,,0.000000,4.000000,4.000000,4.000000,4.000000,4.000000,4.000000,4.000000,4.000000,4.000000,4.000000,4.000000,4.000000,4.000000,4.000000,100.000000,1.000000,50.000000,4.000000,4.000000,4.000000,4.000000,4.000000,4.000000,1.000000,4.000000,1.000000,4.000000,4.000000,4.000000,4.000000,4.000000
1645707429.261936,141.000000,0.000000,4208.205078,4218.333496,4203.589844,4192.820313,4206.410156,4180.897461,4202.436035,4209.871582,4220.000000,4183.205078,4220.897461,4168.333496,4208.333496,4195.000000,3384.000000,4.000000,95.000000,,,,0.000000,4.000000,4.000000,4.000000,4.000000,4.000000,4.000000,4.000000,4.000000,4.000000,4.000000,4.000000,4.000000,4.000000,4.000000,100.000000,,,,,,,,,,,,,,,,
1645707429.265876,142.000000,0.000000,4209.871582,4217.179688,4197.436035,4190.512695,4205.641113,4179.358887,4200.384766,4209.102539,4219.615234,4187.307617,4224.358887,4168.077148,4202.307617,4190.384766,3082.000000,4.000000,95.000000,,,,0.000000,4.000000,4.000000,4.000000,4.000000,4.000000,4.000000,4.000000,4.000000,4.000000,4.000000,4.000000,4.000000,4.000000,4.000000,100.000000,,,,,,,,,,,,,,,,
1645707429.269816,143.000000,0.000000,4210.769043,4212.820313,4193.846191,4185.512695,4202.563965,4177.948730,4197.692383,4208.205078,4216.538574,4186.538574,4221.538574,4163.461426,4197.051270,4182.436035,3543.000000,4.000000,95.000000,,,,0.000000,4.000000,4.000000,4.000000,4.000000,4.000000,4.000000,4.000000,4.000000,4.000000,4.000000,4.000000,4.000000,4.000000,4.000000,100.000000,,,,,,,,,,,,,,,,
1645707429.273757,144.000000,0.000000,4211.153809,4209.102539,4193.846191,4180.769043,4199.871582,4177.563965,4198.077148,4209.487305,4213.717773,4183.461426,4213.461426,4157.436035,4195.384766,4175.000000,3386.000000,4.000000,95.000000,,,,0.000000,4.000000,4.000000,4.000000,4.000000,4.000000,4.000000,4.000000,4.000000,4.000000,4.000000,4.000000,4.000000,4.000000,4.000000,100.000000,,,,,,,,,,,,,,,,
1645707429.277697,145.000000,0.000000,4212.820313,4208.974121,4196.025879,4178.461426,4200.641113,4180.000000,4202.307617,4213.205078,4213.589844,4183.461426,4206.153809,4153.589844,4198.846191,4173.205078,3384.000000,4.000000,95.000000,,,,0.000000,4.000000,4.000000,4.000000,4.000000,4.000000,4.000000,4.000000,4.000000,4.000000,4.000000,4.000000,4.000000,4.000000,4.000000,100.000000,,,,,,,,,,,,,,,,
1645707429.281637,146.000000,0.000000,4216.282227,4211.538574,4198.077148,4177.948730,4204.871582,4184.615234,4207.307617,4216.794922,4216.922852,4187.563965,4205.512695,4154.615234,4206.025879,4177.692383,3082.000000,4.000000,95.000000,,,,0.000000,4.000000,4.000000,4.000000,4.000000,4.000000,4.000000,4.000000,4.000000,4.000000,4.000000,4.000000,4.000000,4.000000,4.000000,100.000000,,,,,,,,,,,,,,,,
1645707429.285577,147.000000,0.000000,4219.102539,4212.948730,4198.333496,4177.307617,4208.846191,4188.461426,4209.358887,4217.307617,4220.897461,4191.538574,4212.179688,4159.743652,4212.436035,4183.077148,3543.000000,4.000000,95.000000,,,,0.000000,4.000000,4.000000,4.000000,4.000000,4.000000,4.000000,4.000000,4.000000,4.000000,4.000000,4.000000,4.000000,4.000000,4.000000,100.000000,,,,,,,,,,,,,,,,
1645707429.289517,148.000000,0.000000,4218.461426,4210.512695,4197.436035,4176.025879,4208.205078,4188.205078,4207.307617,4213.974121,4221.666504,4189.487305,4220.897461,4165.384766,4213.846191,4182.436035,3386.000000,4.000000,95.000000,,,,0.000000,4.000000,4.000000,4.000000,4.000000,4.000000,4.000000,4.000000,4.000000,4.000000,4.000000,4.000000,4.000000,4.000000,4.000000,100.000000,,,,,,,,,,,,,,,,
1645707429.293457,149.000000,0.000000,4214.615234,4205.897461,4196.666504,4175.641113,4202.948730,4184.102539,4203.589844,4209.102539,4217.692383,4181.282227,4225.384766,4167.948730,4208.846191,4175.128418,3384.000000,4.000000,95.000000,,,,0.000000,4.000000,4.000000,4.000000,4.000000,4.000000,4.000000,4.000000,4.000000,4.000000,4.000000,4.000000,4.000000,4.000000,4.000000,100.000000,,,,,,,,,,,,,,,,
1645707429.297397,150.000000,0.000000,4210.769043,4203.717773,4196.666504,4178.461426,4197.820313,4180.128418,4201.025879,4205.769043,4211.794922,4173.461426,4223.461426,4166.410156,4201.153809,4168.333496,3082.000000,4.000000,95.000000,,,,0.000000,4.000000,4.000000,4.000000,4.000000,4.000000,4.000000,4.000000,4.000000,4.000000,4.000000,4.000000,4.000000,4.000000,4.000000,100.000000,,,,,,,,,,,,,,,,
1645707429.301437,151.000000,0.000000,4210.000000,4207.436035,4197.307617,4183.974121,4197.692383,4180.512695,4201.153809,4205.769043,4207.948730,4172.948730,4217.948730,4162.948730,4195.769043,4170.128418,3543.000000,4.000000,95.000000,,,,0.000000,4.000000,4.000000,4.000000,4.000000,4.000000,4.000000,4.000000,4.000000,4.000000,4.000000,4.000000,4.000000,4.000000,4.000000,100.000000,,,,,,,,,,,,,,,,
1645707429.305377,152.000000,0.000000,4211.410156,4215.128418,4198.205078,4189.102539,4202.436035,4185.512695,4203.461426,4208.461426,4208.205078,4179.743652,4213.589844,4160.256348,4195.769043,4182.051270,3386.000000,4.000000,95.000000,,,,0.000000,4.000000,4.000000,4.000000,4.000000,4.000000,4.000000,4.000000,4.000000,4.000000,4.000000,4.000000,4.000000,4.000000,4.000000,100.000000,,,,,,,,,,,,,,,,
1645707429.309317,153.000000,0.000000,4212.179688,4221.153809,4199.102539,4191.025879,4207.820313,4191.153809,4206.538574,4212.051270,4211.282227,4187.436035,4212.692383,4159.871582,4200.256348,4198.077148,3384.000000,4.000000,95.000000,,,,0.000000,4.000000,4.000000,4.000000,4.000000,4.000000,4.000000,4.000000,4.000000,4.000000,4.000000,4.000000,4.000000,4.000000,4.000000,100.000000,,,,,,,,,,,,,,,,
1645707429.313258,154.000000,0.000000,4210.641113,4221.282227,4199.615234,4189.358887,4209.743652,4192.820313,4208.333496,4213.846191,4214.230957,4189.871582,4214.487305,4161.538574,4206.282227,4209.358887,3082.000000,4.000000,95.000000,,,,0.000000,4.000000,4.000000,4.000000,4.000000,4.000000,4.000000,4.000000,4.000000,4.000000,4.000000,4.000000,4.000000,4.000000,4.000000,100.000000,,,,,,,,,,,,,,,,
1645707429.317198,155.000000,0.000000,4208.205078,4215.641113,4199.615234,4185.769043,4208.333496,4189.487305,4207.179688,4212.436035,4214.871582,4186.538574,4215.897461,4164.102539,4210.641113,4210.384766,3543.000000,4.000000,95.000000,,,,0.000000,4.000000,4.000000,4.000000,4.000000,4.000000,4.000000,4.000000,4.000000,4.000000,4.000000,4.000000,4.000000,4.000000,4.000000,100.000000,,,,,,,,,,,,,,,,
1645707429.321138,156.000000,0.000000,4208.077148,4208.974121,4199.743652,4182.179688,4206.410156,4184.230957,4203.205078,4208.461426,4212.948730,4181.538574,4215.000000,4166.538574,4212.179688,4201.794922,3386.000000,4.000000,95.000000,,,,0.000000,4.000000,4.000000,4.000000,4.000000,4.000000,4.000000,4.000000,4.000000,4.000000,4.000000,4.000000,4.000000,4.000000,4.000000,100.000000,,,,,,,,,,,,,,,,
1645707429.325078,157.000000,0.000000,4212.051270,4205.769043,4200.512695,4180.000000,4205.641113,4180.769043,4199.102539,4204.487305,4210.256348,4178.333496,4211.922852,4168.333496,4210.641113,4189.102539,3384.000000,4.000000,95.000000,,,,0.000000,4.000000,4.000000,4.000000,4.000000,4.000000,4.000000,4.000000,4.000000,4.000000,4.000000,4.000000,4.000000,4.000000,4.000000,100.000000,,,,,,,,,,,,,,,,
1645707429.329018,158.000000,0.000000,4218.846191,4207.563965,4202.436035,4180.769043,4205.897461,4181.025879,4198.333496,4203.717773,4209.230957,4176.282227,4208.846191,4169.871582,4207.051270,4178.846191,3082.000000,4.000000,95.000000,,,,0.000000,4.000000,4.000000,4.000000,4.000000,4.000000,4.000000,4.000000,4.000000,4.000000,4.000000,4.000000,4.000000,4.000000,4.000000,100.000000,,,,,,,,,,,,,,,,
1645707429.332958,159.000000,0.000000,4225.000000,4212.563965,4204.743652,4184.871582,4205.897461,4183.974121,4202.179688,4206.666504,4210.897461,4173.589844,4208.205078,4171.282227,4203.077148,4174.871582,3543.000000,4.000000,95.000000,,,,0.000000,4.000000,4.000000,4.000000,4.000000,4.000000,4.000000,4.000000,4.000000,4.000000,4.000000,4.000000,4.000000,4.000000,4.000000,100.000000,,,,,,,,,,,,,,,,
1645707429.336898,160.000000,0.000000,4226.922852,4218.077148,4205.641113,4190.384766,4205.641113,4188.077148,4208.077148,4211.282227,4214.102539,4170.897461,4210.769043,4172.436035,4201.153809,4176.538574,3386.000000,4.000000,95.000000,,,,0.000000,4.000000,4.000000,4.000000,4.000000,4.000000,4.000000,4.000000,4.000000,4.000000,4.000000,4.000000,4.000000,4.000000,4.000000,100.000000,,,,,,,,,,,,,,,,
1645707429.340838,161.000000,0.000000,4223.717773,4221.666504,4204.230957,4193.846191,4205.769043,4191.153809,4212.179688,4215.128418,4217.179688,4171.538574,4215.128418,4172.563965,4202.692383,4181.025879,3384.000000,4.000000,95.000000,,,,0.000000,4.000000,4.000000,4.000000,4.000000,4.000000,4.000000,4.000000,4.000000,4.000000,4.000000,4.000000,4.000000,4.000000,4.000000,100.000000,,,,,,,,,,,,,,,,
1645707429.344778,162.000000,0.000000,4217.948730,4222.179688,4201.794922,4193.077148,4206.410156,4192.563965,4213.205078,4216.666504,4218.461426,4177.948730,4218.589844,4170.897461,4207.051270,4185.512695,3082.000000,4.000000,95.000000,,,,0.000000,4.000000,4.000000,4.000000,4.000000,4.000000,4.000000,4.000000,4.000000,4.000000,4.000000,4.000000,4.000000,4.000000,4.000000,100.000000,,,,,,,,,,,,,,,,
1645707429.348718,163.000000,0.000000,4213.461426,4220.000000,4200.897461,4189.102539,4206.922852,4192.307617,4212.820313,4216.666504,4218.077148,4188.205078,4219.230957,4168.333496,4211.282227,4188.077148,3543.000000,4.000000,95.000000,,,,0.000000,4.000000,4.000000,4.000000,4.000000,4.000000,4.000000,4.000000,4.000000,4.000000,4.000000,4.000000,4.000000,4.000000,4.000000,100.000000,,,,,,,,,,,,,,,,
1645707429.352659,164.000000,0.000000,4213.717773,4217.692383,4202.820313,4185.641113,4207.692383,4191.666504,4213.333496,4217.179688,4217.436035,4197.563965,4217.820313,4167.051270,4213.077148,4189.615234,3386.000000,4.000000,95.000000,,,,0.000000,4.000000,4.000000,4.000000,4.000000,4.000000,4.000000,4.000000,4.000000,4.000000,4.000000,4.000000,4.000000,4.000000,4.000000,100.000000,,,,,,,,,,,,,,,,
1645707429.356599,165.000000,0.000000,4218.589844,4217.948730,4206.538574,4185.384766,4210.000000,4192.436035,4215.000000,4219.743652,4217.948730,4202.307617,4216.410156,4168.461426,4212.179688,4192.563965,3384.000000,4.000000,95.000000,,,,0.000000,4.000000,4.000000,4.000000,4.000000,4.000000,4.000000,4.000000,4.000000,4.000000,4.000000,4.000000,4.000000,4.000000,4.000000,100.000000,,,,,,,,,,,,,,,,
1645707429.360539,166.000000,0.000000,4225.000000,4220.769043,4209.871582,4187.692383,4213.717773,4194.743652,4216.153809,4223.717773,4220.000000,4201.794922,4216.153809,4171.666504,4211.025879,4198.974121,3082.000000,4.000000,95.000000,,,,0.000000,4.000000,4.000000,4.000000,4.000000,4.000000,4.000000,4.000000,4.000000,4.000000,4.000000,4.000000,4.000000,4.000000,4.000000,100.000000,,,,,,,,,,,,,,,,
1645707429.364479,167.000000,0.000000,4228.077148,4222.820313,4210.897461,4189.743652,4216.282227,4196.794922,4215.512695,4227.051270,4222.436035,4198.333496,4216.153809,4173.461426,4211.282227,4206.922852,3543.000000,4.000000,95.000000,,,,0.000000,4.000000,4.000000,4.000000,4.000000,4.000000,4.000000,4.000000,4.000000,4.000000,4.000000,4.000000,4.000000,4.000000,4.000000,100.000000,,,,,,,,,,,,,,,,
1645707429.368419,168.000000,0.000000,4224.871582,4220.384766,4208.974121,4189.102539,4214.743652,4196.538574,4213.974121,4227.563965,4223.589844,4194.102539,4213.589844,4171.922852,4212.820313,4211.410156,3386.000000,4.000000,95.000000,,,,0.000000,4.000000,4.000000,4.000000,4.000000,4.000000,4.000000,4.000000,4.000000,4.000000,4.000000,4.000000,4.000000,4.000000,4.000000,100.000000,,,,,,,,,,,,,,,,
1645707429.372359,169.000000,0.000000,4216.410156,4214.487305,4205.256348,4186.153809,4209.358887,4194.102539,4213.333496,4224.871582,4222.179688,4190.256348,4207.820313,4167.436035,4212.692383,4206.922852,3384.000000,4.000000,95.000000,,,,0.000000,4.000000,4.000000,4.000000,4.000000,4.000000,4.000000,4.000000,4.000000,4.000000,4.000000,4.000000,4.000000,4.000000,4.000000,100.000000,,,,,,,,,,,,,,,,
1645707429.376199,170.000000,0.000000,4208.589844,4210.384766,4201.794922,4183.846191,4204.230957,4191.794922,4214.102539,4220.384766,4218.974121,4187.563965,4202.051270,4163.077148,4209.102539,4193.974121,3082.000000,4.000000,95.000000,,,,0.000000,4.000000,4.000000,4.000000,4.000000,4.000000,4.000000,4.000000,4.000000,4.000000,4.000000,4.000000,4.000000,4.000000,4.000000,100.000000,,,,,,,,,,,,,,,,
1645707429.380139,171.000000,0.000000,4207.820313,4213.461426,4200.641113,4185.769043,4204.102539,4191.794922,4214.487305,4216.666504,4216.282227,4186.922852,4201.282227,4161.922852,4202.436035,4180.384766,3543.000000,4.000000,95.000000,,,,0.000000,4.000000,4.000000,4.000000,4.000000,4.000000,4.000000,4.000000,4.000000,4.000000,4.000000,4.000000,4.000000,4.000000,4.000000,100.000000,,,,,,,,,,,,,,,,
1645707429.384080,172.000000,0.000000,4215.897461,4223.077148,4202.436035,4191.922852,4210.000000,4194.487305,4213.333496,4216.538574,4216.153809,4188.589844,4207.436035,4164.871582,4195.641113,4175.512695,3386.000000,4.000000,95.000000,,,,0.000000,4.000000,4.000000,4.000000,4.000000,4.000000,4.000000,4.000000,4.000000,4.000000,4.000000,4.000000,4.000000,4.000000,4.000000,100.000000,,,,,,,,,,,,,,,,
1645707429.388020,173.000000,0.000000,4227.436035,4232.307617,4206.538574,4198.461426,4218.205078,4197.563965,4211.538574,4220.512695,4218.333496,4191.538574,4216.922852,4170.769043,4191.282227,4182.820313,3384.000000,4.000000,95.000000,1,1,3,0.000000,4.000000,4.000000,4.000000,4.000000,4.000000,4.000000,4.000000,4.000000,4.000000,4.000000,4.000000,4.000000,4.000000,4.000000,100.000000,,,,,,,,,,,,,,,,
1645707429.391960,174.000000,0.000000,4233.589844,4233.846191,4210.256348,4200.641113,4223.205078,4198.846191,4210.769043,4226.282227,4221.410156,4193.846191,4223.846191,4176.922852,4189.615234,4195.769043,3082.000000,4.000000,95.000000,,,,0.000000,4.000000,4.000000,4.000000,4.000000,4.000000,4.000000,4.000000,4.000000,4.000000,4.000000,4.000000,4.000000,4.000000,4.000000,100.000000,,,,,,,,,,,,,,,,
1645707429.395900,175.000000,0.000000,4229.615234,4226.666504,4211.282227,4198.205078,4221.666504,4198.205078,4211.153809,4229.871582,4223.077148,4193.846191,4225.512695,4180.512695,4189.743652,4203.205078,3543.000000,4.000000,95.000000,,,,0.000000,4.000000,4.000000,4.000000,4.000000,4.000000,4.000000,4.000000,4.000000,4.000000,4.000000,4.000000,4.000000,4.000000,4.000000,100.000000,,,,,,,,,,,,,,,,
1645707429.399740,176.000000,0.000000,4220.000000,4217.179688,4209.230957,4194.230957,4215.512695,4197.051270,4211.538574,4228.333496,4222.307617,4192.051270,4223.974121,4181.282227,4191.666504,4200.512695,3386.000000,4.000000,95.000000,,,,0.000000,4.000000,4.000000,4.000000,4.000000,4.000000,4.000000,4.000000,4.000000,4.000000,4.000000,4.000000,4.000000,4.000000,4.000000,100.000000,,,,,,,,,,,,,,,,
1645707429.403680,177.000000,0.000000,4213.974121,4213.974121,4206.666504,4193.333496,4209.743652,4196.666504,4211.025879,4222.948730,4220.256348,4190.256348,4222.692383,4181.153809,4196.282227,4193.846191,3384.000000,4.000000,95.000000,,,,0.000000,4.000000,4.000000,4.000000,4.000000,4.000000,4.000000,4.000000,4.000000,4.000000,4.000000,4.000000,4.000000,4.000000,4.000000,100.000000,,,,,,,,,,,,,,,,
1645707429.407720,178.000000,0.000000,4217.436035,4220.769043,4206.666504,4197.307617,4208.589844,4197.179688,4210.512695,4217.948730,4218.974121,4190.000000,4223.077148,4182.307617,4204.230957,4193.846191,3082.000000,4.000000,95.000000,,,,0.000000,4.000000,4.000000,4.000000,4.000000,4.000000,4.000000,4.000000,4.000000,4.000000,4.000000,4.000000,4.000000,4.000000,4.000000,100.000000,,,,,,,,,,,,,,,,
1645707429.411660,179.000000,0.000000,4228.589844,4233.333496,4210.384766,4203.974121,4211.794922,4197.692383,4210.769043,4216.538574,4218.461426,4190.769043,4223.589844,4184.615234,4213.846191,4204.615234,3543.000000,4.000000,95.000000,,,,0.000000,4.000000,4.000000,4.000000,4.000000,4.000000,4.000000,4.000000,4.000000,4.000000,4.000000,4.000000,4.000000,4.000000,4.000000,100.000000,,,,,,,,,,,,,,,,
1645707429.415600,180.000000,0.000000,4240.000000,4242.692383,4214.743652,4209.102539,4215.769043,4196.922852,4211.153809,4217.563965,4216.922852,4190.256348,4222.307617,4185.897461,4221.282227,4219.615234,3386.000000,4.000000,95.000000,,,,0.000000,4.000000,4.000000,4.000000,4.000000,4.000000,4.000000,4.000000,4.000000,4.000000,4.000000,4.000000,4.000000,4.000000,4.000000,100.000000,,,,,,,,,,,,,,,,
1645707429.419540,181.000000,0.000000,4245.000000,4241.794922,4215.897461,4208.846191,4217.307617,4195.000000,4209.871582,4216.922852,4213.461426,4186.666504,4218.077148,4183.589844,4222.563965,4227.307617,3384.000000,4.000000,95.000000,,,,0.000000,4.000000,4.000000,4.000000,4.000000,4.000000,4.000000,4.000000,4.000000,4.000000,4.000000,4.000000,4.000000,4.000000,4.000000,100.000000,,,,,,,,,,,,,,,,
1645707429.423481,182.000000,0.000000,4241.794922,4230.000000,4212.179688,4202.307617,4215.512695,4192.692383,4206.410156,4212.051270,4208.974121,4179.615234,4211.922852,4177.692383,4216.025879,4221.282227,3082.000000,4.000000,95.000000,,,,0.000000,4.000000,4.000000,4.000000,4.000000,4.000000,4.000000,4.000000,4.000000,4.000000,4.000000,4.000000,4.000000,4.000000,4.000000,100.000000,,,,,,,,,,,,,,,,
1645707429.427421,183.000000,0.000000,4234.102539,4214.358887,4206.153809,4191.794922,4211.538574,4191.282227,4203.077148,4204.487305,4205.641113,4170.641113,4205.256348,4170.897461,4204.358887,4205.897461,3543.000000,4.000000,95.000000,,,,0.000000,4.000000,4.000000,4.000000,4.000000,4.000000,4.000000,4.000000,4.000000,4.000000,4.000000,4.000000,4.000000,4.000000,4.000000,100.000000,,,,,,,,,,,,,,,,
1645707429.431361,184.000000,0.000000,4226.794922,4204.102539,4202.051270,4182.051270,4206.794922,4190.897461,4202.563965,4198.974121,4204.743652,4162.820313,4200.128418,4166.153809,4193.333496,4192.563965,3386.000000,4.000000,95.000000,,,,0.000000,4.000000,4.000000,4.000000,4.000000,4.000000,4.000000,4.000000,4.000000,4.000000,4.000000,4.000000,4.000000,4.000000,4.000000,100.000000,,,,,,,,,,,,,,,,
1645707429.435301,185.000000,0.000000,4224.102539,4204.615234,4202.436035,4177.179688,4202.820313,4191.410156,4205.641113,4198.461426,4206.153809,4159.487305,4198.205078,4164.743652,4188.846191,4190.897461,3384.000000,4.000000,95.000000,,,,0.000000,4.000000,4.000000,4.000000,4.000000,4.000000,4.000000,4.000000,4.000000,4.000000,4.000000,4.000000,4.000000,4.000000,4.000000,100.000000,,,,,,,,,,,,,,,,
1645707429.439241,186.000000,0.000000,4227.179688,4213.717773,4205.897461,4178.974121,4201.153809,4191.794922,4209.487305,4202.179688,4208.589844,4162.179688,4201.282227,4166.538574,4192.948730,4200.384766,3082.000000,4.000000,95.000000,,,,0.000000,4.000000,4.000000,4.000000,4.000000,4.000000,4.000000,4.000000,4.000000,4.000000,4.000000,4.000000,4.000000,4.000000,4.000000,100.000000,,,,,,,,,,,,,,,,
1645707429.443181,187.000000,0.000000,4233.461426,4223.589844,4208.974121,4186.153809,4202.692383,4191.538574,4211.025879,4207.307617,4210.897461,4170.000000,4208.846191,4170.897461,4203.077148,4212.179688,3543.000000,4.000000,95.000000,,,,0.000000,4.000000,4.000000,4.000000,4.000000,4.000000,4.000000,4.000000,4.000000,4.000000,4.000000,4.000000,4.000000,4.000000,4.000000,100.000000,,,,,,,,,,,,,,,,
1645707429.447121,188.000000,0.000000,4238.717773,4226.153809,4209.487305,4194.487305,4206.153809,4190.256348,4209.743652,4212.051270,4212.820313,4178.717773,4217.307617,4176.666504,4213.077148,4217.051270,3386.000000,4.000000,95.000000,,,,0.000000,4.000000,4.000000,4.000000,4.000000,4.000000,4.000000,4.000000,4.000000,4.000000,4.000000,4.000000,4.000000,4.000000,4.000000,100.000000,,,,,,,,,,,,,,,,
1645707429.451061,189.000000,0.000000,4239.871582,4219.615234,4207.948730,4199.358887,4208.589844,4188.205078,4208.205078,4216.282227,4213.846191,4183.717773,4222.179688,4181.538574,4218.333496,4212.948730,3384.000000,4.000000,95.000000,,,,0.000000,4.000000,4.000000,4.000000,4.000000,4.000000,4.000000,4.000000,4.000000,4.000000,4.000000,4.000000,4.000000,4.000000,4.000000,100.000000,,,,,,,,,,,,,,,,
1645707429.455001,190.000000,0.000000,4236.538574,4209.102539,4205.897461,4198.846191,4208.333496,4186.666504,4208.717773,4219.871582,4214.102539,4183.205078,4221.922852,4183.589844,4218.333496,4205.000000,3082.000000,4.000000,95.000000,,,,0.000000,4.000000,4.000000,4.000000,4.000000,4.000000,4.000000,4.000000,4.000000,4.000000,4.000000,4.000000,4.000000,4.000000,4.000000,100.000000,,,,,,,,,,,,,,,,
1645707429.458942,191.000000,0.000000,4231.282227,4202.179688,4204.487305,4195.384766,4206.538574,4187.436035,4211.282227,4221.794922,4214.358887,4180.128418,4218.974121,4182.179688,4215.897461,4199.871582,3543.000000,4.000000,95.000000,,,,0.000000,4.000000,4.000000,4.000000,4.000000,4.000000,4.000000,4.000000,4.000000,4.000000,4.000000,4.000000,4.000000,4.000000,4.000000,100.000000,,,,,,,,,,,,,,,,
1645707429.462882,192.000000,0.000000,4226.794922,4203.589844,4204.230957,4192.563965,4206.410156,4191.282227,4214.487305,4222.307617,4215.641113,4179.230957,4217.307617,4178.461426,4213.589844,4199.743652,3386.000000,4.000000,95.000000,,,,0.000000,4.000000,4.000000,4.000000,4.000000,4.000000,4.000000,4.000000,4.000000,4.000000,4.000000,4.000000,4.000000,4.000000,4.000000,100.000000,,,,,,,,,,,,,,,,
1645707429.466922,193.000000,0.000000,4224.743652,4212.179688,4205.897461,4192.307617,4209.871582,4197.051270,4217.307617,4222.820313,4218.333496,4183.205078,4218.717773,4174.743652,4212.179688,4202.692383,3384.000000,4.000000,95.000000,,,,0.000000,4.000000,4.000000,4.000000,4.000000,4.000000,4.000000,4.000000,4.000000,4.000000,4.000000,4.000000,4.000000,4.000000,4.000000,100.000000,,,,,,,,,,,,,,,,
1645707429.470862,194.000000,0.000000,4225.641113,4222.563965,4208.974121,4193.205078,4215.384766,4202.179688,4219.743652,4224.871582,4221.282227,4190.256348,4222.307617,4172.820313,4211.922852,4206.922852,3082.000000,4.000000,95.000000,,,,0.000000,4.000000,4.000000,4.000000,4.000000,4.000000,4.000000,4.000000,4.000000,4.000000,4.000000,4.000000,4.000000,4.000000,4.000000,100.000000,,,,,,,,,,,,,,,,
1645707429.474802,195.000000,0.000000,4229.102539,4229.230957,4211.538574,4193.717773,4220.128418,4205.256348,4221.666504,4228.077148,4223.077148,4196.666504,4226.410156,4172.948730,4213.589844,4212.948730,3543.000000,4.000000,95.000000,2,1,3,0.000000,4.000000,4.000000,4.000000,4.000000,4.000000,4.000000,4.000000,4.000000,4.000000,4.000000,4.000000,4.000000,4.000000,4.000000,100.000000,,,,,,,,,,,,,,,,
1645707429.478742,196.000000,0.000000,4232.820313,4229.615234,4211.025879,4193.333496,4222.436035,4206.025879,4222.307617,4230.897461,4223.461426,4199.102539,4229.871582,4174.871582,4217.051270,4220.384766,3386.000000,4.000000,95.000000,,,,0.000000,4.000000,4.000000,4.000000,4.000000,4.000000,4.000000,4.000000,4.000000,4.000000,4.000000,4.000000,4.000000,4.000000,4.000000,100.000000,,,,,,,,,,,,,,,,
1645707429.482682,197.000000,0.000000,4233.205078,4224.487305,4206.282227,4193.077148,4221.666504,4204.743652,4220.769043,4231.153809,4223.205078,4197.051270,4231.153809,4177.436035,4220.000000,4225.128418,3384.000000,4.000000,95.000000,,,,0.000000,4.000000,4.000000,4.000000,4.000000,4.000000,4.000000,4.000000,4.000000,4.000000,4.000000,4.000000,4.000000,4.000000,4.000000,100.000000,,,,,,,,,,,,,,,,
1645707429.486622,198.000000,0.000000,4227.179688,4217.051270,4199.102539,4193.461426,4217.051270,4201.410156,4217.563965,4228.717773,4222.948730,4191.410156,4228.205078,4178.717773,4219.102539,4220.512695,3082.000000,4.000000,95.000000,,,,0.000000,4.000000,4.000000,4.000000,4.000000,4.000000,4.000000,4.000000,4.000000,4.000000,4.000000,4.000000,4.000000,4.000000,4.000000,100.000000,,,,,,,,,,,,,,,,
1645707429.490562,199.000000,0.000000,4215.897461,4210.000000,4192.820313,4192.948730,4208.974121,4196.153809,4214.230957,4225.000000,4222.820313,4184.743652,4220.256348,4176.794922,4213.333496,4205.256348,3543.000000,4.000000,95.000000,,,,0.000000,4.000000,4.000000,4.000000,4.000000,4.000000,4.000000,4.000000,4.000000,4.000000,4.000000,4.000000,4.000000,4.000000,4.000000,100.000000,,,,,,,,,,,,,,,,
1645707429.494602,200.000000,0.000000,4205.512695,4205.128418,4189.358887,4190.000000,4200.384766,4191.025879,4212.436035,4222.051270,4222.820313,4180.256348,4210.128418,4171.153809,4206.666504,4187.436035,3386.000000,4.000000,95.000000,,,,0.000000,4.000000,4.000000,4.000000,4.000000,4.000000,4.000000,4.000000,4.000000,4.000000,4.000000,4.000000,4.000000,4.000000,4.000000,100.000000,,,,,,,,,,,,,,,,
1645707429.498642,201.000000,0.000000,4203.077148,4203.205078,4188.974121,4184.871582,4196.153809,4189.102539,4212.692383,4220.897461,4222.948730,4180.256348,4202.948730,4164.487305,4205.384766,4179.615234,3384.000000,4.000000,95.000000,,,,0.000000,4.000000,4.000000,4.000000,4.000000,4.000000,4.000000,4.000000,4.000000,4.000000,4.000000,4.000000,4.000000,4.000000,4.000000,100.000000,,,,,,,,,,,,,,,,
1645707429.502582,202.000000,0.000000,4211.025879,4204.230957,4190.384766,4179.743652,4199.230957,4191.538574,4213.974121,4221.538574,4223.461426,4184.230957,4203.205078,4160.769043,4212.179688,4187.436035,3082.000000,4.000000,95.000000,,,,0.000000,4.000000,4.000000,4.000000,4.000000,4.000000,4.000000,4.000000,4.000000,4.000000,4.000000,4.000000,4.000000,4.000000,4.000000,100.000000,,,,,,,,,,,,,,,,
1645707429.506522,203.000000,0.000000,4223.333496,4207.436035,4192.948730,4177.179688,4206.794922,4196.410156,4215.128418,4223.589844,4223.205078,4188.846191,4209.743652,4163.077148,4222.692383,4203.717773,3543.000000,4.000000,95.000000,,,,0.000000,4.000000,4.000000,4.000000,4.000000,4.000000,4.000000,4.000000,4.000000,4.000000,4.000000,4.000000,4.000000,4.000000,4.000000,100.000000,,,,,,,,,,,,,,,,
1645707429.510463,204.000000,0.000000,4230.512695,4211.538574,4195.897461,4178.205078,4213.333496,4199.487305,4215.769043,4226.025879,4221.794922,4190.128418,4217.051270,4170.512695,4228.461426,4214.743652,3386.000000,4.000000,95.000000,,,,0.000000,4.000000,4.000000,4.000000,4.000000,4.000000,4.000000,4.000000,4.000000,4.000000,4.000000,4.000000,4.000000,4.000000,4.000000,100.000000,,,,,,,,,,,,,,,,
1645707429.514403,205.000000,0.000000,4227.179688,4215.128418,4197.948730,4181.922852,4214.487305,4198.205078,4215.897461,4227.563965,4219.358887,4186.538574,4219.358887,4178.846191,4224.358887,4212.820313,3384.000000,4.000000,95.000000,,,,0.000000,4.000000,4.000000,4.000000,4.000000,4.000000,4.000000,4.000000,4.000000,4.000000,4.000000,4.000000,4.000000,4.000000,4.000000,100.000000,,,,,,,,,,,,,,,,
1645707429.518343,206.000000,0.000000,4216.922852,4217.436035,4197.692383,4186.794922,4210.256348,4194.230957,4215.256348,4226.538574,4217.179688,4180.256348,4215.256348,4182.307617,4213.717773,4202.307617,3082.000000,4.000000,95.000000,,,,0.000000,4.000000,4.000000,4.000000,4.000000,4.000000,4.000000,4.000000,4.000000,4.000000,4.000000,4.000000,4.000000,4.000000,4.000000,100.000000,,,,,,,,,,,,,,,,
1645707429.522283,207.000000,0.000000,4208.205078,4218.589844,4194.615234,4191.153809,4203.846191,4190.769043,4212.948730,4222.307617,4216.538574,4175.512695,4208.205078,4177.948730,4205.128418,4194.743652,3543.000000,4.000000,95.000000,,,,0.000000,4.000000,4.000000,4.000000,4.000000,4.000000,4.000000,4.000000,4.000000,4.000000,4.000000,4.000000,4.000000,4.000000,4.000000,100.000000,,,,,,,,,,,,,,,,
1645707429.526223,208.000000,0.000000,4207.563965,4218.461426,4190.000000,4194.102539,4198.717773,4189.743652,4209.358887,4216.666504,4217.692383,4174.743652,4202.436035,4167.436035,4205.641113,4197.307617,3386.000000,4.000000,95.000000,,,,0.000000,4.000000,4.000000,4.000000,4.000000,4.000000,4.000000,4.000000,4.000000,4.000000,4.000000,4.000000,4.000000,4.000000,4.000000,100.000000,,,,,,,,,,,,,,,,
1645707429.530163,209.000000,0.000000,4214.743652,4216.153809,4187.051270,4194.871582,4196.538574,4190.000000,4206.666504,4212.692383,4219.871582,4176.538574,4200.641113,4156.538574,4214.102539,4206.794922,3384.000000,4.000000,95.000000,,,,0.000000,4.000000,4.000000,4.000000,4.000000,4.000000,4.000000,4.000000,4.000000,4.000000,4.000000,4.000000,4.000000,4.000000,4.000000,100.000000,,,,,,,,,,,,,,,,
1645707429.534103,210.000000,0.000000,4224.102539,4212.307617,4186.922852,4193.846191,4198.205078,4190.128418,4206.666504,4212.307617,4221.666504,4178.717773,4203.077148,4151.538574,4222.948730,4213.333496,3082.000000,4.000000,95.000000,,,,0.000000,4.000000,4.000000,4.000000,4.000000,4.000000,4.000000,4.000000,4.000000,4.000000,4.000000,4.000000,4.000000,4.000000,4.000000,100.000000,,,,,,,,,,,,,,,,
1645707429.538043,211.000000,0.000000,4230.256348,4209.358887,4189.230957,4192.563965,4203.974121,4190.384766,4208.974121,4215.256348,4222.563965,4179.615234,4207.692383,4154.871582,4225.256348,4210.128418,3543.000000,4.000000,95.000000,,,,0.000000,4.000000,4.000000,4.000000,4.000000,4.000000,4.000000,4.000000,4.000000,4.000000,4.000000,4.000000,4.000000,4.000000,4.000000,100.000000,,,,,,,,,,,,,,,,
1645707429.541983,212.000000,0.000000,4231.025879,4209.102539,4191.794922,4191.666504,4212.436035,4192.051270,4211.666504,4218.974121,4223.205078,4180.000000,4211.922852,4163.077148,4220.256348,4199.102539,3386.000000,4.000000,95.000000,,,,0.000000,4.000000,4.000000,4.000000,4.000000,4.000000,4.000000,4.000000,4.000000,4.000000,4.000000,4.000000,4.000000,4.000000,4.000000,100.000000,,,,,,,,,,,,,,,,
1645707429.545924,213.000000,0.000000,4227.051270,4211.282227,4193.333496,4189.871582,4219.358887,4195.641113,4213.717773,4220.769043,4223.717773,4180.384766,4213.333496,4169.230957,4213.205078,4189.358887,3384.000000,4.000000,95.000000,,,,0.000000,4.000000,4.000000,4.000000,4.000000,4.000000,4.000000,4.000000,4.000000,4.000000,4.000000,4.000000,4.000000,4.000000,4.000000,100.000000,,,,,,,,,,,,,,,,
1645707429.549864,214.000000,0.000000,4220.256348,4213.205078,4193.333496,4185.897461,4220.641113,4199.487305,4215.256348,4219.615234,4223.717773,4180.641113,4211.410156,4168.461426,4210.256348,4189.102539,3082.000000,4.000000,95.000000,,,,0.000000,4.000000,4.000000,4.000000,4.000000,4.000000,4.000000,4.000000,4.000000,4.000000,4.000000,4.000000,4.000000,4.000000,4.000000,100.000000,,,,,,,,,,,,,,,,
1645707429.553804,215.000000,0.000000,4213.461426,4212.948730,4192.051270,4180.256348,4215.641113,4201.666504,4217.179688,4216.794922,4222.820313,4180.641113,4208.077148,4161.410156,4212.051270,4199.487305,3543.000000,4.000000,95.000000,,,,0.000000,4.000000,4.000000,4.000000,4.000000,4.000000,4.000000,4.000000,4.000000,4.000000,4.000000,4.000000,4.000000,4.000000,4.000000,100.000000,,,,,,,,,,,,,,,,
1645707429.557744,216.000000,0.000000,4209.615234,4211.538574,4190.512695,4176.282227,4208.461426,4201.282227,4218.589844,4214.358887,4221.282227,4181.410156,4206.410156,4153.205078,4213.461426,4213.461426,3386.000000,4.000000,95.000000,,,,0.000000,4.000000,4.000000,4.000000,4.000000,4.000000,4.000000,4.000000,4.000000,4.000000,4.000000,4.000000,4.000000,4.000000,4.000000,100.000000,,,,,,,,,,,,,,,,
1645707429.561684,217.000000,0.000000,4210.256348,4211.025879,4189.487305,4177.051270,4204.358887,4199.487305,4218.077148,4213.589844,4220.000000,4183.846191,4207.051270,4149.358887,4208.333496,4220.897461,3384.000000,4.000000,95.000000,,,,0.000000,4.000000,4.000000,4.000000,4.000000,4.000000,4.000000,4.000000,4.000000,4.000000,4.000000,4.000000,4.000000,4.000000,4.000000,100.000000,,,,,,,,,,,,,,,,
1645707429.565624,218.000000,0.000000,4213.717773,4211.922852,4188.974121,4182.563965,4205.000000,4197.692383,4215.128418,4213.846191,4219.615234,4186.153809,4208.077148,4151.794922,4194.871582,4216.153809,3082.000000,4.000000,95.000000,,,,0.000000,4.000000,4.000000,4.000000,4.000000,4.000000,4.000000,4.000000,4.000000,4.000000,4.000000,4.000000,4.000000,4.000000,4.000000,100.000000,,,,,,,,,,,,,,,,
1645707429.569464,219.000000,0.000000,4215.384766,4212.436035,4188.461426,4190.384766,4207.051270,4195.897461,4211.794922,4214.358887,4219.871582,4185.641113,4207.179688,4157.820313,4177.948730,4202.179688,3543.000000,4.000000,95.000000,,,,0.000000,4.000000,4.000000,4.000000,4.000000,4.000000,4.000000,4.000000,4.000000,4.000000,4.000000,4.000000,4.000000,4.000000,4.000000,100.000000,,,,,,,,,,,,,,,,
1645707429.573404,220.000000,0.000000,4212.948730,4210.897461,4187.820313,4196.282227,4207.436035,4194.358887,4210.641113,4214.487305,4220.256348,4181.666504,4205.000000,4162.948730,4165.897461,4188.333496,3386.000000,4.000000,95.000000,,,,0.000000,4.000000,4.000000,4.000000,4.000000,4.000000,4.000000,4.000000,4.000000,4.000000,4.000000,4.000000,4.000000,4.000000,4.000000,100.000000,,,,,,,,,,,,,,,,
1645707429.577344,221.000000,0.000000,4208.205078,4208.717773,4187.692383,4197.820313,4206.153809,4193.974121,4212.436035,4214.743652,4220.769043,4177.948730,4204.487305,4165.512695,4166.025879,4184.358887,3384.000000,4.000000,95.000000,,,,0.000000,4.000000,4.000000,4.000000,4.000000,4.000000,4.000000,4.000000,4.000000,4.000000,4.000000,4.000000,4.000000,4.000000,4.000000,100.000000,,,,,,,,,,,,,,,,
1645707429.581285,222.000000,0.000000,4206.282227,4208.846191,4189.358887,4194.358887,4205.512695,4195.384766,4215.384766,4216.025879,4221.794922,4179.230957,4208.333496,4167.179688,4179.102539,4193.077148,3082.000000,4.000000,95.000000,,,,0.000000,4.000000,4.000000,4.000000,4.000000,4.000000,4.000000,4.000000,4.000000,4.000000,4.000000,4.000000,4.000000,4.000000,4.000000,100.000000,,,,,,,,,,,,,,,,
1645707429.585225,223.000000,0.000000,4211.153809,4212.692383,4193.717773,4188.077148,4207.563965,4197.820313,4217.051270,4218.333496,4223.461426,4186.410156,4215.256348,4170.384766,4198.589844,4208.205078,3543.000000,4.000000,95.000000,,,,0.000000,4.000000,4.000000,4.000000,4.000000,4.000000,4.000000,4.000000,4.000000,4.000000,4.000000,4.000000,4.000000,4.000000,4.000000,100.000000,,,,,,,,,,,,,,,,
1645707429.589165,224.000000,0.000000,4222.179688,4218.974121,4200.000000,4183.589844,4211.794922,4199.743652,4217.179688,4220.384766,4224.487305,4194.743652,4220.384766,4175.769043,4214.615234,4220.512695,3386.000000,4.000000,95.000000,,,,0.000000,4.000000,4.000000,4.000000,4.000000,4.000000,4.000000,4.000000,4.000000,4.000000,4.000000,4.000000,4.000000,4.000000,4.000000,100.000000,,,,,,,,,,,,,,,,
1645707429.593105,225.000000,0.000000,4235.128418,4224.871582,4205.897461,4184.487305,4216.025879,4199.871582,4217.051270,4220.000000,4223.333496,4198.589844,4220.384766,4181.794922,4221.282227,4223.974121,3384.000000,4.000000,95.000000,,,,0.000000,4.000000,4.000000,4.000000,4.000000,4.000000,4.000000,4.000000,4.000000,4.000000,4.000000,4.000000,4.000000,4.000000,4.000000,100.000000,,,,,,,,,,,,,,,,
1645707429.597045,226.000000,0.000000,4245.512695,4228.974121,4209.230957,4191.538574,4219.230957,4199.358887,4217.692383,4217.179688,4220.641113,4196.794922,4216.410156,4185.769043,4219.743652,4220.384766,3082.000000,4.000000,95.000000,,,,0.000000,4.000000,4.000000,4.000000,4.000000,4.000000,4.000000,4.000000,4.000000,4.000000,4.000000,4.000000,4.000000,4.000000,4.000000,100.000000,,,,,,,,,,,,,,,,
1645707429.600985,227.000000,0.000000,4250.000000,4231.153809,4209.615234,4201.282227,4220.897461,4200.000000,4219.230957,4213.717773,4218.717773,4192.948730,4213.333496,4186.410156,4215.769043,4215.897461,3543.000000,4.000000,95.000000,,,,0.000000,4.000000,4.000000,4.000000,4.000000,4.000000,4.000000,4.000000,4.000000,4.000000,4.000000,4.000000,4.000000,4.000000,4.000000,100.000000,,,,,,,,,,,,,,,,
1645707429.604925,228.000000,0.000000,4247.436035,4230.769043,4208.717773,4208.461426,4220.256348,4202.948730,4220.769043,4212.563965,4219.358887,4190.641113,4214.743652,4184.487305,4214.102539,4214.358887,3386.000000,4.000000,95.000000,,,,0.000000,4.000000,4.000000,4.000000,4.000000,4.000000,4.000000,4.000000,4.000000,4.000000,4.000000,4.000000,4.000000,4.000000,4.000000,100.000000,,,,,,,,,,,,,,,,
1645707429.608865,229.000000,0.000000,4239.102539,4226.666504,4208.846191,4209.358887,4216.666504,4206.410156,4222.436035,4215.128418,4222.051270,4190.128418,4219.487305,4180.897461,4215.256348,4214.871582,3384.000000,4.000000,95.000000,,,,0.000000,4.000000,4.000000,4.000000,4.000000,4.000000,4.000000,4.000000,4.000000,4.000000,4.000000,4.000000,4.000000,4.000000,4.000000,100.000000,,,,,,,,,,,,,,,,
1645707429.612805,230.000000,0.000000,4228.461426,4219.615234,4210.384766,4204.743652,4211.153809,4207.692383,4223.846191,4220.000000,4224.743652,4190.000000,4223.077148,4176.794922,4216.410156,4213.846191,3082.000000,4.000000,95.000000,,,,0.000000,4.000000,4.000000,4.000000,4.000000,4.000000,4.000000,4.000000,4.000000,4.000000,4.000000,4.000000,4.000000,4.000000,4.000000,100.000000,,,,,,,,,,,,,,,,
1645707429.616746,231.000000,0.000000,4221.025879,4212.692383,4211.794922,4198.589844,4206.410156,4205.897461,4224.230957,4223.717773,4225.769043,4189.230957,4222.692383,4173.717773,4215.769043,4210.128418,3543.000000,4.000000,95.000000,,,,0.000000,4.000000,4.000000,4.000000,4.000000,4.000000,4.000000,4.000000,4.000000,4.000000,4.000000,4.000000,4.000000,4.000000,4.000000,100.000000,,,,,,,,,,,,,,,,
1645707429.620686,232.000000,0.000000,4220.512695,4209.615234,4211.794922,4194.487305,4204.871582,4202.307617,4222.436035,4223.846191,4225.256348,4188.974121,4219.615234,4173.333496,4213.974121,4207.051270,3386.000000,4.000000,95.000000,,,,0.000000,4.000000,4.000000,4.000000,4.000000,4.000000,4.000000,4.000000,4.000000,4.000000,4.000000,4.000000,4.000000,4.000000,4.000000,100.000000,,,,,,,,,,,,,,,,
1645707429.624626,233.000000,0.000000,4225.897461,4210.897461,4210.256348,4193.077148,4206.282227,4199.102539,4218.974121,4220.512695,4224.230957,4189.615234,4216.666504,4176.410156,4213.077148,4209.358887,3384.000000,4.000000,95.000000,,,,0.000000,4.000000,4.000000,4.000000,4.000000,4.000000,4.000000,4.000000,4.000000,4.000000,4.000000,4.000000,4.000000,4.000000,4.000000,100.000000,,,,,,,,,,,,,,,,
1645707429.628566,234.000000,0.000000,4231.538574,4213.846191,4208.846191,4192.179688,4207.307617,4197.179688,4216.410156,4216.794922,4223.077148,4190.128418,4215.128418,4181.666504,4213.717773,4217.436035,3082.000000,4.000000,95.000000,,,,0.000000,4.000000,4.000000,4.000000,4.000000,4.000000,4.000000,4.000000,4.000000,4.000000,4.000000,4.000000,4.000000,4.000000,4.000000,100.000000,,,,,,,,,,,,,,,,
1645707429.632506,235.000000,0.000000,4232.307617,4214.102539,4208.589844,4189.102539,4206.025879,4196.410156,4216.282227,4215.256348,4221.538574,4189.102539,4213.333496,4186.410156,4215.256348,4226.153809,3543.000000,4.000000,95.000000,,,,0.000000,4.000000,4.000000,4.000000,4.000000,4.000000,4.000000,4.000000,4.000000,4.000000,4.000000,4.000000,4.000000,4.000000,4.000000,100.000000,,,,,,,,,,,,,,,,
1645707429.636446,236.000000,0.000000,4228.077148,4210.512695,4208.846191,4183.077148,4203.205078,4196.922852,4217.948730,4215.769043,4219.871582,4187.051270,4210.384766,4188.589844,4216.538574,4228.717773,3386.000000,4.000000,95.000000,,,,0.000000,4.000000,4.000000,4.000000,4.000000,4.000000,4.000000,4.000000,4.000000,4.000000,4.000000,4.000000,4.000000,4.000000,4.000000,100.000000,,,,,,,,,,,,,,,,
1645707429.640386,237.000000,0.000000,4223.205078,4205.384766,4208.589844,4176.794922,4201.282227,4198.589844,4218.846191,4216.666504,4219.230957,4186.025879,4207.307617,4188.589844,4217.820313,4222.692383,3384.000000,4.000000,95.000000,,,,0.000000,4.000000,4.000000,4.000000,4.000000,4.000000,4.000000,4.000000,4.000000,4.000000,4.000000,4.000000,4.000000,4.000000,4.000000,100.000000,,,,,,,,,,,,,,,,
1645707429.644226,238.000000,0.000000,4222.820313,4202.820313,4207.948730,4174.487305,4202.051270,4201.410156,4217.563965,4216.794922,4220.641113,4187.820313,4206.922852,4188.846191,4219.358887,4212.563965,3082.000000,4.000000,95.000000,,,,0.000000,4.000000,4.000000,4.000000,4.000000,4.000000,4.000000,4.000000,4.000000,4.000000,4.000000,4.000000,4.000000,4.000000,4.000000,100.000000,,,,,,,,,,,,,,,,
1645707429.648166,239.000000,0.000000,4227.948730,4205.000000,4208.846191,4178.205078,4205.256348,4203.846191,4215.641113,4217.820313,4224.102539,4191.794922,4210.256348,4191.153809,4220.641113,4206.538574,3543.000000,4.000000,95.000000,,,,0.000000,4.000000,4.000000,4.000000,4.000000,4.000000,4.000000,4.000000,4.000000,4.000000,4.000000,4.000000,4.000000,4.000000,4.000000,100.000000,,,,,,,,,,,,,,,,
1645707429.652107,240.000000,0.000000,4234.871582,4210.512695,4212.436035,4185.897461,4209.487305,4204.743652,4215.897461,4221.666504,4227.563965,4196.025879,4216.282227,4195.512695,4220.512695,4210.000000,3386.000000,4.000000,95.000000,,,,0.000000,4.000000,4.000000,4.000000,4.000000,4.000000,4.000000,4.000000,4.000000,4.000000,4.000000,4.000000,4.000000,4.000000,4.000000,100.000000,,,,,,,,,,,,,,,,
1645707429.656047,241.000000,0.000000,4238.974121,4216.025879,4217.563965,4193.717773,4213.333496,4204.102539,4218.461426,4227.692383,4229.487305,4198.461426,4222.307617,4200.897461,4219.615234,4221.666504,3384.000000,4.000000,95.000000,,,,0.000000,4.000000,4.000000,4.000000,4.000000,4.000000,4.000000,4.000000,4.000000,4.000000,4.000000,4.000000,4.000000,4.000000,4.000000,100.000000,,,,,,,,,,,,,,,,
1645707429.659987,242.000000,0.000000,4237.948730,4219.230957,4221.153809,4198.717773,4216.538574,4203.205078,4220.897461,4232.820313,4228.846191,4198.077148,4226.282227,4205.000000,4219.615234,4234.230957,3082.000000,4.000000,95.000000,,,,0.000000,4.000000,4.000000,4.000000,4.000000,4.000000,4.000000,4.000000,4.000000,4.000000,4.000000,4.000000,4.000000,4.000000,4.000000,100.000000,,,,,,,,,,,,,,,,
1645707429.663927,243.000000,0.000000,4233.589844,4220.000000,4220.769043,4200.384766,4218.589844,4202.179688,4220.000000,4233.589844,4226.538574,4195.128418,4226.282227,4204.358887,4220.897461,4239.487305,3543.000000,4.000000,95.000000,,,,0.000000,4.000000,4.000000,4.000000,4.000000,4.000000,4.000000,4.000000,4.000000,4.000000,4.000000,4.000000,4.000000,4.000000,4.000000,100.000000,,,,,,,,,,,,,,,,
1645707429.667867,244.000000,0.000000,4229.358887,4219.102539,4216.538574,4199.102539,4218.333496,4200.512695,4216.410156,4229.743652,4224.230957,4190.384766,4222.307617,4197.179688,4221.922852,4234.230957,3386.000000,4.000000,95.000000,,,,0.000000,4.000000,4.000000,4.000000,4.000000,4.000000,4.000000,4.000000,4.000000,4.000000,4.000000,4.000000,4.000000,4.000000,4.000000,100.000000,,,,,,,,,,,,,,,,
1645707429.671807,245.000000,0.000000,4228.205078,4217.820313,4211.153809,4194.871582,4215.256348,4198.205078,4213.077148,4224.102539,4223.205078,4185.769043,4216.025879,4185.128418,4220.512695,4221.922852,3384.000000,4.000000,95.000000,,,,0.000000,4.000000,4.000000,4.000000,4.000000,4.000000,4.000000,4.000000,4.000000,4.000000,4.000000,4.000000,4.000000,4.000000,4.000000,100.000000,,,,,,,,,,,,,,,,
1645707429.675747,246.000000,0.000000,4229.487305,4217.307617,4206.922852,4188.461426,4210.769043,4196.666504,4212.948730,4220.384766,4224.102539,4183.717773,4210.641113,4173.461426,4216.794922,4209.487305,3082.000000,4.000000,95.000000,,,,0.000000,4.000000,4.000000,4.000000,4.000000,4.000000,4.000000,4.000000,4.000000,4.000000,4.000000,4.000000,4.000000,4.000000,4.000000,100.000000,,,,,,,,,,,,,,,,
1645707429.679687,247.000000,0.000000,4230.384766,4217.436035,4205.000000,4183.205078,4207.820313,4197.820313,4215.512695,4220.256348,4226.282227,4185.256348,4208.974121,4167.948730,4213.846191,4201.922852,3543.000000,4.000000,95.000000,,,,0.000000,4.000000,4.000000,4.000000,4.000000,4.000000,4.000000,4.000000,4.000000,4.000000,4.000000,4.000000,4.000000,4.000000,4.000000,100.000000,,,,,,,,,,,,,,,,
1645707429.683627,248.000000,0.000000,4227.820313,4217.563965,4204.871582,4182.051270,4208.333496,4201.922852,4218.589844,4222.307617,4228.333496,4188.974121,4210.641113,4170.384766,4213.717773,4199.102539,3386.000000,4.000000,95.000000,,,,0.000000,4.000000,4.000000,4.000000,4.000000,4.000000,4.000000,4.000000,4.000000,4.000000,4.000000,4.000000,4.000000,4.000000,4.000000,100.000000,,,,,,,,,,,,,,,,
1645707429.687568,249.000000,0.000000,4221.153809,4216.282227,4205.897461,4184.487305,4211.153809,4206.282227,4220.384766,4224.230957,4228.205078,4191.666504,4211.922852,4178.461426,4215.769043,4197.179688,3384.000000,4.000000,95.000000,,,,0.000000,4.000000,4.000000,4.000000,4.000000,4.000000,4.000000,4.000000,4.000000,4.000000,4.000000,4.000000,4.000000,4.000000,4.000000,100.000000,,,,,,,,,,,,,,,,
1645707429.691508,250.000000,0.000000,4213.333496,4213.333496,4206.538574,4186.410156,4213.589844,4207.948730,4220.769043,4224.615234,4225.512695,4191.410156,4209.871582,4186.922852,4216.922852,4193.846191,3082.000000,4.000000,95.000000,,,,0.000000,4.000000,4.000000,4.000000,4.000000,4.000000,4.000000,4.000000,4.000000,4.000000,4.000000,4.000000,4.000000,4.000000,4.000000,100.000000,,,,,,,,,,,,,,,,
1645707429.695448,251.000000,0.000000,4209.487305,4209.743652,4205.769043,4184.358887,4213.717773,4206.410156,4220.128418,4223.077148,4222.051270,4189.615234,4205.000000,4191.282227,4215.641113,4191.025879,3543.000000,4.000000,95.000000,,,,0.000000,4.000000,4.000000,4.000000,4.000000,4.000000,4.000000,4.000000,4.000000,4.000000,4.000000,4.000000,4.000000,4.000000,4.000000,100.000000,,,,,,,,,,,,,,,,
1645707429.699388,252.000000,0.000000,4213.461426,4207.307617,4203.717773,4178.974121,4212.563965,4204.102539,4218.589844,4220.000000,4220.128418,4189.871582,4201.025879,4190.000000,4213.077148,4192.948730,3386.000000,4.000000,95.000000,,,,0.000000,4.000000,4.000000,4.000000,4.000000,4.000000,4.000000,4.000000,4.000000,4.000000,4.000000,4.000000,4.000000,4.000000,4.000000,100.000000,,,,,,,,,,,,,,,,
1645707429.703328,253.000000,0.000000,4222.948730,4207.436035,4201.794922,4174.743652,4212.436035,4203.333496,4216.153809,4216.794922,4220.769043,4193.333496,4201.025879,4185.000000,4212.051270,4201.025879,3384.000000,4.000000,95.000000,,,,0.000000,4.000000,4.000000,4.000000,4.000000,4.000000,4.000000,4.000000,4.000000,4.000000,4.000000,4.000000,4.000000,4.000000,4.000000,100.000000,,,,,,,,,,,,,,,,
1645707429.707268,254.000000,0.000000,4231.410156,4209.743652,4202.051270,4176.153809,4214.487305,4203.974121,4214.358887,4215.128418,4223.589844,4197.307617,4204.487305,4180.897461,4214.358887,4210.641113,3082.000000,4.000000,95.000000,,,,0.000000,4.000000,4.000000,4.000000,4.000000,4.000000,4.000000,4.000000,4.000000,4.000000,4.000000,4.000000,4.000000,4.000000,4.000000,100.000000,,,,,,,,,,,,,,,,
1645707429.711208,255.000000,0.000000,4232.179688,4213.077148,4204.487305,4182.563965,4217.307617,4204.615234,4214.871582,4215.641113,4226.410156,4196.794922,4208.205078,4180.897461,4218.846191,4214.487305,115.000000,4.000000,95.000000,,,,0.000000,4.000000,4.000000,4.000000,4.000000,4.000000,4.000000,4.000000,4.000000,4.000000,4.000000,4.000000,4.000000,4.000000,4.000000,100.000000,,,,,,,,,,,,,,,,
1645707429.715048,0.000000,0.000000,4224.102539,4216.025879,4206.922852,4188.974121,4218.333496,4204.358887,4217.307617,4216.666504,4227.307617,4189.743652,4208.974121,4184.358887,4222.692383,4209.230957,3203.000000,4.000000,95.000000,,,,0.000000,4.000000,4.000000,4.000000,4.000000,4.000000,4.000000,4.000000,4.000000,4.000000,4.000000,4.000000,4.000000,4.000000,4.000000,100.000000,,,,,,,,,,,,,,,,
1645707429.718988,1.000000,0.000000,4212.948730,4217.179688,4206.922852,4189.871582,4216.794922,4203.461426,4219.102539,4215.897461,4225.897461,4180.256348,4206.666504,4186.794922,4223.717773,4198.717773,3330.000000,4.000000,95.000000,,,,0.000000,4.000000,4.000000,4.000000,4.000000,4.000000,4.000000,4.000000,4.000000,4.000000,4.000000,4.000000,4.000000,4.000000,4.000000,100.000000,,,,,,,,,,,,,,,,
1645707429.722929,2.000000,0.000000,4206.538574,4216.153809,4203.717773,4184.615234,4213.461426,4202.563965,4217.948730,4211.922852,4222.820313,4174.230957,4202.307617,4183.077148,4221.538574,4191.410156,3511.000000,4.000000,95.000000,,,,0.000000,4.000000,4.000000,4.000000,4.000000,4.000000,4.000000,4.000000,4.000000,4.000000,4.000000,4.000000,4.000000,4.000000,4.000000,100.000000,,,,,,,,,,,,,,,,
1645707429.726869,3.000000,0.000000,4208.589844,4212.820313,4199.230957,4176.410156,4209.358887,4201.153809,4214.615234,4207.307617,4220.000000,4175.000000,4197.307617,4172.307617,4217.051270,4192.820313,3531.000000,4.000000,95.000000,,,,0.000000,4.000000,4.000000,4.000000,4.000000,4.000000,4.000000,4.000000,4.000000,4.000000,4.000000,4.000000,4.000000,4.000000,4.000000,100.000000,,,,,,,,,,,,,,,,
1645707429.730809,4.000000,0.000000,4217.051270,4208.077148,4196.410156,4169.871582,4205.256348,4198.846191,4211.922852,4206.153809,4218.974121,4180.641113,4192.948730,4159.743652,4212.563965,4202.051270,3359.000000,4.000000,95.000000,,,,0.000000,4.000000,4.000000,4.000000,4.000000,4.000000,4.000000,4.000000,4.000000,4.000000,4.000000,4.000000,4.000000,4.000000,4.000000,100.000000,,,,,,,,,,,,,,,,
1645707429.734749,5.000000,0.000000,4226.153809,4203.717773,4197.051270,4168.589844,4202.307617,4196.410156,4212.179688,4210.769043,4220.128418,4186.282227,4191.666504,4153.461426,4210.641113,4212.820313,3550.000000,4.000000,95.000000,,,,0.000000,4.000000,4.000000,4.000000,4.000000,4.000000,4.000000,4.000000,4.000000,4.000000,4.000000,4.000000,4.000000,4.000000,4.000000,100.000000,,,,,,,,,,,,,,,,
1645707429.738689,6.000000,0.000000,4230.512695,4201.794922,4200.641113,4172.692383,4201.794922,4195.256348,4214.743652,4219.230957,4223.205078,4189.102539,4195.384766,4158.333496,4212.820313,4219.358887,2801.000000,4.000000,95.000000,,,,0.000000,4.000000,4.000000,4.000000,4.000000,4.000000,4.000000,4.000000,4.000000,4.000000,4.000000,4.000000,4.000000,4.000000,4.000000,100.000000,,,,,,,,,,,,,,,,
1645707429.742629,7.000000,0.000000,4227.820313,4201.538574,4205.000000,4179.743652,4203.846191,4195.641113,4217.179688,4226.538574,4225.897461,4189.358887,4202.563965,4171.794922,4217.051270,4219.487305,2621.000000,4.000000,95.000000,,,,0.000000,4.000000,4.000000,4.000000,4.000000,4.000000,4.000000,4.000000,4.000000,4.000000,4.000000,4.000000,4.000000,4.000000,4.000000,100.000000,,,,,,,,,,,,,,,,
1645707429.746569,8.000000,0.000000,4219.743652,4201.282227,4207.179688,4185.512695,4206.666504,4196.153809,4217.820313,4228.077148,4225.641113,4188.205078,4208.589844,4185.641113,4219.487305,4214.743652,1374.000000,4.000000,95.000000,,,,0.000000,4.000000,4.000000,4.000000,4.000000,4.000000,4.000000,4.000000,4.000000,4.000000,4.000000,4.000000,4.000000,4.000000,4.000000,100.000000,,,,,,,,,,,,,,,,
1645707429.750509,9.000000,0.000000,4211.025879,4199.871582,4205.769043,4187.692383,4208.333496,4195.256348,4217.179688,4223.461426,4221.410156,4186.282227,4208.974121,4191.666504,4217.051270,4207.692383,3148.000000,4.000000,95.000000,,,,0.000000,4.000000,4.000000,4.000000,4.000000,4.000000,4.000000,4.000000,4.000000,4.000000,4.000000,4.000000,4.000000,4.000000,4.000000,100.000000,,,,,,,,,,,,,,,,
1645707429.754449,10.000000,0.000000,4207.307617,4199.743652,4201.153809,4187.563965,4208.461426,4193.205078,4216.794922,4215.769043,4215.512695,4183.461426,4203.589844,4187.820313,4210.769043,4201.538574,2963.000000,4.000000,95.000000,,,,0.000000,4.000000,4.000000,4.000000,4.000000,4.000000,4.000000,4.000000,4.000000,4.000000,4.000000,4.000000,4.000000,4.000000,4.000000,100.000000,,,,,,,,,,,,,,,,
1645707429.758390,11.000000,0.000000,4211.794922,4203.717773,4196.025879,4187.692383,4209.230957,4192.051270,4217.051270,4210.000000,4211.794922,4181.538574,4196.922852,4178.077148,4203.589844,4197.692383,3479.000000,4.000000,95.000000,,,,0.000000,4.000000,4.000000,4.000000,4.000000,4.000000,4.000000,4.000000,4.000000,4.000000,4.000000,4.000000,4.000000,4.000000,4.000000,100.000000,,,,,,,,,,,,,,,,
1645707429.762330,12.000000,0.000000,4221.794922,4212.179688,4193.205078,4188.717773,4212.051270,4193.333496,4217.692383,4209.743652,4212.563965,4182.436035,4194.615234,4169.615234,4198.077148,4196.666504,3382.000000,4.000000,95.000000,,,,0.000000,4.000000,4.000000,4.000000,4.000000,4.000000,4.000000,4.000000,4.000000,4.000000,4.000000,4.000000,4.000000,4.000000,4.000000,100.000000,1.000000,75.000000,4.000000,4.000000,4.000000,4.000000,4.000000,4.000000,4.000000,4.000000,1.000000,4.000000,4.000000,4.000000,4.000000,4.000000
1645707429.766270,13.000000,0.000000,4231.153809,4220.641113,4194.615234,4190.000000,4216.025879,4196.666504,4218.461426,4216.025879,4217.692383,4186.538574,4198.717773,4168.077148,4194.230957,4198.077148,3419.000000,4.000000,95.000000,,,,0.000000,4.000000,4.000000,4.000000,4.000000,4.000000,4.000000,4.000000,4.000000,4.000000,4.000000,4.000000,4.000000,4.000000,4.000000,100.000000,,,,,,,,,,,,,,,,
1645707429.770210,14.000000,0.000000,4234.615234,4224.102539,4199.871582,4190.641113,4218.717773,4199.871582,4220.128418,4226.282227,4224.615234,4192.051270,4206.538574,4173.717773,4191.282227,4202.436035,2963.000000,4.000000,95.000000,,,,0.000000,4.000000,4.000000,4.000000,4.000000,4.000000,4.000000,4.000000,4.000000,4.000000,4.000000,4.000000,4.000000,4.000000,4.000000,100.000000,,,,,,,,,,,,,,,,
1645707429.774150,15.000000,0.000000,4232.692383,4221.410156,4206.538574,4191.282227,4219.487305,4201.538574,4222.948730,4235.897461,4230.769043,4197.179688,4213.333496,4182.820313,4190.512695,4210.769043,3479.000000,4.000000,95.000000,,,,0.000000,4.000000,4.000000,4.000000,4.000000,4.000000,4.000000,4.000000,4.000000,4.000000,4.000000,4.000000,4.000000,4.000000,4.000000,100.000000,,,,,,,,,,,,,,,,
1645707429.778090,16.000000,0.000000,4230.000000,4215.384766,4211.153809,4192.307617,4220.128418,4202.436035,4225.897461,4240.512695,4234.743652,4202.051270,4216.922852,4190.256348,4194.358887,4222.307617,3382.000000,4.000000,95.000000,,,,0.000000,4.000000,4.000000,4.000000,4.000000,4.000000,4.000000,4.000000,4.000000,4.000000,4.000000,4.000000,4.000000,4.000000,4.000000,100.000000,,,,,,,,,,,,,,,,
1645707429.781930,17.000000,0.000000,4229.615234,4210.641113,4211.666504,4192.692383,4222.436035,4203.589844,4226.794922,4238.846191,4236.025879,4206.794922,4218.077148,4192.051270,4202.948730,4232.436035,3419.000000,4.000000,95.000000,,,,0.000000,4.000000,4.000000,4.000000,4.000000,4.000000,4.000000,4.000000,4.000000,4.000000,4.000000,4.000000,4.000000,4.000000,4.000000,100.000000,,,,,,,,,,,,,,,,
1645707429.785870,18.000000,0.000000,4229.615234,4209.230957,4209.615234,4190.769043,4224.743652,4204.743652,4225.512695,4233.589844,4234.743652,4209.358887,4217.948730,4187.436035,4213.077148,4234.615234,2963.000000,4.000000,95.000000,,,,0.000000,4.000000,4.000000,4.000000,4.000000,4.000000,4.000000,4.000000,4.000000,4.000000,4.000000,4.000000,4.000000,4.000000,4.000000,100.000000,,,,,,,,,,,,,,,,
1645707429.789810,19.000000,0.000000,4225.897461,4210.000000,4207.436035,4187.179688,4223.589844,4204.487305,4223.333496,4228.974121,4231.538574,4206.922852,4216.153809,4178.077148,4218.974121,4225.384766,3479.000000,4.000000,95.000000,,,,0.000000,4.000000,4.000000,4.000000,4.000000,4.000000,4.000000,4.000000,4.000000,4.000000,4.000000,4.000000,4.000000,4.000000,4.000000,100.000000,,,,,,,,,,,,,,,,
1645707429.793751,20.000000,0.000000,4216.922852,4211.025879,4206.666504,4185.000000,4217.820313,4202.436035,4222.051270,4227.436035,4228.077148,4199.615234,4212.307617,4168.974121,4217.307617,4208.077148,3382.000000,4.000000,95.000000,,,,0.000000,4.000000,4.000000,4.000000,4.000000,4.000000,4.000000,4.000000,4.000000,4.000000,4.000000,4.000000,4.000000,4.000000,4.000000,100.000000,,,,,,,,,,,,,,,,
1645707429.797691,21.000000,0.000000,4206.153809,4211.922852,4207.051270,4187.307617,4210.641113,4199.871582,4221.922852,4227.948730,4226.410156,4191.794922,4207.820313,4165.000000,4210.641113,4191.538574,3419.000000,4.000000,95.000000,,,,0.000000,4.000000,4.000000,4.000000,4.000000,4.000000,4.000000,4.000000,4.000000,4.000000,4.000000,4.000000,4.000000,4.000000,4.000000,100.000000,,,,,,,,,,,,,,,,
1645707429.801631,22.000000,0.000000,4199.230957,4212.563965,4207.948730,4193.974121,4207.051270,4198.589844,4221.922852,4228.589844,4227.307617,4188.589844,4205.769043,4168.461426,4204.743652,4184.230957,2963.000000,4.000000,95.000000,,,,0.000000,4.000000,4.000000,4.000000,4.000000,4.000000,4.000000,4.000000,4.000000,4.000000,4.000000,4.000000,4.000000,4.000000,4.000000,100.000000,,,,,,,,,,,,,,,,
1645707429.805571,23.000000,0.000000,4199.358887,4211.666504,4209.615234,4200.000000,4208.846191,4199.743652,4221.410156,4228.333496,4228.461426,4190.641113,4207.307617,4177.051270,4204.230957,4188.205078,3479.000000,4.000000,95.000000,,,,0.000000,4.000000,4.000000,4.000000,4.000000,4.000000,4.000000,4.000000,4.000000,4.000000,4.000000,4.000000,4.000000,4.000000,4.000000,100.000000,,,,,,,,,,,,,,,,
1645707429.809511,24.000000,0.000000,4205.256348,4208.333496,4212.179688,4200.256348,4213.589844,4202.436035,4221.025879,4227.307617,4225.769043,4193.974121,4210.000000,4185.128418,4208.333496,4198.589844,3382.000000,4.000000,95.000000,,,,0.000000,4.000000,4.000000,4.000000,4.000000,4.000000,4.000000,4.000000,4.000000,4.000000,4.000000,4.000000,4.000000,4.000000,4.000000,100.000000,,,,,,,,,,,,,,,,
1645707429.813451,25.000000,0.000000,4212.948730,4204.230957,4214.743652,4193.974121,4217.563965,4205.512695,4221.410156,4225.897461,4216.666504,4194.487305,4210.512695,4187.307617,4213.461426,4207.436035,3419.000000,4.000000,95.000000,,,,0.000000,4.000000,4.000000,4.000000,4.000000,4.000000,4.000000,4.000000,4.000000,4.000000,4.000000,4.000000,4.000000,4.000000,4.000000,100.000000,,,,,,,,,,,,,,,,
1645707429.817391,26.000000,0.000000,4218.974121,4202.820313,4216.153809,4185.897461,4218.846191,4207.563965,4222.051270,4223.717773,4202.051270,4191.922852,4207.179688,4182.436035,4215.641113,4209.743652,2963.000000,4.000000,95.000000,,,,0.000000,4.000000,4.000000,4.000000,4.000000,4.000000,4.000000,4.000000,4.000000,4.000000,4.000000,4.000000,4.000000,4.000000,4.000000,100.000000,,,,,,,,,,,,,,,,
1645707429.821331,27.000000,0.000000,4223.077148,4205.641113,4216.153809,4181.410156,4217.948730,4208.333496,4222.179688,4221.025879,4186.538574,4189.358887,4201.538574,4173.974121,4213.205078,4205.128418,3479.000000,4.000000,95.000000,,,,0.000000,4.000000,4.000000,4.000000,4.000000,4.000000,4.000000,4.000000,4.000000,4.000000,4.000000,4.000000,4.000000,4.000000,4.000000,100.000000,,,,,,,,,,,,,,,,
1645707429.825271,28.000000,0.000000,4226.153809,4210.256348,4215.769043,4182.820313,4216.153809,4207.692383,4222.051270,4218.717773,4175.256348,4188.333496,4196.410156,4167.307617,4207.692383,4197.179688,3382.000000,4.000000,95.000000,,,,0.000000,4.000000,4.000000,4.000000,4.000000,4.000000,4.000000,4.000000,4.000000,4.000000,4.000000,4.000000,4.000000,4.000000,4.000000,100.000000,,,,,,,,,,,,,,,,
1645707429.829212,29.000000,0.000000,4228.461426,4212.948730,4216.410156,4187.948730,4214.743652,4206.025879,4222.820313,4218.077148,4171.153809,4187.692383,4193.974121,4165.769043,4202.179688,4190.384766,3419.000000,4.000000,95.000000,,,,0.000000,4.000000,4.000000,4.000000,4.000000,4.000000,4.000000,4.000000,4.000000,4.000000,4.000000,4.000000,4.000000,4.000000,4.000000,100.000000,,,,,,,,,,,,,,,,
1645707429.833152,30.000000,0.000000,4229.871582,4212.692383,4218.461426,4193.077148,4215.000000,4204.487305,4225.128418,4218.974121,4173.589844,4185.897461,4194.871582,4168.077148,4199.871582,4189.230957,2963.000000,4.000000,95.000000,,,,0.000000,4.000000,4.000000,4.000000,4.000000,4.000000,4.000000,4.000000,4.000000,4.000000,4.000000,4.000000,4.000000,4.000000,4.000000,100.000000,,,,,,,,,,,,,,,,
1645707429.837092,31.000000,0.000000,4230.769043,4211.794922,4221.410156,4196.922852,4218.333496,4204.487305,4227.692383,4220.256348,4178.846191,4183.461426,4198.333496,4170.641113,4202.948730,4195.769043,3479.000000,4.000000,95.000000,,,,0.000000,4.000000,4.000000,4.000000,4.000000,4.000000,4.000000,4.000000,4.000000,4.000000,4.000000,4.000000,4.000000,4.000000,4.000000,100.000000,,,,,,,,,,,,,,,,
1645707429.841032,32.000000,0.000000,4232.051270,4213.461426,4224.102539,4200.512695,4223.974121,4206.666504,4227.820313,4220.769043,4183.461426,4183.077148,4202.948730,4171.025879,4210.897461,4207.563965,0.000000,4.000000,95.000000,,,,0.000000,4.000000,4.000000,4.000000,4.000000,4.000000,4.000000,4.000000,4.000000,4.000000,4.000000,4.000000,4.000000,4.000000,4.000000,100.000000,,,,,,,,,,,,,,,,
1645707429.844972,33.000000,0.000000,4234.615234,4218.205078,4226.794922,4205.384766,4229.358887,4209.358887,4225.000000,4220.256348,4185.769043,4185.897461,4207.307617,4170.641113,4220.384766,4219.230957,0.000000,4.000000,95.000000,,,,0.000000,4.000000,4.000000,4.000000,4.000000,4.000000,4.000000,4.000000,4.000000,4.000000,4.000000,4.000000,4.000000,4.000000,4.000000,100.000000,,,,,,,,,,,,,,,,
1645707429.848912,34.000000,0.000000,4237.563965,4223.589844,4230.128418,4211.153809,4231.025879,4209.871582,4220.512695,4219.358887,4186.153809,4190.897461,4211.282227,4171.922852,4227.820313,4224.743652,0.000000,4.000000,95.000000,,,,0.000000,4.000000,4.000000,4.000000,4.000000,4.000000,4.000000,4.000000,4.000000,4.000000,4.000000,4.000000,4.000000,4.000000,4.000000,100.000000,,,,,,,,,,,,,,,,
1645707429.852852,35.000000,0.000000,4239.487305,4226.153809,4233.974121,4215.384766,4227.820313,4207.307617,4216.666504,4218.974121,4186.025879,4196.025879,4215.641113,4175.641113,4231.666504,4223.205078,0.000000,4.000000,95.000000,,,,0.000000,4.000000,4.000000,4.000000,4.000000,4.000000,4.000000,4.000000,4.000000,4.000000,4.000000,4.000000,4.000000,4.000000,4.000000,100.000000,,,,,,,,,,,,,,,,
1645707429.856692,36.000000,0.000000,4239.230957,4225.641113,4236.538574,4216.666504,4222.307617,4202.692383,4213.846191,4219.487305,4186.538574,4200.256348,4221.153809,4179.871582,4233.205078,4218.077148,0.000000,4.000000,95.000000,,,,0.000000,4.000000,4.000000,4.000000,4.000000,4.000000,4.000000,4.000000,4.000000,4.000000,4.000000,4.000000,4.000000,4.000000,4.000000,100.000000,,,,,,,,,,,,,,,,
1645707429.860632,37.000000,0.000000,4237.179688,4224.230957,4236.538574,4216.025879,4217.820313,4198.589844,4210.897461,4220.512695,4187.563965,4203.461426,4227.820313,4182.307617,4235.128418,4215.256348,0.000000,4.000000,95.000000,,,,0.000000,4.000000,4.000000,4.000000,4.000000,4.000000,4.000000,4.000000,4.000000,4.000000,4.000000,4.000000,4.000000,4.000000,4.000000,100.000000,,,,,,,,,,,,,,,,
1645707429.864573,38.000000,0.000000,4234.743652,4224.615234,4234.743652,4215.769043,4216.025879,4196.666504,4207.820313,4221.666504,4187.948730,4205.128418,4233.205078,4182.179688,4238.333496,4217.307617,0.000000,4.000000,95.000000,,,,0.000000,4.000000,4.000000,4.000000,4.000000,4.000000,4.000000,4.000000,4.000000,4.000000,4.000000,4.000000,4.000000,4.000000,4.000000,100.000000,,,,,,,,,,,,,,,,
1645707429.868513,39.000000,0.000000,4233.461426,4226.922852,4233.461426,4216.538574,4216.153809,4197.307617,4206.025879,4223.205078,4186.794922,4204.743652,4234.743652,4181.153809,4241.025879,4222.179688,0.000000,4.000000,95.000000,,,,0.000000,4.000000,4.000000,4.000000,4.000000,4.000000,4.000000,4.000000,4.000000,4.000000,4.000000,4.000000,4.000000,4.000000,4.000000,100.000000,,,,,,,,,,,,,,,,
1645707429.872453,40.000000,0.000000,4234.230957,4229.230957,4234.102539,4216.794922,4217.307617,4199.743652,4207.307617,4224.871582,4184.743652,4203.333496,4231.922852,4180.512695,4240.512695,4225.512695,0.000000,4.000000,95.000000,,,,0.000000,4.000000,4.000000,4.000000,4.000000,4.000000,4.000000,4.000000,4.000000,4.000000,4.000000,4.000000,4.000000,4.000000,4.000000,100.000000,,,,,,,,,,,,,,,,
1645707429.876393,41.000000,0.000000,4237.436035,4228.974121,4235.769043,4214.487305,4219.230957,4203.077148,4211.153809,4225.512695,4183.589844,4202.563965,4227.436035,4179.871582,4236.025879,4224.743652,0.000000,4.000000,95.000000,,,,0.000000,4.000000,4.000000,4.000000,4.000000,4.000000,4.000000,4.000000,4.000000,4.000000,4.000000,4.000000,4.000000,4.000000,4.000000,100.000000,,,,,,,,,,,,,,,,
1645707429.880333,42.000000,0.000000,4242.179688,4225.256348,4236.282227,4209.102539,4222.436035,4206.794922,4215.256348,4224.358887,4184.487305,4202.948730,4223.717773,4177.820313,4229.871582,4220.384766,0.000000,4.000000,95.000000,,,,0.000000,4.000000,4.000000,4.000000,4.000000,4.000000,4.000000,4.000000,4.000000,4.000000,4.000000,4.000000,4.000000,4.000000,4.000000,100.000000,,,,,,,,,,,,,,,,
1645707429.884273,43.000000,0.000000,4246.282227,4218.974121,4234.615234,4202.563965,4225.769043,4209.743652,4217.820313,4221.794922,4186.794922,4203.461426,4220.897461,4174.743652,4224.487305,4214.871582,0.000000,4.000000,95.000000,,,,0.000000,4.000000,4.000000,4.000000,4.000000,4.000000,4.000000,4.000000,4.000000,4.000000,4.000000,4.000000,4.000000,4.000000,4.000000,100.000000,,,,,,,,,,,,,,,,
1645707429.888213,44.000000,0.000000,4246.794922,4212.436035,4231.153809,4198.461426,4226.922852,4210.384766,4218.717773,4219.743652,4188.589844,4202.051270,4217.563965,4173.077148,4220.641113,4210.128418,0.000000,4.000000,95.000000,,,,0.000000,4.000000,4.000000,4.000000,4.000000,4.000000,4.000000,4.000000,4.000000,4.000000,4.000000,4.000000,4.000000,4.000000,4.000000,100.000000,,,,,,,,,,,,,,,,
1645707429.892153,45.000000,0.000000,4242.307617,4207.948730,4227.051270,4198.717773,4225.128418,4208.589844,4219.230957,4220.000000,4189.102539,4198.589844,4213.333496,4174.743652,4217.692383,4206.794922,0.000000,4.000000,95.000000,,,,0.000000,4.000000,4.000000,4.000000,4.000000,4.000000,4.000000,4.000000,4.000000,4.000000,4.000000,4.000000,4.000000,4.000000,4.000000,100.000000,,,,,,,,,,,,,,,,
1645707429.896093,46.000000,0.000000,4235.000000,4206.794922,4223.333496,4202.307617,4222.051270,4205.641113,4219.871582,4222.307617,4188.461426,4194.487305,4210.512695,4179.102539,4215.512695,4205.512695,0.000000,4.000000,95.000000,,,,0.000000,4.000000,4.000000,4.000000,4.000000,4.000000,4.000000,4.000000,4.000000,4.000000,4.000000,4.000000,4.000000,4.000000,4.000000,100.000000,,,,,,,,,,,,,,,,
1645707429.900034,47.000000,0.000000,4228.589844,4208.205078,4220.384766,4206.282227,4220.512695,4203.461426,4220.000000,4225.000000,4187.563965,4191.538574,4211.153809,4183.974121,4214.871582,4206.922852,0.000000,4.000000,95.000000,,,,0.000000,4.000000,4.000000,4.000000,4.000000,4.000000,4.000000,4.000000,4.000000,4.000000,4.000000,4.000000,4.000000,4.000000,4.000000,100.000000,,,,,,,,,,,,,,,,
1645707429.903974,48.000000,0.000000,4225.897461,4210.256348,4218.589844,4208.077148,4221.410156,4203.461426,4219.230957,4226.025879,4187.051270,4189.743652,4214.358887,4187.436035,4216.538574,4210.512695,0.000000,4.000000,95.000000,,,,0.000000,4.000000,4.000000,4.000000,4.000000,4.000000,4.000000,4.000000,4.000000,4.000000,4.000000,4.000000,4.000000,4.000000,4.000000,100.000000,,,,,,,,,,,,,,,,
1645707429.907914,49.000000,0.000000,4226.922852,4210.769043,4218.333496,4206.538574,4223.205078,4204.871582,4218.077148,4225.128418,4186.794922,4188.205078,4217.436035,4188.589844,4219.102539,4214.615234,0.000000,4.000000,95.000000,,,,0.000000,4.000000,4.000000,4.000000,4.000000,4.000000,4.000000,4.000000,4.000000,4.000000,4.000000,4.000000,4.000000,4.000000,4.000000,100.000000,,,,,,,,,,,,,,,,
1645707429.911854,50.000000,0.000000,4229.743652,4210.256348,4220.000000,4203.461426,4222.692383,4206.153809,4217.948730,4223.333496,4186.025879,4186.666504,4218.205078,4187.563965,4220.641113,4217.563965,0.000000,4.000000,95.000000,,,,0.000000,4.000000,4.000000,4.000000,4.000000,4.000000,4.000000,4.000000,4.000000,4.000000,4.000000,4.000000,4.000000,4.000000,4.000000,100.000000,,,,,,,,,,,,,,,,
1645707429.915794,51.000000,0.000000,4232.436035,4210.897461,4223.205078,4202.051270,4219.487305,4206.538574,4219.230957,4222.307617,4185.128418,4186.666504,4217.307617,4185.000000,4220.384766,4218.461426,0.000000,4.000000,95.000000,,,,0.000000,4.000000,4.000000,4.000000,4.000000,4.000000,4.000000,4.000000,4.000000,4.000000,4.000000,4.000000,4.000000,4.000000,4.000000,100.000000,,,,,,,,,,,,,,,,
1645707429.919734,52.000000,0.000000,4234.487305,4214.871582,4226.153809,4205.000000,4215.897461,4206.666504,4220.897461,4222.436035,4185.384766,4189.230957,4216.538574,4181.794922,4220.256348,4217.563965,0.000000,4.000000,95.000000,,,,0.000000,4.000000,4.000000,4.000000,4.000000,4.000000,4.000000,4.000000,4.000000,4.000000,4.000000,4.000000,4.000000,4.000000,4.000000,100.000000,,,,,,,,,,,,,,,,
1645707429.923674,53.000000,0.000000,4235.769043,4220.897461,4227.692383,4210.769043,4214.743652,4207.563965,4222.051270,4223.717773,4187.179688,4193.077148,4217.179688,4179.102539,4222.179688,4215.000000,0.000000,4.000000,95.000000,,,,0.000000,4.000000,4.000000,4.000000,4.000000,4.000000,4.000000,4.000000,4.000000,4.000000,4.000000,4.000000,4.000000,4.000000,4.000000,100.000000,,,,,,,,,,,,,,,,
1645707429.927714,54.000000,0.000000,4234.743652,4224.743652,4227.179688,4215.128418,4216.153809,4208.205078,4222.436035,4225.384766,4189.743652,4194.358887,4218.846191,4177.820313,4224.615234,4211.410156,0.000000,4.000000,95.000000,,,,0.000000,4.000000,4.000000,4.000000,4.000000,4.000000,4.000000,4.000000,4.000000,4.000000,4.000000,4.000000,4.000000,4.000000,4.000000,100.000000,,,,,,,,,,,,,,,,
1645707429.931654,55.000000,0.000000,4229.743652,4222.307617,4225.256348,4213.974121,4217.563965,4206.922852,4222.051270,4226.538574,4191.153809,4190.769043,4219.871582,4178.205078,4225.000000,4207.820313,0.000000,4.000000,95.000000,,,,0.000000,4.000000,4.000000,4.000000,4.000000,4.000000,4.000000,4.000000,4.000000,4.000000,4.000000,4.000000,4.000000,4.000000,4.000000,100.000000,,,,,,,,,,,,,,,,
1645707429.935594,56.000000,0.000000,4220.641113,4214.230957,4222.692383,4207.436035,4216.794922,4203.333496,4220.384766,4225.897461,4190.000000,4183.589844,4219.615234,4180.256348,4221.922852,4205.769043,0.000000,4.000000,95.000000,,,,0.000000,4.000000,4.000000,4.000000,4.000000,4.000000,4.000000,4.000000,4.000000,4.000000,4.000000,4.000000,4.000000,4.000000,4.000000,100.000000,,,,,,,,,,,,,,,,
1645707429.939534,57.000000,0.000000,4211.410156,4205.256348,4220.384766,4199.487305,4214.487305,4198.974121,4216.666504,4223.077148,4187.563965,4178.077148,4218.333496,4183.333496,4217.563965,4206.794922,0.000000,4.000000,95.000000,,,,0.000000,4.000000,4.000000,4.000000,4.000000,4.000000,4.000000,4.000000,4.000000,4.000000,4.000000,4.000000,4.000000,4.000000,4.000000,100.000000,,,,,,,,,,,,,,,,
1645707429.943475,58.000000,0.000000,4207.179688,4201.282227,4219.615234,4195.000000,4212.820313,4196.153809,4211.666504,4219.230957,4186.538574,4179.102539,4216.538574,4186.153809,4215.128418,4210.256348,0.000000,4.000000,95.000000,,,,0.000000,4.000000,4.000000,4.000000,4.000000,4.000000,4.000000,4.000000,4.000000,4.000000,4.000000,4.000000,4.000000,4.000000,4.000000,100.000000,,,,,,,,,,,,,,,,
1645707429.947415,59.000000,0.000000,4211.025879,4204.102539,4221.025879,4195.641113,4212.948730,4195.512695,4208.589844,4217.692383,4188.846191,4187.179688,4214.358887,4187.307617,4215.769043,4212.692383,0.000000,4.000000,95.000000,,,,0.000000,4.000000,4.000000,4.000000,4.000000,4.000000,4.000000,4.000000,4.000000,4.000000,4.000000,4.000000,4.000000,4.000000,4.000000,100.000000,,,,,,,,,,,,,,,,
1645707429.951355,60.000000,0.000000,4221.666504,4210.769043,4224.230957,4199.743652,4213.974121,4196.410156,4209.615234,4220.769043,4193.589844,4198.333496,4212.820313,4186.922852,4216.666504,4209.871582,0.000000,4.000000,95.000000,,,,0.000000,4.000000,4.000000,4.000000,4.000000,4.000000,4.000000,4.000000,4.000000,4.000000,4.000000,4.000000,4.000000,4.000000,4.000000,100.000000,,,,,,,,,,,,,,,,
1645707429.955295,61.000000,0.000000,4234.358887,4216.410156,4227.436035,4204.102539,4214.871582,4197.948730,4214.230957,4227.563965,4198.077148,4207.820313,4214.358887,4186.922852,4214.871582,4200.512695,0.000000,4.000000,95.000000,,,,0.000000,4.000000,4.000000,4.000000,4.000000,4.000000,4.000000,4.000000,4.000000,4.000000,4.000000,4.000000,4.000000,4.000000,4.000000,100.000000,,,,,,,,,,,,,,,,
1645707429.959235,62.000000,0.000000,4243.846191,4217.563965,4228.717773,4207.307617,4215.769043,4199.871582,4218.717773,4233.717773,4200.000000,4213.333496,4220.000000,4189.871582,4208.974121,4189.615234,0.000000,4.000000,95.000000,,,,0.000000,4.000000,4.000000,4.000000,4.000000,4.000000,4.000000,4.000000,4.000000,4.000000,4.000000,4.000000,4.000000,4.000000,4.000000,100.000000,,,,,,,,,,,,,,,,
1645707429.963175,63.000000,0.000000,4246.794922,4214.358887,4228.205078,4209.230957,4217.179688,4201.282227,4219.743652,4235.128418,4198.974121,4214.358887,4227.692383,4196.153809,4201.410156,4185.641113,0.000000,4.000000,95.000000,,,,0.000000,4.000000,4.000000,4.000000,4.000000,4.000000,4.000000,4.000000,4.000000,4.000000,4.000000,4.000000,4.000000,4.000000,4.000000,100.000000,,,,,,,,,,,,,,,,
1645707429.967115,64.000000,0.000000,4243.717773,4210.256348,4226.794922,4210.512695,4218.974121,4201.153809,4217.436035,4230.512695,4196.153809,4211.410156,4232.307617,4202.692383,4196.410156,4193.846191,0.000000,4.000000,95.000000,,,,0.000000,4.000000,4.000000,4.000000,4.000000,4.000000,4.000000,4.000000,4.000000,4.000000,4.000000,4.000000,4.000000,4.000000,4.000000,100.000000,,,,,,,,,,,,,,,,
1645707429.971055,65.000000,0.000000,4237.692383,4208.717773,4225.512695,4211.025879,4220.256348,4198.974121,4214.743652,4222.820313,4192.948730,4205.128418,4229.743652,4205.256348,4196.538574,4211.410156,0.000000,4.000000,95.000000,,,,0.000000,4.000000,4.000000,4.000000,4.000000,4.000000,4.000000,4.000000,4.000000,4.000000,4.000000,4.000000,4.000000,4.000000,4.000000,100.000000,,,,,,,,,,,,,,,,
1645707429.974995,66.000000,0.000000,4232.948730,4210.384766,4223.974121,4210.000000,4220.000000,4195.384766,4213.846191,4216.025879,4190.769043,4197.051270,4220.641113,4201.666504,4202.051270,4228.077148,0.000000,4.000000,95.000000,,,,0.000000,4.000000,4.000000,4.000000,4.000000,4.000000,4.000000,4.000000,4.000000,4.000000,4.000000,4.000000,4.000000,4.000000,4.000000,100.000000,,,,,,,,,,,,,,,,
1645707429.978936,67.000000,0.000000,4231.410156,4213.589844,4221.025879,4206.410156,4218.205078,4192.948730,4214.230957,4212.692383,4189.615234,4190.128418,4210.000000,4194.615234,4208.846191,4232.948730,0.000000,4.000000,95.000000,,,,0.000000,4.000000,4.000000,4.000000,4.000000,4.000000,4.000000,4.000000,4.000000,4.000000,4.000000,4.000000,4.000000,4.000000,4.000000,100.000000,,,,,,,,,,,,,,,,
1645707429.982876,68.000000,0.000000,4231.538574,4214.871582,4216.666504,4200.128418,4215.512695,4193.205078,4213.717773,4212.051270,4189.102539,4185.641113,4202.820313,4188.589844,4211.538574,4222.179688,0.000000,4.000000,95.000000,,,,0.000000,4.000000,4.000000,4.000000,4.000000,4.000000,4.000000,4.000000,4.000000,4.000000,4.000000,4.000000,4.000000,4.000000,4.000000,100.000000,,,,,,,,,,,,,,,,
1645707429.986816,69.000000,0.000000,4229.871582,4212.436035,4212.436035,4192.692383,4212.563965,4195.256348,4211.666504,4212.179688,4188.077148,4182.948730,4200.384766,4185.641113,4206.922852,4201.666504,0.000000,4.000000,95.000000,,,,0.000000,4.000000,4.000000,4.000000,4.000000,4.000000,4.000000,4.000000,4.000000,4.000000,4.000000,4.000000,4.000000,4.000000,4.000000,100.000000,,,,,,,,,,,,,,,,
1645707429.990756,70.000000,0.000000,4225.128418,4207.051270,4210.641113,4187.051270,4210.384766,4197.051270,4210.256348,4211.666504,4185.897461,4179.743652,4199.615234,4184.102539,4197.436035,4183.461426,0.000000,4.000000,95.000000,,,,0.000000,4.000000,4.000000,4.000000,4.000000,4.000000,4.000000,4.000000,4.000000,4.000000,4.000000,4.000000,4.000000,4.000000,4.000000,100.000000,,,,,,,,,,,,,,,,
1645707429.994696,71.000000,0.000000,4219.230957,4201.922852,4211.666504,4186.538574,4210.384766,4197.436035,4211.153809,4211.025879,4183.333496,4175.128418,4197.948730,4181.410156,4189.871582,4178.589844,0.000000,4.000000,95.000000,,,,0.000000,4.000000,4.000000,4.000000,4.000000,4.000000,4.000000,4.000000,4.000000,4.000000,4.000000,4.000000,4.000000,4.000000,4.000000,100.000000,,,,,,,,,,,,,,,,
1645707429.998636,72.000000,0.000000,4216.410156,4200.000000,4213.333496,4191.922852,4212.563965,4197.436035,4214.230957,4211.025879,4182.179688,4170.769043,4195.128418,4176.794922,4190.128418,4188.205078,0.000000,4.000000,95.000000,,,,0.000000,4.000000,4.000000,4.000000,4.000000,4.000000,4.000000,4.000000,4.000000,4.000000,4.000000,4.000000,4.000000,4.000000,4.000000,100.000000,,,,,,,,,,,,,,,,
1645707430.002676,73.000000,0.000000,4217.820313,4201.410156,4213.205078,4200.256348,4215.641113,4198.974121,4217.179688,4212.563965,4183.461426,4168.974121,4193.205078,4173.205078,4198.077148,4203.333496,0.000000,4.000000,95.000000,,,,0.000000,4.000000,4.000000,4.000000,4.000000,4.000000,4.000000,4.000000,4.000000,4.000000,4.000000,4.000000,4.000000,4.000000,4.000000,100.000000,,,,,,,,,,,,,,,,
1645707430.006616,74.000000,0.000000,4220.897461,4203.846191,4211.410156,4205.769043,4216.794922,4201.666504,4218.333496,4214.871582,4186.794922,4170.769043,4193.333496,4173.846191,4207.820313,4210.897461,0.000000,4.000000,95.000000,,,,0.000000,4.000000,4.000000,4.000000,4.000000,4.000000,4.000000,4.000000,4.000000,4.000000,4.000000,4.000000,4.000000,4.000000,4.000000,100.000000,,,,,,,,,,,,,,,,
1645707430.010556,75.000000,0.000000,4221.282227,4204.615234,4210.256348,4204.871582,4214.102539,4203.589844,4218.205078,4217.179688,4190.256348,4174.743652,4195.000000,4179.743652,4213.589844,4205.384766,0.000000,4.000000,95.000000,,,,0.000000,4.000000,4.000000,4.000000,4.000000,4.000000,4.000000,4.000000,4.000000,4.000000,4.000000,4.000000,4.000000,4.000000,4.000000,100.000000,,,,,,,,,,,,,,,,
1645707430.014496,76.000000,0.000000,4217.692383,4203.077148,4211.410156,4198.974121,4208.589844,4203.077148,4217.692383,4217.948730,4192.051270,4178.717773,4197.307617,4188.333496,4214.230957,4193.461426,0.000000,4.000000,95.000000,,,,0.000000,4.000000,4.000000,4.000000,4.000000,4.000000,4.000000,4.000000,4.000000,4.000000,4.000000,4.000000,4.000000,4.000000,4.000000,100.000000,,,,,,,,,,,,,,,,
1645707430.018436,77.000000,0.000000,4212.692383,4200.641113,4213.974121,4193.461426,4204.102539,4200.512695,4216.922852,4216.666504,4191.666504,4181.538574,4200.769043,4195.641113,4213.077148,4186.922852,0.000000,4.000000,95.000000,,,,0.000000,4.000000,4.000000,4.000000,4.000000,4.000000,4.000000,4.000000,4.000000,4.000000,4.000000,4.000000,4.000000,4.000000,4.000000,100.000000,,,,,,,,,,,,,,,,
1645707430.022377,78.000000,0.000000,4209.615234,4198.846191,4215.512695,4192.820313,4204.358887,4197.948730,4215.512695,4213.589844,4190.512695,4183.205078,4205.512695,4198.333496,4213.077148,4191.025879,0.000000,4.000000,95.000000,,,,0.000000,4.000000,4.000000,4.000000,4.000000,4.000000,4.000000,4.000000,4.000000,4.000000,4.000000,4.000000,4.000000,4.000000,4.000000,100.000000,,,,,,,,,,,,,,,,
1645707430.026317,79.000000,0.000000,4209.102539,4197.563965,4214.615234,4196.153809,4208.974121,4196.922852,4214.102539,4210.769043,4190.000000,4183.717773,4209.615234,4195.769043,4213.717773,4199.102539,0.000000,4.000000,95.000000,,,,0.000000,4.000000,4.000000,4.000000,4.000000,4.000000,4.000000,4.000000,4.000000,4.000000,4.000000,4.000000,4.000000,4.000000,4.000000,100.000000,,,,,,,,,,,,,,,,
1645707430.030257,80.000000,0.000000,4209.230957,4195.897461,4212.051270,4198.333496,4214.487305,4197.820313,4213.461426,4209.871582,4190.128418,4182.948730,4210.000000,4191.538574,4212.692383,4201.025879,0.000000,4.000000,95.000000,,,,0.000000,4.000000,4.000000,4.000000,4.000000,4.000000,4.000000,4.000000,4.000000,4.000000,4.000000,4.000000,4.000000,4.000000,4.000000,100.000000,,,,,,,,,,,,,,,,
1645707430.034197,81.000000,0.000000,4210.000000,4194.871582,4210.384766,4195.769043,4217.563965,4199.487305,4213.974121,4210.897461,4190.384766,4181.794922,4206.410156,4190.512695,4209.615234,4194.102539,0.000000,4.000000,95.000000,,,,0.000000,4.000000,4.000000,4.000000,4.000000,4.000000,4.000000,4.000000,4.000000,4.000000,4.000000,4.000000,4.000000,4.000000,4.000000,100.000000,,,,,,,,,,,,,,,,
1645707430.038137,82.000000,0.000000,4214.102539,4196.538574,4212.179688,4189.743652,4217.563965,4201.282227,4214.358887,4213.589844,4191.025879,4182.051270,4202.307617,4195.384766,4207.179688,4185.769043,0.000000,4.000000,95.000000,,,,0.000000,4.000000,4.000000,4.000000,4.000000,4.000000,4.000000,4.000000,4.000000,4.000000,4.000000,4.000000,4.000000,4.000000,4.000000,100.000000,,,,,,,,,,,,,,,,
1645707430.042077,83.000000,0.000000,4223.461426,4201.922852,4217.820313,4185.512695,4216.025879,4202.563965,4213.205078,4217.436035,4192.179688,4185.000000,4202.051270,4205.000000,4208.333496,4185.897461,0.000000,4.000000,95.000000,,,,0.000000,4.000000,4.000000,4.000000,4.000000,4.000000,4.000000,4.000000,4.000000,4.000000,4.000000,4.000000,4.000000,4.000000,4.000000,100.000000,,,,,,,,,,,,,,,,
1645707430.046017,84.000000,0.000000,4236.025879,4209.487305,4225.897461,4188.077148,4214.230957,4202.948730,4211.410156,4222.436035,4193.974121,4189.230957,4206.538574,4215.512695,4213.205078,4196.666504,0.000000,4.000000,95.000000,,,,0.000000,4.000000,4.000000,4.000000,4.000000,4.000000,4.000000,4.000000,4.000000,4.000000,4.000000,4.000000,4.000000,4.000000,4.000000,100.000000,,,,,,,,,,,,,,,,
1645707430.049957,85.000000,0.000000,4245.769043,4216.538574,4233.846191,4198.589844,4212.820313,4202.179688,4211.153809,4227.563965,4196.153809,4192.179688,4212.307617,4222.563965,4218.846191,4211.282227,0.000000,4.000000,95.000000,,,,0.000000,4.000000,4.000000,4.000000,4.000000,4.000000,4.000000,4.000000,4.000000,4.000000,4.000000,4.000000,4.000000,4.000000,4.000000,100.000000,,,,,,,,,,,,,,,,
1645707430.053897,86.000000,0.000000,4248.077148,4221.410156,4238.846191,4212.563965,4212.051270,4201.025879,4213.077148,4230.384766,4198.205078,4192.692383,4215.897461,4224.487305,4222.179688,4221.153809,0.000000,4.000000,95.000000,,,,0.000000,4.000000,4.000000,4.000000,4.000000,4.000000,4.000000,4.000000,4.000000,4.000000,4.000000,4.000000,4.000000,4.000000,4.000000,100.000000,,,,,,,,,,,,,,,,
1645707430.057838,87.000000,0.000000,4243.974121,4224.743652,4238.846191,4223.333496,4212.820313,4201.025879,4215.512695,4228.077148,4198.589844,4191.666504,4217.051270,4221.922852,4223.205078,4223.205078,0.000000,4.000000,95.000000,,,,0.000000,4.000000,4.000000,4.000000,4.000000,4.000000,4.000000,4.000000,4.000000,4.000000,4.000000,4.000000,4.000000,4.000000,4.000000,100.000000,,,,,,,,,,,,,,,,
1645707430.061778,88.000000,0.000000,4238.077148,4227.307617,4234.487305,4226.153809,4214.487305,4202.307617,4215.897461,4220.256348,4196.410156,4191.153809,4218.077148,4216.922852,4223.717773,4221.794922,0.000000,4.000000,95.000000,,,,0.000000,4.000000,4.000000,4.000000,4.000000,4.000000,4.000000,4.000000,4.000000,4.000000,4.000000,4.000000,4.000000,4.000000,4.000000,100.000000,,,,,,,,,,,,,,,,
1645707430.065718,89.000000,0.000000,4235.000000,4228.077148,4227.948730,4221.153809,4215.128418,4203.205078,4213.589844,4209.871582,4191.410156,4191.025879,4220.000000,4210.769043,4225.256348,4222.436035,0.000000,4.000000,95.000000,,,,0.000000,4.000000,4.000000,4.000000,4.000000,4.000000,4.000000,4.000000,4.000000,4.000000,4.000000,4.000000,4.000000,4.000000,4.000000,100.000000,,,,,,,,,,,,,,,,
1645707430.069658,90.000000,0.000000,4235.256348,4225.384766,4222.436035,4212.051270,4212.820313,4201.282227,4210.384766,4201.666504,4185.641113,4190.000000,4221.922852,4205.128418,4226.922852,4226.282227,0.000000,4.000000,95.000000,,,,0.000000,4.000000,4.000000,4.000000,4.000000,4.000000,4.000000,4.000000,4.000000,4.000000,4.000000,4.000000,4.000000,4.000000,4.000000,100.000000,,,,,,,,,,,,,,,,
1645707430.073598,91.000000,0.000000,4236.922852,4219.487305,4219.487305,4204.102539,4207.307617,4196.538574,4208.846191,4198.589844,4181.794922,4187.179688,4221.922852,4201.538574,4226.538574,4229.615234,0.000000,4.000000,95.000000,,,,0.000000,4.000000,4.000000,4.000000,4.000000,4.000000,4.000000,4.000000,4.000000,4.000000,4.000000,4.000000,4.000000,4.000000,4.000000,100.000000,,,,,,,,,,,,,,,,
1645707430.077638,92.000000,0.000000,4238.077148,4214.230957,4218.461426,4201.025879,4201.666504,4191.794922,4208.974121,4199.615234,4181.666504,4183.461426,4219.230957,4200.897461,4223.461426,4228.717773,0.000000,4.000000,95.000000,,,,0.000000,4.000000,4.000000,4.000000,4.000000,4.000000,4.000000,4.000000,4.000000,4.000000,4.000000,4.000000,4.000000,4.000000,4.000000,100.000000,,,,,,,,,,,,,,,,
1645707430.081578,93.000000,0.000000,4238.717773,4213.333496,4218.205078,4203.461426,4198.974121,4189.615234,4209.230957,4201.666504,4183.974121,4180.384766,4214.102539,4202.563965,4218.974121,4223.846191,0.000000,4.000000,95.000000,,,,0.000000,4.000000,4.000000,4.000000,4.000000,4.000000,4.000000,4.000000,4.000000,4.000000,4.000000,4.000000,4.000000,4.000000,4.000000,100.000000,,,,,,,,,,,,,,,,
1645707430.085518,94.000000,0.000000,4240.000000,4216.922852,4217.307617,4208.205078,4199.743652,4189.871582,4208.461426,4202.436035,4185.897461,4178.333496,4207.692383,4203.974121,4215.000000,4218.205078,0.000000,4.000000,95.000000,,,,0.000000,4.000000,4.000000,4.000000,4.000000,4.000000,4.000000,4.000000,4.000000,4.000000,4.000000,4.000000,4.000000,4.000000,4.000000,100.000000,,,,,,,,,,,,,,,,
1645707430.089458,95.000000,0.000000,4241.666504,4221.538574,4216.025879,4211.282227,4201.410156,4190.256348,4207.307617,4202.307617,4185.384766,4176.025879,4201.538574,4202.436035,4212.179688,4214.615234,0.000000,4.000000,95.000000,,,,0.000000,4.000000,4.000000,4.000000,4.000000,4.000000,4.000000,4.000000,4.000000,4.000000,4.000000,4.000000,4.000000,4.000000,4.000000,100.000000,,,,,,,,,,,,,,,,
1645707430.093398,96.000000,0.000000,4242.051270,4223.717773,4215.000000,4210.384766,4201.410156,4189.358887,4207.179688,4202.563965,4182.820313,4173.205078,4198.205078,4198.077148,4211.538574,4212.820313,0.000000,4.000000,95.000000,,,,0.000000,4.000000,4.000000,4.000000,4.000000,4.000000,4.000000,4.000000,4.000000,4.000000,4.000000,4.000000,4.000000,4.000000,4.000000,100.000000,,,,,,,,,,,,,,,,
1645707430.097338,97.000000,0.000000,4239.615234,4222.948730,4215.384766,4207.436035,4200.512695,4188.589844,4208.205078,4204.102539,4180.769043,4171.794922,4199.743652,4193.589844,4214.358887,4211.410156,0.000000,4.000000,95.000000,,,,0.000000,4.000000,4.000000,4.000000,4.000000,4.000000,4.000000,4.000000,4.000000,4.000000,4.000000,4.000000,4.000000,4.000000,4.000000,100.000000,,,,,,,,,,,,,,,,
1645707430.101279,98.000000,0.000000,4235.897461,4221.410156,4217.692383,4205.256348,4200.512695,4189.615234,4209.102539,4206.666504,4181.025879,4174.615234,4206.282227,4192.948730,4220.897461,4209.871582,0.000000,4.000000,95.000000,,,,0.000000,4.000000,4.000000,4.000000,4.000000,4.000000,4.000000,4.000000,4.000000,4.000000,4.000000,4.000000,4.000000,4.000000,4.000000,100.000000,,,,,,,,,,,,,,,,
1645707430.105219,99.000000,0.000000,4235.256348,4221.282227,4221.153809,4206.025879,4201.794922,4192.051270,4208.461426,4209.358887,4183.333496,4181.538574,4215.128418,4198.205078,4229.743652,4211.025879,0.000000,4.000000,95.000000,,,,0.000000,4.000000,4.000000,4.000000,4.000000,4.000000,4.000000,4.000000,4.000000,4.000000,4.000000,4.000000,4.000000,4.000000,4.000000,100.000000,,,,,,,,,,,,,,,,
1645707430.109059,100.000000,0.000000,4242.436035,4224.102539,4224.358887,4210.128418,4202.051270,4193.333496,4206.794922,4211.153809,4185.128418,4188.461426,4222.436035,4208.205078,4238.717773,4218.077148,0.000000,4.000000,95.000000,,,,0.000000,4.000000,4.000000,4.000000,4.000000,4.000000,4.000000,4.000000,4.000000,4.000000,4.000000,4.000000,4.000000,4.000000,4.000000,100.000000,,,,,,,,,,,,,,,,
1645707430.112999,101.000000,0.000000,4259.102539,4230.512695,4225.512695,4216.922852,4200.000000,4191.153809,4205.641113,4211.538574,4185.000000,4190.769043,4226.538574,4218.589844,4245.641113,4231.410156,0.000000,4.000000,95.000000,,,,0.000000,4.000000,4.000000,4.000000,4.000000,4.000000,4.000000,4.000000,4.000000,4.000000,4.000000,4.000000,4.000000,4.000000,4.000000,100.000000,,,,,,,,,,,,,,,,
1645707430.116939,102.000000,0.000000,4280.769043,4239.871582,4224.871582,4224.743652,4197.563965,4187.051270,4205.512695,4210.769043,4183.589844,4187.051270,4229.102539,4225.000000,4250.512695,4247.307617,0.000000,4.000000,95.000000,,,,0.000000,4.000000,4.000000,4.000000,4.000000,4.000000,4.000000,4.000000,4.000000,4.000000,4.000000,4.000000,4.000000,4.000000,4.000000,100.000000,,,,,,,,,,,,,,,,
1645707430.120879,103.000000,0.000000,4299.102539,4250.641113,4224.358887,4232.051270,4198.077148,4184.230957,4205.897461,4209.743652,4183.077148,4181.282227,4232.179688,4226.666504,4254.358887,4260.256348,0.000000,4.000000,95.000000,,,,0.000000,4.000000,4.000000,4.000000,4.000000,4.000000,4.000000,4.000000,4.000000,4.000000,4.000000,4.000000,4.000000,4.000000,4.000000,100.000000,,,,,,,,,,,,,,,,
1645707430.124819,104.000000,0.000000,4307.307617,4259.487305,4226.922852,4237.563965,4202.307617,4184.743652,4205.769043,4210.128418,4184.743652,4179.487305,4236.410156,4225.769043,4259.102539,4267.692383,0.000000,4.000000,95.000000,,,,0.000000,4.000000,4.000000,4.000000,4.000000,4.000000,4.000000,4.000000,4.000000,4.000000,4.000000,4.000000,4.000000,4.000000,4.000000,100.000000,,,,,,,,,,,,,,,,
1645707430.128759,105.000000,0.000000,4306.282227,4262.820313,4233.077148,4240.769043,4207.051270,4187.179688,4205.641113,4212.948730,4188.333496,4185.000000,4240.897461,4226.153809,4266.025879,4272.948730,0.000000,4.000000,95.000000,,,,0.000000,4.000000,4.000000,4.000000,4.000000,4.000000,4.000000,4.000000,4.000000,4.000000,4.000000,4.000000,4.000000,4.000000,4.000000,100.000000,,,,,,,,,,,,,,,,
1645707430.132700,106.000000,0.000000,4304.358887,4260.384766,4240.897461,4241.794922,4208.205078,4189.102539,4205.897461,4217.948730,4192.692383,4195.897461,4245.769043,4230.512695,4275.000000,4282.436035,0.000000,4.000000,95.000000,,,,0.000000,4.000000,4.000000,4.000000,4.000000,4.000000,4.000000,4.000000,4.000000,4.000000,4.000000,4.000000,4.000000,4.000000,4.000000,100.000000,,,,,,,,,,,,,,,,
1645707430.136640,107.000000,0.000000,4310.769043,4255.769043,4247.436035,4241.666504,4205.000000,4188.974121,4206.794922,4223.589844,4196.025879,4206.282227,4252.051270,4240.128418,4284.358887,4299.743652,0.000000,4.000000,95.000000,,,,0.000000,4.000000,4.000000,4.000000,4.000000,4.000000,4.000000,4.000000,4.000000,4.000000,4.000000,4.000000,4.000000,4.000000,4.000000,100.000000,,,,,,,,,,,,,,,,
1645707430.140580,108.000000,0.000000,4327.563965,4254.615234,4251.538574,4241.025879,4200.256348,4187.563965,4207.307617,4227.179688,4198.205078,4210.000000,4260.384766,4253.461426,4290.769043,4321.538574,0.000000,4.000000,95.000000,,,,0.000000,4.000000,4.000000,4.000000,4.000000,4.000000,4.000000,4.000000,4.000000,4.000000,4.000000,4.000000,4.000000,4.000000,4.000000,100.000000,,,,,,,,,,,,,,,,
1645707430.144520,109.000000,0.000000,4346.794922,4259.230957,4253.717773,4239.615234,4197.436035,4186.025879,4207.307617,4227.692383,4199.615234,4205.384766,4268.974121,4265.512695,4291.410156,4338.333496,0.000000,4.000000,95.000000,,,,0.000000,4.000000,4.000000,4.000000,4.000000,4.000000,4.000000,4.000000,4.000000,4.000000,4.000000,4.000000,4.000000,4.000000,4.000000,100.000000,,,,,,,,,,,,,,,,
1645707430.148460,110.000000,0.000000,4357.307617,4266.538574,4255.256348,4237.051270,4197.179688,4185.128418,4207.179688,4226.282227,4200.897461,4196.025879,4274.487305,4270.897461,4285.384766,4342.051270,0.000000,4.000000,95.000000,,,,0.000000,4.000000,4.000000,4.000000,4.000000,4.000000,4.000000,4.000000,4.000000,4.000000,4.000000,4.000000,4.000000,4.000000,4.000000,100.000000,,,,,,,,,,,,,,,,
1645707430.152400,111.000000,0.000000,4353.589844,4271.153809,4255.769043,4233.461426,4197.820313,4185.000000,4207.436035,4224.743652,4201.538574,4189.358887,4274.871582,4266.538574,4276.282227,4333.589844,0.000000,4.000000,95.000000,,,,0.000000,4.000000,4.000000,4.000000,4.000000,4.000000,4.000000,4.000000,4.000000,4.000000,4.000000,4.000000,4.000000,4.000000,4.000000,100.000000,,,,,,,,,,,,,,,,
1645707430.156340,112.000000,0.000000,4340.384766,4269.230957,4254.230957,4230.000000,4198.205078,4185.769043,4207.692383,4223.974121,4201.153809,4191.282227,4272.051270,4255.128418,4271.025879,4323.717773,0.000000,4.000000,95.000000,,,,0.000000,4.000000,4.000000,4.000000,4.000000,4.000000,4.000000,4.000000,4.000000,4.000000,4.000000,4.000000,4.000000,4.000000,4.000000,100.000000,,,,,,,,,,,,,,,,
1645707430.160280,113.000000,0.000000,4327.692383,4260.384766,4250.769043,4227.436035,4198.717773,4187.307617,4207.179688,4223.717773,4199.358887,4202.051270,4270.128418,4242.563965,4274.230957,4323.077148,0.000000,4.000000,95.000000,,,,0.000000,4.000000,4.000000,4.000000,4.000000,4.000000,4.000000,4.000000,4.000000,4.000000,4.000000,4.000000,4.000000,4.000000,4.000000,100.000000,,,,,,,,,,,,,,,,
1645707430.164220,114.000000,0.000000,4321.922852,4248.205078,4247.179688,4225.000000,4199.358887,4188.846191,4206.153809,4223.205078,4197.179688,4215.000000,4272.436035,4234.743652,4285.384766,4332.692383,0.000000,4.000000,95.000000,,,,0.000000,4.000000,4.000000,4.000000,4.000000,4.000000,4.000000,4.000000,4.000000,4.000000,4.000000,4.000000,4.000000,4.000000,4.000000,100.000000,,,,,,,,,,,,,,,,
1645707430.168160,115.000000,0.000000,4322.179688,4237.179688,4245.897461,4221.922852,4198.589844,4189.615234,4206.153809,4222.692383,4195.769043,4222.051270,4277.692383,4234.102539,4298.205078,4343.205078,0.000000,4.000000,95.000000,,,,0.000000,4.000000,4.000000,4.000000,4.000000,4.000000,4.000000,4.000000,4.000000,4.000000,4.000000,4.000000,4.000000,4.000000,4.000000,100.000000,,,,,,,,,,,,,,,,
1645707430.172101,116.000000,0.000000,4323.461426,4231.666504,4246.922852,4218.461426,4195.128418,4189.615234,4208.461426,4222.692383,4196.025879,4220.256348,4281.922852,4239.102539,4306.666504,4344.230957,0.000000,4.000000,95.000000,,,,0.000000,4.000000,4.000000,4.000000,4.000000,4.000000,4.000000,4.000000,4.000000,4.000000,4.000000,4.000000,4.000000,4.000000,4.000000,100.000000,,,,,,,,,,,,,,,,
1645707430.176041,117.000000,0.000000,4322.692383,4233.333496,4248.461426,4216.794922,4190.897461,4189.615234,4212.179688,4223.205078,4197.563965,4213.333496,4282.179688,4245.897461,4308.333496,4334.230957,0.000000,4.000000,95.000000,,,,0.000000,4.000000,4.000000,4.000000,4.000000,4.000000,4.000000,4.000000,4.000000,4.000000,4.000000,4.000000,4.000000,4.000000,4.000000,100.000000,,,,,,,,,,,,,,,,
