title:Alex-rSjNywapJIeR1CxwGBFQ_g, start timestamp:1644853360.102362, stop timestamp:1644853386.886447, headset type:EPOCPLUS, headset serial:3B9AEBFF, headset firmware:626, channels:55, sampling rate:eeg_256, samples:6799      , version:2.1, 
Timestamp,OriginalTimestamp,EEG.Counter,EEG.Interpolated,EEG.AF3,EEG.F7,EEG.F3,EEG.FC5,EEG.T7,EEG.P7,EEG.O1,EEG.O2,EEG.P8,EEG.T8,EEG.FC6,EEG.F4,EEG.F8,EEG.AF4,EEG.RawCq,EEG.Battery,EEG.BatteryPercent,MarkerIndex,MarkerType,MarkerValueInt,EEG.MarkerHardware,CQ.AF3,CQ.F7,CQ.F3,CQ.FC5,CQ.T7,CQ.P7,CQ.O1,CQ.O2,CQ.P8,CQ.T8,CQ.FC6,CQ.F4,CQ.F8,CQ.AF4,CQ.Overall,EQ.SampleRateQuality,EQ.OVERALL,EQ.AF3,EQ.F7,EQ.F3,EQ.FC5,EQ.T7,EQ.P7,EQ.O1,EQ.O2,EQ.P8,EQ.T8,EQ.FC6,EQ.F4,EQ.F8,EQ.AF4
1644853360.102362,1644853360.116816,212.000000,0.000000,4222.051270,4217.307617,4218.077148,4218.974121,4239.615234,4233.589844,4224.615234,4225.769043,4232.948730,4236.153809,4228.333496,4218.589844,4236.025879,4202.692383,3231.000000,4.000000,86.000000,,,,0.000000,4.000000,4.000000,4.000000,4.000000,4.000000,4.000000,4.000000,4.000000,4.000000,4.000000,4.000000,4.000000,4.000000,4.000000,100.000000,,,,,,,,,,,,,,,,
1644853360.106302,1644853360.120857,213.000000,0.000000,4214.358887,4212.692383,4214.487305,4214.743652,4237.948730,4230.128418,4223.077148,4220.512695,4227.820313,4227.692383,4219.615234,4212.307617,4224.102539,4190.384766,3474.000000,4.000000,86.000000,,,,0.000000,4.000000,4.000000,4.000000,4.000000,4.000000,4.000000,4.000000,4.000000,4.000000,4.000000,4.000000,4.000000,4.000000,4.000000,100.000000,,,,,,,,,,,,,,,,
1644853360.110242,1644853360.124797,214.000000,0.000000,4207.692383,4212.436035,4210.384766,4212.051270,4230.128418,4225.128418,4222.179688,4218.589844,4227.179688,4225.384766,4208.205078,4204.230957,4211.410156,4178.974121,3521.000000,4.000000,86.000000,,,,0.000000,4.000000,4.000000,4.000000,4.000000,4.000000,4.000000,4.000000,4.000000,4.000000,4.000000,4.000000,4.000000,4.000000,4.000000,100.000000,,,,,,,,,,,,,,,,
1644853360.114182,1644853360.128738,215.000000,0.000000,4205.384766,4216.922852,4208.077148,4213.077148,4220.641113,4220.769043,4221.922852,4220.897461,4230.769043,4228.461426,4200.897461,4199.487305,4205.000000,4173.846191,3139.000000,4.000000,86.000000,,,,0.000000,4.000000,4.000000,4.000000,4.000000,4.000000,4.000000,4.000000,4.000000,4.000000,4.000000,4.000000,4.000000,4.000000,4.000000,100.000000,,,,,,,,,,,,,,,,
1644853360.118122,1644853360.132678,216.000000,0.000000,4207.563965,4223.461426,4209.230957,4217.820313,4215.384766,4218.846191,4222.692383,4225.641113,4234.615234,4232.820313,4202.179688,4201.025879,4208.461426,4176.153809,3231.000000,4.000000,86.000000,,,,0.000000,4.000000,4.000000,4.000000,4.000000,4.000000,4.000000,4.000000,4.000000,4.000000,4.000000,4.000000,4.000000,4.000000,4.000000,100.000000,,,,,,,,,,,,,,,,
1644853360.122062,1644853360.136619,217.000000,0.000000,4211.794922,4227.563965,4212.948730,4223.461426,4216.025879,4219.487305,4224.615234,4229.230957,4235.384766,4234.871582,4209.743652,4207.436035,4218.717773,4182.436035,3474.000000,4.000000,86.000000,,,,0.000000,4.000000,4.000000,4.000000,4.000000,4.000000,4.000000,4.000000,4.000000,4.000000,4.000000,4.000000,4.000000,4.000000,4.000000,100.000000,,,,,,,,,,,,,,,,
1644853360.126001,1644853360.140559,218.000000,0.000000,4215.128418,4226.666504,4216.922852,4225.641113,4219.615234,4221.025879,4226.282227,4229.487305,4232.948730,4233.717773,4217.051270,4213.077148,4228.589844,4188.333496,3521.000000,4.000000,86.000000,,,,0.000000,4.000000,4.000000,4.000000,4.000000,4.000000,4.000000,4.000000,4.000000,4.000000,4.000000,4.000000,4.000000,4.000000,4.000000,100.000000,,,,,,,,,,,,,,,,
1644853360.129942,1644853360.144500,219.000000,0.000000,4216.538574,4222.307617,4218.461426,4222.436035,4222.051270,4221.666504,4225.512695,4226.282227,4230.000000,4231.153809,4218.717773,4213.333496,4232.307617,4192.051270,3139.000000,4.000000,86.000000,,,,0.000000,4.000000,4.000000,4.000000,4.000000,4.000000,4.000000,4.000000,4.000000,4.000000,4.000000,4.000000,4.000000,4.000000,4.000000,100.000000,,,,,,,,,,,,,,,,
1644853360.133881,1644853360.148441,220.000000,0.000000,4216.666504,4218.461426,4216.794922,4216.025879,4221.666504,4220.256348,4221.922852,4222.179688,4228.974121,4230.128418,4215.000000,4208.077148,4228.717773,4195.128418,3231.000000,4.000000,86.000000,,,,0.000000,4.000000,4.000000,4.000000,4.000000,4.000000,4.000000,4.000000,4.000000,4.000000,4.000000,4.000000,4.000000,4.000000,4.000000,100.000000,,,,,,,,,,,,,,,,
1644853360.137822,1644853360.152381,221.000000,0.000000,4215.897461,4218.077148,4214.102539,4211.538574,4220.000000,4217.563965,4218.589844,4219.871582,4230.384766,4231.410156,4211.666504,4201.922852,4222.179688,4198.717773,3474.000000,4.000000,86.000000,,,,0.000000,4.000000,4.000000,4.000000,4.000000,4.000000,4.000000,4.000000,4.000000,4.000000,4.000000,4.000000,4.000000,4.000000,4.000000,100.000000,,,,,,,,,,,,,,,,
1644853360.141762,1644853360.156322,222.000000,0.000000,4214.487305,4220.512695,4213.717773,4213.974121,4219.615234,4215.512695,4218.205078,4220.769043,4232.436035,4233.717773,4214.871582,4200.641113,4218.461426,4202.436035,3521.000000,4.000000,86.000000,,,,0.000000,4.000000,4.000000,4.000000,4.000000,4.000000,4.000000,4.000000,4.000000,4.000000,4.000000,4.000000,4.000000,4.000000,4.000000,100.000000,,,,,,,,,,,,,,,,
1644853360.145702,1644853360.160262,223.000000,0.000000,4213.077148,4222.820313,4217.692383,4223.461426,4221.538574,4215.512695,4221.025879,4223.077148,4233.333496,4234.871582,4224.743652,4206.153809,4220.256348,4203.974121,3139.000000,4.000000,86.000000,,,,0.000000,4.000000,4.000000,4.000000,4.000000,4.000000,4.000000,4.000000,4.000000,4.000000,4.000000,4.000000,4.000000,4.000000,4.000000,100.000000,,,,,,,,,,,,,,,,
1644853360.149642,1644853360.164203,224.000000,0.000000,4213.717773,4223.205078,4224.358887,4234.102539,4224.743652,4217.307617,4224.230957,4224.615234,4232.692383,4235.000000,4235.000000,4215.384766,4225.512695,4201.538574,3231.000000,4.000000,86.000000,,,,0.000000,4.000000,4.000000,4.000000,4.000000,4.000000,4.000000,4.000000,4.000000,4.000000,4.000000,4.000000,4.000000,4.000000,4.000000,100.000000,,,,,,,,,,,,,,,,
1644853360.153582,1644853360.168144,225.000000,0.000000,4218.461426,4222.563965,4230.000000,4237.820313,4226.410156,4219.358887,4225.128418,4225.128418,4231.922852,4236.922852,4237.436035,4222.179688,4230.000000,4196.666504,3474.000000,4.000000,86.000000,,,,0.000000,4.000000,4.000000,4.000000,4.000000,4.000000,4.000000,4.000000,4.000000,4.000000,4.000000,4.000000,4.000000,4.000000,4.000000,100.000000,,,,,,,,,,,,,,,,
1644853360.157522,1644853360.172084,226.000000,0.000000,4226.282227,4222.692383,4231.282227,4230.384766,4223.974121,4220.000000,4223.974121,4225.897461,4232.179688,4241.666504,4229.871582,4222.692383,4231.794922,4193.589844,3521.000000,4.000000,86.000000,,,,0.000000,4.000000,4.000000,4.000000,4.000000,4.000000,4.000000,4.000000,4.000000,4.000000,4.000000,4.000000,4.000000,4.000000,4.000000,100.000000,,,,,,,,,,,,,,,,
1644853360.161461,1644853360.176025,227.000000,0.000000,4232.692383,4224.102539,4228.717773,4216.025879,4217.820313,4218.846191,4222.692383,4227.563965,4233.205078,4246.922852,4218.205078,4217.692383,4231.794922,4195.512695,3139.000000,4.000000,86.000000,,,,0.000000,4.000000,4.000000,4.000000,4.000000,4.000000,4.000000,4.000000,4.000000,4.000000,4.000000,4.000000,4.000000,4.000000,4.000000,100.000000,,,,,,,,,,,,,,,,
1644853360.165402,1644853360.179965,228.000000,0.000000,4233.333496,4225.641113,4225.256348,4204.615234,4211.794922,4217.179688,4222.307617,4228.974121,4233.333496,4247.820313,4210.384766,4212.179688,4232.307617,4201.282227,3231.000000,4.000000,86.000000,,,,0.000000,4.000000,4.000000,4.000000,4.000000,4.000000,4.000000,4.000000,4.000000,4.000000,4.000000,4.000000,4.000000,4.000000,4.000000,100.000000,,,,,,,,,,,,,,,,
1644853360.169341,1644853360.183906,229.000000,0.000000,4227.820313,4226.025879,4223.205078,4203.461426,4211.025879,4217.051270,4221.794922,4228.077148,4231.410156,4241.282227,4210.897461,4210.384766,4233.461426,4205.769043,3474.000000,4.000000,86.000000,,,,0.000000,4.000000,4.000000,4.000000,4.000000,4.000000,4.000000,4.000000,4.000000,4.000000,4.000000,4.000000,4.000000,4.000000,4.000000,100.000000,,,,,,,,,,,,,,,,
1644853360.173282,1644853360.187846,230.000000,0.000000,4220.000000,4224.743652,4222.563965,4212.307617,4216.922852,4219.102539,4220.000000,4224.230957,4227.820313,4229.358887,4216.794922,4212.436035,4232.948730,4204.358887,3521.000000,4.000000,86.000000,,,,0.000000,4.000000,4.000000,4.000000,4.000000,4.000000,4.000000,4.000000,4.000000,4.000000,4.000000,4.000000,4.000000,4.000000,4.000000,100.000000,,,,,,,,,,,,,,,,
1644853360.177221,1644853360.191887,231.000000,0.000000,4215.000000,4222.692383,4222.051270,4224.871582,4225.641113,4221.794922,4217.692383,4219.230957,4223.846191,4218.974121,4222.051270,4215.128418,4228.333496,4196.410156,3139.000000,4.000000,86.000000,,,,0.000000,4.000000,4.000000,4.000000,4.000000,4.000000,4.000000,4.000000,4.000000,4.000000,4.000000,4.000000,4.000000,4.000000,4.000000,100.000000,,,,,,,,,,,,,,,,
1644853360.181162,1644853360.195828,232.000000,0.000000,4215.256348,4221.794922,4220.641113,4234.102539,4231.025879,4223.589844,4217.051270,4216.153809,4220.897461,4215.897461,4222.563965,4215.128418,4220.512695,4186.922852,3231.000000,4.000000,86.000000,,,,0.000000,4.000000,4.000000,4.000000,4.000000,4.000000,4.000000,4.000000,4.000000,4.000000,4.000000,4.000000,4.000000,4.000000,4.000000,100.000000,,,,,,,,,,,,,,,,
1644853360.185101,1644853360.199768,233.000000,0.000000,4219.230957,4223.077148,4219.102539,4236.922852,4229.871582,4223.846191,4218.974121,4216.153809,4219.487305,4221.025879,4218.974121,4212.051270,4212.948730,4181.666504,3474.000000,4.000000,86.000000,,,,0.000000,4.000000,4.000000,4.000000,4.000000,4.000000,4.000000,4.000000,4.000000,4.000000,4.000000,4.000000,4.000000,4.000000,4.000000,100.000000,,,,,,,,,,,,,,,,
1644853360.189042,1644853360.203709,234.000000,0.000000,4222.820313,4225.512695,4218.461426,4233.846191,4224.230957,4223.205078,4221.538574,4218.205078,4219.743652,4229.230957,4214.230957,4207.692383,4209.102539,4183.589844,3521.000000,4.000000,86.000000,,,,0.000000,4.000000,4.000000,4.000000,4.000000,4.000000,4.000000,4.000000,4.000000,4.000000,4.000000,4.000000,4.000000,4.000000,4.000000,100.000000,1.000000,100.000000,4.000000,4.000000,4.000000,4.000000,4.000000,4.000000,4.000000,4.000000,4.000000,4.000000,4.000000,4.000000,4.000000,4.000000
1644853360.192981,1644853360.207649,235.000000,0.000000,4222.563965,4226.538574,4219.230957,4227.436035,4218.974121,4222.307617,4222.563965,4220.256348,4221.153809,4234.358887,4210.384766,4203.974121,4209.615234,4190.641113,3139.000000,4.000000,86.000000,,,,0.000000,4.000000,4.000000,4.000000,4.000000,4.000000,4.000000,4.000000,4.000000,4.000000,4.000000,4.000000,4.000000,4.000000,4.000000,100.000000,,,,,,,,,,,,,,,,
1644853360.196921,1644853360.211590,236.000000,0.000000,4218.717773,4223.974121,4220.641113,4220.641113,4217.307617,4221.666504,4221.410156,4220.769043,4223.589844,4233.333496,4208.717773,4201.282227,4213.077148,4197.948730,3231.000000,4.000000,86.000000,,,,0.000000,4.000000,4.000000,4.000000,4.000000,4.000000,4.000000,4.000000,4.000000,4.000000,4.000000,4.000000,4.000000,4.000000,4.000000,100.000000,,,,,,,,,,,,,,,,
1644853360.200862,1644853360.215530,237.000000,0.000000,4214.743652,4218.589844,4221.538574,4216.538574,4218.846191,4220.769043,4219.487305,4220.641113,4226.282227,4228.077148,4208.974121,4199.358887,4217.820313,4202.692383,3474.000000,4.000000,86.000000,,,,0.000000,4.000000,4.000000,4.000000,4.000000,4.000000,4.000000,4.000000,4.000000,4.000000,4.000000,4.000000,4.000000,4.000000,4.000000,100.000000,,,,,,,,,,,,,,,,
1644853360.204801,1644853360.219471,238.000000,0.000000,4215.000000,4214.358887,4221.025879,4216.666504,4220.897461,4219.615234,4218.205078,4220.641113,4228.589844,4223.846191,4211.025879,4198.077148,4223.717773,4204.102539,3521.000000,4.000000,86.000000,,,,0.000000,4.000000,4.000000,4.000000,4.000000,4.000000,4.000000,4.000000,4.000000,4.000000,4.000000,4.000000,4.000000,4.000000,4.000000,100.000000,,,,,,,,,,,,,,,,
1644853360.208742,1644853360.223412,239.000000,0.000000,4219.743652,4214.358887,4218.974121,4219.871582,4221.153809,4218.077148,4217.179688,4220.641113,4229.358887,4224.230957,4214.230957,4197.820313,4230.256348,4203.461426,3139.000000,4.000000,86.000000,,,,0.000000,4.000000,4.000000,4.000000,4.000000,4.000000,4.000000,4.000000,4.000000,4.000000,4.000000,4.000000,4.000000,4.000000,4.000000,100.000000,,,,,,,,,,,,,,,,
1644853360.212681,1644853360.227352,240.000000,0.000000,4225.512695,4218.077148,4216.538574,4222.436035,4219.487305,4216.410156,4215.641113,4219.615234,4227.948730,4227.948730,4217.436035,4198.974121,4235.256348,4200.897461,3231.000000,4.000000,86.000000,,,,0.000000,4.000000,4.000000,4.000000,4.000000,4.000000,4.000000,4.000000,4.000000,4.000000,4.000000,4.000000,4.000000,4.000000,4.000000,100.000000,,,,,,,,,,,,,,,,
1644853360.216622,1644853360.231293,241.000000,0.000000,4227.179688,4221.410156,4215.128418,4221.282227,4217.179688,4215.128418,4213.461426,4216.794922,4223.974121,4229.615234,4217.692383,4200.256348,4235.769043,4196.922852,3474.000000,4.000000,86.000000,,,,0.000000,4.000000,4.000000,4.000000,4.000000,4.000000,4.000000,4.000000,4.000000,4.000000,4.000000,4.000000,4.000000,4.000000,4.000000,100.000000,,,,,,,,,,,,,,,,
1644853360.220561,1644853360.235233,242.000000,0.000000,4222.820313,4220.897461,4215.512695,4216.025879,4215.641113,4214.358887,4212.051270,4212.307617,4218.461426,4224.358887,4212.179688,4200.128418,4229.743652,4192.563965,3521.000000,4.000000,86.000000,,,,0.000000,4.000000,4.000000,4.000000,4.000000,4.000000,4.000000,4.000000,4.000000,4.000000,4.000000,4.000000,4.000000,4.000000,4.000000,100.000000,,,,,,,,,,,,,,,,
1644853360.224501,1644853360.239174,243.000000,0.000000,4215.384766,4216.922852,4217.051270,4209.102539,4215.256348,4213.974121,4212.307617,4207.820313,4213.461426,4214.102539,4201.666504,4197.692383,4219.230957,4189.743652,3139.000000,4.000000,86.000000,,,,0.000000,4.000000,4.000000,4.000000,4.000000,4.000000,4.000000,4.000000,4.000000,4.000000,4.000000,4.000000,4.000000,4.000000,4.000000,100.000000,,,,,,,,,,,,,,,,
1644853360.228441,1644853360.243115,244.000000,0.000000,4210.256348,4213.205078,4217.948730,4204.615234,4214.615234,4213.974121,4213.461426,4205.512695,4211.538574,4206.025879,4191.666504,4194.358887,4209.743652,4188.974121,3231.000000,4.000000,86.000000,,,,0.000000,4.000000,4.000000,4.000000,4.000000,4.000000,4.000000,4.000000,4.000000,4.000000,4.000000,4.000000,4.000000,4.000000,4.000000,100.000000,,,,,,,,,,,,,,,,
1644853360.232381,1644853360.247055,245.000000,0.000000,4210.256348,4212.307617,4217.307617,4204.871582,4212.051270,4214.230957,4213.974121,4206.666504,4213.205078,4206.538574,4189.230957,4192.563965,4206.794922,4189.358887,3474.000000,4.000000,86.000000,,,,0.000000,4.000000,4.000000,4.000000,4.000000,4.000000,4.000000,4.000000,4.000000,4.000000,4.000000,4.000000,4.000000,4.000000,4.000000,100.000000,,,,,,,,,,,,,,,,
1644853360.236321,1644853360.250996,246.000000,0.000000,4213.846191,4214.358887,4215.769043,4209.743652,4208.333496,4214.871582,4213.846191,4210.256348,4217.179688,4215.641113,4197.692383,4194.615234,4212.563965,4189.743652,3521.000000,4.000000,86.000000,,,,0.000000,4.000000,4.000000,4.000000,4.000000,4.000000,4.000000,4.000000,4.000000,4.000000,4.000000,4.000000,4.000000,4.000000,4.000000,100.000000,,,,,,,,,,,,,,,,
1644853360.240261,1644853360.254936,247.000000,0.000000,4217.436035,4216.922852,4215.000000,4216.410156,4206.282227,4215.641113,4214.487305,4214.358887,4220.384766,4227.179688,4213.589844,4200.000000,4223.205078,4189.743652,3139.000000,4.000000,86.000000,,,,0.000000,4.000000,4.000000,4.000000,4.000000,4.000000,4.000000,4.000000,4.000000,4.000000,4.000000,4.000000,4.000000,4.000000,4.000000,100.000000,,,,,,,,,,,,,,,,
1644853360.244201,1644853360.258977,248.000000,0.000000,4218.589844,4218.461426,4215.897461,4221.410156,4208.589844,4216.410156,4216.666504,4216.538574,4220.897461,4234.487305,4228.589844,4206.025879,4232.820313,4190.128418,3231.000000,4.000000,86.000000,,,,0.000000,4.000000,4.000000,4.000000,4.000000,4.000000,4.000000,4.000000,4.000000,4.000000,4.000000,4.000000,4.000000,4.000000,4.000000,100.000000,,,,,,,,,,,,,,,,
1644853360.248141,1644853360.262917,249.000000,0.000000,4218.205078,4218.974121,4217.307617,4222.436035,4214.487305,4216.922852,4218.974121,4216.410156,4219.743652,4235.384766,4235.512695,4209.358887,4237.820313,4192.051270,3474.000000,4.000000,86.000000,,,,0.000000,4.000000,4.000000,4.000000,4.000000,4.000000,4.000000,4.000000,4.000000,4.000000,4.000000,4.000000,4.000000,4.000000,4.000000,100.000000,,,,,,,,,,,,,,,,
1644853360.252082,1644853360.266858,250.000000,0.000000,4218.205078,4218.589844,4217.179688,4220.256348,4220.512695,4216.922852,4219.358887,4215.256348,4218.974121,4231.794922,4232.051270,4207.692383,4237.436035,4195.641113,3521.000000,4.000000,86.000000,,,,0.000000,4.000000,4.000000,4.000000,4.000000,4.000000,4.000000,4.000000,4.000000,4.000000,4.000000,4.000000,4.000000,4.000000,4.000000,100.000000,,,,,,,,,,,,,,,,
1644853360.256021,1644853360.270798,251.000000,0.000000,4218.974121,4217.563965,4214.487305,4217.307617,4222.692383,4216.538574,4217.692383,4214.615234,4219.102539,4226.794922,4220.641113,4202.051270,4232.820313,4199.358887,3139.000000,4.000000,86.000000,,,,0.000000,4.000000,4.000000,4.000000,4.000000,4.000000,4.000000,4.000000,4.000000,4.000000,4.000000,4.000000,4.000000,4.000000,4.000000,100.000000,,,,,,,,,,,,,,,,
1644853360.259961,1644853360.274739,252.000000,0.000000,4218.717773,4215.897461,4210.512695,4215.384766,4220.769043,4215.897461,4216.025879,4215.128418,4218.846191,4221.666504,4207.051270,4196.025879,4224.743652,4200.128418,3231.000000,4.000000,86.000000,,,,0.000000,4.000000,4.000000,4.000000,4.000000,4.000000,4.000000,4.000000,4.000000,4.000000,4.000000,4.000000,4.000000,4.000000,4.000000,100.000000,,,,,,,,,,,,,,,,
1644853360.263901,1644853360.278680,253.000000,0.000000,4215.641113,4213.846191,4207.563965,4214.871582,4216.794922,4215.641113,4216.025879,4216.538574,4217.051270,4217.179688,4196.922852,4194.230957,4214.102539,4195.897461,3474.000000,4.000000,86.000000,,,,0.000000,4.000000,4.000000,4.000000,4.000000,4.000000,4.000000,4.000000,4.000000,4.000000,4.000000,4.000000,4.000000,4.000000,4.000000,100.000000,,,,,,,,,,,,,,,,
1644853360.267841,1644853360.282620,254.000000,0.000000,4210.000000,4212.436035,4207.179688,4215.000000,4213.333496,4215.641113,4217.179688,4217.307617,4213.974121,4213.974121,4194.487305,4198.205078,4204.102539,4188.589844,3521.000000,4.000000,86.000000,,,,0.000000,4.000000,4.000000,4.000000,4.000000,4.000000,4.000000,4.000000,4.000000,4.000000,4.000000,4.000000,4.000000,4.000000,4.000000,100.000000,,,,,,,,,,,,,,,,
1644853360.271781,1644853360.286561,255.000000,0.000000,4205.256348,4212.692383,4209.230957,4215.000000,4211.794922,4215.641113,4216.794922,4216.666504,4211.410156,4213.717773,4199.615234,4206.025879,4199.487305,4183.205078,113.000000,4.000000,86.000000,,,,0.000000,4.000000,4.000000,4.000000,4.000000,4.000000,4.000000,4.000000,4.000000,4.000000,4.000000,4.000000,4.000000,4.000000,4.000000,100.000000,,,,,,,,,,,,,,,,
1644853360.275721,1644853360.290501,0.000000,0.000000,4204.358887,4214.743652,4212.307617,4214.358887,4212.179688,4215.256348,4214.487305,4214.871582,4210.897461,4216.794922,4208.589844,4213.205078,4204.230957,4184.743652,3411.000000,4.000000,86.000000,,,,0.000000,4.000000,4.000000,4.000000,4.000000,4.000000,4.000000,4.000000,4.000000,4.000000,4.000000,4.000000,4.000000,4.000000,4.000000,100.000000,,,,,,,,,,,,,,,,
1644853360.279661,1644853360.294442,1.000000,0.000000,4207.179688,4217.307617,4214.358887,4213.333496,4213.717773,4214.615234,4212.820313,4214.230957,4213.205078,4221.794922,4215.641113,4216.025879,4217.563965,4193.717773,3321.000000,4.000000,86.000000,,,,0.000000,4.000000,4.000000,4.000000,4.000000,4.000000,4.000000,4.000000,4.000000,4.000000,4.000000,4.000000,4.000000,4.000000,4.000000,100.000000,,,,,,,,,,,,,,,,
1644853360.283601,1644853360.298383,2.000000,0.000000,4211.153809,4218.717773,4214.230957,4212.948730,4214.358887,4214.230957,4214.102539,4216.410156,4217.307617,4226.410156,4217.563965,4213.077148,4233.461426,4204.487305,3547.000000,4.000000,86.000000,,,,0.000000,4.000000,4.000000,4.000000,4.000000,4.000000,4.000000,4.000000,4.000000,4.000000,4.000000,4.000000,4.000000,4.000000,4.000000,100.000000,,,,,,,,,,,,,,,,
1644853360.287541,1644853360.302323,3.000000,0.000000,4212.948730,4218.205078,4213.077148,4214.358887,4212.820313,4214.230957,4217.692383,4221.153809,4220.769043,4229.358887,4215.641113,4206.794922,4243.846191,4209.615234,3469.000000,4.000000,86.000000,,,,0.000000,4.000000,4.000000,4.000000,4.000000,4.000000,4.000000,4.000000,4.000000,4.000000,4.000000,4.000000,4.000000,4.000000,4.000000,100.000000,,,,,,,,,,,,,,,,
1644853360.291481,1644853360.306264,4.000000,0.000000,4211.153809,4217.179688,4212.692383,4218.205078,4210.128418,4214.743652,4220.384766,4225.769043,4222.307617,4230.384766,4214.102539,4201.538574,4243.461426,4206.025879,3743.000000,4.000000,86.000000,,,,0.000000,4.000000,4.000000,4.000000,4.000000,4.000000,4.000000,4.000000,4.000000,4.000000,4.000000,4.000000,4.000000,4.000000,4.000000,100.000000,,,,,,,,,,,,,,,,
1644853360.295421,1644853360.310204,5.000000,0.000000,4207.692383,4217.436035,4214.230957,4223.846191,4208.461426,4215.769043,4219.871582,4227.307617,4222.051270,4230.769043,4215.128418,4201.153809,4233.461426,4196.794922,3330.000000,4.000000,86.000000,,,,0.000000,4.000000,4.000000,4.000000,4.000000,4.000000,4.000000,4.000000,4.000000,4.000000,4.000000,4.000000,4.000000,4.000000,4.000000,100.000000,,,,,,,,,,,,,,,,
1644853360.299361,1644853360.314145,6.000000,0.000000,4205.512695,4220.128418,4216.922852,4228.846191,4209.102539,4216.666504,4217.179688,4225.000000,4220.897461,4230.769043,4216.538574,4204.871582,4220.384766,4187.563965,2835.000000,4.000000,86.000000,,,,0.000000,4.000000,4.000000,4.000000,4.000000,4.000000,4.000000,4.000000,4.000000,4.000000,4.000000,4.000000,4.000000,4.000000,4.000000,100.000000,,,,,,,,,,,,,,,,
1644853360.303301,1644853360.318085,7.000000,0.000000,4206.666504,4223.846191,4219.358887,4230.641113,4210.769043,4216.794922,4214.743652,4220.512695,4219.102539,4229.743652,4215.384766,4208.589844,4210.897461,4182.307617,2941.000000,4.000000,86.000000,,,,0.000000,4.000000,4.000000,4.000000,4.000000,4.000000,4.000000,4.000000,4.000000,4.000000,4.000000,4.000000,4.000000,4.000000,4.000000,100.000000,,,,,,,,,,,,,,,,
1644853360.307241,1644853360.322026,8.000000,0.000000,4210.512695,4225.641113,4219.615234,4227.948730,4211.410156,4215.769043,4213.974121,4216.153809,4216.282227,4226.666504,4211.666504,4208.205078,4208.717773,4181.410156,3224.000000,4.000000,86.000000,,,,0.000000,4.000000,4.000000,4.000000,4.000000,4.000000,4.000000,4.000000,4.000000,4.000000,4.000000,4.000000,4.000000,4.000000,4.000000,100.000000,,,,,,,,,,,,,,,,
1644853360.311181,1644853360.325967,9.000000,0.000000,4214.743652,4223.717773,4216.794922,4222.179688,4210.641113,4213.974121,4214.230957,4213.589844,4213.077148,4221.538574,4208.077148,4202.692383,4211.922852,4183.333496,3745.000000,4.000000,86.000000,,,,0.000000,4.000000,4.000000,4.000000,4.000000,4.000000,4.000000,4.000000,4.000000,4.000000,4.000000,4.000000,4.000000,4.000000,4.000000,100.000000,,,,,,,,,,,,,,,,
1644853360.315121,1644853360.330007,10.000000,0.000000,4217.436035,4218.717773,4211.922852,4216.282227,4209.230957,4212.051270,4214.230957,4212.307617,4210.512695,4216.794922,4207.307617,4195.128418,4215.641113,4185.769043,3712.000000,4.000000,86.000000,,,,0.000000,4.000000,4.000000,4.000000,4.000000,4.000000,4.000000,4.000000,4.000000,4.000000,4.000000,4.000000,4.000000,4.000000,4.000000,100.000000,,,,,,,,,,,,,,,,
1644853360.319061,1644853360.333948,11.000000,0.000000,4218.077148,4213.589844,4207.179688,4212.307617,4209.230957,4211.153809,4214.358887,4210.897461,4209.102539,4215.000000,4208.333496,4189.743652,4216.538574,4187.307617,3148.000000,4.000000,86.000000,,,,0.000000,4.000000,4.000000,4.000000,4.000000,4.000000,4.000000,4.000000,4.000000,4.000000,4.000000,4.000000,4.000000,4.000000,4.000000,100.000000,,,,,,,,,,,,,,,,
1644853360.323001,1644853360.337888,12.000000,0.000000,4216.794922,4211.025879,4204.615234,4210.769043,4211.666504,4211.666504,4214.871582,4208.589844,4208.846191,4216.922852,4208.205078,4188.333496,4215.128418,4187.563965,3407.000000,4.000000,86.000000,,,,0.000000,4.000000,4.000000,4.000000,4.000000,4.000000,4.000000,4.000000,4.000000,4.000000,4.000000,4.000000,4.000000,4.000000,4.000000,100.000000,,,,,,,,,,,,,,,,
1644853360.326941,1644853360.341829,13.000000,0.000000,4214.102539,4211.794922,4204.487305,4211.666504,4216.153809,4213.717773,4215.256348,4206.153809,4209.230957,4221.410156,4204.615234,4189.615234,4213.333496,4186.794922,3485.000000,4.000000,86.000000,,,,0.000000,4.000000,4.000000,4.000000,4.000000,4.000000,4.000000,4.000000,4.000000,4.000000,4.000000,4.000000,4.000000,4.000000,4.000000,100.000000,,,,,,,,,,,,,,,,
1644853360.330881,1644853360.345769,14.000000,0.000000,4210.641113,4214.615234,4205.769043,4215.641113,4220.641113,4216.153809,4214.615234,4204.743652,4209.871582,4225.256348,4197.948730,4190.512695,4212.307617,4185.512695,3712.000000,4.000000,86.000000,,,,0.000000,4.000000,4.000000,4.000000,4.000000,4.000000,4.000000,4.000000,4.000000,4.000000,4.000000,4.000000,4.000000,4.000000,4.000000,100.000000,,,,,,,,,,,,,,,,
1644853360.334821,1644853360.349710,15.000000,0.000000,4206.922852,4217.563965,4208.077148,4222.948730,4222.948730,4217.948730,4213.589844,4205.769043,4210.000000,4225.512695,4191.153809,4189.487305,4212.179688,4183.461426,3148.000000,4.000000,86.000000,,,,0.000000,4.000000,4.000000,4.000000,4.000000,4.000000,4.000000,4.000000,4.000000,4.000000,4.000000,4.000000,4.000000,4.000000,4.000000,100.000000,,,,,,,,,,,,,,,,
1644853360.338761,1644853360.353651,16.000000,0.000000,4204.230957,4219.230957,4211.025879,4231.282227,4220.897461,4218.589844,4213.717773,4208.846191,4209.487305,4221.282227,4188.589844,4187.563965,4212.563965,4181.282227,3407.000000,4.000000,86.000000,,,,0.000000,4.000000,4.000000,4.000000,4.000000,4.000000,4.000000,4.000000,4.000000,4.000000,4.000000,4.000000,4.000000,4.000000,4.000000,100.000000,,,,,,,,,,,,,,,,
1644853360.342701,1644853360.357591,17.000000,0.000000,4203.717773,4219.743652,4214.102539,4236.922852,4215.256348,4218.717773,4215.512695,4212.820313,4208.846191,4214.743652,4192.563965,4187.307617,4213.461426,4181.282227,3485.000000,4.000000,86.000000,,,,0.000000,4.000000,4.000000,4.000000,4.000000,4.000000,4.000000,4.000000,4.000000,4.000000,4.000000,4.000000,4.000000,4.000000,4.000000,100.000000,,,,,,,,,,,,,,,,
1644853360.346641,1644853360.361532,18.000000,0.000000,4206.153809,4220.641113,4216.282227,4236.794922,4209.871582,4218.846191,4217.179688,4215.256348,4209.230957,4210.384766,4202.692383,4190.128418,4215.384766,4185.769043,3712.000000,4.000000,86.000000,,,,0.000000,4.000000,4.000000,4.000000,4.000000,4.000000,4.000000,4.000000,4.000000,4.000000,4.000000,4.000000,4.000000,4.000000,4.000000,100.000000,,,,,,,,,,,,,,,,
1644853360.350581,1644853360.365472,19.000000,0.000000,4211.666504,4223.333496,4217.179688,4231.922852,4209.230957,4219.743652,4216.922852,4215.384766,4211.794922,4211.282227,4215.641113,4195.256348,4219.102539,4194.487305,3148.000000,4.000000,86.000000,,,,0.000000,4.000000,4.000000,4.000000,4.000000,4.000000,4.000000,4.000000,4.000000,4.000000,4.000000,4.000000,4.000000,4.000000,4.000000,100.000000,,,,,,,,,,,,,,,,
1644853360.354521,1644853360.369413,20.000000,0.000000,4218.974121,4227.948730,4217.307617,4226.538574,4214.358887,4221.025879,4214.487305,4214.358887,4215.769043,4217.179688,4226.794922,4200.384766,4223.974121,4202.563965,3407.000000,4.000000,86.000000,,,,0.000000,4.000000,4.000000,4.000000,4.000000,4.000000,4.000000,4.000000,4.000000,4.000000,4.000000,4.000000,4.000000,4.000000,4.000000,100.000000,,,,,,,,,,,,,,,,
1644853360.358461,1644853360.373354,21.000000,0.000000,4226.410156,4232.436035,4217.436035,4224.615234,4222.051270,4222.051270,4212.563965,4214.615234,4219.358887,4224.743652,4232.179688,4203.205078,4227.307617,4204.102539,3485.000000,4.000000,86.000000,,,,0.000000,4.000000,4.000000,4.000000,4.000000,4.000000,4.000000,4.000000,4.000000,4.000000,4.000000,4.000000,4.000000,4.000000,4.000000,100.000000,,,,,,,,,,,,,,,,
1644853360.362401,1644853360.377294,22.000000,0.000000,4231.922852,4233.205078,4217.820313,4226.794922,4227.563965,4221.922852,4213.077148,4216.666504,4220.128418,4229.743652,4229.871582,4202.307617,4226.794922,4197.692383,3712.000000,4.000000,86.000000,,,,0.000000,4.000000,4.000000,4.000000,4.000000,4.000000,4.000000,4.000000,4.000000,4.000000,4.000000,4.000000,4.000000,4.000000,4.000000,100.000000,,,,,,,,,,,,,,,,
1644853360.366341,1644853360.381235,23.000000,0.000000,4233.333496,4228.589844,4218.333496,4229.487305,4228.461426,4220.000000,4215.128418,4218.846191,4217.692383,4230.256348,4221.922852,4199.102539,4222.820313,4188.589844,3148.000000,4.000000,86.000000,,,,0.000000,4.000000,4.000000,4.000000,4.000000,4.000000,4.000000,4.000000,4.000000,4.000000,4.000000,4.000000,4.000000,4.000000,4.000000,100.000000,,,,,,,,,,,,,,,,
1644853360.370281,1644853360.385175,24.000000,0.000000,4229.102539,4220.641113,4218.205078,4228.717773,4225.256348,4217.051270,4216.025879,4218.846191,4214.743652,4228.461426,4212.948730,4196.410156,4218.717773,4183.717773,3407.000000,4.000000,86.000000,,,,0.000000,4.000000,4.000000,4.000000,4.000000,4.000000,4.000000,4.000000,4.000000,4.000000,4.000000,4.000000,4.000000,4.000000,4.000000,100.000000,,,,,,,,,,,,,,,,
1644853360.374221,1644853360.389116,25.000000,0.000000,4220.641113,4214.358887,4217.051270,4224.102539,4220.641113,4215.000000,4214.743652,4216.410156,4214.358887,4228.333496,4207.692383,4196.922852,4219.102539,4186.025879,3485.000000,4.000000,86.000000,,,,0.000000,4.000000,4.000000,4.000000,4.000000,4.000000,4.000000,4.000000,4.000000,4.000000,4.000000,4.000000,4.000000,4.000000,4.000000,100.000000,,,,,,,,,,,,,,,,
1644853360.378161,1644853360.393056,26.000000,0.000000,4212.563965,4213.846191,4216.153809,4219.487305,4216.282227,4215.897461,4212.948730,4214.230957,4218.077148,4232.563965,4207.820313,4200.769043,4225.128418,4192.051270,3712.000000,4.000000,86.000000,,,,0.000000,4.000000,4.000000,4.000000,4.000000,4.000000,4.000000,4.000000,4.000000,4.000000,4.000000,4.000000,4.000000,4.000000,4.000000,100.000000,,,,,,,,,,,,,,,,
1644853360.382101,1644853360.396997,27.000000,0.000000,4210.256348,4219.487305,4217.307617,4219.230957,4212.948730,4219.487305,4213.333496,4215.000000,4224.102539,4240.000000,4211.410156,4205.769043,4233.589844,4196.410156,3148.000000,4.000000,86.000000,,,,0.000000,4.000000,4.000000,4.000000,4.000000,4.000000,4.000000,4.000000,4.000000,4.000000,4.000000,4.000000,4.000000,4.000000,4.000000,100.000000,,,,,,,,,,,,,,,,
1644853360.386041,1644853360.400938,28.000000,0.000000,4215.897461,4226.794922,4220.897461,4223.589844,4211.410156,4224.102539,4216.794922,4219.102539,4229.487305,4246.794922,4215.384766,4209.358887,4239.358887,4196.410156,3407.000000,4.000000,86.000000,,,,0.000000,4.000000,4.000000,4.000000,4.000000,4.000000,4.000000,4.000000,4.000000,4.000000,4.000000,4.000000,4.000000,4.000000,4.000000,100.000000,,,,,,,,,,,,,,,,
1644853360.389981,1644853360.404778,29.000000,0.000000,4226.282227,4231.025879,4225.128418,4228.333496,4212.820313,4227.179688,4221.025879,4224.871582,4231.666504,4248.974121,4216.794922,4210.897461,4239.615234,4193.461426,3485.000000,4.000000,86.000000,,,,0.000000,4.000000,4.000000,4.000000,4.000000,4.000000,4.000000,4.000000,4.000000,4.000000,4.000000,4.000000,4.000000,4.000000,4.000000,100.000000,,,,,,,,,,,,,,,,
1644853360.393921,1644853360.408719,30.000000,0.000000,4234.743652,4230.128418,4227.563965,4228.974121,4216.410156,4227.692383,4223.333496,4229.743652,4230.769043,4245.641113,4215.256348,4211.025879,4234.487305,4191.794922,3712.000000,4.000000,86.000000,,,,0.000000,4.000000,4.000000,4.000000,4.000000,4.000000,4.000000,4.000000,4.000000,4.000000,4.000000,4.000000,4.000000,4.000000,4.000000,100.000000,,,,,,,,,,,,,,,,
1644853360.397861,1644853360.412659,31.000000,0.000000,4234.615234,4225.384766,4226.922852,4224.230957,4220.256348,4226.153809,4222.948730,4232.307617,4228.077148,4238.333496,4212.051270,4211.153809,4226.794922,4194.358887,3148.000000,4.000000,86.000000,,,,0.000000,4.000000,4.000000,4.000000,4.000000,4.000000,4.000000,4.000000,4.000000,4.000000,4.000000,4.000000,4.000000,4.000000,4.000000,100.000000,,,,,,,,,,,,,,,,
1644853360.401801,1644853360.416600,32.000000,0.000000,4224.871582,4219.230957,4223.846191,4217.179688,4221.922852,4224.230957,4221.666504,4232.948730,4225.769043,4230.256348,4209.487305,4211.666504,4219.743652,4200.128418,0.000000,4.000000,86.000000,,,,0.000000,4.000000,4.000000,4.000000,4.000000,4.000000,4.000000,4.000000,4.000000,4.000000,4.000000,4.000000,4.000000,4.000000,4.000000,100.000000,,,,,,,,,,,,,,,,
1644853360.405741,1644853360.420541,33.000000,0.000000,4211.794922,4214.871582,4220.512695,4212.051270,4220.512695,4223.461426,4221.538574,4232.692383,4225.256348,4224.871582,4209.230957,4212.820313,4215.256348,4204.615234,0.000000,4.000000,86.000000,,,,0.000000,4.000000,4.000000,4.000000,4.000000,4.000000,4.000000,4.000000,4.000000,4.000000,4.000000,4.000000,4.000000,4.000000,4.000000,100.000000,,,,,,,,,,,,,,,,
1644853360.409681,1644853360.424481,34.000000,0.000000,4204.615234,4214.743652,4218.974121,4211.282227,4218.077148,4224.743652,4222.436035,4232.436035,4227.179688,4224.230957,4211.666504,4213.846191,4215.000000,4203.717773,0.000000,4.000000,86.000000,,,,0.000000,4.000000,4.000000,4.000000,4.000000,4.000000,4.000000,4.000000,4.000000,4.000000,4.000000,4.000000,4.000000,4.000000,4.000000,100.000000,,,,,,,,,,,,,,,,
1644853360.413621,1644853360.428422,35.000000,0.000000,4209.102539,4218.717773,4219.487305,4213.717773,4217.563965,4227.436035,4223.205078,4231.666504,4230.641113,4228.333496,4217.051270,4214.743652,4220.384766,4198.077148,0.000000,4.000000,86.000000,,,,0.000000,4.000000,4.000000,4.000000,4.000000,4.000000,4.000000,4.000000,4.000000,4.000000,4.000000,4.000000,4.000000,4.000000,4.000000,100.000000,,,,,,,,,,,,,,,,
1644853360.417561,1644853360.432362,36.000000,0.000000,4222.051270,4224.230957,4221.410156,4216.666504,4220.641113,4230.384766,4223.333496,4230.384766,4234.102539,4235.641113,4224.615234,4214.871582,4230.769043,4193.077148,0.000000,4.000000,86.000000,,,,0.000000,4.000000,4.000000,4.000000,4.000000,4.000000,4.000000,4.000000,4.000000,4.000000,4.000000,4.000000,4.000000,4.000000,4.000000,100.000000,,,,,,,,,,,,,,,,
1644853360.421501,1644853360.436303,37.000000,0.000000,4234.743652,4227.563965,4223.077148,4218.461426,4225.512695,4231.666504,4223.205078,4228.974121,4235.512695,4243.461426,4231.922852,4213.846191,4242.563965,4193.974121,0.000000,4.000000,86.000000,,,,0.000000,4.000000,4.000000,4.000000,4.000000,4.000000,4.000000,4.000000,4.000000,4.000000,4.000000,4.000000,4.000000,4.000000,4.000000,100.000000,,,,,,,,,,,,,,,,
1644853360.425441,1644853360.440244,38.000000,0.000000,4239.230957,4227.051270,4223.461426,4218.974121,4228.589844,4230.384766,4223.205078,4228.333496,4233.974121,4248.333496,4235.000000,4212.051270,4250.512695,4200.256348,0.000000,4.000000,86.000000,,,,0.000000,4.000000,4.000000,4.000000,4.000000,4.000000,4.000000,4.000000,4.000000,4.000000,4.000000,4.000000,4.000000,4.000000,4.000000,100.000000,,,,,,,,,,,,,,,,
1644853360.429381,1644853360.444184,39.000000,0.000000,4234.743652,4223.461426,4222.051270,4218.974121,4226.666504,4227.436035,4222.436035,4228.461426,4230.000000,4247.948730,4231.410156,4210.769043,4250.641113,4205.384766,0.000000,4.000000,86.000000,,,,0.000000,4.000000,4.000000,4.000000,4.000000,4.000000,4.000000,4.000000,4.000000,4.000000,4.000000,4.000000,4.000000,4.000000,4.000000,100.000000,,,,,,,,,,,,,,,,
1644853360.433321,1644853360.448125,40.000000,0.000000,4226.410156,4219.358887,4219.102539,4218.589844,4220.512695,4224.230957,4220.384766,4228.333496,4226.025879,4242.948730,4222.820313,4211.282227,4242.563965,4203.589844,0.000000,4.000000,86.000000,,,,0.000000,4.000000,4.000000,4.000000,4.000000,4.000000,4.000000,4.000000,4.000000,4.000000,4.000000,4.000000,4.000000,4.000000,4.000000,100.000000,,,,,,,,,,,,,,,,
1644853360.437261,1644853360.452065,41.000000,0.000000,4220.512695,4217.563965,4216.410156,4217.692383,4214.871582,4222.948730,4218.461426,4226.922852,4224.102539,4236.794922,4215.000000,4213.717773,4229.615234,4195.128418,0.000000,4.000000,86.000000,,,,0.000000,4.000000,4.000000,4.000000,4.000000,4.000000,4.000000,4.000000,4.000000,4.000000,4.000000,4.000000,4.000000,4.000000,4.000000,100.000000,,,,,,,,,,,,,,,,
1644853360.441201,1644853360.456006,42.000000,0.000000,4219.615234,4218.974121,4216.282227,4216.538574,4215.256348,4224.358887,4219.102539,4224.487305,4225.000000,4233.589844,4213.077148,4217.307617,4218.717773,4185.897461,0.000000,4.000000,86.000000,,,,0.000000,4.000000,4.000000,4.000000,4.000000,4.000000,4.000000,4.000000,4.000000,4.000000,4.000000,4.000000,4.000000,4.000000,4.000000,100.000000,,,,,,,,,,,,,,,,
1644853360.445141,1644853360.459946,43.000000,0.000000,4221.794922,4223.461426,4220.128418,4217.051270,4222.307617,4227.692383,4222.692383,4222.563965,4227.563965,4235.256348,4217.820313,4220.641113,4216.153809,4182.051270,0.000000,4.000000,86.000000,,,,0.000000,4.000000,4.000000,4.000000,4.000000,4.000000,4.000000,4.000000,4.000000,4.000000,4.000000,4.000000,4.000000,4.000000,4.000000,100.000000,,,,,,,,,,,,,,,,
1644853360.449081,1644853360.463887,44.000000,0.000000,4224.230957,4229.615234,4226.025879,4221.025879,4230.512695,4231.410156,4226.794922,4222.051270,4230.512695,4240.641113,4225.000000,4222.563965,4223.077148,4184.743652,0.000000,4.000000,86.000000,,,,0.000000,4.000000,4.000000,4.000000,4.000000,4.000000,4.000000,4.000000,4.000000,4.000000,4.000000,4.000000,4.000000,4.000000,4.000000,100.000000,,,,,,,,,,,,,,,,
1644853360.453021,1644853360.467828,45.000000,0.000000,4225.256348,4234.743652,4230.128418,4228.461426,4232.948730,4233.461426,4228.077148,4222.948730,4232.307617,4246.025879,4228.974121,4222.179688,4234.615234,4191.025879,0.000000,4.000000,86.000000,,,,0.000000,4.000000,4.000000,4.000000,4.000000,4.000000,4.000000,4.000000,4.000000,4.000000,4.000000,4.000000,4.000000,4.000000,4.000000,100.000000,,,,,,,,,,,,,,,,
1644853360.456961,1644853360.471768,46.000000,0.000000,4225.256348,4235.769043,4230.256348,4235.769043,4227.179688,4232.820313,4225.769043,4224.487305,4232.436035,4247.563965,4227.179688,4220.000000,4243.333496,4197.307617,0.000000,4.000000,86.000000,,,,0.000000,4.000000,4.000000,4.000000,4.000000,4.000000,4.000000,4.000000,4.000000,4.000000,4.000000,4.000000,4.000000,4.000000,4.000000,100.000000,,,,,,,,,,,,,,,,
1644853360.460901,1644853360.475609,47.000000,0.000000,4225.000000,4231.666504,4226.922852,4238.205078,4217.692383,4230.512695,4222.179688,4225.512695,4230.769043,4244.102539,4221.410156,4217.307617,4244.230957,4201.282227,0.000000,4.000000,86.000000,,,,0.000000,4.000000,4.000000,4.000000,4.000000,4.000000,4.000000,4.000000,4.000000,4.000000,4.000000,4.000000,4.000000,4.000000,4.000000,100.000000,,,,,,,,,,,,,,,,
1644853360.464841,1644853360.479549,48.000000,0.000000,4225.384766,4225.512695,4223.461426,4233.974121,4212.436035,4228.461426,4220.256348,4225.256348,4228.717773,4237.436035,4216.282227,4216.153809,4238.717773,4202.692383,0.000000,4.000000,86.000000,,,,0.000000,4.000000,4.000000,4.000000,4.000000,4.000000,4.000000,4.000000,4.000000,4.000000,4.000000,4.000000,4.000000,4.000000,4.000000,100.000000,,,,,,,,,,,,,,,,
1644853360.468781,1644853360.483490,49.000000,0.000000,4227.051270,4221.794922,4222.307617,4226.282227,4216.282227,4228.333496,4220.512695,4223.846191,4227.179688,4231.794922,4215.128418,4217.051270,4232.692383,4202.820313,0.000000,4.000000,86.000000,,,,0.000000,4.000000,4.000000,4.000000,4.000000,4.000000,4.000000,4.000000,4.000000,4.000000,4.000000,4.000000,4.000000,4.000000,4.000000,100.000000,,,,,,,,,,,,,,,,
1644853360.472721,1644853360.487431,50.000000,0.000000,4229.743652,4223.205078,4224.230957,4220.769043,4226.410156,4229.230957,4221.538574,4221.922852,4226.282227,4230.128418,4218.589844,4218.333496,4231.153809,4202.948730,0.000000,4.000000,86.000000,,,,0.000000,4.000000,4.000000,4.000000,4.000000,4.000000,4.000000,4.000000,4.000000,4.000000,4.000000,4.000000,4.000000,4.000000,4.000000,100.000000,,,,,,,,,,,,,,,,
1644853360.476661,1644853360.491371,51.000000,0.000000,4231.922852,4227.436035,4227.179688,4220.384766,4234.487305,4228.717773,4221.666504,4220.256348,4225.512695,4232.179688,4223.461426,4218.333496,4233.333496,4203.205078,0.000000,4.000000,86.000000,,,,0.000000,4.000000,4.000000,4.000000,4.000000,4.000000,4.000000,4.000000,4.000000,4.000000,4.000000,4.000000,4.000000,4.000000,4.000000,100.000000,,,,,,,,,,,,,,,,
1644853360.480601,1644853360.495312,52.000000,0.000000,4231.538574,4230.256348,4228.461426,4223.333496,4233.717773,4225.512695,4221.410156,4219.358887,4223.846191,4234.743652,4225.512695,4217.179688,4234.871582,4202.051270,0.000000,4.000000,86.000000,,,,0.000000,4.000000,4.000000,4.000000,4.000000,4.000000,4.000000,4.000000,4.000000,4.000000,4.000000,4.000000,4.000000,4.000000,4.000000,100.000000,,,,,,,,,,,,,,,,
1644853360.484541,1644853360.499252,53.000000,0.000000,4227.948730,4228.974121,4226.410156,4225.384766,4224.487305,4220.512695,4221.153809,4218.974121,4221.410156,4234.487305,4222.179688,4216.410156,4232.820313,4197.948730,0.000000,4.000000,86.000000,,,,0.000000,4.000000,4.000000,4.000000,4.000000,4.000000,4.000000,4.000000,4.000000,4.000000,4.000000,4.000000,4.000000,4.000000,4.000000,100.000000,,,,,,,,,,,,,,,,
1644853360.488481,1644853360.503193,54.000000,0.000000,4222.307617,4223.974121,4221.794922,4223.717773,4213.717773,4216.282227,4220.769043,4218.077148,4219.230957,4230.384766,4214.487305,4217.179688,4227.948730,4191.153809,0.000000,4.000000,86.000000,,,,0.000000,4.000000,4.000000,4.000000,4.000000,4.000000,4.000000,4.000000,4.000000,4.000000,4.000000,4.000000,4.000000,4.000000,4.000000,100.000000,,,,,,,,,,,,,,,,
1644853360.492421,1644853360.507134,55.000000,0.000000,4216.538574,4217.563965,4216.922852,4218.846191,4207.692383,4214.743652,4219.358887,4216.538574,4218.205078,4224.743652,4206.282227,4218.461426,4223.717773,4184.358887,0.000000,4.000000,86.000000,,,,0.000000,4.000000,4.000000,4.000000,4.000000,4.000000,4.000000,4.000000,4.000000,4.000000,4.000000,4.000000,4.000000,4.000000,4.000000,100.000000,,,,,,,,,,,,,,,,
1644853360.496361,1644853360.511074,56.000000,0.000000,4212.051270,4212.436035,4213.846191,4213.205078,4207.436035,4215.256348,4217.436035,4215.128418,4218.589844,4220.641113,4201.025879,4217.563965,4222.179688,4180.512695,0.000000,4.000000,86.000000,,,,0.000000,4.000000,4.000000,4.000000,4.000000,4.000000,4.000000,4.000000,4.000000,4.000000,4.000000,4.000000,4.000000,4.000000,4.000000,100.000000,,,,,,,,,,,,,,,,
1644853360.500301,1644853360.515015,57.000000,0.000000,4209.487305,4210.128418,4213.077148,4210.384766,4209.487305,4216.410156,4216.666504,4214.871582,4219.743652,4219.743652,4200.000000,4212.692383,4222.436035,4181.025879,0.000000,4.000000,86.000000,,,,0.000000,4.000000,4.000000,4.000000,4.000000,4.000000,4.000000,4.000000,4.000000,4.000000,4.000000,4.000000,4.000000,4.000000,4.000000,100.000000,,,,,,,,,,,,,,,,
1644853360.504241,1644853360.518955,58.000000,0.000000,4209.615234,4211.282227,4213.205078,4211.538574,4210.128418,4217.436035,4217.948730,4216.025879,4221.282227,4222.179688,4202.692383,4205.128418,4222.563965,4184.615234,0.000000,4.000000,86.000000,,,,0.000000,4.000000,4.000000,4.000000,4.000000,4.000000,4.000000,4.000000,4.000000,4.000000,4.000000,4.000000,4.000000,4.000000,4.000000,100.000000,,,,,,,,,,,,,,,,
1644853360.508181,1644853360.522896,59.000000,0.000000,4213.333496,4214.487305,4212.692383,4215.512695,4209.230957,4218.461426,4220.000000,4217.436035,4222.948730,4226.666504,4207.563965,4198.461426,4221.794922,4188.717773,0.000000,4.000000,86.000000,,,,0.000000,4.000000,4.000000,4.000000,4.000000,4.000000,4.000000,4.000000,4.000000,4.000000,4.000000,4.000000,4.000000,4.000000,4.000000,100.000000,,,,,,,,,,,,,,,,
1644853360.512121,1644853360.526836,60.000000,0.000000,4219.358887,4217.948730,4211.538574,4218.589844,4209.230957,4219.487305,4220.769043,4217.948730,4224.358887,4231.794922,4212.563965,4195.512695,4220.641113,4190.512695,0.000000,4.000000,86.000000,,,,0.000000,4.000000,4.000000,4.000000,4.000000,4.000000,4.000000,4.000000,4.000000,4.000000,4.000000,4.000000,4.000000,4.000000,4.000000,100.000000,,,,,,,,,,,,,,,,
1644853360.516061,1644853360.530777,61.000000,0.000000,4223.461426,4220.000000,4211.282227,4218.461426,4212.307617,4220.000000,4220.000000,4217.179688,4224.743652,4235.897461,4215.769043,4196.666504,4219.743652,4188.589844,0.000000,4.000000,86.000000,,,,0.000000,4.000000,4.000000,4.000000,4.000000,4.000000,4.000000,4.000000,4.000000,4.000000,4.000000,4.000000,4.000000,4.000000,4.000000,100.000000,,,,,,,,,,,,,,,,
1644853360.520001,1644853360.534718,62.000000,0.000000,4222.051270,4219.358887,4212.948730,4216.282227,4217.307617,4219.615234,4219.102539,4215.384766,4223.333496,4236.794922,4216.025879,4199.871582,4218.974121,4184.358887,0.000000,4.000000,86.000000,1,1,0,0.000000,4.000000,4.000000,4.000000,4.000000,4.000000,4.000000,4.000000,4.000000,4.000000,4.000000,4.000000,4.000000,4.000000,4.000000,100.000000,,,,,,,,,,,,,,,,
1644853360.523941,1644853360.538658,63.000000,0.000000,4215.000000,4216.410156,4215.769043,4215.256348,4220.897461,4218.205078,4219.102539,4213.846191,4220.769043,4233.461426,4213.717773,4202.179688,4217.820313,4180.897461,0.000000,4.000000,86.000000,,,,0.000000,4.000000,4.000000,4.000000,4.000000,4.000000,4.000000,4.000000,4.000000,4.000000,4.000000,4.000000,4.000000,4.000000,4.000000,100.000000,,,,,,,,,,,,,,,,
1644853360.527881,1644853360.542599,64.000000,0.000000,4207.051270,4212.563965,4217.692383,4216.922852,4220.128418,4216.538574,4219.743652,4213.333496,4218.205078,4227.179688,4210.000000,4202.692383,4217.051270,4181.025879,0.000000,4.000000,86.000000,,,,0.000000,4.000000,4.000000,4.000000,4.000000,4.000000,4.000000,4.000000,4.000000,4.000000,4.000000,4.000000,4.000000,4.000000,4.000000,100.000000,,,,,,,,,,,,,,,,
1644853360.531821,1644853360.546439,65.000000,0.000000,4203.974121,4209.358887,4217.948730,4218.974121,4215.512695,4215.641113,4220.000000,4213.717773,4216.666504,4220.769043,4206.153809,4202.436035,4218.205078,4184.615234,0.000000,4.000000,86.000000,,,,0.000000,4.000000,4.000000,4.000000,4.000000,4.000000,4.000000,4.000000,4.000000,4.000000,4.000000,4.000000,4.000000,4.000000,4.000000,100.000000,,,,,,,,,,,,,,,,
1644853360.535761,1644853360.550380,66.000000,0.000000,4207.948730,4207.692383,4216.922852,4217.307617,4209.358887,4216.025879,4219.871582,4214.615234,4216.410156,4216.922852,4203.205078,4203.717773,4221.794922,4189.487305,0.000000,4.000000,86.000000,,,,0.000000,4.000000,4.000000,4.000000,4.000000,4.000000,4.000000,4.000000,4.000000,4.000000,4.000000,4.000000,4.000000,4.000000,4.000000,100.000000,,,,,,,,,,,,,,,,
1644853360.539701,1644853360.554321,67.000000,0.000000,4216.410156,4207.948730,4216.025879,4210.769043,4205.128418,4217.051270,4220.256348,4216.025879,4216.538574,4216.410156,4201.666504,4207.692383,4226.794922,4193.077148,0.000000,4.000000,86.000000,,,,0.000000,4.000000,4.000000,4.000000,4.000000,4.000000,4.000000,4.000000,4.000000,4.000000,4.000000,4.000000,4.000000,4.000000,4.000000,100.000000,,,,,,,,,,,,,,,,
1644853360.543641,1644853360.558261,68.000000,0.000000,4224.487305,4210.384766,4216.153809,4202.436035,4204.358887,4218.077148,4221.666504,4217.948730,4217.051270,4219.102539,4202.820313,4213.077148,4230.512695,4195.000000,0.000000,4.000000,86.000000,,,,0.000000,4.000000,4.000000,4.000000,4.000000,4.000000,4.000000,4.000000,4.000000,4.000000,4.000000,4.000000,4.000000,4.000000,4.000000,100.000000,,,,,,,,,,,,,,,,
1644853360.547581,1644853360.562202,69.000000,0.000000,4228.974121,4214.358887,4217.307617,4197.179688,4207.820313,4218.461426,4222.820313,4220.128418,4218.461426,4224.230957,4207.563965,4216.794922,4232.179688,4197.051270,0.000000,4.000000,86.000000,,,,0.000000,4.000000,4.000000,4.000000,4.000000,4.000000,4.000000,4.000000,4.000000,4.000000,4.000000,4.000000,4.000000,4.000000,4.000000,100.000000,,,,,,,,,,,,,,,,
1644853360.551521,1644853360.566142,70.000000,0.000000,4229.871582,4218.589844,4217.820313,4198.461426,4214.358887,4218.333496,4221.794922,4222.307617,4220.897461,4230.128418,4215.128418,4216.538574,4232.051270,4200.256348,0.000000,4.000000,86.000000,,,,0.000000,4.000000,4.000000,4.000000,4.000000,4.000000,4.000000,4.000000,4.000000,4.000000,4.000000,4.000000,4.000000,4.000000,4.000000,100.000000,,,,,,,,,,,,,,,,
1644853360.555461,1644853360.570083,71.000000,0.000000,4228.205078,4220.769043,4216.794922,4205.769043,4220.384766,4217.948730,4218.717773,4223.461426,4222.820313,4235.000000,4222.948730,4212.563965,4230.128418,4203.077148,0.000000,4.000000,86.000000,,,,0.000000,4.000000,4.000000,4.000000,4.000000,4.000000,4.000000,4.000000,4.000000,4.000000,4.000000,4.000000,4.000000,4.000000,4.000000,100.000000,,,,,,,,,,,,,,,,
1644853360.559401,1644853360.574024,72.000000,0.000000,4224.230957,4218.589844,4214.358887,4215.128418,4221.410156,4217.307617,4215.897461,4222.436035,4222.692383,4236.538574,4227.179688,4207.051270,4225.769043,4202.563965,0.000000,4.000000,86.000000,,,,0.000000,4.000000,4.000000,4.000000,4.000000,4.000000,4.000000,4.000000,4.000000,4.000000,4.000000,4.000000,4.000000,4.000000,4.000000,100.000000,,,,,,,,,,,,,,,,
1644853360.563341,1644853360.577964,73.000000,0.000000,4217.179688,4212.436035,4212.051270,4221.410156,4215.897461,4216.410156,4215.512695,4219.487305,4220.256348,4234.487305,4225.641113,4202.948730,4218.589844,4197.179688,0.000000,4.000000,86.000000,,,,0.000000,4.000000,4.000000,4.000000,4.000000,4.000000,4.000000,4.000000,4.000000,4.000000,4.000000,4.000000,4.000000,4.000000,4.000000,100.000000,,,,,,,,,,,,,,,,
1644853360.567281,1644853360.581905,74.000000,0.000000,4207.563965,4205.256348,4211.410156,4220.769043,4207.051270,4215.512695,4217.307617,4215.897461,4216.794922,4229.743652,4218.589844,4201.538574,4210.384766,4190.000000,0.000000,4.000000,86.000000,,,,0.000000,4.000000,4.000000,4.000000,4.000000,4.000000,4.000000,4.000000,4.000000,4.000000,4.000000,4.000000,4.000000,4.000000,4.000000,100.000000,,,,,,,,,,,,,,,,
1644853360.571221,1644853360.585845,75.000000,0.000000,4198.589844,4201.025879,4212.563965,4213.077148,4200.512695,4215.128418,4218.461426,4213.077148,4214.615234,4224.487305,4207.820313,4202.563965,4205.512695,4186.153809,0.000000,4.000000,86.000000,,,,0.000000,4.000000,4.000000,4.000000,4.000000,4.000000,4.000000,4.000000,4.000000,4.000000,4.000000,4.000000,4.000000,4.000000,4.000000,100.000000,,,,,,,,,,,,,,,,
1644853360.575161,1644853360.589786,76.000000,0.000000,4194.743652,4202.051270,4214.102539,4202.563965,4201.282227,4215.769043,4218.077148,4212.307617,4214.743652,4220.256348,4196.538574,4204.358887,4207.563965,4188.461426,0.000000,4.000000,86.000000,,,,0.000000,4.000000,4.000000,4.000000,4.000000,4.000000,4.000000,4.000000,4.000000,4.000000,4.000000,4.000000,4.000000,4.000000,4.000000,100.000000,,,,,,,,,,,,,,,,
1644853360.579101,1644853360.593726,77.000000,0.000000,4198.974121,4206.666504,4213.717773,4194.871582,4209.102539,4217.051270,4217.179688,4213.717773,4216.282227,4217.436035,4189.358887,4205.128418,4215.641113,4194.487305,0.000000,4.000000,86.000000,,,,0.000000,4.000000,4.000000,4.000000,4.000000,4.000000,4.000000,4.000000,4.000000,4.000000,4.000000,4.000000,4.000000,4.000000,4.000000,100.000000,,,,,,,,,,,,,,,,
1644853360.583041,1644853360.597667,78.000000,0.000000,4209.230957,4211.282227,4210.256348,4193.077148,4218.974121,4218.077148,4217.563965,4217.179688,4217.179688,4215.512695,4190.000000,4203.461426,4224.102539,4198.717773,0.000000,4.000000,86.000000,,,,0.000000,4.000000,4.000000,4.000000,4.000000,4.000000,4.000000,4.000000,4.000000,4.000000,4.000000,4.000000,4.000000,4.000000,4.000000,100.000000,,,,,,,,,,,,,,,,
1644853360.586981,1644853360.601608,79.000000,0.000000,4219.230957,4212.692383,4205.000000,4196.025879,4224.743652,4218.077148,4218.974121,4221.025879,4216.538574,4213.974121,4198.461426,4199.615234,4226.538574,4197.307617,0.000000,4.000000,86.000000,,,,0.000000,4.000000,4.000000,4.000000,4.000000,4.000000,4.000000,4.000000,4.000000,4.000000,4.000000,4.000000,4.000000,4.000000,4.000000,100.000000,,,,,,,,,,,,,,,,
1644853360.590921,1644853360.605548,80.000000,0.000000,4222.692383,4210.769043,4200.897461,4200.000000,4223.589844,4217.179688,4219.615234,4222.820313,4215.384766,4213.717773,4209.615234,4195.769043,4222.179688,4191.538574,0.000000,4.000000,86.000000,,,,0.000000,4.000000,4.000000,4.000000,4.000000,4.000000,4.000000,4.000000,4.000000,4.000000,4.000000,4.000000,4.000000,4.000000,4.000000,100.000000,,,,,,,,,,,,,,,,
1644853360.594861,1644853360.609489,81.000000,0.000000,4218.717773,4208.205078,4200.897461,4202.307617,4217.692383,4216.410156,4218.846191,4221.666504,4215.897461,4216.410156,4216.922852,4194.487305,4217.307617,4186.922852,0.000000,4.000000,86.000000,,,,0.000000,4.000000,4.000000,4.000000,4.000000,4.000000,4.000000,4.000000,4.000000,4.000000,4.000000,4.000000,4.000000,4.000000,4.000000,100.000000,,,,,,,,,,,,,,,,
1644853360.598801,1644853360.613429,82.000000,0.000000,4213.205078,4208.461426,4205.512695,4203.717773,4212.436035,4216.538574,4218.333496,4219.230957,4218.974121,4223.205078,4217.179688,4197.307617,4220.000000,4188.717773,0.000000,4.000000,86.000000,,,,0.000000,4.000000,4.000000,4.000000,4.000000,4.000000,4.000000,4.000000,4.000000,4.000000,4.000000,4.000000,4.000000,4.000000,4.000000,100.000000,,,,,,,,,,,,,,,,
1644853360.602741,1644853360.617470,83.000000,0.000000,4212.820313,4212.692383,4212.692383,4206.410156,4211.410156,4217.820313,4219.358887,4218.333496,4223.461426,4232.436035,4213.717773,4204.102539,4232.307617,4196.410156,0.000000,4.000000,86.000000,,,,0.000000,4.000000,4.000000,4.000000,4.000000,4.000000,4.000000,4.000000,4.000000,4.000000,4.000000,4.000000,4.000000,4.000000,4.000000,100.000000,,,,,,,,,,,,,,,,
1644853360.606681,1644853360.621410,84.000000,0.000000,4218.717773,4218.333496,4218.846191,4211.025879,4215.256348,4219.615234,4221.282227,4220.641113,4227.179688,4241.025879,4213.333496,4212.179688,4247.820313,4204.487305,0.000000,4.000000,86.000000,,,,0.000000,4.000000,4.000000,4.000000,4.000000,4.000000,4.000000,4.000000,4.000000,4.000000,4.000000,4.000000,4.000000,4.000000,4.000000,100.000000,,,,,,,,,,,,,,,,
1644853360.610621,1644853360.625351,85.000000,0.000000,4225.512695,4221.410156,4221.282227,4216.666504,4221.025879,4221.153809,4222.307617,4224.615234,4228.717773,4245.641113,4220.256348,4217.948730,4256.666504,4207.692383,0.000000,4.000000,86.000000,,,,0.000000,4.000000,4.000000,4.000000,4.000000,4.000000,4.000000,4.000000,4.000000,4.000000,4.000000,4.000000,4.000000,4.000000,4.000000,100.000000,,,,,,,,,,,,,,,,
1644853360.614561,1644853360.629292,86.000000,0.000000,4226.922852,4220.256348,4220.000000,4221.153809,4225.512695,4221.410156,4221.282227,4227.563965,4228.333496,4244.871582,4231.282227,4218.333496,4253.717773,4205.384766,0.000000,4.000000,86.000000,,,,0.000000,4.000000,4.000000,4.000000,4.000000,4.000000,4.000000,4.000000,4.000000,4.000000,4.000000,4.000000,4.000000,4.000000,4.000000,100.000000,,,,,,,,,,,,,,,,
1644853360.618501,1644853360.633232,87.000000,0.000000,4222.051270,4216.794922,4217.051270,4222.692383,4227.307617,4220.769043,4219.487305,4227.179688,4226.666504,4240.641113,4238.205078,4213.333496,4242.179688,4201.922852,0.000000,4.000000,86.000000,,,,0.000000,4.000000,4.000000,4.000000,4.000000,4.000000,4.000000,4.000000,4.000000,4.000000,4.000000,4.000000,4.000000,4.000000,4.000000,100.000000,,,,,,,,,,,,,,,,
1644853360.622441,1644853360.637173,88.000000,0.000000,4216.153809,4214.615234,4214.871582,4221.282227,4227.307617,4219.487305,4218.589844,4223.717773,4224.871582,4236.410156,4235.000000,4205.769043,4231.410156,4201.153809,0.000000,4.000000,86.000000,,,,0.000000,4.000000,4.000000,4.000000,4.000000,4.000000,4.000000,4.000000,4.000000,4.000000,4.000000,4.000000,4.000000,4.000000,4.000000,100.000000,,,,,,,,,,,,,,,,
1644853360.626381,1644853360.641113,89.000000,0.000000,4215.512695,4216.410156,4214.871582,4217.948730,4227.692383,4218.461426,4218.461426,4219.230957,4223.461426,4234.358887,4223.589844,4200.384766,4228.846191,4203.974121,0.000000,4.000000,86.000000,,,,0.000000,4.000000,4.000000,4.000000,4.000000,4.000000,4.000000,4.000000,4.000000,4.000000,4.000000,4.000000,4.000000,4.000000,4.000000,100.000000,,,,,,,,,,,,,,,,
1644853360.630321,1644853360.645054,90.000000,0.000000,4221.282227,4221.794922,4216.282227,4215.000000,4230.000000,4218.077148,4217.436035,4216.153809,4222.563965,4233.846191,4212.692383,4200.000000,4235.000000,4207.563965,0.000000,4.000000,86.000000,,,,0.000000,4.000000,4.000000,4.000000,4.000000,4.000000,4.000000,4.000000,4.000000,4.000000,4.000000,4.000000,4.000000,4.000000,4.000000,100.000000,,,,,,,,,,,,,,,,
1644853360.634261,1644853360.648895,91.000000,0.000000,4228.589844,4227.563965,4217.692383,4213.333496,4233.717773,4218.461426,4215.128418,4215.256348,4221.922852,4232.436035,4210.769043,4203.846191,4242.820313,4208.333496,0.000000,4.000000,86.000000,2,1,0,0.000000,4.000000,4.000000,4.000000,4.000000,4.000000,4.000000,4.000000,4.000000,4.000000,4.000000,4.000000,4.000000,4.000000,4.000000,100.000000,,,,,,,,,,,,,,,,
1644853360.638201,1644853360.652835,92.000000,0.000000,4231.153809,4229.615234,4217.948730,4213.333496,4236.282227,4219.230957,4212.820313,4215.641113,4221.282227,4228.846191,4218.333496,4207.436035,4244.102539,4205.641113,0.000000,4.000000,86.000000,,,,0.000000,4.000000,4.000000,4.000000,4.000000,4.000000,4.000000,4.000000,4.000000,4.000000,4.000000,4.000000,4.000000,4.000000,4.000000,100.000000,,,,,,,,,,,,,,,,
1644853360.642141,1644853360.656776,93.000000,0.000000,4226.025879,4226.666504,4216.153809,4214.487305,4235.512695,4219.743652,4212.307617,4215.512695,4219.871582,4223.717773,4227.692383,4206.410156,4236.538574,4201.153809,0.000000,4.000000,86.000000,,,,0.000000,4.000000,4.000000,4.000000,4.000000,4.000000,4.000000,4.000000,4.000000,4.000000,4.000000,4.000000,4.000000,4.000000,4.000000,100.000000,,,,,,,,,,,,,,,,
1644853360.646081,1644853360.660716,94.000000,0.000000,4215.000000,4219.871582,4211.922852,4216.282227,4230.769043,4219.358887,4213.589844,4212.948730,4216.794922,4218.461426,4228.974121,4199.487305,4224.102539,4195.769043,0.000000,4.000000,86.000000,,,,0.000000,4.000000,4.000000,4.000000,4.000000,4.000000,4.000000,4.000000,4.000000,4.000000,4.000000,4.000000,4.000000,4.000000,4.000000,100.000000,,,,,,,,,,,,,,,,
1644853360.650021,1644853360.664657,95.000000,0.000000,4203.846191,4212.436035,4206.025879,4217.692383,4223.846191,4218.333496,4214.230957,4207.948730,4212.436035,4213.846191,4217.820313,4189.230957,4212.051270,4188.077148,0.000000,4.000000,86.000000,,,,0.000000,4.000000,4.000000,4.000000,4.000000,4.000000,4.000000,4.000000,4.000000,4.000000,4.000000,4.000000,4.000000,4.000000,4.000000,100.000000,,,,,,,,,,,,,,,,
1644853360.653961,1644853360.668598,96.000000,0.000000,4197.307617,4207.051270,4200.384766,4217.563965,4218.333496,4217.307617,4213.333496,4202.692383,4207.692383,4210.000000,4198.717773,4180.769043,4203.205078,4177.563965,0.000000,4.000000,86.000000,,,,0.000000,4.000000,4.000000,4.000000,4.000000,4.000000,4.000000,4.000000,4.000000,4.000000,4.000000,4.000000,4.000000,4.000000,4.000000,100.000000,,,,,,,,,,,,,,,,
1644853360.657901,1644853360.672538,97.000000,0.000000,4197.051270,4205.128418,4197.179688,4215.128418,4216.922852,4216.794922,4211.794922,4199.743652,4203.974121,4207.307617,4182.436035,4177.179688,4197.307617,4167.820313,0.000000,4.000000,86.000000,,,,0.000000,4.000000,4.000000,4.000000,4.000000,4.000000,4.000000,4.000000,4.000000,4.000000,4.000000,4.000000,4.000000,4.000000,4.000000,100.000000,,,,,,,,,,,,,,,,
1644853360.661841,1644853360.676479,98.000000,0.000000,4200.897461,4207.051270,4197.436035,4211.025879,4219.230957,4216.666504,4212.051270,4200.256348,4202.307617,4206.410156,4178.077148,4177.692383,4194.871582,4164.615234,0.000000,4.000000,86.000000,,,,0.000000,4.000000,4.000000,4.000000,4.000000,4.000000,4.000000,4.000000,4.000000,4.000000,4.000000,4.000000,4.000000,4.000000,4.000000,100.000000,,,,,,,,,,,,,,,,
1644853360.665781,1644853360.680419,99.000000,0.000000,4205.512695,4211.282227,4200.128418,4207.051270,4222.051270,4216.666504,4215.000000,4203.333496,4203.077148,4207.179688,4186.153809,4179.615234,4196.025879,4170.897461,0.000000,4.000000,86.000000,,,,0.000000,4.000000,4.000000,4.000000,4.000000,4.000000,4.000000,4.000000,4.000000,4.000000,4.000000,4.000000,4.000000,4.000000,4.000000,100.000000,,,,,,,,,,,,,,,,
1644853360.669721,1644853360.684360,100.000000,0.000000,4208.461426,4215.769043,4202.692383,4205.000000,4222.948730,4216.922852,4218.461426,4206.922852,4205.897461,4209.743652,4199.230957,4181.153809,4200.641113,4182.820313,0.000000,4.000000,86.000000,,,,0.000000,4.000000,4.000000,4.000000,4.000000,4.000000,4.000000,4.000000,4.000000,4.000000,4.000000,4.000000,4.000000,4.000000,4.000000,100.000000,,,,,,,,,,,,,,,,
1644853360.673661,1644853360.688300,101.000000,0.000000,4209.102539,4218.077148,4203.077148,4205.128418,4221.922852,4216.922852,4220.000000,4210.256348,4209.743652,4213.589844,4207.820313,4182.436035,4207.179688,4193.205078,0.000000,4.000000,86.000000,,,,0.000000,4.000000,4.000000,4.000000,4.000000,4.000000,4.000000,4.000000,4.000000,4.000000,4.000000,4.000000,4.000000,4.000000,4.000000,100.000000,,,,,,,,,,,,,,,,
1644853360.677601,1644853360.692241,102.000000,0.000000,4208.205078,4217.820313,4201.025879,4206.922852,4220.512695,4216.666504,4219.230957,4213.589844,4212.692383,4217.051270,4207.436035,4184.871582,4213.846191,4196.666504,0.000000,4.000000,86.000000,,,,0.000000,4.000000,4.000000,4.000000,4.000000,4.000000,4.000000,4.000000,4.000000,4.000000,4.000000,4.000000,4.000000,4.000000,4.000000,100.000000,,,,,,,,,,,,,,,,
1644853360.681541,1644853360.696182,103.000000,0.000000,4207.307617,4215.897461,4198.846191,4209.102539,4219.743652,4215.769043,4218.333496,4216.794922,4214.102539,4218.717773,4201.410156,4189.230957,4218.846191,4193.333496,0.000000,4.000000,86.000000,,,,0.000000,4.000000,4.000000,4.000000,4.000000,4.000000,4.000000,4.000000,4.000000,4.000000,4.000000,4.000000,4.000000,4.000000,4.000000,100.000000,,,,,,,,,,,,,,,,
1644853360.685481,1644853360.700122,104.000000,0.000000,4207.692383,4214.358887,4199.487305,4210.897461,4220.897461,4215.256348,4219.615234,4218.846191,4215.000000,4218.846191,4196.282227,4194.743652,4222.179688,4187.563965,0.000000,4.000000,86.000000,,,,0.000000,4.000000,4.000000,4.000000,4.000000,4.000000,4.000000,4.000000,4.000000,4.000000,4.000000,4.000000,4.000000,4.000000,4.000000,100.000000,,,,,,,,,,,,,,,,
1644853360.689421,1644853360.703963,105.000000,0.000000,4209.615234,4215.128418,4204.102539,4212.563965,4224.230957,4216.410156,4222.307617,4218.974121,4216.282227,4218.974121,4197.307617,4200.000000,4224.102539,4183.717773,0.000000,4.000000,86.000000,,,,0.000000,4.000000,4.000000,4.000000,4.000000,4.000000,4.000000,4.000000,4.000000,4.000000,4.000000,4.000000,4.000000,4.000000,4.000000,100.000000,,,,,,,,,,,,,,,,
1644853360.693361,1644853360.707903,106.000000,0.000000,4212.820313,4218.461426,4210.128418,4213.717773,4228.974121,4219.615234,4224.102539,4217.692383,4218.077148,4220.512695,4204.615234,4203.717773,4225.256348,4182.948730,0.000000,4.000000,86.000000,,,,0.000000,4.000000,4.000000,4.000000,4.000000,4.000000,4.000000,4.000000,4.000000,4.000000,4.000000,4.000000,4.000000,4.000000,4.000000,100.000000,1.000000,100.000000,4.000000,4.000000,4.000000,4.000000,4.000000,4.000000,4.000000,4.000000,4.000000,4.000000,4.000000,4.000000,4.000000,4.000000
1644853360.697301,1644853360.711844,107.000000,0.000000,4216.282227,4221.922852,4213.974121,4213.205078,4232.948730,4223.717773,4223.846191,4216.282227,4218.846191,4223.205078,4214.230957,4205.256348,4225.769043,4184.743652,0.000000,4.000000,86.000000,,,,0.000000,4.000000,4.000000,4.000000,4.000000,4.000000,4.000000,4.000000,4.000000,4.000000,4.000000,4.000000,4.000000,4.000000,4.000000,100.000000,,,,,,,,,,,,,,,,
1644853360.701241,1644853360.715785,108.000000,0.000000,4218.333496,4223.205078,4213.846191,4210.000000,4233.461426,4227.051270,4222.563965,4215.897461,4217.563965,4224.615234,4221.025879,4204.743652,4225.256348,4187.307617,0.000000,4.000000,86.000000,,,,0.000000,4.000000,4.000000,4.000000,4.000000,4.000000,4.000000,4.000000,4.000000,4.000000,4.000000,4.000000,4.000000,4.000000,4.000000,100.000000,,,,,,,,,,,,,,,,
1644853360.705181,1644853360.719725,109.000000,0.000000,4218.461426,4221.153809,4210.897461,4204.487305,4230.384766,4228.077148,4222.179688,4216.666504,4214.358887,4222.692383,4221.794922,4202.563965,4223.589844,4188.461426,0.000000,4.000000,86.000000,,,,0.000000,4.000000,4.000000,4.000000,4.000000,4.000000,4.000000,4.000000,4.000000,4.000000,4.000000,4.000000,4.000000,4.000000,4.000000,100.000000,,,,,,,,,,,,,,,,
1644853360.709121,1644853360.723666,110.000000,0.000000,4216.794922,4217.051270,4208.077148,4199.743652,4226.282227,4226.538574,4222.692383,4217.307617,4211.538574,4218.589844,4216.666504,4199.230957,4221.025879,4187.436035,0.000000,4.000000,86.000000,,,,0.000000,4.000000,4.000000,4.000000,4.000000,4.000000,4.000000,4.000000,4.000000,4.000000,4.000000,4.000000,4.000000,4.000000,4.000000,100.000000,,,,,,,,,,,,,,,,
1644853360.713061,1644853360.727606,111.000000,0.000000,4213.717773,4213.461426,4207.436035,4198.846191,4224.230957,4223.589844,4222.307617,4216.282227,4211.410156,4215.769043,4208.589844,4196.410156,4218.461426,4185.000000,0.000000,4.000000,86.000000,,,,0.000000,4.000000,4.000000,4.000000,4.000000,4.000000,4.000000,4.000000,4.000000,4.000000,4.000000,4.000000,4.000000,4.000000,4.000000,100.000000,,,,,,,,,,,,,,,,
1644853360.717001,1644853360.731547,112.000000,0.000000,4209.743652,4211.922852,4209.102539,4202.436035,4225.384766,4220.641113,4220.256348,4213.974121,4214.743652,4216.538574,4201.410156,4194.871582,4217.563965,4184.102539,0.000000,4.000000,86.000000,,,,0.000000,4.000000,4.000000,4.000000,4.000000,4.000000,4.000000,4.000000,4.000000,4.000000,4.000000,4.000000,4.000000,4.000000,4.000000,100.000000,,,,,,,,,,,,,,,,
1644853360.720941,1644853360.735488,113.000000,0.000000,4205.897461,4212.307617,4212.307617,4207.948730,4227.948730,4218.846191,4218.077148,4212.820313,4220.000000,4219.358887,4198.205078,4195.384766,4218.717773,4186.794922,0.000000,4.000000,86.000000,3,1,0,0.000000,4.000000,4.000000,4.000000,4.000000,4.000000,4.000000,4.000000,4.000000,4.000000,4.000000,4.000000,4.000000,4.000000,4.000000,100.000000,,,,,,,,,,,,,,,,
1644853360.724881,1644853360.739428,114.000000,0.000000,4205.000000,4213.974121,4215.512695,4212.307617,4229.358887,4218.846191,4217.051270,4214.615234,4224.102539,4221.410156,4200.128418,4197.051270,4221.153809,4192.563965,0.000000,4.000000,86.000000,,,,0.000000,4.000000,4.000000,4.000000,4.000000,4.000000,4.000000,4.000000,4.000000,4.000000,4.000000,4.000000,4.000000,4.000000,4.000000,100.000000,,,,,,,,,,,,,,,,
1644853360.728821,1644853360.743369,115.000000,0.000000,4209.102539,4216.410156,4217.307617,4214.230957,4228.846191,4220.128418,4217.179688,4218.974121,4225.512695,4221.922852,4206.538574,4198.461426,4223.589844,4198.589844,0.000000,4.000000,86.000000,,,,0.000000,4.000000,4.000000,4.000000,4.000000,4.000000,4.000000,4.000000,4.000000,4.000000,4.000000,4.000000,4.000000,4.000000,4.000000,100.000000,,,,,,,,,,,,,,,,
1644853360.732761,1644853360.747309,116.000000,0.000000,4217.436035,4219.102539,4217.179688,4214.615234,4227.948730,4221.794922,4217.436035,4222.820313,4224.615234,4222.307617,4214.615234,4197.820313,4225.384766,4202.051270,0.000000,4.000000,86.000000,,,,0.000000,4.000000,4.000000,4.000000,4.000000,4.000000,4.000000,4.000000,4.000000,4.000000,4.000000,4.000000,4.000000,4.000000,4.000000,100.000000,,,,,,,,,,,,,,,,
1644853360.736701,1644853360.751250,117.000000,0.000000,4224.743652,4221.025879,4215.256348,4214.743652,4228.461426,4222.948730,4217.051270,4223.974121,4222.692383,4223.461426,4219.358887,4194.615234,4226.282227,4201.282227,0.000000,4.000000,86.000000,,,,0.000000,4.000000,4.000000,4.000000,4.000000,4.000000,4.000000,4.000000,4.000000,4.000000,4.000000,4.000000,4.000000,4.000000,4.000000,100.000000,,,,,,,,,,,,,,,,
1644853360.740641,1644853360.755190,118.000000,0.000000,4226.025879,4221.153809,4212.948730,4213.589844,4230.384766,4223.077148,4216.922852,4222.692383,4221.282227,4224.615234,4217.307617,4190.128418,4225.512695,4196.153809,0.000000,4.000000,86.000000,,,,0.000000,4.000000,4.000000,4.000000,4.000000,4.000000,4.000000,4.000000,4.000000,4.000000,4.000000,4.000000,4.000000,4.000000,4.000000,100.000000,,,,,,,,,,,,,,,,
1644853360.744581,1644853360.759131,119.000000,0.000000,4219.871582,4218.589844,4210.897461,4208.589844,4231.794922,4222.051270,4217.563965,4220.641113,4221.410156,4224.230957,4208.717773,4186.922852,4221.282227,4188.589844,0.000000,4.000000,86.000000,,,,0.000000,4.000000,4.000000,4.000000,4.000000,4.000000,4.000000,4.000000,4.000000,4.000000,4.000000,4.000000,4.000000,4.000000,4.000000,100.000000,,,,,,,,,,,,,,,,
1644853360.748521,1644853360.763072,120.000000,0.000000,4209.230957,4213.717773,4208.717773,4198.974121,4230.897461,4220.256348,4218.077148,4219.743652,4222.436035,4222.179688,4199.358887,4186.153809,4214.487305,4181.922852,0.000000,4.000000,86.000000,,,,0.000000,4.000000,4.000000,4.000000,4.000000,4.000000,4.000000,4.000000,4.000000,4.000000,4.000000,4.000000,4.000000,4.000000,4.000000,100.000000,,,,,,,,,,,,,,,,
1644853360.752461,1644853360.767012,121.000000,0.000000,4199.487305,4207.692383,4206.538574,4187.948730,4227.820313,4218.205078,4217.307617,4219.871582,4223.205078,4220.128418,4195.384766,4187.563965,4208.717773,4179.230957,0.000000,4.000000,86.000000,,,,0.000000,4.000000,4.000000,4.000000,4.000000,4.000000,4.000000,4.000000,4.000000,4.000000,4.000000,4.000000,4.000000,4.000000,4.000000,100.000000,,,,,,,,,,,,,,,,
1644853360.756401,1644853360.770953,122.000000,0.000000,4194.358887,4202.563965,4204.743652,4181.282227,4224.871582,4216.794922,4215.897461,4220.000000,4222.563965,4219.487305,4198.461426,4189.358887,4208.077148,4181.282227,0.000000,4.000000,86.000000,,,,0.000000,4.000000,4.000000,4.000000,4.000000,4.000000,4.000000,4.000000,4.000000,4.000000,4.000000,4.000000,4.000000,4.000000,4.000000,100.000000,,,,,,,,,,,,,,,,
1644853360.760341,1644853360.774893,123.000000,0.000000,4194.871582,4199.487305,4203.974121,4183.974121,4224.615234,4216.922852,4215.897461,4218.846191,4220.384766,4219.230957,4203.717773,4189.871582,4212.051270,4186.282227,0.000000,4.000000,86.000000,,,,0.000000,4.000000,4.000000,4.000000,4.000000,4.000000,4.000000,4.000000,4.000000,4.000000,4.000000,4.000000,4.000000,4.000000,4.000000,100.000000,,,,,,,,,,,,,,,,
1644853360.764281,1644853360.778734,124.000000,0.000000,4199.230957,4198.717773,4203.846191,4194.743652,4227.436035,4218.205078,4218.077148,4216.282227,4217.051270,4217.436035,4204.871582,4188.717773,4217.051270,4190.384766,0.000000,4.000000,86.000000,,,,0.000000,4.000000,4.000000,4.000000,4.000000,4.000000,4.000000,4.000000,4.000000,4.000000,4.000000,4.000000,4.000000,4.000000,4.000000,100.000000,,,,,,,,,,,,,,,,
1644853360.768221,1644853360.782675,125.000000,0.000000,4203.333496,4199.743652,4202.820313,4205.512695,4229.871582,4219.615234,4220.384766,4213.333496,4214.102539,4213.846191,4200.512695,4186.666504,4218.717773,4190.769043,0.000000,4.000000,86.000000,,,,0.000000,4.000000,4.000000,4.000000,4.000000,4.000000,4.000000,4.000000,4.000000,4.000000,4.000000,4.000000,4.000000,4.000000,4.000000,100.000000,,,,,,,,,,,,,,,,
1644853360.772161,1644853360.786615,126.000000,0.000000,4204.358887,4201.794922,4200.256348,4207.051270,4227.563965,4219.743652,4220.000000,4211.282227,4212.948730,4210.769043,4194.871582,4185.128418,4216.282227,4187.948730,0.000000,4.000000,86.000000,,,,0.000000,4.000000,4.000000,4.000000,4.000000,4.000000,4.000000,4.000000,4.000000,4.000000,4.000000,4.000000,4.000000,4.000000,4.000000,100.000000,,,,,,,,,,,,,,,,
1644853360.776101,1644853360.790556,127.000000,0.000000,4202.179688,4204.358887,4197.307617,4196.410156,4220.512695,4218.461426,4216.922852,4210.641113,4214.358887,4211.794922,4193.717773,4185.128418,4212.179688,4184.743652,0.000000,4.000000,86.000000,,,,0.000000,4.000000,4.000000,4.000000,4.000000,4.000000,4.000000,4.000000,4.000000,4.000000,4.000000,4.000000,4.000000,4.000000,4.000000,100.000000,,,,,,,,,,,,,,,,
1644853360.780041,1644853360.794496,128.000000,0.000000,4199.102539,4206.538574,4196.410156,4180.769043,4214.230957,4217.307617,4213.974121,4212.051270,4217.692383,4217.563965,4199.487305,4187.051270,4210.000000,4183.717773,3418.000000,4.000000,86.000000,,,,0.000000,4.000000,4.000000,4.000000,4.000000,4.000000,4.000000,4.000000,4.000000,4.000000,4.000000,4.000000,4.000000,4.000000,4.000000,100.000000,,,,,,,,,,,,,,,,
1644853360.783981,1644853360.798437,129.000000,0.000000,4197.307617,4207.436035,4198.205078,4172.948730,4214.615234,4217.692383,4213.589844,4215.128418,4221.410156,4224.871582,4209.230957,4190.512695,4212.820313,4185.128418,3316.000000,4.000000,86.000000,,,,0.000000,4.000000,4.000000,4.000000,4.000000,4.000000,4.000000,4.000000,4.000000,4.000000,4.000000,4.000000,4.000000,4.000000,4.000000,100.000000,,,,,,,,,,,,,,,,
1644853360.787921,1644853360.802378,130.000000,0.000000,4197.948730,4206.410156,4201.025879,4180.769043,4222.051270,4219.230957,4215.000000,4218.205078,4223.717773,4229.615234,4218.205078,4195.256348,4221.282227,4186.922852,3546.000000,4.000000,86.000000,,,,0.000000,4.000000,4.000000,4.000000,4.000000,4.000000,4.000000,4.000000,4.000000,4.000000,4.000000,4.000000,4.000000,4.000000,4.000000,100.000000,,,,,,,,,,,,,,,,
1644853360.791861,1644853360.806318,131.000000,0.000000,4199.871582,4204.102539,4202.436035,4200.769043,4230.000000,4220.512695,4215.256348,4218.974121,4223.717773,4230.128418,4223.205078,4200.128418,4232.179688,4187.436035,3522.000000,4.000000,86.000000,,,,0.000000,4.000000,4.000000,4.000000,4.000000,4.000000,4.000000,4.000000,4.000000,4.000000,4.000000,4.000000,4.000000,4.000000,4.000000,100.000000,,,,,,,,,,,,,,,,
1644853360.795801,1644853360.810359,132.000000,0.000000,4201.410156,4201.922852,4201.538574,4220.384766,4230.256348,4220.128418,4212.692383,4216.538574,4221.282227,4227.436035,4222.948730,4203.333496,4239.487305,4186.922852,3336.000000,4.000000,86.000000,,,,0.000000,4.000000,4.000000,4.000000,4.000000,4.000000,4.000000,4.000000,4.000000,4.000000,4.000000,4.000000,4.000000,4.000000,4.000000,100.000000,,,,,,,,,,,,,,,,
1644853360.799741,1644853360.814299,133.000000,0.000000,4201.794922,4201.025879,4200.000000,4227.820313,4220.512695,4218.333496,4209.358887,4212.563965,4217.436035,4223.589844,4218.846191,4203.461426,4238.461426,4187.051270,3341.000000,4.000000,86.000000,,,,0.000000,4.000000,4.000000,4.000000,4.000000,4.000000,4.000000,4.000000,4.000000,4.000000,4.000000,4.000000,4.000000,4.000000,4.000000,100.000000,,,,,,,,,,,,,,,,
1644853360.803681,1644853360.818240,134.000000,0.000000,4202.692383,4201.922852,4200.512695,4220.512695,4206.538574,4215.769043,4207.820313,4210.000000,4213.589844,4220.384766,4213.717773,4200.512695,4229.487305,4189.871582,2646.000000,4.000000,86.000000,,,,0.000000,4.000000,4.000000,4.000000,4.000000,4.000000,4.000000,4.000000,4.000000,4.000000,4.000000,4.000000,4.000000,4.000000,4.000000,100.000000,,,,,,,,,,,,,,,,
1644853360.807621,1644853360.822180,135.000000,0.000000,4206.025879,4204.615234,4204.102539,4206.025879,4198.077148,4214.102539,4209.102539,4210.641113,4212.179688,4219.102539,4210.641113,4197.179688,4219.358887,4195.769043,2779.000000,4.000000,86.000000,,,,0.000000,4.000000,4.000000,4.000000,4.000000,4.000000,4.000000,4.000000,4.000000,4.000000,4.000000,4.000000,4.000000,4.000000,4.000000,100.000000,,,,,,,,,,,,,,,,
1644853360.811561,1644853360.826121,136.000000,0.000000,4213.205078,4208.717773,4209.615234,4195.897461,4201.794922,4214.871582,4211.410156,4214.743652,4214.487305,4220.641113,4211.794922,4197.179688,4215.897461,4203.461426,3276.000000,4.000000,86.000000,,,,0.000000,4.000000,4.000000,4.000000,4.000000,4.000000,4.000000,4.000000,4.000000,4.000000,4.000000,4.000000,4.000000,4.000000,4.000000,100.000000,,,,,,,,,,,,,,,,
1644853360.815501,1644853360.830061,137.000000,0.000000,4223.589844,4213.461426,4215.000000,4196.538574,4215.769043,4218.077148,4213.589844,4220.769043,4219.615234,4225.256348,4217.307617,4202.692383,4222.051270,4210.641113,3570.000000,4.000000,86.000000,,,,0.000000,4.000000,4.000000,4.000000,4.000000,4.000000,4.000000,4.000000,4.000000,4.000000,4.000000,4.000000,4.000000,4.000000,4.000000,100.000000,,,,,,,,,,,,,,,,
1644853360.819441,1644853360.834002,138.000000,0.000000,4234.102539,4217.820313,4218.974121,4206.538574,4230.641113,4222.307617,4215.641113,4225.897461,4225.512695,4232.051270,4225.128418,4212.179688,4233.974121,4215.897461,3344.000000,4.000000,86.000000,,,,0.000000,4.000000,4.000000,4.000000,4.000000,4.000000,4.000000,4.000000,4.000000,4.000000,4.000000,4.000000,4.000000,4.000000,4.000000,100.000000,,,,,,,,,,,,,,,,
1644853360.823381,1644853360.837943,139.000000,0.000000,4240.512695,4220.641113,4221.153809,4218.589844,4236.666504,4225.256348,4217.692383,4227.436035,4229.487305,4238.461426,4231.666504,4220.897461,4245.128418,4219.358887,3161.000000,4.000000,86.000000,,,,0.000000,4.000000,4.000000,4.000000,4.000000,4.000000,4.000000,4.000000,4.000000,4.000000,4.000000,4.000000,4.000000,4.000000,4.000000,100.000000,,,,,,,,,,,,,,,,
1644853360.827321,1644853360.841883,140.000000,0.000000,4239.358887,4221.153809,4222.307617,4225.512695,4231.666504,4225.384766,4218.205078,4224.487305,4230.128418,4241.153809,4233.461426,4224.230957,4250.641113,4220.897461,3222.000000,4.000000,86.000000,,,,0.000000,4.000000,4.000000,4.000000,4.000000,4.000000,4.000000,4.000000,4.000000,4.000000,4.000000,4.000000,4.000000,4.000000,4.000000,100.000000,,,,,,,,,,,,,,,,
1644853360.831261,1644853360.845824,141.000000,0.000000,4230.897461,4219.358887,4223.205078,4224.358887,4222.051270,4222.820313,4215.256348,4219.230957,4227.692383,4238.333496,4229.487305,4220.897461,4249.230957,4220.128418,3486.000000,4.000000,86.000000,,,,0.000000,4.000000,4.000000,4.000000,4.000000,4.000000,4.000000,4.000000,4.000000,4.000000,4.000000,4.000000,4.000000,4.000000,4.000000,100.000000,,,,,,,,,,,,,,,,
1644853360.835201,1644853360.849764,142.000000,0.000000,4219.743652,4216.282227,4224.358887,4217.948730,4216.922852,4219.358887,4209.615234,4215.128418,4223.846191,4231.282227,4222.051270,4213.846191,4242.563965,4216.410156,3344.000000,4.000000,86.000000,,,,0.000000,4.000000,4.000000,4.000000,4.000000,4.000000,4.000000,4.000000,4.000000,4.000000,4.000000,4.000000,4.000000,4.000000,4.000000,100.000000,,,,,,,,,,,,,,,,
1644853360.839141,1644853360.853705,143.000000,0.000000,4212.563965,4213.717773,4225.128418,4211.538574,4219.487305,4216.922852,4204.871582,4214.743652,4220.128418,4224.487305,4214.743652,4207.563965,4233.333496,4210.769043,3161.000000,4.000000,86.000000,,,,0.000000,4.000000,4.000000,4.000000,4.000000,4.000000,4.000000,4.000000,4.000000,4.000000,4.000000,4.000000,4.000000,4.000000,4.000000,100.000000,,,,,,,,,,,,,,,,
1644853360.843081,1644853360.857646,144.000000,0.000000,4213.205078,4212.948730,4224.743652,4208.974121,4225.897461,4216.025879,4204.230957,4217.436035,4217.436035,4221.922852,4210.769043,4205.000000,4223.846191,4205.000000,3222.000000,4.000000,86.000000,,,,0.000000,4.000000,4.000000,4.000000,4.000000,4.000000,4.000000,4.000000,4.000000,4.000000,4.000000,4.000000,4.000000,4.000000,4.000000,100.000000,,,,,,,,,,,,,,,,
1644853360.847021,1644853360.861586,145.000000,0.000000,4220.641113,4213.974121,4222.948730,4210.641113,4229.487305,4215.769043,4207.307617,4220.512695,4215.641113,4223.717773,4210.000000,4206.282227,4215.897461,4200.512695,3486.000000,4.000000,86.000000,,,,0.000000,4.000000,4.000000,4.000000,4.000000,4.000000,4.000000,4.000000,4.000000,4.000000,4.000000,4.000000,4.000000,4.000000,4.000000,100.000000,,,,,,,,,,,,,,,,
1644853360.850961,1644853360.865527,146.000000,0.000000,4230.384766,4215.897461,4220.256348,4214.487305,4227.179688,4215.128418,4210.000000,4220.769043,4214.487305,4226.794922,4210.897461,4208.717773,4211.153809,4196.794922,3344.000000,4.000000,86.000000,,,,0.000000,4.000000,4.000000,4.000000,4.000000,4.000000,4.000000,4.000000,4.000000,4.000000,4.000000,4.000000,4.000000,4.000000,4.000000,100.000000,,,,,,,,,,,,,,,,
1644853360.854901,1644853360.869467,147.000000,0.000000,4237.179688,4217.692383,4217.820313,4217.948730,4221.025879,4214.358887,4209.615234,4217.692383,4214.102539,4227.179688,4212.563965,4209.102539,4211.025879,4193.717773,3161.000000,4.000000,86.000000,,,,0.000000,4.000000,4.000000,4.000000,4.000000,4.000000,4.000000,4.000000,4.000000,4.000000,4.000000,4.000000,4.000000,4.000000,4.000000,100.000000,,,,,,,,,,,,,,,,
1644853360.858841,1644853360.873408,148.000000,0.000000,4237.692383,4218.974121,4216.538574,4218.974121,4215.769043,4214.487305,4207.307617,4213.589844,4214.871582,4223.974121,4215.641113,4206.025879,4216.666504,4192.563965,3222.000000,4.000000,86.000000,,,,0.000000,4.000000,4.000000,4.000000,4.000000,4.000000,4.000000,4.000000,4.000000,4.000000,4.000000,4.000000,4.000000,4.000000,4.000000,100.000000,,,,,,,,,,,,,,,,
1644853360.862781,1644853360.877348,149.000000,0.000000,4231.025879,4219.487305,4216.794922,4217.563965,4215.256348,4216.794922,4206.538574,4212.179688,4217.820313,4220.384766,4220.897461,4201.153809,4227.307617,4195.641113,3486.000000,4.000000,86.000000,,,,0.000000,4.000000,4.000000,4.000000,4.000000,4.000000,4.000000,4.000000,4.000000,4.000000,4.000000,4.000000,4.000000,4.000000,4.000000,100.000000,,,,,,,,,,,,,,,,
1644853360.866721,1644853360.881189,150.000000,0.000000,4219.487305,4219.487305,4217.563965,4215.512695,4219.871582,4221.538574,4209.615234,4215.000000,4223.333496,4221.666504,4226.666504,4198.205078,4239.743652,4203.589844,3344.000000,4.000000,86.000000,,,,0.000000,4.000000,4.000000,4.000000,4.000000,4.000000,4.000000,4.000000,4.000000,4.000000,4.000000,4.000000,4.000000,4.000000,4.000000,100.000000,,,,,,,,,,,,,,,,
1644853360.870661,1644853360.885130,151.000000,0.000000,4207.563965,4219.230957,4217.692383,4215.000000,4227.436035,4227.563965,4215.128418,4220.769043,4230.000000,4230.000000,4230.000000,4200.256348,4248.077148,4213.077148,3161.000000,4.000000,86.000000,,,,0.000000,4.000000,4.000000,4.000000,4.000000,4.000000,4.000000,4.000000,4.000000,4.000000,4.000000,4.000000,4.000000,4.000000,4.000000,100.000000,,,,,,,,,,,,,,,,
1644853360.874601,1644853360.889070,152.000000,0.000000,4201.282227,4219.615234,4217.051270,4217.436035,4233.589844,4232.563965,4220.256348,4226.410156,4235.897461,4241.538574,4228.589844,4206.922852,4247.948730,4218.717773,3222.000000,4.000000,86.000000,,,,0.000000,4.000000,4.000000,4.000000,4.000000,4.000000,4.000000,4.000000,4.000000,4.000000,4.000000,4.000000,4.000000,4.000000,4.000000,100.000000,,,,,,,,,,,,,,,,
1644853360.878541,1644853360.893011,153.000000,0.000000,4203.846191,4221.153809,4216.410156,4222.051270,4235.384766,4234.487305,4223.589844,4229.487305,4238.333496,4249.615234,4224.358887,4214.871582,4239.615234,4216.922852,3486.000000,4.000000,86.000000,,,,0.000000,4.000000,4.000000,4.000000,4.000000,4.000000,4.000000,4.000000,4.000000,4.000000,4.000000,4.000000,4.000000,4.000000,4.000000,100.000000,,,,,,,,,,,,,,,,
1644853360.882481,1644853360.896951,154.000000,0.000000,4213.717773,4224.230957,4217.307617,4226.922852,4232.948730,4233.077148,4224.743652,4229.615234,4236.410156,4251.025879,4221.922852,4220.384766,4229.743652,4209.743652,3344.000000,4.000000,86.000000,,,,0.000000,4.000000,4.000000,4.000000,4.000000,4.000000,4.000000,4.000000,4.000000,4.000000,4.000000,4.000000,4.000000,4.000000,4.000000,100.000000,,,,,,,,,,,,,,,,
1644853360.886421,1644853360.900892,155.000000,0.000000,4225.384766,4228.205078,4220.384766,4230.256348,4229.871582,4230.512695,4224.230957,4228.333496,4232.051270,4248.205078,4224.743652,4221.794922,4226.538574,4203.077148,3161.000000,4.000000,86.000000,,,,0.000000,4.000000,4.000000,4.000000,4.000000,4.000000,4.000000,4.000000,4.000000,4.000000,4.000000,4.000000,4.000000,4.000000,4.000000,100.000000,,,,,,,,,,,,,,,,
1644853360.890360,1644853360.904833,156.000000,0.000000,4233.717773,4231.666504,4223.974121,4231.922852,4229.743652,4229.743652,4222.436035,4227.692383,4229.743652,4246.538574,4231.666504,4220.000000,4233.589844,4202.051270,3222.000000,4.000000,86.000000,,,,0.000000,4.000000,4.000000,4.000000,4.000000,4.000000,4.000000,4.000000,4.000000,4.000000,4.000000,4.000000,4.000000,4.000000,4.000000,100.000000,,,,,,,,,,,,,,,,
1644853360.894301,1644853360.908773,157.000000,0.000000,4235.897461,4232.307617,4225.897461,4232.692383,4232.692383,4232.051270,4220.384766,4228.846191,4232.051270,4248.461426,4238.461426,4217.307617,4246.282227,4207.692383,3486.000000,4.000000,86.000000,,,,0.000000,4.000000,4.000000,4.000000,4.000000,4.000000,4.000000,4.000000,4.000000,4.000000,4.000000,4.000000,4.000000,4.000000,4.000000,100.000000,,,,,,,,,,,,,,,,
1644853360.898241,1644853360.912714,158.000000,0.000000,4232.179688,4228.589844,4225.128418,4233.205078,4235.256348,4235.512695,4219.615234,4230.512695,4237.436035,4251.538574,4241.153809,4215.256348,4255.512695,4216.153809,3344.000000,4.000000,86.000000,,,,0.000000,4.000000,4.000000,4.000000,4.000000,4.000000,4.000000,4.000000,4.000000,4.000000,4.000000,4.000000,4.000000,4.000000,4.000000,100.000000,,,,,,,,,,,,,,,,
1644853360.902181,1644853360.916654,159.000000,0.000000,4224.615234,4220.769043,4222.563965,4232.692383,4233.974121,4236.410156,4220.256348,4231.282227,4242.307617,4251.922852,4238.974121,4214.102539,4255.256348,4221.922852,3161.000000,4.000000,86.000000,,,,0.000000,4.000000,4.000000,4.000000,4.000000,4.000000,4.000000,4.000000,4.000000,4.000000,4.000000,4.000000,4.000000,4.000000,4.000000,100.000000,,,,,,,,,,,,,,,,
1644853360.906121,1644853360.920595,160.000000,0.000000,4216.282227,4212.307617,4220.128418,4229.871582,4228.846191,4232.820313,4221.025879,4230.769043,4243.589844,4248.589844,4234.102539,4214.102539,4246.538574,4221.794922,3222.000000,4.000000,86.000000,,,,0.000000,4.000000,4.000000,4.000000,4.000000,4.000000,4.000000,4.000000,4.000000,4.000000,4.000000,4.000000,4.000000,4.000000,4.000000,100.000000,,,,,,,,,,,,,,,,
1644853360.910061,1644853360.924536,161.000000,0.000000,4209.871582,4207.820313,4219.487305,4224.743652,4222.307617,4226.794922,4220.256348,4230.000000,4241.410156,4244.102539,4229.743652,4215.384766,4236.410156,4217.051270,3486.000000,4.000000,86.000000,,,,0.000000,4.000000,4.000000,4.000000,4.000000,4.000000,4.000000,4.000000,4.000000,4.000000,4.000000,4.000000,4.000000,4.000000,4.000000,100.000000,,,,,,,,,,,,,,,,
1644853360.914001,1644853360.928476,162.000000,0.000000,4207.436035,4209.615234,4220.512695,4219.102539,4218.205078,4222.179688,4218.205078,4230.000000,4238.205078,4241.922852,4228.205078,4217.307617,4231.410156,4212.307617,3344.000000,4.000000,86.000000,,,,0.000000,4.000000,4.000000,4.000000,4.000000,4.000000,4.000000,4.000000,4.000000,4.000000,4.000000,4.000000,4.000000,4.000000,4.000000,100.000000,,,,,,,,,,,,,,,,
1644853360.917941,1644853360.932417,163.000000,0.000000,4208.461426,4215.641113,4221.794922,4214.743652,4218.846191,4221.666504,4216.794922,4231.025879,4236.153809,4241.410156,4228.589844,4218.717773,4232.563965,4210.897461,3161.000000,4.000000,86.000000,,,,0.000000,4.000000,4.000000,4.000000,4.000000,4.000000,4.000000,4.000000,4.000000,4.000000,4.000000,4.000000,4.000000,4.000000,4.000000,100.000000,,,,,,,,,,,,,,,,
1644853360.921881,1644853360.936357,164.000000,0.000000,4210.641113,4221.025879,4221.538574,4213.077148,4224.358887,4223.974121,4217.692383,4232.051270,4235.000000,4239.230957,4228.205078,4218.077148,4235.256348,4211.922852,3222.000000,4.000000,86.000000,,,,0.000000,4.000000,4.000000,4.000000,4.000000,4.000000,4.000000,4.000000,4.000000,4.000000,4.000000,4.000000,4.000000,4.000000,4.000000,100.000000,,,,,,,,,,,,,,,,
1644853360.925820,1644853360.940298,165.000000,0.000000,4212.692383,4221.794922,4219.358887,4213.461426,4231.410156,4225.897461,4220.128418,4232.051270,4233.589844,4233.205078,4225.128418,4214.871582,4233.461426,4210.769043,3486.000000,4.000000,86.000000,,,,0.000000,4.000000,4.000000,4.000000,4.000000,4.000000,4.000000,4.000000,4.000000,4.000000,4.000000,4.000000,4.000000,4.000000,4.000000,100.000000,,,,,,,,,,,,,,,,
1644853360.929761,1644853360.944238,166.000000,0.000000,4215.000000,4217.948730,4216.153809,4215.256348,4235.256348,4225.256348,4221.538574,4229.487305,4231.025879,4225.384766,4220.000000,4209.615234,4226.410156,4203.589844,3344.000000,4.000000,86.000000,,,,0.000000,4.000000,4.000000,4.000000,4.000000,4.000000,4.000000,4.000000,4.000000,4.000000,4.000000,4.000000,4.000000,4.000000,4.000000,100.000000,,,,,,,,,,,,,,,,
1644853360.933700,1644853360.948279,167.000000,0.000000,4218.333496,4212.820313,4213.589844,4217.051270,4232.563965,4222.692383,4220.512695,4224.743652,4227.692383,4221.153809,4214.871582,4204.230957,4217.692383,4191.666504,3161.000000,4.000000,86.000000,,,,0.000000,4.000000,4.000000,4.000000,4.000000,4.000000,4.000000,4.000000,4.000000,4.000000,4.000000,4.000000,4.000000,4.000000,4.000000,100.000000,,,,,,,,,,,,,,,,
1644853360.937641,1644853360.952220,168.000000,0.000000,4221.153809,4209.615234,4213.461426,4217.820313,4224.358887,4220.641113,4218.589844,4219.358887,4224.487305,4223.205078,4210.769043,4200.384766,4212.436035,4181.794922,3222.000000,4.000000,86.000000,,,,0.000000,4.000000,4.000000,4.000000,4.000000,4.000000,4.000000,4.000000,4.000000,4.000000,4.000000,4.000000,4.000000,4.000000,4.000000,100.000000,,,,,,,,,,,,,,,,
1644853360.941580,1644853360.956160,169.000000,0.000000,4220.897461,4209.615234,4215.769043,4217.820313,4216.282227,4221.153809,4218.333496,4215.641113,4221.538574,4228.461426,4207.307617,4199.358887,4212.179688,4180.128418,3486.000000,4.000000,86.000000,,,,0.000000,4.000000,4.000000,4.000000,4.000000,4.000000,4.000000,4.000000,4.000000,4.000000,4.000000,4.000000,4.000000,4.000000,4.000000,100.000000,,,,,,,,,,,,,,,,
1644853360.945521,1644853360.960101,170.000000,0.000000,4216.666504,4211.794922,4218.974121,4217.563965,4213.589844,4224.358887,4220.384766,4214.230957,4218.205078,4230.769043,4203.205078,4200.128418,4213.589844,4186.666504,3344.000000,4.000000,86.000000,,,,0.000000,4.000000,4.000000,4.000000,4.000000,4.000000,4.000000,4.000000,4.000000,4.000000,4.000000,4.000000,4.000000,4.000000,4.000000,100.000000,,,,,,,,,,,,,,,,
1644853360.949461,1644853360.964041,171.000000,0.000000,4210.384766,4214.743652,4220.384766,4217.563965,4218.077148,4228.461426,4221.794922,4213.077148,4213.333496,4225.256348,4198.205078,4199.871582,4211.922852,4195.641113,3161.000000,4.000000,86.000000,,,,0.000000,4.000000,4.000000,4.000000,4.000000,4.000000,4.000000,4.000000,4.000000,4.000000,4.000000,4.000000,4.000000,4.000000,4.000000,100.000000,,,,,,,,,,,,,,,,
1644853360.953400,1644853360.967982,172.000000,0.000000,4205.256348,4217.436035,4218.974121,4217.820313,4226.922852,4231.282227,4220.128418,4210.769043,4207.307617,4213.077148,4193.077148,4196.025879,4205.384766,4199.871582,3222.000000,4.000000,86.000000,,,,0.000000,4.000000,4.000000,4.000000,4.000000,4.000000,4.000000,4.000000,4.000000,4.000000,4.000000,4.000000,4.000000,4.000000,4.000000,100.000000,,,,,,,,,,,,,,,,
1644853360.957341,1644853360.971922,173.000000,0.000000,4203.205078,4219.102539,4215.384766,4217.307617,4235.641113,4231.666504,4216.282227,4207.179688,4201.794922,4200.128418,4189.871582,4188.974121,4196.025879,4197.051270,3486.000000,4.000000,86.000000,,,,0.000000,4.000000,4.000000,4.000000,4.000000,4.000000,4.000000,4.000000,4.000000,4.000000,4.000000,4.000000,4.000000,4.000000,4.000000,100.000000,,,,,,,,,,,,,,,,
1644853360.961280,1644853360.975863,174.000000,0.000000,4203.717773,4219.871582,4211.666504,4216.025879,4240.000000,4230.512695,4213.846191,4204.743652,4199.358887,4193.589844,4190.128418,4181.538574,4189.230957,4190.512695,3344.000000,4.000000,86.000000,,,,0.000000,4.000000,4.000000,4.000000,4.000000,4.000000,4.000000,4.000000,4.000000,4.000000,4.000000,4.000000,4.000000,4.000000,4.000000,100.000000,,,,,,,,,,,,,,,,
1644853360.965221,1644853360.979804,175.000000,0.000000,4206.153809,4220.384766,4209.743652,4215.128418,4238.589844,4229.487305,4215.641113,4205.769043,4202.051270,4196.025879,4194.230957,4178.461426,4189.871582,4185.512695,3161.000000,4.000000,86.000000,,,,0.000000,4.000000,4.000000,4.000000,4.000000,4.000000,4.000000,4.000000,4.000000,4.000000,4.000000,4.000000,4.000000,4.000000,4.000000,100.000000,,,,,,,,,,,,,,,,
1644853360.969160,1644853360.983744,176.000000,0.000000,4211.025879,4222.051270,4210.512695,4216.922852,4233.974121,4230.256348,4220.641113,4210.897461,4209.230957,4204.615234,4201.282227,4182.436035,4198.589844,4185.512695,3222.000000,4.000000,86.000000,,,,0.000000,4.000000,4.000000,4.000000,4.000000,4.000000,4.000000,4.000000,4.000000,4.000000,4.000000,4.000000,4.000000,4.000000,4.000000,100.000000,,,,,,,,,,,,,,,,
1644853360.973101,1644853360.987685,177.000000,0.000000,4218.077148,4224.871582,4213.846191,4221.794922,4230.128418,4232.436035,4225.512695,4217.436035,4217.692383,4214.102539,4209.871582,4192.179688,4212.436035,4190.384766,3486.000000,4.000000,86.000000,,,,0.000000,4.000000,4.000000,4.000000,4.000000,4.000000,4.000000,4.000000,4.000000,4.000000,4.000000,4.000000,4.000000,4.000000,4.000000,100.000000,,,,,,,,,,,,,,,,
1644853360.977040,1644853360.991625,178.000000,0.000000,4223.717773,4226.666504,4218.589844,4227.563965,4229.230957,4233.974121,4227.307617,4221.794922,4223.205078,4220.512695,4217.051270,4202.692383,4225.512695,4197.948730,3344.000000,4.000000,86.000000,,,,0.000000,4.000000,4.000000,4.000000,4.000000,4.000000,4.000000,4.000000,4.000000,4.000000,4.000000,4.000000,4.000000,4.000000,4.000000,100.000000,,,,,,,,,,,,,,,,
1644853360.980981,1644853360.995566,179.000000,0.000000,4223.846191,4224.743652,4222.179688,4229.743652,4229.743652,4233.077148,4225.897461,4222.179688,4223.077148,4223.333496,4219.743652,4208.461426,4233.077148,4204.743652,3161.000000,4.000000,86.000000,,,,0.000000,4.000000,4.000000,4.000000,4.000000,4.000000,4.000000,4.000000,4.000000,4.000000,4.000000,4.000000,4.000000,4.000000,4.000000,100.000000,,,,,,,,,,,,,,,,
1644853360.984920,1644853360.999507,180.000000,0.000000,4218.077148,4218.333496,4222.820313,4225.000000,4229.102539,4230.256348,4222.820313,4220.128418,4218.333496,4224.871582,4216.666504,4206.922852,4232.948730,4207.820313,3222.000000,4.000000,86.000000,,,,0.000000,4.000000,4.000000,4.000000,4.000000,4.000000,4.000000,4.000000,4.000000,4.000000,4.000000,4.000000,4.000000,4.000000,4.000000,100.000000,,,,,,,,,,,,,,,,
1644853360.988860,1644853361.003447,181.000000,0.000000,4210.384766,4210.384766,4220.128418,4213.974121,4226.538574,4227.563965,4219.615234,4217.948730,4213.205078,4227.179688,4209.743652,4200.384766,4226.794922,4206.410156,3486.000000,4.000000,86.000000,,,,0.000000,4.000000,4.000000,4.000000,4.000000,4.000000,4.000000,4.000000,4.000000,4.000000,4.000000,4.000000,4.000000,4.000000,4.000000,100.000000,,,,,,,,,,,,,,,,
1644853360.992800,1644853361.007388,182.000000,0.000000,4205.897461,4205.256348,4215.641113,4201.282227,4223.974121,4226.538574,4216.922852,4217.179688,4211.922852,4230.384766,4204.487305,4193.589844,4218.461426,4201.666504,3344.000000,4.000000,86.000000,,,,0.000000,4.000000,4.000000,4.000000,4.000000,4.000000,4.000000,4.000000,4.000000,4.000000,4.000000,4.000000,4.000000,4.000000,4.000000,100.000000,,,,,,,,,,,,,,,,
1644853360.996740,1644853361.011328,183.000000,0.000000,4207.051270,4205.897461,4212.307617,4193.717773,4223.589844,4226.794922,4215.512695,4218.077148,4216.282227,4232.692383,4206.153809,4191.410156,4212.948730,4195.512695,3161.000000,4.000000,86.000000,,,,0.000000,4.000000,4.000000,4.000000,4.000000,4.000000,4.000000,4.000000,4.000000,4.000000,4.000000,4.000000,4.000000,4.000000,4.000000,100.000000,,,,,,,,,,,,,,,,
1644853361.000680,1644853361.015269,184.000000,0.000000,4212.948730,4211.794922,4212.051270,4196.025879,4225.512695,4227.307617,4216.922852,4220.769043,4224.743652,4232.436035,4215.769043,4194.487305,4213.461426,4190.897461,3222.000000,4.000000,86.000000,,,,0.000000,4.000000,4.000000,4.000000,4.000000,4.000000,4.000000,4.000000,4.000000,4.000000,4.000000,4.000000,4.000000,4.000000,4.000000,100.000000,,,,,,,,,,,,,,,,
1644853361.004620,1644853361.019110,185.000000,0.000000,4220.128418,4219.358887,4214.871582,4207.436035,4227.307617,4227.692383,4220.641113,4224.487305,4233.461426,4230.256348,4228.974121,4199.871582,4220.128418,4190.256348,3486.000000,4.000000,86.000000,,,,0.000000,4.000000,4.000000,4.000000,4.000000,4.000000,4.000000,4.000000,4.000000,4.000000,4.000000,4.000000,4.000000,4.000000,4.000000,100.000000,,,,,,,,,,,,,,,,
1644853361.008561,1644853361.023050,186.000000,0.000000,4224.871582,4224.743652,4218.205078,4221.410156,4227.563965,4228.589844,4224.230957,4226.922852,4238.974121,4228.974121,4238.846191,4202.948730,4230.000000,4194.743652,3344.000000,4.000000,86.000000,,,,0.000000,4.000000,4.000000,4.000000,4.000000,4.000000,4.000000,4.000000,4.000000,4.000000,4.000000,4.000000,4.000000,4.000000,4.000000,100.000000,,,,,,,,,,,,,,,,
1644853361.012500,1644853361.026991,187.000000,0.000000,4224.743652,4225.384766,4219.487305,4228.846191,4227.179688,4230.384766,4224.743652,4227.307617,4239.615234,4230.641113,4239.743652,4201.410156,4237.948730,4202.436035,3161.000000,4.000000,86.000000,,,,0.000000,4.000000,4.000000,4.000000,4.000000,4.000000,4.000000,4.000000,4.000000,4.000000,4.000000,4.000000,4.000000,4.000000,4.000000,100.000000,,,,,,,,,,,,,,,,
1644853361.016441,1644853361.030931,188.000000,0.000000,4219.871582,4222.179688,4217.692383,4225.384766,4227.820313,4232.179688,4222.307617,4226.025879,4236.410156,4234.615234,4231.282227,4197.179688,4240.128418,4209.615234,3222.000000,4.000000,86.000000,,,,0.000000,4.000000,4.000000,4.000000,4.000000,4.000000,4.000000,4.000000,4.000000,4.000000,4.000000,4.000000,4.000000,4.000000,4.000000,100.000000,,,,,,,,,,,,,,,,
1644853361.020380,1644853361.034872,189.000000,0.000000,4213.589844,4218.205078,4214.102539,4213.717773,4229.615234,4232.692383,4219.615234,4224.871582,4232.179688,4238.717773,4218.589844,4193.589844,4236.025879,4212.692383,3486.000000,4.000000,86.000000,,,,0.000000,4.000000,4.000000,4.000000,4.000000,4.000000,4.000000,4.000000,4.000000,4.000000,4.000000,4.000000,4.000000,4.000000,4.000000,100.000000,,,,,,,,,,,,,,,,
1644853361.024320,1644853361.038812,190.000000,0.000000,4210.000000,4216.922852,4210.769043,4201.794922,4230.769043,4230.769043,4219.358887,4224.487305,4229.615234,4240.769043,4208.333496,4193.333496,4229.743652,4210.384766,3344.000000,4.000000,86.000000,,,,0.000000,4.000000,4.000000,4.000000,4.000000,4.000000,4.000000,4.000000,4.000000,4.000000,4.000000,4.000000,4.000000,4.000000,4.000000,100.000000,,,,,,,,,,,,,,,,
1644853361.028260,1644853361.042753,191.000000,0.000000,4210.897461,4218.846191,4209.615234,4196.666504,4230.000000,4227.436035,4221.282227,4225.128418,4229.871582,4240.512695,4205.000000,4195.769043,4226.025879,4205.128418,3161.000000,4.000000,86.000000,,,,0.000000,4.000000,4.000000,4.000000,4.000000,4.000000,4.000000,4.000000,4.000000,4.000000,4.000000,4.000000,4.000000,4.000000,4.000000,100.000000,,,,,,,,,,,,,,,,
1644853361.032200,1644853361.046694,192.000000,0.000000,4214.615234,4221.794922,4211.153809,4199.743652,4226.794922,4224.615234,4222.948730,4226.153809,4232.179688,4239.230957,4208.589844,4199.230957,4227.692383,4201.282227,3222.000000,4.000000,86.000000,,,,0.000000,4.000000,4.000000,4.000000,4.000000,4.000000,4.000000,4.000000,4.000000,4.000000,4.000000,4.000000,4.000000,4.000000,4.000000,100.000000,,,,,,,,,,,,,,,,
1644853361.036140,1644853361.050634,193.000000,0.000000,4217.563965,4222.563965,4213.974121,4207.307617,4222.563965,4224.102539,4223.077148,4227.307617,4234.102539,4237.692383,4215.512695,4202.563965,4232.436035,4201.666504,3486.000000,4.000000,86.000000,,,,0.000000,4.000000,4.000000,4.000000,4.000000,4.000000,4.000000,4.000000,4.000000,4.000000,4.000000,4.000000,4.000000,4.000000,4.000000,100.000000,,,,,,,,,,,,,,,,
1644853361.040080,1644853361.054575,194.000000,0.000000,4217.436035,4219.871582,4216.538574,4214.230957,4219.487305,4225.384766,4222.436035,4228.461426,4234.358887,4235.384766,4221.794922,4205.641113,4234.743652,4204.743652,3344.000000,4.000000,86.000000,,,,0.000000,4.000000,4.000000,4.000000,4.000000,4.000000,4.000000,4.000000,4.000000,4.000000,4.000000,4.000000,4.000000,4.000000,4.000000,100.000000,,,,,,,,,,,,,,,,
1644853361.044020,1644853361.058515,195.000000,0.000000,4214.743652,4215.384766,4217.948730,4217.692383,4220.000000,4227.179688,4222.563965,4229.615234,4233.333496,4231.666504,4225.256348,4208.461426,4230.641113,4207.051270,3161.000000,4.000000,86.000000,,,,0.000000,4.000000,4.000000,4.000000,4.000000,4.000000,4.000000,4.000000,4.000000,4.000000,4.000000,4.000000,4.000000,4.000000,4.000000,100.000000,,,,,,,,,,,,,,,,
1644853361.047960,1644853361.062456,196.000000,0.000000,4212.051270,4211.794922,4218.333496,4217.948730,4224.615234,4228.077148,4223.589844,4231.282227,4232.948730,4228.077148,4226.538574,4210.641113,4220.897461,4206.282227,3222.000000,4.000000,86.000000,,,,0.000000,4.000000,4.000000,4.000000,4.000000,4.000000,4.000000,4.000000,4.000000,4.000000,4.000000,4.000000,4.000000,4.000000,4.000000,100.000000,,,,,,,,,,,,,,,,
1644853361.051900,1644853361.066397,197.000000,0.000000,4211.410156,4211.282227,4217.948730,4216.922852,4230.897461,4227.692383,4224.102539,4232.948730,4234.871582,4227.179688,4227.307617,4211.282227,4211.410156,4203.717773,3486.000000,4.000000,86.000000,,,,0.000000,4.000000,4.000000,4.000000,4.000000,4.000000,4.000000,4.000000,4.000000,4.000000,4.000000,4.000000,4.000000,4.000000,4.000000,100.000000,,,,,,,,,,,,,,,,
1644853361.055840,1644853361.070337,198.000000,0.000000,4213.846191,4213.846191,4216.922852,4215.769043,4235.000000,4226.538574,4222.948730,4233.589844,4238.717773,4230.769043,4228.205078,4209.615234,4208.461426,4202.820313,3344.000000,4.000000,86.000000,,,,0.000000,4.000000,4.000000,4.000000,4.000000,4.000000,4.000000,4.000000,4.000000,4.000000,4.000000,4.000000,4.000000,4.000000,4.000000,100.000000,,,,,,,,,,,,,,,,
1644853361.059780,1644853361.074278,199.000000,0.000000,4219.230957,4218.077148,4215.897461,4214.230957,4235.384766,4225.897461,4221.666504,4232.692383,4241.794922,4237.563965,4228.589844,4206.410156,4215.256348,4206.282227,3161.000000,4.000000,86.000000,,,,0.000000,4.000000,4.000000,4.000000,4.000000,4.000000,4.000000,4.000000,4.000000,4.000000,4.000000,4.000000,4.000000,4.000000,4.000000,100.000000,,,,,,,,,,,,,,,,
1644853361.063720,1644853361.078218,200.000000,0.000000,4226.025879,4222.436035,4216.410156,4211.794922,4233.589844,4226.538574,4221.922852,4230.769043,4241.922852,4244.102539,4227.948730,4203.846191,4229.102539,4213.333496,3222.000000,4.000000,86.000000,,,,0.000000,4.000000,4.000000,4.000000,4.000000,4.000000,4.000000,4.000000,4.000000,4.000000,4.000000,4.000000,4.000000,4.000000,4.000000,100.000000,,,,,,,,,,,,,,,,
1644853361.067660,1644853361.082159,201.000000,0.000000,4231.922852,4225.897461,4219.871582,4208.205078,4232.051270,4228.333496,4223.333496,4228.333496,4238.589844,4246.922852,4226.410156,4203.846191,4243.461426,4220.641113,3486.000000,4.000000,86.000000,,,,0.000000,4.000000,4.000000,4.000000,4.000000,4.000000,4.000000,4.000000,4.000000,4.000000,4.000000,4.000000,4.000000,4.000000,4.000000,100.000000,,,,,,,,,,,,,,,,
1644853361.071600,1644853361.086099,202.000000,0.000000,4234.615234,4226.922852,4225.000000,4204.358887,4231.025879,4230.512695,4224.230957,4226.153809,4233.846191,4245.256348,4225.384766,4206.666504,4252.692383,4223.974121,3344.000000,4.000000,86.000000,,,,0.000000,4.000000,4.000000,4.000000,4.000000,4.000000,4.000000,4.000000,4.000000,4.000000,4.000000,4.000000,4.000000,4.000000,4.000000,100.000000,,,,,,,,,,,,,,,,
1644853361.075540,1644853361.090140,203.000000,0.000000,4233.205078,4225.000000,4229.102539,4201.922852,4228.974121,4231.922852,4223.846191,4224.230957,4230.128418,4240.128418,4224.871582,4210.769043,4254.487305,4221.538574,3161.000000,4.000000,86.000000,,,,0.000000,4.000000,4.000000,4.000000,4.000000,4.000000,4.000000,4.000000,4.000000,4.000000,4.000000,4.000000,4.000000,4.000000,4.000000,100.000000,,,,,,,,,,,,,,,,
1644853361.079480,1644853361.094080,204.000000,0.000000,4229.230957,4220.512695,4230.256348,4202.948730,4225.128418,4231.922852,4223.333496,4223.077148,4228.589844,4233.974121,4224.487305,4214.487305,4251.153809,4214.102539,3222.000000,4.000000,86.000000,,,,0.000000,4.000000,4.000000,4.000000,4.000000,4.000000,4.000000,4.000000,4.000000,4.000000,4.000000,4.000000,4.000000,4.000000,4.000000,100.000000,,,,,,,,,,,,,,,,
1644853361.083420,1644853361.098021,205.000000,0.000000,4225.384766,4215.512695,4229.102539,4206.794922,4221.025879,4230.897461,4224.358887,4222.820313,4228.333496,4229.230957,4224.358887,4216.666504,4246.410156,4205.384766,3486.000000,4.000000,86.000000,,,,0.000000,4.000000,4.000000,4.000000,4.000000,4.000000,4.000000,4.000000,4.000000,4.000000,4.000000,4.000000,4.000000,4.000000,4.000000,100.000000,,,,,,,,,,,,,,,,
1644853361.087360,1644853361.101962,206.000000,0.000000,4224.102539,4213.077148,4227.820313,4210.384766,4219.615234,4229.358887,4226.025879,4223.077148,4227.692383,4227.436035,4224.743652,4217.820313,4243.077148,4199.871582,3344.000000,4.000000,86.000000,,,,0.000000,4.000000,4.000000,4.000000,4.000000,4.000000,4.000000,4.000000,4.000000,4.000000,4.000000,4.000000,4.000000,4.000000,4.000000,100.000000,,,,,,,,,,,,,,,,
1644853361.091300,1644853361.105902,207.000000,0.000000,4225.512695,4214.358887,4227.563965,4210.769043,4223.205078,4227.948730,4226.025879,4223.846191,4226.538574,4228.717773,4225.384766,4218.333496,4241.410156,4201.153809,3161.000000,4.000000,86.000000,,,,0.000000,4.000000,4.000000,4.000000,4.000000,4.000000,4.000000,4.000000,4.000000,4.000000,4.000000,4.000000,4.000000,4.000000,4.000000,100.000000,,,,,,,,,,,,,,,,
1644853361.095240,1644853361.109843,208.000000,0.000000,4228.205078,4217.948730,4227.948730,4207.820313,4230.769043,4227.051270,4224.102539,4224.615234,4225.769043,4231.282227,4224.871582,4217.692383,4240.000000,4208.846191,3222.000000,4.000000,86.000000,,,,0.000000,4.000000,4.000000,4.000000,4.000000,4.000000,4.000000,4.000000,4.000000,4.000000,4.000000,4.000000,4.000000,4.000000,4.000000,100.000000,,,,,,,,,,,,,,,,
1644853361.099180,1644853361.113783,209.000000,0.000000,4230.128418,4221.153809,4227.948730,4204.102539,4238.077148,4226.922852,4222.179688,4225.256348,4225.641113,4232.179688,4222.179688,4214.615234,4237.820313,4218.589844,3486.000000,4.000000,86.000000,,,,0.000000,4.000000,4.000000,4.000000,4.000000,4.000000,4.000000,4.000000,4.000000,4.000000,4.000000,4.000000,4.000000,4.000000,4.000000,100.000000,,,,,,,,,,,,,,,,
1644853361.103120,1644853361.117724,210.000000,0.000000,4229.615234,4221.666504,4226.538574,4202.051270,4240.128418,4227.563965,4222.948730,4225.000000,4225.384766,4229.615234,4218.461426,4208.589844,4234.871582,4223.974121,3344.000000,4.000000,86.000000,,,,0.000000,4.000000,4.000000,4.000000,4.000000,4.000000,4.000000,4.000000,4.000000,4.000000,4.000000,4.000000,4.000000,4.000000,4.000000,100.000000,,,,,,,,,,,,,,,,
1644853361.107060,1644853361.121665,211.000000,0.000000,4226.025879,4219.743652,4224.358887,4202.051270,4235.512695,4228.846191,4225.897461,4223.717773,4224.358887,4224.102539,4216.025879,4201.922852,4232.436035,4221.410156,3161.000000,4.000000,86.000000,,,,0.000000,4.000000,4.000000,4.000000,4.000000,4.000000,4.000000,4.000000,4.000000,4.000000,4.000000,4.000000,4.000000,4.000000,4.000000,100.000000,,,,,,,,,,,,,,,,
1644853361.111000,1644853361.125505,212.000000,0.000000,4220.769043,4216.794922,4222.692383,4202.820313,4227.692383,4229.871582,4227.820313,4222.051270,4223.205078,4218.205078,4216.153809,4198.333496,4231.025879,4212.563965,3222.000000,4.000000,86.000000,,,,0.000000,4.000000,4.000000,4.000000,4.000000,4.000000,4.000000,4.000000,4.000000,4.000000,4.000000,4.000000,4.000000,4.000000,4.000000,100.000000,,,,,,,,,,,,,,,,
1644853361.114940,1644853361.129446,213.000000,0.000000,4216.282227,4214.743652,4221.922852,4203.333496,4222.051270,4229.871582,4226.794922,4220.897461,4222.948730,4215.384766,4217.436035,4199.487305,4230.512695,4203.846191,3486.000000,4.000000,86.000000,,,,0.000000,4.000000,4.000000,4.000000,4.000000,4.000000,4.000000,4.000000,4.000000,4.000000,4.000000,4.000000,4.000000,4.000000,4.000000,100.000000,,,,,,,,,,,,,,,,
1644853361.118880,1644853361.133386,214.000000,0.000000,4215.000000,4214.358887,4221.794922,4204.102539,4221.922852,4228.846191,4224.102539,4220.128418,4223.589844,4217.563965,4217.179688,4203.589844,4230.256348,4201.538574,3344.000000,4.000000,86.000000,,,,0.000000,4.000000,4.000000,4.000000,4.000000,4.000000,4.000000,4.000000,4.000000,4.000000,4.000000,4.000000,4.000000,4.000000,4.000000,100.000000,,,,,,,,,,,,,,,,
1644853361.122820,1644853361.137327,215.000000,0.000000,4217.051270,4215.000000,4221.538574,4207.051270,4226.282227,4227.307617,4222.307617,4220.000000,4224.230957,4224.102539,4215.384766,4207.179688,4230.769043,4206.922852,3161.000000,4.000000,86.000000,,,,0.000000,4.000000,4.000000,4.000000,4.000000,4.000000,4.000000,4.000000,4.000000,4.000000,4.000000,4.000000,4.000000,4.000000,4.000000,100.000000,,,,,,,,,,,,,,,,
1644853361.126760,1644853361.141268,216.000000,0.000000,4220.641113,4216.282227,4220.641113,4212.563965,4230.384766,4225.128418,4222.307617,4220.000000,4223.974121,4231.666504,4215.512695,4208.077148,4233.205078,4216.153809,3222.000000,4.000000,86.000000,,,,0.000000,4.000000,4.000000,4.000000,4.000000,4.000000,4.000000,4.000000,4.000000,4.000000,4.000000,4.000000,4.000000,4.000000,4.000000,100.000000,,,,,,,,,,,,,,,,
1644853361.130700,1644853361.145208,217.000000,0.000000,4223.461426,4218.077148,4219.487305,4218.461426,4231.410156,4222.307617,4222.436035,4219.871582,4222.948730,4236.922852,4221.538574,4207.179688,4238.589844,4223.077148,3486.000000,4.000000,86.000000,,,,0.000000,4.000000,4.000000,4.000000,4.000000,4.000000,4.000000,4.000000,4.000000,4.000000,4.000000,4.000000,4.000000,4.000000,4.000000,100.000000,,,,,,,,,,,,,,,,
1644853361.134640,1644853361.149149,218.000000,0.000000,4224.230957,4219.615234,4218.974121,4220.897461,4229.358887,4218.846191,4220.897461,4219.358887,4221.922852,4238.589844,4232.179688,4206.025879,4246.153809,4223.846191,3344.000000,4.000000,86.000000,,,,0.000000,4.000000,4.000000,4.000000,4.000000,4.000000,4.000000,4.000000,4.000000,4.000000,4.000000,4.000000,4.000000,4.000000,4.000000,100.000000,,,,,,,,,,,,,,,,
1644853361.138580,1644853361.153089,219.000000,0.000000,4223.717773,4220.000000,4219.743652,4217.307617,4226.153809,4216.153809,4218.461426,4218.974121,4221.666504,4237.307617,4240.641113,4205.897461,4252.820313,4219.102539,3161.000000,4.000000,86.000000,,,,0.000000,4.000000,4.000000,4.000000,4.000000,4.000000,4.000000,4.000000,4.000000,4.000000,4.000000,4.000000,4.000000,4.000000,4.000000,100.000000,,,,,,,,,,,,,,,,
1644853361.142520,1644853361.157030,220.000000,0.000000,4223.333496,4218.717773,4220.641113,4209.102539,4223.461426,4215.897461,4217.436035,4219.615234,4222.307617,4235.000000,4239.743652,4207.307617,4255.384766,4211.282227,3222.000000,4.000000,86.000000,,,,0.000000,4.000000,4.000000,4.000000,4.000000,4.000000,4.000000,4.000000,4.000000,4.000000,4.000000,4.000000,4.000000,4.000000,4.000000,100.000000,,,,,,,,,,,,,,,,
1644853361.146460,1644853361.160970,221.000000,0.000000,4223.589844,4216.794922,4220.384766,4201.153809,4223.205078,4218.974121,4218.974121,4221.282227,4224.230957,4233.717773,4229.230957,4210.000000,4252.820313,4203.461426,3486.000000,4.000000,86.000000,,,,0.000000,4.000000,4.000000,4.000000,4.000000,4.000000,4.000000,4.000000,4.000000,4.000000,4.000000,4.000000,4.000000,4.000000,4.000000,100.000000,,,,,,,,,,,,,,,,
1644853361.150400,1644853361.164911,222.000000,0.000000,4223.717773,4216.025879,4218.461426,4198.974121,4227.051270,4224.743652,4221.794922,4223.589844,4227.692383,4235.128418,4216.666504,4213.077148,4247.820313,4197.692383,3344.000000,4.000000,86.000000,,,,0.000000,4.000000,4.000000,4.000000,4.000000,4.000000,4.000000,4.000000,4.000000,4.000000,4.000000,4.000000,4.000000,4.000000,4.000000,100.000000,,,,,,,,,,,,,,,,
1644853361.154340,1644853361.168852,223.000000,0.000000,4222.563965,4217.307617,4216.666504,4204.615234,4235.384766,4230.897461,4224.487305,4226.282227,4232.179688,4238.205078,4211.666504,4215.256348,4243.974121,4195.769043,3161.000000,4.000000,86.000000,,,,0.000000,4.000000,4.000000,4.000000,4.000000,4.000000,4.000000,4.000000,4.000000,4.000000,4.000000,4.000000,4.000000,4.000000,4.000000,100.000000,,,,,,,,,,,,,,,,
1644853361.158280,1644853361.172792,224.000000,0.000000,4219.230957,4219.487305,4216.794922,4214.615234,4244.358887,4234.615234,4226.666504,4228.974121,4235.512695,4239.871582,4217.307617,4214.743652,4243.077148,4198.333496,3222.000000,4.000000,86.000000,,,,0.000000,4.000000,4.000000,4.000000,4.000000,4.000000,4.000000,4.000000,4.000000,4.000000,4.000000,4.000000,4.000000,4.000000,4.000000,100.000000,,,,,,,,,,,,,,,,
1644853361.162220,1644853361.176733,225.000000,0.000000,4215.512695,4220.641113,4218.974121,4221.666504,4248.333496,4234.871582,4228.717773,4230.769043,4235.512695,4236.538574,4228.333496,4211.282227,4243.974121,4204.102539,3486.000000,4.000000,86.000000,,,,0.000000,4.000000,4.000000,4.000000,4.000000,4.000000,4.000000,4.000000,4.000000,4.000000,4.000000,4.000000,4.000000,4.000000,4.000000,100.000000,,,,,,,,,,,,,,,,
1644853361.166160,1644853361.180673,226.000000,0.000000,4213.974121,4219.230957,4221.153809,4220.641113,4244.102539,4232.563965,4230.128418,4230.897461,4231.794922,4228.589844,4235.256348,4206.282227,4243.717773,4209.358887,3344.000000,4.000000,86.000000,,,,0.000000,4.000000,4.000000,4.000000,4.000000,4.000000,4.000000,4.000000,4.000000,4.000000,4.000000,4.000000,4.000000,4.000000,4.000000,100.000000,,,,,,,,,,,,,,,,
1644853361.170100,1644853361.184614,227.000000,0.000000,4215.641113,4215.641113,4221.025879,4212.563965,4233.846191,4230.256348,4229.871582,4229.487305,4226.410156,4220.256348,4232.692383,4202.563965,4241.025879,4210.128418,3161.000000,4.000000,86.000000,,,,0.000000,4.000000,4.000000,4.000000,4.000000,4.000000,4.000000,4.000000,4.000000,4.000000,4.000000,4.000000,4.000000,4.000000,4.000000,100.000000,,,,,,,,,,,,,,,,
1644853361.174040,1644853361.188555,228.000000,0.000000,4218.717773,4211.666504,4218.333496,4202.692383,4223.333496,4229.487305,4227.820313,4227.563965,4222.692383,4216.794922,4223.589844,4201.282227,4236.538574,4205.384766,3222.000000,4.000000,86.000000,,,,0.000000,4.000000,4.000000,4.000000,4.000000,4.000000,4.000000,4.000000,4.000000,4.000000,4.000000,4.000000,4.000000,4.000000,4.000000,100.000000,,,,,,,,,,,,,,,,
1644853361.177980,1644853361.192495,229.000000,0.000000,4219.615234,4209.487305,4214.871582,4196.410156,4217.820313,4230.384766,4225.641113,4227.051270,4222.436035,4219.871582,4216.666504,4201.410156,4232.563965,4198.589844,3486.000000,4.000000,86.000000,,,,0.000000,4.000000,4.000000,4.000000,4.000000,4.000000,4.000000,4.000000,4.000000,4.000000,4.000000,4.000000,4.000000,4.000000,4.000000,100.000000,,,,,,,,,,,,,,,,
1644853361.181920,1644853361.196436,230.000000,0.000000,4216.794922,4210.128418,4212.563965,4195.256348,4219.358887,4232.307617,4225.384766,4229.102539,4225.512695,4227.820313,4217.820313,4201.153809,4231.025879,4194.615234,3344.000000,4.000000,86.000000,,,,0.000000,4.000000,4.000000,4.000000,4.000000,4.000000,4.000000,4.000000,4.000000,4.000000,4.000000,4.000000,4.000000,4.000000,4.000000,100.000000,,,,,,,,,,,,,,,,
1644853361.185860,1644853361.200276,231.000000,0.000000,4212.307617,4212.820313,4212.179688,4197.820313,4226.410156,4233.846191,4226.922852,4232.692383,4229.487305,4237.179688,4226.025879,4199.487305,4232.820313,4196.666504,3161.000000,4.000000,86.000000,,,,0.000000,4.000000,4.000000,4.000000,4.000000,4.000000,4.000000,4.000000,4.000000,4.000000,4.000000,4.000000,4.000000,4.000000,4.000000,100.000000,,,,,,,,,,,,,,,,
1644853361.189800,1644853361.204217,232.000000,0.000000,4210.897461,4216.153809,4212.692383,4202.179688,4234.871582,4234.615234,4228.589844,4235.641113,4231.922852,4244.102539,4233.974121,4196.538574,4237.692383,4202.948730,3222.000000,4.000000,86.000000,,,,0.000000,4.000000,4.000000,4.000000,4.000000,4.000000,4.000000,4.000000,4.000000,4.000000,4.000000,4.000000,4.000000,4.000000,4.000000,100.000000,,,,,,,,,,,,,,,,
1644853361.193740,1644853361.208158,233.000000,0.000000,4215.769043,4218.589844,4213.077148,4206.922852,4240.512695,4234.358887,4228.589844,4235.000000,4231.666504,4246.025879,4235.000000,4194.102539,4244.615234,4209.358887,3486.000000,4.000000,86.000000,,,,0.000000,4.000000,4.000000,4.000000,4.000000,4.000000,4.000000,4.000000,4.000000,4.000000,4.000000,4.000000,4.000000,4.000000,4.000000,100.000000,,,,,,,,,,,,,,,,
1644853361.197680,1644853361.212098,234.000000,0.000000,4224.615234,4219.102539,4213.333496,4211.410156,4240.512695,4233.717773,4227.051270,4230.384766,4228.974121,4242.051270,4227.692383,4193.717773,4251.538574,4211.922852,3344.000000,4.000000,86.000000,,,,0.000000,4.000000,4.000000,4.000000,4.000000,4.000000,4.000000,4.000000,4.000000,4.000000,4.000000,4.000000,4.000000,4.000000,4.000000,100.000000,1.000000,100.000000,4.000000,4.000000,4.000000,4.000000,4.000000,4.000000,4.000000,4.000000,4.000000,4.000000,4.000000,4.000000,4.000000,4.000000
1644853361.201620,1644853361.216139,235.000000,0.000000,4231.153809,4217.307617,4214.102539,4215.000000,4235.256348,4232.563965,4225.897461,4224.487305,4225.641113,4233.846191,4216.794922,4196.153809,4255.769043,4209.615234,3161.000000,4.000000,86.000000,,,,0.000000,4.000000,4.000000,4.000000,4.000000,4.000000,4.000000,4.000000,4.000000,4.000000,4.000000,4.000000,4.000000,4.000000,4.000000,100.000000,,,,,,,,,,,,,,,,
1644853361.205560,1644853361.220079,236.000000,0.000000,4230.512695,4214.487305,4216.282227,4216.538574,4228.205078,4231.666504,4226.282227,4221.153809,4223.333496,4225.384766,4209.358887,4200.000000,4255.000000,4205.128418,3222.000000,4.000000,86.000000,,,,0.000000,4.000000,4.000000,4.000000,4.000000,4.000000,4.000000,4.000000,4.000000,4.000000,4.000000,4.000000,4.000000,4.000000,4.000000,100.000000,,,,,,,,,,,,,,,,
1644853361.209500,1644853361.224020,237.000000,0.000000,4223.846191,4212.563965,4219.487305,4215.384766,4223.205078,4231.794922,4227.436035,4221.794922,4223.205078,4220.128418,4209.615234,4202.948730,4249.871582,4201.922852,3486.000000,4.000000,86.000000,,,,0.000000,4.000000,4.000000,4.000000,4.000000,4.000000,4.000000,4.000000,4.000000,4.000000,4.000000,4.000000,4.000000,4.000000,4.000000,100.000000,,,,,,,,,,,,,,,,
1644853361.213440,1644853361.227960,238.000000,0.000000,4216.410156,4212.307617,4222.051270,4212.307617,4222.307617,4232.948730,4227.948730,4224.871582,4224.230957,4219.487305,4216.410156,4203.846191,4243.461426,4201.153809,3344.000000,4.000000,86.000000,,,,0.000000,4.000000,4.000000,4.000000,4.000000,4.000000,4.000000,4.000000,4.000000,4.000000,4.000000,4.000000,4.000000,4.000000,4.000000,100.000000,,,,,,,,,,,,,,,,
1644853361.217380,1644853361.231901,239.000000,0.000000,4213.205078,4213.205078,4222.820313,4209.743652,4223.974121,4234.102539,4227.692383,4227.307617,4225.000000,4222.179688,4225.000000,4204.102539,4239.102539,4201.922852,3161.000000,4.000000,86.000000,,,,0.000000,4.000000,4.000000,4.000000,4.000000,4.000000,4.000000,4.000000,4.000000,4.000000,4.000000,4.000000,4.000000,4.000000,4.000000,100.000000,,,,,,,,,,,,,,,,
