title:Alex-uzsjzM0smQvjfxkltL9cyA, start timestamp:1644854277.053752, stop timestamp:1644854302.914706, headset type:EPOCPLUS, headset serial:3B9AEBFF, headset firmware:626, channels:55, sampling rate:eeg_256, samples:6565      , version:2.1, 
Timestamp,EEG.Counter,EEG.Interpolated,EEG.AF3,EEG.F7,EEG.F3,EEG.FC5,EEG.T7,EEG.P7,EEG.O1,EEG.O2,EEG.P8,EEG.T8,EEG.FC6,EEG.F4,EEG.F8,EEG.AF4,EEG.RawCq,EEG.Battery,EEG.BatteryPercent,MarkerIndex,MarkerType,MarkerValueInt,EEG.MarkerHardware,CQ.AF3,CQ.F7,CQ.F3,CQ.FC5,CQ.T7,CQ.P7,CQ.O1,CQ.O2,CQ.P8,CQ.T8,CQ.FC6,CQ.F4,CQ.F8,CQ.AF4,CQ.Overall,EQ.SampleRateQuality,EQ.OVERALL,EQ.AF3,EQ.F7,EQ.F3,EQ.FC5,EQ.T7,EQ.P7,EQ.O1,EQ.O2,EQ.P8,EQ.T8,EQ.FC6,EQ.F4,EQ.F8,EQ.AF4
1644854277.053752,227.000000,0.000000,4201.410156,4212.436035,4205.256348,4153.077148,4204.487305,4214.743652,4217.051270,4204.487305,4211.666504,4193.717773,4109.871582,4170.384766,4155.384766,4190.384766,2198.000000,4.000000,86.000000,,,,0.000000,4.000000,4.000000,4.000000,4.000000,4.000000,4.000000,4.000000,4.000000,4.000000,4.000000,4.000000,4.000000,4.000000,4.000000,100.000000,,,,,,,,,,,,,,,,
1644854277.057592,228.000000,0.000000,4197.820313,4214.102539,4206.922852,4153.589844,4212.948730,4217.692383,4220.256348,4205.769043,4213.077148,4204.230957,4105.256348,4177.563965,4148.717773,4191.153809,3515.000000,4.000000,86.000000,,,,0.000000,4.000000,4.000000,4.000000,4.000000,4.000000,4.000000,4.000000,4.000000,4.000000,4.000000,4.000000,4.000000,4.000000,4.000000,100.000000,,,,,,,,,,,,,,,,
1644854277.061532,229.000000,0.000000,4190.000000,4218.589844,4210.897461,4153.205078,4220.641113,4219.871582,4220.897461,4206.410156,4213.333496,4208.717773,4109.230957,4185.897461,4138.589844,4188.846191,3483.000000,4.000000,86.000000,,,,0.000000,4.000000,4.000000,4.000000,4.000000,4.000000,4.000000,4.000000,4.000000,4.000000,4.000000,4.000000,4.000000,4.000000,4.000000,100.000000,,,,,,,,,,,,,,,,
1644854277.065472,230.000000,0.000000,4182.436035,4223.717773,4215.256348,4152.563965,4224.743652,4220.128418,4220.000000,4206.922852,4211.410156,4205.128418,4120.769043,4189.871582,4130.769043,4187.307617,3531.000000,4.000000,86.000000,,,,0.000000,4.000000,4.000000,4.000000,4.000000,4.000000,4.000000,4.000000,4.000000,4.000000,4.000000,4.000000,4.000000,4.000000,4.000000,100.000000,,,,,,,,,,,,,,,,
1644854277.069412,231.000000,0.000000,4181.282227,4227.692383,4218.205078,4153.717773,4224.358887,4218.461426,4219.230957,4207.179688,4207.820313,4196.922852,4133.077148,4187.436035,4130.641113,4188.589844,2198.000000,4.000000,86.000000,,,,0.000000,4.000000,4.000000,4.000000,4.000000,4.000000,4.000000,4.000000,4.000000,4.000000,4.000000,4.000000,4.000000,4.000000,4.000000,100.000000,,,,,,,,,,,,,,,,
1644854277.073352,232.000000,0.000000,4189.615234,4229.871582,4219.358887,4158.077148,4221.538574,4216.538574,4218.461426,4207.436035,4204.487305,4191.282227,4139.102539,4180.512695,4138.974121,4191.538574,3515.000000,4.000000,86.000000,,,,0.000000,4.000000,4.000000,4.000000,4.000000,4.000000,4.000000,4.000000,4.000000,4.000000,4.000000,4.000000,4.000000,4.000000,4.000000,100.000000,,,,,,,,,,,,,,,,
1644854277.077292,233.000000,0.000000,4204.487305,4231.025879,4219.487305,4165.384766,4219.487305,4216.153809,4217.436035,4207.820313,4204.487305,4192.692383,4136.410156,4174.615234,4152.307617,4194.102539,3483.000000,4.000000,86.000000,,,,0.000000,4.000000,4.000000,4.000000,4.000000,4.000000,4.000000,4.000000,4.000000,4.000000,4.000000,4.000000,4.000000,4.000000,4.000000,100.000000,,,,,,,,,,,,,,,,
1644854277.081233,234.000000,0.000000,4218.717773,4231.153809,4220.512695,4173.589844,4219.487305,4217.436035,4216.666504,4208.846191,4208.461426,4199.743652,4128.589844,4175.256348,4164.871582,4196.538574,3531.000000,4.000000,86.000000,,,,0.000000,4.000000,4.000000,4.000000,4.000000,4.000000,4.000000,4.000000,4.000000,4.000000,4.000000,4.000000,4.000000,4.000000,4.000000,100.000000,,,,,,,,,,,,,,,,
1644854277.085173,235.000000,0.000000,4225.384766,4229.743652,4222.820313,4180.256348,4220.000000,4218.846191,4216.922852,4209.871582,4213.589844,4205.769043,4121.410156,4182.820313,4171.922852,4199.230957,2198.000000,4.000000,86.000000,,,,0.000000,4.000000,4.000000,4.000000,4.000000,4.000000,4.000000,4.000000,4.000000,4.000000,4.000000,4.000000,4.000000,4.000000,4.000000,100.000000,,,,,,,,,,,,,,,,
1644854277.089113,236.000000,0.000000,4221.794922,4226.794922,4224.487305,4182.820313,4218.589844,4218.333496,4218.077148,4209.743652,4215.641113,4204.743652,4117.563965,4191.922852,4172.307617,4200.641113,3515.000000,4.000000,86.000000,,,,0.000000,4.000000,4.000000,4.000000,4.000000,4.000000,4.000000,4.000000,4.000000,4.000000,4.000000,4.000000,4.000000,4.000000,4.000000,100.000000,,,,,,,,,,,,,,,,
1644854277.093053,237.000000,0.000000,4210.641113,4222.179688,4223.589844,4179.743652,4214.230957,4215.384766,4218.333496,4207.692383,4213.333496,4197.436035,4115.897461,4196.153809,4167.820313,4197.051270,3483.000000,4.000000,86.000000,,,,0.000000,4.000000,4.000000,4.000000,4.000000,4.000000,4.000000,4.000000,4.000000,4.000000,4.000000,4.000000,4.000000,4.000000,4.000000,100.000000,,,,,,,,,,,,,,,,
1644854277.096993,238.000000,0.000000,4197.436035,4216.922852,4220.769043,4171.282227,4208.077148,4210.897461,4216.025879,4204.615234,4209.487305,4190.128418,4114.871582,4193.461426,4161.666504,4187.820313,3531.000000,4.000000,86.000000,,,,0.000000,4.000000,4.000000,4.000000,4.000000,4.000000,4.000000,4.000000,4.000000,4.000000,4.000000,4.000000,4.000000,4.000000,4.000000,100.000000,,,,,,,,,,,,,,,,
1644854277.100933,239.000000,0.000000,4187.820313,4213.077148,4220.000000,4160.128418,4202.692383,4207.051270,4212.692383,4203.333496,4208.974121,4189.743652,4115.512695,4188.461426,4156.282227,4177.820313,2198.000000,4.000000,86.000000,,,,0.000000,4.000000,4.000000,4.000000,4.000000,4.000000,4.000000,4.000000,4.000000,4.000000,4.000000,4.000000,4.000000,4.000000,4.000000,100.000000,,,,,,,,,,,,,,,,
1644854277.104873,240.000000,0.000000,4185.000000,4213.333496,4224.102539,4150.256348,4201.025879,4206.538574,4211.538574,4206.025879,4213.589844,4197.692383,4120.256348,4187.563965,4152.820313,4174.615234,3515.000000,4.000000,86.000000,,,,0.000000,4.000000,4.000000,4.000000,4.000000,4.000000,4.000000,4.000000,4.000000,4.000000,4.000000,4.000000,4.000000,4.000000,4.000000,100.000000,,,,,,,,,,,,,,,,
1644854277.108713,241.000000,0.000000,4189.358887,4218.205078,4231.666504,4145.641113,4203.461426,4210.000000,4214.487305,4211.666504,4221.025879,4208.717773,4130.128418,4192.563965,4152.563965,4181.282227,3483.000000,4.000000,86.000000,,,,0.000000,4.000000,4.000000,4.000000,4.000000,4.000000,4.000000,4.000000,4.000000,4.000000,4.000000,4.000000,4.000000,4.000000,4.000000,100.000000,,,,,,,,,,,,,,,,
1644854277.112654,242.000000,0.000000,4199.358887,4225.512695,4237.051270,4148.077148,4208.589844,4215.512695,4218.589844,4216.025879,4226.153809,4215.512695,4142.179688,4199.102539,4156.922852,4193.077148,3531.000000,4.000000,86.000000,,,,0.000000,4.000000,4.000000,4.000000,4.000000,4.000000,4.000000,4.000000,4.000000,4.000000,4.000000,4.000000,4.000000,4.000000,4.000000,100.000000,,,,,,,,,,,,,,,,
1644854277.116594,243.000000,0.000000,4212.563965,4232.051270,4235.769043,4156.153809,4214.102539,4219.743652,4219.615234,4215.256348,4225.256348,4214.615234,4151.153809,4201.153809,4166.025879,4201.410156,2198.000000,4.000000,86.000000,,,,0.000000,4.000000,4.000000,4.000000,4.000000,4.000000,4.000000,4.000000,4.000000,4.000000,4.000000,4.000000,4.000000,4.000000,4.000000,100.000000,,,,,,,,,,,,,,,,
1644854277.120534,244.000000,0.000000,4226.025879,4235.512695,4228.461426,4167.179688,4218.461426,4220.128418,4216.282227,4209.871582,4219.487305,4209.230957,4152.948730,4196.538574,4177.563965,4201.025879,3515.000000,4.000000,86.000000,,,,0.000000,4.000000,4.000000,4.000000,4.000000,4.000000,4.000000,4.000000,4.000000,4.000000,4.000000,4.000000,4.000000,4.000000,4.000000,100.000000,,,,,,,,,,,,,,,,
1644854277.124474,245.000000,0.000000,4235.769043,4235.128418,4220.000000,4177.948730,4220.512695,4217.436035,4211.794922,4205.000000,4213.205078,4205.384766,4147.692383,4188.974121,4186.922852,4194.487305,3483.000000,4.000000,86.000000,,,,0.000000,4.000000,4.000000,4.000000,4.000000,4.000000,4.000000,4.000000,4.000000,4.000000,4.000000,4.000000,4.000000,4.000000,4.000000,100.000000,,,,,,,,,,,,,,,,
1644854277.128414,246.000000,0.000000,4238.077148,4232.307617,4215.384766,4185.641113,4219.358887,4214.230957,4210.128418,4205.000000,4210.769043,4206.410156,4139.230957,4184.615234,4190.384766,4188.717773,3531.000000,4.000000,86.000000,,,,0.000000,4.000000,4.000000,4.000000,4.000000,4.000000,4.000000,4.000000,4.000000,4.000000,4.000000,4.000000,4.000000,4.000000,4.000000,100.000000,,,,,,,,,,,,,,,,
1644854277.132354,247.000000,0.000000,4232.436035,4229.102539,4215.769043,4188.333496,4214.615234,4212.820313,4211.538574,4209.743652,4213.589844,4209.871582,4131.922852,4186.794922,4187.179688,4187.692383,2198.000000,4.000000,86.000000,,,,0.000000,4.000000,4.000000,4.000000,4.000000,4.000000,4.000000,4.000000,4.000000,4.000000,4.000000,4.000000,4.000000,4.000000,4.000000,100.000000,,,,,,,,,,,,,,,,
1644854277.136294,248.000000,0.000000,4222.051270,4226.794922,4218.461426,4184.358887,4207.563965,4213.461426,4213.461426,4214.615234,4218.846191,4211.025879,4127.820313,4193.846191,4180.000000,4189.615234,3515.000000,4.000000,86.000000,,,,0.000000,4.000000,4.000000,4.000000,4.000000,4.000000,4.000000,4.000000,4.000000,4.000000,4.000000,4.000000,4.000000,4.000000,4.000000,100.000000,,,,,,,,,,,,,,,,
1644854277.140234,249.000000,0.000000,4211.538574,4226.153809,4219.615234,4175.641113,4202.051270,4215.000000,4213.589844,4215.384766,4222.820313,4208.717773,4126.922852,4200.897461,4172.307617,4190.512695,3483.000000,4.000000,86.000000,,,,0.000000,4.000000,4.000000,4.000000,4.000000,4.000000,4.000000,4.000000,4.000000,4.000000,4.000000,4.000000,4.000000,4.000000,4.000000,100.000000,,,,,,,,,,,,,,,,
1644854277.144174,250.000000,0.000000,4205.128418,4227.051270,4218.205078,4167.436035,4202.307617,4216.153809,4212.948730,4211.922852,4224.102539,4206.282227,4129.358887,4203.333496,4168.077148,4189.615234,3531.000000,4.000000,86.000000,,,,0.000000,4.000000,4.000000,4.000000,4.000000,4.000000,4.000000,4.000000,4.000000,4.000000,4.000000,4.000000,4.000000,4.000000,4.000000,100.000000,,,,,,,,,,,,,,,,
1644854277.148114,251.000000,0.000000,4204.871582,4229.102539,4216.538574,4165.384766,4210.128418,4216.410156,4213.461426,4207.948730,4224.102539,4208.333496,4135.769043,4199.743652,4170.384766,4189.743652,2198.000000,4.000000,86.000000,,,,0.000000,4.000000,4.000000,4.000000,4.000000,4.000000,4.000000,4.000000,4.000000,4.000000,4.000000,4.000000,4.000000,4.000000,4.000000,100.000000,,,,,,,,,,,,,,,,
1644854277.152055,252.000000,0.000000,4210.256348,4231.794922,4217.436035,4169.743652,4222.436035,4216.922852,4215.769043,4206.794922,4225.384766,4216.025879,4145.897461,4193.589844,4179.487305,4193.333496,3515.000000,4.000000,86.000000,,,,0.000000,4.000000,4.000000,4.000000,4.000000,4.000000,4.000000,4.000000,4.000000,4.000000,4.000000,4.000000,4.000000,4.000000,4.000000,100.000000,,,,,,,,,,,,,,,,
1644854277.155995,253.000000,0.000000,4218.205078,4234.102539,4221.410156,4174.871582,4232.692383,4218.077148,4218.077148,4208.717773,4228.333496,4224.743652,4157.051270,4190.384766,4191.794922,4198.846191,3483.000000,4.000000,86.000000,,,,0.000000,4.000000,4.000000,4.000000,4.000000,4.000000,4.000000,4.000000,4.000000,4.000000,4.000000,4.000000,4.000000,4.000000,4.000000,100.000000,,,,,,,,,,,,,,,,
1644854277.159935,254.000000,0.000000,4223.717773,4235.512695,4226.025879,4173.589844,4235.000000,4219.230957,4218.461426,4211.282227,4230.769043,4228.077148,4163.077148,4193.461426,4199.102539,4202.051270,3531.000000,4.000000,86.000000,,,,0.000000,4.000000,4.000000,4.000000,4.000000,4.000000,4.000000,4.000000,4.000000,4.000000,4.000000,4.000000,4.000000,4.000000,4.000000,100.000000,,,,,,,,,,,,,,,,
1644854277.163875,255.000000,0.000000,4222.692383,4235.897461,4228.077148,4164.102539,4227.692383,4219.102539,4217.563965,4211.538574,4229.743652,4223.077148,4159.230957,4200.256348,4194.358887,4199.487305,113.000000,4.000000,86.000000,,,,0.000000,4.000000,4.000000,4.000000,4.000000,4.000000,4.000000,4.000000,4.000000,4.000000,4.000000,4.000000,4.000000,4.000000,4.000000,100.000000,,,,,,,,,,,,,,,,
1644854277.167815,0.000000,0.000000,4215.128418,4235.256348,4226.282227,4152.051270,4215.128418,4217.563965,4216.794922,4209.230957,4225.512695,4213.974121,4146.282227,4204.743652,4177.179688,4191.922852,3418.000000,4.000000,86.000000,,,,0.000000,4.000000,4.000000,4.000000,4.000000,4.000000,4.000000,4.000000,4.000000,4.000000,4.000000,4.000000,4.000000,4.000000,4.000000,100.000000,,,,,,,,,,,,,,,,
1644854277.171755,1.000000,0.000000,4205.384766,4234.102539,4221.410156,4146.410156,4205.769043,4215.769043,4217.051270,4206.410156,4220.897461,4207.692383,4132.692383,4202.563965,4155.512695,4184.102539,3311.000000,4.000000,86.000000,,,,0.000000,4.000000,4.000000,4.000000,4.000000,4.000000,4.000000,4.000000,4.000000,4.000000,4.000000,4.000000,4.000000,4.000000,4.000000,100.000000,,,,,,,,,,,,,,,,
1644854277.175695,2.000000,0.000000,4198.846191,4232.436035,4216.282227,4151.922852,4205.769043,4215.256348,4217.436035,4205.641113,4218.974121,4208.589844,4128.333496,4194.487305,4141.922852,4181.410156,3543.000000,4.000000,86.000000,,,,0.000000,4.000000,4.000000,4.000000,4.000000,4.000000,4.000000,4.000000,4.000000,4.000000,4.000000,4.000000,4.000000,4.000000,4.000000,100.000000,,,,,,,,,,,,,,,,
1644854277.179535,3.000000,0.000000,4198.205078,4230.256348,4213.461426,4165.000000,4215.000000,4216.666504,4217.563965,4208.205078,4220.769043,4214.615234,4136.410156,4184.615234,4144.871582,4185.512695,3647.000000,4.000000,86.000000,,,,0.000000,4.000000,4.000000,4.000000,4.000000,4.000000,4.000000,4.000000,4.000000,4.000000,4.000000,4.000000,4.000000,4.000000,4.000000,100.000000,,,,,,,,,,,,,,,,
1644854277.183476,4.000000,0.000000,4201.922852,4226.922852,4213.589844,4175.769043,4226.922852,4218.974121,4218.205078,4212.692383,4223.846191,4219.358887,4149.487305,4177.948730,4162.307617,4193.077148,3518.000000,4.000000,86.000000,,,,0.000000,4.000000,4.000000,4.000000,4.000000,4.000000,4.000000,4.000000,4.000000,4.000000,4.000000,4.000000,4.000000,4.000000,4.000000,100.000000,,,,,,,,,,,,,,,,
1644854277.187416,5.000000,0.000000,4204.743652,4222.563965,4215.128418,4176.538574,4233.333496,4220.512695,4220.384766,4215.897461,4225.384766,4218.589844,4155.769043,4177.051270,4182.820313,4197.563965,3321.000000,4.000000,86.000000,,,,0.000000,4.000000,4.000000,4.000000,4.000000,4.000000,4.000000,4.000000,4.000000,4.000000,4.000000,4.000000,4.000000,4.000000,4.000000,100.000000,,,,,,,,,,,,,,,,
1644854277.191356,6.000000,0.000000,4203.205078,4218.333496,4215.897461,4168.717773,4231.282227,4220.384766,4222.563965,4215.897461,4223.846191,4213.589844,4150.000000,4181.153809,4193.333496,4194.230957,2580.000000,4.000000,86.000000,,,,0.000000,4.000000,4.000000,4.000000,4.000000,4.000000,4.000000,4.000000,4.000000,4.000000,4.000000,4.000000,4.000000,4.000000,4.000000,100.000000,,,,,,,,,,,,,,,,
1644854277.195296,7.000000,0.000000,4198.461426,4216.282227,4214.743652,4160.000000,4224.487305,4219.358887,4222.692383,4213.717773,4220.897461,4209.358887,4137.051270,4187.563965,4188.717773,4184.230957,3250.000000,4.000000,86.000000,,,,0.000000,4.000000,4.000000,4.000000,4.000000,4.000000,4.000000,4.000000,4.000000,4.000000,4.000000,4.000000,4.000000,4.000000,4.000000,100.000000,,,,,,,,,,,,,,,,
1644854277.199236,8.000000,0.000000,4195.384766,4217.179688,4212.563965,4157.692383,4218.846191,4218.589844,4220.000000,4212.307617,4218.717773,4209.102539,4127.307617,4192.692383,4175.641113,4174.615234,3322.000000,4.000000,86.000000,,,,0.000000,4.000000,4.000000,4.000000,4.000000,4.000000,4.000000,4.000000,4.000000,4.000000,4.000000,4.000000,4.000000,4.000000,4.000000,100.000000,,,,,,,,,,,,,,,,
1644854277.203176,9.000000,0.000000,4198.333496,4219.871582,4211.153809,4162.307617,4216.922852,4218.589844,4217.179688,4213.461426,4217.948730,4210.512695,4127.563965,4193.333496,4165.769043,4173.589844,3521.000000,4.000000,86.000000,,,,0.000000,4.000000,4.000000,4.000000,4.000000,4.000000,4.000000,4.000000,4.000000,4.000000,4.000000,4.000000,4.000000,4.000000,4.000000,100.000000,,,,,,,,,,,,,,,,
1644854277.207116,10.000000,0.000000,4206.410156,4222.307617,4212.436035,4168.077148,4216.922852,4218.717773,4216.538574,4216.153809,4217.179688,4208.077148,4136.410156,4189.615234,4166.025879,4182.692383,3537.000000,4.000000,86.000000,,,,0.000000,4.000000,4.000000,4.000000,4.000000,4.000000,4.000000,4.000000,4.000000,4.000000,4.000000,4.000000,4.000000,4.000000,4.000000,100.000000,,,,,,,,,,,,,,,,
1644854277.211056,11.000000,0.000000,4214.358887,4222.948730,4215.897461,4169.615234,4215.641113,4218.205078,4217.692383,4217.820313,4214.871582,4199.871582,4146.922852,4184.871582,4173.717773,4195.512695,2576.000000,4.000000,86.000000,,,,0.000000,4.000000,4.000000,4.000000,4.000000,4.000000,4.000000,4.000000,4.000000,4.000000,4.000000,4.000000,4.000000,4.000000,4.000000,100.000000,,,,,,,,,,,,,,,,
1644854277.214996,12.000000,0.000000,4215.641113,4221.922852,4218.974121,4166.794922,4212.692383,4216.922852,4217.692383,4217.051270,4211.410156,4190.384766,4151.538574,4182.692383,4180.000000,4203.205078,3474.000000,4.000000,86.000000,,,,0.000000,4.000000,4.000000,4.000000,4.000000,4.000000,4.000000,4.000000,4.000000,4.000000,4.000000,4.000000,4.000000,4.000000,4.000000,100.000000,,,,,,,,,,,,,,,,
1644854277.218936,13.000000,0.000000,4208.205078,4220.128418,4219.358887,4163.589844,4209.615234,4215.256348,4215.128418,4214.358887,4208.717773,4186.666504,4147.563965,4183.461426,4178.205078,4201.410156,3669.000000,4.000000,86.000000,,,,0.000000,4.000000,4.000000,4.000000,4.000000,4.000000,4.000000,4.000000,4.000000,4.000000,4.000000,4.000000,4.000000,4.000000,4.000000,100.000000,,,,,,,,,,,,,,,,
1644854277.222877,14.000000,0.000000,4195.897461,4218.205078,4216.922852,4164.230957,4208.077148,4213.974121,4212.051270,4211.666504,4208.205078,4191.794922,4138.205078,4184.358887,4168.846191,4193.589844,3537.000000,4.000000,86.000000,,,,0.000000,4.000000,4.000000,4.000000,4.000000,4.000000,4.000000,4.000000,4.000000,4.000000,4.000000,4.000000,4.000000,4.000000,4.000000,100.000000,,,,,,,,,,,,,,,,
1644854277.226817,15.000000,0.000000,4186.282227,4216.538574,4214.358887,4167.436035,4208.077148,4213.461426,4211.410156,4210.000000,4209.743652,4202.436035,4130.128418,4182.692383,4158.205078,4185.897461,2576.000000,4.000000,86.000000,,,,0.000000,4.000000,4.000000,4.000000,4.000000,4.000000,4.000000,4.000000,4.000000,4.000000,4.000000,4.000000,4.000000,4.000000,4.000000,100.000000,,,,,,,,,,,,,,,,
1644854277.230757,16.000000,0.000000,4185.000000,4215.384766,4213.717773,4168.717773,4207.820313,4213.846191,4213.974121,4209.102539,4212.051270,4211.922852,4128.461426,4180.256348,4153.333496,4182.051270,3474.000000,4.000000,86.000000,,,,0.000000,4.000000,4.000000,4.000000,4.000000,4.000000,4.000000,4.000000,4.000000,4.000000,4.000000,4.000000,4.000000,4.000000,4.000000,100.000000,,,,,,,,,,,,,,,,
1644854277.234697,17.000000,0.000000,4192.051270,4215.384766,4215.256348,4165.128418,4206.410156,4214.615234,4216.922852,4208.974121,4214.615234,4216.410156,4133.846191,4180.641113,4157.692383,4181.794922,3669.000000,4.000000,86.000000,1,1,2,0.000000,4.000000,4.000000,4.000000,4.000000,4.000000,4.000000,4.000000,4.000000,4.000000,4.000000,4.000000,4.000000,4.000000,4.000000,100.000000,,,,,,,,,,,,,,,,
1644854277.238637,18.000000,0.000000,4201.666504,4216.922852,4216.922852,4158.589844,4204.230957,4215.384766,4218.077148,4209.615234,4217.179688,4216.666504,4142.563965,4185.897461,4169.615234,4183.846191,3537.000000,4.000000,86.000000,,,,0.000000,4.000000,4.000000,4.000000,4.000000,4.000000,4.000000,4.000000,4.000000,4.000000,4.000000,4.000000,4.000000,4.000000,4.000000,100.000000,,,,,,,,,,,,,,,,
1644854277.242477,19.000000,0.000000,4208.077148,4220.000000,4217.179688,4154.743652,4203.333496,4215.897461,4218.077148,4212.179688,4219.615234,4216.410156,4149.615234,4193.974121,4183.333496,4187.948730,2576.000000,4.000000,86.000000,,,,0.000000,4.000000,4.000000,4.000000,4.000000,4.000000,4.000000,4.000000,4.000000,4.000000,4.000000,4.000000,4.000000,4.000000,4.000000,100.000000,,,,,,,,,,,,,,,,
1644854277.246417,20.000000,0.000000,4209.358887,4223.205078,4216.922852,4158.333496,4205.384766,4216.410156,4219.358887,4216.410156,4222.307617,4218.205078,4152.692383,4200.384766,4193.717773,4193.846191,3474.000000,4.000000,86.000000,,,,0.000000,4.000000,4.000000,4.000000,4.000000,4.000000,4.000000,4.000000,4.000000,4.000000,4.000000,4.000000,4.000000,4.000000,4.000000,100.000000,,,,,,,,,,,,,,,,
1644854277.250357,21.000000,0.000000,4208.461426,4225.128418,4217.563965,4168.717773,4210.769043,4216.794922,4222.179688,4220.512695,4224.871582,4221.794922,4153.846191,4201.794922,4197.692383,4200.000000,3669.000000,4.000000,86.000000,,,,0.000000,4.000000,4.000000,4.000000,4.000000,4.000000,4.000000,4.000000,4.000000,4.000000,4.000000,4.000000,4.000000,4.000000,4.000000,100.000000,,,,,,,,,,,,,,,,
1644854277.254298,22.000000,0.000000,4208.717773,4224.743652,4219.871582,4179.102539,4217.563965,4217.436035,4223.974121,4221.666504,4226.666504,4224.743652,4155.128418,4197.948730,4195.641113,4203.333496,3537.000000,4.000000,86.000000,,,,0.000000,4.000000,4.000000,4.000000,4.000000,4.000000,4.000000,4.000000,4.000000,4.000000,4.000000,4.000000,4.000000,4.000000,4.000000,100.000000,,,,,,,,,,,,,,,,
1644854277.258238,23.000000,0.000000,4209.615234,4221.666504,4222.307617,4181.666504,4222.563965,4218.461426,4222.051270,4219.102539,4226.025879,4224.871582,4156.410156,4191.025879,4189.230957,4201.538574,2576.000000,4.000000,86.000000,,,,0.000000,4.000000,4.000000,4.000000,4.000000,4.000000,4.000000,4.000000,4.000000,4.000000,4.000000,4.000000,4.000000,4.000000,4.000000,100.000000,,,,,,,,,,,,,,,,
1644854277.262178,24.000000,0.000000,4207.563965,4216.666504,4222.820313,4173.077148,4223.333496,4219.230957,4217.051270,4214.487305,4222.563965,4221.538574,4155.384766,4184.487305,4180.769043,4194.871582,3474.000000,4.000000,86.000000,,,,0.000000,4.000000,4.000000,4.000000,4.000000,4.000000,4.000000,4.000000,4.000000,4.000000,4.000000,4.000000,4.000000,4.000000,4.000000,100.000000,,,,,,,,,,,,,,,,
1644854277.266118,25.000000,0.000000,4200.128418,4211.922852,4220.512695,4158.846191,4219.230957,4218.461426,4213.077148,4211.025879,4217.563965,4215.384766,4151.410156,4181.153809,4172.563965,4186.025879,3669.000000,4.000000,86.000000,,,,0.000000,4.000000,4.000000,4.000000,4.000000,4.000000,4.000000,4.000000,4.000000,4.000000,4.000000,4.000000,4.000000,4.000000,4.000000,100.000000,,,,,,,,,,,,,,,,
1644854277.270058,26.000000,0.000000,4190.256348,4209.487305,4217.436035,4149.358887,4212.563965,4216.153809,4212.948730,4210.256348,4213.077148,4208.589844,4146.282227,4182.307617,4167.436035,4178.974121,3537.000000,4.000000,86.000000,,,,0.000000,4.000000,4.000000,4.000000,4.000000,4.000000,4.000000,4.000000,4.000000,4.000000,4.000000,4.000000,4.000000,4.000000,4.000000,100.000000,,,,,,,,,,,,,,,,
1644854277.273898,27.000000,0.000000,4184.230957,4211.153809,4216.025879,4151.538574,4207.820313,4214.230957,4216.153809,4212.179688,4211.794922,4203.846191,4143.461426,4187.692383,4167.179688,4177.051270,2576.000000,4.000000,86.000000,,,,0.000000,4.000000,4.000000,4.000000,4.000000,4.000000,4.000000,4.000000,4.000000,4.000000,4.000000,4.000000,4.000000,4.000000,4.000000,100.000000,,,,,,,,,,,,,,,,
1644854277.277838,28.000000,0.000000,4186.153809,4216.025879,4217.051270,4163.205078,4208.333496,4215.384766,4219.743652,4215.000000,4214.230957,4202.563965,4144.102539,4194.871582,4171.410156,4181.153809,3474.000000,4.000000,86.000000,,,,0.000000,4.000000,4.000000,4.000000,4.000000,4.000000,4.000000,4.000000,4.000000,4.000000,4.000000,4.000000,4.000000,4.000000,4.000000,100.000000,,,,,,,,,,,,,,,,
1644854277.281778,29.000000,0.000000,4193.846191,4221.410156,4219.487305,4174.230957,4213.205078,4219.871582,4221.666504,4217.179688,4218.333496,4204.102539,4146.025879,4201.282227,4176.538574,4188.974121,3669.000000,4.000000,86.000000,,,,0.000000,4.000000,4.000000,4.000000,4.000000,4.000000,4.000000,4.000000,4.000000,4.000000,4.000000,4.000000,4.000000,4.000000,4.000000,100.000000,,,,,,,,,,,,,,,,
1644854277.285718,30.000000,0.000000,4201.410156,4223.333496,4221.410156,4175.256348,4217.692383,4225.128418,4221.794922,4218.077148,4220.897461,4206.794922,4145.384766,4204.102539,4178.461426,4195.897461,3537.000000,4.000000,86.000000,,,,0.000000,4.000000,4.000000,4.000000,4.000000,4.000000,4.000000,4.000000,4.000000,4.000000,4.000000,4.000000,4.000000,4.000000,4.000000,100.000000,,,,,,,,,,,,,,,,
1644854277.289559,31.000000,0.000000,4204.358887,4220.512695,4221.410156,4165.897461,4217.563965,4227.436035,4221.282227,4217.948730,4220.000000,4208.846191,4140.256348,4202.179688,4175.897461,4197.307617,2576.000000,4.000000,86.000000,,,,0.000000,4.000000,4.000000,4.000000,4.000000,4.000000,4.000000,4.000000,4.000000,4.000000,4.000000,4.000000,4.000000,4.000000,4.000000,100.000000,,,,,,,,,,,,,,,,
1644854277.293499,32.000000,0.000000,4202.563965,4215.256348,4220.000000,4153.717773,4213.205078,4225.641113,4220.256348,4217.051270,4216.538574,4208.846191,4133.077148,4195.512695,4170.897461,4192.051270,0.000000,4.000000,86.000000,,,,0.000000,4.000000,4.000000,4.000000,4.000000,4.000000,4.000000,4.000000,4.000000,4.000000,4.000000,4.000000,4.000000,4.000000,4.000000,100.000000,,,,,,,,,,,,,,,,
1644854277.297439,33.000000,0.000000,4199.487305,4212.179688,4218.846191,4148.333496,4208.461426,4222.307617,4218.461426,4215.641113,4212.948730,4206.025879,4128.333496,4186.666504,4167.436035,4183.205078,0.000000,4.000000,86.000000,,,,0.000000,4.000000,4.000000,4.000000,4.000000,4.000000,4.000000,4.000000,4.000000,4.000000,4.000000,4.000000,4.000000,4.000000,4.000000,100.000000,,,,,,,,,,,,,,,,
1644854277.301379,34.000000,0.000000,4197.948730,4214.358887,4220.000000,4152.948730,4207.820313,4220.769043,4216.794922,4214.230957,4210.897461,4201.410156,4128.717773,4179.743652,4167.820313,4177.051270,0.000000,4.000000,86.000000,,,,0.000000,4.000000,4.000000,4.000000,4.000000,4.000000,4.000000,4.000000,4.000000,4.000000,4.000000,4.000000,4.000000,4.000000,4.000000,100.000000,,,,,,,,,,,,,,,,
1644854277.305219,35.000000,0.000000,4198.205078,4221.025879,4223.974121,4162.692383,4212.307617,4222.307617,4217.179688,4213.717773,4210.512695,4196.794922,4133.461426,4178.717773,4171.025879,4178.333496,0.000000,4.000000,86.000000,,,,0.000000,4.000000,4.000000,4.000000,4.000000,4.000000,4.000000,4.000000,4.000000,4.000000,4.000000,4.000000,4.000000,4.000000,4.000000,100.000000,,,,,,,,,,,,,,,,
1644854277.309159,36.000000,0.000000,4199.230957,4228.589844,4229.358887,4168.974121,4220.128418,4225.897461,4219.871582,4214.230957,4211.025879,4194.358887,4140.000000,4184.358887,4175.128418,4186.538574,0.000000,4.000000,86.000000,,,,0.000000,4.000000,4.000000,4.000000,4.000000,4.000000,4.000000,4.000000,4.000000,4.000000,4.000000,4.000000,4.000000,4.000000,4.000000,100.000000,,,,,,,,,,,,,,,,
1644854277.313099,37.000000,0.000000,4200.384766,4233.333496,4233.333496,4167.563965,4227.179688,4228.717773,4222.692383,4215.256348,4211.922852,4195.128418,4146.025879,4193.461426,4178.333496,4197.051270,0.000000,4.000000,86.000000,,,,0.000000,4.000000,4.000000,4.000000,4.000000,4.000000,4.000000,4.000000,4.000000,4.000000,4.000000,4.000000,4.000000,4.000000,4.000000,100.000000,,,,,,,,,,,,,,,,
1644854277.317040,38.000000,0.000000,4202.179688,4232.820313,4233.717773,4162.436035,4229.871582,4228.846191,4222.436035,4216.025879,4212.948730,4199.230957,4150.512695,4201.153809,4180.256348,4204.487305,0.000000,4.000000,86.000000,,,,0.000000,4.000000,4.000000,4.000000,4.000000,4.000000,4.000000,4.000000,4.000000,4.000000,4.000000,4.000000,4.000000,4.000000,4.000000,100.000000,,,,,,,,,,,,,,,,
1644854277.320980,39.000000,0.000000,4205.384766,4227.948730,4230.512695,4162.563965,4226.922852,4226.794922,4219.358887,4216.153809,4213.333496,4205.128418,4153.333496,4203.974121,4181.282227,4206.794922,0.000000,4.000000,86.000000,2,1,2,0.000000,4.000000,4.000000,4.000000,4.000000,4.000000,4.000000,4.000000,4.000000,4.000000,4.000000,4.000000,4.000000,4.000000,4.000000,100.000000,,,,,,,,,,,,,,,,
1644854277.324920,40.000000,0.000000,4209.102539,4221.410156,4226.025879,4172.820313,4221.025879,4224.615234,4216.410156,4216.025879,4212.820313,4209.743652,4154.358887,4201.922852,4181.666504,4205.000000,0.000000,4.000000,86.000000,,,,0.000000,4.000000,4.000000,4.000000,4.000000,4.000000,4.000000,4.000000,4.000000,4.000000,4.000000,4.000000,4.000000,4.000000,4.000000,100.000000,,,,,,,,,,,,,,,,
1644854277.328860,41.000000,0.000000,4209.871582,4216.153809,4222.820313,4188.077148,4216.666504,4224.230957,4216.538574,4216.025879,4211.794922,4210.256348,4153.589844,4197.820313,4181.025879,4200.128418,0.000000,4.000000,86.000000,,,,0.000000,4.000000,4.000000,4.000000,4.000000,4.000000,4.000000,4.000000,4.000000,4.000000,4.000000,4.000000,4.000000,4.000000,4.000000,100.000000,,,,,,,,,,,,,,,,
1644854277.332800,42.000000,0.000000,4205.128418,4213.974121,4221.538574,4196.410156,4216.666504,4225.769043,4218.974121,4216.410156,4211.153809,4206.538574,4151.410156,4194.487305,4179.358887,4192.820313,0.000000,4.000000,86.000000,,,,0.000000,4.000000,4.000000,4.000000,4.000000,4.000000,4.000000,4.000000,4.000000,4.000000,4.000000,4.000000,4.000000,4.000000,4.000000,100.000000,,,,,,,,,,,,,,,,
1644854277.336740,43.000000,0.000000,4195.641113,4214.102539,4221.538574,4189.743652,4219.743652,4227.051270,4221.153809,4217.051270,4211.794922,4200.512695,4147.692383,4194.102539,4176.538574,4184.358887,0.000000,4.000000,86.000000,,,,0.000000,4.000000,4.000000,4.000000,4.000000,4.000000,4.000000,4.000000,4.000000,4.000000,4.000000,4.000000,4.000000,4.000000,4.000000,100.000000,,,,,,,,,,,,,,,,
1644854277.340680,44.000000,0.000000,4186.922852,4214.615234,4222.051270,4171.410156,4221.666504,4226.025879,4221.410156,4217.820313,4213.589844,4195.384766,4142.179688,4196.922852,4172.692383,4178.589844,0.000000,4.000000,86.000000,,,,0.000000,4.000000,4.000000,4.000000,4.000000,4.000000,4.000000,4.000000,4.000000,4.000000,4.000000,4.000000,4.000000,4.000000,4.000000,100.000000,,,,,,,,,,,,,,,,
1644854277.344620,45.000000,0.000000,4184.743652,4214.487305,4222.692383,4152.948730,4219.615234,4222.307617,4220.769043,4218.461426,4215.641113,4193.077148,4135.641113,4201.153809,4168.077148,4179.358887,0.000000,4.000000,86.000000,,,,0.000000,4.000000,4.000000,4.000000,4.000000,4.000000,4.000000,4.000000,4.000000,4.000000,4.000000,4.000000,4.000000,4.000000,4.000000,100.000000,,,,,,,,,,,,,,,,
1644854277.348560,46.000000,0.000000,4191.153809,4214.102539,4223.333496,4144.743652,4215.384766,4217.948730,4220.256348,4219.102539,4216.666504,4195.000000,4131.410156,4204.230957,4164.230957,4187.307617,0.000000,4.000000,86.000000,,,,0.000000,4.000000,4.000000,4.000000,4.000000,4.000000,4.000000,4.000000,4.000000,4.000000,4.000000,4.000000,4.000000,4.000000,4.000000,100.000000,,,,,,,,,,,,,,,,
1644854277.352500,47.000000,0.000000,4202.948730,4215.128418,4223.461426,4148.717773,4212.563965,4215.512695,4218.846191,4220.000000,4216.794922,4201.410156,4132.692383,4204.102539,4164.743652,4197.436035,0.000000,4.000000,86.000000,,,,0.000000,4.000000,4.000000,4.000000,4.000000,4.000000,4.000000,4.000000,4.000000,4.000000,4.000000,4.000000,4.000000,4.000000,4.000000,100.000000,,,,,,,,,,,,,,,,
1644854277.356441,48.000000,0.000000,4211.922852,4216.794922,4223.333496,4158.589844,4213.846191,4215.641113,4215.641113,4221.153809,4217.179688,4210.641113,4139.358887,4201.410156,4171.153809,4202.307617,0.000000,4.000000,86.000000,,,,0.000000,4.000000,4.000000,4.000000,4.000000,4.000000,4.000000,4.000000,4.000000,4.000000,4.000000,4.000000,4.000000,4.000000,4.000000,100.000000,,,,,,,,,,,,,,,,
1644854277.360381,49.000000,0.000000,4210.000000,4215.384766,4222.948730,4166.025879,4217.307617,4216.410156,4212.179688,4221.666504,4218.077148,4218.717773,4146.025879,4197.692383,4180.897461,4198.333496,0.000000,4.000000,86.000000,,,,0.000000,4.000000,4.000000,4.000000,4.000000,4.000000,4.000000,4.000000,4.000000,4.000000,4.000000,4.000000,4.000000,4.000000,4.000000,100.000000,,,,,,,,,,,,,,,,
1644854277.364321,50.000000,0.000000,4195.128418,4207.692383,4222.563965,4165.897461,4219.487305,4215.897461,4211.282227,4220.897461,4218.589844,4221.410156,4146.025879,4194.102539,4186.922852,4188.077148,0.000000,4.000000,86.000000,,,,0.000000,4.000000,4.000000,4.000000,4.000000,4.000000,4.000000,4.000000,4.000000,4.000000,4.000000,4.000000,4.000000,4.000000,4.000000,100.000000,,,,,,,,,,,,,,,,
1644854277.368361,51.000000,0.000000,4174.743652,4195.256348,4221.666504,4159.102539,4218.205078,4214.487305,4214.102539,4218.846191,4217.692383,4217.436035,4137.820313,4190.128418,4184.102539,4177.692383,0.000000,4.000000,86.000000,,,,0.000000,4.000000,4.000000,4.000000,4.000000,4.000000,4.000000,4.000000,4.000000,4.000000,4.000000,4.000000,4.000000,4.000000,4.000000,100.000000,,,,,,,,,,,,,,,,
1644854277.372301,52.000000,0.000000,4160.641113,4185.128418,4220.000000,4151.025879,4214.615234,4213.589844,4217.692383,4216.794922,4216.282227,4209.871582,4128.205078,4186.538574,4174.487305,4171.025879,0.000000,4.000000,86.000000,,,,0.000000,4.000000,4.000000,4.000000,4.000000,4.000000,4.000000,4.000000,4.000000,4.000000,4.000000,4.000000,4.000000,4.000000,4.000000,100.000000,,,,,,,,,,,,,,,,
1644854277.376241,53.000000,0.000000,4160.641113,4185.641113,4217.692383,4146.922852,4211.922852,4214.358887,4218.589844,4216.410156,4216.153809,4204.358887,4126.282227,4185.000000,4166.922852,4168.461426,0.000000,4.000000,86.000000,,,,0.000000,4.000000,4.000000,4.000000,4.000000,4.000000,4.000000,4.000000,4.000000,4.000000,4.000000,4.000000,4.000000,4.000000,4.000000,100.000000,,,,,,,,,,,,,,,,
1644854277.380181,54.000000,0.000000,4173.333496,4200.000000,4215.769043,4149.102539,4212.563965,4216.538574,4216.922852,4218.333496,4218.205078,4205.256348,4135.256348,4186.922852,4169.102539,4169.230957,0.000000,4.000000,86.000000,,,,0.000000,4.000000,4.000000,4.000000,4.000000,4.000000,4.000000,4.000000,4.000000,4.000000,4.000000,4.000000,4.000000,4.000000,4.000000,100.000000,,,,,,,,,,,,,,,,
1644854277.384121,55.000000,0.000000,4191.025879,4222.820313,4215.384766,4156.025879,4217.436035,4218.589844,4216.025879,4222.436035,4222.051270,4212.307617,4149.358887,4191.282227,4181.025879,4173.333496,0.000000,4.000000,86.000000,,,,0.000000,4.000000,4.000000,4.000000,4.000000,4.000000,4.000000,4.000000,4.000000,4.000000,4.000000,4.000000,4.000000,4.000000,4.000000,100.000000,,,,,,,,,,,,,,,,
1644854277.388061,56.000000,0.000000,4204.743652,4242.948730,4216.538574,4163.461426,4224.615234,4219.743652,4218.205078,4227.692383,4226.410156,4221.153809,4158.461426,4195.128418,4194.615234,4179.743652,0.000000,4.000000,86.000000,,,,0.000000,4.000000,4.000000,4.000000,4.000000,4.000000,4.000000,4.000000,4.000000,4.000000,4.000000,4.000000,4.000000,4.000000,4.000000,100.000000,,,,,,,,,,,,,,,,
1644854277.392001,57.000000,0.000000,4210.384766,4250.384766,4218.589844,4167.820313,4230.256348,4219.871582,4221.922852,4232.179688,4229.871582,4227.051270,4157.436035,4196.410156,4201.666504,4186.025879,0.000000,4.000000,86.000000,,,,0.000000,4.000000,4.000000,4.000000,4.000000,4.000000,4.000000,4.000000,4.000000,4.000000,4.000000,4.000000,4.000000,4.000000,4.000000,100.000000,,,,,,,,,,,,,,,,
1644854277.395942,58.000000,0.000000,4209.230957,4242.692383,4220.641113,4167.436035,4230.256348,4219.102539,4223.077148,4233.846191,4231.794922,4228.077148,4149.358887,4195.641113,4199.358887,4190.512695,0.000000,4.000000,86.000000,,,,0.000000,4.000000,4.000000,4.000000,4.000000,4.000000,4.000000,4.000000,4.000000,4.000000,4.000000,4.000000,4.000000,4.000000,4.000000,100.000000,1.000000,66.666664,4.000000,4.000000,4.000000,4.000000,4.000000,4.000000,4.000000,4.000000,4.000000,4.000000,0.000000,4.000000,4.000000,4.000000
1644854277.399882,59.000000,0.000000,4206.282227,4227.051270,4223.077148,4164.358887,4223.974121,4218.077148,4220.512695,4231.666504,4232.563965,4225.256348,4142.436035,4194.871582,4191.666504,4193.205078,0.000000,4.000000,86.000000,,,,0.000000,4.000000,4.000000,4.000000,4.000000,4.000000,4.000000,4.000000,4.000000,4.000000,4.000000,4.000000,4.000000,4.000000,4.000000,100.000000,,,,,,,,,,,,,,,,
1644854277.403822,60.000000,0.000000,4205.769043,4214.230957,4226.538574,4161.410156,4215.384766,4216.922852,4216.666504,4226.666504,4232.563965,4220.897461,4143.589844,4195.256348,4184.743652,4196.282227,0.000000,4.000000,86.000000,,,,0.000000,4.000000,4.000000,4.000000,4.000000,4.000000,4.000000,4.000000,4.000000,4.000000,4.000000,4.000000,4.000000,4.000000,4.000000,100.000000,,,,,,,,,,,,,,,,
1644854277.407762,61.000000,0.000000,4209.230957,4211.666504,4230.128418,4160.256348,4210.256348,4215.641113,4215.000000,4221.794922,4231.666504,4217.692383,4153.461426,4196.410156,4182.692383,4199.871582,0.000000,4.000000,86.000000,,,,0.000000,4.000000,4.000000,4.000000,4.000000,4.000000,4.000000,4.000000,4.000000,4.000000,4.000000,4.000000,4.000000,4.000000,4.000000,100.000000,,,,,,,,,,,,,,,,
1644854277.411702,62.000000,0.000000,4214.871582,4218.846191,4231.538574,4160.769043,4212.436035,4214.743652,4215.512695,4219.358887,4229.358887,4217.948730,4166.025879,4196.538574,4185.769043,4202.563965,0.000000,4.000000,86.000000,,,,0.000000,4.000000,4.000000,4.000000,4.000000,4.000000,4.000000,4.000000,4.000000,4.000000,4.000000,4.000000,4.000000,4.000000,4.000000,100.000000,,,,,,,,,,,,,,,,
1644854277.415642,63.000000,0.000000,4219.358887,4228.589844,4228.974121,4161.538574,4220.384766,4214.615234,4216.282227,4219.487305,4225.897461,4222.179688,4173.589844,4195.000000,4191.025879,4202.820313,0.000000,4.000000,86.000000,,,,0.000000,4.000000,4.000000,4.000000,4.000000,4.000000,4.000000,4.000000,4.000000,4.000000,4.000000,4.000000,4.000000,4.000000,4.000000,100.000000,,,,,,,,,,,,,,,,
1644854277.419582,64.000000,0.000000,4219.102539,4232.692383,4223.205078,4161.538574,4228.589844,4215.000000,4215.512695,4220.641113,4222.307617,4228.205078,4173.077148,4193.077148,4194.487305,4201.153809,0.000000,4.000000,86.000000,,,,0.000000,4.000000,4.000000,4.000000,4.000000,4.000000,4.000000,4.000000,4.000000,4.000000,4.000000,4.000000,4.000000,4.000000,4.000000,100.000000,,,,,,,,,,,,,,,,
1644854277.423522,65.000000,0.000000,4212.563965,4228.846191,4217.436035,4160.384766,4230.641113,4215.000000,4214.230957,4221.410156,4220.128418,4231.922852,4167.051270,4192.692383,4194.487305,4198.974121,0.000000,4.000000,86.000000,,,,0.000000,4.000000,4.000000,4.000000,4.000000,4.000000,4.000000,4.000000,4.000000,4.000000,4.000000,4.000000,4.000000,4.000000,4.000000,100.000000,,,,,,,,,,,,,,,,
1644854277.427462,66.000000,0.000000,4202.436035,4220.384766,4214.871582,4158.974121,4223.589844,4213.589844,4214.102539,4222.051270,4219.487305,4230.384766,4160.512695,4195.000000,4192.820313,4196.538574,0.000000,4.000000,86.000000,,,,0.000000,4.000000,4.000000,4.000000,4.000000,4.000000,4.000000,4.000000,4.000000,4.000000,4.000000,4.000000,4.000000,4.000000,4.000000,100.000000,,,,,,,,,,,,,,,,
1644854277.431402,67.000000,0.000000,4194.487305,4213.461426,4216.025879,4158.461426,4210.897461,4210.769043,4215.128418,4223.077148,4220.641113,4223.333496,4155.256348,4198.846191,4192.051270,4191.666504,0.000000,4.000000,86.000000,,,,0.000000,4.000000,4.000000,4.000000,4.000000,4.000000,4.000000,4.000000,4.000000,4.000000,4.000000,4.000000,4.000000,4.000000,4.000000,100.000000,,,,,,,,,,,,,,,,
1644854277.435343,68.000000,0.000000,4193.461426,4211.282227,4218.717773,4158.589844,4200.897461,4208.333496,4215.769043,4224.358887,4222.436035,4214.102539,4149.871582,4202.307617,4192.307617,4183.461426,0.000000,4.000000,86.000000,,,,0.000000,4.000000,4.000000,4.000000,4.000000,4.000000,4.000000,4.000000,4.000000,4.000000,4.000000,4.000000,4.000000,4.000000,4.000000,100.000000,,,,,,,,,,,,,,,,
1644854277.439283,69.000000,0.000000,4199.871582,4213.461426,4219.743652,4157.436035,4200.000000,4208.333496,4215.512695,4224.871582,4224.102539,4207.051270,4143.205078,4203.205078,4191.666504,4175.769043,0.000000,4.000000,86.000000,,,,0.000000,4.000000,4.000000,4.000000,4.000000,4.000000,4.000000,4.000000,4.000000,4.000000,4.000000,4.000000,4.000000,4.000000,4.000000,100.000000,,,,,,,,,,,,,,,,
1644854277.443223,70.000000,0.000000,4209.871582,4217.051270,4217.563965,4153.461426,4207.820313,4211.153809,4215.128418,4224.230957,4224.102539,4204.871582,4138.333496,4200.897461,4188.333496,4176.025879,0.000000,4.000000,86.000000,,,,0.000000,4.000000,4.000000,4.000000,4.000000,4.000000,4.000000,4.000000,4.000000,4.000000,4.000000,4.000000,4.000000,4.000000,4.000000,100.000000,,,,,,,,,,,,,,,,
1644854277.447063,71.000000,0.000000,4218.589844,4219.230957,4214.487305,4148.974121,4216.922852,4215.000000,4216.153809,4223.333496,4221.922852,4207.179688,4140.128418,4196.666504,4184.230957,4187.307617,0.000000,4.000000,86.000000,,,,0.000000,4.000000,4.000000,4.000000,4.000000,4.000000,4.000000,4.000000,4.000000,4.000000,4.000000,4.000000,4.000000,4.000000,4.000000,100.000000,,,,,,,,,,,,,,,,
1644854277.451003,72.000000,0.000000,4222.179688,4218.589844,4213.846191,4148.077148,4219.615234,4217.307617,4218.717773,4223.333496,4219.102539,4211.538574,4150.256348,4193.846191,4183.846191,4204.358887,0.000000,4.000000,86.000000,,,,0.000000,4.000000,4.000000,4.000000,4.000000,4.000000,4.000000,4.000000,4.000000,4.000000,4.000000,4.000000,4.000000,4.000000,4.000000,100.000000,,,,,,,,,,,,,,,,
1644854277.454943,73.000000,0.000000,4220.512695,4215.897461,4218.077148,4152.563965,4215.000000,4217.563965,4221.410156,4224.230957,4217.948730,4216.153809,4164.615234,4194.615234,4189.487305,4216.666504,0.000000,4.000000,86.000000,,,,0.000000,4.000000,4.000000,4.000000,4.000000,4.000000,4.000000,4.000000,4.000000,4.000000,4.000000,4.000000,4.000000,4.000000,4.000000,100.000000,,,,,,,,,,,,,,,,
1644854277.458883,74.000000,0.000000,4216.666504,4214.102539,4225.897461,4159.487305,4208.205078,4217.307617,4222.948730,4226.153809,4220.384766,4220.897461,4175.641113,4200.000000,4200.256348,4217.820313,0.000000,4.000000,86.000000,,,,0.000000,4.000000,4.000000,4.000000,4.000000,4.000000,4.000000,4.000000,4.000000,4.000000,4.000000,4.000000,4.000000,4.000000,4.000000,100.000000,,,,,,,,,,,,,,,,
1644854277.462823,75.000000,0.000000,4214.487305,4215.641113,4234.102539,4164.230957,4206.025879,4218.717773,4223.717773,4229.358887,4226.666504,4226.153809,4178.461426,4209.102539,4211.922852,4210.769043,0.000000,4.000000,86.000000,,,,0.000000,4.000000,4.000000,4.000000,4.000000,4.000000,4.000000,4.000000,4.000000,4.000000,4.000000,4.000000,4.000000,4.000000,4.000000,100.000000,,,,,,,,,,,,,,,,
1644854277.466764,76.000000,0.000000,4215.897461,4220.769043,4239.871582,4165.000000,4210.897461,4222.051270,4225.256348,4234.358887,4234.358887,4231.922852,4175.256348,4220.000000,4219.615234,4203.077148,0.000000,4.000000,86.000000,,,,0.000000,4.000000,4.000000,4.000000,4.000000,4.000000,4.000000,4.000000,4.000000,4.000000,4.000000,4.000000,4.000000,4.000000,4.000000,100.000000,,,,,,,,,,,,,,,,
1644854277.470704,77.000000,0.000000,4218.333496,4227.820313,4241.794922,4163.461426,4219.487305,4225.641113,4227.179688,4240.128418,4240.512695,4236.666504,4172.563965,4229.358887,4220.000000,4199.615234,0.000000,4.000000,86.000000,,,,0.000000,4.000000,4.000000,4.000000,4.000000,4.000000,4.000000,4.000000,4.000000,4.000000,4.000000,4.000000,4.000000,4.000000,4.000000,100.000000,,,,,,,,,,,,,,,,
1644854277.474644,78.000000,0.000000,4218.974121,4233.846191,4239.743652,4161.538574,4226.025879,4227.307617,4227.820313,4244.615234,4243.205078,4238.846191,4174.230957,4233.461426,4213.205078,4199.487305,0.000000,4.000000,86.000000,,,,0.000000,4.000000,4.000000,4.000000,4.000000,4.000000,4.000000,4.000000,4.000000,4.000000,4.000000,4.000000,4.000000,4.000000,4.000000,100.000000,,,,,,,,,,,,,,,,
1644854277.478584,79.000000,0.000000,4217.563965,4236.666504,4235.000000,4160.384766,4226.922852,4226.025879,4225.769043,4245.512695,4242.051270,4236.922852,4178.205078,4229.871582,4202.051270,4199.358887,0.000000,4.000000,86.000000,,,,0.000000,4.000000,4.000000,4.000000,4.000000,4.000000,4.000000,4.000000,4.000000,4.000000,4.000000,4.000000,4.000000,4.000000,4.000000,100.000000,,,,,,,,,,,,,,,,
1644854277.482524,80.000000,0.000000,4215.641113,4235.256348,4229.615234,4160.769043,4222.436035,4222.307617,4223.077148,4242.820313,4237.948730,4230.384766,4178.717773,4219.743652,4190.769043,4197.948730,0.000000,4.000000,86.000000,,,,0.000000,4.000000,4.000000,4.000000,4.000000,4.000000,4.000000,4.000000,4.000000,4.000000,4.000000,4.000000,4.000000,4.000000,4.000000,100.000000,,,,,,,,,,,,,,,,
1644854277.486464,81.000000,0.000000,4214.743652,4230.000000,4225.769043,4163.589844,4216.153809,4218.077148,4222.692383,4237.692383,4232.436035,4220.897461,4171.538574,4207.820313,4182.948730,4196.410156,0.000000,4.000000,86.000000,,,,0.000000,4.000000,4.000000,4.000000,4.000000,4.000000,4.000000,4.000000,4.000000,4.000000,4.000000,4.000000,4.000000,4.000000,4.000000,100.000000,,,,,,,,,,,,,,,,
1644854277.490404,82.000000,0.000000,4214.358887,4222.948730,4224.358887,4169.615234,4212.179688,4215.512695,4224.871582,4231.922852,4226.794922,4212.179688,4158.589844,4198.717773,4180.256348,4195.384766,0.000000,4.000000,86.000000,,,,0.000000,4.000000,4.000000,4.000000,4.000000,4.000000,4.000000,4.000000,4.000000,4.000000,4.000000,4.000000,4.000000,4.000000,4.000000,100.000000,,,,,,,,,,,,,,,,
1644854277.494344,83.000000,0.000000,4213.717773,4216.794922,4224.358887,4177.307617,4212.820313,4215.769043,4226.922852,4227.563965,4223.077148,4208.205078,4146.282227,4194.230957,4182.820313,4193.846191,0.000000,4.000000,86.000000,,,,0.000000,4.000000,4.000000,4.000000,4.000000,4.000000,4.000000,4.000000,4.000000,4.000000,4.000000,4.000000,4.000000,4.000000,4.000000,100.000000,,,,,,,,,,,,,,,,
1644854277.498284,84.000000,0.000000,4212.948730,4213.589844,4224.230957,4182.692383,4217.179688,4218.077148,4226.538574,4225.769043,4222.948730,4210.384766,4141.282227,4193.077148,4189.358887,4191.794922,0.000000,4.000000,86.000000,,,,0.000000,4.000000,4.000000,4.000000,4.000000,4.000000,4.000000,4.000000,4.000000,4.000000,4.000000,4.000000,4.000000,4.000000,4.000000,100.000000,,,,,,,,,,,,,,,,
1644854277.502224,85.000000,0.000000,4213.333496,4214.230957,4223.333496,4181.922852,4221.666504,4220.641113,4224.358887,4227.307617,4226.282227,4217.307617,4146.153809,4192.563965,4197.307617,4191.282227,0.000000,4.000000,86.000000,,,,0.000000,4.000000,4.000000,4.000000,4.000000,4.000000,4.000000,4.000000,4.000000,4.000000,4.000000,4.000000,4.000000,4.000000,4.000000,100.000000,,,,,,,,,,,,,,,,
1644854277.506165,86.000000,0.000000,4215.000000,4217.948730,4222.307617,4174.230957,4223.333496,4222.307617,4222.948730,4231.538574,4231.666504,4225.641113,4157.051270,4192.051270,4203.461426,4194.358887,0.000000,4.000000,86.000000,,,,0.000000,4.000000,4.000000,4.000000,4.000000,4.000000,4.000000,4.000000,4.000000,4.000000,4.000000,4.000000,4.000000,4.000000,4.000000,100.000000,,,,,,,,,,,,,,,,
1644854277.510105,87.000000,0.000000,4216.410156,4223.205078,4222.307617,4163.846191,4221.794922,4222.820313,4223.461426,4236.282227,4237.051270,4232.307617,4167.051270,4193.077148,4204.615234,4200.000000,0.000000,4.000000,86.000000,,,,0.000000,4.000000,4.000000,4.000000,4.000000,4.000000,4.000000,4.000000,4.000000,4.000000,4.000000,4.000000,4.000000,4.000000,4.000000,100.000000,,,,,,,,,,,,,,,,
1644854277.514045,88.000000,0.000000,4214.743652,4228.846191,4223.077148,4156.794922,4220.128418,4222.307617,4224.102539,4238.461426,4240.128418,4235.256348,4170.769043,4196.794922,4199.743652,4204.230957,0.000000,4.000000,86.000000,,,,0.000000,4.000000,4.000000,4.000000,4.000000,4.000000,4.000000,4.000000,4.000000,4.000000,4.000000,4.000000,4.000000,4.000000,4.000000,100.000000,,,,,,,,,,,,,,,,
1644854277.518085,89.000000,0.000000,4209.487305,4233.077148,4223.333496,4156.410156,4220.384766,4221.282227,4222.436035,4236.282227,4239.102539,4233.205078,4167.563965,4201.794922,4191.538574,4203.589844,0.000000,4.000000,86.000000,,,,0.000000,4.000000,4.000000,4.000000,4.000000,4.000000,4.000000,4.000000,4.000000,4.000000,4.000000,4.000000,4.000000,4.000000,4.000000,100.000000,,,,,,,,,,,,,,,,
1644854277.522025,90.000000,0.000000,4202.948730,4233.205078,4222.051270,4162.436035,4221.538574,4219.487305,4218.974121,4231.153809,4233.974121,4226.794922,4161.410156,4203.974121,4184.487305,4197.948730,0.000000,4.000000,86.000000,,,,0.000000,4.000000,4.000000,4.000000,4.000000,4.000000,4.000000,4.000000,4.000000,4.000000,4.000000,4.000000,4.000000,4.000000,4.000000,100.000000,,,,,,,,,,,,,,,,
1644854277.525965,91.000000,0.000000,4199.230957,4227.051270,4219.230957,4169.743652,4220.384766,4216.922852,4216.538574,4226.282227,4226.538574,4218.461426,4156.794922,4200.128418,4181.794922,4190.256348,0.000000,4.000000,86.000000,,,,0.000000,4.000000,4.000000,4.000000,4.000000,4.000000,4.000000,4.000000,4.000000,4.000000,4.000000,4.000000,4.000000,4.000000,4.000000,100.000000,,,,,,,,,,,,,,,,
1644854277.529905,92.000000,0.000000,4200.641113,4215.384766,4215.641113,4172.179688,4214.871582,4214.487305,4216.410156,4224.230957,4220.256348,4212.051270,4155.128418,4191.410156,4182.948730,4183.333496,0.000000,4.000000,86.000000,,,,0.000000,4.000000,4.000000,4.000000,4.000000,4.000000,4.000000,4.000000,4.000000,4.000000,4.000000,4.000000,4.000000,4.000000,4.000000,100.000000,,,,,,,,,,,,,,,,
1644854277.533845,93.000000,0.000000,4206.025879,4203.589844,4212.307617,4166.410156,4207.692383,4214.358887,4217.307617,4224.358887,4217.179688,4210.000000,4154.102539,4182.563965,4184.230957,4178.461426,0.000000,4.000000,86.000000,,,,0.000000,4.000000,4.000000,4.000000,4.000000,4.000000,4.000000,4.000000,4.000000,4.000000,4.000000,4.000000,4.000000,4.000000,4.000000,100.000000,,,,,,,,,,,,,,,,
1644854277.537785,94.000000,0.000000,4212.051270,4197.948730,4209.871582,4155.384766,4203.461426,4217.436035,4217.179688,4224.743652,4216.922852,4210.000000,4150.512695,4178.846191,4182.307617,4176.794922,0.000000,4.000000,86.000000,,,,0.000000,4.000000,4.000000,4.000000,4.000000,4.000000,4.000000,4.000000,4.000000,4.000000,4.000000,4.000000,4.000000,4.000000,4.000000,100.000000,,,,,,,,,,,,,,,,
1644854277.541725,95.000000,0.000000,4215.769043,4201.410156,4209.615234,4147.307617,4206.025879,4222.436035,4216.153809,4224.358887,4216.922852,4207.820313,4143.589844,4181.538574,4176.282227,4179.358887,0.000000,4.000000,86.000000,,,,0.000000,4.000000,4.000000,4.000000,4.000000,4.000000,4.000000,4.000000,4.000000,4.000000,4.000000,4.000000,4.000000,4.000000,4.000000,100.000000,,,,,,,,,,,,,,,,
1644854277.545666,96.000000,0.000000,4216.153809,4211.153809,4212.436035,4149.230957,4215.128418,4226.794922,4216.666504,4223.461426,4215.384766,4201.922852,4135.897461,4187.179688,4168.974121,4185.769043,0.000000,4.000000,86.000000,,,,0.000000,4.000000,4.000000,4.000000,4.000000,4.000000,4.000000,4.000000,4.000000,4.000000,4.000000,4.000000,4.000000,4.000000,4.000000,100.000000,,,,,,,,,,,,,,,,
1644854277.549606,97.000000,0.000000,4214.487305,4221.282227,4217.820313,4161.922852,4226.282227,4228.717773,4219.871582,4223.205078,4212.948730,4195.512695,4132.179688,4191.794922,4165.769043,4193.077148,0.000000,4.000000,86.000000,,,,0.000000,4.000000,4.000000,4.000000,4.000000,4.000000,4.000000,4.000000,4.000000,4.000000,4.000000,4.000000,4.000000,4.000000,4.000000,100.000000,,,,,,,,,,,,,,,,
1644854277.553546,98.000000,0.000000,4212.563965,4227.307617,4223.461426,4178.333496,4233.589844,4228.333496,4223.846191,4224.487305,4212.436035,4193.846191,4135.512695,4194.102539,4170.897461,4197.051270,0.000000,4.000000,86.000000,,,,0.000000,4.000000,4.000000,4.000000,4.000000,4.000000,4.000000,4.000000,4.000000,4.000000,4.000000,4.000000,4.000000,4.000000,4.000000,100.000000,,,,,,,,,,,,,,,,
1644854277.557486,99.000000,0.000000,4211.666504,4228.589844,4227.307617,4189.615234,4232.692383,4226.922852,4225.769043,4227.307617,4215.897461,4199.102539,4144.871582,4196.025879,4183.717773,4196.282227,0.000000,4.000000,86.000000,,,,0.000000,4.000000,4.000000,4.000000,4.000000,4.000000,4.000000,4.000000,4.000000,4.000000,4.000000,4.000000,4.000000,4.000000,4.000000,100.000000,,,,,,,,,,,,,,,,
1644854277.561426,100.000000,0.000000,4210.641113,4226.794922,4228.205078,4190.641113,4224.871582,4225.384766,4225.641113,4231.025879,4222.307617,4208.846191,4155.512695,4199.615234,4197.436035,4192.820313,0.000000,4.000000,86.000000,,,,0.000000,4.000000,4.000000,4.000000,4.000000,4.000000,4.000000,4.000000,4.000000,4.000000,4.000000,4.000000,4.000000,4.000000,4.000000,100.000000,,,,,,,,,,,,,,,,
1644854277.565366,101.000000,0.000000,4207.307617,4223.974121,4226.410156,4183.717773,4215.641113,4224.230957,4225.384766,4234.487305,4227.436035,4217.948730,4163.077148,4203.846191,4203.846191,4189.615234,0.000000,4.000000,86.000000,,,,0.000000,4.000000,4.000000,4.000000,4.000000,4.000000,4.000000,4.000000,4.000000,4.000000,4.000000,4.000000,4.000000,4.000000,4.000000,100.000000,,,,,,,,,,,,,,,,
1644854277.569306,102.000000,0.000000,4200.897461,4220.897461,4222.563965,4175.000000,4211.025879,4223.205078,4225.897461,4236.666504,4227.436035,4222.820313,4165.641113,4205.512695,4199.358887,4187.307617,0.000000,4.000000,86.000000,,,,0.000000,4.000000,4.000000,4.000000,4.000000,4.000000,4.000000,4.000000,4.000000,4.000000,4.000000,4.000000,4.000000,4.000000,4.000000,100.000000,,,,,,,,,,,,,,,,
1644854277.573246,103.000000,0.000000,4193.717773,4217.436035,4217.692383,4169.871582,4213.589844,4221.922852,4225.641113,4236.410156,4222.307617,4222.307617,4164.743652,4202.051270,4187.436035,4185.128418,0.000000,4.000000,86.000000,,,,0.000000,4.000000,4.000000,4.000000,4.000000,4.000000,4.000000,4.000000,4.000000,4.000000,4.000000,4.000000,4.000000,4.000000,4.000000,100.000000,,,,,,,,,,,,,,,,
1644854277.577186,104.000000,0.000000,4188.974121,4213.461426,4213.717773,4169.743652,4219.871582,4219.743652,4223.333496,4233.333496,4215.128418,4217.563965,4162.307617,4194.487305,4175.641113,4182.692383,0.000000,4.000000,86.000000,,,,0.000000,4.000000,4.000000,4.000000,4.000000,4.000000,4.000000,4.000000,4.000000,4.000000,4.000000,4.000000,4.000000,4.000000,4.000000,100.000000,,,,,,,,,,,,,,,,
1644854277.581127,105.000000,0.000000,4188.461426,4209.230957,4212.692383,4171.025879,4223.717773,4216.922852,4219.615234,4228.205078,4209.615234,4210.128418,4158.333496,4186.538574,4169.871582,4180.897461,0.000000,4.000000,86.000000,,,,0.000000,4.000000,4.000000,4.000000,4.000000,4.000000,4.000000,4.000000,4.000000,4.000000,4.000000,4.000000,4.000000,4.000000,4.000000,100.000000,,,,,,,,,,,,,,,,
1644854277.585067,106.000000,0.000000,4192.179688,4206.025879,4214.102539,4169.487305,4221.666504,4214.358887,4217.051270,4222.692383,4206.922852,4201.922852,4151.922852,4181.922852,4170.897461,4181.025879,0.000000,4.000000,86.000000,,,,0.000000,4.000000,4.000000,4.000000,4.000000,4.000000,4.000000,4.000000,4.000000,4.000000,4.000000,4.000000,4.000000,4.000000,4.000000,100.000000,,,,,,,,,,,,,,,,
1644854277.589007,107.000000,0.000000,4197.948730,4205.641113,4216.025879,4164.230957,4215.641113,4213.205078,4217.051270,4218.717773,4206.410156,4195.512695,4144.487305,4181.794922,4175.641113,4183.717773,0.000000,4.000000,86.000000,,,,0.000000,4.000000,4.000000,4.000000,4.000000,4.000000,4.000000,4.000000,4.000000,4.000000,4.000000,4.000000,4.000000,4.000000,4.000000,100.000000,,,,,,,,,,,,,,,,
1644854277.592847,108.000000,0.000000,4203.205078,4209.102539,4216.410156,4158.589844,4211.282227,4213.846191,4218.333496,4217.436035,4207.436035,4194.230957,4140.897461,4184.102539,4180.512695,4187.948730,0.000000,4.000000,86.000000,,,,0.000000,4.000000,4.000000,4.000000,4.000000,4.000000,4.000000,4.000000,4.000000,4.000000,4.000000,4.000000,4.000000,4.000000,4.000000,100.000000,,,,,,,,,,,,,,,,
1644854277.596787,109.000000,0.000000,4205.897461,4215.128418,4215.256348,4157.436035,4212.179688,4215.641113,4218.846191,4219.487305,4209.358887,4198.974121,4146.025879,4186.025879,4184.102539,4192.436035,0.000000,4.000000,86.000000,,,,0.000000,4.000000,4.000000,4.000000,4.000000,4.000000,4.000000,4.000000,4.000000,4.000000,4.000000,4.000000,4.000000,4.000000,4.000000,100.000000,,,,,,,,,,,,,,,,
1644854277.600727,110.000000,0.000000,4205.641113,4220.641113,4214.358887,4163.077148,4216.922852,4216.794922,4218.333496,4224.230957,4212.436035,4207.307617,4158.205078,4186.153809,4186.538574,4196.025879,0.000000,4.000000,86.000000,,,,0.000000,4.000000,4.000000,4.000000,4.000000,4.000000,4.000000,4.000000,4.000000,4.000000,4.000000,4.000000,4.000000,4.000000,4.000000,100.000000,,,,,,,,,,,,,,,,
1644854277.604667,111.000000,0.000000,4203.846191,4222.692383,4215.128418,4172.948730,4220.769043,4216.666504,4218.589844,4230.128418,4216.538574,4214.358887,4169.487305,4185.256348,4188.846191,4198.717773,0.000000,4.000000,86.000000,,,,0.000000,4.000000,4.000000,4.000000,4.000000,4.000000,4.000000,4.000000,4.000000,4.000000,4.000000,4.000000,4.000000,4.000000,4.000000,100.000000,,,,,,,,,,,,,,,,
1644854277.608507,112.000000,0.000000,4202.179688,4220.512695,4217.436035,4181.538574,4220.128418,4215.769043,4220.256348,4234.743652,4221.153809,4216.538574,4171.153809,4184.487305,4191.025879,4200.512695,0.000000,4.000000,86.000000,,,,0.000000,4.000000,4.000000,4.000000,4.000000,4.000000,4.000000,4.000000,4.000000,4.000000,4.000000,4.000000,4.000000,4.000000,4.000000,100.000000,,,,,,,,,,,,,,,,
1644854277.612448,113.000000,0.000000,4201.666504,4215.769043,4218.461426,4184.487305,4215.769043,4215.641113,4221.666504,4236.153809,4224.743652,4213.974121,4162.179688,4184.358887,4192.436035,4200.512695,0.000000,4.000000,86.000000,,,,0.000000,4.000000,4.000000,4.000000,4.000000,4.000000,4.000000,4.000000,4.000000,4.000000,4.000000,4.000000,4.000000,4.000000,4.000000,100.000000,,,,,,,,,,,,,,,,
1644854277.616388,114.000000,0.000000,4200.769043,4211.025879,4216.410156,4182.563965,4211.153809,4216.922852,4220.769043,4233.589844,4225.641113,4210.128418,4150.256348,4184.871582,4191.153809,4197.563965,0.000000,4.000000,86.000000,,,,0.000000,4.000000,4.000000,4.000000,4.000000,4.000000,4.000000,4.000000,4.000000,4.000000,4.000000,4.000000,4.000000,4.000000,4.000000,100.000000,,,,,,,,,,,,,,,,
1644854277.620328,115.000000,0.000000,4197.307617,4207.692383,4211.794922,4179.615234,4209.230957,4218.717773,4218.077148,4228.589844,4223.461426,4208.717773,4144.871582,4186.282227,4185.512695,4191.794922,0.000000,4.000000,86.000000,,,,0.000000,4.000000,4.000000,4.000000,4.000000,4.000000,4.000000,4.000000,4.000000,4.000000,4.000000,4.000000,4.000000,4.000000,4.000000,100.000000,,,,,,,,,,,,,,,,
1644854277.624268,116.000000,0.000000,4191.282227,4205.897461,4207.820313,4179.358887,4210.000000,4219.230957,4215.897461,4223.077148,4219.230957,4210.641113,4148.974121,4188.846191,4176.666504,4185.256348,0.000000,4.000000,86.000000,,,,0.000000,4.000000,4.000000,4.000000,4.000000,4.000000,4.000000,4.000000,4.000000,4.000000,4.000000,4.000000,4.000000,4.000000,4.000000,100.000000,,,,,,,,,,,,,,,,
1644854277.628208,117.000000,0.000000,4186.538574,4205.769043,4206.922852,4182.563965,4211.922852,4218.333496,4215.769043,4219.102539,4215.384766,4213.717773,4157.307617,4193.077148,4169.615234,4180.256348,0.000000,4.000000,86.000000,,,,0.000000,4.000000,4.000000,4.000000,4.000000,4.000000,4.000000,4.000000,4.000000,4.000000,4.000000,4.000000,4.000000,4.000000,4.000000,100.000000,,,,,,,,,,,,,,,,
1644854277.632148,118.000000,0.000000,4188.077148,4208.077148,4209.102539,4186.794922,4213.717773,4217.436035,4216.794922,4218.205078,4214.230957,4215.384766,4162.051270,4197.820313,4170.128418,4178.846191,0.000000,4.000000,86.000000,,,,0.000000,4.000000,4.000000,4.000000,4.000000,4.000000,4.000000,4.000000,4.000000,4.000000,4.000000,4.000000,4.000000,4.000000,4.000000,100.000000,,,,,,,,,,,,,,,,
1644854277.636088,119.000000,0.000000,4197.563965,4213.205078,4212.436035,4188.846191,4216.025879,4218.589844,4217.179688,4220.000000,4216.538574,4215.128418,4159.743652,4200.512695,4179.871582,4180.769043,0.000000,4.000000,86.000000,,,,0.000000,4.000000,4.000000,4.000000,4.000000,4.000000,4.000000,4.000000,4.000000,4.000000,4.000000,4.000000,4.000000,4.000000,4.000000,100.000000,,,,,,,,,,,,,,,,
1644854277.640028,120.000000,0.000000,4210.897461,4220.641113,4214.615234,4187.436035,4219.358887,4222.307617,4216.538574,4223.461426,4220.384766,4214.102539,4152.692383,4198.333496,4194.102539,4184.871582,0.000000,4.000000,86.000000,,,,0.000000,4.000000,4.000000,4.000000,4.000000,4.000000,4.000000,4.000000,4.000000,4.000000,4.000000,4.000000,4.000000,4.000000,4.000000,100.000000,,,,,,,,,,,,,,,,
1644854277.643968,121.000000,0.000000,4221.410156,4227.948730,4214.615234,4182.820313,4223.589844,4227.179688,4217.179688,4227.179688,4223.846191,4213.205078,4146.410156,4192.179688,4204.487305,4189.230957,0.000000,4.000000,86.000000,,,,0.000000,4.000000,4.000000,4.000000,4.000000,4.000000,4.000000,4.000000,4.000000,4.000000,4.000000,4.000000,4.000000,4.000000,4.000000,100.000000,,,,,,,,,,,,,,,,
1644854277.647908,122.000000,0.000000,4224.487305,4231.922852,4213.461426,4176.538574,4226.666504,4230.512695,4220.256348,4230.897461,4225.897461,4212.948730,4145.000000,4186.025879,4205.512695,4192.436035,0.000000,4.000000,86.000000,,,,0.000000,4.000000,4.000000,4.000000,4.000000,4.000000,4.000000,4.000000,4.000000,4.000000,4.000000,4.000000,4.000000,4.000000,4.000000,100.000000,,,,,,,,,,,,,,,,
1644854277.651849,123.000000,0.000000,4219.743652,4231.282227,4212.948730,4170.641113,4227.307617,4230.256348,4224.230957,4234.230957,4227.436035,4214.102539,4149.102539,4183.589844,4198.333496,4193.205078,0.000000,4.000000,86.000000,,,,0.000000,4.000000,4.000000,4.000000,4.000000,4.000000,4.000000,4.000000,4.000000,4.000000,4.000000,4.000000,4.000000,4.000000,4.000000,100.000000,,,,,,,,,,,,,,,,
1644854277.655789,124.000000,0.000000,4211.282227,4227.436035,4213.717773,4168.205078,4225.512695,4226.666504,4225.512695,4236.794922,4229.615234,4218.205078,4156.538574,4185.512695,4188.974121,4192.179688,0.000000,4.000000,86.000000,,,,0.000000,4.000000,4.000000,4.000000,4.000000,4.000000,4.000000,4.000000,4.000000,4.000000,4.000000,4.000000,4.000000,4.000000,4.000000,100.000000,,,,,,,,,,,,,,,,
1644854277.659729,125.000000,0.000000,4205.128418,4223.589844,4215.128418,4171.538574,4221.922852,4222.179688,4223.077148,4238.205078,4232.179688,4224.871582,4164.871582,4188.974121,4183.846191,4191.410156,0.000000,4.000000,86.000000,,,,0.000000,4.000000,4.000000,4.000000,4.000000,4.000000,4.000000,4.000000,4.000000,4.000000,4.000000,4.000000,4.000000,4.000000,4.000000,100.000000,,,,,,,,,,,,,,,,
1644854277.663669,126.000000,0.000000,4205.769043,4222.692383,4216.282227,4180.641113,4217.307617,4219.615234,4220.000000,4238.461426,4233.589844,4230.384766,4172.179688,4190.512695,4185.000000,4193.974121,0.000000,4.000000,86.000000,,,,0.000000,4.000000,4.000000,4.000000,4.000000,4.000000,4.000000,4.000000,4.000000,4.000000,4.000000,4.000000,4.000000,4.000000,4.000000,100.000000,,,,,,,,,,,,,,,,
1644854277.667609,127.000000,0.000000,4213.333496,4225.000000,4217.563965,4192.051270,4212.307617,4220.384766,4219.743652,4238.333496,4232.436035,4230.641113,4178.205078,4189.487305,4190.512695,4200.512695,0.000000,4.000000,86.000000,,,,0.000000,4.000000,4.000000,4.000000,4.000000,4.000000,4.000000,4.000000,4.000000,4.000000,4.000000,4.000000,4.000000,4.000000,4.000000,100.000000,,,,,,,,,,,,,,,,
1644854277.671549,128.000000,0.000000,4223.077148,4228.205078,4220.000000,4200.384766,4208.974121,4223.717773,4223.077148,4238.333496,4229.358887,4225.384766,4181.666504,4188.077148,4196.666504,4208.205078,3211.000000,4.000000,86.000000,,,,0.000000,4.000000,4.000000,4.000000,4.000000,4.000000,4.000000,4.000000,4.000000,4.000000,4.000000,4.000000,4.000000,4.000000,4.000000,100.000000,,,,,,,,,,,,,,,,
1644854277.675489,129.000000,0.000000,4229.358887,4229.871582,4223.077148,4201.410156,4209.487305,4227.563965,4227.051270,4238.846191,4226.794922,4218.846191,4181.153809,4189.358887,4201.025879,4212.436035,3289.000000,4.000000,86.000000,,,,0.000000,4.000000,4.000000,4.000000,4.000000,4.000000,4.000000,4.000000,4.000000,4.000000,4.000000,4.000000,4.000000,4.000000,4.000000,100.000000,,,,,,,,,,,,,,,,
1644854277.679329,130.000000,0.000000,4229.102539,4229.102539,4225.256348,4195.384766,4214.871582,4230.384766,4228.589844,4239.615234,4226.538574,4217.051270,4176.025879,4194.102539,4203.589844,4211.794922,3533.000000,4.000000,86.000000,,,,0.000000,4.000000,4.000000,4.000000,4.000000,4.000000,4.000000,4.000000,4.000000,4.000000,4.000000,4.000000,4.000000,4.000000,4.000000,100.000000,,,,,,,,,,,,,,,,
1644854277.683270,131.000000,0.000000,4223.333496,4226.922852,4225.641113,4187.436035,4222.692383,4231.794922,4228.077148,4240.000000,4228.461426,4222.051270,4168.461426,4200.384766,4205.641113,4208.717773,3546.000000,4.000000,86.000000,,,,0.000000,4.000000,4.000000,4.000000,4.000000,4.000000,4.000000,4.000000,4.000000,4.000000,4.000000,4.000000,4.000000,4.000000,4.000000,100.000000,,,,,,,,,,,,,,,,
1644854277.687210,132.000000,0.000000,4216.410156,4225.512695,4225.128418,4182.948730,4228.974121,4232.051270,4227.179688,4239.615234,4230.641113,4230.641113,4163.333496,4204.743652,4208.333496,4206.666504,3301.000000,4.000000,86.000000,,,,0.000000,4.000000,4.000000,4.000000,4.000000,4.000000,4.000000,4.000000,4.000000,4.000000,4.000000,4.000000,4.000000,4.000000,4.000000,100.000000,,,,,,,,,,,,,,,,
1644854277.691150,133.000000,0.000000,4212.948730,4225.769043,4225.000000,4183.846191,4230.641113,4231.410156,4226.922852,4238.333496,4231.282227,4236.794922,4163.974121,4205.641113,4211.153809,4206.794922,3357.000000,4.000000,86.000000,,,,0.000000,4.000000,4.000000,4.000000,4.000000,4.000000,4.000000,4.000000,4.000000,4.000000,4.000000,4.000000,4.000000,4.000000,4.000000,100.000000,,,,,,,,,,,,,,,,
1644854277.695090,134.000000,0.000000,4215.000000,4226.794922,4225.769043,4186.538574,4227.692383,4230.256348,4225.897461,4235.769043,4229.743652,4236.538574,4169.358887,4203.717773,4212.307617,4207.820313,2425.000000,4.000000,86.000000,,,,0.000000,4.000000,4.000000,4.000000,4.000000,4.000000,4.000000,4.000000,4.000000,4.000000,4.000000,4.000000,4.000000,4.000000,4.000000,100.000000,,,,,,,,,,,,,,,,
1644854277.699030,135.000000,0.000000,4221.282227,4226.794922,4226.153809,4186.410156,4222.820313,4228.846191,4223.333496,4232.179688,4227.051270,4230.769043,4175.512695,4201.282227,4210.128418,4208.846191,2877.000000,4.000000,86.000000,,,,0.000000,4.000000,4.000000,4.000000,4.000000,4.000000,4.000000,4.000000,4.000000,4.000000,4.000000,4.000000,4.000000,4.000000,4.000000,100.000000,,,,,,,,,,,,,,,,
1644854277.702970,136.000000,0.000000,4227.179688,4224.871582,4225.769043,4183.205078,4220.000000,4227.179688,4220.897461,4228.077148,4225.128418,4224.487305,4178.205078,4199.871582,4205.641113,4210.769043,3076.000000,4.000000,86.000000,,,,0.000000,4.000000,4.000000,4.000000,4.000000,4.000000,4.000000,4.000000,4.000000,4.000000,4.000000,4.000000,4.000000,4.000000,4.000000,100.000000,,,,,,,,,,,,,,,,
1644854277.706910,137.000000,0.000000,4229.487305,4222.692383,4224.487305,4181.025879,4221.282227,4225.384766,4220.512695,4225.384766,4224.487305,4222.307617,4176.282227,4199.615234,4201.666504,4212.820313,3527.000000,4.000000,86.000000,,,,0.000000,4.000000,4.000000,4.000000,4.000000,4.000000,4.000000,4.000000,4.000000,4.000000,4.000000,4.000000,4.000000,4.000000,4.000000,100.000000,,,,,,,,,,,,,,,,
1644854277.710850,138.000000,0.000000,4228.077148,4223.205078,4223.333496,4184.358887,4225.512695,4223.717773,4221.922852,4225.128418,4225.384766,4225.384766,4171.410156,4200.128418,4200.641113,4211.922852,3530.000000,4.000000,86.000000,,,,0.000000,4.000000,4.000000,4.000000,4.000000,4.000000,4.000000,4.000000,4.000000,4.000000,4.000000,4.000000,4.000000,4.000000,4.000000,100.000000,,,,,,,,,,,,,,,,
1644854277.714790,139.000000,0.000000,4226.538574,4227.820313,4223.461426,4192.436035,4228.974121,4223.333496,4223.077148,4227.563965,4227.307617,4230.641113,4166.794922,4200.641113,4202.692383,4206.025879,2448.000000,4.000000,86.000000,,,,0.000000,4.000000,4.000000,4.000000,4.000000,4.000000,4.000000,4.000000,4.000000,4.000000,4.000000,4.000000,4.000000,4.000000,4.000000,100.000000,,,,,,,,,,,,,,,,
1644854277.718730,140.000000,0.000000,4227.436035,4234.487305,4224.743652,4199.358887,4228.205078,4224.358887,4222.307617,4231.538574,4229.743652,4233.461426,4165.897461,4201.282227,4205.769043,4197.563965,3459.000000,4.000000,86.000000,,,,0.000000,4.000000,4.000000,4.000000,4.000000,4.000000,4.000000,4.000000,4.000000,4.000000,4.000000,4.000000,4.000000,4.000000,4.000000,100.000000,,,,,,,,,,,,,,,,
1644854277.722671,141.000000,0.000000,4230.256348,4238.589844,4226.025879,4199.358887,4223.077148,4225.512695,4221.410156,4236.153809,4232.436035,4231.538574,4169.743652,4202.692383,4207.051270,4193.077148,3518.000000,4.000000,86.000000,,,,0.000000,4.000000,4.000000,4.000000,4.000000,4.000000,4.000000,4.000000,4.000000,4.000000,4.000000,4.000000,4.000000,4.000000,4.000000,100.000000,,,,,,,,,,,,,,,,
1644854277.726611,142.000000,0.000000,4230.384766,4236.410156,4225.384766,4191.666504,4217.179688,4225.897461,4222.307617,4240.384766,4234.358887,4226.538574,4176.538574,4204.358887,4205.128418,4195.769043,3530.000000,4.000000,86.000000,,,,0.000000,4.000000,4.000000,4.000000,4.000000,4.000000,4.000000,4.000000,4.000000,4.000000,4.000000,4.000000,4.000000,4.000000,4.000000,100.000000,,,,,,,,,,,,,,,,
1644854277.730551,143.000000,0.000000,4223.589844,4228.461426,4221.922852,4182.179688,4214.615234,4225.128418,4224.615234,4242.692383,4235.000000,4223.077148,4181.282227,4204.615234,4200.769043,4202.051270,2448.000000,4.000000,86.000000,,,,0.000000,4.000000,4.000000,4.000000,4.000000,4.000000,4.000000,4.000000,4.000000,4.000000,4.000000,4.000000,4.000000,4.000000,4.000000,100.000000,,,,,,,,,,,,,,,,
1644854277.734491,144.000000,0.000000,4210.769043,4218.846191,4216.794922,4177.563965,4216.153809,4223.974121,4225.384766,4241.922852,4234.615234,4223.846191,4179.871582,4202.307617,4196.025879,4204.487305,3459.000000,4.000000,86.000000,,,,0.000000,4.000000,4.000000,4.000000,4.000000,4.000000,4.000000,4.000000,4.000000,4.000000,4.000000,4.000000,4.000000,4.000000,4.000000,100.000000,,,,,,,,,,,,,,,,
1644854277.738431,145.000000,0.000000,4197.948730,4211.410156,4212.563965,4179.743652,4218.846191,4223.205078,4223.205078,4238.589844,4233.974121,4227.948730,4171.282227,4198.077148,4192.436035,4200.256348,3518.000000,4.000000,86.000000,,,,0.000000,4.000000,4.000000,4.000000,4.000000,4.000000,4.000000,4.000000,4.000000,4.000000,4.000000,4.000000,4.000000,4.000000,4.000000,100.000000,,,,,,,,,,,,,,,,
1644854277.742371,146.000000,0.000000,4192.179688,4208.205078,4211.922852,4185.256348,4219.871582,4223.589844,4220.384766,4235.512695,4233.846191,4232.051270,4160.256348,4193.974121,4190.769043,4192.692383,3530.000000,4.000000,86.000000,,,,0.000000,4.000000,4.000000,4.000000,4.000000,4.000000,4.000000,4.000000,4.000000,4.000000,4.000000,4.000000,4.000000,4.000000,4.000000,100.000000,,,,,,,,,,,,,,,,
1644854277.746311,147.000000,0.000000,4195.384766,4208.589844,4214.743652,4188.846191,4219.743652,4225.769043,4220.512695,4235.641113,4234.102539,4233.205078,4153.846191,4192.307617,4191.538574,4188.077148,2448.000000,4.000000,86.000000,,,,0.000000,4.000000,4.000000,4.000000,4.000000,4.000000,4.000000,4.000000,4.000000,4.000000,4.000000,4.000000,4.000000,4.000000,4.000000,100.000000,,,,,,,,,,,,,,,,
1644854277.750251,148.000000,0.000000,4204.743652,4211.282227,4218.717773,4189.102539,4222.051270,4229.230957,4224.230957,4239.487305,4234.487305,4231.025879,4156.538574,4194.358887,4194.743652,4189.358887,3459.000000,4.000000,86.000000,,,,0.000000,4.000000,4.000000,4.000000,4.000000,4.000000,4.000000,4.000000,4.000000,4.000000,4.000000,4.000000,4.000000,4.000000,4.000000,100.000000,,,,,,,,,,,,,,,,
1644854277.754092,149.000000,0.000000,4215.256348,4214.615234,4220.512695,4189.102539,4228.589844,4233.333496,4228.461426,4244.230957,4235.128418,4227.948730,4166.025879,4199.487305,4200.128418,4195.000000,3518.000000,4.000000,86.000000,,,,0.000000,4.000000,4.000000,4.000000,4.000000,4.000000,4.000000,4.000000,4.000000,4.000000,4.000000,4.000000,4.000000,4.000000,4.000000,100.000000,,,,,,,,,,,,,,,,
1644854277.758032,150.000000,0.000000,4222.436035,4217.436035,4219.487305,4192.820313,4236.538574,4236.922852,4230.128418,4246.153809,4235.384766,4226.666504,4174.871582,4204.871582,4205.128418,4202.051270,3530.000000,4.000000,86.000000,,,,0.000000,4.000000,4.000000,4.000000,4.000000,4.000000,4.000000,4.000000,4.000000,4.000000,4.000000,4.000000,4.000000,4.000000,4.000000,100.000000,,,,,,,,,,,,,,,,
1644854277.761972,151.000000,0.000000,4224.230957,4218.461426,4217.948730,4200.512695,4239.743652,4238.205078,4228.974121,4243.717773,4233.846191,4227.820313,4175.897461,4206.922852,4206.922852,4208.077148,2448.000000,4.000000,86.000000,,,,0.000000,4.000000,4.000000,4.000000,4.000000,4.000000,4.000000,4.000000,4.000000,4.000000,4.000000,4.000000,4.000000,4.000000,4.000000,100.000000,,,,,,,,,,,,,,,,
1644854277.765912,152.000000,0.000000,4220.897461,4217.692383,4217.436035,4207.307617,4234.230957,4236.025879,4227.179688,4238.717773,4229.615234,4229.743652,4167.820313,4203.077148,4203.461426,4211.153809,3459.000000,4.000000,86.000000,,,,0.000000,4.000000,4.000000,4.000000,4.000000,4.000000,4.000000,4.000000,4.000000,4.000000,4.000000,4.000000,4.000000,4.000000,4.000000,100.000000,,,,,,,,,,,,,,,,
1644854277.769852,153.000000,0.000000,4214.487305,4215.641113,4218.077148,4207.179688,4222.307617,4231.153809,4226.538574,4234.615234,4224.102539,4229.487305,4156.282227,4194.743652,4196.025879,4208.846191,3518.000000,4.000000,86.000000,,,,0.000000,4.000000,4.000000,4.000000,4.000000,4.000000,4.000000,4.000000,4.000000,4.000000,4.000000,4.000000,4.000000,4.000000,4.000000,100.000000,,,,,,,,,,,,,,,,
1644854277.773792,154.000000,0.000000,4207.692383,4214.102539,4218.205078,4198.461426,4211.410156,4226.153809,4226.153809,4233.974121,4220.000000,4225.384766,4149.487305,4186.538574,4188.846191,4200.769043,3530.000000,4.000000,86.000000,,,,0.000000,4.000000,4.000000,4.000000,4.000000,4.000000,4.000000,4.000000,4.000000,4.000000,4.000000,4.000000,4.000000,4.000000,4.000000,100.000000,,,,,,,,,,,,,,,,
1644854277.777732,155.000000,0.000000,4202.692383,4214.615234,4217.051270,4185.769043,4208.333496,4223.461426,4225.128418,4236.538574,4219.615234,4218.589844,4151.282227,4183.461426,4185.512695,4189.615234,2448.000000,4.000000,86.000000,,,,0.000000,4.000000,4.000000,4.000000,4.000000,4.000000,4.000000,4.000000,4.000000,4.000000,4.000000,4.000000,4.000000,4.000000,4.000000,100.000000,,,,,,,,,,,,,,,,
1644854277.781672,156.000000,0.000000,4200.128418,4217.051270,4215.256348,4177.179688,4213.333496,4223.205078,4223.589844,4239.358887,4222.307617,4212.051270,4158.717773,4186.410156,4187.179688,4181.410156,3459.000000,4.000000,86.000000,,,,0.000000,4.000000,4.000000,4.000000,4.000000,4.000000,4.000000,4.000000,4.000000,4.000000,4.000000,4.000000,4.000000,4.000000,4.000000,100.000000,,,,,,,,,,,,,,,,
1644854277.785612,157.000000,0.000000,4199.102539,4219.230957,4214.102539,4176.794922,4220.512695,4223.717773,4223.333496,4240.256348,4225.256348,4208.846191,4165.256348,4192.563965,4192.051270,4180.641113,3518.000000,4.000000,86.000000,,,,0.000000,4.000000,4.000000,4.000000,4.000000,4.000000,4.000000,4.000000,4.000000,4.000000,4.000000,4.000000,4.000000,4.000000,4.000000,100.000000,,,,,,,,,,,,,,,,
1644854277.789552,158.000000,0.000000,4198.974121,4218.333496,4214.743652,4182.436035,4222.948730,4223.717773,4224.615234,4238.589844,4226.153809,4210.256348,4166.922852,4197.692383,4197.692383,4186.922852,3530.000000,4.000000,86.000000,,,,0.000000,4.000000,4.000000,4.000000,4.000000,4.000000,4.000000,4.000000,4.000000,4.000000,4.000000,4.000000,4.000000,4.000000,4.000000,100.000000,,,,,,,,,,,,,,,,
1644854277.793493,159.000000,0.000000,4199.487305,4213.461426,4216.922852,4188.589844,4219.102539,4223.333496,4226.025879,4235.769043,4224.487305,4215.769043,4165.384766,4199.615234,4202.692383,4194.871582,2448.000000,4.000000,86.000000,,,,0.000000,4.000000,4.000000,4.000000,4.000000,4.000000,4.000000,4.000000,4.000000,4.000000,4.000000,4.000000,4.000000,4.000000,4.000000,100.000000,,,,,,,,,,,,,,,,
1644854277.797433,160.000000,0.000000,4201.282227,4206.282227,4219.230957,4191.282227,4213.333496,4223.461426,4225.897461,4234.487305,4222.436035,4222.948730,4164.615234,4198.846191,4206.153809,4198.205078,3459.000000,4.000000,86.000000,,,,0.000000,4.000000,4.000000,4.000000,4.000000,4.000000,4.000000,4.000000,4.000000,4.000000,4.000000,4.000000,4.000000,4.000000,4.000000,100.000000,,,,,,,,,,,,,,,,
1644854277.801373,161.000000,0.000000,4203.461426,4200.256348,4219.615234,4190.128418,4211.410156,4223.846191,4224.230957,4237.051270,4222.563965,4228.461426,4165.769043,4197.820313,4207.051270,4194.358887,3518.000000,4.000000,86.000000,,,,0.000000,4.000000,4.000000,4.000000,4.000000,4.000000,4.000000,4.000000,4.000000,4.000000,4.000000,4.000000,4.000000,4.000000,4.000000,100.000000,,,,,,,,,,,,,,,,
1644854277.805313,162.000000,0.000000,4204.615234,4198.717773,4216.922852,4187.307617,4215.000000,4223.974121,4223.077148,4242.436035,4225.512695,4230.384766,4165.641113,4197.179688,4204.615234,4186.025879,3530.000000,4.000000,86.000000,,,,0.000000,4.000000,4.000000,4.000000,4.000000,4.000000,4.000000,4.000000,4.000000,4.000000,4.000000,4.000000,4.000000,4.000000,4.000000,100.000000,,,,,,,,,,,,,,,,
1644854277.809253,163.000000,0.000000,4203.461426,4202.436035,4212.307617,4185.256348,4219.871582,4222.692383,4223.077148,4246.794922,4229.487305,4228.717773,4160.769043,4196.538574,4199.230957,4177.948730,2448.000000,4.000000,86.000000,,,,0.000000,4.000000,4.000000,4.000000,4.000000,4.000000,4.000000,4.000000,4.000000,4.000000,4.000000,4.000000,4.000000,4.000000,4.000000,100.000000,,,,,,,,,,,,,,,,
1644854277.813193,164.000000,0.000000,4201.538574,4209.102539,4208.205078,4184.615234,4221.025879,4220.641113,4223.077148,4246.153809,4232.179688,4225.000000,4152.307617,4194.743652,4192.692383,4173.589844,3459.000000,4.000000,86.000000,,,,0.000000,4.000000,4.000000,4.000000,4.000000,4.000000,4.000000,4.000000,4.000000,4.000000,4.000000,4.000000,4.000000,4.000000,4.000000,100.000000,,,,,,,,,,,,,,,,
1644854277.817133,165.000000,0.000000,4202.436035,4214.743652,4206.922852,4185.769043,4217.692383,4219.358887,4222.307617,4240.641113,4231.922852,4221.922852,4146.922852,4191.794922,4187.179688,4173.461426,3518.000000,4.000000,86.000000,,,,0.000000,4.000000,4.000000,4.000000,4.000000,4.000000,4.000000,4.000000,4.000000,4.000000,4.000000,4.000000,4.000000,4.000000,4.000000,100.000000,,,,,,,,,,,,,,,,
1644854277.821073,166.000000,0.000000,4207.563965,4216.538574,4208.717773,4188.205078,4214.487305,4220.641113,4221.794922,4234.358887,4229.743652,4221.153809,4150.897461,4188.589844,4184.358887,4175.769043,3530.000000,4.000000,86.000000,,,,0.000000,4.000000,4.000000,4.000000,4.000000,4.000000,4.000000,4.000000,4.000000,4.000000,4.000000,4.000000,4.000000,4.000000,4.000000,100.000000,,,,,,,,,,,,,,,,
1644854277.825013,167.000000,0.000000,4213.974121,4214.487305,4211.538574,4191.410156,4216.025879,4224.615234,4223.589844,4232.436035,4227.436035,4222.948730,4164.743652,4186.410156,4183.974121,4178.461426,2448.000000,4.000000,86.000000,,,,0.000000,4.000000,4.000000,4.000000,4.000000,4.000000,4.000000,4.000000,4.000000,4.000000,4.000000,4.000000,4.000000,4.000000,4.000000,100.000000,,,,,,,,,,,,,,,,
1644854277.828854,168.000000,0.000000,4216.666504,4211.666504,4213.205078,4194.230957,4222.307617,4228.589844,4227.179688,4235.897461,4227.179688,4226.153809,4181.410156,4186.153809,4185.641113,4180.512695,3459.000000,4.000000,86.000000,,,,0.000000,4.000000,4.000000,4.000000,4.000000,4.000000,4.000000,4.000000,4.000000,4.000000,4.000000,4.000000,4.000000,4.000000,4.000000,100.000000,,,,,,,,,,,,,,,,
1644854277.832794,169.000000,0.000000,4213.205078,4210.769043,4213.205078,4195.128418,4227.948730,4230.000000,4229.487305,4242.051270,4229.743652,4228.589844,4190.512695,4186.922852,4189.102539,4182.179688,3518.000000,4.000000,86.000000,,,,0.000000,4.000000,4.000000,4.000000,4.000000,4.000000,4.000000,4.000000,4.000000,4.000000,4.000000,4.000000,4.000000,4.000000,4.000000,100.000000,,,,,,,,,,,,,,,,
1644854277.836734,170.000000,0.000000,4205.897461,4212.436035,4212.436035,4193.077148,4227.563965,4227.563965,4228.589844,4246.538574,4234.102539,4228.461426,4186.153809,4187.436035,4194.615234,4185.897461,3530.000000,4.000000,86.000000,,,,0.000000,4.000000,4.000000,4.000000,4.000000,4.000000,4.000000,4.000000,4.000000,4.000000,4.000000,4.000000,4.000000,4.000000,4.000000,100.000000,,,,,,,,,,,,,,,,
1644854277.840674,171.000000,0.000000,4201.025879,4215.128418,4212.692383,4188.333496,4220.384766,4222.820313,4225.512695,4247.051270,4237.692383,4225.384766,4169.871582,4187.051270,4201.538574,4193.717773,2448.000000,4.000000,86.000000,,,,0.000000,4.000000,4.000000,4.000000,4.000000,4.000000,4.000000,4.000000,4.000000,4.000000,4.000000,4.000000,4.000000,4.000000,4.000000,100.000000,,,,,,,,,,,,,,,,
1644854277.844614,172.000000,0.000000,4203.077148,4216.922852,4214.358887,4183.077148,4210.769043,4218.846191,4223.333496,4243.717773,4238.974121,4221.794922,4150.384766,4185.897461,4207.051270,4204.615234,3459.000000,4.000000,86.000000,,,,0.000000,4.000000,4.000000,4.000000,4.000000,4.000000,4.000000,4.000000,4.000000,4.000000,4.000000,4.000000,4.000000,4.000000,4.000000,100.000000,,,,,,,,,,,,,,,,
1644854277.848554,173.000000,0.000000,4212.179688,4217.051270,4216.538574,4179.871582,4205.000000,4218.589844,4224.230957,4238.717773,4237.563965,4220.769043,4138.205078,4184.487305,4208.461426,4213.205078,3518.000000,4.000000,86.000000,,,,0.000000,4.000000,4.000000,4.000000,4.000000,4.000000,4.000000,4.000000,4.000000,4.000000,4.000000,4.000000,4.000000,4.000000,4.000000,100.000000,,,,,,,,,,,,,,,,
1644854277.852494,174.000000,0.000000,4223.077148,4216.153809,4217.307617,4180.641113,4207.692383,4222.307617,4226.153809,4233.717773,4234.487305,4223.846191,4138.846191,4183.077148,4204.358887,4212.820313,3530.000000,4.000000,86.000000,,,,0.000000,4.000000,4.000000,4.000000,4.000000,4.000000,4.000000,4.000000,4.000000,4.000000,4.000000,4.000000,4.000000,4.000000,4.000000,100.000000,,,,,,,,,,,,,,,,
1644854277.856434,175.000000,0.000000,4229.615234,4215.256348,4215.512695,4185.512695,4217.436035,4227.820313,4226.282227,4229.871582,4230.512695,4229.615234,4150.384766,4181.538574,4197.563965,4202.179688,2448.000000,4.000000,86.000000,,,,0.000000,4.000000,4.000000,4.000000,4.000000,4.000000,4.000000,4.000000,4.000000,4.000000,4.000000,4.000000,4.000000,4.000000,4.000000,100.000000,,,,,,,,,,,,,,,,
1644854277.860374,176.000000,0.000000,4228.846191,4215.256348,4212.436035,4191.538574,4228.717773,4231.282227,4224.230957,4227.948730,4226.410156,4235.384766,4165.384766,4181.153809,4192.948730,4188.077148,3459.000000,4.000000,86.000000,,,,0.000000,4.000000,4.000000,4.000000,4.000000,4.000000,4.000000,4.000000,4.000000,4.000000,4.000000,4.000000,4.000000,4.000000,4.000000,100.000000,,,,,,,,,,,,,,,,
1644854277.864315,177.000000,0.000000,4222.692383,4216.410156,4210.897461,4195.384766,4234.487305,4231.538574,4222.563965,4228.717773,4224.230957,4238.205078,4176.666504,4183.333496,4193.974121,4180.256348,3518.000000,4.000000,86.000000,,,,0.000000,4.000000,4.000000,4.000000,4.000000,4.000000,4.000000,4.000000,4.000000,4.000000,4.000000,4.000000,4.000000,4.000000,4.000000,100.000000,,,,,,,,,,,,,,,,
1644854277.868255,178.000000,0.000000,4216.282227,4217.820313,4213.205078,4194.743652,4231.666504,4229.743652,4223.846191,4232.436035,4225.384766,4237.179688,4180.769043,4188.846191,4199.871582,4182.436035,3530.000000,4.000000,86.000000,,,,0.000000,4.000000,4.000000,4.000000,4.000000,4.000000,4.000000,4.000000,4.000000,4.000000,4.000000,4.000000,4.000000,4.000000,4.000000,100.000000,,,,,,,,,,,,,,,,
1644854277.872195,179.000000,0.000000,4213.205078,4218.717773,4217.563965,4189.743652,4223.077148,4228.333496,4226.922852,4237.563965,4229.743652,4233.077148,4179.615234,4195.769043,4206.410156,4190.256348,2448.000000,4.000000,86.000000,,,,0.000000,4.000000,4.000000,4.000000,4.000000,4.000000,4.000000,4.000000,4.000000,4.000000,4.000000,4.000000,4.000000,4.000000,4.000000,100.000000,,,,,,,,,,,,,,,,
1644854277.876135,180.000000,0.000000,4213.974121,4218.589844,4220.384766,4182.307617,4214.615234,4227.820313,4228.333496,4241.538574,4234.487305,4228.205078,4177.436035,4200.512695,4209.615234,4197.179688,3459.000000,4.000000,86.000000,,,,0.000000,4.000000,4.000000,4.000000,4.000000,4.000000,4.000000,4.000000,4.000000,4.000000,4.000000,4.000000,4.000000,4.000000,4.000000,100.000000,,,,,,,,,,,,,,,,
1644854277.880075,181.000000,0.000000,4216.410156,4216.666504,4219.743652,4174.743652,4210.897461,4227.563965,4227.051270,4242.692383,4236.410156,4224.615234,4176.538574,4201.153809,4209.358887,4200.897461,3518.000000,4.000000,86.000000,,,,0.000000,4.000000,4.000000,4.000000,4.000000,4.000000,4.000000,4.000000,4.000000,4.000000,4.000000,4.000000,4.000000,4.000000,4.000000,100.000000,,,,,,,,,,,,,,,,
1644854277.884015,182.000000,0.000000,4217.692383,4213.077148,4218.333496,4170.384766,4212.051270,4226.538574,4225.256348,4242.436035,4234.358887,4224.487305,4175.512695,4200.256348,4208.077148,4203.461426,3530.000000,4.000000,86.000000,,,,0.000000,4.000000,4.000000,4.000000,4.000000,4.000000,4.000000,4.000000,4.000000,4.000000,4.000000,4.000000,4.000000,4.000000,4.000000,100.000000,,,,,,,,,,,,,,,,
1644854277.887955,183.000000,0.000000,4216.538574,4209.358887,4220.128418,4172.692383,4215.769043,4225.897461,4225.128418,4243.846191,4230.769043,4228.846191,4173.077148,4202.563965,4208.461426,4205.769043,2448.000000,4.000000,86.000000,,,,0.000000,4.000000,4.000000,4.000000,4.000000,4.000000,4.000000,4.000000,4.000000,4.000000,4.000000,4.000000,4.000000,4.000000,4.000000,100.000000,,,,,,,,,,,,,,,,
1644854277.891895,184.000000,0.000000,4213.717773,4207.948730,4226.282227,4181.922852,4220.128418,4227.051270,4226.538574,4248.461426,4230.000000,4236.922852,4169.358887,4210.897461,4211.538574,4206.410156,3459.000000,4.000000,86.000000,,,,0.000000,4.000000,4.000000,4.000000,4.000000,4.000000,4.000000,4.000000,4.000000,4.000000,4.000000,4.000000,4.000000,4.000000,4.000000,100.000000,,,,,,,,,,,,,,,,
1644854277.895935,185.000000,0.000000,4210.512695,4209.743652,4233.974121,4194.230957,4223.974121,4230.000000,4227.307617,4254.743652,4233.717773,4244.743652,4167.436035,4222.436035,4216.153809,4204.230957,3518.000000,4.000000,86.000000,,,,0.000000,4.000000,4.000000,4.000000,4.000000,4.000000,4.000000,4.000000,4.000000,4.000000,4.000000,4.000000,4.000000,4.000000,4.000000,100.000000,,,,,,,,,,,,,,,,
1644854277.899875,186.000000,0.000000,4207.692383,4213.461426,4238.077148,4202.820313,4226.922852,4232.563965,4226.410156,4258.589844,4239.358887,4247.436035,4169.358887,4229.358887,4220.769043,4201.410156,3530.000000,4.000000,86.000000,,,,0.000000,4.000000,4.000000,4.000000,4.000000,4.000000,4.000000,4.000000,4.000000,4.000000,4.000000,4.000000,4.000000,4.000000,4.000000,100.000000,1.000000,66.666664,4.000000,4.000000,4.000000,4.000000,4.000000,4.000000,4.000000,4.000000,4.000000,4.000000,0.000000,4.000000,4.000000,4.000000
1644854277.903816,187.000000,0.000000,4206.282227,4215.512695,4235.384766,4202.820313,4227.820313,4232.436035,4225.128418,4256.538574,4241.153809,4241.794922,4174.615234,4224.743652,4223.077148,4201.666504,2448.000000,4.000000,86.000000,,,,0.000000,4.000000,4.000000,4.000000,4.000000,4.000000,4.000000,4.000000,4.000000,4.000000,4.000000,4.000000,4.000000,4.000000,4.000000,100.000000,,,,,,,,,,,,,,,,
1644854277.907756,188.000000,0.000000,4207.307617,4213.077148,4227.051270,4194.487305,4226.025879,4228.974121,4224.615234,4249.230957,4235.769043,4229.487305,4180.769043,4209.487305,4220.769043,4204.230957,3459.000000,4.000000,86.000000,,,,0.000000,4.000000,4.000000,4.000000,4.000000,4.000000,4.000000,4.000000,4.000000,4.000000,4.000000,4.000000,4.000000,4.000000,4.000000,100.000000,,,,,,,,,,,,,,,,
1644854277.911696,189.000000,0.000000,4210.000000,4205.769043,4217.179688,4183.846191,4222.307617,4223.846191,4225.000000,4241.153809,4225.769043,4216.794922,4185.000000,4192.563965,4213.077148,4204.230957,3518.000000,4.000000,86.000000,,,,0.000000,4.000000,4.000000,4.000000,4.000000,4.000000,4.000000,4.000000,4.000000,4.000000,4.000000,4.000000,4.000000,4.000000,4.000000,100.000000,,,,,,,,,,,,,,,,
1644854277.915536,190.000000,0.000000,4212.436035,4197.692383,4210.384766,4178.333496,4218.717773,4219.871582,4225.000000,4236.794922,4217.820313,4210.384766,4185.512695,4184.487305,4202.051270,4197.820313,3530.000000,4.000000,86.000000,,,,0.000000,4.000000,4.000000,4.000000,4.000000,4.000000,4.000000,4.000000,4.000000,4.000000,4.000000,4.000000,4.000000,4.000000,4.000000,100.000000,,,,,,,,,,,,,,,,
1644854277.919476,191.000000,0.000000,4213.461426,4194.358887,4208.589844,4182.436035,4216.922852,4218.717773,4224.230957,4237.563965,4216.922852,4212.051270,4181.282227,4189.230957,4192.179688,4187.307617,2448.000000,4.000000,86.000000,,,,0.000000,4.000000,4.000000,4.000000,4.000000,4.000000,4.000000,4.000000,4.000000,4.000000,4.000000,4.000000,4.000000,4.000000,4.000000,100.000000,,,,,,,,,,,,,,,,
1644854277.923416,192.000000,0.000000,4214.102539,4199.230957,4211.282227,4193.461426,4216.794922,4219.487305,4223.846191,4241.025879,4221.538574,4217.307617,4172.820313,4200.256348,4188.461426,4179.615234,3459.000000,4.000000,86.000000,,,,0.000000,4.000000,4.000000,4.000000,4.000000,4.000000,4.000000,4.000000,4.000000,4.000000,4.000000,4.000000,4.000000,4.000000,4.000000,100.000000,,,,,,,,,,,,,,,,
1644854277.927356,193.000000,0.000000,4216.410156,4210.256348,4215.897461,4203.461426,4216.794922,4220.256348,4224.102539,4242.179688,4226.025879,4219.743652,4161.794922,4205.384766,4192.436035,4180.641113,3518.000000,4.000000,86.000000,,,,0.000000,4.000000,4.000000,4.000000,4.000000,4.000000,4.000000,4.000000,4.000000,4.000000,4.000000,4.000000,4.000000,4.000000,4.000000,100.000000,,,,,,,,,,,,,,,,
1644854277.931296,194.000000,0.000000,4219.871582,4220.769043,4218.974121,4204.358887,4215.000000,4219.487305,4223.589844,4237.820313,4225.128418,4215.897461,4151.025879,4196.794922,4201.025879,4190.128418,3530.000000,4.000000,86.000000,,,,0.000000,4.000000,4.000000,4.000000,4.000000,4.000000,4.000000,4.000000,4.000000,4.000000,4.000000,4.000000,4.000000,4.000000,4.000000,100.000000,,,,,,,,,,,,,,,,
1644854277.935237,195.000000,0.000000,4220.641113,4223.333496,4217.436035,4192.692383,4210.512695,4216.025879,4220.384766,4228.205078,4217.948730,4207.563965,4142.692383,4177.436035,4206.538574,4201.410156,2448.000000,4.000000,86.000000,,,,0.000000,4.000000,4.000000,4.000000,4.000000,4.000000,4.000000,4.000000,4.000000,4.000000,4.000000,4.000000,4.000000,4.000000,4.000000,100.000000,,,,,,,,,,,,,,,,
1644854277.939177,196.000000,0.000000,4214.615234,4214.743652,4210.641113,4172.307617,4205.000000,4211.153809,4214.743652,4216.794922,4207.307617,4198.333496,4137.051270,4158.333496,4201.794922,4205.384766,3459.000000,4.000000,86.000000,,,,0.000000,4.000000,4.000000,4.000000,4.000000,4.000000,4.000000,4.000000,4.000000,4.000000,4.000000,4.000000,4.000000,4.000000,4.000000,100.000000,,,,,,,,,,,,,,,,
1644854277.943117,197.000000,0.000000,4202.179688,4198.974121,4201.282227,4152.307617,4201.794922,4207.179688,4210.256348,4207.948730,4197.307617,4189.487305,4133.589844,4150.384766,4184.615234,4196.666504,3518.000000,4.000000,86.000000,,,,0.000000,4.000000,4.000000,4.000000,4.000000,4.000000,4.000000,4.000000,4.000000,4.000000,4.000000,4.000000,4.000000,4.000000,4.000000,100.000000,,,,,,,,,,,,,,,,
1644854277.947057,198.000000,0.000000,4189.743652,4184.487305,4193.717773,4142.307617,4203.077148,4206.538574,4209.230957,4203.717773,4191.025879,4181.025879,4131.025879,4156.538574,4161.153809,4177.436035,3530.000000,4.000000,86.000000,,,,0.000000,4.000000,4.000000,4.000000,4.000000,4.000000,4.000000,4.000000,4.000000,4.000000,4.000000,4.000000,4.000000,4.000000,4.000000,100.000000,,,,,,,,,,,,,,,,
1644854277.950997,199.000000,0.000000,4185.128418,4179.358887,4191.025879,4146.666504,4207.051270,4209.102539,4210.641113,4202.948730,4189.102539,4173.974121,4128.846191,4170.769043,4144.102539,4158.077148,2448.000000,4.000000,86.000000,,,,0.000000,4.000000,4.000000,4.000000,4.000000,4.000000,4.000000,4.000000,4.000000,4.000000,4.000000,4.000000,4.000000,4.000000,4.000000,100.000000,,,,,,,,,,,,,,,,
1644854277.954937,200.000000,0.000000,4190.256348,4185.769043,4194.358887,4162.051270,4208.589844,4212.820313,4211.410156,4203.461426,4190.512695,4171.538574,4129.102539,4183.461426,4144.230957,4150.897461,3459.000000,4.000000,86.000000,,,,0.000000,4.000000,4.000000,4.000000,4.000000,4.000000,4.000000,4.000000,4.000000,4.000000,4.000000,4.000000,4.000000,4.000000,4.000000,100.000000,,,,,,,,,,,,,,,,
1644854277.958877,201.000000,0.000000,4201.153809,4197.948730,4202.436035,4179.743652,4203.974121,4214.743652,4210.256348,4204.358887,4193.717773,4176.282227,4135.641113,4188.846191,4163.717773,4161.922852,3518.000000,4.000000,86.000000,,,,0.000000,4.000000,4.000000,4.000000,4.000000,4.000000,4.000000,4.000000,4.000000,4.000000,4.000000,4.000000,4.000000,4.000000,4.000000,100.000000,,,,,,,,,,,,,,,,
1644854277.962817,202.000000,0.000000,4211.153809,4207.307617,4211.794922,4192.563965,4195.512695,4214.358887,4209.487305,4207.051270,4198.077148,4187.692383,4149.743652,4187.692383,4191.794922,4185.128418,3530.000000,4.000000,86.000000,,,,0.000000,4.000000,4.000000,4.000000,4.000000,4.000000,4.000000,4.000000,4.000000,4.000000,4.000000,4.000000,4.000000,4.000000,4.000000,100.000000,,,,,,,,,,,,,,,,
1644854277.966757,203.000000,0.000000,4216.153809,4209.102539,4219.615234,4197.179688,4190.897461,4213.205078,4212.051270,4213.077148,4203.461426,4201.538574,4166.410156,4186.153809,4211.922852,4206.025879,2448.000000,4.000000,86.000000,,,,0.000000,4.000000,4.000000,4.000000,4.000000,4.000000,4.000000,4.000000,4.000000,4.000000,4.000000,4.000000,4.000000,4.000000,4.000000,100.000000,,,,,,,,,,,,,,,,
1644854277.970697,204.000000,0.000000,4214.358887,4205.128418,4224.102539,4195.384766,4195.641113,4213.717773,4217.051270,4221.410156,4210.000000,4212.436035,4176.538574,4189.743652,4212.563965,4211.538574,3459.000000,4.000000,86.000000,,,,0.000000,4.000000,4.000000,4.000000,4.000000,4.000000,4.000000,4.000000,4.000000,4.000000,4.000000,4.000000,4.000000,4.000000,4.000000,100.000000,,,,,,,,,,,,,,,,
1644854277.974638,205.000000,0.000000,4205.512695,4200.512695,4225.897461,4190.641113,4207.563965,4215.897461,4220.769043,4229.102539,4216.538574,4216.922852,4173.461426,4199.358887,4195.256348,4199.743652,3518.000000,4.000000,86.000000,,,,0.000000,4.000000,4.000000,4.000000,4.000000,4.000000,4.000000,4.000000,4.000000,4.000000,4.000000,4.000000,4.000000,4.000000,4.000000,100.000000,,,,,,,,,,,,,,,,
1644854277.978478,206.000000,0.000000,4190.512695,4198.846191,4226.794922,4185.128418,4217.948730,4218.461426,4220.641113,4233.077148,4220.897461,4215.641113,4158.846191,4210.769043,4172.563965,4180.384766,3530.000000,4.000000,86.000000,,,,0.000000,4.000000,4.000000,4.000000,4.000000,4.000000,4.000000,4.000000,4.000000,4.000000,4.000000,4.000000,4.000000,4.000000,4.000000,100.000000,,,,,,,,,,,,,,,,
1644854277.982418,207.000000,0.000000,4174.871582,4200.000000,4227.948730,4179.230957,4219.102539,4219.230957,4217.692383,4232.820313,4220.769043,4212.307617,4143.333496,4217.436035,4158.974121,4167.820313,2448.000000,4.000000,86.000000,,,,0.000000,4.000000,4.000000,4.000000,4.000000,4.000000,4.000000,4.000000,4.000000,4.000000,4.000000,4.000000,4.000000,4.000000,4.000000,100.000000,,,,,,,,,,,,,,,,
1644854277.986358,208.000000,0.000000,4168.846191,4202.179688,4229.230957,4173.846191,4211.538574,4217.820313,4215.128418,4229.743652,4216.666504,4211.025879,4138.846191,4214.871582,4162.307617,4171.794922,3459.000000,4.000000,86.000000,,,,0.000000,4.000000,4.000000,4.000000,4.000000,4.000000,4.000000,4.000000,4.000000,4.000000,4.000000,4.000000,4.000000,4.000000,4.000000,100.000000,,,,,,,,,,,,,,,,
1644854277.990298,209.000000,0.000000,4183.846191,4205.641113,4228.589844,4171.666504,4202.692383,4214.743652,4214.358887,4227.436035,4212.307617,4213.205078,4149.743652,4203.589844,4180.769043,4191.794922,3518.000000,4.000000,86.000000,,,,0.000000,4.000000,4.000000,4.000000,4.000000,4.000000,4.000000,4.000000,4.000000,4.000000,4.000000,4.000000,4.000000,4.000000,4.000000,100.000000,,,,,,,,,,,,,,,,
1644854277.994238,210.000000,0.000000,4220.641113,4212.051270,4224.487305,4175.641113,4201.153809,4211.922852,4215.000000,4228.717773,4212.051270,4217.692383,4170.512695,4189.102539,4205.897461,4217.179688,3530.000000,4.000000,86.000000,,,,0.000000,4.000000,4.000000,4.000000,4.000000,4.000000,4.000000,4.000000,4.000000,4.000000,4.000000,4.000000,4.000000,4.000000,4.000000,100.000000,,,,,,,,,,,,,,,,
1644854277.998178,211.000000,0.000000,4264.102539,4221.794922,4218.077148,4184.487305,4208.333496,4210.384766,4216.025879,4234.102539,4217.307617,4221.666504,4190.128418,4179.230957,4227.179688,4232.948730,2448.000000,4.000000,86.000000,,,,0.000000,4.000000,4.000000,4.000000,4.000000,4.000000,4.000000,4.000000,4.000000,4.000000,4.000000,4.000000,4.000000,4.000000,4.000000,100.000000,,,,,,,,,,,,,,,,
1644854278.002118,212.000000,0.000000,4288.333496,4230.256348,4213.077148,4191.666504,4217.948730,4210.128418,4217.563965,4241.153809,4225.128418,4223.333496,4200.128418,4179.102539,4236.025879,4229.743652,3459.000000,4.000000,86.000000,,,,0.000000,4.000000,4.000000,4.000000,4.000000,4.000000,4.000000,4.000000,4.000000,4.000000,4.000000,4.000000,4.000000,4.000000,4.000000,100.000000,,,,,,,,,,,,,,,,
1644854278.006059,213.000000,0.000000,4276.025879,4231.922852,4212.820313,4189.871582,4222.307617,4210.641113,4219.871582,4245.769043,4230.641113,4223.461426,4198.461426,4188.205078,4229.230957,4209.102539,3518.000000,4.000000,86.000000,,,,0.000000,4.000000,4.000000,4.000000,4.000000,4.000000,4.000000,4.000000,4.000000,4.000000,4.000000,4.000000,4.000000,4.000000,4.000000,100.000000,,,,,,,,,,,,,,,,
1644854278.009999,214.000000,0.000000,4233.717773,4225.000000,4217.051270,4178.205078,4218.589844,4211.153809,4221.666504,4244.871582,4231.282227,4224.615234,4189.615234,4200.256348,4212.436035,4182.948730,3530.000000,4.000000,86.000000,,,,0.000000,4.000000,4.000000,4.000000,4.000000,4.000000,4.000000,4.000000,4.000000,4.000000,4.000000,4.000000,4.000000,4.000000,4.000000,100.000000,,,,,,,,,,,,,,,,
1644854278.013939,215.000000,0.000000,4190.769043,4214.487305,4222.820313,4163.846191,4211.282227,4212.051270,4221.538574,4239.230957,4227.820313,4227.692383,4180.128418,4207.436035,4196.282227,4166.282227,2448.000000,4.000000,86.000000,,,,0.000000,4.000000,4.000000,4.000000,4.000000,4.000000,4.000000,4.000000,4.000000,4.000000,4.000000,4.000000,4.000000,4.000000,4.000000,100.000000,,,,,,,,,,,,,,,,
1644854278.017879,216.000000,0.000000,4177.563965,4209.487305,4226.666504,4157.051270,4207.307617,4213.461426,4219.230957,4232.436035,4224.230957,4230.769043,4174.743652,4205.512695,4190.641113,4168.333496,3459.000000,4.000000,86.000000,,,,0.000000,4.000000,4.000000,4.000000,4.000000,4.000000,4.000000,4.000000,4.000000,4.000000,4.000000,4.000000,4.000000,4.000000,4.000000,100.000000,,,,,,,,,,,,,,,,
1644854278.021819,217.000000,0.000000,4204.102539,4215.512695,4226.666504,4163.589844,4209.102539,4215.641113,4217.563965,4228.717773,4223.077148,4230.769043,4173.846191,4196.282227,4197.051270,4188.717773,3518.000000,4.000000,86.000000,,,,0.000000,4.000000,4.000000,4.000000,4.000000,4.000000,4.000000,4.000000,4.000000,4.000000,4.000000,4.000000,4.000000,4.000000,4.000000,100.000000,,,,,,,,,,,,,,,,
1644854278.025759,218.000000,0.000000,4252.563965,4230.384766,4223.205078,4180.128418,4213.974121,4217.563965,4218.717773,4229.743652,4224.743652,4226.922852,4174.871582,4186.025879,4210.000000,4216.538574,3530.000000,4.000000,86.000000,,,,0.000000,4.000000,4.000000,4.000000,4.000000,4.000000,4.000000,4.000000,4.000000,4.000000,4.000000,4.000000,4.000000,4.000000,4.000000,100.000000,,,,,,,,,,,,,,,,
1644854278.029699,219.000000,0.000000,4291.282227,4245.128418,4218.077148,4196.922852,4217.436035,4218.333496,4222.051270,4233.205078,4226.794922,4221.282227,4174.487305,4180.128418,4221.410156,4235.384766,2448.000000,4.000000,86.000000,,,,0.000000,4.000000,4.000000,4.000000,4.000000,4.000000,4.000000,4.000000,4.000000,4.000000,4.000000,4.000000,4.000000,4.000000,4.000000,100.000000,,,,,,,,,,,,,,,,
1644854278.033639,220.000000,0.000000,4299.230957,4250.384766,4213.333496,4204.102539,4217.820313,4217.820313,4224.230957,4235.256348,4227.051270,4217.307617,4172.436035,4180.000000,4225.512695,4232.692383,3459.000000,4.000000,86.000000,,,,0.000000,4.000000,4.000000,4.000000,4.000000,4.000000,4.000000,4.000000,4.000000,4.000000,4.000000,4.000000,4.000000,4.000000,4.000000,100.000000,,,,,,,,,,,,,,,,
1644854278.037579,221.000000,0.000000,4278.846191,4243.717773,4210.641113,4198.974121,4216.794922,4216.922852,4223.333496,4234.102539,4225.256348,4216.282227,4171.025879,4183.461426,4221.538574,4208.974121,3518.000000,4.000000,86.000000,,,,0.000000,4.000000,4.000000,4.000000,4.000000,4.000000,4.000000,4.000000,4.000000,4.000000,4.000000,4.000000,4.000000,4.000000,4.000000,100.000000,,,,,,,,,,,,,,,,
1644854278.041519,222.000000,0.000000,4251.538574,4230.512695,4210.897461,4187.051270,4216.410156,4216.922852,4221.153809,4230.641113,4222.948730,4217.436035,4172.051270,4186.794922,4212.179688,4177.692383,3530.000000,4.000000,86.000000,,,,0.000000,4.000000,4.000000,4.000000,4.000000,4.000000,4.000000,4.000000,4.000000,4.000000,4.000000,4.000000,4.000000,4.000000,4.000000,100.000000,,,,,,,,,,,,,,,,
1644854278.045460,223.000000,0.000000,4236.538574,4218.717773,4213.846191,4176.794922,4216.410156,4218.333496,4221.410156,4228.077148,4221.410156,4218.461426,4175.512695,4187.307617,4202.948730,4155.000000,2448.000000,4.000000,86.000000,,,,0.000000,4.000000,4.000000,4.000000,4.000000,4.000000,4.000000,4.000000,4.000000,4.000000,4.000000,4.000000,4.000000,4.000000,4.000000,100.000000,,,,,,,,,,,,,,,,
1644854278.049400,224.000000,0.000000,4237.820313,4213.717773,4217.563965,4172.563965,4215.256348,4220.128418,4224.615234,4227.692383,4220.384766,4217.820313,4179.743652,4184.487305,4198.974121,4147.563965,3459.000000,4.000000,86.000000,,,,0.000000,4.000000,4.000000,4.000000,4.000000,4.000000,4.000000,4.000000,4.000000,4.000000,4.000000,4.000000,4.000000,4.000000,4.000000,100.000000,,,,,,,,,,,,,,,,
1644854278.053240,225.000000,0.000000,4245.512695,4215.000000,4218.974121,4172.692383,4211.922852,4220.641113,4227.820313,4228.333496,4218.846191,4216.025879,4183.205078,4179.871582,4201.025879,4149.358887,3518.000000,4.000000,86.000000,,,,0.000000,4.000000,4.000000,4.000000,4.000000,4.000000,4.000000,4.000000,4.000000,4.000000,4.000000,4.000000,4.000000,4.000000,4.000000,100.000000,,,,,,,,,,,,,,,,
1644854278.057180,226.000000,0.000000,4249.358887,4219.102539,4216.153809,4173.333496,4207.051270,4219.102539,4227.179688,4227.948730,4216.025879,4213.846191,4184.615234,4175.641113,4205.769043,4150.512695,3530.000000,4.000000,86.000000,,,,0.000000,4.000000,4.000000,4.000000,4.000000,4.000000,4.000000,4.000000,4.000000,4.000000,4.000000,4.000000,4.000000,4.000000,4.000000,100.000000,,,,,,,,,,,,,,,,
1644854278.061120,227.000000,0.000000,4246.794922,4222.436035,4210.256348,4172.051270,4202.051270,4216.025879,4222.820313,4226.025879,4212.820313,4211.666504,4182.563965,4173.333496,4207.948730,4146.922852,2448.000000,4.000000,86.000000,,,,0.000000,4.000000,4.000000,4.000000,4.000000,4.000000,4.000000,4.000000,4.000000,4.000000,4.000000,4.000000,4.000000,4.000000,4.000000,100.000000,,,,,,,,,,,,,,,,
1644854278.065060,228.000000,0.000000,4242.436035,4223.333496,4204.615234,4169.615234,4197.820313,4212.948730,4218.333496,4224.102539,4210.897461,4209.871582,4177.307617,4172.820313,4205.641113,4142.563965,3459.000000,4.000000,86.000000,,,,0.000000,4.000000,4.000000,4.000000,4.000000,4.000000,4.000000,4.000000,4.000000,4.000000,4.000000,4.000000,4.000000,4.000000,4.000000,100.000000,,,,,,,,,,,,,,,,
1644854278.069000,229.000000,0.000000,4240.256348,4222.051270,4202.948730,4167.820313,4195.384766,4211.666504,4217.051270,4224.487305,4211.282227,4209.230957,4171.666504,4173.333496,4201.410156,4141.666504,3518.000000,4.000000,86.000000,,,,0.000000,4.000000,4.000000,4.000000,4.000000,4.000000,4.000000,4.000000,4.000000,4.000000,4.000000,4.000000,4.000000,4.000000,4.000000,100.000000,,,,,,,,,,,,,,,,
1644854278.072940,230.000000,0.000000,4239.871582,4219.230957,4206.025879,4167.179688,4195.769043,4212.948730,4219.102539,4227.563965,4214.487305,4211.025879,4169.230957,4175.512695,4199.358887,4142.692383,3530.000000,4.000000,86.000000,,,,0.000000,4.000000,4.000000,4.000000,4.000000,4.000000,4.000000,4.000000,4.000000,4.000000,4.000000,4.000000,4.000000,4.000000,4.000000,100.000000,,,,,,,,,,,,,,,,
1644854278.076881,231.000000,0.000000,4237.820313,4215.897461,4211.538574,4167.051270,4200.000000,4216.153809,4222.051270,4231.794922,4219.102539,4215.256348,4171.025879,4180.000000,4200.384766,4140.641113,2448.000000,4.000000,86.000000,,,,0.000000,4.000000,4.000000,4.000000,4.000000,4.000000,4.000000,4.000000,4.000000,4.000000,4.000000,4.000000,4.000000,4.000000,4.000000,100.000000,,,,,,,,,,,,,,,,
1644854278.080821,232.000000,0.000000,4234.102539,4213.333496,4216.282227,4167.820313,4207.051270,4219.487305,4224.230957,4235.256348,4223.205078,4220.641113,4175.000000,4186.666504,4201.922852,4134.230957,3459.000000,4.000000,86.000000,,,,0.000000,4.000000,4.000000,4.000000,4.000000,4.000000,4.000000,4.000000,4.000000,4.000000,4.000000,4.000000,4.000000,4.000000,4.000000,100.000000,,,,,,,,,,,,,,,,
1644854278.084761,233.000000,0.000000,4233.974121,4214.358887,4218.846191,4170.897461,4213.589844,4221.025879,4225.512695,4236.794922,4225.000000,4224.487305,4178.333496,4192.820313,4202.436035,4128.077148,3518.000000,4.000000,86.000000,,,,0.000000,4.000000,4.000000,4.000000,4.000000,4.000000,4.000000,4.000000,4.000000,4.000000,4.000000,4.000000,4.000000,4.000000,4.000000,100.000000,,,,,,,,,,,,,,,,
1644854278.088701,234.000000,0.000000,4242.820313,4220.512695,4219.615234,4177.051270,4216.025879,4220.512695,4226.410156,4237.179688,4224.743652,4225.897461,4180.512695,4196.153809,4203.974121,4127.692383,3530.000000,4.000000,86.000000,,,,0.000000,4.000000,4.000000,4.000000,4.000000,4.000000,4.000000,4.000000,4.000000,4.000000,4.000000,4.000000,4.000000,4.000000,4.000000,100.000000,,,,,,,,,,,,,,,,
1644854278.092641,235.000000,0.000000,4260.128418,4230.128418,4220.512695,4184.358887,4213.077148,4218.589844,4226.666504,4237.179688,4224.102539,4226.153809,4183.205078,4196.025879,4209.358887,4133.589844,2448.000000,4.000000,86.000000,,,,0.000000,4.000000,4.000000,4.000000,4.000000,4.000000,4.000000,4.000000,4.000000,4.000000,4.000000,4.000000,4.000000,4.000000,4.000000,100.000000,,,,,,,,,,,,,,,,
1644854278.096581,236.000000,0.000000,4277.692383,4238.333496,4222.563965,4188.846191,4207.436035,4216.922852,4225.897461,4237.436035,4224.230957,4227.051270,4186.410156,4193.717773,4217.307617,4141.410156,3459.000000,4.000000,86.000000,,,,0.000000,4.000000,4.000000,4.000000,4.000000,4.000000,4.000000,4.000000,4.000000,4.000000,4.000000,4.000000,4.000000,4.000000,4.000000,100.000000,,,,,,,,,,,,,,,,
1644854278.100521,237.000000,0.000000,4286.025879,4241.153809,4224.358887,4187.948730,4203.333496,4216.282227,4225.384766,4237.820313,4225.641113,4229.102539,4188.589844,4191.025879,4222.436035,4146.666504,3518.000000,4.000000,86.000000,,,,0.000000,4.000000,4.000000,4.000000,4.000000,4.000000,4.000000,4.000000,4.000000,4.000000,4.000000,4.000000,4.000000,4.000000,4.000000,100.000000,,,,,,,,,,,,,,,,
1644854278.104461,238.000000,0.000000,4281.282227,4238.077148,4224.102539,4182.820313,4203.333496,4216.410156,4226.282227,4237.820313,4227.307617,4231.153809,4187.563965,4188.846191,4220.641113,4147.307617,3530.000000,4.000000,86.000000,,,,0.000000,4.000000,4.000000,4.000000,4.000000,4.000000,4.000000,4.000000,4.000000,4.000000,4.000000,4.000000,4.000000,4.000000,4.000000,100.000000,,,,,,,,,,,,,,,,
1644854278.108401,239.000000,0.000000,4268.461426,4232.820313,4221.922852,4177.179688,4206.666504,4216.538574,4228.589844,4237.307617,4228.333496,4231.922852,4183.974121,4187.179688,4213.846191,4144.615234,2448.000000,4.000000,86.000000,,,,0.000000,4.000000,4.000000,4.000000,4.000000,4.000000,4.000000,4.000000,4.000000,4.000000,4.000000,4.000000,4.000000,4.000000,4.000000,100.000000,,,,,,,,,,,,,,,,
1644854278.112341,240.000000,0.000000,4257.179688,4230.256348,4219.615234,4174.487305,4210.000000,4216.153809,4229.358887,4235.897461,4228.461426,4231.153809,4181.025879,4186.025879,4208.717773,4142.051270,3459.000000,4.000000,86.000000,,,,0.000000,4.000000,4.000000,4.000000,4.000000,4.000000,4.000000,4.000000,4.000000,4.000000,4.000000,4.000000,4.000000,4.000000,4.000000,100.000000,,,,,,,,,,,,,,,,
1644854278.116282,241.000000,0.000000,4255.256348,4232.436035,4219.615234,4176.538574,4211.153809,4215.641113,4227.179688,4234.230957,4228.461426,4229.615234,4181.794922,4186.538574,4211.538574,4142.948730,3518.000000,4.000000,86.000000,,,,0.000000,4.000000,4.000000,4.000000,4.000000,4.000000,4.000000,4.000000,4.000000,4.000000,4.000000,4.000000,4.000000,4.000000,4.000000,100.000000,,,,,,,,,,,,,,,,
1644854278.120222,242.000000,0.000000,4262.179688,4236.282227,4222.948730,4182.563965,4210.128418,4215.769043,4223.717773,4233.333496,4229.487305,4228.589844,4186.794922,4189.871582,4222.820313,4148.461426,3530.000000,4.000000,86.000000,,,,0.000000,4.000000,4.000000,4.000000,4.000000,4.000000,4.000000,4.000000,4.000000,4.000000,4.000000,4.000000,4.000000,4.000000,4.000000,100.000000,,,,,,,,,,,,,,,,
1644854278.124262,243.000000,0.000000,4270.769043,4236.922852,4228.077148,4189.358887,4208.846191,4216.666504,4223.205078,4234.487305,4231.794922,4228.589844,4193.974121,4195.256348,4237.563965,4155.769043,2448.000000,4.000000,86.000000,,,,0.000000,4.000000,4.000000,4.000000,4.000000,4.000000,4.000000,4.000000,4.000000,4.000000,4.000000,4.000000,4.000000,4.000000,4.000000,100.000000,,,,,,,,,,,,,,,,
1644854278.128202,244.000000,0.000000,4274.871582,4232.179688,4231.922852,4192.179688,4209.102539,4217.179688,4226.794922,4236.922852,4234.230957,4229.230957,4200.769043,4201.025879,4248.333496,4160.128418,3459.000000,4.000000,86.000000,,,,0.000000,4.000000,4.000000,4.000000,4.000000,4.000000,4.000000,4.000000,4.000000,4.000000,4.000000,4.000000,4.000000,4.000000,4.000000,100.000000,,,,,,,,,,,,,,,,
1644854278.132142,245.000000,0.000000,4274.102539,4226.025879,4232.692383,4188.077148,4211.410156,4217.179688,4231.282227,4238.846191,4236.153809,4230.384766,4206.282227,4205.769043,4251.282227,4159.230957,3518.000000,4.000000,86.000000,,,,0.000000,4.000000,4.000000,4.000000,4.000000,4.000000,4.000000,4.000000,4.000000,4.000000,4.000000,4.000000,4.000000,4.000000,4.000000,100.000000,,,,,,,,,,,,,,,,
1644854278.136082,246.000000,0.000000,4274.102539,4225.128418,4232.563965,4178.974121,4214.230957,4217.692383,4232.436035,4238.717773,4237.436035,4233.205078,4211.025879,4209.102539,4248.589844,4155.897461,3530.000000,4.000000,86.000000,,,,0.000000,4.000000,4.000000,4.000000,4.000000,4.000000,4.000000,4.000000,4.000000,4.000000,4.000000,4.000000,4.000000,4.000000,4.000000,100.000000,,,,,,,,,,,,,,,,
1644854278.140022,247.000000,0.000000,4278.461426,4232.307617,4234.743652,4170.256348,4216.025879,4219.487305,4229.102539,4236.666504,4238.717773,4238.461426,4215.641113,4210.641113,4245.769043,4155.512695,2448.000000,4.000000,86.000000,,,,0.000000,4.000000,4.000000,4.000000,4.000000,4.000000,4.000000,4.000000,4.000000,4.000000,4.000000,4.000000,4.000000,4.000000,4.000000,100.000000,,,,,,,,,,,,,,,,
1644854278.143962,248.000000,0.000000,4283.461426,4242.051270,4239.743652,4166.794922,4216.794922,4222.051270,4224.743652,4234.615234,4239.615234,4244.871582,4219.487305,4210.128418,4246.922852,4160.384766,3459.000000,4.000000,86.000000,,,,0.000000,4.000000,4.000000,4.000000,4.000000,4.000000,4.000000,4.000000,4.000000,4.000000,4.000000,4.000000,4.000000,4.000000,4.000000,100.000000,,,,,,,,,,,,,,,,
1644854278.147902,249.000000,0.000000,4281.922852,4245.384766,4244.230957,4168.846191,4217.820313,4223.974121,4222.692383,4234.102539,4239.487305,4249.230957,4221.538574,4208.077148,4251.794922,4166.025879,3518.000000,4.000000,86.000000,,,,0.000000,4.000000,4.000000,4.000000,4.000000,4.000000,4.000000,4.000000,4.000000,4.000000,4.000000,4.000000,4.000000,4.000000,4.000000,100.000000,,,,,,,,,,,,,,,,
1644854278.151842,250.000000,0.000000,4270.000000,4236.538574,4243.077148,4171.922852,4220.128418,4224.358887,4223.333496,4236.153809,4238.077148,4249.230957,4220.897461,4205.256348,4256.282227,4164.871582,3530.000000,4.000000,86.000000,,,,0.000000,4.000000,4.000000,4.000000,4.000000,4.000000,4.000000,4.000000,4.000000,4.000000,4.000000,4.000000,4.000000,4.000000,4.000000,100.000000,,,,,,,,,,,,,,,,
1644854278.155783,251.000000,0.000000,4250.897461,4217.820313,4234.230957,4170.384766,4222.692383,4223.974121,4224.743652,4239.743652,4236.794922,4245.769043,4217.820313,4202.948730,4255.897461,4152.948730,2448.000000,4.000000,86.000000,,,,0.000000,4.000000,4.000000,4.000000,4.000000,4.000000,4.000000,4.000000,4.000000,4.000000,4.000000,4.000000,4.000000,4.000000,4.000000,100.000000,,,,,,,,,,,,,,,,
1644854278.159723,252.000000,0.000000,4231.666504,4198.333496,4221.153809,4162.436035,4222.948730,4223.974121,4225.384766,4243.589844,4236.538574,4241.282227,4212.820313,4201.922852,4248.589844,4135.128418,3459.000000,4.000000,86.000000,,,,0.000000,4.000000,4.000000,4.000000,4.000000,4.000000,4.000000,4.000000,4.000000,4.000000,4.000000,4.000000,4.000000,4.000000,4.000000,100.000000,,,,,,,,,,,,,,,,
1644854278.163663,253.000000,0.000000,4218.461426,4187.051270,4210.769043,4151.922852,4218.974121,4224.230957,4226.153809,4246.282227,4237.307617,4238.205078,4207.307617,4202.307617,4236.666504,4121.153809,3518.000000,4.000000,86.000000,,,,0.000000,4.000000,4.000000,4.000000,4.000000,4.000000,4.000000,4.000000,4.000000,4.000000,4.000000,4.000000,4.000000,4.000000,4.000000,100.000000,,,,,,,,,,,,,,,,
1644854278.167603,254.000000,0.000000,4213.974121,4188.717773,4208.461426,4146.025879,4211.922852,4223.589844,4227.692383,4247.051270,4238.077148,4237.179688,4202.436035,4203.846191,4225.128418,4117.179688,3530.000000,4.000000,86.000000,,,,0.000000,4.000000,4.000000,4.000000,4.000000,4.000000,4.000000,4.000000,4.000000,4.000000,4.000000,4.000000,4.000000,4.000000,4.000000,100.000000,,,,,,,,,,,,,,,,
1644854278.171543,255.000000,0.000000,4218.974121,4201.282227,4214.615234,4149.358887,4206.538574,4221.410156,4228.589844,4246.153809,4237.820313,4238.077148,4199.230957,4205.641113,4218.846191,4121.153809,113.000000,4.000000,86.000000,,,,0.000000,4.000000,4.000000,4.000000,4.000000,4.000000,4.000000,4.000000,4.000000,4.000000,4.000000,4.000000,4.000000,4.000000,4.000000,100.000000,,,,,,,,,,,,,,,,
1644854278.175483,0.000000,0.000000,4231.153809,4217.948730,4223.974121,4160.000000,4207.948730,4219.358887,4227.820313,4244.743652,4236.282227,4240.512695,4197.820313,4207.051270,4220.641113,4126.025879,3555.000000,4.000000,86.000000,,,,0.000000,4.000000,4.000000,4.000000,4.000000,4.000000,4.000000,4.000000,4.000000,4.000000,4.000000,4.000000,4.000000,4.000000,4.000000,100.000000,,,,,,,,,,,,,,,,
1644854278.179423,1.000000,0.000000,4245.897461,4231.538574,4230.256348,4171.153809,4217.179688,4219.102539,4226.025879,4244.230957,4234.615234,4243.974121,4198.461426,4207.436035,4230.256348,4128.077148,3333.000000,4.000000,86.000000,,,,0.000000,4.000000,4.000000,4.000000,4.000000,4.000000,4.000000,4.000000,4.000000,4.000000,4.000000,4.000000,4.000000,4.000000,4.000000,100.000000,,,,,,,,,,,,,,,,
1644854278.183363,2.000000,0.000000,4257.436035,4237.692383,4230.512695,4176.666504,4229.615234,4220.897461,4225.769043,4245.769043,4233.974121,4247.948730,4201.538574,4207.179688,4244.871582,4129.871582,3543.000000,4.000000,86.000000,,,,0.000000,4.000000,4.000000,4.000000,4.000000,4.000000,4.000000,4.000000,4.000000,4.000000,4.000000,4.000000,4.000000,4.000000,4.000000,100.000000,,,,,,,,,,,,,,,,
1644854278.187303,3.000000,0.000000,4261.538574,4236.794922,4226.410156,4174.743652,4237.563965,4223.589844,4228.333496,4248.461426,4234.615234,4250.512695,4206.282227,4207.436035,4259.487305,4134.871582,3683.000000,4.000000,86.000000,,,,0.000000,4.000000,4.000000,4.000000,4.000000,4.000000,4.000000,4.000000,4.000000,4.000000,4.000000,4.000000,4.000000,4.000000,4.000000,100.000000,,,,,,,,,,,,,,,,
1644854278.191243,4.000000,0.000000,4257.692383,4232.820313,4221.922852,4167.692383,4235.769043,4225.128418,4231.153809,4250.512695,4235.512695,4249.230957,4210.128418,4208.461426,4267.051270,4141.794922,3471.000000,4.000000,86.000000,,,,0.000000,4.000000,4.000000,4.000000,4.000000,4.000000,4.000000,4.000000,4.000000,4.000000,4.000000,4.000000,4.000000,4.000000,4.000000,100.000000,,,,,,,,,,,,,,,,
1644854278.195184,5.000000,0.000000,4248.333496,4229.743652,4220.256348,4159.487305,4225.000000,4224.358887,4231.153809,4250.000000,4235.641113,4242.820313,4210.512695,4210.128418,4263.205078,4145.000000,3494.000000,4.000000,86.000000,,,,0.000000,4.000000,4.000000,4.000000,4.000000,4.000000,4.000000,4.000000,4.000000,4.000000,4.000000,4.000000,4.000000,4.000000,4.000000,100.000000,,,,,,,,,,,,,,,,
1644854278.199124,6.000000,0.000000,4236.410156,4229.102539,4222.307617,4153.077148,4212.051270,4221.538574,4228.461426,4247.820313,4234.358887,4233.717773,4206.538574,4211.282227,4248.717773,4141.025879,2765.000000,4.000000,86.000000,,,,0.000000,4.000000,4.000000,4.000000,4.000000,4.000000,4.000000,4.000000,4.000000,4.000000,4.000000,4.000000,4.000000,4.000000,4.000000,100.000000,,,,,,,,,,,,,,,,
1644854278.202964,7.000000,0.000000,4225.128418,4229.487305,4227.179688,4149.487305,4205.000000,4218.205078,4225.769043,4246.153809,4232.051270,4226.922852,4200.641113,4210.512695,4230.897461,4133.205078,3032.000000,4.000000,86.000000,,,,0.000000,4.000000,4.000000,4.000000,4.000000,4.000000,4.000000,4.000000,4.000000,4.000000,4.000000,4.000000,4.000000,4.000000,4.000000,100.000000,,,,,,,,,,,,,,,,
1644854278.206904,8.000000,0.000000,4218.205078,4229.230957,4232.820313,4149.102539,4207.563965,4215.769043,4225.512695,4246.666504,4229.615234,4226.025879,4197.307617,4207.179688,4219.487305,4129.358887,3274.000000,4.000000,86.000000,,,,0.000000,4.000000,4.000000,4.000000,4.000000,4.000000,4.000000,4.000000,4.000000,4.000000,4.000000,4.000000,4.000000,4.000000,4.000000,100.000000,,,,,,,,,,,,,,,,
1644854278.210844,9.000000,0.000000,4220.256348,4230.512695,4237.307617,4153.461426,4217.563965,4215.128418,4226.666504,4247.820313,4227.948730,4230.256348,4199.487305,4202.436035,4221.410156,4134.615234,3561.000000,4.000000,86.000000,,,,0.000000,4.000000,4.000000,4.000000,4.000000,4.000000,4.000000,4.000000,4.000000,4.000000,4.000000,4.000000,4.000000,4.000000,4.000000,100.000000,,,,,,,,,,,,,,,,
1644854278.214784,10.000000,0.000000,4232.563965,4237.436035,4239.487305,4163.846191,4228.717773,4216.025879,4226.538574,4247.307617,4226.922852,4235.000000,4205.128418,4198.589844,4235.641113,4147.051270,3548.000000,4.000000,86.000000,,,,0.000000,4.000000,4.000000,4.000000,4.000000,4.000000,4.000000,4.000000,4.000000,4.000000,4.000000,4.000000,4.000000,4.000000,4.000000,100.000000,,,,,,,,,,,,,,,,
1644854278.218724,11.000000,0.000000,4249.743652,4251.153809,4238.974121,4177.692383,4235.000000,4216.666504,4224.358887,4244.358887,4225.769043,4235.384766,4208.077148,4198.205078,4253.461426,4159.615234,2443.000000,4.000000,86.000000,,,,0.000000,4.000000,4.000000,4.000000,4.000000,4.000000,4.000000,4.000000,4.000000,4.000000,4.000000,4.000000,4.000000,4.000000,4.000000,100.000000,,,,,,,,,,,,,,,,
