title:Alex-6-zkDEn-nDQ0BiZAB-gL2g, start timestamp:1644852715.222651, stop timestamp:1644852741.031640, headset type:EPOCPLUS, headset serial:3B9AEBFF, headset firmware:626, channels:55, sampling rate:eeg_256, samples:6551      , version:2.1, 
Timestamp,EEG.Counter,EEG.Interpolated,EEG.AF3,EEG.F7,EEG.F3,EEG.FC5,EEG.T7,EEG.P7,EEG.O1,EEG.O2,EEG.P8,EEG.T8,EEG.FC6,EEG.F4,EEG.F8,EEG.AF4,EEG.RawCq,EEG.Battery,EEG.BatteryPercent,MarkerIndex,MarkerType,MarkerValueInt,EEG.MarkerHardware,CQ.AF3,CQ.F7,CQ.F3,CQ.FC5,CQ.T7,CQ.P7,CQ.O1,CQ.O2,CQ.P8,CQ.T8,CQ.FC6,CQ.F4,CQ.F8,CQ.AF4,CQ.Overall,EQ.SampleRateQuality,EQ.OVERALL,EQ.AF3,EQ.F7,EQ.F3,EQ.FC5,EQ.T7,EQ.P7,EQ.O1,EQ.O2,EQ.P8,EQ.T8,EQ.FC6,EQ.F4,EQ.F8,EQ.AF4
1644852715.222651,186.000000,0.000000,4242.692383,4201.922852,4217.436035,4218.974121,4223.974121,4218.205078,4224.743652,4232.179688,4230.128418,4223.461426,4211.025879,4194.102539,4227.563965,4356.282227,3502.000000,4.000000,91.000000,,,,0.000000,4.000000,4.000000,4.000000,4.000000,4.000000,4.000000,4.000000,4.000000,4.000000,4.000000,4.000000,4.000000,4.000000,4.000000,100.000000,,,,,,,,,,,,,,,,
1644852715.226691,187.000000,0.000000,4250.128418,4209.743652,4216.538574,4224.230957,4224.615234,4218.589844,4223.974121,4233.333496,4230.256348,4224.871582,4215.769043,4195.512695,4228.205078,4353.461426,3573.000000,4.000000,91.000000,,,,0.000000,4.000000,4.000000,4.000000,4.000000,4.000000,4.000000,4.000000,4.000000,4.000000,4.000000,4.000000,4.000000,4.000000,4.000000,100.000000,,,,,,,,,,,,,,,,
1644852715.230631,188.000000,0.000000,4254.358887,4220.256348,4215.256348,4229.230957,4218.717773,4217.436035,4223.461426,4230.769043,4226.538574,4217.436035,4213.333496,4195.769043,4225.384766,4347.436035,3450.000000,4.000000,91.000000,,,,0.000000,4.000000,4.000000,4.000000,4.000000,4.000000,4.000000,4.000000,4.000000,4.000000,4.000000,4.000000,4.000000,4.000000,4.000000,100.000000,,,,,,,,,,,,,,,,
1644852715.234571,189.000000,0.000000,4252.051270,4226.153809,4215.641113,4234.358887,4210.512695,4216.153809,4224.871582,4226.794922,4221.410156,4204.358887,4208.205078,4196.410156,4222.179688,4341.794922,3702.000000,4.000000,91.000000,,,,0.000000,4.000000,4.000000,4.000000,4.000000,4.000000,4.000000,4.000000,4.000000,4.000000,4.000000,4.000000,4.000000,4.000000,4.000000,100.000000,,,,,,,,,,,,,,,,
1644852715.238511,190.000000,0.000000,4244.487305,4223.717773,4217.563965,4238.461426,4206.666504,4216.410156,4226.410156,4223.974121,4217.820313,4194.358887,4206.666504,4198.717773,4221.538574,4342.051270,3502.000000,4.000000,91.000000,,,,0.000000,4.000000,4.000000,4.000000,4.000000,4.000000,4.000000,4.000000,4.000000,4.000000,4.000000,4.000000,4.000000,4.000000,4.000000,100.000000,,,,,,,,,,,,,,,,
1644852715.242451,191.000000,0.000000,4237.307617,4216.025879,4219.230957,4240.128418,4210.641113,4218.846191,4226.538574,4223.846191,4217.692383,4194.871582,4211.922852,4203.077148,4223.461426,4350.512695,3573.000000,4.000000,91.000000,,,,0.000000,4.000000,4.000000,4.000000,4.000000,4.000000,4.000000,4.000000,4.000000,4.000000,4.000000,4.000000,4.000000,4.000000,4.000000,100.000000,,,,,,,,,,,,,,,,
1644852715.246391,192.000000,0.000000,4235.641113,4209.487305,4219.487305,4239.102539,4218.205078,4221.666504,4225.897461,4226.153809,4220.641113,4206.025879,4221.538574,4208.205078,4224.743652,4363.333496,3450.000000,4.000000,91.000000,,,,0.000000,4.000000,4.000000,4.000000,4.000000,4.000000,4.000000,4.000000,4.000000,4.000000,4.000000,4.000000,4.000000,4.000000,4.000000,100.000000,,,,,,,,,,,,,,,,
1644852715.250331,193.000000,0.000000,4239.487305,4208.333496,4219.743652,4235.384766,4221.025879,4222.307617,4226.410156,4229.743652,4224.102539,4221.282227,4230.128418,4211.922852,4222.179688,4372.307617,3702.000000,4.000000,91.000000,,,,0.000000,4.000000,4.000000,4.000000,4.000000,4.000000,4.000000,4.000000,4.000000,4.000000,4.000000,4.000000,4.000000,4.000000,4.000000,100.000000,,,,,,,,,,,,,,,,
1644852715.254272,194.000000,0.000000,4243.589844,4211.794922,4221.794922,4230.000000,4214.487305,4219.743652,4227.948730,4232.436035,4225.512695,4231.922852,4233.461426,4212.820313,4216.410156,4371.410156,3502.000000,4.000000,91.000000,,,,0.000000,4.000000,4.000000,4.000000,4.000000,4.000000,4.000000,4.000000,4.000000,4.000000,4.000000,4.000000,4.000000,4.000000,4.000000,100.000000,,,,,,,,,,,,,,,,
1644852715.258212,195.000000,0.000000,4243.461426,4215.384766,4225.128418,4223.717773,4203.333496,4214.871582,4227.820313,4232.179688,4223.974121,4232.820313,4230.256348,4210.641113,4212.307617,4362.307617,3573.000000,4.000000,91.000000,,,,0.000000,4.000000,4.000000,4.000000,4.000000,4.000000,4.000000,4.000000,4.000000,4.000000,4.000000,4.000000,4.000000,4.000000,4.000000,100.000000,,,,,,,,,,,,,,,,
1644852715.262152,196.000000,0.000000,4239.230957,4215.000000,4227.307617,4217.563965,4196.922852,4210.128418,4224.743652,4229.358887,4220.512695,4225.512695,4222.692383,4206.410156,4214.230957,4352.692383,3450.000000,4.000000,91.000000,,,,0.000000,4.000000,4.000000,4.000000,4.000000,4.000000,4.000000,4.000000,4.000000,4.000000,4.000000,4.000000,4.000000,4.000000,4.000000,100.000000,,,,,,,,,,,,,,,,
1644852715.266092,197.000000,0.000000,4235.641113,4210.512695,4226.666504,4212.820313,4200.769043,4207.563965,4221.282227,4226.025879,4217.179688,4215.769043,4214.230957,4202.307617,4221.666504,4349.487305,3702.000000,4.000000,91.000000,,,,0.000000,4.000000,4.000000,4.000000,4.000000,4.000000,4.000000,4.000000,4.000000,4.000000,4.000000,4.000000,4.000000,4.000000,4.000000,100.000000,,,,,,,,,,,,,,,,
1644852715.270032,198.000000,0.000000,4237.179688,4205.128418,4223.589844,4210.897461,4212.051270,4208.077148,4220.769043,4224.871582,4216.025879,4210.000000,4207.948730,4200.128418,4229.615234,4355.000000,3502.000000,4.000000,91.000000,,,,0.000000,4.000000,4.000000,4.000000,4.000000,4.000000,4.000000,4.000000,4.000000,4.000000,4.000000,4.000000,4.000000,4.000000,4.000000,100.000000,,,,,,,,,,,,,,,,
1644852715.273972,199.000000,0.000000,4243.974121,4204.230957,4221.538574,4212.820313,4223.077148,4211.922852,4224.102539,4226.538574,4218.461426,4210.769043,4206.410156,4201.410156,4233.205078,4365.256348,3573.000000,4.000000,91.000000,,,,0.000000,4.000000,4.000000,4.000000,4.000000,4.000000,4.000000,4.000000,4.000000,4.000000,4.000000,4.000000,4.000000,4.000000,4.000000,100.000000,,,,,,,,,,,,,,,,
1644852715.277912,200.000000,0.000000,4252.179688,4210.128418,4222.692383,4217.563965,4228.205078,4217.436035,4227.436035,4229.871582,4223.717773,4216.794922,4210.256348,4205.384766,4231.922852,4373.974121,3450.000000,4.000000,91.000000,,,,0.000000,4.000000,4.000000,4.000000,4.000000,4.000000,4.000000,4.000000,4.000000,4.000000,4.000000,4.000000,4.000000,4.000000,4.000000,100.000000,,,,,,,,,,,,,,,,
1644852715.281852,201.000000,0.000000,4255.512695,4219.358887,4226.538574,4221.794922,4226.538574,4222.179688,4226.794922,4232.179688,4229.358887,4222.948730,4218.077148,4209.487305,4228.846191,4376.153809,3702.000000,4.000000,91.000000,,,,0.000000,4.000000,4.000000,4.000000,4.000000,4.000000,4.000000,4.000000,4.000000,4.000000,4.000000,4.000000,4.000000,4.000000,4.000000,100.000000,,,,,,,,,,,,,,,,
1644852715.285792,202.000000,0.000000,4250.512695,4225.000000,4229.358887,4221.794922,4219.615234,4223.333496,4221.794922,4231.282227,4231.538574,4224.358887,4225.128418,4209.615234,4227.051270,4370.512695,3502.000000,4.000000,91.000000,,,,0.000000,4.000000,4.000000,4.000000,4.000000,4.000000,4.000000,4.000000,4.000000,4.000000,4.000000,4.000000,4.000000,4.000000,4.000000,100.000000,,,,,,,,,,,,,,,,
1644852715.289733,203.000000,0.000000,4238.589844,4222.051270,4228.333496,4217.563965,4211.025879,4218.974121,4216.282227,4227.051270,4227.436035,4218.974121,4225.897461,4204.102539,4226.410156,4359.743652,3573.000000,4.000000,91.000000,,,,0.000000,4.000000,4.000000,4.000000,4.000000,4.000000,4.000000,4.000000,4.000000,4.000000,4.000000,4.000000,4.000000,4.000000,4.000000,100.000000,,,,,,,,,,,,,,,,
1644852715.293673,204.000000,0.000000,4226.538574,4211.794922,4223.461426,4213.205078,4204.487305,4210.512695,4213.717773,4221.282227,4218.717773,4209.230957,4218.846191,4195.897461,4225.384766,4349.615234,3450.000000,4.000000,91.000000,,,,0.000000,4.000000,4.000000,4.000000,4.000000,4.000000,4.000000,4.000000,4.000000,4.000000,4.000000,4.000000,4.000000,4.000000,4.000000,100.000000,,,,,,,,,,,,,,,,
1644852715.297613,205.000000,0.000000,4221.794922,4201.538574,4218.205078,4213.077148,4203.205078,4201.922852,4214.102539,4216.794922,4210.897461,4201.025879,4208.717773,4190.769043,4222.563965,4344.871582,3702.000000,4.000000,91.000000,,,,0.000000,4.000000,4.000000,4.000000,4.000000,4.000000,4.000000,4.000000,4.000000,4.000000,4.000000,4.000000,4.000000,4.000000,4.000000,100.000000,,,,,,,,,,,,,,,,
1644852715.301653,206.000000,0.000000,4227.051270,4198.077148,4216.922852,4218.077148,4207.051270,4197.563965,4215.256348,4215.641113,4209.102539,4199.615234,4202.436035,4192.307617,4218.846191,4346.410156,3502.000000,4.000000,91.000000,,,,0.000000,4.000000,4.000000,4.000000,4.000000,4.000000,4.000000,4.000000,4.000000,4.000000,4.000000,4.000000,4.000000,4.000000,4.000000,100.000000,,,,,,,,,,,,,,,,
1644852715.305593,207.000000,0.000000,4238.717773,4202.820313,4221.538574,4224.743652,4212.820313,4199.743652,4216.282227,4217.948730,4214.487305,4206.282227,4203.077148,4199.615234,4216.410156,4351.153809,3573.000000,4.000000,91.000000,,,,0.000000,4.000000,4.000000,4.000000,4.000000,4.000000,4.000000,4.000000,4.000000,4.000000,4.000000,4.000000,4.000000,4.000000,4.000000,100.000000,,,,,,,,,,,,,,,,
1644852715.309533,208.000000,0.000000,4249.487305,4211.410156,4229.871582,4228.846191,4216.538574,4206.410156,4217.948730,4222.820313,4222.820313,4217.179688,4207.051270,4208.077148,4217.436035,4355.000000,3450.000000,4.000000,91.000000,,,,0.000000,4.000000,4.000000,4.000000,4.000000,4.000000,4.000000,4.000000,4.000000,4.000000,4.000000,4.000000,4.000000,4.000000,4.000000,100.000000,,,,,,,,,,,,,,,,
1644852715.313473,209.000000,0.000000,4253.846191,4217.436035,4236.666504,4228.333496,4216.538574,4212.563965,4220.641113,4227.436035,4228.974121,4225.897461,4208.717773,4212.563965,4221.538574,4355.641113,3702.000000,4.000000,91.000000,,,,0.000000,4.000000,4.000000,4.000000,4.000000,4.000000,4.000000,4.000000,4.000000,4.000000,4.000000,4.000000,4.000000,4.000000,4.000000,100.000000,,,,,,,,,,,,,,,,
1644852715.317413,210.000000,0.000000,4250.641113,4217.436035,4237.563965,4222.948730,4213.589844,4213.846191,4222.179688,4229.102539,4229.487305,4227.051270,4205.512695,4210.769043,4225.769043,4352.307617,3502.000000,4.000000,91.000000,,,,0.000000,4.000000,4.000000,4.000000,4.000000,4.000000,4.000000,4.000000,4.000000,4.000000,4.000000,4.000000,4.000000,4.000000,4.000000,100.000000,,,,,,,,,,,,,,,,
1644852715.321353,211.000000,0.000000,4243.077148,4212.820313,4233.589844,4213.461426,4208.974121,4209.743652,4220.512695,4226.794922,4224.871582,4220.769043,4200.897461,4204.871582,4226.794922,4345.897461,3573.000000,4.000000,91.000000,,,,0.000000,4.000000,4.000000,4.000000,4.000000,4.000000,4.000000,4.000000,4.000000,4.000000,4.000000,4.000000,4.000000,4.000000,4.000000,100.000000,,,,,,,,,,,,,,,,
1644852715.325293,212.000000,0.000000,4235.769043,4208.077148,4229.487305,4202.436035,4204.102539,4203.205078,4216.153809,4222.179688,4218.461426,4212.051270,4200.256348,4199.743652,4223.974121,4337.563965,3450.000000,4.000000,91.000000,,,,0.000000,4.000000,4.000000,4.000000,4.000000,4.000000,4.000000,4.000000,4.000000,4.000000,4.000000,4.000000,4.000000,4.000000,4.000000,100.000000,,,,,,,,,,,,,,,,
1644852715.329233,213.000000,0.000000,4231.922852,4207.051270,4229.487305,4194.743652,4200.897461,4199.487305,4212.692383,4218.589844,4213.205078,4206.666504,4206.538574,4199.230957,4220.000000,4329.102539,3702.000000,4.000000,91.000000,,,,0.000000,4.000000,4.000000,4.000000,4.000000,4.000000,4.000000,4.000000,4.000000,4.000000,4.000000,4.000000,4.000000,4.000000,4.000000,100.000000,,,,,,,,,,,,,,,,
1644852715.333174,214.000000,0.000000,4233.077148,4210.512695,4233.333496,4195.128418,4200.769043,4201.282227,4212.820313,4218.333496,4210.897461,4206.410156,4217.179688,4202.692383,4218.589844,4323.205078,3502.000000,4.000000,91.000000,,,,0.000000,4.000000,4.000000,4.000000,4.000000,4.000000,4.000000,4.000000,4.000000,4.000000,4.000000,4.000000,4.000000,4.000000,4.000000,100.000000,,,,,,,,,,,,,,,,
1644852715.337114,215.000000,0.000000,4239.230957,4216.794922,4236.794922,4204.230957,4204.615234,4207.563965,4215.769043,4221.153809,4211.538574,4209.102539,4227.179688,4206.794922,4221.410156,4322.307617,3573.000000,4.000000,91.000000,,,,0.000000,4.000000,4.000000,4.000000,4.000000,4.000000,4.000000,4.000000,4.000000,4.000000,4.000000,4.000000,4.000000,4.000000,4.000000,100.000000,,,,,,,,,,,,,,,,
1644852715.341054,216.000000,0.000000,4247.307617,4222.436035,4236.538574,4217.820313,4211.410156,4214.102539,4218.589844,4224.487305,4214.102539,4211.153809,4232.820313,4208.589844,4226.666504,4326.410156,3450.000000,4.000000,91.000000,,,,0.000000,4.000000,4.000000,4.000000,4.000000,4.000000,4.000000,4.000000,4.000000,4.000000,4.000000,4.000000,4.000000,4.000000,4.000000,100.000000,,,,,,,,,,,,,,,,
1644852715.344994,217.000000,0.000000,4253.461426,4225.256348,4233.077148,4228.974121,4218.589844,4217.692383,4219.743652,4226.153809,4217.051270,4211.282227,4232.563965,4207.820313,4231.153809,4332.051270,3702.000000,4.000000,91.000000,,,,0.000000,4.000000,4.000000,4.000000,4.000000,4.000000,4.000000,4.000000,4.000000,4.000000,4.000000,4.000000,4.000000,4.000000,4.000000,100.000000,,,,,,,,,,,,,,,,
1644852715.348934,218.000000,0.000000,4255.384766,4225.256348,4230.641113,4233.717773,4222.692383,4217.436035,4221.025879,4226.153809,4219.487305,4210.256348,4227.820313,4206.666504,4232.051270,4333.589844,3502.000000,4.000000,91.000000,,,,0.000000,4.000000,4.000000,4.000000,4.000000,4.000000,4.000000,4.000000,4.000000,4.000000,4.000000,4.000000,4.000000,4.000000,4.000000,100.000000,,,,,,,,,,,,,,,,
1644852715.352874,219.000000,0.000000,4253.589844,4223.717773,4233.077148,4233.846191,4222.563965,4215.256348,4223.461426,4225.769043,4220.897461,4209.743652,4221.025879,4207.051270,4229.358887,4328.461426,3573.000000,4.000000,91.000000,,,,0.000000,4.000000,4.000000,4.000000,4.000000,4.000000,4.000000,4.000000,4.000000,4.000000,4.000000,4.000000,4.000000,4.000000,4.000000,100.000000,,,,,,,,,,,,,,,,
1644852715.356814,220.000000,0.000000,4251.282227,4221.922852,4239.871582,4233.589844,4220.000000,4213.589844,4225.641113,4226.025879,4221.410156,4210.256348,4215.128418,4209.358887,4226.025879,4319.102539,3450.000000,4.000000,91.000000,,,,0.000000,4.000000,4.000000,4.000000,4.000000,4.000000,4.000000,4.000000,4.000000,4.000000,4.000000,4.000000,4.000000,4.000000,4.000000,100.000000,,,,,,,,,,,,,,,,
1644852715.360754,221.000000,0.000000,4250.000000,4220.128418,4246.794922,4234.871582,4218.205078,4214.102539,4224.358887,4226.282227,4221.153809,4211.922852,4212.051270,4212.051270,4225.128418,4311.538574,3702.000000,4.000000,91.000000,,,,0.000000,4.000000,4.000000,4.000000,4.000000,4.000000,4.000000,4.000000,4.000000,4.000000,4.000000,4.000000,4.000000,4.000000,4.000000,100.000000,,,,,,,,,,,,,,,,
1644852715.364694,222.000000,0.000000,4249.743652,4218.846191,4249.102539,4236.025879,4217.692383,4216.922852,4219.871582,4226.153809,4220.641113,4213.589844,4211.922852,4213.717773,4227.692383,4311.153809,3502.000000,4.000000,91.000000,,,,0.000000,4.000000,4.000000,4.000000,4.000000,4.000000,4.000000,4.000000,4.000000,4.000000,4.000000,4.000000,4.000000,4.000000,4.000000,100.000000,,,,,,,,,,,,,,,,
1644852715.368635,223.000000,0.000000,4249.487305,4219.358887,4246.410156,4233.589844,4216.922852,4220.000000,4216.025879,4225.769043,4219.871582,4214.871582,4213.333496,4213.974121,4231.410156,4317.563965,3573.000000,4.000000,91.000000,,,,0.000000,4.000000,4.000000,4.000000,4.000000,4.000000,4.000000,4.000000,4.000000,4.000000,4.000000,4.000000,4.000000,4.000000,4.000000,100.000000,,,,,,,,,,,,,,,,
1644852715.372675,224.000000,0.000000,4248.717773,4222.436035,4241.922852,4227.436035,4214.102539,4221.410156,4216.666504,4226.153809,4219.102539,4215.512695,4214.487305,4214.230957,4232.692383,4325.256348,3450.000000,4.000000,91.000000,,,,0.000000,4.000000,4.000000,4.000000,4.000000,4.000000,4.000000,4.000000,4.000000,4.000000,4.000000,4.000000,4.000000,4.000000,4.000000,100.000000,,,,,,,,,,,,,,,,
1644852715.376615,225.000000,0.000000,4247.820313,4227.307617,4239.358887,4221.153809,4209.487305,4220.897461,4221.410156,4227.820313,4218.974121,4215.897461,4214.871582,4215.128418,4229.871582,4327.692383,3702.000000,4.000000,91.000000,,,,0.000000,4.000000,4.000000,4.000000,4.000000,4.000000,4.000000,4.000000,4.000000,4.000000,4.000000,4.000000,4.000000,4.000000,4.000000,100.000000,,,,,,,,,,,,,,,,
1644852715.380555,226.000000,0.000000,4247.692383,4231.794922,4239.102539,4219.230957,4206.025879,4219.743652,4225.641113,4229.615234,4220.000000,4217.563965,4214.487305,4215.769043,4224.871582,4322.436035,3502.000000,4.000000,91.000000,,,,0.000000,4.000000,4.000000,4.000000,4.000000,4.000000,4.000000,4.000000,4.000000,4.000000,4.000000,4.000000,4.000000,4.000000,4.000000,100.000000,,,,,,,,,,,,,,,,
1644852715.384495,227.000000,0.000000,4248.077148,4234.102539,4239.102539,4223.974121,4207.179688,4219.871582,4226.282227,4230.256348,4222.563965,4221.282227,4214.487305,4214.615234,4221.410156,4313.974121,3573.000000,4.000000,91.000000,,,,0.000000,4.000000,4.000000,4.000000,4.000000,4.000000,4.000000,4.000000,4.000000,4.000000,4.000000,4.000000,4.000000,4.000000,4.000000,100.000000,,,,,,,,,,,,,,,,
1644852715.388535,228.000000,0.000000,4249.358887,4233.589844,4236.922852,4232.051270,4214.102539,4221.794922,4224.358887,4230.128418,4225.769043,4226.025879,4216.922852,4211.410156,4222.179688,4308.077148,3450.000000,4.000000,91.000000,,,,0.000000,4.000000,4.000000,4.000000,4.000000,4.000000,4.000000,4.000000,4.000000,4.000000,4.000000,4.000000,4.000000,4.000000,4.000000,100.000000,,,,,,,,,,,,,,,,
1644852715.392475,229.000000,0.000000,4250.897461,4231.282227,4231.922852,4237.563965,4223.077148,4224.230957,4222.948730,4229.743652,4227.820313,4228.717773,4222.307617,4206.922852,4225.769043,4307.051270,3702.000000,4.000000,91.000000,,,,0.000000,4.000000,4.000000,4.000000,4.000000,4.000000,4.000000,4.000000,4.000000,4.000000,4.000000,4.000000,4.000000,4.000000,4.000000,100.000000,,,,,,,,,,,,,,,,
1644852715.396415,230.000000,0.000000,4251.794922,4227.563965,4226.153809,4235.256348,4227.948730,4225.256348,4223.077148,4229.743652,4227.436035,4226.666504,4227.948730,4202.948730,4227.820313,4307.948730,3502.000000,4.000000,91.000000,1,1,0,0.000000,4.000000,4.000000,4.000000,4.000000,4.000000,4.000000,4.000000,4.000000,4.000000,4.000000,4.000000,4.000000,4.000000,4.000000,100.000000,,,,,,,,,,,,,,,,
1644852715.400355,231.000000,0.000000,4250.000000,4222.307617,4222.307617,4225.384766,4226.153809,4224.487305,4223.461426,4229.615234,4225.128418,4220.641113,4227.948730,4200.128418,4224.743652,4306.410156,3573.000000,4.000000,91.000000,,,,0.000000,4.000000,4.000000,4.000000,4.000000,4.000000,4.000000,4.000000,4.000000,4.000000,4.000000,4.000000,4.000000,4.000000,4.000000,100.000000,,,,,,,,,,,,,,,,
1644852715.404295,232.000000,0.000000,4243.717773,4215.128418,4221.282227,4213.717773,4221.282227,4222.436035,4222.948730,4228.974121,4223.077148,4214.615234,4218.974121,4197.820313,4216.025879,4301.794922,3450.000000,4.000000,91.000000,,,,0.000000,4.000000,4.000000,4.000000,4.000000,4.000000,4.000000,4.000000,4.000000,4.000000,4.000000,4.000000,4.000000,4.000000,4.000000,100.000000,,,,,,,,,,,,,,,,
1644852715.408235,233.000000,0.000000,4233.077148,4206.538574,4221.794922,4207.563965,4218.589844,4219.871582,4222.563965,4228.205078,4222.563965,4211.153809,4203.333496,4194.871582,4205.897461,4297.051270,3702.000000,4.000000,91.000000,,,,0.000000,4.000000,4.000000,4.000000,4.000000,4.000000,4.000000,4.000000,4.000000,4.000000,4.000000,4.000000,4.000000,4.000000,4.000000,100.000000,,,,,,,,,,,,,,,,
1644852715.412175,234.000000,0.000000,4221.025879,4199.102539,4221.410156,4209.230957,4218.717773,4218.205078,4224.102539,4227.692383,4222.820313,4209.871582,4188.974121,4191.282227,4199.743652,4294.743652,3502.000000,4.000000,91.000000,,,,0.000000,4.000000,4.000000,4.000000,4.000000,4.000000,4.000000,4.000000,4.000000,4.000000,4.000000,4.000000,4.000000,4.000000,4.000000,100.000000,,,,,,,,,,,,,,,,
1644852715.416116,235.000000,0.000000,4212.051270,4196.410156,4219.615234,4214.358887,4217.307617,4218.077148,4226.282227,4227.307617,4222.692383,4208.333496,4184.230957,4189.102539,4200.897461,4293.846191,3573.000000,4.000000,91.000000,,,,0.000000,4.000000,4.000000,4.000000,4.000000,4.000000,4.000000,4.000000,4.000000,4.000000,4.000000,4.000000,4.000000,4.000000,4.000000,100.000000,,,,,,,,,,,,,,,,
1644852715.420056,236.000000,0.000000,4210.641113,4200.512695,4217.820313,4217.179688,4210.512695,4219.743652,4226.410156,4226.410156,4222.307617,4206.410156,4190.897461,4191.410156,4208.077148,4291.282227,3450.000000,4.000000,91.000000,,,,0.000000,4.000000,4.000000,4.000000,4.000000,4.000000,4.000000,4.000000,4.000000,4.000000,4.000000,4.000000,4.000000,4.000000,4.000000,100.000000,,,,,,,,,,,,,,,,
1644852715.424096,237.000000,0.000000,4218.461426,4210.000000,4218.589844,4215.641113,4199.743652,4221.922852,4223.589844,4224.871582,4222.307617,4205.512695,4203.589844,4197.948730,4215.897461,4285.384766,3702.000000,4.000000,91.000000,,,,0.000000,4.000000,4.000000,4.000000,4.000000,4.000000,4.000000,4.000000,4.000000,4.000000,4.000000,4.000000,4.000000,4.000000,4.000000,100.000000,,,,,,,,,,,,,,,,
1644852715.428036,238.000000,0.000000,4232.179688,4220.256348,4222.179688,4212.820313,4191.922852,4223.333496,4220.128418,4223.717773,4222.692383,4207.179688,4213.974121,4205.256348,4218.846191,4279.102539,3502.000000,4.000000,91.000000,,,,0.000000,4.000000,4.000000,4.000000,4.000000,4.000000,4.000000,4.000000,4.000000,4.000000,4.000000,4.000000,4.000000,4.000000,4.000000,100.000000,,,,,,,,,,,,,,,,
1644852715.431976,239.000000,0.000000,4244.487305,4226.666504,4226.794922,4213.205078,4194.871582,4223.589844,4219.230957,4223.333496,4222.436035,4211.410156,4217.307617,4209.230957,4216.153809,4278.333496,3573.000000,4.000000,91.000000,,,,0.000000,4.000000,4.000000,4.000000,4.000000,4.000000,4.000000,4.000000,4.000000,4.000000,4.000000,4.000000,4.000000,4.000000,4.000000,100.000000,,,,,,,,,,,,,,,,
1644852715.435916,240.000000,0.000000,4248.846191,4226.794922,4228.846191,4218.077148,4208.974121,4223.077148,4221.153809,4223.461426,4221.025879,4216.666504,4215.000000,4207.820313,4211.922852,4285.641113,3450.000000,4.000000,91.000000,,,,0.000000,4.000000,4.000000,4.000000,4.000000,4.000000,4.000000,4.000000,4.000000,4.000000,4.000000,4.000000,4.000000,4.000000,4.000000,100.000000,,,,,,,,,,,,,,,,
1644852715.439856,241.000000,0.000000,4244.230957,4221.666504,4226.153809,4224.743652,4225.256348,4222.307617,4222.563965,4222.948730,4218.974121,4220.384766,4211.666504,4201.153809,4211.794922,4297.436035,3702.000000,4.000000,91.000000,,,,0.000000,4.000000,4.000000,4.000000,4.000000,4.000000,4.000000,4.000000,4.000000,4.000000,4.000000,4.000000,4.000000,4.000000,4.000000,100.000000,,,,,,,,,,,,,,,,
1644852715.443796,242.000000,0.000000,4235.128418,4214.487305,4219.358887,4229.102539,4231.153809,4221.025879,4220.897461,4221.025879,4216.666504,4219.358887,4210.128418,4191.538574,4216.922852,4305.000000,3502.000000,4.000000,91.000000,,,,0.000000,4.000000,4.000000,4.000000,4.000000,4.000000,4.000000,4.000000,4.000000,4.000000,4.000000,4.000000,4.000000,4.000000,4.000000,100.000000,,,,,,,,,,,,,,,,
1644852715.447736,243.000000,0.000000,4227.692383,4207.692383,4212.563965,4228.333496,4221.410156,4218.205078,4216.794922,4217.948730,4214.102539,4212.692383,4208.205078,4182.436035,4223.077148,4302.820313,3573.000000,4.000000,91.000000,,,,0.000000,4.000000,4.000000,4.000000,4.000000,4.000000,4.000000,4.000000,4.000000,4.000000,4.000000,4.000000,4.000000,4.000000,4.000000,100.000000,,,,,,,,,,,,,,,,
1644852715.451676,244.000000,0.000000,4225.128418,4202.436035,4210.000000,4221.922852,4203.333496,4214.615234,4213.589844,4215.128418,4211.025879,4204.102539,4202.692383,4177.563965,4224.871582,4293.077148,3450.000000,4.000000,91.000000,,,,0.000000,4.000000,4.000000,4.000000,4.000000,4.000000,4.000000,4.000000,4.000000,4.000000,4.000000,4.000000,4.000000,4.000000,4.000000,100.000000,,,,,,,,,,,,,,,,
1644852715.455617,245.000000,0.000000,4226.410156,4199.230957,4213.589844,4211.922852,4191.025879,4212.179688,4213.461426,4215.128418,4209.358887,4200.384766,4194.358887,4178.974121,4221.538574,4283.974121,3702.000000,4.000000,91.000000,,,,0.000000,4.000000,4.000000,4.000000,4.000000,4.000000,4.000000,4.000000,4.000000,4.000000,4.000000,4.000000,4.000000,4.000000,4.000000,100.000000,,,,,,,,,,,,,,,,
1644852715.459557,246.000000,0.000000,4228.974121,4198.846191,4221.410156,4203.333496,4193.205078,4212.307617,4215.256348,4218.077148,4211.282227,4205.641113,4189.743652,4186.538574,4217.051270,4283.333496,3502.000000,4.000000,91.000000,,,,0.000000,4.000000,4.000000,4.000000,4.000000,4.000000,4.000000,4.000000,4.000000,4.000000,4.000000,4.000000,4.000000,4.000000,4.000000,100.000000,,,,,,,,,,,,,,,,
1644852715.463597,247.000000,0.000000,4231.538574,4201.922852,4228.974121,4202.307617,4206.538574,4214.358887,4216.794922,4222.948730,4217.436035,4217.179688,4195.128418,4196.922852,4216.538574,4291.666504,3573.000000,4.000000,91.000000,,,,0.000000,4.000000,4.000000,4.000000,4.000000,4.000000,4.000000,4.000000,4.000000,4.000000,4.000000,4.000000,4.000000,4.000000,4.000000,100.000000,,,,,,,,,,,,,,,,
1644852715.467537,248.000000,0.000000,4234.487305,4207.692383,4232.179688,4211.025879,4220.128418,4216.794922,4217.820313,4227.307617,4225.000000,4226.666504,4209.487305,4205.769043,4221.153809,4303.333496,3450.000000,4.000000,91.000000,,,,0.000000,4.000000,4.000000,4.000000,4.000000,4.000000,4.000000,4.000000,4.000000,4.000000,4.000000,4.000000,4.000000,4.000000,4.000000,100.000000,,,,,,,,,,,,,,,,
1644852715.471477,249.000000,0.000000,4237.948730,4213.974121,4230.256348,4224.358887,4225.384766,4218.461426,4219.358887,4229.487305,4229.487305,4227.179688,4224.102539,4208.974121,4227.692383,4310.897461,3702.000000,4.000000,91.000000,,,,0.000000,4.000000,4.000000,4.000000,4.000000,4.000000,4.000000,4.000000,4.000000,4.000000,4.000000,4.000000,4.000000,4.000000,4.000000,100.000000,,,,,,,,,,,,,,,,
1644852715.475417,250.000000,0.000000,4240.769043,4218.205078,4225.641113,4232.179688,4222.179688,4218.589844,4221.282227,4229.102539,4228.717773,4219.230957,4229.358887,4206.153809,4231.666504,4311.538574,3502.000000,4.000000,91.000000,,,,0.000000,4.000000,4.000000,4.000000,4.000000,4.000000,4.000000,4.000000,4.000000,4.000000,4.000000,4.000000,4.000000,4.000000,4.000000,100.000000,,,,,,,,,,,,,,,,
1644852715.479357,251.000000,0.000000,4242.179688,4219.358887,4221.666504,4227.820313,4216.922852,4217.307617,4221.538574,4226.282227,4224.358887,4209.871582,4223.589844,4201.282227,4231.282227,4307.948730,3573.000000,4.000000,91.000000,,,,0.000000,4.000000,4.000000,4.000000,4.000000,4.000000,4.000000,4.000000,4.000000,4.000000,4.000000,4.000000,4.000000,4.000000,4.000000,100.000000,,,,,,,,,,,,,,,,
1644852715.483297,252.000000,0.000000,4242.692383,4218.974121,4220.128418,4213.333496,4215.769043,4215.384766,4218.717773,4222.563965,4219.871582,4205.897461,4213.717773,4199.487305,4227.436035,4304.871582,3450.000000,4.000000,91.000000,,,,0.000000,4.000000,4.000000,4.000000,4.000000,4.000000,4.000000,4.000000,4.000000,4.000000,4.000000,4.000000,4.000000,4.000000,4.000000,100.000000,,,,,,,,,,,,,,,,
1644852715.487237,253.000000,0.000000,4242.436035,4219.102539,4221.153809,4199.230957,4218.077148,4213.589844,4215.128418,4220.512695,4218.205078,4208.974121,4208.205078,4202.820313,4221.922852,4304.743652,3702.000000,4.000000,91.000000,,,,0.000000,4.000000,4.000000,4.000000,4.000000,4.000000,4.000000,4.000000,4.000000,4.000000,4.000000,4.000000,4.000000,4.000000,4.000000,100.000000,,,,,,,,,,,,,,,,
1644852715.491177,254.000000,0.000000,4241.025879,4220.641113,4223.333496,4195.769043,4219.487305,4212.948730,4214.487305,4221.666504,4220.384766,4215.897461,4209.615234,4207.948730,4215.128418,4306.153809,3502.000000,4.000000,91.000000,,,,0.000000,4.000000,4.000000,4.000000,4.000000,4.000000,4.000000,4.000000,4.000000,4.000000,4.000000,4.000000,4.000000,4.000000,4.000000,100.000000,,,,,,,,,,,,,,,,
1644852715.495117,255.000000,0.000000,4238.461426,4222.948730,4225.769043,4205.769043,4217.436035,4214.230957,4217.820313,4225.641113,4225.641113,4222.692383,4213.846191,4210.000000,4208.333496,4307.436035,114.000000,4.000000,91.000000,,,,0.000000,4.000000,4.000000,4.000000,4.000000,4.000000,4.000000,4.000000,4.000000,4.000000,4.000000,4.000000,4.000000,4.000000,4.000000,100.000000,,,,,,,,,,,,,,,,
1644852715.499058,0.000000,0.000000,4235.769043,4224.871582,4226.922852,4222.179688,4214.743652,4216.794922,4222.051270,4229.615234,4231.282227,4227.307617,4214.743652,4206.538574,4204.230957,4308.461426,3142.000000,4.000000,91.000000,,,,0.000000,4.000000,4.000000,4.000000,4.000000,4.000000,4.000000,4.000000,4.000000,4.000000,4.000000,4.000000,4.000000,4.000000,4.000000,100.000000,,,,,,,,,,,,,,,,
1644852715.502998,1.000000,0.000000,4234.743652,4225.641113,4226.025879,4233.974121,4215.897461,4219.102539,4223.205078,4230.897461,4233.846191,4228.846191,4208.974121,4199.230957,4205.769043,4310.384766,3323.000000,4.000000,91.000000,2,1,0,0.000000,4.000000,4.000000,4.000000,4.000000,4.000000,4.000000,4.000000,4.000000,4.000000,4.000000,4.000000,4.000000,4.000000,4.000000,100.000000,,,,,,,,,,,,,,,,
1644852715.506938,2.000000,0.000000,4235.384766,4224.230957,4223.205078,4233.333496,4220.641113,4219.743652,4221.410156,4228.717773,4230.512695,4226.666504,4198.717773,4192.563965,4212.179688,4312.820313,3541.000000,4.000000,91.000000,,,,0.000000,4.000000,4.000000,4.000000,4.000000,4.000000,4.000000,4.000000,4.000000,4.000000,4.000000,4.000000,4.000000,4.000000,4.000000,100.000000,,,,,,,,,,,,,,,,
1644852715.510878,3.000000,0.000000,4235.769043,4220.256348,4219.487305,4221.538574,4223.077148,4218.846191,4219.358887,4224.871582,4222.307617,4221.025879,4189.487305,4190.000000,4219.230957,4313.461426,3521.000000,4.000000,91.000000,,,,0.000000,4.000000,4.000000,4.000000,4.000000,4.000000,4.000000,4.000000,4.000000,4.000000,4.000000,4.000000,4.000000,4.000000,4.000000,100.000000,,,,,,,,,,,,,,,,
1644852715.514818,4.000000,0.000000,4233.846191,4214.615234,4216.153809,4207.051270,4217.692383,4216.922852,4219.102539,4221.794922,4213.846191,4213.717773,4186.538574,4191.794922,4222.563965,4310.769043,3527.000000,4.000000,91.000000,,,,0.000000,4.000000,4.000000,4.000000,4.000000,4.000000,4.000000,4.000000,4.000000,4.000000,4.000000,4.000000,4.000000,4.000000,4.000000,100.000000,,,,,,,,,,,,,,,,
1644852715.518758,5.000000,0.000000,4229.487305,4208.974121,4213.974121,4199.615234,4207.307617,4215.641113,4220.000000,4221.153809,4209.871582,4208.846191,4191.922852,4195.897461,4222.179688,4306.153809,3289.000000,4.000000,91.000000,,,,0.000000,4.000000,4.000000,4.000000,4.000000,4.000000,4.000000,4.000000,4.000000,4.000000,4.000000,4.000000,4.000000,4.000000,4.000000,100.000000,,,,,,,,,,,,,,,,
1644852715.522698,6.000000,0.000000,4224.487305,4205.256348,4213.461426,4203.077148,4200.769043,4216.153809,4220.384766,4222.692383,4212.692383,4209.487305,4203.461426,4199.743652,4222.051270,4303.205078,2201.000000,4.000000,91.000000,,,,0.000000,4.000000,4.000000,4.000000,4.000000,4.000000,4.000000,4.000000,4.000000,4.000000,4.000000,4.000000,4.000000,4.000000,4.000000,100.000000,,,,,,,,,,,,,,,,
1644852715.526638,7.000000,0.000000,4220.512695,4202.948730,4214.871582,4213.205078,4204.102539,4218.205078,4220.769043,4225.256348,4219.743652,4216.025879,4215.897461,4201.666504,4226.025879,4304.615234,2722.000000,4.000000,91.000000,,,,0.000000,4.000000,4.000000,4.000000,4.000000,4.000000,4.000000,4.000000,4.000000,4.000000,4.000000,4.000000,4.000000,4.000000,4.000000,100.000000,,,,,,,,,,,,,,,,
1644852715.530578,8.000000,0.000000,4217.948730,4199.871582,4218.589844,4220.897461,4214.230957,4219.871582,4222.692383,4227.692383,4226.410156,4225.128418,4224.230957,4201.410156,4233.589844,4308.846191,3254.000000,4.000000,91.000000,,,,0.000000,4.000000,4.000000,4.000000,4.000000,4.000000,4.000000,4.000000,4.000000,4.000000,4.000000,4.000000,4.000000,4.000000,4.000000,100.000000,,,,,,,,,,,,,,,,
1644852715.534519,9.000000,0.000000,4216.922852,4195.000000,4223.205078,4219.358887,4221.666504,4219.102539,4225.512695,4228.974121,4228.717773,4231.410156,4225.897461,4200.000000,4240.128418,4311.025879,3507.000000,4.000000,91.000000,,,,0.000000,4.000000,4.000000,4.000000,4.000000,4.000000,4.000000,4.000000,4.000000,4.000000,4.000000,4.000000,4.000000,4.000000,4.000000,100.000000,,,,,,,,,,,,,,,,
1644852715.538559,10.000000,0.000000,4217.307617,4190.000000,4225.769043,4208.717773,4219.487305,4215.641113,4226.025879,4228.205078,4226.025879,4231.538574,4222.179688,4198.461426,4240.897461,4307.692383,3517.000000,4.000000,91.000000,,,,0.000000,4.000000,4.000000,4.000000,4.000000,4.000000,4.000000,4.000000,4.000000,4.000000,4.000000,4.000000,4.000000,4.000000,4.000000,100.000000,,,,,,,,,,,,,,,,
1644852715.542499,11.000000,0.000000,4219.102539,4187.563965,4223.846191,4195.384766,4210.769043,4211.410156,4222.051270,4224.871582,4220.897461,4225.512695,4215.384766,4197.820313,4234.871582,4299.487305,3451.000000,4.000000,91.000000,,,,0.000000,4.000000,4.000000,4.000000,4.000000,4.000000,4.000000,4.000000,4.000000,4.000000,4.000000,4.000000,4.000000,4.000000,4.000000,100.000000,,,,,,,,,,,,,,,,
1644852715.546439,12.000000,0.000000,4220.897461,4188.589844,4218.333496,4188.589844,4205.512695,4208.461426,4215.897461,4220.769043,4216.794922,4216.794922,4208.461426,4197.563965,4225.897461,4291.538574,3459.000000,4.000000,91.000000,,,,0.000000,4.000000,4.000000,4.000000,4.000000,4.000000,4.000000,4.000000,4.000000,4.000000,4.000000,4.000000,4.000000,4.000000,4.000000,100.000000,1.000000,66.666664,4.000000,4.000000,4.000000,4.000000,3.000000,4.000000,1.000000,4.000000,4.000000,4.000000,4.000000,4.000000,4.000000,4.000000
1644852715.550379,13.000000,0.000000,4221.410156,4190.256348,4212.820313,4194.102539,4209.743652,4207.948730,4212.307617,4218.333496,4215.256348,4209.871582,4203.974121,4196.410156,4219.230957,4288.846191,3536.000000,4.000000,91.000000,,,,0.000000,4.000000,4.000000,4.000000,4.000000,4.000000,4.000000,4.000000,4.000000,4.000000,4.000000,4.000000,4.000000,4.000000,4.000000,100.000000,,,,,,,,,,,,,,,,
1644852715.554319,14.000000,0.000000,4220.000000,4190.256348,4210.384766,4211.025879,4220.000000,4209.230957,4213.974121,4218.589844,4216.282227,4207.051270,4203.846191,4194.615234,4218.333496,4292.563965,3517.000000,4.000000,91.000000,,,,0.000000,4.000000,4.000000,4.000000,4.000000,4.000000,4.000000,4.000000,4.000000,4.000000,4.000000,4.000000,4.000000,4.000000,4.000000,100.000000,,,,,,,,,,,,,,,,
1644852715.558259,15.000000,0.000000,4217.948730,4188.846191,4211.666504,4230.512695,4226.666504,4211.538574,4218.333496,4220.641113,4218.846191,4209.487305,4208.589844,4193.846191,4222.692383,4299.102539,3451.000000,4.000000,91.000000,,,,0.000000,4.000000,4.000000,4.000000,4.000000,4.000000,4.000000,4.000000,4.000000,4.000000,4.000000,4.000000,4.000000,4.000000,4.000000,100.000000,,,,,,,,,,,,,,,,
1644852715.562199,16.000000,0.000000,4216.410156,4188.589844,4214.743652,4239.871582,4223.717773,4214.487305,4220.769043,4223.205078,4221.922852,4216.025879,4216.410156,4196.153809,4228.077148,4302.948730,3459.000000,4.000000,91.000000,,,,0.000000,4.000000,4.000000,4.000000,4.000000,4.000000,4.000000,4.000000,4.000000,4.000000,4.000000,4.000000,4.000000,4.000000,4.000000,100.000000,,,,,,,,,,,,,,,,
1644852715.566139,17.000000,0.000000,4215.128418,4191.282227,4217.948730,4232.307617,4214.487305,4217.307617,4220.000000,4225.641113,4224.871582,4224.230957,4223.846191,4200.897461,4230.128418,4301.025879,3536.000000,4.000000,91.000000,,,,0.000000,4.000000,4.000000,4.000000,4.000000,4.000000,4.000000,4.000000,4.000000,4.000000,4.000000,4.000000,4.000000,4.000000,4.000000,100.000000,,,,,,,,,,,,,,,,
1644852715.570079,18.000000,0.000000,4214.615234,4196.666504,4220.256348,4212.820313,4207.179688,4219.230957,4218.589844,4227.820313,4226.666504,4230.128418,4227.563965,4205.128418,4227.563965,4293.846191,3517.000000,4.000000,91.000000,,,,0.000000,4.000000,4.000000,4.000000,4.000000,4.000000,4.000000,4.000000,4.000000,4.000000,4.000000,4.000000,4.000000,4.000000,4.000000,100.000000,,,,,,,,,,,,,,,,
1644852715.574019,19.000000,0.000000,4215.897461,4202.692383,4220.769043,4196.025879,4207.563965,4219.102539,4218.717773,4229.230957,4226.666504,4230.384766,4226.282227,4206.282227,4223.589844,4285.641113,3451.000000,4.000000,91.000000,,,,0.000000,4.000000,4.000000,4.000000,4.000000,4.000000,4.000000,4.000000,4.000000,4.000000,4.000000,4.000000,4.000000,4.000000,4.000000,100.000000,,,,,,,,,,,,,,,,
1644852715.577960,20.000000,0.000000,4219.487305,4207.436035,4219.102539,4193.717773,4214.102539,4217.307617,4220.000000,4229.230957,4224.358887,4225.000000,4221.025879,4203.846191,4221.666504,4280.641113,3459.000000,4.000000,91.000000,,,,0.000000,4.000000,4.000000,4.000000,4.000000,4.000000,4.000000,4.000000,4.000000,4.000000,4.000000,4.000000,4.000000,4.000000,4.000000,100.000000,,,,,,,,,,,,,,,,
1644852715.582000,21.000000,0.000000,4223.589844,4209.102539,4215.384766,4205.384766,4220.897461,4214.871582,4220.641113,4228.077148,4221.025879,4217.051270,4214.230957,4198.974121,4222.179688,4279.615234,3536.000000,4.000000,91.000000,,,,0.000000,4.000000,4.000000,4.000000,4.000000,4.000000,4.000000,4.000000,4.000000,4.000000,4.000000,4.000000,4.000000,4.000000,4.000000,100.000000,,,,,,,,,,,,,,,,
1644852715.585940,22.000000,0.000000,4224.615234,4206.410156,4211.282227,4219.743652,4222.948730,4213.205078,4220.641113,4227.051270,4219.102539,4210.897461,4208.846191,4194.230957,4222.436035,4280.512695,3517.000000,4.000000,91.000000,,,,0.000000,4.000000,4.000000,4.000000,4.000000,4.000000,4.000000,4.000000,4.000000,4.000000,4.000000,4.000000,4.000000,4.000000,4.000000,100.000000,,,,,,,,,,,,,,,,
1644852715.589880,23.000000,0.000000,4219.743652,4200.000000,4208.333496,4225.000000,4220.641113,4213.461426,4221.410156,4228.205078,4220.000000,4209.487305,4206.922852,4192.051270,4220.128418,4280.128418,3451.000000,4.000000,91.000000,,,,0.000000,4.000000,4.000000,4.000000,4.000000,4.000000,4.000000,4.000000,4.000000,4.000000,4.000000,4.000000,4.000000,4.000000,4.000000,100.000000,,,,,,,,,,,,,,,,
1644852715.593820,24.000000,0.000000,4209.615234,4192.820313,4207.307617,4219.102539,4217.436035,4215.256348,4223.333496,4231.922852,4223.589844,4213.077148,4208.589844,4193.461426,4216.025879,4278.589844,3459.000000,4.000000,91.000000,,,,0.000000,4.000000,4.000000,4.000000,4.000000,4.000000,4.000000,4.000000,4.000000,4.000000,4.000000,4.000000,4.000000,4.000000,4.000000,100.000000,,,,,,,,,,,,,,,,
1644852715.597760,25.000000,0.000000,4199.358887,4189.102539,4207.692383,4208.846191,4216.153809,4217.436035,4223.974121,4236.282227,4227.692383,4219.743652,4211.410156,4197.307617,4213.077148,4278.205078,3536.000000,4.000000,91.000000,,,,0.000000,4.000000,4.000000,4.000000,4.000000,4.000000,4.000000,4.000000,4.000000,4.000000,4.000000,4.000000,4.000000,4.000000,4.000000,100.000000,,,,,,,,,,,,,,,,
1644852715.601700,26.000000,0.000000,4194.743652,4190.128418,4208.461426,4202.436035,4216.410156,4218.717773,4221.153809,4238.333496,4230.000000,4225.641113,4213.717773,4201.410156,4213.077148,4281.282227,3517.000000,4.000000,91.000000,,,,0.000000,4.000000,4.000000,4.000000,4.000000,4.000000,4.000000,4.000000,4.000000,4.000000,4.000000,4.000000,4.000000,4.000000,4.000000,100.000000,,,,,,,,,,,,,,,,
1644852715.605640,27.000000,0.000000,4198.205078,4193.717773,4209.358887,4203.333496,4215.512695,4218.205078,4216.153809,4236.794922,4229.230957,4227.563965,4215.000000,4203.974121,4216.410156,4288.333496,3451.000000,4.000000,91.000000,,,,0.000000,4.000000,4.000000,4.000000,4.000000,4.000000,4.000000,4.000000,4.000000,4.000000,4.000000,4.000000,4.000000,4.000000,4.000000,100.000000,,,,,,,,,,,,,,,,
1644852715.609580,28.000000,0.000000,4208.077148,4196.666504,4211.410156,4209.615234,4213.077148,4216.153809,4213.461426,4232.948730,4225.769043,4223.974121,4217.179688,4204.358887,4221.794922,4297.692383,3459.000000,4.000000,91.000000,,,,0.000000,4.000000,4.000000,4.000000,4.000000,4.000000,4.000000,4.000000,4.000000,4.000000,4.000000,4.000000,4.000000,4.000000,4.000000,100.000000,,,,,,,,,,,,,,,,
1644852715.613520,29.000000,0.000000,4220.000000,4197.820313,4214.743652,4217.051270,4212.051270,4214.487305,4216.025879,4229.487305,4221.794922,4216.922852,4221.410156,4202.820313,4228.589844,4306.922852,3536.000000,4.000000,91.000000,,,,0.000000,4.000000,4.000000,4.000000,4.000000,4.000000,4.000000,4.000000,4.000000,4.000000,4.000000,4.000000,4.000000,4.000000,4.000000,100.000000,,,,,,,,,,,,,,,,
1644852715.617461,30.000000,0.000000,4228.974121,4198.205078,4217.948730,4223.077148,4214.743652,4214.230957,4220.897461,4227.820313,4219.230957,4210.897461,4226.153809,4200.000000,4235.512695,4312.563965,3517.000000,4.000000,91.000000,,,,0.000000,4.000000,4.000000,4.000000,4.000000,4.000000,4.000000,4.000000,4.000000,4.000000,4.000000,4.000000,4.000000,4.000000,4.000000,100.000000,,,,,,,,,,,,,,,,
1644852715.621401,31.000000,0.000000,4231.538574,4198.333496,4218.333496,4227.179688,4218.846191,4215.256348,4222.436035,4227.051270,4218.461426,4209.743652,4227.179688,4196.666504,4240.512695,4311.538574,3451.000000,4.000000,91.000000,,,,0.000000,4.000000,4.000000,4.000000,4.000000,4.000000,4.000000,4.000000,4.000000,4.000000,4.000000,4.000000,4.000000,4.000000,4.000000,100.000000,,,,,,,,,,,,,,,,
1644852715.625341,32.000000,0.000000,4227.436035,4197.820313,4214.871582,4229.358887,4219.230957,4216.153809,4218.717773,4226.025879,4217.948730,4213.077148,4221.666504,4193.974121,4240.641113,4302.307617,0.000000,4.000000,91.000000,,,,0.000000,4.000000,4.000000,4.000000,4.000000,4.000000,4.000000,4.000000,4.000000,4.000000,4.000000,4.000000,4.000000,4.000000,4.000000,100.000000,,,,,,,,,,,,,,,,
1644852715.629281,33.000000,0.000000,4219.743652,4196.666504,4209.487305,4229.358887,4213.333496,4216.153809,4213.205078,4223.846191,4215.512695,4216.794922,4211.025879,4193.077148,4234.615234,4288.333496,0.000000,4.000000,91.000000,,,,0.000000,4.000000,4.000000,4.000000,4.000000,4.000000,4.000000,4.000000,4.000000,4.000000,4.000000,4.000000,4.000000,4.000000,4.000000,100.000000,,,,,,,,,,,,,,,,
1644852715.633221,34.000000,0.000000,4213.077148,4195.769043,4205.384766,4226.410156,4205.769043,4215.512695,4211.410156,4221.666504,4211.282227,4216.538574,4200.769043,4194.743652,4225.256348,4276.410156,0.000000,4.000000,91.000000,,,,0.000000,4.000000,4.000000,4.000000,4.000000,4.000000,4.000000,4.000000,4.000000,4.000000,4.000000,4.000000,4.000000,4.000000,4.000000,100.000000,,,,,,,,,,,,,,,,
1644852715.637161,35.000000,0.000000,4211.153809,4196.794922,4205.384766,4221.282227,4205.000000,4215.256348,4214.487305,4221.025879,4208.333496,4211.538574,4197.436035,4198.461426,4218.717773,4272.307617,0.000000,4.000000,91.000000,,,,0.000000,4.000000,4.000000,4.000000,4.000000,4.000000,4.000000,4.000000,4.000000,4.000000,4.000000,4.000000,4.000000,4.000000,4.000000,100.000000,,,,,,,,,,,,,,,,
1644852715.641001,36.000000,0.000000,4214.358887,4200.256348,4210.128418,4216.410156,4215.128418,4216.410156,4219.358887,4223.077148,4209.743652,4206.410156,4203.717773,4202.948730,4219.615234,4277.820313,0.000000,4.000000,91.000000,,,,0.000000,4.000000,4.000000,4.000000,4.000000,4.000000,4.000000,4.000000,4.000000,4.000000,4.000000,4.000000,4.000000,4.000000,4.000000,100.000000,,,,,,,,,,,,,,,,
1644852715.644941,37.000000,0.000000,4219.743652,4204.615234,4217.179688,4214.871582,4230.897461,4218.846191,4222.051270,4226.922852,4215.256348,4206.538574,4216.282227,4207.307617,4227.563965,4288.461426,0.000000,4.000000,91.000000,,,,0.000000,4.000000,4.000000,4.000000,4.000000,4.000000,4.000000,4.000000,4.000000,4.000000,4.000000,4.000000,4.000000,4.000000,4.000000,100.000000,,,,,,,,,,,,,,,,
1644852715.648881,38.000000,0.000000,4222.948730,4207.051270,4222.563965,4216.282227,4240.897461,4221.538574,4222.179688,4230.769043,4221.666504,4213.333496,4227.563965,4210.897461,4237.563965,4297.692383,0.000000,4.000000,91.000000,,,,0.000000,4.000000,4.000000,4.000000,4.000000,4.000000,4.000000,4.000000,4.000000,4.000000,4.000000,4.000000,4.000000,4.000000,4.000000,100.000000,,,,,,,,,,,,,,,,
1644852715.652822,39.000000,0.000000,4221.538574,4205.641113,4222.948730,4216.794922,4238.461426,4222.820313,4221.538574,4232.307617,4225.128418,4223.461426,4230.897461,4212.692383,4243.589844,4301.282227,0.000000,4.000000,91.000000,,,,0.000000,4.000000,4.000000,4.000000,4.000000,4.000000,4.000000,4.000000,4.000000,4.000000,4.000000,4.000000,4.000000,4.000000,4.000000,100.000000,,,,,,,,,,,,,,,,
1644852715.656762,40.000000,0.000000,4217.179688,4201.538574,4218.461426,4213.205078,4226.922852,4221.153809,4221.282227,4230.897461,4224.358887,4231.282227,4224.871582,4212.051270,4242.820313,4300.000000,0.000000,4.000000,91.000000,,,,0.000000,4.000000,4.000000,4.000000,4.000000,4.000000,4.000000,4.000000,4.000000,4.000000,4.000000,4.000000,4.000000,4.000000,4.000000,100.000000,,,,,,,,,,,,,,,,
1644852715.660702,41.000000,0.000000,4214.615234,4197.307617,4212.820313,4207.051270,4216.666504,4216.282227,4220.641113,4227.948730,4221.666504,4232.179688,4214.743652,4209.487305,4237.307617,4297.307617,0.000000,4.000000,91.000000,,,,0.000000,4.000000,4.000000,4.000000,4.000000,4.000000,4.000000,4.000000,4.000000,4.000000,4.000000,4.000000,4.000000,4.000000,4.000000,100.000000,,,,,,,,,,,,,,,,
1644852715.664642,42.000000,0.000000,4217.179688,4195.128418,4209.871582,4203.846191,4213.974121,4210.384766,4218.717773,4225.641113,4220.128418,4225.641113,4208.077148,4206.410156,4231.153809,4295.769043,0.000000,4.000000,91.000000,,,,0.000000,4.000000,4.000000,4.000000,4.000000,4.000000,4.000000,4.000000,4.000000,4.000000,4.000000,4.000000,4.000000,4.000000,4.000000,100.000000,,,,,,,,,,,,,,,,
1644852715.668582,43.000000,0.000000,4223.461426,4195.128418,4211.025879,4208.077148,4216.666504,4206.282227,4216.922852,4225.641113,4221.282227,4216.282227,4209.230957,4204.871582,4227.436035,4294.615234,0.000000,4.000000,91.000000,,,,0.000000,4.000000,4.000000,4.000000,4.000000,4.000000,4.000000,4.000000,4.000000,4.000000,4.000000,4.000000,4.000000,4.000000,4.000000,100.000000,,,,,,,,,,,,,,,,
1644852715.672522,44.000000,0.000000,4228.077148,4196.666504,4214.487305,4217.307617,4218.717773,4205.897461,4217.563965,4228.717773,4224.358887,4211.153809,4216.666504,4205.641113,4226.922852,4291.922852,0.000000,4.000000,91.000000,,,,0.000000,4.000000,4.000000,4.000000,4.000000,4.000000,4.000000,4.000000,4.000000,4.000000,4.000000,4.000000,4.000000,4.000000,4.000000,100.000000,,,,,,,,,,,,,,,,
1644852715.676462,45.000000,0.000000,4227.179688,4198.846191,4217.563965,4225.128418,4218.205078,4209.615234,4220.512695,4233.589844,4227.820313,4214.871582,4225.000000,4208.589844,4228.717773,4287.307617,0.000000,4.000000,91.000000,,,,0.000000,4.000000,4.000000,4.000000,4.000000,4.000000,4.000000,4.000000,4.000000,4.000000,4.000000,4.000000,4.000000,4.000000,4.000000,100.000000,,,,,,,,,,,,,,,,
1644852715.680402,46.000000,0.000000,4222.436035,4202.051270,4218.205078,4227.563965,4218.205078,4215.000000,4223.077148,4238.077148,4231.025879,4225.897461,4228.974121,4212.179688,4232.307617,4282.820313,0.000000,4.000000,91.000000,,,,0.000000,4.000000,4.000000,4.000000,4.000000,4.000000,4.000000,4.000000,4.000000,4.000000,4.000000,4.000000,4.000000,4.000000,4.000000,100.000000,,,,,,,,,,,,,,,,
1644852715.684342,47.000000,0.000000,4219.358887,4206.153809,4216.538574,4225.769043,4220.897461,4219.487305,4222.948730,4240.384766,4233.461426,4237.436035,4226.282227,4213.974121,4236.794922,4280.897461,0.000000,4.000000,91.000000,,,,0.000000,4.000000,4.000000,4.000000,4.000000,4.000000,4.000000,4.000000,4.000000,4.000000,4.000000,4.000000,4.000000,4.000000,4.000000,100.000000,,,,,,,,,,,,,,,,
1644852715.688283,48.000000,0.000000,4221.922852,4209.615234,4213.589844,4222.179688,4223.205078,4220.769043,4220.641113,4239.743652,4234.230957,4242.820313,4218.717773,4211.794922,4239.743652,4281.666504,0.000000,4.000000,91.000000,,,,0.000000,4.000000,4.000000,4.000000,4.000000,4.000000,4.000000,4.000000,4.000000,4.000000,4.000000,4.000000,4.000000,4.000000,4.000000,100.000000,,,,,,,,,,,,,,,,
1644852715.692223,49.000000,0.000000,4228.205078,4210.128418,4210.769043,4216.538574,4220.512695,4218.717773,4218.461426,4236.153809,4232.563965,4240.128418,4210.897461,4205.641113,4238.846191,4282.051270,0.000000,4.000000,91.000000,,,,0.000000,4.000000,4.000000,4.000000,4.000000,4.000000,4.000000,4.000000,4.000000,4.000000,4.000000,4.000000,4.000000,4.000000,4.000000,100.000000,,,,,,,,,,,,,,,,
1644852715.696163,50.000000,0.000000,4232.179688,4206.794922,4208.974121,4207.307617,4213.589844,4214.230957,4217.179688,4230.256348,4227.948730,4232.436035,4208.077148,4199.102539,4233.461426,4278.461426,0.000000,4.000000,91.000000,,,,0.000000,4.000000,4.000000,4.000000,4.000000,4.000000,4.000000,4.000000,4.000000,4.000000,4.000000,4.000000,4.000000,4.000000,4.000000,100.000000,,,,,,,,,,,,,,,,
1644852715.700103,51.000000,0.000000,4229.358887,4201.538574,4208.846191,4197.051270,4209.358887,4210.128418,4216.153809,4224.487305,4222.179688,4224.871582,4213.205078,4197.307617,4227.436035,4270.641113,0.000000,4.000000,91.000000,,,,0.000000,4.000000,4.000000,4.000000,4.000000,4.000000,4.000000,4.000000,4.000000,4.000000,4.000000,4.000000,4.000000,4.000000,4.000000,100.000000,,,,,,,,,,,,,,,,
1644852715.704043,52.000000,0.000000,4221.153809,4198.846191,4210.769043,4192.179688,4215.128418,4209.358887,4215.641113,4221.794922,4218.205078,4220.384766,4224.871582,4202.563965,4225.384766,4263.205078,0.000000,4.000000,91.000000,,,,0.000000,4.000000,4.000000,4.000000,4.000000,4.000000,4.000000,4.000000,4.000000,4.000000,4.000000,4.000000,4.000000,4.000000,4.000000,100.000000,,,,,,,,,,,,,,,,
1644852715.707983,53.000000,0.000000,4214.615234,4202.436035,4214.615234,4197.179688,4230.897461,4213.589844,4217.692383,4224.230957,4218.461426,4218.846191,4237.051270,4211.794922,4228.974121,4261.538574,0.000000,4.000000,91.000000,,,,0.000000,4.000000,4.000000,4.000000,4.000000,4.000000,4.000000,4.000000,4.000000,4.000000,4.000000,4.000000,4.000000,4.000000,4.000000,100.000000,,,,,,,,,,,,,,,,
1644852715.712023,54.000000,0.000000,4216.538574,4211.282227,4219.487305,4210.769043,4248.333496,4221.153809,4223.461426,4230.769043,4222.820313,4219.615234,4243.589844,4219.358887,4235.769043,4267.563965,0.000000,4.000000,91.000000,,,,0.000000,4.000000,4.000000,4.000000,4.000000,4.000000,4.000000,4.000000,4.000000,4.000000,4.000000,4.000000,4.000000,4.000000,4.000000,100.000000,,,,,,,,,,,,,,,,
1644852715.715963,55.000000,0.000000,4227.820313,4220.256348,4223.846191,4226.153809,4257.436035,4228.205078,4230.000000,4237.436035,4228.846191,4222.563965,4242.307617,4221.025879,4241.410156,4277.307617,0.000000,4.000000,91.000000,,,,0.000000,4.000000,4.000000,4.000000,4.000000,4.000000,4.000000,4.000000,4.000000,4.000000,4.000000,4.000000,4.000000,4.000000,4.000000,100.000000,,,,,,,,,,,,,,,,
1644852715.719903,56.000000,0.000000,4241.922852,4223.589844,4225.641113,4235.641113,4254.102539,4231.666504,4232.307617,4240.384766,4232.563965,4227.820313,4236.666504,4216.666504,4243.717773,4284.743652,0.000000,4.000000,91.000000,,,,0.000000,4.000000,4.000000,4.000000,4.000000,4.000000,4.000000,4.000000,4.000000,4.000000,4.000000,4.000000,4.000000,4.000000,4.000000,100.000000,,,,,,,,,,,,,,,,
1644852715.723843,57.000000,0.000000,4249.487305,4219.615234,4224.230957,4235.128418,4243.205078,4230.641113,4228.717773,4237.692383,4232.051270,4234.230957,4231.922852,4209.743652,4243.461426,4285.769043,0.000000,4.000000,91.000000,,,,0.000000,4.000000,4.000000,4.000000,4.000000,4.000000,4.000000,4.000000,4.000000,4.000000,4.000000,4.000000,4.000000,4.000000,4.000000,100.000000,,,,,,,,,,,,,,,,
1644852715.727783,58.000000,0.000000,4244.871582,4211.538574,4220.641113,4225.256348,4232.563965,4226.666504,4222.563965,4231.794922,4228.333496,4238.974121,4230.128418,4204.358887,4242.820313,4279.743652,0.000000,4.000000,91.000000,,,,0.000000,4.000000,4.000000,4.000000,4.000000,4.000000,4.000000,4.000000,4.000000,4.000000,4.000000,4.000000,4.000000,4.000000,4.000000,100.000000,,,,,,,,,,,,,,,,
1644852715.731724,59.000000,0.000000,4230.256348,4205.000000,4217.179688,4210.641113,4226.025879,4222.563965,4219.230957,4227.179688,4224.615234,4238.333496,4229.230957,4202.307617,4241.922852,4268.589844,0.000000,4.000000,91.000000,,,,0.000000,4.000000,4.000000,4.000000,4.000000,4.000000,4.000000,4.000000,4.000000,4.000000,4.000000,4.000000,4.000000,4.000000,4.000000,100.000000,,,,,,,,,,,,,,,,
1644852715.735664,60.000000,0.000000,4214.615234,4203.333496,4215.256348,4199.102539,4222.307617,4220.769043,4220.256348,4226.410156,4223.589844,4232.307617,4225.897461,4203.333496,4238.974121,4254.871582,0.000000,4.000000,91.000000,,,,0.000000,4.000000,4.000000,4.000000,4.000000,4.000000,4.000000,4.000000,4.000000,4.000000,4.000000,4.000000,4.000000,4.000000,4.000000,100.000000,,,,,,,,,,,,,,,,
1644852715.739604,61.000000,0.000000,4207.179688,4205.384766,4214.230957,4196.538574,4219.230957,4221.410156,4221.666504,4228.589844,4225.000000,4225.000000,4219.743652,4205.897461,4233.333496,4241.153809,0.000000,4.000000,91.000000,,,,0.000000,4.000000,4.000000,4.000000,4.000000,4.000000,4.000000,4.000000,4.000000,4.000000,4.000000,4.000000,4.000000,4.000000,4.000000,100.000000,,,,,,,,,,,,,,,,
1644852715.743544,62.000000,0.000000,4211.538574,4207.307617,4212.307617,4203.205078,4217.820313,4222.179688,4220.128418,4230.384766,4227.307617,4222.307617,4213.589844,4207.692383,4227.307617,4230.512695,0.000000,4.000000,91.000000,,,,0.000000,4.000000,4.000000,4.000000,4.000000,4.000000,4.000000,4.000000,4.000000,4.000000,4.000000,4.000000,4.000000,4.000000,4.000000,100.000000,,,,,,,,,,,,,,,,
1644852715.747484,63.000000,0.000000,4223.205078,4206.922852,4208.589844,4212.307617,4220.769043,4220.769043,4215.897461,4229.358887,4228.333496,4226.538574,4211.153809,4206.794922,4225.256348,4226.282227,0.000000,4.000000,91.000000,,,,0.000000,4.000000,4.000000,4.000000,4.000000,4.000000,4.000000,4.000000,4.000000,4.000000,4.000000,4.000000,4.000000,4.000000,4.000000,100.000000,,,,,,,,,,,,,,,,
1644852715.751424,64.000000,0.000000,4234.358887,4205.512695,4204.743652,4215.256348,4228.205078,4217.051270,4212.948730,4226.666504,4227.307617,4234.102539,4213.461426,4202.820313,4229.871582,4229.743652,0.000000,4.000000,91.000000,,,,0.000000,4.000000,4.000000,4.000000,4.000000,4.000000,4.000000,4.000000,4.000000,4.000000,4.000000,4.000000,4.000000,4.000000,4.000000,100.000000,,,,,,,,,,,,,,,,
1644852715.755364,65.000000,0.000000,4239.615234,4206.025879,4202.820313,4208.333496,4236.025879,4214.102539,4213.974121,4225.384766,4225.384766,4238.717773,4219.230957,4197.692383,4239.230957,4238.077148,0.000000,4.000000,91.000000,,,,0.000000,4.000000,4.000000,4.000000,4.000000,4.000000,4.000000,4.000000,4.000000,4.000000,4.000000,4.000000,4.000000,4.000000,4.000000,100.000000,,,,,,,,,,,,,,,,
1644852715.759304,66.000000,0.000000,4239.743652,4209.871582,4204.615234,4196.025879,4239.615234,4215.256348,4217.948730,4227.692383,4225.512695,4236.794922,4226.153809,4195.384766,4247.820313,4245.769043,0.000000,4.000000,91.000000,,,,0.000000,4.000000,4.000000,4.000000,4.000000,4.000000,4.000000,4.000000,4.000000,4.000000,4.000000,4.000000,4.000000,4.000000,4.000000,100.000000,,,,,,,,,,,,,,,,
1644852715.763244,67.000000,0.000000,4238.333496,4215.641113,4209.743652,4187.820313,4237.948730,4221.282227,4222.179688,4232.948730,4229.102539,4230.384766,4232.307617,4198.205078,4250.897461,4248.205078,0.000000,4.000000,91.000000,,,,0.000000,4.000000,4.000000,4.000000,4.000000,4.000000,4.000000,4.000000,4.000000,4.000000,4.000000,4.000000,4.000000,4.000000,4.000000,100.000000,,,,,,,,,,,,,,,,
1644852715.767185,68.000000,0.000000,4238.333496,4220.384766,4216.153809,4190.769043,4234.358887,4228.589844,4224.871582,4238.589844,4235.000000,4226.025879,4236.538574,4205.512695,4247.436035,4244.102539,0.000000,4.000000,91.000000,,,,0.000000,4.000000,4.000000,4.000000,4.000000,4.000000,4.000000,4.000000,4.000000,4.000000,4.000000,4.000000,4.000000,4.000000,4.000000,100.000000,,,,,,,,,,,,,,,,
1644852715.771125,69.000000,0.000000,4238.974121,4221.666504,4221.153809,4204.102539,4233.846191,4232.820313,4226.410156,4242.436035,4240.000000,4228.461426,4238.589844,4213.717773,4241.410156,4236.538574,0.000000,4.000000,91.000000,,,,0.000000,4.000000,4.000000,4.000000,4.000000,4.000000,4.000000,4.000000,4.000000,4.000000,4.000000,4.000000,4.000000,4.000000,4.000000,100.000000,,,,,,,,,,,,,,,,
1644852715.775065,70.000000,0.000000,4238.589844,4219.102539,4223.205078,4219.743652,4237.436035,4232.563965,4226.794922,4243.461426,4242.563965,4237.179688,4239.871582,4218.974121,4237.948730,4230.384766,0.000000,4.000000,91.000000,,,,0.000000,4.000000,4.000000,4.000000,4.000000,4.000000,4.000000,4.000000,4.000000,4.000000,4.000000,4.000000,4.000000,4.000000,4.000000,100.000000,,,,,,,,,,,,,,,,
1644852715.779005,71.000000,0.000000,4236.666504,4214.743652,4221.922852,4227.563965,4241.282227,4229.615234,4225.256348,4241.922852,4242.948730,4247.307617,4242.051270,4219.487305,4239.615234,4228.461426,0.000000,4.000000,91.000000,,,,0.000000,4.000000,4.000000,4.000000,4.000000,4.000000,4.000000,4.000000,4.000000,4.000000,4.000000,4.000000,4.000000,4.000000,4.000000,100.000000,,,,,,,,,,,,,,,,
1644852715.782945,72.000000,0.000000,4234.871582,4210.769043,4218.717773,4222.179688,4240.512695,4227.563965,4222.179688,4238.461426,4242.179688,4252.692383,4244.358887,4216.025879,4244.871582,4230.641113,0.000000,4.000000,91.000000,,,,0.000000,4.000000,4.000000,4.000000,4.000000,4.000000,4.000000,4.000000,4.000000,4.000000,4.000000,4.000000,4.000000,4.000000,4.000000,100.000000,,,,,,,,,,,,,,,,
1644852715.786885,73.000000,0.000000,4234.358887,4208.077148,4215.128418,4207.179688,4233.589844,4227.179688,4219.230957,4233.846191,4240.256348,4249.743652,4243.717773,4211.153809,4248.717773,4233.717773,0.000000,4.000000,91.000000,,,,0.000000,4.000000,4.000000,4.000000,4.000000,4.000000,4.000000,4.000000,4.000000,4.000000,4.000000,4.000000,4.000000,4.000000,4.000000,100.000000,,,,,,,,,,,,,,,,
1644852715.790725,74.000000,0.000000,4234.358887,4205.897461,4212.948730,4193.077148,4225.128418,4227.051270,4218.333496,4228.846191,4235.769043,4239.102539,4237.179688,4207.307617,4247.179688,4234.102539,0.000000,4.000000,91.000000,,,,0.000000,4.000000,4.000000,4.000000,4.000000,4.000000,4.000000,4.000000,4.000000,4.000000,4.000000,4.000000,4.000000,4.000000,4.000000,100.000000,,,,,,,,,,,,,,,,
1644852715.794665,75.000000,0.000000,4232.307617,4204.102539,4212.307617,4189.487305,4221.538574,4225.256348,4219.102539,4224.743652,4228.846191,4226.666504,4226.025879,4205.897461,4241.410156,4230.512695,0.000000,4.000000,91.000000,,,,0.000000,4.000000,4.000000,4.000000,4.000000,4.000000,4.000000,4.000000,4.000000,4.000000,4.000000,4.000000,4.000000,4.000000,4.000000,100.000000,,,,,,,,,,,,,,,,
1644852715.798605,76.000000,0.000000,4227.307617,4203.589844,4212.179688,4196.282227,4225.000000,4221.922852,4219.487305,4222.436035,4222.692383,4219.230957,4216.153809,4206.153809,4236.666504,4223.974121,0.000000,4.000000,91.000000,,,,0.000000,4.000000,4.000000,4.000000,4.000000,4.000000,4.000000,4.000000,4.000000,4.000000,4.000000,4.000000,4.000000,4.000000,4.000000,100.000000,,,,,,,,,,,,,,,,
1644852715.802546,77.000000,0.000000,4221.025879,4205.128418,4212.307617,4204.743652,4231.025879,4219.102539,4217.692383,4221.666504,4220.256348,4219.487305,4213.461426,4206.666504,4237.436035,4216.666504,0.000000,4.000000,91.000000,,,,0.000000,4.000000,4.000000,4.000000,4.000000,4.000000,4.000000,4.000000,4.000000,4.000000,4.000000,4.000000,4.000000,4.000000,4.000000,100.000000,,,,,,,,,,,,,,,,
1644852715.806486,78.000000,0.000000,4217.051270,4208.333496,4212.948730,4205.769043,4231.922852,4217.563965,4215.000000,4221.794922,4221.410156,4223.846191,4219.102539,4205.897461,4242.179688,4210.641113,0.000000,4.000000,91.000000,,,,0.000000,4.000000,4.000000,4.000000,4.000000,4.000000,4.000000,4.000000,4.000000,4.000000,4.000000,4.000000,4.000000,4.000000,4.000000,100.000000,,,,,,,,,,,,,,,,
1644852715.810426,79.000000,0.000000,4218.077148,4211.025879,4213.846191,4198.717773,4225.000000,4217.051270,4213.974121,4221.922852,4222.692383,4225.641113,4228.461426,4203.717773,4245.000000,4206.538574,0.000000,4.000000,91.000000,,,,0.000000,4.000000,4.000000,4.000000,4.000000,4.000000,4.000000,4.000000,4.000000,4.000000,4.000000,4.000000,4.000000,4.000000,4.000000,100.000000,,,,,,,,,,,,,,,,
1644852715.814366,80.000000,0.000000,4224.102539,4211.922852,4214.230957,4191.538574,4214.871582,4216.153809,4215.384766,4221.666504,4221.410156,4221.666504,4234.615234,4200.897461,4241.922852,4204.230957,0.000000,4.000000,91.000000,,,,0.000000,4.000000,4.000000,4.000000,4.000000,4.000000,4.000000,4.000000,4.000000,4.000000,4.000000,4.000000,4.000000,4.000000,4.000000,100.000000,,,,,,,,,,,,,,,,
1644852715.818306,81.000000,0.000000,4232.820313,4211.794922,4213.717773,4192.563965,4209.615234,4215.512695,4217.051270,4221.922852,4218.846191,4215.897461,4234.102539,4199.358887,4234.743652,4204.487305,0.000000,4.000000,91.000000,,,,0.000000,4.000000,4.000000,4.000000,4.000000,4.000000,4.000000,4.000000,4.000000,4.000000,4.000000,4.000000,4.000000,4.000000,4.000000,100.000000,,,,,,,,,,,,,,,,
1644852715.822246,82.000000,0.000000,4240.897461,4212.820313,4212.820313,4202.179688,4213.333496,4216.153809,4217.051270,4223.461426,4219.230957,4215.769043,4228.589844,4200.769043,4230.128418,4208.205078,0.000000,4.000000,91.000000,,,,0.000000,4.000000,4.000000,4.000000,4.000000,4.000000,4.000000,4.000000,4.000000,4.000000,4.000000,4.000000,4.000000,4.000000,4.000000,100.000000,,,,,,,,,,,,,,,,
1644852715.826186,83.000000,0.000000,4245.897461,4216.282227,4212.436035,4212.436035,4222.179688,4218.461426,4216.025879,4227.436035,4224.487305,4223.589844,4222.307617,4204.871582,4232.820313,4215.256348,0.000000,4.000000,91.000000,,,,0.000000,4.000000,4.000000,4.000000,4.000000,4.000000,4.000000,4.000000,4.000000,4.000000,4.000000,4.000000,4.000000,4.000000,4.000000,100.000000,,,,,,,,,,,,,,,,
1644852715.830126,84.000000,0.000000,4247.563965,4221.410156,4213.717773,4214.230957,4228.717773,4221.153809,4217.051270,4233.461426,4232.948730,4235.128418,4219.358887,4208.846191,4241.538574,4223.589844,0.000000,4.000000,91.000000,,,,0.000000,4.000000,4.000000,4.000000,4.000000,4.000000,4.000000,4.000000,4.000000,4.000000,4.000000,4.000000,4.000000,4.000000,4.000000,100.000000,,,,,,,,,,,,,,,,
1644852715.834066,85.000000,0.000000,4247.692383,4226.538574,4217.051270,4206.410156,4230.000000,4222.436035,4221.153809,4239.871582,4240.256348,4243.461426,4221.666504,4210.384766,4251.666504,4230.256348,0.000000,4.000000,91.000000,,,,0.000000,4.000000,4.000000,4.000000,4.000000,4.000000,4.000000,4.000000,4.000000,4.000000,4.000000,4.000000,4.000000,4.000000,4.000000,100.000000,,,,,,,,,,,,,,,,
1644852715.838007,86.000000,0.000000,4247.948730,4229.743652,4221.794922,4195.897461,4229.615234,4222.307617,4225.641113,4244.487305,4243.974121,4245.641113,4228.461426,4209.743652,4258.461426,4233.333496,0.000000,4.000000,91.000000,,,,0.000000,4.000000,4.000000,4.000000,4.000000,4.000000,4.000000,4.000000,4.000000,4.000000,4.000000,4.000000,4.000000,4.000000,4.000000,100.000000,,,,,,,,,,,,,,,,
1644852715.841947,87.000000,0.000000,4247.820313,4229.743652,4226.282227,4191.538574,4232.563965,4222.051270,4226.922852,4245.897461,4243.974121,4243.333496,4236.410156,4209.743652,4260.769043,4232.436035,0.000000,4.000000,91.000000,,,,0.000000,4.000000,4.000000,4.000000,4.000000,4.000000,4.000000,4.000000,4.000000,4.000000,4.000000,4.000000,4.000000,4.000000,4.000000,100.000000,,,,,,,,,,,,,,,,
1644852715.845887,88.000000,0.000000,4246.282227,4225.384766,4228.333496,4196.538574,4237.948730,4222.307617,4224.230957,4244.743652,4241.410156,4240.641113,4241.538574,4211.794922,4259.230957,4227.948730,0.000000,4.000000,91.000000,,,,0.000000,4.000000,4.000000,4.000000,4.000000,4.000000,4.000000,4.000000,4.000000,4.000000,4.000000,4.000000,4.000000,4.000000,4.000000,100.000000,,,,,,,,,,,,,,,,
1644852715.849827,89.000000,0.000000,4243.589844,4217.692383,4227.307617,4205.897461,4240.256348,4223.077148,4220.897461,4242.692383,4237.563965,4238.974121,4241.410156,4214.487305,4254.487305,4221.410156,0.000000,4.000000,91.000000,,,,0.000000,4.000000,4.000000,4.000000,4.000000,4.000000,4.000000,4.000000,4.000000,4.000000,4.000000,4.000000,4.000000,4.000000,4.000000,100.000000,,,,,,,,,,,,,,,,
1644852715.853767,90.000000,0.000000,4242.179688,4210.384766,4224.358887,4211.025879,4235.641113,4223.333496,4220.128418,4241.025879,4233.333496,4237.051270,4236.410156,4215.897461,4247.307617,4214.871582,0.000000,4.000000,91.000000,,,,0.000000,4.000000,4.000000,4.000000,4.000000,4.000000,4.000000,4.000000,4.000000,4.000000,4.000000,4.000000,4.000000,4.000000,4.000000,100.000000,,,,,,,,,,,,,,,,
1644852715.857707,91.000000,0.000000,4243.205078,4208.333496,4221.666504,4206.025879,4225.512695,4222.563965,4220.897461,4238.846191,4229.358887,4233.205078,4228.846191,4215.000000,4239.230957,4210.512695,0.000000,4.000000,91.000000,,,,0.000000,4.000000,4.000000,4.000000,4.000000,4.000000,4.000000,4.000000,4.000000,4.000000,4.000000,4.000000,4.000000,4.000000,4.000000,100.000000,,,,,,,,,,,,,,,,
1644852715.861747,92.000000,0.000000,4244.230957,4212.563965,4219.743652,4192.820313,4214.743652,4221.025879,4220.128418,4235.256348,4226.282227,4227.436035,4221.153809,4211.794922,4232.051270,4208.589844,0.000000,4.000000,91.000000,,,,0.000000,4.000000,4.000000,4.000000,4.000000,4.000000,4.000000,4.000000,4.000000,4.000000,4.000000,4.000000,4.000000,4.000000,4.000000,100.000000,,,,,,,,,,,,,,,,
1644852715.865687,93.000000,0.000000,4240.897461,4218.846191,4218.077148,4179.871582,4208.205078,4219.871582,4216.922852,4230.128418,4223.974121,4222.948730,4215.256348,4207.563965,4227.051270,4207.051270,0.000000,4.000000,91.000000,,,,0.000000,4.000000,4.000000,4.000000,4.000000,4.000000,4.000000,4.000000,4.000000,4.000000,4.000000,4.000000,4.000000,4.000000,4.000000,100.000000,,,,,,,,,,,,,,,,
1644852715.869627,94.000000,0.000000,4231.153809,4220.769043,4215.641113,4176.282227,4208.333496,4219.743652,4213.974121,4225.128418,4221.794922,4222.563965,4211.538574,4204.102539,4225.128418,4203.717773,0.000000,4.000000,91.000000,,,,0.000000,4.000000,4.000000,4.000000,4.000000,4.000000,4.000000,4.000000,4.000000,4.000000,4.000000,4.000000,4.000000,4.000000,4.000000,100.000000,,,,,,,,,,,,,,,,
1644852715.873567,95.000000,0.000000,4219.102539,4216.025879,4212.051270,4184.487305,4214.102539,4220.512695,4214.487305,4222.307617,4219.615234,4225.512695,4209.615234,4202.948730,4226.153809,4197.948730,0.000000,4.000000,91.000000,,,,0.000000,4.000000,4.000000,4.000000,4.000000,4.000000,4.000000,4.000000,4.000000,4.000000,4.000000,4.000000,4.000000,4.000000,4.000000,100.000000,,,,,,,,,,,,,,,,
1644852715.877507,96.000000,0.000000,4211.282227,4208.205078,4207.563965,4198.333496,4221.410156,4220.897461,4217.307617,4221.282227,4217.692383,4227.051270,4207.820313,4203.974121,4228.205078,4191.153809,0.000000,4.000000,91.000000,,,,0.000000,4.000000,4.000000,4.000000,4.000000,4.000000,4.000000,4.000000,4.000000,4.000000,4.000000,4.000000,4.000000,4.000000,4.000000,100.000000,,,,,,,,,,,,,,,,
1644852715.881448,97.000000,0.000000,4211.794922,4202.948730,4202.692383,4207.948730,4225.512695,4220.256348,4218.974121,4220.384766,4215.769043,4223.589844,4205.256348,4204.871582,4228.077148,4186.025879,0.000000,4.000000,91.000000,,,,0.000000,4.000000,4.000000,4.000000,4.000000,4.000000,4.000000,4.000000,4.000000,4.000000,4.000000,4.000000,4.000000,4.000000,4.000000,100.000000,,,,,,,,,,,,,,,,
1644852715.885388,98.000000,0.000000,4217.820313,4203.461426,4199.487305,4207.179688,4224.230957,4218.717773,4217.692383,4218.589844,4213.846191,4216.025879,4202.820313,4203.589844,4223.589844,4184.871582,0.000000,4.000000,91.000000,,,,0.000000,4.000000,4.000000,4.000000,4.000000,4.000000,4.000000,4.000000,4.000000,4.000000,4.000000,4.000000,4.000000,4.000000,4.000000,100.000000,,,,,,,,,,,,,,,,
1644852715.889328,99.000000,0.000000,4222.820313,4207.051270,4199.487305,4198.077148,4219.358887,4217.179688,4215.897461,4217.179688,4212.307617,4209.743652,4202.692383,4200.384766,4217.051270,4188.846191,0.000000,4.000000,91.000000,,,,0.000000,4.000000,4.000000,4.000000,4.000000,4.000000,4.000000,4.000000,4.000000,4.000000,4.000000,4.000000,4.000000,4.000000,4.000000,100.000000,,,,,,,,,,,,,,,,
1644852715.893268,100.000000,0.000000,4221.922852,4208.717773,4202.820313,4187.563965,4214.743652,4216.282227,4216.538574,4217.820313,4211.794922,4208.461426,4206.666504,4197.051270,4213.333496,4196.410156,0.000000,4.000000,91.000000,,,,0.000000,4.000000,4.000000,4.000000,4.000000,4.000000,4.000000,4.000000,4.000000,4.000000,4.000000,4.000000,4.000000,4.000000,4.000000,100.000000,,,,,,,,,,,,,,,,
1644852715.897208,101.000000,0.000000,4215.641113,4205.384766,4207.436035,4182.051270,4212.948730,4216.410156,4219.487305,4220.128418,4212.692383,4210.897461,4213.974121,4196.282227,4216.922852,4203.974121,0.000000,4.000000,91.000000,,,,0.000000,4.000000,4.000000,4.000000,4.000000,4.000000,4.000000,4.000000,4.000000,4.000000,4.000000,4.000000,4.000000,4.000000,4.000000,100.000000,,,,,,,,,,,,,,,,
1644852715.901148,102.000000,0.000000,4209.871582,4198.974121,4210.256348,4182.692383,4214.358887,4217.563965,4221.666504,4222.179688,4214.743652,4212.820313,4221.025879,4198.717773,4227.051270,4207.179688,0.000000,4.000000,91.000000,,,,0.000000,4.000000,4.000000,4.000000,4.000000,4.000000,4.000000,4.000000,4.000000,4.000000,4.000000,4.000000,4.000000,4.000000,4.000000,100.000000,,,,,,,,,,,,,,,,
1644852715.905088,103.000000,0.000000,4210.769043,4194.358887,4209.743652,4186.666504,4217.563965,4219.102539,4220.897461,4222.563965,4217.307617,4211.538574,4224.102539,4202.692383,4238.333496,4203.974121,0.000000,4.000000,91.000000,,,,0.000000,4.000000,4.000000,4.000000,4.000000,4.000000,4.000000,4.000000,4.000000,4.000000,4.000000,4.000000,4.000000,4.000000,4.000000,100.000000,,,,,,,,,,,,,,,,
1644852715.909028,104.000000,0.000000,4218.974121,4195.000000,4206.922852,4189.743652,4220.641113,4220.769043,4218.846191,4221.794922,4220.128418,4209.358887,4222.051270,4205.256348,4243.717773,4195.512695,0.000000,4.000000,91.000000,,,,0.000000,4.000000,4.000000,4.000000,4.000000,4.000000,4.000000,4.000000,4.000000,4.000000,4.000000,4.000000,4.000000,4.000000,4.000000,100.000000,,,,,,,,,,,,,,,,
1644852715.912968,105.000000,0.000000,4228.846191,4199.743652,4203.846191,4189.487305,4223.077148,4222.436035,4217.948730,4221.538574,4223.077148,4210.641113,4217.436035,4205.000000,4239.871582,4186.153809,0.000000,4.000000,91.000000,,,,0.000000,4.000000,4.000000,4.000000,4.000000,4.000000,4.000000,4.000000,4.000000,4.000000,4.000000,4.000000,4.000000,4.000000,4.000000,100.000000,,,,,,,,,,,,,,,,
1644852715.916909,106.000000,0.000000,4233.846191,4204.487305,4202.051270,4185.641113,4225.384766,4223.333496,4218.205078,4222.436035,4225.512695,4217.307617,4213.589844,4202.563965,4229.358887,4180.641113,0.000000,4.000000,91.000000,,,,0.000000,4.000000,4.000000,4.000000,4.000000,4.000000,4.000000,4.000000,4.000000,4.000000,4.000000,4.000000,4.000000,4.000000,4.000000,100.000000,,,,,,,,,,,,,,,,
1644852715.920849,107.000000,0.000000,4232.436035,4206.025879,4200.897461,4179.871582,4228.333496,4222.692383,4217.692383,4223.333496,4226.666504,4226.282227,4212.820313,4199.871582,4219.487305,4181.922852,0.000000,4.000000,91.000000,,,,0.000000,4.000000,4.000000,4.000000,4.000000,4.000000,4.000000,4.000000,4.000000,4.000000,4.000000,4.000000,4.000000,4.000000,4.000000,100.000000,,,,,,,,,,,,,,,,
1644852715.924789,108.000000,0.000000,4227.563965,4204.743652,4200.128418,4175.897461,4230.897461,4220.128418,4215.641113,4222.948730,4225.384766,4231.538574,4214.358887,4198.333496,4216.794922,4189.871582,0.000000,4.000000,91.000000,,,,0.000000,4.000000,4.000000,4.000000,4.000000,4.000000,4.000000,4.000000,4.000000,4.000000,4.000000,4.000000,4.000000,4.000000,4.000000,100.000000,,,,,,,,,,,,,,,,
1644852715.928729,109.000000,0.000000,4224.102539,4204.102539,4200.000000,4177.179688,4231.666504,4217.692383,4214.230957,4221.025879,4221.922852,4230.128418,4215.384766,4198.717773,4223.077148,4200.897461,0.000000,4.000000,91.000000,,,,0.000000,4.000000,4.000000,4.000000,4.000000,4.000000,4.000000,4.000000,4.000000,4.000000,4.000000,4.000000,4.000000,4.000000,4.000000,100.000000,,,,,,,,,,,,,,,,
1644852715.932669,110.000000,0.000000,4223.461426,4206.794922,4201.410156,4185.000000,4229.743652,4217.436035,4215.512695,4219.230957,4217.692383,4224.102539,4213.846191,4200.897461,4234.230957,4209.743652,0.000000,4.000000,91.000000,,,,0.000000,4.000000,4.000000,4.000000,4.000000,4.000000,4.000000,4.000000,4.000000,4.000000,4.000000,4.000000,4.000000,4.000000,4.000000,100.000000,,,,,,,,,,,,,,,,
1644852715.936509,111.000000,0.000000,4223.846191,4211.538574,4204.230957,4195.769043,4225.128418,4219.487305,4218.461426,4219.102539,4215.000000,4219.358887,4210.384766,4203.717773,4243.205078,4212.179688,0.000000,4.000000,91.000000,,,,0.000000,4.000000,4.000000,4.000000,4.000000,4.000000,4.000000,4.000000,4.000000,4.000000,4.000000,4.000000,4.000000,4.000000,4.000000,100.000000,,,,,,,,,,,,,,,,
1644852715.940449,112.000000,0.000000,4223.077148,4215.128418,4207.563965,4203.461426,4220.000000,4221.666504,4220.000000,4220.897461,4215.256348,4219.615234,4207.820313,4205.512695,4245.000000,4207.692383,0.000000,4.000000,91.000000,,,,0.000000,4.000000,4.000000,4.000000,4.000000,4.000000,4.000000,4.000000,4.000000,4.000000,4.000000,4.000000,4.000000,4.000000,4.000000,100.000000,,,,,,,,,,,,,,,,
1644852715.944389,113.000000,0.000000,4221.794922,4215.641113,4210.512695,4204.487305,4217.307617,4221.282227,4219.230957,4223.205078,4218.589844,4223.589844,4208.333496,4205.256348,4240.000000,4200.128418,0.000000,4.000000,91.000000,,,,0.000000,4.000000,4.000000,4.000000,4.000000,4.000000,4.000000,4.000000,4.000000,4.000000,4.000000,4.000000,4.000000,4.000000,4.000000,100.000000,,,,,,,,,,,,,,,,
1644852715.948329,114.000000,0.000000,4222.307617,4213.717773,4212.692383,4200.641113,4217.692383,4218.589844,4218.205078,4225.000000,4222.948730,4226.153809,4212.051270,4203.589844,4232.692383,4193.974121,0.000000,4.000000,91.000000,,,,0.000000,4.000000,4.000000,4.000000,4.000000,4.000000,4.000000,4.000000,4.000000,4.000000,4.000000,4.000000,4.000000,4.000000,4.000000,100.000000,,,,,,,,,,,,,,,,
1644852715.952270,115.000000,0.000000,4226.410156,4211.922852,4214.230957,4196.922852,4218.077148,4216.410156,4219.615234,4225.897461,4224.871582,4223.461426,4215.897461,4201.794922,4227.820313,4191.282227,0.000000,4.000000,91.000000,,,,0.000000,4.000000,4.000000,4.000000,4.000000,4.000000,4.000000,4.000000,4.000000,4.000000,4.000000,4.000000,4.000000,4.000000,4.000000,100.000000,,,,,,,,,,,,,,,,
1644852715.956210,116.000000,0.000000,4232.563965,4211.794922,4214.487305,4196.666504,4214.615234,4217.436035,4222.307617,4225.641113,4222.307617,4216.666504,4216.410156,4200.641113,4226.666504,4191.282227,0.000000,4.000000,91.000000,,,,0.000000,4.000000,4.000000,4.000000,4.000000,4.000000,4.000000,4.000000,4.000000,4.000000,4.000000,4.000000,4.000000,4.000000,4.000000,100.000000,,,,,,,,,,,,,,,,
1644852715.960150,117.000000,0.000000,4238.205078,4212.692383,4213.077148,4198.974121,4207.948730,4221.922852,4223.077148,4224.358887,4216.153809,4211.025879,4213.717773,4200.512695,4226.794922,4192.307617,0.000000,4.000000,91.000000,,,,0.000000,4.000000,4.000000,4.000000,4.000000,4.000000,4.000000,4.000000,4.000000,4.000000,4.000000,4.000000,4.000000,4.000000,4.000000,100.000000,,,,,,,,,,,,,,,,
1644852715.964090,118.000000,0.000000,4240.769043,4212.692383,4211.538574,4201.538574,4204.615234,4227.436035,4220.897461,4222.436035,4210.769043,4210.384766,4212.051270,4202.179688,4226.153809,4194.487305,0.000000,4.000000,91.000000,,,,0.000000,4.000000,4.000000,4.000000,4.000000,4.000000,4.000000,4.000000,4.000000,4.000000,4.000000,4.000000,4.000000,4.000000,4.000000,100.000000,,,,,,,,,,,,,,,,
1644852715.968030,119.000000,0.000000,4240.128418,4211.538574,4212.307617,4202.948730,4211.282227,4231.025879,4218.974121,4221.666504,4210.384766,4214.230957,4216.282227,4206.282227,4225.000000,4197.692383,0.000000,4.000000,91.000000,,,,0.000000,4.000000,4.000000,4.000000,4.000000,4.000000,4.000000,4.000000,4.000000,4.000000,4.000000,4.000000,4.000000,4.000000,4.000000,100.000000,,,,,,,,,,,,,,,,
1644852715.971970,120.000000,0.000000,4237.436035,4210.769043,4216.794922,4203.333496,4227.436035,4232.051270,4221.025879,4222.948730,4215.384766,4219.487305,4226.410156,4212.436035,4226.025879,4200.512695,0.000000,4.000000,91.000000,,,,0.000000,4.000000,4.000000,4.000000,4.000000,4.000000,4.000000,4.000000,4.000000,4.000000,4.000000,4.000000,4.000000,4.000000,4.000000,100.000000,,,,,,,,,,,,,,,,
1644852715.975910,121.000000,0.000000,4235.256348,4212.307617,4223.077148,4203.846191,4246.153809,4232.307617,4226.282227,4225.897461,4222.820313,4224.358887,4237.307617,4219.102539,4231.666504,4200.256348,0.000000,4.000000,91.000000,,,,0.000000,4.000000,4.000000,4.000000,4.000000,4.000000,4.000000,4.000000,4.000000,4.000000,4.000000,4.000000,4.000000,4.000000,4.000000,100.000000,,,,,,,,,,,,,,,,
1644852715.979850,122.000000,0.000000,4235.256348,4216.025879,4227.307617,4205.641113,4258.333496,4232.692383,4230.256348,4228.717773,4228.461426,4229.102539,4242.179688,4223.846191,4241.410156,4196.025879,0.000000,4.000000,91.000000,,,,0.000000,4.000000,4.000000,4.000000,4.000000,4.000000,4.000000,4.000000,4.000000,4.000000,4.000000,4.000000,4.000000,4.000000,4.000000,100.000000,,,,,,,,,,,,,,,,
1644852715.983790,123.000000,0.000000,4237.307617,4220.000000,4226.153809,4210.256348,4258.205078,4232.820313,4228.846191,4229.487305,4229.615234,4234.487305,4238.461426,4225.512695,4251.025879,4190.641113,0.000000,4.000000,91.000000,,,,0.000000,4.000000,4.000000,4.000000,4.000000,4.000000,4.000000,4.000000,4.000000,4.000000,4.000000,4.000000,4.000000,4.000000,4.000000,100.000000,,,,,,,,,,,,,,,,
1644852715.987731,124.000000,0.000000,4239.102539,4221.666504,4220.128418,4217.948730,4245.769043,4231.410156,4223.205078,4228.333496,4226.666504,4238.717773,4229.615234,4224.102539,4255.128418,4188.461426,0.000000,4.000000,91.000000,,,,0.000000,4.000000,4.000000,4.000000,4.000000,4.000000,4.000000,4.000000,4.000000,4.000000,4.000000,4.000000,4.000000,4.000000,4.000000,100.000000,,,,,,,,,,,,,,,,
1644852715.991671,125.000000,0.000000,4238.333496,4219.743652,4213.077148,4225.769043,4227.307617,4228.077148,4218.717773,4226.666504,4221.666504,4238.974121,4222.051270,4220.641113,4252.179688,4191.538574,0.000000,4.000000,91.000000,,,,0.000000,4.000000,4.000000,4.000000,4.000000,4.000000,4.000000,4.000000,4.000000,4.000000,4.000000,4.000000,4.000000,4.000000,4.000000,100.000000,,,,,,,,,,,,,,,,
1644852715.995611,126.000000,0.000000,4234.615234,4215.512695,4208.846191,4228.333496,4211.666504,4223.974121,4218.205078,4226.410156,4217.692383,4234.230957,4220.769043,4215.897461,4245.128418,4198.333496,0.000000,4.000000,91.000000,,,,0.000000,4.000000,4.000000,4.000000,4.000000,4.000000,4.000000,4.000000,4.000000,4.000000,4.000000,4.000000,4.000000,4.000000,4.000000,100.000000,,,,,,,,,,,,,,,,
1644852715.999551,127.000000,0.000000,4229.358887,4211.282227,4207.820313,4221.282227,4204.230957,4220.384766,4220.256348,4227.436035,4216.922852,4226.666504,4224.615234,4211.153809,4238.974121,4205.000000,0.000000,4.000000,91.000000,,,,0.000000,4.000000,4.000000,4.000000,4.000000,4.000000,4.000000,4.000000,4.000000,4.000000,4.000000,4.000000,4.000000,4.000000,4.000000,100.000000,,,,,,,,,,,,,,,,
1644852716.003491,128.000000,0.000000,4224.102539,4208.974121,4207.563965,4205.384766,4204.230957,4217.948730,4221.666504,4228.974121,4219.615234,4220.384766,4228.205078,4207.179688,4236.538574,4206.538574,3361.000000,4.000000,91.000000,,,,0.000000,4.000000,4.000000,4.000000,4.000000,4.000000,4.000000,4.000000,4.000000,4.000000,4.000000,4.000000,4.000000,4.000000,4.000000,100.000000,,,,,,,,,,,,,,,,
1644852716.007331,129.000000,0.000000,4219.487305,4208.717773,4206.282227,4187.307617,4206.922852,4216.794922,4221.153809,4229.871582,4223.333496,4218.461426,4226.666504,4204.487305,4236.666504,4201.282227,3582.000000,4.000000,91.000000,,,,0.000000,4.000000,4.000000,4.000000,4.000000,4.000000,4.000000,4.000000,4.000000,4.000000,4.000000,4.000000,4.000000,4.000000,4.000000,100.000000,,,,,,,,,,,,,,,,
1644852716.011271,130.000000,0.000000,4215.769043,4208.461426,4204.615234,4176.794922,4208.589844,4216.410156,4220.512695,4229.615234,4225.128418,4220.512695,4219.743652,4202.948730,4236.410156,4191.153809,3563.000000,4.000000,91.000000,,,,0.000000,4.000000,4.000000,4.000000,4.000000,4.000000,4.000000,4.000000,4.000000,4.000000,4.000000,4.000000,4.000000,4.000000,4.000000,100.000000,,,,,,,,,,,,,,,,
1644852716.015211,131.000000,0.000000,4213.589844,4206.794922,4204.230957,4179.743652,4209.102539,4216.666504,4220.512695,4227.563965,4223.717773,4223.205078,4212.179688,4202.179688,4233.333496,4181.153809,3741.000000,4.000000,91.000000,,,,0.000000,4.000000,4.000000,4.000000,4.000000,4.000000,4.000000,4.000000,4.000000,4.000000,4.000000,4.000000,4.000000,4.000000,4.000000,100.000000,,,,,,,,,,,,,,,,
1644852716.019151,132.000000,0.000000,4213.461426,4204.487305,4206.025879,4193.846191,4211.922852,4217.692383,4220.128418,4223.461426,4219.743652,4223.717773,4209.102539,4201.666504,4227.820313,4175.512695,3532.000000,4.000000,91.000000,,,,0.000000,4.000000,4.000000,4.000000,4.000000,4.000000,4.000000,4.000000,4.000000,4.000000,4.000000,4.000000,4.000000,4.000000,4.000000,100.000000,,,,,,,,,,,,,,,,
1644852716.023092,133.000000,0.000000,4215.641113,4203.717773,4208.333496,4208.974121,4219.615234,4219.102539,4218.205078,4218.461426,4215.769043,4221.922852,4211.282227,4200.384766,4222.179688,4174.358887,3492.000000,4.000000,91.000000,,,,0.000000,4.000000,4.000000,4.000000,4.000000,4.000000,4.000000,4.000000,4.000000,4.000000,4.000000,4.000000,4.000000,4.000000,4.000000,100.000000,,,,,,,,,,,,,,,,
1644852716.027032,134.000000,0.000000,4219.230957,4205.897461,4208.461426,4214.871582,4230.128418,4220.256348,4215.769043,4214.487305,4212.692383,4219.102539,4213.589844,4198.077148,4217.948730,4174.743652,2638.000000,4.000000,91.000000,,,,0.000000,4.000000,4.000000,4.000000,4.000000,4.000000,4.000000,4.000000,4.000000,4.000000,4.000000,4.000000,4.000000,4.000000,4.000000,100.000000,,,,,,,,,,,,,,,,
1644852716.030972,135.000000,0.000000,4222.692383,4210.641113,4205.512695,4208.589844,4237.563965,4220.512695,4215.512695,4213.461426,4210.641113,4216.025879,4209.743652,4194.102539,4215.128418,4174.487305,2902.000000,4.000000,91.000000,,,,0.000000,4.000000,4.000000,4.000000,4.000000,4.000000,4.000000,4.000000,4.000000,4.000000,4.000000,4.000000,4.000000,4.000000,4.000000,100.000000,,,,,,,,,,,,,,,,
1644852716.034912,136.000000,0.000000,4225.256348,4215.641113,4200.769043,4197.051270,4236.538574,4219.487305,4217.820313,4214.871582,4209.358887,4212.436035,4199.102539,4189.102539,4212.436035,4173.333496,3272.000000,4.000000,91.000000,,,,0.000000,4.000000,4.000000,4.000000,4.000000,4.000000,4.000000,4.000000,4.000000,4.000000,4.000000,4.000000,4.000000,4.000000,4.000000,100.000000,,,,,,,,,,,,,,,,
1644852716.038852,137.000000,0.000000,4226.922852,4217.692383,4196.794922,4191.410156,4226.282227,4217.820313,4220.384766,4216.794922,4209.358887,4207.820313,4188.461426,4184.230957,4209.615234,4171.538574,3551.000000,4.000000,91.000000,,,,0.000000,4.000000,4.000000,4.000000,4.000000,4.000000,4.000000,4.000000,4.000000,4.000000,4.000000,4.000000,4.000000,4.000000,4.000000,100.000000,,,,,,,,,,,,,,,,
1644852716.042792,138.000000,0.000000,4227.563965,4215.000000,4195.897461,4197.307617,4211.538574,4216.922852,4220.897461,4216.922852,4210.000000,4202.820313,4184.358887,4181.025879,4207.820313,4168.974121,3533.000000,4.000000,91.000000,,,,0.000000,4.000000,4.000000,4.000000,4.000000,4.000000,4.000000,4.000000,4.000000,4.000000,4.000000,4.000000,4.000000,4.000000,4.000000,100.000000,,,,,,,,,,,,,,,,
1644852716.046732,139.000000,0.000000,4226.538574,4208.717773,4197.307617,4209.743652,4199.743652,4216.922852,4219.615234,4214.871582,4209.615234,4199.102539,4187.307617,4180.897461,4207.436035,4164.615234,3452.000000,4.000000,91.000000,,,,0.000000,4.000000,4.000000,4.000000,4.000000,4.000000,4.000000,4.000000,4.000000,4.000000,4.000000,4.000000,4.000000,4.000000,4.000000,100.000000,,,,,,,,,,,,,,,,
1644852716.050672,140.000000,0.000000,4223.205078,4201.538574,4198.589844,4217.820313,4196.922852,4216.794922,4218.717773,4211.922852,4207.179688,4198.077148,4191.410156,4183.589844,4207.692383,4158.333496,3479.000000,4.000000,91.000000,,,,0.000000,4.000000,4.000000,4.000000,4.000000,4.000000,4.000000,4.000000,4.000000,4.000000,4.000000,4.000000,4.000000,4.000000,4.000000,100.000000,1.000000,66.666664,4.000000,4.000000,4.000000,4.000000,4.000000,4.000000,1.000000,4.000000,4.000000,4.000000,4.000000,4.000000,4.000000,3.000000
1644852716.054612,141.000000,0.000000,4217.820313,4196.922852,4197.307617,4214.871582,4204.358887,4215.512695,4219.358887,4209.743652,4203.333496,4200.128418,4191.666504,4188.205078,4207.307617,4152.307617,3673.000000,4.000000,91.000000,,,,0.000000,4.000000,4.000000,4.000000,4.000000,4.000000,4.000000,4.000000,4.000000,4.000000,4.000000,4.000000,4.000000,4.000000,4.000000,100.000000,,,,,,,,,,,,,,,,
1644852716.058553,142.000000,0.000000,4211.538574,4196.282227,4193.846191,4204.743652,4217.307617,4213.589844,4219.871582,4209.102539,4201.153809,4204.358887,4188.846191,4193.205078,4206.410156,4149.487305,3533.000000,4.000000,91.000000,,,,0.000000,4.000000,4.000000,4.000000,4.000000,4.000000,4.000000,4.000000,4.000000,4.000000,4.000000,4.000000,4.000000,4.000000,4.000000,100.000000,,,,,,,,,,,,,,,,
1644852716.062493,143.000000,0.000000,4206.153809,4198.589844,4190.897461,4196.410156,4226.538574,4212.051270,4217.948730,4209.487305,4201.794922,4209.358887,4187.307617,4196.666504,4206.282227,4152.179688,3452.000000,4.000000,91.000000,,,,0.000000,4.000000,4.000000,4.000000,4.000000,4.000000,4.000000,4.000000,4.000000,4.000000,4.000000,4.000000,4.000000,4.000000,4.000000,100.000000,,,,,,,,,,,,,,,,
1644852716.066433,144.000000,0.000000,4203.333496,4201.538574,4191.282227,4195.256348,4224.615234,4211.153809,4214.358887,4210.384766,4203.974121,4212.563965,4189.230957,4197.051270,4207.948730,4159.358887,3479.000000,4.000000,91.000000,,,,0.000000,4.000000,4.000000,4.000000,4.000000,4.000000,4.000000,4.000000,4.000000,4.000000,4.000000,4.000000,4.000000,4.000000,4.000000,100.000000,,,,,,,,,,,,,,,,
1644852716.070373,145.000000,0.000000,4204.615234,4203.333496,4195.000000,4198.717773,4211.666504,4209.615234,4211.666504,4211.025879,4204.615234,4211.794922,4192.948730,4193.974121,4210.000000,4166.538574,3673.000000,4.000000,91.000000,,,,0.000000,4.000000,4.000000,4.000000,4.000000,4.000000,4.000000,4.000000,4.000000,4.000000,4.000000,4.000000,4.000000,4.000000,4.000000,100.000000,,,,,,,,,,,,,,,,
1644852716.074313,146.000000,0.000000,4209.743652,4204.358887,4199.102539,4201.538574,4195.256348,4206.410156,4211.282227,4210.641113,4202.307617,4206.666504,4195.897461,4189.102539,4210.128418,4169.358887,3533.000000,4.000000,91.000000,,,,0.000000,4.000000,4.000000,4.000000,4.000000,4.000000,4.000000,4.000000,4.000000,4.000000,4.000000,4.000000,4.000000,4.000000,4.000000,100.000000,,,,,,,,,,,,,,,,
1644852716.078253,147.000000,0.000000,4217.563965,4205.384766,4200.897461,4201.794922,4184.871582,4202.563965,4212.179688,4209.230957,4199.102539,4199.743652,4197.820313,4185.641113,4207.307617,4167.692383,3452.000000,4.000000,91.000000,,,,0.000000,4.000000,4.000000,4.000000,4.000000,4.000000,4.000000,4.000000,4.000000,4.000000,4.000000,4.000000,4.000000,4.000000,4.000000,100.000000,,,,,,,,,,,,,,,,
1644852716.082093,148.000000,0.000000,4226.025879,4206.282227,4200.897461,4201.153809,4185.641113,4200.641113,4212.307617,4208.205078,4198.205078,4195.256348,4200.128418,4186.410156,4204.358887,4166.025879,3479.000000,4.000000,91.000000,,,,0.000000,4.000000,4.000000,4.000000,4.000000,4.000000,4.000000,4.000000,4.000000,4.000000,4.000000,4.000000,4.000000,4.000000,4.000000,100.000000,,,,,,,,,,,,,,,,
1644852716.086033,149.000000,0.000000,4232.948730,4206.282227,4202.692383,4202.563965,4196.025879,4202.820313,4212.436035,4210.000000,4201.282227,4195.897461,4204.230957,4191.538574,4205.000000,4169.102539,3673.000000,4.000000,91.000000,,,,0.000000,4.000000,4.000000,4.000000,4.000000,4.000000,4.000000,4.000000,4.000000,4.000000,4.000000,4.000000,4.000000,4.000000,4.000000,100.000000,,,,,,,,,,,,,,,,
1644852716.089973,150.000000,0.000000,4236.538574,4204.615234,4208.333496,4207.051270,4208.846191,4208.589844,4214.487305,4214.871582,4206.538574,4200.641113,4209.102539,4197.563965,4210.769043,4177.179688,3533.000000,4.000000,91.000000,,,,0.000000,4.000000,4.000000,4.000000,4.000000,4.000000,4.000000,4.000000,4.000000,4.000000,4.000000,4.000000,4.000000,4.000000,4.000000,100.000000,,,,,,,,,,,,,,,,
1644852716.093914,151.000000,0.000000,4236.153809,4202.179688,4215.256348,4213.461426,4216.922852,4214.615234,4218.717773,4220.256348,4210.512695,4206.025879,4211.794922,4201.153809,4218.461426,4184.487305,3452.000000,4.000000,91.000000,,,,0.000000,4.000000,4.000000,4.000000,4.000000,4.000000,4.000000,4.000000,4.000000,4.000000,4.000000,4.000000,4.000000,4.000000,4.000000,100.000000,,,,,,,,,,,,,,,,
1644852716.097854,152.000000,0.000000,4232.307617,4200.512695,4217.948730,4217.820313,4217.307617,4217.563965,4221.410156,4222.179688,4211.025879,4209.615234,4210.256348,4200.384766,4223.205078,4184.102539,3479.000000,4.000000,91.000000,,,,0.000000,4.000000,4.000000,4.000000,4.000000,4.000000,4.000000,4.000000,4.000000,4.000000,4.000000,4.000000,4.000000,4.000000,4.000000,100.000000,,,,,,,,,,,,,,,,
1644852716.101794,153.000000,0.000000,4226.282227,4201.666504,4213.205078,4217.179688,4213.205078,4216.794922,4220.000000,4219.102539,4208.333496,4211.025879,4204.871582,4196.153809,4222.179688,4175.128418,3673.000000,4.000000,91.000000,,,,0.000000,4.000000,4.000000,4.000000,4.000000,4.000000,4.000000,4.000000,4.000000,4.000000,4.000000,4.000000,4.000000,4.000000,4.000000,100.000000,,,,,,,,,,,,,,,,
1644852716.105634,154.000000,0.000000,4220.641113,4205.769043,4203.589844,4212.436035,4210.256348,4214.743652,4215.769043,4213.333496,4205.000000,4210.641113,4198.717773,4191.538574,4216.794922,4164.102539,3533.000000,4.000000,91.000000,,,,0.000000,4.000000,4.000000,4.000000,4.000000,4.000000,4.000000,4.000000,4.000000,4.000000,4.000000,4.000000,4.000000,4.000000,4.000000,100.000000,,,,,,,,,,,,,,,,
1644852716.109574,155.000000,0.000000,4217.948730,4211.410156,4195.897461,4207.179688,4210.897461,4213.717773,4213.461426,4209.743652,4203.974121,4210.128418,4195.512695,4190.000000,4212.179688,4160.000000,3452.000000,4.000000,91.000000,,,,0.000000,4.000000,4.000000,4.000000,4.000000,4.000000,4.000000,4.000000,4.000000,4.000000,4.000000,4.000000,4.000000,4.000000,4.000000,100.000000,,,,,,,,,,,,,,,,
1644852716.113514,156.000000,0.000000,4220.641113,4216.153809,4196.025879,4204.871582,4213.205078,4213.974121,4215.897461,4211.282227,4206.025879,4210.512695,4197.179688,4193.205078,4212.051270,4166.666504,3479.000000,4.000000,91.000000,,,,0.000000,4.000000,4.000000,4.000000,4.000000,4.000000,4.000000,4.000000,4.000000,4.000000,4.000000,4.000000,4.000000,4.000000,4.000000,100.000000,,,,,,,,,,,,,,,,
1644852716.117454,157.000000,0.000000,4228.333496,4217.307617,4203.589844,4206.025879,4213.461426,4213.333496,4220.384766,4216.025879,4209.487305,4212.563965,4202.051270,4199.871582,4216.282227,4179.230957,3673.000000,4.000000,91.000000,,,,0.000000,4.000000,4.000000,4.000000,4.000000,4.000000,4.000000,4.000000,4.000000,4.000000,4.000000,4.000000,4.000000,4.000000,4.000000,100.000000,,,,,,,,,,,,,,,,
1644852716.121394,158.000000,0.000000,4237.051270,4213.717773,4212.307617,4209.230957,4210.512695,4210.769043,4221.922852,4218.717773,4211.025879,4214.102539,4206.666504,4205.897461,4220.641113,4187.692383,3533.000000,4.000000,91.000000,,,,0.000000,4.000000,4.000000,4.000000,4.000000,4.000000,4.000000,4.000000,4.000000,4.000000,4.000000,4.000000,4.000000,4.000000,4.000000,100.000000,,,,,,,,,,,,,,,,
1644852716.125335,159.000000,0.000000,4241.666504,4207.563965,4215.769043,4213.077148,4206.025879,4207.563965,4218.974121,4216.794922,4208.974121,4212.051270,4208.205078,4207.563965,4220.384766,4185.897461,3452.000000,4.000000,91.000000,,,,0.000000,4.000000,4.000000,4.000000,4.000000,4.000000,4.000000,4.000000,4.000000,4.000000,4.000000,4.000000,4.000000,4.000000,4.000000,100.000000,,,,,,,,,,,,,,,,
1644852716.129275,160.000000,0.000000,4239.358887,4202.692383,4213.077148,4216.922852,4202.820313,4205.897461,4214.615234,4212.051270,4204.743652,4204.615234,4206.922852,4204.358887,4214.871582,4175.384766,3479.000000,4.000000,91.000000,,,,0.000000,4.000000,4.000000,4.000000,4.000000,4.000000,4.000000,4.000000,4.000000,4.000000,4.000000,4.000000,4.000000,4.000000,4.000000,100.000000,,,,,,,,,,,,,,,,
1644852716.133315,161.000000,0.000000,4231.922852,4202.563965,4208.333496,4220.000000,4202.051270,4207.179688,4212.436035,4208.589844,4201.153809,4195.128418,4204.743652,4199.871582,4208.077148,4164.615234,3673.000000,4.000000,91.000000,,,,0.000000,4.000000,4.000000,4.000000,4.000000,4.000000,4.000000,4.000000,4.000000,4.000000,4.000000,4.000000,4.000000,4.000000,4.000000,100.000000,,,,,,,,,,,,,,,,
1644852716.137255,162.000000,0.000000,4224.487305,4207.179688,4207.179688,4221.538574,4203.974121,4210.512695,4212.948730,4209.102539,4200.512695,4189.358887,4203.205078,4198.461426,4205.384766,4162.051270,3533.000000,4.000000,91.000000,,,,0.000000,4.000000,4.000000,4.000000,4.000000,4.000000,4.000000,4.000000,4.000000,4.000000,4.000000,4.000000,4.000000,4.000000,4.000000,100.000000,,,,,,,,,,,,,,,,
1644852716.141195,163.000000,0.000000,4222.307617,4213.846191,4210.769043,4220.384766,4207.820313,4213.589844,4213.461426,4211.922852,4203.077148,4191.538574,4203.205078,4201.153809,4208.846191,4170.384766,3452.000000,4.000000,91.000000,,,,0.000000,4.000000,4.000000,4.000000,4.000000,4.000000,4.000000,4.000000,4.000000,4.000000,4.000000,4.000000,4.000000,4.000000,4.000000,100.000000,,,,,,,,,,,,,,,,
1644852716.145135,164.000000,0.000000,4227.179688,4218.846191,4216.282227,4216.794922,4212.692383,4213.717773,4212.307617,4213.717773,4206.666504,4201.153809,4204.743652,4205.256348,4214.487305,4183.974121,3479.000000,4.000000,91.000000,,,,0.000000,4.000000,4.000000,4.000000,4.000000,4.000000,4.000000,4.000000,4.000000,4.000000,4.000000,4.000000,4.000000,4.000000,4.000000,100.000000,,,,,,,,,,,,,,,,
1644852716.149075,165.000000,0.000000,4236.153809,4220.512695,4219.102539,4212.436035,4217.051270,4211.282227,4210.512695,4212.563965,4208.461426,4212.436035,4206.794922,4207.179688,4216.282227,4194.102539,3673.000000,4.000000,91.000000,,,,0.000000,4.000000,4.000000,4.000000,4.000000,4.000000,4.000000,4.000000,4.000000,4.000000,4.000000,4.000000,4.000000,4.000000,4.000000,100.000000,,,,,,,,,,,,,,,,
1644852716.153015,166.000000,0.000000,4243.589844,4218.717773,4217.436035,4208.333496,4218.589844,4208.333496,4210.000000,4209.615234,4207.692383,4219.230957,4207.307617,4205.512695,4212.692383,4196.025879,3533.000000,4.000000,91.000000,,,,0.000000,4.000000,4.000000,4.000000,4.000000,4.000000,4.000000,4.000000,4.000000,4.000000,4.000000,4.000000,4.000000,4.000000,4.000000,100.000000,,,,,,,,,,,,,,,,
1644852716.156955,167.000000,0.000000,4245.641113,4215.256348,4212.820313,4204.487305,4215.897461,4207.179688,4210.256348,4207.820313,4205.769043,4218.846191,4204.487305,4201.538574,4208.077148,4192.307617,3452.000000,4.000000,91.000000,,,,0.000000,4.000000,4.000000,4.000000,4.000000,4.000000,4.000000,4.000000,4.000000,4.000000,4.000000,4.000000,4.000000,4.000000,4.000000,100.000000,,,,,,,,,,,,,,,,
1644852716.160895,168.000000,0.000000,4242.179688,4212.692383,4208.846191,4200.128418,4210.512695,4208.205078,4209.487305,4209.102539,4204.871582,4213.717773,4198.589844,4198.077148,4207.948730,4189.615234,3479.000000,4.000000,91.000000,,,,0.000000,4.000000,4.000000,4.000000,4.000000,4.000000,4.000000,4.000000,4.000000,4.000000,4.000000,4.000000,4.000000,4.000000,4.000000,100.000000,,,,,,,,,,,,,,,,
1644852716.164836,169.000000,0.000000,4236.025879,4212.051270,4208.846191,4196.025879,4206.282227,4210.128418,4207.436035,4212.563965,4205.769043,4208.461426,4192.563965,4196.794922,4213.461426,4191.410156,3673.000000,4.000000,91.000000,,,,0.000000,4.000000,4.000000,4.000000,4.000000,4.000000,4.000000,4.000000,4.000000,4.000000,4.000000,4.000000,4.000000,4.000000,4.000000,100.000000,,,,,,,,,,,,,,,,
1644852716.168776,170.000000,0.000000,4231.025879,4212.051270,4212.948730,4194.358887,4206.666504,4211.666504,4206.922852,4216.538574,4207.948730,4206.666504,4190.897461,4198.077148,4219.230957,4195.128418,3533.000000,4.000000,91.000000,,,,0.000000,4.000000,4.000000,4.000000,4.000000,4.000000,4.000000,4.000000,4.000000,4.000000,4.000000,4.000000,4.000000,4.000000,4.000000,100.000000,,,,,,,,,,,,,,,,
1644852716.172716,171.000000,0.000000,4229.230957,4211.282227,4218.077148,4196.538574,4211.922852,4212.948730,4209.487305,4220.000000,4211.282227,4208.846191,4195.512695,4200.512695,4219.358887,4195.000000,3452.000000,4.000000,91.000000,,,,0.000000,4.000000,4.000000,4.000000,4.000000,4.000000,4.000000,4.000000,4.000000,4.000000,4.000000,4.000000,4.000000,4.000000,4.000000,100.000000,,,,,,,,,,,,,,,,
1644852716.176656,172.000000,0.000000,4230.384766,4209.871582,4220.641113,4201.922852,4218.846191,4214.871582,4213.333496,4222.436035,4215.384766,4213.205078,4204.487305,4201.922852,4212.692383,4187.820313,3479.000000,4.000000,91.000000,,,,0.000000,4.000000,4.000000,4.000000,4.000000,4.000000,4.000000,4.000000,4.000000,4.000000,4.000000,4.000000,4.000000,4.000000,4.000000,100.000000,,,,,,,,,,,,,,,,
1644852716.180596,173.000000,0.000000,4232.692383,4209.358887,4219.102539,4209.358887,4222.563965,4217.692383,4214.743652,4223.589844,4219.487305,4217.563965,4212.563965,4200.897461,4204.743652,4176.410156,3673.000000,4.000000,91.000000,,,,0.000000,4.000000,4.000000,4.000000,4.000000,4.000000,4.000000,4.000000,4.000000,4.000000,4.000000,4.000000,4.000000,4.000000,4.000000,100.000000,,,,,,,,,,,,,,,,
1644852716.184536,174.000000,0.000000,4233.846191,4211.025879,4214.871582,4217.692383,4220.512695,4219.743652,4212.436035,4223.461426,4222.051270,4220.256348,4215.000000,4197.820313,4201.666504,4167.051270,3533.000000,4.000000,91.000000,,,,0.000000,4.000000,4.000000,4.000000,4.000000,4.000000,4.000000,4.000000,4.000000,4.000000,4.000000,4.000000,4.000000,4.000000,4.000000,100.000000,,,,,,,,,,,,,,,,
1644852716.188476,175.000000,0.000000,4232.948730,4213.717773,4210.384766,4224.358887,4214.102539,4218.846191,4208.846191,4221.666504,4221.538574,4220.641113,4210.256348,4193.461426,4205.000000,4164.743652,3452.000000,4.000000,91.000000,,,,0.000000,4.000000,4.000000,4.000000,4.000000,4.000000,4.000000,4.000000,4.000000,4.000000,4.000000,4.000000,4.000000,4.000000,4.000000,100.000000,,,,,,,,,,,,,,,,
1644852716.192416,176.000000,0.000000,4230.897461,4214.487305,4206.538574,4225.128418,4207.179688,4214.615234,4207.307617,4218.333496,4217.563965,4218.077148,4200.897461,4188.846191,4211.153809,4170.000000,3479.000000,4.000000,91.000000,,,,0.000000,4.000000,4.000000,4.000000,4.000000,4.000000,4.000000,4.000000,4.000000,4.000000,4.000000,4.000000,4.000000,4.000000,4.000000,100.000000,,,,,,,,,,,,,,,,
1644852716.196356,177.000000,0.000000,4228.205078,4211.666504,4203.205078,4217.179688,4204.358887,4209.102539,4208.717773,4214.487305,4212.563965,4213.333496,4192.820313,4185.128418,4215.384766,4178.205078,3673.000000,4.000000,91.000000,,,,0.000000,4.000000,4.000000,4.000000,4.000000,4.000000,4.000000,4.000000,4.000000,4.000000,4.000000,4.000000,4.000000,4.000000,4.000000,100.000000,,,,,,,,,,,,,,,,
1644852716.200296,178.000000,0.000000,4224.358887,4206.153809,4200.769043,4202.948730,4208.077148,4206.153809,4210.384766,4211.794922,4210.000000,4209.102539,4191.666504,4184.102539,4216.282227,4183.077148,3533.000000,4.000000,91.000000,,,,0.000000,4.000000,4.000000,4.000000,4.000000,4.000000,4.000000,4.000000,4.000000,4.000000,4.000000,4.000000,4.000000,4.000000,4.000000,100.000000,,,,,,,,,,,,,,,,
1644852716.204336,179.000000,0.000000,4218.846191,4200.897461,4200.641113,4190.384766,4217.051270,4207.436035,4210.769043,4212.307617,4212.051270,4209.358887,4198.077148,4188.077148,4215.256348,4181.025879,3452.000000,4.000000,91.000000,,,,0.000000,4.000000,4.000000,4.000000,4.000000,4.000000,4.000000,4.000000,4.000000,4.000000,4.000000,4.000000,4.000000,4.000000,4.000000,100.000000,,,,,,,,,,,,,,,,
1644852716.208277,180.000000,0.000000,4213.333496,4198.205078,4203.974121,4188.589844,4226.153809,4211.794922,4211.153809,4216.538574,4217.692383,4216.025879,4207.051270,4197.436035,4214.487305,4174.102539,3479.000000,4.000000,91.000000,,,,0.000000,4.000000,4.000000,4.000000,4.000000,4.000000,4.000000,4.000000,4.000000,4.000000,4.000000,4.000000,4.000000,4.000000,4.000000,100.000000,,,,,,,,,,,,,,,,
1644852716.212217,181.000000,0.000000,4211.794922,4199.615234,4210.256348,4200.000000,4228.974121,4216.410156,4213.461426,4222.179688,4223.333496,4226.666504,4211.410156,4208.461426,4215.128418,4169.358887,3673.000000,4.000000,91.000000,,,,0.000000,4.000000,4.000000,4.000000,4.000000,4.000000,4.000000,4.000000,4.000000,4.000000,4.000000,4.000000,4.000000,4.000000,4.000000,100.000000,,,,,,,,,,,,,,,,
1644852716.216157,182.000000,0.000000,4217.820313,4205.000000,4216.538574,4217.948730,4223.333496,4219.230957,4217.307617,4226.025879,4225.256348,4235.769043,4209.230957,4216.410156,4217.179688,4173.717773,3533.000000,4.000000,91.000000,,,,0.000000,4.000000,4.000000,4.000000,4.000000,4.000000,4.000000,4.000000,4.000000,4.000000,4.000000,4.000000,4.000000,4.000000,4.000000,100.000000,,,,,,,,,,,,,,,,
1644852716.220097,183.000000,0.000000,4230.384766,4213.077148,4220.000000,4231.282227,4212.692383,4219.743652,4219.487305,4225.128418,4222.307617,4238.333496,4205.256348,4218.461426,4220.384766,4187.820313,3452.000000,4.000000,91.000000,,,,0.000000,4.000000,4.000000,4.000000,4.000000,4.000000,4.000000,4.000000,4.000000,4.000000,4.000000,4.000000,4.000000,4.000000,4.000000,100.000000,,,,,,,,,,,,,,,,
1644852716.224037,184.000000,0.000000,4243.077148,4220.897461,4219.487305,4232.436035,4204.102539,4218.333496,4217.948730,4219.743652,4215.641113,4233.205078,4204.487305,4215.128418,4223.333496,4203.846191,3479.000000,4.000000,91.000000,,,,0.000000,4.000000,4.000000,4.000000,4.000000,4.000000,4.000000,4.000000,4.000000,4.000000,4.000000,4.000000,4.000000,4.000000,4.000000,100.000000,,,,,,,,,,,,,,,,
1644852716.227977,185.000000,0.000000,4248.205078,4224.615234,4215.769043,4222.179688,4202.948730,4216.282227,4214.230957,4212.307617,4207.179688,4222.692383,4207.307617,4208.974121,4223.333496,4210.897461,3673.000000,4.000000,91.000000,,,,0.000000,4.000000,4.000000,4.000000,4.000000,4.000000,4.000000,4.000000,4.000000,4.000000,4.000000,4.000000,4.000000,4.000000,4.000000,100.000000,,,,,,,,,,,,,,,,
1644852716.231917,186.000000,0.000000,4242.820313,4222.051270,4210.769043,4208.077148,4209.487305,4214.615234,4212.179688,4206.666504,4199.487305,4211.025879,4209.487305,4202.179688,4218.589844,4203.974121,3533.000000,4.000000,91.000000,,,,0.000000,4.000000,4.000000,4.000000,4.000000,4.000000,4.000000,4.000000,4.000000,4.000000,4.000000,4.000000,4.000000,4.000000,4.000000,100.000000,,,,,,,,,,,,,,,,
1644852716.235857,187.000000,0.000000,4230.897461,4215.000000,4206.410156,4199.487305,4219.615234,4214.230957,4213.589844,4205.128418,4194.871582,4202.948730,4208.461426,4195.897461,4210.256348,4188.846191,3452.000000,4.000000,91.000000,,,,0.000000,4.000000,4.000000,4.000000,4.000000,4.000000,4.000000,4.000000,4.000000,4.000000,4.000000,4.000000,4.000000,4.000000,4.000000,100.000000,,,,,,,,,,,,,,,,
1644852716.239797,188.000000,0.000000,4221.025879,4208.461426,4203.461426,4201.153809,4227.051270,4215.897461,4216.282227,4207.307617,4194.615234,4201.666504,4205.897461,4191.282227,4202.563965,4178.205078,3479.000000,4.000000,91.000000,,,,0.000000,4.000000,4.000000,4.000000,4.000000,4.000000,4.000000,4.000000,4.000000,4.000000,4.000000,4.000000,4.000000,4.000000,4.000000,100.000000,,,,,,,,,,,,,,,,
1644852716.243738,189.000000,0.000000,4220.641113,4205.769043,4201.794922,4210.256348,4227.051270,4218.589844,4217.563965,4211.538574,4198.461426,4207.179688,4206.025879,4189.230957,4200.897461,4180.897461,3673.000000,4.000000,91.000000,,,,0.000000,4.000000,4.000000,4.000000,4.000000,4.000000,4.000000,4.000000,4.000000,4.000000,4.000000,4.000000,4.000000,4.000000,4.000000,100.000000,,,,,,,,,,,,,,,,
1644852716.247678,190.000000,0.000000,4230.000000,4205.256348,4201.025879,4219.102539,4218.717773,4220.512695,4217.307617,4216.025879,4205.128418,4215.256348,4210.641113,4190.000000,4208.333496,4195.641113,3533.000000,4.000000,91.000000,,,,0.000000,4.000000,4.000000,4.000000,4.000000,4.000000,4.000000,4.000000,4.000000,4.000000,4.000000,4.000000,4.000000,4.000000,4.000000,100.000000,,,,,,,,,,,,,,,,
1644852716.251618,191.000000,0.000000,4241.025879,4203.077148,4200.512695,4221.025879,4207.307617,4219.358887,4216.922852,4220.256348,4212.436035,4221.410156,4217.307617,4193.205078,4222.820313,4212.179688,3452.000000,4.000000,91.000000,,,,0.000000,4.000000,4.000000,4.000000,4.000000,4.000000,4.000000,4.000000,4.000000,4.000000,4.000000,4.000000,4.000000,4.000000,4.000000,100.000000,,,,,,,,,,,,,,,,
1644852716.255558,192.000000,0.000000,4243.589844,4198.333496,4200.641113,4215.769043,4200.641113,4214.743652,4217.051270,4224.358887,4218.974121,4223.717773,4221.666504,4198.077148,4237.563965,4220.256348,3479.000000,4.000000,91.000000,,,,0.000000,4.000000,4.000000,4.000000,4.000000,4.000000,4.000000,4.000000,4.000000,4.000000,4.000000,4.000000,4.000000,4.000000,4.000000,100.000000,,,,,,,,,,,,,,,,
1644852716.259498,193.000000,0.000000,4234.358887,4194.871582,4202.563965,4208.717773,4203.205078,4208.717773,4216.410156,4228.461426,4224.615234,4224.871582,4222.051270,4204.871582,4246.153809,4217.307617,3673.000000,4.000000,91.000000,,,,0.000000,4.000000,4.000000,4.000000,4.000000,4.000000,4.000000,4.000000,4.000000,4.000000,4.000000,4.000000,4.000000,4.000000,4.000000,100.000000,,,,,,,,,,,,,,,,
1644852716.263438,194.000000,0.000000,4220.256348,4197.436035,4206.410156,4205.256348,4212.692383,4205.512695,4214.487305,4232.307617,4230.256348,4229.358887,4221.410156,4212.563965,4246.025879,4208.974121,3533.000000,4.000000,91.000000,,,,0.000000,4.000000,4.000000,4.000000,4.000000,4.000000,4.000000,4.000000,4.000000,4.000000,4.000000,4.000000,4.000000,4.000000,4.000000,100.000000,,,,,,,,,,,,,,,,
1644852716.267378,195.000000,0.000000,4212.692383,4207.179688,4211.025879,4206.538574,4221.666504,4207.307617,4213.333496,4235.512695,4235.512695,4238.974121,4223.205078,4218.717773,4240.512695,4204.230957,3452.000000,4.000000,91.000000,,,,0.000000,4.000000,4.000000,4.000000,4.000000,4.000000,4.000000,4.000000,4.000000,4.000000,4.000000,4.000000,4.000000,4.000000,4.000000,100.000000,,,,,,,,,,,,,,,,
1644852716.271318,196.000000,0.000000,4218.077148,4220.128418,4215.000000,4210.256348,4224.358887,4212.436035,4215.256348,4237.692383,4239.102539,4251.025879,4228.333496,4220.512695,4235.897461,4207.307617,3479.000000,4.000000,91.000000,,,,0.000000,4.000000,4.000000,4.000000,4.000000,4.000000,4.000000,4.000000,4.000000,4.000000,4.000000,4.000000,4.000000,4.000000,4.000000,100.000000,,,,,,,,,,,,,,,,
1644852716.275258,197.000000,0.000000,4232.948730,4230.000000,4217.179688,4214.102539,4220.769043,4216.922852,4220.128418,4238.589844,4240.384766,4260.512695,4234.230957,4216.922852,4236.282227,4215.384766,3673.000000,4.000000,91.000000,,,,0.000000,4.000000,4.000000,4.000000,4.000000,4.000000,4.000000,4.000000,4.000000,4.000000,4.000000,4.000000,4.000000,4.000000,4.000000,100.000000,,,,,,,,,,,,,,,,
1644852716.279298,198.000000,0.000000,4248.333496,4232.820313,4217.179688,4218.205078,4216.025879,4217.948730,4223.974121,4238.333496,4240.128418,4264.743652,4237.307617,4211.153809,4241.666504,4221.282227,3533.000000,4.000000,91.000000,,,,0.000000,4.000000,4.000000,4.000000,4.000000,4.000000,4.000000,4.000000,4.000000,4.000000,4.000000,4.000000,4.000000,4.000000,4.000000,100.000000,,,,,,,,,,,,,,,,
1644852716.283238,199.000000,0.000000,4256.538574,4228.974121,4216.025879,4222.820313,4215.769043,4215.641113,4223.846191,4237.051270,4239.615234,4264.102539,4236.025879,4207.692383,4247.563965,4220.128418,3452.000000,4.000000,91.000000,,,,0.000000,4.000000,4.000000,4.000000,4.000000,4.000000,4.000000,4.000000,4.000000,4.000000,4.000000,4.000000,4.000000,4.000000,4.000000,100.000000,,,,,,,,,,,,,,,,
1644852716.287179,200.000000,0.000000,4255.897461,4221.282227,4215.000000,4226.153809,4219.615234,4212.692383,4220.897461,4235.000000,4239.102539,4260.512695,4231.666504,4209.102539,4248.846191,4213.205078,3479.000000,4.000000,91.000000,,,,0.000000,4.000000,4.000000,4.000000,4.000000,4.000000,4.000000,4.000000,4.000000,4.000000,4.000000,4.000000,4.000000,4.000000,4.000000,100.000000,,,,,,,,,,,,,,,,
1644852716.291119,201.000000,0.000000,4249.743652,4213.205078,4215.128418,4224.487305,4222.179688,4210.769043,4218.205078,4232.307617,4236.794922,4254.871582,4227.307617,4213.717773,4243.333496,4206.410156,3673.000000,4.000000,91.000000,,,,0.000000,4.000000,4.000000,4.000000,4.000000,4.000000,4.000000,4.000000,4.000000,4.000000,4.000000,4.000000,4.000000,4.000000,4.000000,100.000000,,,,,,,,,,,,,,,,
1644852716.295059,202.000000,0.000000,4242.051270,4206.153809,4215.769043,4216.538574,4218.846191,4210.000000,4217.563965,4228.589844,4231.153809,4247.820313,4225.384766,4217.051270,4232.948730,4205.000000,3533.000000,4.000000,91.000000,,,,0.000000,4.000000,4.000000,4.000000,4.000000,4.000000,4.000000,4.000000,4.000000,4.000000,4.000000,4.000000,4.000000,4.000000,4.000000,100.000000,,,,,,,,,,,,,,,,
1644852716.298999,203.000000,0.000000,4235.512695,4200.512695,4215.384766,4206.153809,4210.641113,4208.846191,4217.948730,4223.846191,4223.205078,4239.743652,4226.153809,4215.897461,4222.820313,4210.128418,3452.000000,4.000000,91.000000,,,,0.000000,4.000000,4.000000,4.000000,4.000000,4.000000,4.000000,4.000000,4.000000,4.000000,4.000000,4.000000,4.000000,4.000000,4.000000,100.000000,,,,,,,,,,,,,,,,
1644852716.302939,204.000000,0.000000,4231.666504,4197.436035,4213.717773,4199.871582,4203.333496,4207.692383,4217.692383,4219.358887,4216.922852,4232.179688,4227.051270,4211.666504,4218.077148,4219.230957,3479.000000,4.000000,91.000000,,,,0.000000,4.000000,4.000000,4.000000,4.000000,4.000000,4.000000,4.000000,4.000000,4.000000,4.000000,4.000000,4.000000,4.000000,4.000000,100.000000,,,,,,,,,,,,,,,,
1644852716.306879,205.000000,0.000000,4231.410156,4198.717773,4212.051270,4202.051270,4202.307617,4208.461426,4217.820313,4217.692383,4215.384766,4225.897461,4225.384766,4208.717773,4220.384766,4227.179688,3673.000000,4.000000,91.000000,,,,0.000000,4.000000,4.000000,4.000000,4.000000,4.000000,4.000000,4.000000,4.000000,4.000000,4.000000,4.000000,4.000000,4.000000,4.000000,100.000000,,,,,,,,,,,,,,,,
1644852716.310819,206.000000,0.000000,4234.743652,4204.615234,4212.948730,4211.666504,4208.333496,4212.051270,4219.871582,4220.000000,4218.205078,4222.051270,4221.282227,4211.025879,4227.436035,4229.102539,3533.000000,4.000000,91.000000,,,,0.000000,4.000000,4.000000,4.000000,4.000000,4.000000,4.000000,4.000000,4.000000,4.000000,4.000000,4.000000,4.000000,4.000000,4.000000,100.000000,,,,,,,,,,,,,,,,
1644852716.314759,207.000000,0.000000,4240.384766,4212.820313,4217.051270,4222.307617,4218.205078,4217.179688,4223.205078,4224.487305,4222.179688,4221.922852,4217.179688,4218.717773,4235.128418,4223.333496,3452.000000,4.000000,91.000000,,,,0.000000,4.000000,4.000000,4.000000,4.000000,4.000000,4.000000,4.000000,4.000000,4.000000,4.000000,4.000000,4.000000,4.000000,4.000000,100.000000,,,,,,,,,,,,,,,,
1644852716.318699,208.000000,0.000000,4246.538574,4218.717773,4222.563965,4226.666504,4226.410156,4220.512695,4224.358887,4227.179688,4223.333496,4225.512695,4216.538574,4226.538574,4239.743652,4213.461426,3479.000000,4.000000,91.000000,,,,0.000000,4.000000,4.000000,4.000000,4.000000,4.000000,4.000000,4.000000,4.000000,4.000000,4.000000,4.000000,4.000000,4.000000,4.000000,100.000000,,,,,,,,,,,,,,,,
1644852716.322640,209.000000,0.000000,4250.128418,4218.589844,4225.256348,4221.153809,4228.077148,4218.974121,4220.641113,4225.128418,4220.384766,4230.000000,4219.743652,4228.333496,4238.974121,4206.025879,3673.000000,4.000000,91.000000,,,,0.000000,4.000000,4.000000,4.000000,4.000000,4.000000,4.000000,4.000000,4.000000,4.000000,4.000000,4.000000,4.000000,4.000000,4.000000,100.000000,,,,,,,,,,,,,,,,
1644852716.326580,210.000000,0.000000,4247.820313,4212.307617,4222.436035,4209.230957,4222.051270,4212.948730,4213.717773,4218.846191,4214.487305,4231.282227,4223.974121,4221.922852,4232.051270,4205.512695,3533.000000,4.000000,91.000000,,,,0.000000,4.000000,4.000000,4.000000,4.000000,4.000000,4.000000,4.000000,4.000000,4.000000,4.000000,4.000000,4.000000,4.000000,4.000000,100.000000,,,,,,,,,,,,,,,,
1644852716.330520,211.000000,0.000000,4239.487305,4204.230957,4215.897461,4200.128418,4212.307617,4206.410156,4208.846191,4212.307617,4208.077148,4227.307617,4225.256348,4211.410156,4220.512695,4210.641113,3452.000000,4.000000,91.000000,,,,0.000000,4.000000,4.000000,4.000000,4.000000,4.000000,4.000000,4.000000,4.000000,4.000000,4.000000,4.000000,4.000000,4.000000,4.000000,100.000000,,,,,,,,,,,,,,,,
1644852716.334460,212.000000,0.000000,4229.743652,4200.128418,4210.769043,4201.666504,4205.128418,4203.974121,4209.487305,4209.102539,4203.717773,4220.512695,4222.179688,4204.230957,4209.358887,4216.025879,3479.000000,4.000000,91.000000,,,,0.000000,4.000000,4.000000,4.000000,4.000000,4.000000,4.000000,4.000000,4.000000,4.000000,4.000000,4.000000,4.000000,4.000000,4.000000,100.000000,,,,,,,,,,,,,,,,
1644852716.338400,213.000000,0.000000,4224.743652,4202.820313,4211.153809,4214.102539,4205.512695,4207.692383,4214.230957,4210.256348,4202.820313,4215.256348,4216.794922,4205.512695,4203.589844,4216.153809,3673.000000,4.000000,91.000000,,,,0.000000,4.000000,4.000000,4.000000,4.000000,4.000000,4.000000,4.000000,4.000000,4.000000,4.000000,4.000000,4.000000,4.000000,4.000000,100.000000,,,,,,,,,,,,,,,,
1644852716.342340,214.000000,0.000000,4227.436035,4210.384766,4216.794922,4228.717773,4213.333496,4214.743652,4218.717773,4213.205078,4204.871582,4214.102539,4212.692383,4213.717773,4205.897461,4210.256348,3533.000000,4.000000,91.000000,,,,0.000000,4.000000,4.000000,4.000000,4.000000,4.000000,4.000000,4.000000,4.000000,4.000000,4.000000,4.000000,4.000000,4.000000,4.000000,100.000000,,,,,,,,,,,,,,,,
1644852716.346280,215.000000,0.000000,4234.230957,4218.077148,4223.461426,4235.000000,4222.948730,4219.871582,4220.384766,4215.000000,4207.948730,4215.769043,4211.025879,4221.794922,4213.461426,4203.461426,3452.000000,4.000000,91.000000,,,,0.000000,4.000000,4.000000,4.000000,4.000000,4.000000,4.000000,4.000000,4.000000,4.000000,4.000000,4.000000,4.000000,4.000000,4.000000,100.000000,,,,,,,,,,,,,,,,
1644852716.350220,216.000000,0.000000,4238.589844,4222.307617,4226.282227,4228.974121,4227.436035,4219.743652,4220.128418,4214.102539,4209.487305,4217.436035,4211.025879,4222.307617,4221.153809,4201.922852,3479.000000,4.000000,91.000000,,,,0.000000,4.000000,4.000000,4.000000,4.000000,4.000000,4.000000,4.000000,4.000000,4.000000,4.000000,4.000000,4.000000,4.000000,4.000000,100.000000,,,,,,,,,,,,,,,,
1644852716.354260,217.000000,0.000000,4237.179688,4222.436035,4223.205078,4215.512695,4222.563965,4215.512695,4219.358887,4211.153809,4208.589844,4216.794922,4211.410156,4213.333496,4224.871582,4208.333496,3673.000000,4.000000,91.000000,,,,0.000000,4.000000,4.000000,4.000000,4.000000,4.000000,4.000000,4.000000,4.000000,4.000000,4.000000,4.000000,4.000000,4.000000,4.000000,100.000000,,,,,,,,,,,,,,,,
1644852716.358200,218.000000,0.000000,4232.307617,4218.974121,4216.153809,4203.846191,4211.025879,4210.897461,4217.692383,4208.589844,4206.025879,4213.974121,4211.666504,4199.487305,4223.717773,4218.077148,3533.000000,4.000000,91.000000,,,,0.000000,4.000000,4.000000,4.000000,4.000000,4.000000,4.000000,4.000000,4.000000,4.000000,4.000000,4.000000,4.000000,4.000000,4.000000,100.000000,,,,,,,,,,,,,,,,
1644852716.362140,219.000000,0.000000,4228.846191,4213.205078,4209.743652,4199.358887,4200.128418,4208.205078,4214.487305,4208.205078,4204.102539,4210.512695,4211.410156,4188.077148,4219.102539,4223.077148,3452.000000,4.000000,91.000000,,,,0.000000,4.000000,4.000000,4.000000,4.000000,4.000000,4.000000,4.000000,4.000000,4.000000,4.000000,4.000000,4.000000,4.000000,4.000000,100.000000,,,,,,,,,,,,,,,,
1644852716.366081,220.000000,0.000000,4229.358887,4206.794922,4207.692383,4201.153809,4197.179688,4207.051270,4211.025879,4210.128418,4204.487305,4207.948730,4209.871582,4184.358887,4212.820313,4218.589844,3479.000000,4.000000,91.000000,,,,0.000000,4.000000,4.000000,4.000000,4.000000,4.000000,4.000000,4.000000,4.000000,4.000000,4.000000,4.000000,4.000000,4.000000,4.000000,100.000000,,,,,,,,,,,,,,,,
1644852716.370121,221.000000,0.000000,4232.948730,4202.436035,4210.897461,4205.897461,4204.102539,4206.153809,4210.512695,4213.589844,4206.538574,4207.820313,4207.051270,4188.717773,4205.897461,4207.692383,3673.000000,4.000000,91.000000,,,,0.000000,4.000000,4.000000,4.000000,4.000000,4.000000,4.000000,4.000000,4.000000,4.000000,4.000000,4.000000,4.000000,4.000000,4.000000,100.000000,,,,,,,,,,,,,,,,
1644852716.374061,222.000000,0.000000,4237.051270,4202.307617,4216.025879,4211.153809,4215.897461,4204.743652,4213.333496,4216.538574,4208.461426,4210.128418,4204.487305,4197.051270,4200.128418,4198.589844,3533.000000,4.000000,91.000000,,,,0.000000,4.000000,4.000000,4.000000,4.000000,4.000000,4.000000,4.000000,4.000000,4.000000,4.000000,4.000000,4.000000,4.000000,4.000000,100.000000,,,,,,,,,,,,,,,,
1644852716.378001,223.000000,0.000000,4239.615234,4206.922852,4219.230957,4216.282227,4225.128418,4203.846191,4216.666504,4217.563965,4208.717773,4213.974121,4203.846191,4203.589844,4197.179688,4197.948730,3452.000000,4.000000,91.000000,,,,0.000000,4.000000,4.000000,4.000000,4.000000,4.000000,4.000000,4.000000,4.000000,4.000000,4.000000,4.000000,4.000000,4.000000,4.000000,100.000000,,,,,,,,,,,,,,,,
1644852716.381941,224.000000,0.000000,4239.871582,4214.615234,4218.333496,4221.153809,4226.538574,4204.487305,4217.051270,4216.666504,4207.948730,4218.077148,4206.025879,4204.871582,4198.461426,4205.897461,3479.000000,4.000000,91.000000,,,,0.000000,4.000000,4.000000,4.000000,4.000000,4.000000,4.000000,4.000000,4.000000,4.000000,4.000000,4.000000,4.000000,4.000000,4.000000,100.000000,,,,,,,,,,,,,,,,
1644852716.385881,225.000000,0.000000,4238.077148,4221.282227,4214.102539,4224.487305,4220.512695,4205.769043,4214.102539,4215.000000,4207.051270,4220.384766,4209.358887,4200.512695,4202.820313,4215.897461,3673.000000,4.000000,91.000000,,,,0.000000,4.000000,4.000000,4.000000,4.000000,4.000000,4.000000,4.000000,4.000000,4.000000,4.000000,4.000000,4.000000,4.000000,4.000000,100.000000,,,,,,,,,,,,,,,,
1644852716.389821,226.000000,0.000000,4234.102539,4222.179688,4209.230957,4224.358887,4211.794922,4205.512695,4211.025879,4213.589844,4206.538574,4219.743652,4210.512695,4193.717773,4207.948730,4219.358887,3533.000000,4.000000,91.000000,,,,0.000000,4.000000,4.000000,4.000000,4.000000,4.000000,4.000000,4.000000,4.000000,4.000000,4.000000,4.000000,4.000000,4.000000,4.000000,100.000000,,,,,,,,,,,,,,,,
