title:Alex-K3ytKxbO-wYmB8c6ctSITA, start timestamp:1644854044.204474, stop timestamp:1644854070.192410, headset type:EPOCPLUS, headset serial:3B9AEBFF, headset firmware:626, channels:55, sampling rate:eeg_256, samples:6597      , version:2.1, 
Timestamp,EEG.Counter,EEG.Interpolated,EEG.AF3,EEG.F7,EEG.F3,EEG.FC5,EEG.T7,EEG.P7,EEG.O1,EEG.O2,EEG.P8,EEG.T8,EEG.FC6,EEG.F4,EEG.F8,EEG.AF4,EEG.RawCq,EEG.Battery,EEG.BatteryPercent,MarkerIndex,MarkerType,MarkerValueInt,EEG.MarkerHardware,CQ.AF3,CQ.F7,CQ.F3,CQ.FC5,CQ.T7,CQ.P7,CQ.O1,CQ.O2,CQ.P8,CQ.T8,CQ.FC6,CQ.F4,CQ.F8,CQ.AF4,CQ.Overall,EQ.SampleRateQuality,EQ.OVERALL,EQ.AF3,EQ.F7,EQ.F3,EQ.FC5,EQ.T7,EQ.P7,EQ.O1,EQ.O2,EQ.P8,EQ.T8,EQ.FC6,EQ.F4,EQ.F8,EQ.AF4
1644854044.204474,14.000000,0.000000,4250.769043,4229.871582,4208.589844,4262.820313,4224.743652,4217.692383,4217.820313,4225.769043,4223.205078,4232.179688,4247.179688,4181.410156,4246.153809,4315.384766,3362.000000,4.000000,86.000000,,,,0.000000,4.000000,4.000000,4.000000,4.000000,4.000000,4.000000,4.000000,4.000000,4.000000,4.000000,4.000000,4.000000,4.000000,4.000000,100.000000,,,,,,,,,,,,,,,,
1644854044.208314,15.000000,0.000000,4249.230957,4231.025879,4206.410156,4262.820313,4226.922852,4220.769043,4214.871582,4224.102539,4220.897461,4226.538574,4235.641113,4182.179688,4245.769043,4315.256348,2472.000000,4.000000,86.000000,,,,0.000000,4.000000,4.000000,4.000000,4.000000,4.000000,4.000000,4.000000,4.000000,4.000000,4.000000,4.000000,4.000000,4.000000,4.000000,100.000000,,,,,,,,,,,,,,,,
1644854044.212254,16.000000,0.000000,4260.512695,4235.897461,4207.948730,4267.436035,4229.615234,4223.461426,4212.051270,4222.436035,4219.743652,4225.384766,4232.307617,4187.563965,4241.410156,4311.666504,3492.000000,4.000000,86.000000,,,,0.000000,4.000000,4.000000,4.000000,4.000000,4.000000,4.000000,4.000000,4.000000,4.000000,4.000000,4.000000,4.000000,4.000000,4.000000,100.000000,,,,,,,,,,,,,,,,
1644854044.216194,17.000000,0.000000,4279.615234,4242.179688,4212.820313,4276.538574,4231.666504,4224.358887,4212.563965,4222.051270,4220.256348,4229.358887,4239.615234,4195.256348,4237.820313,4307.051270,3485.000000,4.000000,86.000000,,,,0.000000,4.000000,4.000000,4.000000,4.000000,4.000000,4.000000,4.000000,4.000000,4.000000,4.000000,4.000000,4.000000,4.000000,4.000000,100.000000,,,,,,,,,,,,,,,,
1644854044.220134,18.000000,0.000000,4296.666504,4247.436035,4219.102539,4284.487305,4231.922852,4223.333496,4215.000000,4223.205078,4221.922852,4235.769043,4250.897461,4201.153809,4239.230957,4304.102539,3362.000000,4.000000,86.000000,,,,0.000000,4.000000,4.000000,4.000000,4.000000,4.000000,4.000000,4.000000,4.000000,4.000000,4.000000,4.000000,4.000000,4.000000,4.000000,100.000000,,,,,,,,,,,,,,,,
1644854044.224074,19.000000,0.000000,4302.692383,4249.615234,4224.358887,4285.256348,4230.897461,4221.922852,4216.410156,4224.743652,4223.846191,4240.256348,4256.666504,4201.794922,4245.641113,4304.358887,2472.000000,4.000000,86.000000,,,,0.000000,4.000000,4.000000,4.000000,4.000000,4.000000,4.000000,4.000000,4.000000,4.000000,4.000000,4.000000,4.000000,4.000000,4.000000,100.000000,,,,,,,,,,,,,,,,
1644854044.228015,20.000000,0.000000,4295.897461,4248.461426,4226.922852,4278.846191,4231.025879,4221.794922,4215.769043,4225.128418,4224.743652,4240.512695,4254.230957,4198.077148,4252.948730,4309.230957,3492.000000,4.000000,86.000000,,,,0.000000,4.000000,4.000000,4.000000,4.000000,4.000000,4.000000,4.000000,4.000000,4.000000,4.000000,4.000000,4.000000,4.000000,4.000000,100.000000,,,,,,,,,,,,,,,,
1644854044.231955,21.000000,0.000000,4282.307617,4245.000000,4226.922852,4271.410156,4233.717773,4223.589844,4215.256348,4224.743652,4223.974121,4237.051270,4247.692383,4193.846191,4255.769043,4318.205078,3485.000000,4.000000,86.000000,,,,0.000000,4.000000,4.000000,4.000000,4.000000,4.000000,4.000000,4.000000,4.000000,4.000000,4.000000,4.000000,4.000000,4.000000,4.000000,100.000000,,,,,,,,,,,,,,,,
1644854044.235895,22.000000,0.000000,4270.000000,4241.153809,4224.230957,4270.256348,4236.538574,4226.282227,4216.794922,4224.102539,4222.179688,4233.205078,4243.846191,4192.820313,4251.922852,4327.307617,3362.000000,4.000000,86.000000,,,,0.000000,4.000000,4.000000,4.000000,4.000000,4.000000,4.000000,4.000000,4.000000,4.000000,4.000000,4.000000,4.000000,4.000000,4.000000,100.000000,,,,,,,,,,,,,,,,
1644854044.239835,23.000000,0.000000,4264.358887,4238.846191,4219.230957,4277.436035,4234.487305,4227.820313,4219.358887,4223.717773,4220.769043,4232.051270,4245.641113,4195.128418,4244.358887,4330.769043,2472.000000,4.000000,86.000000,,,,0.000000,4.000000,4.000000,4.000000,4.000000,4.000000,4.000000,4.000000,4.000000,4.000000,4.000000,4.000000,4.000000,4.000000,4.000000,100.000000,,,,,,,,,,,,,,,,
1644854044.243775,24.000000,0.000000,4266.153809,4239.230957,4213.461426,4288.974121,4226.282227,4227.563965,4220.641113,4223.461426,4220.769043,4234.358887,4251.282227,4197.436035,4239.358887,4327.051270,3492.000000,4.000000,86.000000,,,,0.000000,4.000000,4.000000,4.000000,4.000000,4.000000,4.000000,4.000000,4.000000,4.000000,4.000000,4.000000,4.000000,4.000000,4.000000,100.000000,,,,,,,,,,,,,,,,
1644854044.247715,25.000000,0.000000,4272.948730,4243.077148,4210.128418,4297.692383,4216.794922,4226.922852,4220.256348,4223.333496,4221.794922,4238.846191,4256.666504,4196.666504,4241.922852,4320.641113,3485.000000,4.000000,86.000000,,,,0.000000,4.000000,4.000000,4.000000,4.000000,4.000000,4.000000,4.000000,4.000000,4.000000,4.000000,4.000000,4.000000,4.000000,4.000000,100.000000,,,,,,,,,,,,,,,,
1644854044.251655,26.000000,0.000000,4281.282227,4249.871582,4211.410156,4298.205078,4213.974121,4227.436035,4220.256348,4223.205078,4222.436035,4242.563965,4258.461426,4192.051270,4250.769043,4318.077148,3362.000000,4.000000,86.000000,,,,0.000000,4.000000,4.000000,4.000000,4.000000,4.000000,4.000000,4.000000,4.000000,4.000000,4.000000,4.000000,4.000000,4.000000,4.000000,100.000000,,,,,,,,,,,,,,,,
1644854044.255595,27.000000,0.000000,4288.846191,4257.307617,4216.666504,4289.615234,4221.794922,4229.615234,4222.692383,4223.589844,4221.922852,4243.974121,4256.922852,4186.153809,4258.846191,4320.384766,2472.000000,4.000000,86.000000,,,,0.000000,4.000000,4.000000,4.000000,4.000000,4.000000,4.000000,4.000000,4.000000,4.000000,4.000000,4.000000,4.000000,4.000000,4.000000,100.000000,,,,,,,,,,,,,,,,
1644854044.259535,28.000000,0.000000,4293.461426,4261.666504,4222.051270,4277.051270,4237.179688,4232.179688,4226.153809,4224.615234,4221.025879,4243.589844,4254.615234,4183.461426,4260.512695,4323.333496,3492.000000,4.000000,86.000000,,,,0.000000,4.000000,4.000000,4.000000,4.000000,4.000000,4.000000,4.000000,4.000000,4.000000,4.000000,4.000000,4.000000,4.000000,4.000000,100.000000,1.000000,83.333336,4.000000,4.000000,3.000000,4.000000,4.000000,4.000000,4.000000,4.000000,4.000000,4.000000,4.000000,4.000000,4.000000,3.000000
1644854044.263475,29.000000,0.000000,4293.333496,4260.512695,4224.358887,4269.102539,4252.948730,4233.846191,4227.563965,4225.897461,4221.410156,4242.563965,4254.230957,4187.307617,4255.512695,4321.922852,3485.000000,4.000000,86.000000,,,,0.000000,4.000000,4.000000,4.000000,4.000000,4.000000,4.000000,4.000000,4.000000,4.000000,4.000000,4.000000,4.000000,4.000000,4.000000,100.000000,,,,,,,,,,,,,,,,
1644854044.267416,30.000000,0.000000,4288.589844,4254.615234,4223.461426,4272.563965,4261.410156,4233.717773,4225.256348,4227.563965,4223.717773,4241.922852,4256.025879,4196.153809,4248.461426,4316.794922,3362.000000,4.000000,86.000000,,,,0.000000,4.000000,4.000000,4.000000,4.000000,4.000000,4.000000,4.000000,4.000000,4.000000,4.000000,4.000000,4.000000,4.000000,4.000000,100.000000,,,,,,,,,,,,,,,,
1644854044.271356,31.000000,0.000000,4282.307617,4247.948730,4221.282227,4286.666504,4259.615234,4231.666504,4220.897461,4229.615234,4226.538574,4241.025879,4257.563965,4204.102539,4243.974121,4313.205078,2472.000000,4.000000,86.000000,,,,0.000000,4.000000,4.000000,4.000000,4.000000,4.000000,4.000000,4.000000,4.000000,4.000000,4.000000,4.000000,4.000000,4.000000,4.000000,100.000000,,,,,,,,,,,,,,,,
1644854044.275296,32.000000,0.000000,4278.589844,4244.358887,4219.871582,4302.051270,4249.487305,4228.717773,4217.563965,4231.282227,4227.948730,4238.717773,4257.051270,4205.769043,4243.205078,4314.615234,0.000000,4.000000,86.000000,,,,0.000000,4.000000,4.000000,4.000000,4.000000,4.000000,4.000000,4.000000,4.000000,4.000000,4.000000,4.000000,4.000000,4.000000,4.000000,100.000000,,,,,,,,,,,,,,,,
1644854044.279336,33.000000,0.000000,4279.358887,4244.743652,4219.230957,4306.922852,4236.922852,4226.025879,4216.025879,4231.410156,4227.051270,4234.615234,4254.358887,4200.384766,4244.358887,4318.589844,0.000000,4.000000,86.000000,,,,0.000000,4.000000,4.000000,4.000000,4.000000,4.000000,4.000000,4.000000,4.000000,4.000000,4.000000,4.000000,4.000000,4.000000,4.000000,100.000000,,,,,,,,,,,,,,,,
1644854044.283276,34.000000,0.000000,4281.922852,4247.307617,4218.205078,4296.538574,4228.077148,4224.743652,4215.512695,4229.615234,4224.615234,4230.641113,4251.025879,4192.051270,4245.384766,4319.615234,0.000000,4.000000,86.000000,,,,0.000000,4.000000,4.000000,4.000000,4.000000,4.000000,4.000000,4.000000,4.000000,4.000000,4.000000,4.000000,4.000000,4.000000,4.000000,100.000000,,,,,,,,,,,,,,,,
1644854044.287216,35.000000,0.000000,4281.794922,4249.615234,4215.897461,4276.922852,4226.666504,4223.974121,4215.128418,4227.563965,4222.563965,4230.000000,4248.974121,4186.025879,4244.871582,4314.743652,0.000000,4.000000,86.000000,,,,0.000000,4.000000,4.000000,4.000000,4.000000,4.000000,4.000000,4.000000,4.000000,4.000000,4.000000,4.000000,4.000000,4.000000,4.000000,100.000000,,,,,,,,,,,,,,,,
1644854044.291156,36.000000,0.000000,4277.051270,4250.641113,4213.846191,4260.512695,4230.897461,4222.948730,4215.769043,4227.436035,4222.436035,4234.487305,4247.820313,4185.000000,4243.333496,4307.179688,0.000000,4.000000,86.000000,,,,0.000000,4.000000,4.000000,4.000000,4.000000,4.000000,4.000000,4.000000,4.000000,4.000000,4.000000,4.000000,4.000000,4.000000,4.000000,100.000000,,,,,,,,,,,,,,,,
1644854044.295096,37.000000,0.000000,4270.256348,4250.897461,4213.846191,4256.282227,4234.743652,4221.666504,4217.948730,4230.128418,4224.615234,4241.666504,4246.794922,4187.563965,4241.538574,4302.563965,0.000000,4.000000,86.000000,,,,0.000000,4.000000,4.000000,4.000000,4.000000,4.000000,4.000000,4.000000,4.000000,4.000000,4.000000,4.000000,4.000000,4.000000,4.000000,100.000000,,,,,,,,,,,,,,,,
1644854044.299036,38.000000,0.000000,4266.282227,4250.641113,4215.769043,4264.230957,4231.922852,4220.769043,4220.128418,4233.333496,4227.563965,4246.410156,4245.641113,4190.384766,4240.512695,4302.692383,0.000000,4.000000,86.000000,,,,0.000000,4.000000,4.000000,4.000000,4.000000,4.000000,4.000000,4.000000,4.000000,4.000000,4.000000,4.000000,4.000000,4.000000,4.000000,100.000000,,,,,,,,,,,,,,,,
1644854044.302976,39.000000,0.000000,4268.077148,4248.974121,4216.922852,4277.179688,4221.282227,4220.384766,4219.358887,4233.846191,4229.102539,4244.615234,4245.641113,4190.769043,4240.897461,4304.871582,0.000000,4.000000,86.000000,,,,0.000000,4.000000,4.000000,4.000000,4.000000,4.000000,4.000000,4.000000,4.000000,4.000000,4.000000,4.000000,4.000000,4.000000,4.000000,100.000000,,,,,,,,,,,,,,,,
1644854044.306917,40.000000,0.000000,4273.846191,4244.743652,4214.358887,4286.538574,4207.307617,4219.743652,4215.128418,4229.743652,4227.563965,4236.922852,4247.307617,4187.948730,4242.563965,4305.000000,0.000000,4.000000,86.000000,,,,0.000000,4.000000,4.000000,4.000000,4.000000,4.000000,4.000000,4.000000,4.000000,4.000000,4.000000,4.000000,4.000000,4.000000,4.000000,100.000000,,,,,,,,,,,,,,,,
1644854044.310857,41.000000,0.000000,4278.333496,4237.948730,4209.102539,4287.692383,4197.820313,4218.717773,4210.256348,4223.333496,4223.077148,4227.820313,4249.487305,4184.102539,4244.230957,4302.436035,0.000000,4.000000,86.000000,,,,0.000000,4.000000,4.000000,4.000000,4.000000,4.000000,4.000000,4.000000,4.000000,4.000000,4.000000,4.000000,4.000000,4.000000,4.000000,100.000000,,,,,,,,,,,,,,,,
1644854044.314797,42.000000,0.000000,4277.692383,4230.897461,4204.743652,4282.563965,4198.846191,4217.948730,4208.333496,4218.589844,4218.205078,4222.051270,4251.282227,4181.922852,4243.589844,4300.512695,0.000000,4.000000,86.000000,,,,0.000000,4.000000,4.000000,4.000000,4.000000,4.000000,4.000000,4.000000,4.000000,4.000000,4.000000,4.000000,4.000000,4.000000,4.000000,100.000000,,,,,,,,,,,,,,,,
1644854044.318737,43.000000,0.000000,4272.948730,4227.051270,4204.230957,4277.051270,4211.922852,4218.077148,4210.128418,4218.205078,4215.769043,4221.922852,4252.051270,4182.563965,4239.487305,4302.563965,0.000000,4.000000,86.000000,,,,0.000000,4.000000,4.000000,4.000000,4.000000,4.000000,4.000000,4.000000,4.000000,4.000000,4.000000,4.000000,4.000000,4.000000,4.000000,100.000000,,,,,,,,,,,,,,,,
1644854044.322677,44.000000,0.000000,4268.333496,4228.717773,4206.794922,4276.410156,4231.153809,4218.461426,4212.820313,4221.153809,4216.794922,4226.538574,4251.282227,4184.871582,4232.436035,4307.948730,0.000000,4.000000,86.000000,,,,0.000000,4.000000,4.000000,4.000000,4.000000,4.000000,4.000000,4.000000,4.000000,4.000000,4.000000,4.000000,4.000000,4.000000,4.000000,100.000000,,,,,,,,,,,,,,,,
1644854044.326617,45.000000,0.000000,4266.025879,4234.102539,4208.974121,4279.487305,4246.025879,4218.205078,4213.717773,4224.615234,4219.871582,4232.436035,4247.563965,4186.538574,4224.871582,4312.692383,0.000000,4.000000,86.000000,,,,0.000000,4.000000,4.000000,4.000000,4.000000,4.000000,4.000000,4.000000,4.000000,4.000000,4.000000,4.000000,4.000000,4.000000,4.000000,100.000000,,,,,,,,,,,,,,,,
1644854044.330557,46.000000,0.000000,4265.128418,4238.846191,4208.589844,4280.000000,4247.692383,4217.179688,4213.333496,4226.794922,4222.436035,4235.897461,4240.000000,4185.897461,4220.000000,4313.461426,0.000000,4.000000,86.000000,,,,0.000000,4.000000,4.000000,4.000000,4.000000,4.000000,4.000000,4.000000,4.000000,4.000000,4.000000,4.000000,4.000000,4.000000,4.000000,100.000000,,,,,,,,,,,,,,,,
1644854044.334497,47.000000,0.000000,4263.461426,4238.846191,4206.153809,4273.974121,4236.410156,4216.153809,4213.717773,4227.436035,4223.077148,4234.743652,4230.128418,4183.846191,4221.025879,4309.743652,0.000000,4.000000,86.000000,,,,0.000000,4.000000,4.000000,4.000000,4.000000,4.000000,4.000000,4.000000,4.000000,4.000000,4.000000,4.000000,4.000000,4.000000,4.000000,100.000000,,,,,,,,,,,,,,,,
1644854044.338437,48.000000,0.000000,4260.384766,4234.358887,4204.358887,4264.230957,4220.897461,4216.410156,4215.512695,4227.692383,4222.307617,4230.000000,4223.077148,4182.436035,4227.820313,4303.846191,0.000000,4.000000,86.000000,,,,0.000000,4.000000,4.000000,4.000000,4.000000,4.000000,4.000000,4.000000,4.000000,4.000000,4.000000,4.000000,4.000000,4.000000,4.000000,100.000000,,,,,,,,,,,,,,,,
1644854044.342377,49.000000,0.000000,4258.077148,4230.128418,4205.256348,4257.563965,4212.051270,4217.820313,4216.410156,4227.692383,4221.794922,4225.256348,4223.077148,4183.205078,4237.563965,4298.717773,0.000000,4.000000,86.000000,,,,0.000000,4.000000,4.000000,4.000000,4.000000,4.000000,4.000000,4.000000,4.000000,4.000000,4.000000,4.000000,4.000000,4.000000,4.000000,100.000000,,,,,,,,,,,,,,,,
1644854044.346318,50.000000,0.000000,4260.000000,4230.897461,4208.846191,4258.717773,4213.461426,4219.358887,4215.256348,4226.666504,4221.538574,4224.230957,4230.128418,4185.769043,4245.256348,4296.538574,0.000000,4.000000,86.000000,,,,0.000000,4.000000,4.000000,4.000000,4.000000,4.000000,4.000000,4.000000,4.000000,4.000000,4.000000,4.000000,4.000000,4.000000,4.000000,100.000000,,,,,,,,,,,,,,,,
1644854044.350358,51.000000,0.000000,4267.563965,4237.436035,4212.820313,4266.538574,4220.256348,4219.230957,4213.461426,4224.358887,4220.769043,4227.436035,4239.615234,4187.948730,4247.692383,4298.205078,0.000000,4.000000,86.000000,,,,0.000000,4.000000,4.000000,4.000000,4.000000,4.000000,4.000000,4.000000,4.000000,4.000000,4.000000,4.000000,4.000000,4.000000,4.000000,100.000000,,,,,,,,,,,,,,,,
1644854044.354298,52.000000,0.000000,4277.820313,4245.128418,4215.256348,4275.256348,4224.230957,4217.820313,4214.102539,4221.794922,4218.589844,4232.436035,4246.922852,4187.948730,4245.384766,4303.461426,0.000000,4.000000,86.000000,,,,0.000000,4.000000,4.000000,4.000000,4.000000,4.000000,4.000000,4.000000,4.000000,4.000000,4.000000,4.000000,4.000000,4.000000,4.000000,100.000000,,,,,,,,,,,,,,,,
1644854044.358238,53.000000,0.000000,4285.000000,4248.589844,4215.000000,4280.256348,4221.282227,4216.410156,4217.179688,4220.128418,4216.025879,4236.538574,4250.256348,4185.641113,4242.307617,4309.871582,0.000000,4.000000,86.000000,,,,0.000000,4.000000,4.000000,4.000000,4.000000,4.000000,4.000000,4.000000,4.000000,4.000000,4.000000,4.000000,4.000000,4.000000,4.000000,100.000000,,,,,,,,,,,,,,,,
1644854044.362178,54.000000,0.000000,4285.384766,4247.051270,4212.948730,4280.384766,4214.487305,4216.282227,4220.000000,4219.871582,4215.256348,4237.948730,4252.179688,4182.179688,4242.179688,4314.102539,0.000000,4.000000,86.000000,,,,0.000000,4.000000,4.000000,4.000000,4.000000,4.000000,4.000000,4.000000,4.000000,4.000000,4.000000,4.000000,4.000000,4.000000,4.000000,100.000000,,,,,,,,,,,,,,,,
1644854044.366118,55.000000,0.000000,4280.769043,4244.487305,4211.282227,4278.077148,4211.153809,4217.563965,4219.743652,4220.512695,4216.666504,4236.666504,4254.615234,4179.230957,4244.743652,4315.000000,0.000000,4.000000,86.000000,,,,0.000000,4.000000,4.000000,4.000000,4.000000,4.000000,4.000000,4.000000,4.000000,4.000000,4.000000,4.000000,4.000000,4.000000,4.000000,100.000000,,,,,,,,,,,,,,,,
1644854044.370058,56.000000,0.000000,4276.153809,4245.384766,4212.307617,4275.769043,4215.384766,4219.102539,4217.563965,4221.538574,4219.230957,4232.948730,4257.051270,4178.333496,4246.025879,4314.230957,0.000000,4.000000,86.000000,,,,0.000000,4.000000,4.000000,4.000000,4.000000,4.000000,4.000000,4.000000,4.000000,4.000000,4.000000,4.000000,4.000000,4.000000,4.000000,100.000000,,,,,,,,,,,,,,,,
1644854044.373998,57.000000,0.000000,4275.384766,4250.000000,4216.025879,4274.230957,4225.384766,4220.256348,4216.794922,4222.563965,4221.025879,4227.692383,4256.282227,4180.384766,4242.820313,4313.205078,0.000000,4.000000,86.000000,,,,0.000000,4.000000,4.000000,4.000000,4.000000,4.000000,4.000000,4.000000,4.000000,4.000000,4.000000,4.000000,4.000000,4.000000,4.000000,100.000000,,,,,,,,,,,,,,,,
1644854044.377938,58.000000,0.000000,4278.461426,4254.487305,4220.000000,4272.436035,4234.230957,4220.769043,4218.205078,4223.589844,4221.153809,4223.717773,4250.256348,4184.102539,4235.897461,4312.051270,0.000000,4.000000,86.000000,,,,0.000000,4.000000,4.000000,4.000000,4.000000,4.000000,4.000000,4.000000,4.000000,4.000000,4.000000,4.000000,4.000000,4.000000,4.000000,100.000000,,,,,,,,,,,,,,,,
1644854044.381878,59.000000,0.000000,4282.179688,4254.230957,4221.794922,4269.358887,4235.769043,4220.512695,4219.615234,4224.487305,4219.871582,4223.589844,4241.538574,4187.307617,4229.743652,4309.102539,0.000000,4.000000,86.000000,,,,0.000000,4.000000,4.000000,4.000000,4.000000,4.000000,4.000000,4.000000,4.000000,4.000000,4.000000,4.000000,4.000000,4.000000,4.000000,100.000000,,,,,,,,,,,,,,,,
1644854044.385819,60.000000,0.000000,4283.205078,4247.820313,4220.512695,4263.974121,4228.589844,4219.615234,4218.461426,4225.000000,4218.333496,4228.333496,4235.000000,4188.333496,4227.820313,4304.230957,0.000000,4.000000,86.000000,,,,0.000000,4.000000,4.000000,4.000000,4.000000,4.000000,4.000000,4.000000,4.000000,4.000000,4.000000,4.000000,4.000000,4.000000,4.000000,100.000000,,,,,,,,,,,,,,,,
1644854044.389759,61.000000,0.000000,4280.641113,4238.333496,4217.563965,4257.051270,4216.538574,4218.205078,4215.512695,4225.256348,4217.307617,4234.743652,4234.102539,4187.179688,4230.256348,4299.487305,0.000000,4.000000,86.000000,,,,0.000000,4.000000,4.000000,4.000000,4.000000,4.000000,4.000000,4.000000,4.000000,4.000000,4.000000,4.000000,4.000000,4.000000,4.000000,100.000000,,,,,,,,,,,,,,,,
1644854044.393699,62.000000,0.000000,4277.051270,4231.410156,4215.512695,4252.051270,4206.282227,4216.666504,4213.333496,4225.000000,4216.282227,4237.948730,4238.461426,4185.897461,4233.974121,4297.436035,0.000000,4.000000,86.000000,,,,0.000000,4.000000,4.000000,4.000000,4.000000,4.000000,4.000000,4.000000,4.000000,4.000000,4.000000,4.000000,4.000000,4.000000,4.000000,100.000000,,,,,,,,,,,,,,,,
1644854044.397639,63.000000,0.000000,4275.512695,4231.538574,4215.128418,4252.307617,4202.563965,4215.384766,4213.333496,4223.461426,4215.128418,4234.487305,4244.230957,4186.538574,4235.512695,4298.333496,0.000000,4.000000,86.000000,,,,0.000000,4.000000,4.000000,4.000000,4.000000,4.000000,4.000000,4.000000,4.000000,4.000000,4.000000,4.000000,4.000000,4.000000,4.000000,100.000000,,,,,,,,,,,,,,,,
1644854044.401579,64.000000,0.000000,4277.179688,4238.461426,4215.897461,4258.205078,4206.282227,4215.000000,4213.846191,4220.384766,4213.974121,4226.538574,4246.410156,4189.743652,4234.230957,4300.769043,0.000000,4.000000,86.000000,,,,0.000000,4.000000,4.000000,4.000000,4.000000,4.000000,4.000000,4.000000,4.000000,4.000000,4.000000,4.000000,4.000000,4.000000,4.000000,100.000000,,,,,,,,,,,,,,,,
1644854044.405519,65.000000,0.000000,4280.512695,4247.692383,4216.922852,4265.384766,4213.846191,4215.897461,4212.948730,4216.282227,4213.077148,4219.102539,4243.717773,4193.717773,4232.307617,4303.589844,0.000000,4.000000,86.000000,,,,0.000000,4.000000,4.000000,4.000000,4.000000,4.000000,4.000000,4.000000,4.000000,4.000000,4.000000,4.000000,4.000000,4.000000,4.000000,100.000000,,,,,,,,,,,,,,,,
1644854044.409459,66.000000,0.000000,4282.820313,4253.974121,4217.563965,4268.461426,4220.769043,4217.436035,4210.897461,4213.333496,4212.692383,4216.666504,4239.230957,4195.641113,4232.307617,4307.563965,0.000000,4.000000,86.000000,,,,0.000000,4.000000,4.000000,4.000000,4.000000,4.000000,4.000000,4.000000,4.000000,4.000000,4.000000,4.000000,4.000000,4.000000,4.000000,100.000000,,,,,,,,,,,,,,,,
1644854044.413399,67.000000,0.000000,4282.563965,4255.000000,4216.794922,4264.358887,4224.743652,4218.077148,4209.358887,4212.948730,4212.436035,4219.358887,4237.948730,4193.077148,4235.384766,4313.205078,0.000000,4.000000,86.000000,,,,0.000000,4.000000,4.000000,4.000000,4.000000,4.000000,4.000000,4.000000,4.000000,4.000000,4.000000,4.000000,4.000000,4.000000,4.000000,100.000000,,,,,,,,,,,,,,,,
1644854044.417339,68.000000,0.000000,4279.743652,4252.179688,4214.487305,4255.256348,4225.897461,4216.666504,4209.358887,4215.256348,4212.307617,4223.846191,4242.179688,4186.794922,4240.641113,4318.205078,0.000000,4.000000,86.000000,,,,0.000000,4.000000,4.000000,4.000000,4.000000,4.000000,4.000000,4.000000,4.000000,4.000000,4.000000,4.000000,4.000000,4.000000,4.000000,100.000000,,,,,,,,,,,,,,,,
1644854044.421379,69.000000,0.000000,4277.179688,4248.846191,4211.666504,4246.666504,4226.153809,4213.846191,4209.487305,4218.717773,4212.436035,4226.666504,4248.589844,4180.897461,4245.641113,4318.333496,0.000000,4.000000,86.000000,,,,0.000000,4.000000,4.000000,4.000000,4.000000,4.000000,4.000000,4.000000,4.000000,4.000000,4.000000,4.000000,4.000000,4.000000,4.000000,100.000000,,,,,,,,,,,,,,,,
1644854044.425319,70.000000,0.000000,4277.563965,4247.307617,4210.384766,4243.461426,4225.769043,4211.410156,4208.461426,4221.538574,4213.333496,4226.538574,4251.922852,4179.230957,4247.436035,4312.307617,0.000000,4.000000,86.000000,,,,0.000000,4.000000,4.000000,4.000000,4.000000,4.000000,4.000000,4.000000,4.000000,4.000000,4.000000,4.000000,4.000000,4.000000,4.000000,100.000000,,,,,,,,,,,,,,,,
1644854044.429260,71.000000,0.000000,4281.153809,4247.563965,4211.282227,4246.282227,4223.717773,4211.025879,4207.051270,4222.948730,4214.615234,4223.717773,4249.358887,4182.307617,4243.846191,4304.615234,0.000000,4.000000,86.000000,,,,0.000000,4.000000,4.000000,4.000000,4.000000,4.000000,4.000000,4.000000,4.000000,4.000000,4.000000,4.000000,4.000000,4.000000,4.000000,100.000000,,,,,,,,,,,,,,,,
1644854044.433200,72.000000,0.000000,4284.871582,4248.333496,4213.333496,4250.769043,4218.333496,4212.307617,4206.922852,4222.820313,4215.769043,4220.769043,4243.333496,4187.179688,4236.538574,4301.410156,0.000000,4.000000,86.000000,,,,0.000000,4.000000,4.000000,4.000000,4.000000,4.000000,4.000000,4.000000,4.000000,4.000000,4.000000,4.000000,4.000000,4.000000,4.000000,100.000000,,,,,,,,,,,,,,,,
1644854044.437140,73.000000,0.000000,4285.769043,4248.461426,4215.384766,4250.641113,4211.282227,4213.846191,4208.717773,4221.538574,4216.025879,4219.871582,4239.615234,4190.256348,4230.256348,4304.871582,0.000000,4.000000,86.000000,,,,0.000000,4.000000,4.000000,4.000000,4.000000,4.000000,4.000000,4.000000,4.000000,4.000000,4.000000,4.000000,4.000000,4.000000,4.000000,100.000000,,,,,,,,,,,,,,,,
1644854044.441080,74.000000,0.000000,4283.205078,4248.077148,4216.410156,4243.846191,4207.179688,4214.102539,4210.512695,4219.358887,4214.487305,4221.538574,4240.897461,4190.000000,4229.743652,4310.641113,0.000000,4.000000,86.000000,,,,0.000000,4.000000,4.000000,4.000000,4.000000,4.000000,4.000000,4.000000,4.000000,4.000000,4.000000,4.000000,4.000000,4.000000,4.000000,100.000000,,,,,,,,,,,,,,,,
1644854044.445020,75.000000,0.000000,4279.487305,4247.179688,4216.153809,4234.615234,4209.871582,4213.077148,4210.000000,4216.410156,4211.025879,4222.820313,4244.615234,4188.205078,4234.358887,4312.051270,0.000000,4.000000,86.000000,,,,0.000000,4.000000,4.000000,4.000000,4.000000,4.000000,4.000000,4.000000,4.000000,4.000000,4.000000,4.000000,4.000000,4.000000,4.000000,100.000000,,,,,,,,,,,,,,,,
1644854044.448960,76.000000,0.000000,4276.282227,4244.615234,4214.230957,4230.256348,4216.922852,4211.410156,4207.692383,4213.333496,4206.153809,4219.871582,4244.743652,4186.538574,4238.333496,4305.769043,0.000000,4.000000,86.000000,,,,0.000000,4.000000,4.000000,4.000000,4.000000,4.000000,4.000000,4.000000,4.000000,4.000000,4.000000,4.000000,4.000000,4.000000,4.000000,100.000000,,,,,,,,,,,,,,,,
1644854044.452900,77.000000,0.000000,4273.077148,4239.615234,4210.897461,4234.871582,4221.153809,4210.512695,4206.153809,4210.769043,4201.153809,4210.769043,4237.948730,4185.769043,4236.025879,4293.589844,0.000000,4.000000,86.000000,,,,0.000000,4.000000,4.000000,4.000000,4.000000,4.000000,4.000000,4.000000,4.000000,4.000000,4.000000,4.000000,4.000000,4.000000,4.000000,100.000000,,,,,,,,,,,,,,,,
1644854044.456840,78.000000,0.000000,4268.846191,4233.333496,4207.307617,4244.871582,4217.563965,4211.410156,4206.922852,4208.846191,4197.436035,4199.102539,4226.538574,4185.000000,4227.179688,4280.769043,0.000000,4.000000,86.000000,,,,0.000000,4.000000,4.000000,4.000000,4.000000,4.000000,4.000000,4.000000,4.000000,4.000000,4.000000,4.000000,4.000000,4.000000,4.000000,100.000000,,,,,,,,,,,,,,,,
1644854044.460780,79.000000,0.000000,4264.743652,4229.487305,4205.512695,4251.282227,4208.717773,4214.230957,4208.974121,4207.948730,4196.282227,4191.666504,4217.820313,4183.333496,4216.538574,4272.692383,0.000000,4.000000,86.000000,,,,0.000000,4.000000,4.000000,4.000000,4.000000,4.000000,4.000000,4.000000,4.000000,4.000000,4.000000,4.000000,4.000000,4.000000,4.000000,100.000000,,,,,,,,,,,,,,,,
1644854044.464721,80.000000,0.000000,4263.205078,4231.025879,4206.025879,4248.333496,4202.692383,4217.692383,4209.871582,4208.205078,4198.077148,4193.717773,4218.077148,4181.538574,4210.512695,4272.436035,0.000000,4.000000,86.000000,,,,0.000000,4.000000,4.000000,4.000000,4.000000,4.000000,4.000000,4.000000,4.000000,4.000000,4.000000,4.000000,4.000000,4.000000,4.000000,100.000000,,,,,,,,,,,,,,,,
1644854044.468661,81.000000,0.000000,4265.256348,4236.794922,4208.333496,4239.102539,4205.000000,4219.358887,4209.102539,4210.000000,4202.179688,4204.487305,4227.307617,4181.410156,4212.563965,4280.769043,0.000000,4.000000,86.000000,,,,0.000000,4.000000,4.000000,4.000000,4.000000,4.000000,4.000000,4.000000,4.000000,4.000000,4.000000,4.000000,4.000000,4.000000,4.000000,100.000000,,,,,,,,,,,,,,,,
1644854044.472601,82.000000,0.000000,4268.846191,4241.794922,4211.153809,4233.461426,4213.846191,4217.820313,4208.461426,4213.077148,4206.538574,4217.051270,4238.589844,4183.333496,4221.025879,4293.974121,0.000000,4.000000,86.000000,,,,0.000000,4.000000,4.000000,4.000000,4.000000,4.000000,4.000000,4.000000,4.000000,4.000000,4.000000,4.000000,4.000000,4.000000,4.000000,100.000000,,,,,,,,,,,,,,,,
1644854044.476541,83.000000,0.000000,4270.128418,4241.794922,4214.358887,4238.333496,4222.179688,4214.102539,4209.102539,4216.282227,4209.871582,4224.358887,4243.333496,4185.128418,4230.000000,4305.000000,0.000000,4.000000,86.000000,,,,0.000000,4.000000,4.000000,4.000000,4.000000,4.000000,4.000000,4.000000,4.000000,4.000000,4.000000,4.000000,4.000000,4.000000,4.000000,100.000000,,,,,,,,,,,,,,,,
1644854044.480481,84.000000,0.000000,4267.692383,4237.051270,4217.692383,4250.256348,4225.128418,4211.153809,4210.897461,4218.974121,4212.563965,4224.358887,4237.948730,4185.384766,4234.102539,4307.563965,0.000000,4.000000,86.000000,,,,0.000000,4.000000,4.000000,4.000000,4.000000,4.000000,4.000000,4.000000,4.000000,4.000000,4.000000,4.000000,4.000000,4.000000,4.000000,100.000000,,,,,,,,,,,,,,,,
1644854044.484421,85.000000,0.000000,4264.487305,4232.948730,4221.282227,4259.743652,4222.692383,4211.922852,4212.692383,4221.153809,4216.025879,4220.897461,4227.820313,4184.615234,4232.563965,4301.025879,0.000000,4.000000,86.000000,,,,0.000000,4.000000,4.000000,4.000000,4.000000,4.000000,4.000000,4.000000,4.000000,4.000000,4.000000,4.000000,4.000000,4.000000,4.000000,100.000000,,,,,,,,,,,,,,,,
1644854044.488361,86.000000,0.000000,4266.282227,4234.743652,4225.384766,4259.871582,4218.974121,4217.051270,4214.487305,4223.589844,4220.897461,4220.128418,4222.820313,4185.000000,4229.871582,4292.563965,0.000000,4.000000,86.000000,,,,0.000000,4.000000,4.000000,4.000000,4.000000,4.000000,4.000000,4.000000,4.000000,4.000000,4.000000,4.000000,4.000000,4.000000,4.000000,100.000000,,,,,,,,,,,,,,,,
1644854044.492301,87.000000,0.000000,4276.153809,4243.077148,4229.615234,4253.077148,4218.333496,4223.717773,4217.692383,4227.179688,4225.512695,4224.871582,4229.487305,4187.307617,4231.153809,4290.256348,0.000000,4.000000,86.000000,,,,0.000000,4.000000,4.000000,4.000000,4.000000,4.000000,4.000000,4.000000,4.000000,4.000000,4.000000,4.000000,4.000000,4.000000,4.000000,100.000000,,,,,,,,,,,,,,,,
1644854044.496341,88.000000,0.000000,4291.282227,4253.717773,4232.307617,4247.307617,4221.922852,4227.948730,4221.794922,4231.666504,4227.820313,4232.307617,4245.000000,4190.256348,4237.436035,4296.282227,0.000000,4.000000,86.000000,,,,0.000000,4.000000,4.000000,4.000000,4.000000,4.000000,4.000000,4.000000,4.000000,4.000000,4.000000,4.000000,4.000000,4.000000,4.000000,100.000000,,,,,,,,,,,,,,,,
1644854044.500281,89.000000,0.000000,4303.717773,4260.128418,4231.666504,4248.205078,4226.794922,4227.436035,4224.230957,4234.743652,4226.794922,4236.666504,4260.256348,4192.051270,4244.487305,4304.358887,0.000000,4.000000,86.000000,,,,0.000000,4.000000,4.000000,4.000000,4.000000,4.000000,4.000000,4.000000,4.000000,4.000000,4.000000,4.000000,4.000000,4.000000,4.000000,100.000000,,,,,,,,,,,,,,,,
1644854044.504221,90.000000,0.000000,4306.666504,4259.358887,4226.666504,4253.461426,4228.205078,4223.717773,4222.307617,4234.230957,4223.846191,4234.487305,4266.666504,4192.179688,4246.922852,4306.410156,0.000000,4.000000,86.000000,,,,0.000000,4.000000,4.000000,4.000000,4.000000,4.000000,4.000000,4.000000,4.000000,4.000000,4.000000,4.000000,4.000000,4.000000,4.000000,100.000000,,,,,,,,,,,,,,,,
1644854044.508162,91.000000,0.000000,4299.358887,4253.205078,4219.102539,4255.000000,4223.461426,4219.615234,4216.922852,4229.487305,4221.153809,4226.538574,4262.051270,4192.307617,4242.948730,4299.615234,0.000000,4.000000,86.000000,,,,0.000000,4.000000,4.000000,4.000000,4.000000,4.000000,4.000000,4.000000,4.000000,4.000000,4.000000,4.000000,4.000000,4.000000,4.000000,100.000000,,,,,,,,,,,,,,,,
1644854044.512102,92.000000,0.000000,4287.436035,4246.153809,4213.846191,4248.077148,4215.256348,4217.948730,4212.820313,4223.205078,4220.128418,4217.563965,4251.410156,4193.846191,4236.153809,4289.230957,0.000000,4.000000,86.000000,,,,0.000000,4.000000,4.000000,4.000000,4.000000,4.000000,4.000000,4.000000,4.000000,4.000000,4.000000,4.000000,4.000000,4.000000,4.000000,100.000000,,,,,,,,,,,,,,,,
1644854044.516042,93.000000,0.000000,4279.102539,4242.307617,4215.256348,4237.307617,4209.487305,4219.102539,4213.717773,4219.358887,4220.128418,4212.692383,4242.051270,4196.538574,4232.563965,4282.692383,0.000000,4.000000,86.000000,,,,0.000000,4.000000,4.000000,4.000000,4.000000,4.000000,4.000000,4.000000,4.000000,4.000000,4.000000,4.000000,4.000000,4.000000,4.000000,100.000000,,,,,,,,,,,,,,,,
1644854044.519982,94.000000,0.000000,4278.333496,4243.077148,4222.820313,4233.077148,4210.512695,4222.051270,4218.205078,4219.487305,4219.743652,4213.974121,4238.717773,4198.205078,4235.641113,4283.846191,0.000000,4.000000,86.000000,,,,0.000000,4.000000,4.000000,4.000000,4.000000,4.000000,4.000000,4.000000,4.000000,4.000000,4.000000,4.000000,4.000000,4.000000,4.000000,100.000000,,,,,,,,,,,,,,,,
1644854044.523922,95.000000,0.000000,4282.692383,4246.538574,4231.153809,4242.820313,4217.179688,4224.615234,4221.282227,4222.436035,4218.846191,4219.230957,4240.641113,4197.436035,4242.948730,4290.897461,0.000000,4.000000,86.000000,,,,0.000000,4.000000,4.000000,4.000000,4.000000,4.000000,4.000000,4.000000,4.000000,4.000000,4.000000,4.000000,4.000000,4.000000,4.000000,100.000000,,,,,,,,,,,,,,,,
1644854044.527862,96.000000,0.000000,4286.025879,4249.487305,4234.487305,4262.820313,4223.717773,4224.743652,4219.743652,4225.128418,4218.461426,4224.743652,4243.333496,4194.743652,4248.589844,4298.846191,0.000000,4.000000,86.000000,,,,0.000000,4.000000,4.000000,4.000000,4.000000,4.000000,4.000000,4.000000,4.000000,4.000000,4.000000,4.000000,4.000000,4.000000,4.000000,100.000000,,,,,,,,,,,,,,,,
1644854044.531802,97.000000,0.000000,4285.384766,4250.128418,4231.153809,4281.153809,4225.000000,4221.794922,4215.000000,4225.641113,4218.589844,4228.461426,4243.077148,4192.820313,4246.922852,4303.717773,0.000000,4.000000,86.000000,,,,0.000000,4.000000,4.000000,4.000000,4.000000,4.000000,4.000000,4.000000,4.000000,4.000000,4.000000,4.000000,4.000000,4.000000,4.000000,100.000000,,,,,,,,,,,,,,,,
1644854044.535742,98.000000,0.000000,4283.077148,4248.846191,4224.743652,4286.666504,4220.769043,4217.051270,4211.666504,4223.717773,4218.846191,4230.512695,4240.128418,4193.589844,4237.692383,4303.205078,0.000000,4.000000,86.000000,,,,0.000000,4.000000,4.000000,4.000000,4.000000,4.000000,4.000000,4.000000,4.000000,4.000000,4.000000,4.000000,4.000000,4.000000,4.000000,100.000000,,,,,,,,,,,,,,,,
1644854044.539682,99.000000,0.000000,4284.615234,4248.205078,4221.025879,4277.692383,4215.000000,4213.717773,4211.922852,4221.410156,4219.230957,4232.563965,4238.461426,4196.538574,4227.051270,4297.436035,0.000000,4.000000,86.000000,,,,0.000000,4.000000,4.000000,4.000000,4.000000,4.000000,4.000000,4.000000,4.000000,4.000000,4.000000,4.000000,4.000000,4.000000,4.000000,100.000000,,,,,,,,,,,,,,,,
1644854044.543623,100.000000,0.000000,4291.410156,4250.128418,4222.948730,4262.948730,4211.282227,4214.230957,4213.974121,4221.025879,4220.384766,4235.897461,4241.922852,4199.487305,4223.461426,4289.358887,0.000000,4.000000,86.000000,,,,0.000000,4.000000,4.000000,4.000000,4.000000,4.000000,4.000000,4.000000,4.000000,4.000000,4.000000,4.000000,4.000000,4.000000,4.000000,100.000000,,,,,,,,,,,,,,,,
1644854044.547563,101.000000,0.000000,4299.102539,4253.974121,4228.717773,4254.230957,4211.025879,4218.461426,4215.641113,4223.846191,4222.948730,4238.974121,4249.230957,4199.615234,4230.641113,4283.333496,0.000000,4.000000,86.000000,,,,0.000000,4.000000,4.000000,4.000000,4.000000,4.000000,4.000000,4.000000,4.000000,4.000000,4.000000,4.000000,4.000000,4.000000,4.000000,100.000000,,,,,,,,,,,,,,,,
1644854044.551503,102.000000,0.000000,4301.282227,4256.666504,4233.333496,4256.666504,4213.461426,4223.974121,4215.641113,4228.589844,4226.025879,4238.974121,4254.871582,4195.769043,4243.974121,4283.717773,0.000000,4.000000,86.000000,,,,0.000000,4.000000,4.000000,4.000000,4.000000,4.000000,4.000000,4.000000,4.000000,4.000000,4.000000,4.000000,4.000000,4.000000,4.000000,100.000000,,,,,,,,,,,,,,,,
1644854044.555443,103.000000,0.000000,4295.256348,4255.384766,4232.563965,4264.743652,4217.692383,4227.563965,4214.743652,4232.436035,4228.077148,4234.743652,4253.974121,4188.974121,4253.846191,4290.256348,0.000000,4.000000,86.000000,,,,0.000000,4.000000,4.000000,4.000000,4.000000,4.000000,4.000000,4.000000,4.000000,4.000000,4.000000,4.000000,4.000000,4.000000,4.000000,100.000000,,,,,,,,,,,,,,,,
1644854044.559383,104.000000,0.000000,4283.846191,4250.000000,4226.025879,4267.436035,4222.051270,4227.179688,4213.333496,4232.179688,4228.077148,4228.461426,4246.922852,4182.948730,4254.358887,4298.333496,0.000000,4.000000,86.000000,,,,0.000000,4.000000,4.000000,4.000000,4.000000,4.000000,4.000000,4.000000,4.000000,4.000000,4.000000,4.000000,4.000000,4.000000,4.000000,100.000000,,,,,,,,,,,,,,,,
1644854044.563323,105.000000,0.000000,4273.974121,4242.820313,4218.333496,4258.461426,4224.358887,4223.589844,4211.410156,4227.307617,4225.769043,4224.358887,4239.615234,4181.282227,4247.820313,4302.307617,0.000000,4.000000,86.000000,,,,0.000000,4.000000,4.000000,4.000000,4.000000,4.000000,4.000000,4.000000,4.000000,4.000000,4.000000,4.000000,4.000000,4.000000,4.000000,100.000000,,,,,,,,,,,,,,,,
1644854044.567263,106.000000,0.000000,4271.410156,4237.563965,4215.128418,4241.410156,4223.077148,4218.846191,4209.487305,4219.743652,4221.922852,4225.256348,4237.436035,4184.743652,4241.538574,4300.256348,0.000000,4.000000,86.000000,,,,0.000000,4.000000,4.000000,4.000000,4.000000,4.000000,4.000000,4.000000,4.000000,4.000000,4.000000,4.000000,4.000000,4.000000,4.000000,100.000000,,,,,,,,,,,,,,,,
1644854044.571303,107.000000,0.000000,4277.051270,4237.051270,4219.230957,4226.538574,4219.230957,4215.769043,4209.102539,4213.589844,4217.307617,4229.743652,4241.410156,4190.641113,4240.769043,4295.000000,0.000000,4.000000,86.000000,,,,0.000000,4.000000,4.000000,4.000000,4.000000,4.000000,4.000000,4.000000,4.000000,4.000000,4.000000,4.000000,4.000000,4.000000,4.000000,100.000000,,,,,,,,,,,,,,,,
1644854044.575243,108.000000,0.000000,4287.307617,4241.794922,4227.820313,4222.948730,4215.641113,4214.871582,4211.410156,4212.179688,4213.205078,4232.820313,4247.563965,4195.384766,4244.102539,4291.538574,0.000000,4.000000,86.000000,,,,0.000000,4.000000,4.000000,4.000000,4.000000,4.000000,4.000000,4.000000,4.000000,4.000000,4.000000,4.000000,4.000000,4.000000,4.000000,100.000000,,,,,,,,,,,,,,,,
1644854044.579183,109.000000,0.000000,4297.051270,4249.615234,4234.743652,4232.692383,4214.871582,4216.025879,4214.615234,4215.512695,4211.410156,4231.025879,4251.538574,4197.307617,4246.538574,4292.692383,0.000000,4.000000,86.000000,,,,0.000000,4.000000,4.000000,4.000000,4.000000,4.000000,4.000000,4.000000,4.000000,4.000000,4.000000,4.000000,4.000000,4.000000,4.000000,100.000000,,,,,,,,,,,,,,,,
1644854044.583123,110.000000,0.000000,4303.077148,4257.692383,4235.769043,4249.615234,4217.307617,4217.692383,4215.897461,4221.025879,4213.461426,4225.128418,4252.051270,4196.282227,4245.384766,4297.307617,0.000000,4.000000,86.000000,,,,0.000000,4.000000,4.000000,4.000000,4.000000,4.000000,4.000000,4.000000,4.000000,4.000000,4.000000,4.000000,4.000000,4.000000,4.000000,100.000000,,,,,,,,,,,,,,,,
1644854044.587064,111.000000,0.000000,4305.000000,4263.461426,4231.794922,4264.487305,4220.512695,4218.974121,4214.102539,4225.256348,4218.461426,4219.358887,4250.256348,4193.717773,4241.538574,4302.436035,0.000000,4.000000,86.000000,,,,0.000000,4.000000,4.000000,4.000000,4.000000,4.000000,4.000000,4.000000,4.000000,4.000000,4.000000,4.000000,4.000000,4.000000,4.000000,100.000000,,,,,,,,,,,,,,,,
1644854044.591004,112.000000,0.000000,4304.102539,4265.769043,4227.436035,4269.615234,4221.794922,4219.743652,4212.051270,4226.794922,4223.717773,4217.436035,4247.436035,4190.897461,4237.948730,4305.512695,0.000000,4.000000,86.000000,,,,0.000000,4.000000,4.000000,4.000000,4.000000,4.000000,4.000000,4.000000,4.000000,4.000000,4.000000,4.000000,4.000000,4.000000,4.000000,100.000000,,,,,,,,,,,,,,,,
1644854044.594944,113.000000,0.000000,4302.307617,4264.358887,4227.307617,4264.102539,4220.128418,4221.025879,4212.820313,4226.025879,4226.153809,4220.000000,4243.589844,4188.717773,4236.794922,4306.153809,0.000000,4.000000,86.000000,,,,0.000000,4.000000,4.000000,4.000000,4.000000,4.000000,4.000000,4.000000,4.000000,4.000000,4.000000,4.000000,4.000000,4.000000,4.000000,100.000000,,,,,,,,,,,,,,,,
1644854044.598884,114.000000,0.000000,4301.794922,4261.025879,4231.410156,4252.820313,4216.794922,4223.205078,4216.025879,4223.974121,4225.128418,4224.871582,4240.384766,4187.948730,4238.846191,4304.615234,0.000000,4.000000,86.000000,,,,0.000000,4.000000,4.000000,4.000000,4.000000,4.000000,4.000000,4.000000,4.000000,4.000000,4.000000,4.000000,4.000000,4.000000,4.000000,100.000000,,,,,,,,,,,,,,,,
1644854044.602824,115.000000,0.000000,4303.205078,4257.563965,4235.641113,4243.461426,4215.128418,4225.256348,4217.563965,4221.410156,4221.666504,4228.974121,4239.743652,4188.077148,4243.717773,4301.666504,0.000000,4.000000,86.000000,1,1,1,0.000000,4.000000,4.000000,4.000000,4.000000,4.000000,4.000000,4.000000,4.000000,4.000000,4.000000,4.000000,4.000000,4.000000,4.000000,100.000000,,,,,,,,,,,,,,,,
1644854044.606764,116.000000,0.000000,4305.256348,4255.384766,4235.769043,4241.025879,4216.538574,4225.512695,4215.384766,4218.974121,4217.563965,4230.000000,4242.436035,4188.846191,4249.743652,4298.717773,0.000000,4.000000,86.000000,,,,0.000000,4.000000,4.000000,4.000000,4.000000,4.000000,4.000000,4.000000,4.000000,4.000000,4.000000,4.000000,4.000000,4.000000,4.000000,100.000000,,,,,,,,,,,,,,,,
1644854044.610604,117.000000,0.000000,4305.000000,4253.461426,4231.538574,4245.512695,4218.974121,4223.333496,4211.538574,4217.436035,4214.230957,4227.948730,4246.538574,4190.128418,4253.589844,4295.897461,0.000000,4.000000,86.000000,,,,0.000000,4.000000,4.000000,4.000000,4.000000,4.000000,4.000000,4.000000,4.000000,4.000000,4.000000,4.000000,4.000000,4.000000,4.000000,100.000000,,,,,,,,,,,,,,,,
1644854044.614544,118.000000,0.000000,4300.641113,4250.000000,4226.025879,4251.794922,4218.461426,4219.871582,4210.256348,4217.563965,4212.563965,4224.102539,4247.948730,4192.436035,4251.922852,4292.179688,0.000000,4.000000,86.000000,,,,0.000000,4.000000,4.000000,4.000000,4.000000,4.000000,4.000000,4.000000,4.000000,4.000000,4.000000,4.000000,4.000000,4.000000,4.000000,100.000000,,,,,,,,,,,,,,,,
1644854044.618485,119.000000,0.000000,4293.717773,4244.230957,4222.948730,4254.230957,4213.846191,4217.179688,4212.692383,4219.743652,4213.077148,4220.641113,4243.974121,4196.153809,4243.461426,4285.641113,0.000000,4.000000,86.000000,,,,0.000000,4.000000,4.000000,4.000000,4.000000,4.000000,4.000000,4.000000,4.000000,4.000000,4.000000,4.000000,4.000000,4.000000,4.000000,100.000000,,,,,,,,,,,,,,,,
1644854044.622425,120.000000,0.000000,4288.717773,4238.333496,4223.589844,4251.153809,4208.974121,4216.538574,4216.282227,4222.692383,4215.769043,4219.871582,4236.410156,4201.025879,4231.153809,4276.922852,0.000000,4.000000,86.000000,,,,0.000000,4.000000,4.000000,4.000000,4.000000,4.000000,4.000000,4.000000,4.000000,4.000000,4.000000,4.000000,4.000000,4.000000,4.000000,100.000000,,,,,,,,,,,,,,,,
1644854044.626365,121.000000,0.000000,4289.871582,4235.641113,4226.025879,4245.384766,4209.743652,4217.820313,4217.563965,4224.743652,4219.230957,4222.051270,4230.384766,4204.871582,4221.666504,4271.794922,0.000000,4.000000,86.000000,,,,0.000000,4.000000,4.000000,4.000000,4.000000,4.000000,4.000000,4.000000,4.000000,4.000000,4.000000,4.000000,4.000000,4.000000,4.000000,100.000000,,,,,,,,,,,,,,,,
1644854044.630305,122.000000,0.000000,4296.794922,4237.179688,4227.436035,4241.410156,4217.436035,4219.743652,4216.282227,4224.615234,4220.897461,4225.128418,4228.974121,4204.743652,4220.384766,4276.538574,0.000000,4.000000,86.000000,,,,0.000000,4.000000,4.000000,4.000000,4.000000,4.000000,4.000000,4.000000,4.000000,4.000000,4.000000,4.000000,4.000000,4.000000,4.000000,100.000000,,,,,,,,,,,,,,,,
1644854044.634245,123.000000,0.000000,4303.589844,4241.025879,4226.666504,4241.538574,4226.153809,4220.769043,4214.358887,4221.794922,4219.102539,4225.128418,4230.512695,4199.230957,4227.820313,4290.512695,0.000000,4.000000,86.000000,,,,0.000000,4.000000,4.000000,4.000000,4.000000,4.000000,4.000000,4.000000,4.000000,4.000000,4.000000,4.000000,4.000000,4.000000,4.000000,100.000000,,,,,,,,,,,,,,,,
1644854044.638185,124.000000,0.000000,4302.179688,4243.589844,4223.974121,4245.256348,4227.051270,4219.615234,4212.820313,4217.179688,4213.846191,4220.641113,4231.025879,4189.615234,4238.589844,4303.974121,0.000000,4.000000,86.000000,,,,0.000000,4.000000,4.000000,4.000000,4.000000,4.000000,4.000000,4.000000,4.000000,4.000000,4.000000,4.000000,4.000000,4.000000,4.000000,100.000000,,,,,,,,,,,,,,,,
1644854044.642125,125.000000,0.000000,4289.615234,4242.179688,4220.769043,4248.974121,4217.051270,4216.538574,4211.153809,4212.179688,4207.692383,4213.333496,4228.333496,4179.743652,4245.512695,4306.282227,0.000000,4.000000,86.000000,,,,0.000000,4.000000,4.000000,4.000000,4.000000,4.000000,4.000000,4.000000,4.000000,4.000000,4.000000,4.000000,4.000000,4.000000,4.000000,100.000000,,,,,,,,,,,,,,,,
1644854044.646165,126.000000,0.000000,4271.922852,4236.794922,4217.692383,4248.461426,4203.077148,4212.563965,4208.461426,4209.487305,4203.974121,4207.179688,4224.487305,4173.461426,4244.230957,4296.025879,0.000000,4.000000,86.000000,,,,0.000000,4.000000,4.000000,4.000000,4.000000,4.000000,4.000000,4.000000,4.000000,4.000000,4.000000,4.000000,4.000000,4.000000,4.000000,100.000000,,,,,,,,,,,,,,,,
1644854044.650105,127.000000,0.000000,4259.743652,4229.871582,4214.615234,4240.897461,4196.538574,4209.871582,4206.153809,4210.384766,4204.487305,4205.512695,4222.948730,4171.410156,4235.897461,4282.051270,0.000000,4.000000,86.000000,,,,0.000000,4.000000,4.000000,4.000000,4.000000,4.000000,4.000000,4.000000,4.000000,4.000000,4.000000,4.000000,4.000000,4.000000,4.000000,100.000000,,,,,,,,,,,,,,,,
1644854044.654045,128.000000,0.000000,4260.000000,4224.615234,4210.769043,4227.563965,4202.820313,4209.615234,4205.897461,4214.487305,4208.205078,4209.102539,4226.025879,4171.282227,4225.384766,4274.487305,3415.000000,4.000000,86.000000,,,,0.000000,4.000000,4.000000,4.000000,4.000000,4.000000,4.000000,4.000000,4.000000,4.000000,4.000000,4.000000,4.000000,4.000000,4.000000,100.000000,,,,,,,,,,,,,,,,
1644854044.657985,129.000000,0.000000,4271.025879,4223.205078,4207.179688,4214.743652,4217.051270,4211.410156,4208.333496,4218.589844,4212.179688,4215.641113,4232.051270,4170.512695,4218.461426,4275.128418,3479.000000,4.000000,86.000000,,,,0.000000,4.000000,4.000000,4.000000,4.000000,4.000000,4.000000,4.000000,4.000000,4.000000,4.000000,4.000000,4.000000,4.000000,4.000000,100.000000,,,,,,,,,,,,,,,,
1644854044.661926,130.000000,0.000000,4283.974121,4226.153809,4205.384766,4208.974121,4227.820313,4214.230957,4211.282227,4220.000000,4214.230957,4220.897461,4237.436035,4168.846191,4217.948730,4277.820313,3536.000000,4.000000,86.000000,,,,0.000000,4.000000,4.000000,4.000000,4.000000,4.000000,4.000000,4.000000,4.000000,4.000000,4.000000,4.000000,4.000000,4.000000,4.000000,100.000000,,,,,,,,,,,,,,,,
1644854044.665866,131.000000,0.000000,4291.282227,4232.307617,4206.538574,4213.333496,4227.179688,4216.538574,4212.948730,4218.077148,4214.230957,4221.666504,4237.820313,4168.077148,4222.179688,4276.666504,3662.000000,4.000000,86.000000,,,,0.000000,4.000000,4.000000,4.000000,4.000000,4.000000,4.000000,4.000000,4.000000,4.000000,4.000000,4.000000,4.000000,4.000000,4.000000,100.000000,,,,,,,,,,,,,,,,
1644854044.669806,132.000000,0.000000,4291.025879,4239.102539,4209.871582,4224.615234,4217.307617,4217.692383,4213.333496,4215.128418,4213.077148,4217.948730,4231.410156,4170.384766,4226.282227,4271.538574,3455.000000,4.000000,86.000000,,,,0.000000,4.000000,4.000000,4.000000,4.000000,4.000000,4.000000,4.000000,4.000000,4.000000,4.000000,4.000000,4.000000,4.000000,4.000000,100.000000,,,,,,,,,,,,,,,,
1644854044.673746,133.000000,0.000000,4287.436035,4243.589844,4212.692383,4236.410156,4206.794922,4217.820313,4214.102539,4213.461426,4212.307617,4212.820313,4220.384766,4175.000000,4226.025879,4266.410156,3460.000000,4.000000,86.000000,,,,0.000000,4.000000,4.000000,4.000000,4.000000,4.000000,4.000000,4.000000,4.000000,4.000000,4.000000,4.000000,4.000000,4.000000,4.000000,100.000000,,,,,,,,,,,,,,,,
1644854044.677686,134.000000,0.000000,4285.000000,4243.717773,4212.051270,4243.333496,4203.461426,4217.436035,4215.769043,4213.974121,4211.922852,4210.000000,4210.512695,4179.102539,4222.307617,4263.589844,2585.000000,4.000000,86.000000,,,,0.000000,4.000000,4.000000,4.000000,4.000000,4.000000,4.000000,4.000000,4.000000,4.000000,4.000000,4.000000,4.000000,4.000000,4.000000,100.000000,,,,,,,,,,,,,,,,
1644854044.681626,135.000000,0.000000,4285.256348,4240.256348,4207.692383,4243.974121,4208.974121,4217.051270,4216.153809,4215.256348,4211.025879,4211.794922,4206.922852,4180.256348,4219.102539,4261.922852,3012.000000,4.000000,86.000000,,,,0.000000,4.000000,4.000000,4.000000,4.000000,4.000000,4.000000,4.000000,4.000000,4.000000,4.000000,4.000000,4.000000,4.000000,4.000000,100.000000,,,,,,,,,,,,,,,,
1644854044.685566,136.000000,0.000000,4285.769043,4235.384766,4202.692383,4240.000000,4218.333496,4217.051270,4213.974121,4215.384766,4209.102539,4216.922852,4209.615234,4178.461426,4220.512695,4259.102539,3268.000000,4.000000,86.000000,2,1,1,0.000000,4.000000,4.000000,4.000000,4.000000,4.000000,4.000000,4.000000,4.000000,4.000000,4.000000,4.000000,4.000000,4.000000,4.000000,100.000000,,,,,,,,,,,,,,,,
1644854044.689506,137.000000,0.000000,4284.487305,4232.051270,4201.410156,4234.358887,4224.487305,4217.179688,4210.000000,4214.230957,4206.794922,4221.410156,4214.487305,4175.769043,4226.282227,4256.666504,3539.000000,4.000000,86.000000,,,,0.000000,4.000000,4.000000,4.000000,4.000000,4.000000,4.000000,4.000000,4.000000,4.000000,4.000000,4.000000,4.000000,4.000000,4.000000,100.000000,,,,,,,,,,,,,,,,
1644854044.693446,138.000000,0.000000,4281.666504,4232.307617,4205.769043,4229.487305,4223.589844,4216.666504,4207.692383,4213.461426,4205.769043,4221.666504,4216.922852,4175.000000,4232.307617,4258.461426,3512.000000,4.000000,86.000000,,,,0.000000,4.000000,4.000000,4.000000,4.000000,4.000000,4.000000,4.000000,4.000000,4.000000,4.000000,4.000000,4.000000,4.000000,4.000000,100.000000,,,,,,,,,,,,,,,,
1644854044.697387,139.000000,0.000000,4280.000000,4236.666504,4213.205078,4227.436035,4217.436035,4216.025879,4209.358887,4214.358887,4207.307617,4218.589844,4216.282227,4177.307617,4234.743652,4264.871582,2492.000000,4.000000,86.000000,,,,0.000000,4.000000,4.000000,4.000000,4.000000,4.000000,4.000000,4.000000,4.000000,4.000000,4.000000,4.000000,4.000000,4.000000,4.000000,100.000000,,,,,,,,,,,,,,,,
1644854044.701327,140.000000,0.000000,4282.436035,4243.974121,4219.102539,4228.846191,4212.179688,4216.410156,4213.589844,4217.179688,4211.538574,4217.179688,4216.410156,4182.436035,4233.205078,4271.666504,3487.000000,4.000000,86.000000,,,,0.000000,4.000000,4.000000,4.000000,4.000000,4.000000,4.000000,4.000000,4.000000,4.000000,4.000000,4.000000,4.000000,4.000000,4.000000,100.000000,,,,,,,,,,,,,,,,
1644854044.705267,141.000000,0.000000,4288.974121,4251.410156,4220.769043,4233.077148,4212.820313,4219.102539,4217.692383,4220.641113,4216.922852,4221.282227,4221.282227,4188.461426,4231.410156,4273.461426,3604.000000,4.000000,86.000000,,,,0.000000,4.000000,4.000000,4.000000,4.000000,4.000000,4.000000,4.000000,4.000000,4.000000,4.000000,4.000000,4.000000,4.000000,4.000000,100.000000,,,,,,,,,,,,,,,,
1644854044.709207,142.000000,0.000000,4296.410156,4255.897461,4218.717773,4239.102539,4219.230957,4223.333496,4219.487305,4223.333496,4220.897461,4229.358887,4230.769043,4191.794922,4232.692383,4270.128418,3512.000000,4.000000,86.000000,,,,0.000000,4.000000,4.000000,4.000000,4.000000,4.000000,4.000000,4.000000,4.000000,4.000000,4.000000,4.000000,4.000000,4.000000,4.000000,100.000000,,,,,,,,,,,,,,,,
1644854044.713147,143.000000,0.000000,4300.897461,4256.282227,4216.282227,4245.000000,4226.666504,4226.666504,4219.102539,4223.846191,4221.538574,4235.000000,4240.256348,4190.641113,4237.179688,4266.794922,2492.000000,4.000000,86.000000,,,,0.000000,4.000000,4.000000,4.000000,4.000000,4.000000,4.000000,4.000000,4.000000,4.000000,4.000000,4.000000,4.000000,4.000000,4.000000,100.000000,,,,,,,,,,,,,,,,
1644854044.717087,144.000000,0.000000,4300.256348,4254.102539,4215.641113,4248.461426,4230.000000,4227.179688,4217.563965,4222.436035,4219.487305,4232.948730,4244.230957,4185.512695,4242.436035,4269.743652,3487.000000,4.000000,86.000000,,,,0.000000,4.000000,4.000000,4.000000,4.000000,4.000000,4.000000,4.000000,4.000000,4.000000,4.000000,4.000000,4.000000,4.000000,4.000000,100.000000,,,,,,,,,,,,,,,,
1644854044.720927,145.000000,0.000000,4295.128418,4252.692383,4217.436035,4248.205078,4228.205078,4224.743652,4214.871582,4220.512695,4217.307617,4223.333496,4240.641113,4179.615234,4244.358887,4279.230957,3604.000000,4.000000,86.000000,,,,0.000000,4.000000,4.000000,4.000000,4.000000,4.000000,4.000000,4.000000,4.000000,4.000000,4.000000,4.000000,4.000000,4.000000,4.000000,100.000000,,,,,,,,,,,,,,,,
1644854044.724867,146.000000,0.000000,4287.692383,4253.461426,4220.000000,4245.384766,4224.230957,4220.641113,4211.282227,4218.333496,4216.666504,4212.051270,4232.051270,4176.410156,4240.256348,4288.974121,3512.000000,4.000000,86.000000,,,,0.000000,4.000000,4.000000,4.000000,4.000000,4.000000,4.000000,4.000000,4.000000,4.000000,4.000000,4.000000,4.000000,4.000000,4.000000,100.000000,,,,,,,,,,,,,,,,
1644854044.728807,147.000000,0.000000,4279.871582,4255.000000,4221.794922,4242.820313,4221.666504,4216.666504,4208.461426,4215.897461,4216.538574,4206.025879,4223.205078,4176.794922,4230.641113,4291.794922,2492.000000,4.000000,86.000000,,,,0.000000,4.000000,4.000000,4.000000,4.000000,4.000000,4.000000,4.000000,4.000000,4.000000,4.000000,4.000000,4.000000,4.000000,4.000000,100.000000,,,,,,,,,,,,,,,,
1644854044.732748,148.000000,0.000000,4273.333496,4255.128418,4221.922852,4243.461426,4221.922852,4214.487305,4208.717773,4213.589844,4215.128418,4208.974121,4218.589844,4179.487305,4220.512695,4285.384766,3487.000000,4.000000,86.000000,,,,0.000000,4.000000,4.000000,4.000000,4.000000,4.000000,4.000000,4.000000,4.000000,4.000000,4.000000,4.000000,4.000000,4.000000,4.000000,100.000000,,,,,,,,,,,,,,,,
1644854044.736688,149.000000,0.000000,4270.897461,4253.333496,4221.025879,4248.589844,4224.487305,4214.743652,4212.563965,4212.820313,4212.307617,4219.358887,4219.615234,4182.692383,4217.051270,4275.384766,3604.000000,4.000000,86.000000,,,,0.000000,4.000000,4.000000,4.000000,4.000000,4.000000,4.000000,4.000000,4.000000,4.000000,4.000000,4.000000,4.000000,4.000000,4.000000,100.000000,,,,,,,,,,,,,,,,
1644854044.740628,150.000000,0.000000,4275.769043,4251.794922,4220.000000,4255.897461,4227.179688,4216.922852,4216.922852,4215.384766,4210.512695,4231.025879,4224.871582,4184.615234,4224.615234,4269.487305,3512.000000,4.000000,86.000000,,,,0.000000,4.000000,4.000000,4.000000,4.000000,4.000000,4.000000,4.000000,4.000000,4.000000,4.000000,4.000000,4.000000,4.000000,4.000000,100.000000,,,,,,,,,,,,,,,,
1644854044.744568,151.000000,0.000000,4287.563965,4251.922852,4218.461426,4260.641113,4227.179688,4219.230957,4218.205078,4220.128418,4212.563965,4236.922852,4230.897461,4184.871582,4239.487305,4271.153809,2492.000000,4.000000,86.000000,,,,0.000000,4.000000,4.000000,4.000000,4.000000,4.000000,4.000000,4.000000,4.000000,4.000000,4.000000,4.000000,4.000000,4.000000,4.000000,100.000000,,,,,,,,,,,,,,,,
1644854044.748508,152.000000,0.000000,4300.512695,4253.717773,4216.410156,4258.589844,4222.307617,4219.615234,4215.641113,4224.743652,4218.333496,4234.102539,4235.000000,4184.487305,4252.436035,4276.922852,3487.000000,4.000000,86.000000,,,,0.000000,4.000000,4.000000,4.000000,4.000000,4.000000,4.000000,4.000000,4.000000,4.000000,4.000000,4.000000,4.000000,4.000000,4.000000,100.000000,,,,,,,,,,,,,,,,
1644854044.752448,153.000000,0.000000,4306.666504,4255.641113,4214.743652,4249.871582,4213.974121,4217.563965,4212.692383,4226.794922,4224.743652,4225.769043,4237.307617,4185.641113,4255.769043,4281.025879,3604.000000,4.000000,86.000000,,,,0.000000,4.000000,4.000000,4.000000,4.000000,4.000000,4.000000,4.000000,4.000000,4.000000,4.000000,4.000000,4.000000,4.000000,4.000000,100.000000,,,,,,,,,,,,,,,,
1644854044.756388,154.000000,0.000000,4301.922852,4257.051270,4215.256348,4239.487305,4206.538574,4214.743652,4212.948730,4226.538574,4228.077148,4218.589844,4239.743652,4190.128418,4250.000000,4280.769043,3512.000000,4.000000,86.000000,,,,0.000000,4.000000,4.000000,4.000000,4.000000,4.000000,4.000000,4.000000,4.000000,4.000000,4.000000,4.000000,4.000000,4.000000,4.000000,100.000000,,,,,,,,,,,,,,,,
1644854044.760328,155.000000,0.000000,4291.410156,4258.205078,4218.461426,4233.717773,4205.384766,4214.230957,4216.282227,4225.128418,4226.794922,4218.589844,4243.077148,4196.666504,4242.563965,4277.692383,2492.000000,4.000000,86.000000,,,,0.000000,4.000000,4.000000,4.000000,4.000000,4.000000,4.000000,4.000000,4.000000,4.000000,4.000000,4.000000,4.000000,4.000000,4.000000,100.000000,,,,,,,,,,,,,,,,
1644854044.764268,156.000000,0.000000,4285.128418,4259.743652,4223.077148,4235.512695,4211.922852,4218.077148,4219.230957,4223.461426,4222.692383,4225.897461,4245.128418,4201.410156,4240.769043,4276.538574,3487.000000,4.000000,86.000000,,,,0.000000,4.000000,4.000000,4.000000,4.000000,4.000000,4.000000,4.000000,4.000000,4.000000,4.000000,4.000000,4.000000,4.000000,4.000000,100.000000,1.000000,58.333332,4.000000,4.000000,3.000000,4.000000,4.000000,4.000000,1.000000,4.000000,4.000000,4.000000,4.000000,4.000000,4.000000,3.000000
1644854044.768209,157.000000,0.000000,4289.358887,4261.410156,4226.538574,4242.948730,4221.922852,4224.871582,4219.487305,4222.436035,4219.358887,4235.512695,4243.333496,4200.897461,4245.641113,4280.512695,3604.000000,4.000000,86.000000,,,,0.000000,4.000000,4.000000,4.000000,4.000000,4.000000,4.000000,4.000000,4.000000,4.000000,4.000000,4.000000,4.000000,4.000000,4.000000,100.000000,,,,,,,,,,,,,,,,
1644854044.772149,158.000000,0.000000,4301.025879,4262.051270,4227.307617,4250.897461,4229.102539,4230.641113,4218.205078,4222.436035,4219.871582,4240.769043,4237.436035,4195.384766,4251.538574,4288.077148,3512.000000,4.000000,86.000000,,,,0.000000,4.000000,4.000000,4.000000,4.000000,4.000000,4.000000,4.000000,4.000000,4.000000,4.000000,4.000000,4.000000,4.000000,4.000000,100.000000,,,,,,,,,,,,,,,,
1644854044.776089,159.000000,0.000000,4310.384766,4260.641113,4225.384766,4255.512695,4230.256348,4232.436035,4217.563965,4223.461426,4223.589844,4238.846191,4230.641113,4188.589844,4251.922852,4294.358887,2492.000000,4.000000,86.000000,,,,0.000000,4.000000,4.000000,4.000000,4.000000,4.000000,4.000000,4.000000,4.000000,4.000000,4.000000,4.000000,4.000000,4.000000,4.000000,100.000000,,,,,,,,,,,,,,,,
1644854044.780029,160.000000,0.000000,4309.487305,4257.051270,4221.282227,4256.153809,4227.307617,4229.615234,4217.563965,4224.615234,4227.307617,4232.307617,4226.794922,4183.974121,4246.025879,4293.974121,3487.000000,4.000000,86.000000,,,,0.000000,4.000000,4.000000,4.000000,4.000000,4.000000,4.000000,4.000000,4.000000,4.000000,4.000000,4.000000,4.000000,4.000000,4.000000,100.000000,,,,,,,,,,,,,,,,
1644854044.783969,161.000000,0.000000,4298.974121,4252.436035,4216.538574,4255.769043,4223.846191,4223.974121,4216.538574,4224.230957,4228.205078,4226.666504,4227.563965,4182.692383,4238.846191,4287.307617,3604.000000,4.000000,86.000000,,,,0.000000,4.000000,4.000000,4.000000,4.000000,4.000000,4.000000,4.000000,4.000000,4.000000,4.000000,4.000000,4.000000,4.000000,4.000000,100.000000,,,,,,,,,,,,,,,,
1644854044.787909,162.000000,0.000000,4285.897461,4248.589844,4212.820313,4257.563965,4221.666504,4218.717773,4213.974121,4221.666504,4226.025879,4225.641113,4231.153809,4183.333496,4236.794922,4280.128418,3512.000000,4.000000,86.000000,,,,0.000000,4.000000,4.000000,4.000000,4.000000,4.000000,4.000000,4.000000,4.000000,4.000000,4.000000,4.000000,4.000000,4.000000,4.000000,100.000000,,,,,,,,,,,,,,,,
1644854044.791949,163.000000,0.000000,4278.589844,4247.436035,4212.307617,4261.153809,4220.256348,4216.282227,4211.922852,4218.589844,4222.563965,4228.974121,4233.589844,4184.743652,4240.897461,4278.589844,2492.000000,4.000000,86.000000,,,,0.000000,4.000000,4.000000,4.000000,4.000000,4.000000,4.000000,4.000000,4.000000,4.000000,4.000000,4.000000,4.000000,4.000000,4.000000,100.000000,,,,,,,,,,,,,,,,
1644854044.795889,164.000000,0.000000,4280.384766,4250.128418,4215.641113,4262.948730,4218.205078,4217.307617,4212.179688,4217.820313,4220.512695,4232.436035,4232.307617,4186.666504,4246.538574,4282.692383,3487.000000,4.000000,86.000000,,,,0.000000,4.000000,4.000000,4.000000,4.000000,4.000000,4.000000,4.000000,4.000000,4.000000,4.000000,4.000000,4.000000,4.000000,4.000000,100.000000,,,,,,,,,,,,,,,,
1644854044.799829,165.000000,0.000000,4288.717773,4256.153809,4221.538574,4259.615234,4215.512695,4220.897461,4214.743652,4220.384766,4220.897461,4232.179688,4228.205078,4189.358887,4248.077148,4286.794922,3604.000000,4.000000,86.000000,,,,0.000000,4.000000,4.000000,4.000000,4.000000,4.000000,4.000000,4.000000,4.000000,4.000000,4.000000,4.000000,4.000000,4.000000,4.000000,100.000000,,,,,,,,,,,,,,,,
1644854044.803769,166.000000,0.000000,4297.179688,4262.948730,4227.307617,4252.179688,4214.102539,4224.871582,4217.307617,4224.615234,4222.948730,4227.948730,4225.512695,4194.102539,4244.615234,4285.128418,3512.000000,4.000000,86.000000,,,,0.000000,4.000000,4.000000,4.000000,4.000000,4.000000,4.000000,4.000000,4.000000,4.000000,4.000000,4.000000,4.000000,4.000000,4.000000,100.000000,,,,,,,,,,,,,,,,
1644854044.807710,167.000000,0.000000,4301.410156,4268.205078,4230.769043,4245.000000,4216.153809,4228.205078,4218.461426,4227.820313,4225.384766,4223.846191,4229.102539,4200.512695,4240.256348,4278.205078,2492.000000,4.000000,86.000000,,,,0.000000,4.000000,4.000000,4.000000,4.000000,4.000000,4.000000,4.000000,4.000000,4.000000,4.000000,4.000000,4.000000,4.000000,4.000000,100.000000,,,,,,,,,,,,,,,,
1644854044.811650,168.000000,0.000000,4301.282227,4270.512695,4231.922852,4242.820313,4221.666504,4230.256348,4219.230957,4228.717773,4226.666504,4224.871582,4240.512695,4206.666504,4240.769043,4272.692383,3487.000000,4.000000,86.000000,,,,0.000000,4.000000,4.000000,4.000000,4.000000,4.000000,4.000000,4.000000,4.000000,4.000000,4.000000,4.000000,4.000000,4.000000,4.000000,100.000000,,,,,,,,,,,,,,,,
1644854044.815590,169.000000,0.000000,4300.512695,4269.230957,4232.179688,4247.179688,4227.563965,4231.153809,4220.769043,4227.692383,4226.794922,4232.692383,4255.512695,4210.256348,4247.436035,4274.230957,3604.000000,4.000000,86.000000,,,,0.000000,4.000000,4.000000,4.000000,4.000000,4.000000,4.000000,4.000000,4.000000,4.000000,4.000000,4.000000,4.000000,4.000000,4.000000,100.000000,,,,,,,,,,,,,,,,
1644854044.819530,170.000000,0.000000,4302.307617,4264.615234,4232.692383,4255.512695,4230.000000,4231.153809,4222.307617,4225.897461,4225.897461,4243.589844,4266.794922,4210.384766,4255.769043,4282.692383,3512.000000,4.000000,86.000000,,,,0.000000,4.000000,4.000000,4.000000,4.000000,4.000000,4.000000,4.000000,4.000000,4.000000,4.000000,4.000000,4.000000,4.000000,4.000000,100.000000,,,,,,,,,,,,,,,,
1644854044.823470,171.000000,0.000000,4305.256348,4257.820313,4232.948730,4262.051270,4227.563965,4230.128418,4221.538574,4224.487305,4225.000000,4251.538574,4267.051270,4208.846191,4259.487305,4293.205078,2492.000000,4.000000,86.000000,,,,0.000000,4.000000,4.000000,4.000000,4.000000,4.000000,4.000000,4.000000,4.000000,4.000000,4.000000,4.000000,4.000000,4.000000,4.000000,100.000000,,,,,,,,,,,,,,,,
1644854044.827410,172.000000,0.000000,4305.384766,4251.922852,4231.282227,4262.179688,4222.692383,4228.205078,4218.077148,4224.230957,4224.358887,4251.666504,4254.615234,4208.333496,4255.384766,4300.000000,3487.000000,4.000000,86.000000,,,,0.000000,4.000000,4.000000,4.000000,4.000000,4.000000,4.000000,4.000000,4.000000,4.000000,4.000000,4.000000,4.000000,4.000000,4.000000,100.000000,,,,,,,,,,,,,,,,
1644854044.831350,173.000000,0.000000,4299.743652,4249.358887,4227.179688,4255.769043,4219.358887,4225.256348,4214.358887,4224.487305,4223.846191,4243.846191,4235.128418,4209.358887,4246.153809,4300.512695,3604.000000,4.000000,86.000000,,,,0.000000,4.000000,4.000000,4.000000,4.000000,4.000000,4.000000,4.000000,4.000000,4.000000,4.000000,4.000000,4.000000,4.000000,4.000000,100.000000,,,,,,,,,,,,,,,,
1644854044.835290,174.000000,0.000000,4289.487305,4250.512695,4222.307617,4247.820313,4219.358887,4221.025879,4212.692383,4223.974121,4222.436035,4231.538574,4218.461426,4210.000000,4238.077148,4296.153809,3512.000000,4.000000,86.000000,,,,0.000000,4.000000,4.000000,4.000000,4.000000,4.000000,4.000000,4.000000,4.000000,4.000000,4.000000,4.000000,4.000000,4.000000,4.000000,100.000000,,,,,,,,,,,,,,,,
1644854044.839230,175.000000,0.000000,4279.743652,4253.461426,4218.846191,4242.820313,4221.538574,4216.538574,4212.948730,4221.153809,4220.000000,4220.512695,4212.692383,4207.948730,4236.538574,4290.769043,2492.000000,4.000000,86.000000,,,,0.000000,4.000000,4.000000,4.000000,4.000000,4.000000,4.000000,4.000000,4.000000,4.000000,4.000000,4.000000,4.000000,4.000000,4.000000,100.000000,,,,,,,,,,,,,,,,
1644854044.843170,176.000000,0.000000,4275.384766,4256.538574,4218.846191,4242.948730,4223.461426,4214.102539,4212.563965,4216.538574,4217.563965,4215.897461,4220.000000,4202.820313,4242.563965,4288.461426,3487.000000,4.000000,86.000000,,,,0.000000,4.000000,4.000000,4.000000,4.000000,4.000000,4.000000,4.000000,4.000000,4.000000,4.000000,4.000000,4.000000,4.000000,4.000000,100.000000,,,,,,,,,,,,,,,,
1644854044.847111,177.000000,0.000000,4277.563965,4258.205078,4221.794922,4247.179688,4224.358887,4215.641113,4210.897461,4213.589844,4216.922852,4219.358887,4235.769043,4197.692383,4252.307617,4290.512695,3604.000000,4.000000,86.000000,,,,0.000000,4.000000,4.000000,4.000000,4.000000,4.000000,4.000000,4.000000,4.000000,4.000000,4.000000,4.000000,4.000000,4.000000,4.000000,100.000000,,,,,,,,,,,,,,,,
1644854044.851051,178.000000,0.000000,4282.563965,4257.436035,4225.641113,4254.358887,4224.871582,4221.153809,4209.743652,4215.641113,4219.358887,4228.077148,4251.922852,4196.025879,4259.743652,4294.230957,3512.000000,4.000000,86.000000,,,,0.000000,4.000000,4.000000,4.000000,4.000000,4.000000,4.000000,4.000000,4.000000,4.000000,4.000000,4.000000,4.000000,4.000000,4.000000,100.000000,,,,,,,,,,,,,,,,
1644854044.854991,179.000000,0.000000,4286.153809,4254.230957,4227.692383,4262.436035,4226.025879,4228.205078,4211.025879,4222.948730,4224.230957,4236.922852,4261.410156,4198.846191,4259.615234,4293.974121,2492.000000,4.000000,86.000000,,,,0.000000,4.000000,4.000000,4.000000,4.000000,4.000000,4.000000,4.000000,4.000000,4.000000,4.000000,4.000000,4.000000,4.000000,4.000000,100.000000,,,,,,,,,,,,,,,,
1644854044.858931,180.000000,0.000000,4286.922852,4250.128418,4226.922852,4268.846191,4227.051270,4232.692383,4213.846191,4232.051270,4230.128418,4241.922852,4261.538574,4204.615234,4251.922852,4287.436035,3487.000000,4.000000,86.000000,,,,0.000000,4.000000,4.000000,4.000000,4.000000,4.000000,4.000000,4.000000,4.000000,4.000000,4.000000,4.000000,4.000000,4.000000,4.000000,100.000000,,,,,,,,,,,,,,,,
1644854044.862871,181.000000,0.000000,4287.307617,4247.307617,4224.230957,4270.512695,4225.897461,4232.563965,4215.384766,4237.692383,4235.384766,4243.077148,4254.871582,4209.871582,4241.282227,4278.205078,3604.000000,4.000000,86.000000,,,,0.000000,4.000000,4.000000,4.000000,4.000000,4.000000,4.000000,4.000000,4.000000,4.000000,4.000000,4.000000,4.000000,4.000000,4.000000,100.000000,,,,,,,,,,,,,,,,
1644854044.866911,182.000000,0.000000,4291.922852,4248.717773,4221.794922,4267.179688,4222.436035,4228.974121,4214.487305,4236.666504,4238.205078,4242.820313,4246.282227,4211.794922,4234.358887,4275.000000,3512.000000,4.000000,86.000000,,,,0.000000,4.000000,4.000000,4.000000,4.000000,4.000000,4.000000,4.000000,4.000000,4.000000,4.000000,4.000000,4.000000,4.000000,4.000000,100.000000,,,,,,,,,,,,,,,,
1644854044.870851,183.000000,0.000000,4302.051270,4254.487305,4221.410156,4261.794922,4218.589844,4225.256348,4213.077148,4230.000000,4237.436035,4243.205078,4240.512695,4209.487305,4235.769043,4283.333496,2492.000000,4.000000,86.000000,,,,0.000000,4.000000,4.000000,4.000000,4.000000,4.000000,4.000000,4.000000,4.000000,4.000000,4.000000,4.000000,4.000000,4.000000,4.000000,100.000000,,,,,,,,,,,,,,,,
1644854044.874791,184.000000,0.000000,4314.230957,4262.820313,4223.461426,4258.461426,4217.436035,4225.000000,4214.230957,4222.051270,4233.077148,4244.230957,4239.358887,4204.615234,4245.256348,4300.384766,3487.000000,4.000000,86.000000,,,,0.000000,4.000000,4.000000,4.000000,4.000000,4.000000,4.000000,4.000000,4.000000,4.000000,4.000000,4.000000,4.000000,4.000000,4.000000,100.000000,,,,,,,,,,,,,,,,
1644854044.878731,185.000000,0.000000,4321.025879,4269.743652,4226.922852,4259.358887,4221.025879,4228.205078,4217.820313,4216.922852,4227.307617,4244.358887,4241.666504,4200.512695,4258.333496,4315.384766,3604.000000,4.000000,86.000000,,,,0.000000,4.000000,4.000000,4.000000,4.000000,4.000000,4.000000,4.000000,4.000000,4.000000,4.000000,4.000000,4.000000,4.000000,4.000000,100.000000,,,,,,,,,,,,,,,,
1644854044.882671,186.000000,0.000000,4317.692383,4272.179688,4229.615234,4262.563965,4228.461426,4232.179688,4220.897461,4216.025879,4223.461426,4242.307617,4244.358887,4199.230957,4268.205078,4317.820313,3512.000000,4.000000,86.000000,,,,0.000000,4.000000,4.000000,4.000000,4.000000,4.000000,4.000000,4.000000,4.000000,4.000000,4.000000,4.000000,4.000000,4.000000,4.000000,100.000000,,,,,,,,,,,,,,,,
1644854044.886612,187.000000,0.000000,4306.282227,4270.384766,4230.256348,4263.717773,4235.384766,4233.974121,4220.769043,4218.333496,4222.948730,4237.051270,4245.641113,4200.128418,4269.487305,4306.153809,2492.000000,4.000000,86.000000,,,,0.000000,4.000000,4.000000,4.000000,4.000000,4.000000,4.000000,4.000000,4.000000,4.000000,4.000000,4.000000,4.000000,4.000000,4.000000,100.000000,,,,,,,,,,,,,,,,
1644854044.890552,188.000000,0.000000,4294.871582,4266.794922,4228.846191,4260.512695,4236.282227,4232.820313,4218.717773,4221.794922,4224.487305,4230.128418,4245.769043,4201.153809,4262.179688,4288.717773,3487.000000,4.000000,86.000000,,,,0.000000,4.000000,4.000000,4.000000,4.000000,4.000000,4.000000,4.000000,4.000000,4.000000,4.000000,4.000000,4.000000,4.000000,4.000000,100.000000,,,,,,,,,,,,,,,,
1644854044.894492,189.000000,0.000000,4290.897461,4264.358887,4227.307617,4255.641113,4230.256348,4230.128418,4217.820313,4224.743652,4225.897461,4224.871582,4246.025879,4201.282227,4251.025879,4277.307617,3604.000000,4.000000,86.000000,,,,0.000000,4.000000,4.000000,4.000000,4.000000,4.000000,4.000000,4.000000,4.000000,4.000000,4.000000,4.000000,4.000000,4.000000,4.000000,100.000000,,,,,,,,,,,,,,,,
1644854044.898432,190.000000,0.000000,4294.743652,4263.974121,4227.051270,4254.871582,4222.563965,4228.717773,4219.487305,4226.666504,4226.410156,4224.615234,4247.051270,4201.666504,4242.436035,4277.179688,3512.000000,4.000000,86.000000,,,,0.000000,4.000000,4.000000,4.000000,4.000000,4.000000,4.000000,4.000000,4.000000,4.000000,4.000000,4.000000,4.000000,4.000000,4.000000,100.000000,,,,,,,,,,,,,,,,
1644854044.902372,191.000000,0.000000,4300.256348,4263.846191,4227.948730,4261.922852,4220.897461,4229.615234,4221.666504,4227.820313,4226.666504,4230.128418,4246.538574,4202.692383,4239.230957,4285.000000,2492.000000,4.000000,86.000000,,,,0.000000,4.000000,4.000000,4.000000,4.000000,4.000000,4.000000,4.000000,4.000000,4.000000,4.000000,4.000000,4.000000,4.000000,4.000000,100.000000,,,,,,,,,,,,,,,,
1644854044.906312,192.000000,0.000000,4300.769043,4261.538574,4228.205078,4273.846191,4227.563965,4231.538574,4221.410156,4228.846191,4226.922852,4237.436035,4242.436035,4203.205078,4240.000000,4292.692383,3487.000000,4.000000,86.000000,,,,0.000000,4.000000,4.000000,4.000000,4.000000,4.000000,4.000000,4.000000,4.000000,4.000000,4.000000,4.000000,4.000000,4.000000,4.000000,100.000000,,,,,,,,,,,,,,,,
1644854044.910252,193.000000,0.000000,4294.230957,4256.282227,4226.538574,4282.692383,4237.051270,4231.922852,4218.846191,4229.743652,4226.922852,4241.282227,4233.974121,4201.282227,4241.282227,4295.641113,3604.000000,4.000000,86.000000,,,,0.000000,4.000000,4.000000,4.000000,4.000000,4.000000,4.000000,4.000000,4.000000,4.000000,4.000000,4.000000,4.000000,4.000000,4.000000,100.000000,,,,,,,,,,,,,,,,
1644854044.914192,194.000000,0.000000,4284.102539,4250.897461,4223.205078,4281.153809,4241.410156,4230.000000,4217.051270,4230.512695,4226.666504,4238.205078,4224.743652,4196.282227,4241.410156,4293.461426,3512.000000,4.000000,86.000000,,,,0.000000,4.000000,4.000000,4.000000,4.000000,4.000000,4.000000,4.000000,4.000000,4.000000,4.000000,4.000000,4.000000,4.000000,4.000000,100.000000,,,,,,,,,,,,,,,,
1644854044.918132,195.000000,0.000000,4276.025879,4249.871582,4220.641113,4268.077148,4237.179688,4227.051270,4217.820313,4231.410156,4227.179688,4230.512695,4219.487305,4189.871582,4241.153809,4288.846191,2492.000000,4.000000,86.000000,,,,0.000000,4.000000,4.000000,4.000000,4.000000,4.000000,4.000000,4.000000,4.000000,4.000000,4.000000,4.000000,4.000000,4.000000,4.000000,100.000000,,,,,,,,,,,,,,,,
1644854044.922072,196.000000,0.000000,4273.717773,4255.128418,4220.128418,4250.512695,4227.948730,4225.512695,4219.871582,4232.179688,4229.358887,4224.743652,4221.410156,4185.256348,4242.179688,4283.846191,3487.000000,4.000000,86.000000,,,,0.000000,4.000000,4.000000,4.000000,4.000000,4.000000,4.000000,4.000000,4.000000,4.000000,4.000000,4.000000,4.000000,4.000000,4.000000,100.000000,,,,,,,,,,,,,,,,
1644854044.926013,197.000000,0.000000,4277.820313,4262.948730,4221.538574,4238.461426,4220.256348,4226.666504,4221.153809,4232.692383,4232.563965,4225.897461,4229.487305,4184.230957,4244.743652,4279.743652,3604.000000,4.000000,86.000000,,,,0.000000,4.000000,4.000000,4.000000,4.000000,4.000000,4.000000,4.000000,4.000000,4.000000,4.000000,4.000000,4.000000,4.000000,4.000000,100.000000,,,,,,,,,,,,,,,,
1644854044.929953,198.000000,0.000000,4284.871582,4267.436035,4223.333496,4238.333496,4218.589844,4229.358887,4220.897461,4232.948730,4234.743652,4233.461426,4237.436035,4186.025879,4247.307617,4278.077148,3512.000000,4.000000,86.000000,,,,0.000000,4.000000,4.000000,4.000000,4.000000,4.000000,4.000000,4.000000,4.000000,4.000000,4.000000,4.000000,4.000000,4.000000,4.000000,100.000000,,,,,,,,,,,,,,,,
1644854044.933893,199.000000,0.000000,4290.769043,4265.384766,4225.000000,4249.230957,4221.922852,4231.410156,4220.384766,4233.077148,4234.230957,4241.666504,4239.487305,4188.205078,4247.948730,4280.256348,2492.000000,4.000000,86.000000,,,,0.000000,4.000000,4.000000,4.000000,4.000000,4.000000,4.000000,4.000000,4.000000,4.000000,4.000000,4.000000,4.000000,4.000000,4.000000,100.000000,,,,,,,,,,,,,,,,
1644854044.937733,200.000000,0.000000,4292.563965,4259.230957,4226.410156,4263.205078,4226.282227,4231.666504,4220.128418,4233.717773,4232.051270,4244.230957,4234.743652,4188.846191,4246.282227,4285.384766,3487.000000,4.000000,86.000000,,,,0.000000,4.000000,4.000000,4.000000,4.000000,4.000000,4.000000,4.000000,4.000000,4.000000,4.000000,4.000000,4.000000,4.000000,4.000000,100.000000,,,,,,,,,,,,,,,,
1644854044.941673,201.000000,0.000000,4291.282227,4253.846191,4227.179688,4270.769043,4228.461426,4230.512695,4219.487305,4234.102539,4230.000000,4239.615234,4228.461426,4188.205078,4243.717773,4289.102539,3604.000000,4.000000,86.000000,,,,0.000000,4.000000,4.000000,4.000000,4.000000,4.000000,4.000000,4.000000,4.000000,4.000000,4.000000,4.000000,4.000000,4.000000,4.000000,100.000000,,,,,,,,,,,,,,,,
1644854044.945613,202.000000,0.000000,4289.102539,4251.538574,4226.538574,4267.692383,4227.436035,4228.974121,4217.179688,4233.077148,4229.487305,4232.948730,4227.051270,4187.692383,4241.538574,4287.307617,3512.000000,4.000000,86.000000,,,,0.000000,4.000000,4.000000,4.000000,4.000000,4.000000,4.000000,4.000000,4.000000,4.000000,4.000000,4.000000,4.000000,4.000000,4.000000,100.000000,,,,,,,,,,,,,,,,
1644854044.949553,203.000000,0.000000,4287.563965,4250.769043,4224.487305,4257.307617,4224.743652,4227.948730,4214.743652,4231.025879,4230.128418,4230.128418,4232.179688,4188.205078,4239.615234,4280.897461,2492.000000,4.000000,86.000000,,,,0.000000,4.000000,4.000000,4.000000,4.000000,4.000000,4.000000,4.000000,4.000000,4.000000,4.000000,4.000000,4.000000,4.000000,4.000000,100.000000,,,,,,,,,,,,,,,,
1644854044.953493,204.000000,0.000000,4286.153809,4248.717773,4221.794922,4247.563965,4221.922852,4228.077148,4214.743652,4229.871582,4231.153809,4233.205078,4240.384766,4188.205078,4238.077148,4275.897461,3487.000000,4.000000,86.000000,,,,0.000000,4.000000,4.000000,4.000000,4.000000,4.000000,4.000000,4.000000,4.000000,4.000000,4.000000,4.000000,4.000000,4.000000,4.000000,100.000000,,,,,,,,,,,,,,,,
1644854044.957434,205.000000,0.000000,4284.102539,4244.871582,4219.871582,4244.871582,4220.384766,4229.102539,4218.589844,4231.666504,4232.179688,4238.077148,4245.512695,4186.666504,4237.948730,4277.563965,3604.000000,4.000000,86.000000,,,,0.000000,4.000000,4.000000,4.000000,4.000000,4.000000,4.000000,4.000000,4.000000,4.000000,4.000000,4.000000,4.000000,4.000000,4.000000,100.000000,,,,,,,,,,,,,,,,
1644854044.961374,206.000000,0.000000,4282.051270,4242.307617,4219.743652,4249.615234,4220.769043,4230.512695,4223.717773,4235.512695,4233.333496,4239.871582,4244.358887,4184.615234,4240.769043,4285.128418,3512.000000,4.000000,86.000000,,,,0.000000,4.000000,4.000000,4.000000,4.000000,4.000000,4.000000,4.000000,4.000000,4.000000,4.000000,4.000000,4.000000,4.000000,4.000000,100.000000,,,,,,,,,,,,,,,,
1644854044.965314,207.000000,0.000000,4281.538574,4244.230957,4221.794922,4256.538574,4223.205078,4231.922852,4226.666504,4239.102539,4235.000000,4236.538574,4238.333496,4185.128418,4246.666504,4293.461426,2492.000000,4.000000,86.000000,,,,0.000000,4.000000,4.000000,4.000000,4.000000,4.000000,4.000000,4.000000,4.000000,4.000000,4.000000,4.000000,4.000000,4.000000,4.000000,100.000000,,,,,,,,,,,,,,,,
1644854044.969254,208.000000,0.000000,4282.948730,4250.384766,4225.384766,4259.230957,4225.512695,4232.307617,4226.153809,4239.615234,4236.410156,4231.153809,4232.307617,4190.769043,4252.948730,4298.077148,3487.000000,4.000000,86.000000,,,,0.000000,4.000000,4.000000,4.000000,4.000000,4.000000,4.000000,4.000000,4.000000,4.000000,4.000000,4.000000,4.000000,4.000000,4.000000,100.000000,,,,,,,,,,,,,,,,
1644854044.973194,209.000000,0.000000,4285.000000,4256.410156,4228.974121,4255.512695,4224.615234,4231.282227,4224.230957,4236.538574,4236.153809,4228.717773,4230.000000,4199.871582,4255.512695,4298.717773,3604.000000,4.000000,86.000000,,,,0.000000,4.000000,4.000000,4.000000,4.000000,4.000000,4.000000,4.000000,4.000000,4.000000,4.000000,4.000000,4.000000,4.000000,4.000000,100.000000,,,,,,,,,,,,,,,,
1644854044.977134,210.000000,0.000000,4286.282227,4257.692383,4231.025879,4248.717773,4218.333496,4229.487305,4222.820313,4231.410156,4233.717773,4230.897461,4232.436035,4207.948730,4252.436035,4297.563965,3512.000000,4.000000,86.000000,,,,0.000000,4.000000,4.000000,4.000000,4.000000,4.000000,4.000000,4.000000,4.000000,4.000000,4.000000,4.000000,4.000000,4.000000,4.000000,100.000000,,,,,,,,,,,,,,,,
1644854044.981074,211.000000,0.000000,4287.436035,4254.230957,4230.384766,4244.743652,4208.717773,4227.948730,4221.922852,4227.307617,4230.512695,4235.897461,4238.974121,4210.641113,4245.897461,4296.153809,2492.000000,4.000000,86.000000,,,,0.000000,4.000000,4.000000,4.000000,4.000000,4.000000,4.000000,4.000000,4.000000,4.000000,4.000000,4.000000,4.000000,4.000000,4.000000,100.000000,,,,,,,,,,,,,,,,
1644854044.985014,212.000000,0.000000,4289.871582,4249.743652,4228.589844,4247.563965,4201.538574,4228.461426,4220.256348,4226.282227,4228.974121,4240.128418,4247.820313,4207.948730,4240.897461,4294.615234,3487.000000,4.000000,86.000000,,,,0.000000,4.000000,4.000000,4.000000,4.000000,4.000000,4.000000,4.000000,4.000000,4.000000,4.000000,4.000000,4.000000,4.000000,4.000000,100.000000,,,,,,,,,,,,,,,,
1644854044.988954,213.000000,0.000000,4293.589844,4248.589844,4227.436035,4256.025879,4202.436035,4230.897461,4218.205078,4228.717773,4230.641113,4241.666504,4255.897461,4203.077148,4241.153809,4292.820313,3604.000000,4.000000,86.000000,,,,0.000000,4.000000,4.000000,4.000000,4.000000,4.000000,4.000000,4.000000,4.000000,4.000000,4.000000,4.000000,4.000000,4.000000,4.000000,100.000000,,,,,,,,,,,,,,,,
1644854044.992894,214.000000,0.000000,4297.051270,4251.153809,4228.717773,4264.743652,4212.179688,4233.461426,4218.077148,4232.948730,4234.871582,4241.666504,4260.000000,4199.743652,4246.153809,4290.897461,3512.000000,4.000000,86.000000,,,,0.000000,4.000000,4.000000,4.000000,4.000000,4.000000,4.000000,4.000000,4.000000,4.000000,4.000000,4.000000,4.000000,4.000000,4.000000,100.000000,,,,,,,,,,,,,,,,
1644854044.996835,215.000000,0.000000,4298.846191,4254.615234,4232.051270,4267.563965,4225.769043,4233.589844,4220.641113,4236.538574,4238.461426,4242.820313,4259.358887,4199.358887,4252.307617,4290.256348,2492.000000,4.000000,86.000000,,,,0.000000,4.000000,4.000000,4.000000,4.000000,4.000000,4.000000,4.000000,4.000000,4.000000,4.000000,4.000000,4.000000,4.000000,4.000000,100.000000,,,,,,,,,,,,,,,,
1644854045.000775,216.000000,0.000000,4299.871582,4256.282227,4235.512695,4262.307617,4236.282227,4230.897461,4223.205078,4237.692383,4239.102539,4246.410156,4256.538574,4201.025879,4256.025879,4291.922852,3487.000000,4.000000,86.000000,,,,0.000000,4.000000,4.000000,4.000000,4.000000,4.000000,4.000000,4.000000,4.000000,4.000000,4.000000,4.000000,4.000000,4.000000,4.000000,100.000000,,,,,,,,,,,,,,,,
1644854045.004715,217.000000,0.000000,4301.538574,4256.153809,4236.282227,4251.922852,4238.589844,4227.051270,4222.820313,4236.410156,4236.922852,4249.487305,4254.871582,4202.307617,4256.794922,4296.410156,3604.000000,4.000000,86.000000,,,,0.000000,4.000000,4.000000,4.000000,4.000000,4.000000,4.000000,4.000000,4.000000,4.000000,4.000000,4.000000,4.000000,4.000000,4.000000,100.000000,,,,,,,,,,,,,,,,
1644854045.008655,218.000000,0.000000,4303.846191,4256.410156,4233.974121,4243.077148,4233.333496,4224.615234,4219.230957,4233.333496,4234.102539,4247.820313,4254.487305,4201.410156,4255.641113,4302.436035,3512.000000,4.000000,86.000000,,,,0.000000,4.000000,4.000000,4.000000,4.000000,4.000000,4.000000,4.000000,4.000000,4.000000,4.000000,4.000000,4.000000,4.000000,4.000000,100.000000,,,,,,,,,,,,,,,,
1644854045.012495,219.000000,0.000000,4303.205078,4258.077148,4229.871582,4240.641113,4224.358887,4224.230957,4215.384766,4229.743652,4231.794922,4239.615234,4252.307617,4198.205078,4253.717773,4307.307617,2492.000000,4.000000,86.000000,,,,0.000000,4.000000,4.000000,4.000000,4.000000,4.000000,4.000000,4.000000,4.000000,4.000000,4.000000,4.000000,4.000000,4.000000,4.000000,100.000000,,,,,,,,,,,,,,,,
1644854045.016435,220.000000,0.000000,4297.563965,4260.128418,4225.641113,4245.128418,4217.051270,4225.256348,4213.846191,4226.153809,4229.487305,4228.974121,4245.641113,4194.102539,4251.282227,4307.692383,3487.000000,4.000000,86.000000,,,,0.000000,4.000000,4.000000,4.000000,4.000000,4.000000,4.000000,4.000000,4.000000,4.000000,4.000000,4.000000,4.000000,4.000000,4.000000,100.000000,,,,,,,,,,,,,,,,
1644854045.020375,221.000000,0.000000,4289.230957,4260.256348,4222.563965,4252.051270,4215.128418,4226.025879,4214.102539,4223.205078,4226.025879,4222.820313,4236.538574,4191.410156,4247.948730,4302.307617,3604.000000,4.000000,86.000000,,,,0.000000,4.000000,4.000000,4.000000,4.000000,4.000000,4.000000,4.000000,4.000000,4.000000,4.000000,4.000000,4.000000,4.000000,4.000000,100.000000,,,,,,,,,,,,,,,,
1644854045.024315,222.000000,0.000000,4283.974121,4258.077148,4221.025879,4255.512695,4218.461426,4225.641113,4214.102539,4221.282227,4222.179688,4225.000000,4230.897461,4191.153809,4244.487305,4293.589844,3512.000000,4.000000,86.000000,,,,0.000000,4.000000,4.000000,4.000000,4.000000,4.000000,4.000000,4.000000,4.000000,4.000000,4.000000,4.000000,4.000000,4.000000,4.000000,100.000000,,,,,,,,,,,,,,,,
1644854045.028256,223.000000,0.000000,4284.487305,4254.743652,4221.282227,4252.820313,4223.846191,4224.743652,4213.333496,4221.153809,4220.128418,4232.051270,4232.948730,4192.307617,4241.410156,4287.563965,2492.000000,4.000000,86.000000,,,,0.000000,4.000000,4.000000,4.000000,4.000000,4.000000,4.000000,4.000000,4.000000,4.000000,4.000000,4.000000,4.000000,4.000000,4.000000,100.000000,,,,,,,,,,,,,,,,
1644854045.032196,224.000000,0.000000,4288.461426,4250.512695,4222.948730,4245.769043,4226.922852,4224.487305,4213.717773,4223.589844,4221.153809,4236.538574,4241.410156,4192.307617,4238.974121,4288.589844,3487.000000,4.000000,86.000000,,,,0.000000,4.000000,4.000000,4.000000,4.000000,4.000000,4.000000,4.000000,4.000000,4.000000,4.000000,4.000000,4.000000,4.000000,4.000000,100.000000,,,,,,,,,,,,,,,,
1644854045.036136,225.000000,0.000000,4290.000000,4245.256348,4224.230957,4239.615234,4225.128418,4225.769043,4216.538574,4227.692383,4225.128418,4234.615234,4249.871582,4190.000000,4237.436035,4294.615234,3604.000000,4.000000,86.000000,,,,0.000000,4.000000,4.000000,4.000000,4.000000,4.000000,4.000000,4.000000,4.000000,4.000000,4.000000,4.000000,4.000000,4.000000,4.000000,100.000000,,,,,,,,,,,,,,,,
1644854045.040076,226.000000,0.000000,4285.128418,4239.230957,4223.589844,4238.717773,4220.256348,4228.589844,4220.384766,4231.538574,4230.256348,4228.717773,4252.820313,4186.666504,4237.563965,4299.487305,3512.000000,4.000000,86.000000,,,,0.000000,4.000000,4.000000,4.000000,4.000000,4.000000,4.000000,4.000000,4.000000,4.000000,4.000000,4.000000,4.000000,4.000000,4.000000,100.000000,,,,,,,,,,,,,,,,
1644854045.044016,227.000000,0.000000,4276.282227,4234.871582,4220.769043,4243.589844,4216.410156,4231.794922,4222.563965,4233.846191,4235.128418,4225.128418,4249.615234,4183.974121,4240.641113,4298.717773,2492.000000,4.000000,86.000000,,,,0.000000,4.000000,4.000000,4.000000,4.000000,4.000000,4.000000,4.000000,4.000000,4.000000,4.000000,4.000000,4.000000,4.000000,4.000000,100.000000,,,,,,,,,,,,,,,,
1644854045.047956,228.000000,0.000000,4270.000000,4235.256348,4217.179688,4250.641113,4216.922852,4233.974121,4222.051270,4234.487305,4239.102539,4227.948730,4244.615234,4183.846191,4246.153809,4293.461426,3487.000000,4.000000,86.000000,,,,0.000000,4.000000,4.000000,4.000000,4.000000,4.000000,4.000000,4.000000,4.000000,4.000000,4.000000,4.000000,4.000000,4.000000,4.000000,100.000000,,,,,,,,,,,,,,,,
1644854045.051896,229.000000,0.000000,4271.794922,4241.666504,4214.871582,4254.743652,4221.666504,4234.615234,4220.769043,4234.487305,4241.922852,4236.538574,4242.820313,4187.051270,4251.025879,4288.846191,3604.000000,4.000000,86.000000,,,,0.000000,4.000000,4.000000,4.000000,4.000000,4.000000,4.000000,4.000000,4.000000,4.000000,4.000000,4.000000,4.000000,4.000000,4.000000,100.000000,,,,,,,,,,,,,,,,
1644854045.055836,230.000000,0.000000,4281.153809,4251.666504,4215.256348,4252.436035,4227.179688,4233.846191,4221.153809,4234.743652,4243.205078,4247.179688,4246.410156,4192.820313,4252.051270,4287.307617,3512.000000,4.000000,86.000000,,,,0.000000,4.000000,4.000000,4.000000,4.000000,4.000000,4.000000,4.000000,4.000000,4.000000,4.000000,4.000000,4.000000,4.000000,4.000000,100.000000,,,,,,,,,,,,,,,,
1644854045.059776,231.000000,0.000000,4291.794922,4260.256348,4218.461426,4243.974121,4230.384766,4232.820313,4223.077148,4235.769043,4243.205078,4255.897461,4252.820313,4199.358887,4249.230957,4288.077148,2492.000000,4.000000,86.000000,,,,0.000000,4.000000,4.000000,4.000000,4.000000,4.000000,4.000000,4.000000,4.000000,4.000000,4.000000,4.000000,4.000000,4.000000,4.000000,100.000000,,,,,,,,,,,,,,,,
1644854045.063716,232.000000,0.000000,4296.025879,4263.077148,4223.333496,4233.077148,4230.128418,4232.820313,4224.743652,4237.436035,4242.948730,4260.000000,4257.307617,4203.974121,4245.897461,4289.487305,3487.000000,4.000000,86.000000,,,,0.000000,4.000000,4.000000,4.000000,4.000000,4.000000,4.000000,4.000000,4.000000,4.000000,4.000000,4.000000,4.000000,4.000000,4.000000,100.000000,,,,,,,,,,,,,,,,
1644854045.067657,233.000000,0.000000,4291.410156,4258.717773,4228.333496,4224.615234,4228.205078,4233.717773,4225.128418,4238.974121,4243.717773,4258.974121,4255.641113,4204.743652,4245.897461,4291.922852,3604.000000,4.000000,86.000000,,,,0.000000,4.000000,4.000000,4.000000,4.000000,4.000000,4.000000,4.000000,4.000000,4.000000,4.000000,4.000000,4.000000,4.000000,4.000000,100.000000,,,,,,,,,,,,,,,,
1644854045.071597,234.000000,0.000000,4283.077148,4250.897461,4232.307617,4222.179688,4227.179688,4234.358887,4225.256348,4240.256348,4244.871582,4254.230957,4248.333496,4202.307617,4250.128418,4296.666504,3512.000000,4.000000,86.000000,,,,0.000000,4.000000,4.000000,4.000000,4.000000,4.000000,4.000000,4.000000,4.000000,4.000000,4.000000,4.000000,4.000000,4.000000,4.000000,100.000000,,,,,,,,,,,,,,,,
1644854045.075537,235.000000,0.000000,4278.974121,4244.615234,4235.000000,4226.538574,4227.692383,4233.589844,4226.282227,4241.410156,4245.641113,4248.974121,4240.769043,4198.974121,4255.128418,4302.436035,2492.000000,4.000000,86.000000,,,,0.000000,4.000000,4.000000,4.000000,4.000000,4.000000,4.000000,4.000000,4.000000,4.000000,4.000000,4.000000,4.000000,4.000000,4.000000,100.000000,,,,,,,,,,,,,,,,
1644854045.079477,236.000000,0.000000,4283.205078,4243.077148,4235.897461,4234.743652,4227.692383,4232.179688,4227.563965,4241.794922,4244.358887,4245.512695,4239.102539,4197.307617,4256.666504,4304.871582,3487.000000,4.000000,86.000000,,,,0.000000,4.000000,4.000000,4.000000,4.000000,4.000000,4.000000,4.000000,4.000000,4.000000,4.000000,4.000000,4.000000,4.000000,4.000000,100.000000,,,,,,,,,,,,,,,,
1644854045.083417,237.000000,0.000000,4291.794922,4245.128418,4233.589844,4242.307617,4224.358887,4231.282227,4227.179688,4240.512695,4240.769043,4243.589844,4244.615234,4198.717773,4252.692383,4299.871582,3604.000000,4.000000,86.000000,,,,0.000000,4.000000,4.000000,4.000000,4.000000,4.000000,4.000000,4.000000,4.000000,4.000000,4.000000,4.000000,4.000000,4.000000,4.000000,100.000000,,,,,,,,,,,,,,,,
1644854045.087257,238.000000,0.000000,4297.692383,4246.794922,4228.589844,4245.641113,4216.410156,4231.794922,4224.487305,4236.666504,4234.871582,4240.512695,4251.410156,4202.179688,4244.230957,4288.846191,3512.000000,4.000000,86.000000,,,,0.000000,4.000000,4.000000,4.000000,4.000000,4.000000,4.000000,4.000000,4.000000,4.000000,4.000000,4.000000,4.000000,4.000000,4.000000,100.000000,,,,,,,,,,,,,,,,
1644854045.091197,239.000000,0.000000,4297.179688,4245.641113,4223.333496,4244.230957,4206.794922,4232.692383,4221.282227,4231.410156,4228.205078,4234.743652,4252.179688,4205.256348,4235.128418,4278.589844,2492.000000,4.000000,86.000000,,,,0.000000,4.000000,4.000000,4.000000,4.000000,4.000000,4.000000,4.000000,4.000000,4.000000,4.000000,4.000000,4.000000,4.000000,4.000000,100.000000,,,,,,,,,,,,,,,,
1644854045.095137,240.000000,0.000000,4293.333496,4243.717773,4221.538574,4240.000000,4201.666504,4232.563965,4220.128418,4226.282227,4221.922852,4227.307617,4244.615234,4205.256348,4229.487305,4275.641113,3487.000000,4.000000,86.000000,,,,0.000000,4.000000,4.000000,4.000000,4.000000,4.000000,4.000000,4.000000,4.000000,4.000000,4.000000,4.000000,4.000000,4.000000,4.000000,100.000000,,,,,,,,,,,,,,,,
1644854045.099078,241.000000,0.000000,4292.051270,4244.615234,4223.846191,4235.384766,4205.769043,4230.512695,4220.897461,4223.205078,4217.563965,4220.769043,4234.358887,4201.794922,4229.743652,4281.025879,3604.000000,4.000000,86.000000,,,,0.000000,4.000000,4.000000,4.000000,4.000000,4.000000,4.000000,4.000000,4.000000,4.000000,4.000000,4.000000,4.000000,4.000000,4.000000,100.000000,,,,,,,,,,,,,,,,
1644854045.103018,242.000000,0.000000,4295.512695,4249.487305,4227.436035,4231.666504,4217.820313,4227.179688,4221.153809,4222.179688,4215.897461,4216.922852,4230.256348,4196.282227,4233.974121,4290.256348,3512.000000,4.000000,86.000000,,,,0.000000,4.000000,4.000000,4.000000,4.000000,4.000000,4.000000,4.000000,4.000000,4.000000,4.000000,4.000000,4.000000,4.000000,4.000000,100.000000,,,,,,,,,,,,,,,,
1644854045.106958,243.000000,0.000000,4300.384766,4254.487305,4228.461426,4229.615234,4231.025879,4223.846191,4219.487305,4222.436035,4216.794922,4216.794922,4235.384766,4191.282227,4237.820313,4297.179688,2492.000000,4.000000,86.000000,,,,0.000000,4.000000,4.000000,4.000000,4.000000,4.000000,4.000000,4.000000,4.000000,4.000000,4.000000,4.000000,4.000000,4.000000,4.000000,100.000000,,,,,,,,,,,,,,,,
1644854045.110898,244.000000,0.000000,4300.256348,4255.000000,4225.512695,4229.871582,4238.333496,4222.436035,4217.179688,4223.077148,4218.974121,4219.358887,4244.358887,4188.589844,4237.563965,4299.743652,3487.000000,4.000000,86.000000,,,,0.000000,4.000000,4.000000,4.000000,4.000000,4.000000,4.000000,4.000000,4.000000,4.000000,4.000000,4.000000,4.000000,4.000000,4.000000,100.000000,,,,,,,,,,,,,,,,
1644854045.114838,245.000000,0.000000,4292.563965,4249.230957,4220.512695,4232.179688,4237.563965,4223.974121,4216.922852,4224.358887,4220.897461,4222.948730,4247.563965,4188.461426,4233.333496,4298.461426,3604.000000,4.000000,86.000000,,,,0.000000,4.000000,4.000000,4.000000,4.000000,4.000000,4.000000,4.000000,4.000000,4.000000,4.000000,4.000000,4.000000,4.000000,4.000000,100.000000,,,,,,,,,,,,,,,,
1644854045.118778,246.000000,0.000000,4280.128418,4240.128418,4217.307617,4234.487305,4232.307617,4228.333496,4218.461426,4226.282227,4222.179688,4225.384766,4240.128418,4189.871582,4228.589844,4294.743652,3512.000000,4.000000,86.000000,,,,0.000000,4.000000,4.000000,4.000000,4.000000,4.000000,4.000000,4.000000,4.000000,4.000000,4.000000,4.000000,4.000000,4.000000,4.000000,100.000000,,,,,,,,,,,,,,,,
1644854045.122718,247.000000,0.000000,4268.974121,4232.051270,4217.563965,4234.230957,4227.307617,4232.948730,4218.974121,4227.948730,4223.717773,4225.769043,4226.153809,4192.051270,4226.282227,4288.974121,2492.000000,4.000000,86.000000,,,,0.000000,4.000000,4.000000,4.000000,4.000000,4.000000,4.000000,4.000000,4.000000,4.000000,4.000000,4.000000,4.000000,4.000000,4.000000,100.000000,,,,,,,,,,,,,,,,
1644854045.126658,248.000000,0.000000,4264.615234,4228.077148,4220.769043,4230.897461,4224.358887,4235.000000,4216.410156,4228.589844,4225.641113,4224.743652,4215.769043,4194.358887,4226.538574,4282.436035,3487.000000,4.000000,86.000000,,,,0.000000,4.000000,4.000000,4.000000,4.000000,4.000000,4.000000,4.000000,4.000000,4.000000,4.000000,4.000000,4.000000,4.000000,4.000000,100.000000,,,,,,,,,,,,,,,,
1644854045.130598,249.000000,0.000000,4268.333496,4228.846191,4223.974121,4227.051270,4221.153809,4233.077148,4212.692383,4227.948730,4227.179688,4223.333496,4217.051270,4196.025879,4227.820313,4278.461426,3604.000000,4.000000,86.000000,,,,0.000000,4.000000,4.000000,4.000000,4.000000,4.000000,4.000000,4.000000,4.000000,4.000000,4.000000,4.000000,4.000000,4.000000,4.000000,100.000000,,,,,,,,,,,,,,,,
1644854045.134538,250.000000,0.000000,4277.051270,4233.077148,4224.743652,4225.641113,4215.897461,4228.717773,4211.922852,4226.794922,4227.051270,4222.563965,4228.846191,4196.538574,4229.358887,4280.256348,3512.000000,4.000000,86.000000,,,,0.000000,4.000000,4.000000,4.000000,4.000000,4.000000,4.000000,4.000000,4.000000,4.000000,4.000000,4.000000,4.000000,4.000000,4.000000,100.000000,,,,,,,,,,,,,,,,
1644854045.138479,251.000000,0.000000,4286.922852,4238.974121,4222.051270,4228.205078,4210.256348,4225.000000,4215.256348,4225.641113,4225.128418,4222.436035,4242.051270,4195.128418,4232.948730,4287.692383,2492.000000,4.000000,86.000000,,,,0.000000,4.000000,4.000000,4.000000,4.000000,4.000000,4.000000,4.000000,4.000000,4.000000,4.000000,4.000000,4.000000,4.000000,4.000000,100.000000,,,,,,,,,,,,,,,,
1644854045.142419,252.000000,0.000000,4295.000000,4244.743652,4216.922852,4234.102539,4208.974121,4224.615234,4219.743652,4224.615234,4222.820313,4223.077148,4247.307617,4192.051270,4239.871582,4296.025879,3487.000000,4.000000,86.000000,,,,0.000000,4.000000,4.000000,4.000000,4.000000,4.000000,4.000000,4.000000,4.000000,4.000000,4.000000,4.000000,4.000000,4.000000,4.000000,100.000000,,,,,,,,,,,,,,,,
1644854045.146359,253.000000,0.000000,4299.871582,4249.358887,4211.922852,4240.512695,4215.000000,4227.563965,4221.922852,4223.974121,4222.179688,4223.974121,4243.205078,4189.230957,4248.717773,4300.000000,3604.000000,4.000000,86.000000,,,,0.000000,4.000000,4.000000,4.000000,4.000000,4.000000,4.000000,4.000000,4.000000,4.000000,4.000000,4.000000,4.000000,4.000000,4.000000,100.000000,,,,,,,,,,,,,,,,
1644854045.150299,254.000000,0.000000,4300.384766,4251.538574,4210.000000,4245.128418,4225.641113,4231.794922,4221.410156,4224.743652,4224.230957,4224.743652,4236.025879,4188.717773,4255.384766,4297.692383,3512.000000,4.000000,86.000000,,,,0.000000,4.000000,4.000000,4.000000,4.000000,4.000000,4.000000,4.000000,4.000000,4.000000,4.000000,4.000000,4.000000,4.000000,4.000000,100.000000,,,,,,,,,,,,,,,,
1644854045.154239,255.000000,0.000000,4295.897461,4250.256348,4213.077148,4247.179688,4234.102539,4234.871582,4221.153809,4228.461426,4228.333496,4225.641113,4232.692383,4191.922852,4256.794922,4291.538574,113.000000,4.000000,86.000000,,,,0.000000,4.000000,4.000000,4.000000,4.000000,4.000000,4.000000,4.000000,4.000000,4.000000,4.000000,4.000000,4.000000,4.000000,4.000000,100.000000,,,,,,,,,,,,,,,,
1644854045.158179,0.000000,0.000000,4288.205078,4245.512695,4219.615234,4247.179688,4235.000000,4235.384766,4222.948730,4234.871582,4233.333496,4227.179688,4235.641113,4197.307617,4253.717773,4285.769043,3423.000000,4.000000,86.000000,,,,0.000000,4.000000,4.000000,4.000000,4.000000,4.000000,4.000000,4.000000,4.000000,4.000000,4.000000,4.000000,4.000000,4.000000,4.000000,100.000000,,,,,,,,,,,,,,,,
1644854045.162019,1.000000,0.000000,4281.282227,4239.871582,4225.769043,4246.538574,4228.333496,4234.230957,4225.512695,4241.410156,4237.948730,4230.000000,4241.922852,4202.051270,4250.256348,4283.077148,3204.000000,4.000000,86.000000,,,,0.000000,4.000000,4.000000,4.000000,4.000000,4.000000,4.000000,4.000000,4.000000,4.000000,4.000000,4.000000,4.000000,4.000000,4.000000,100.000000,,,,,,,,,,,,,,,,
1644854045.165959,2.000000,0.000000,4279.743652,4237.179688,4228.846191,4246.153809,4219.230957,4232.692383,4226.922852,4245.384766,4241.410156,4233.846191,4247.563965,4204.615234,4250.384766,4284.230957,3545.000000,4.000000,86.000000,,,,0.000000,4.000000,4.000000,4.000000,4.000000,4.000000,4.000000,4.000000,4.000000,4.000000,4.000000,4.000000,4.000000,4.000000,4.000000,100.000000,,,,,,,,,,,,,,,,
1644854045.169900,3.000000,0.000000,4284.743652,4238.974121,4229.230957,4245.512695,4214.358887,4232.436035,4227.307617,4245.769043,4243.333496,4236.794922,4250.384766,4204.615234,4253.717773,4289.230957,3608.000000,4.000000,86.000000,,,,0.000000,4.000000,4.000000,4.000000,4.000000,4.000000,4.000000,4.000000,4.000000,4.000000,4.000000,4.000000,4.000000,4.000000,4.000000,100.000000,,,,,,,,,,,,,,,,
1644854045.173840,4.000000,0.000000,4293.077148,4243.846191,4228.846191,4244.230957,4217.307617,4234.102539,4228.077148,4243.589844,4243.077148,4236.922852,4249.871582,4203.077148,4256.538574,4296.666504,3501.000000,4.000000,86.000000,,,,0.000000,4.000000,4.000000,4.000000,4.000000,4.000000,4.000000,4.000000,4.000000,4.000000,4.000000,4.000000,4.000000,4.000000,4.000000,100.000000,,,,,,,,,,,,,,,,
1644854045.177780,5.000000,0.000000,4300.256348,4247.307617,4228.205078,4242.307617,4226.153809,4236.538574,4229.230957,4239.871582,4240.769043,4233.717773,4246.282227,4200.897461,4254.230957,4302.948730,3450.000000,4.000000,86.000000,,,,0.000000,4.000000,4.000000,4.000000,4.000000,4.000000,4.000000,4.000000,4.000000,4.000000,4.000000,4.000000,4.000000,4.000000,4.000000,100.000000,,,,,,,,,,,,,,,,
1644854045.181720,6.000000,0.000000,4302.692383,4246.666504,4226.410156,4240.128418,4234.743652,4237.692383,4228.846191,4236.410156,4237.436035,4229.743652,4239.871582,4198.589844,4246.410156,4303.974121,2620.000000,4.000000,86.000000,,,,0.000000,4.000000,4.000000,4.000000,4.000000,4.000000,4.000000,4.000000,4.000000,4.000000,4.000000,4.000000,4.000000,4.000000,4.000000,100.000000,,,,,,,,,,,,,,,,
1644854045.185660,7.000000,0.000000,4298.974121,4242.563965,4222.563965,4235.897461,4236.538574,4236.025879,4225.769043,4234.487305,4234.871582,4228.461426,4232.051270,4196.538574,4236.922852,4298.461426,2894.000000,4.000000,86.000000,,,,0.000000,4.000000,4.000000,4.000000,4.000000,4.000000,4.000000,4.000000,4.000000,4.000000,4.000000,4.000000,4.000000,4.000000,4.000000,100.000000,,,,,,,,,,,,,,,,
1644854045.189600,8.000000,0.000000,4290.000000,4238.461426,4218.205078,4226.794922,4229.230957,4232.436035,4222.051270,4234.615234,4233.461426,4231.153809,4225.641113,4194.743652,4231.282227,4290.256348,3304.000000,4.000000,86.000000,,,,0.000000,4.000000,4.000000,4.000000,4.000000,4.000000,4.000000,4.000000,4.000000,4.000000,4.000000,4.000000,4.000000,4.000000,4.000000,100.000000,,,,,,,,,,,,,,,,
1644854045.193540,9.000000,0.000000,4278.717773,4237.692383,4215.897461,4213.205078,4216.666504,4229.230957,4220.769043,4235.769043,4232.179688,4234.871582,4223.846191,4193.461426,4232.307617,4284.358887,3423.000000,4.000000,86.000000,,,,0.000000,4.000000,4.000000,4.000000,4.000000,4.000000,4.000000,4.000000,4.000000,4.000000,4.000000,4.000000,4.000000,4.000000,4.000000,100.000000,,,,,,,,,,,,,,,,
1644854045.197480,10.000000,0.000000,4270.256348,4240.512695,4217.563965,4200.897461,4207.307617,4228.846191,4222.820313,4235.769043,4230.256348,4235.641113,4227.563965,4193.333496,4238.077148,4283.589844,3534.000000,4.000000,86.000000,,,,0.000000,4.000000,4.000000,4.000000,4.000000,4.000000,4.000000,4.000000,4.000000,4.000000,4.000000,4.000000,4.000000,4.000000,4.000000,100.000000,,,,,,,,,,,,,,,,
1644854045.201420,11.000000,0.000000,4269.615234,4245.512695,4222.820313,4198.846191,4208.846191,4231.025879,4225.769043,4233.461426,4227.948730,4231.666504,4234.487305,4195.000000,4244.102539,4286.410156,2616.000000,4.000000,86.000000,,,,0.000000,4.000000,4.000000,4.000000,4.000000,4.000000,4.000000,4.000000,4.000000,4.000000,4.000000,4.000000,4.000000,4.000000,4.000000,100.000000,,,,,,,,,,,,,,,,
1644854045.205360,12.000000,0.000000,4277.563965,4249.358887,4228.717773,4212.179688,4221.666504,4233.974121,4226.794922,4230.000000,4226.794922,4224.871582,4239.871582,4198.717773,4246.025879,4289.230957,3472.000000,4.000000,86.000000,,,,0.000000,4.000000,4.000000,4.000000,4.000000,4.000000,4.000000,4.000000,4.000000,4.000000,4.000000,4.000000,4.000000,4.000000,4.000000,100.000000,,,,,,,,,,,,,,,,
1644854045.209301,13.000000,0.000000,4289.358887,4249.230957,4231.794922,4235.769043,4238.461426,4235.897461,4225.897461,4228.205078,4227.692383,4218.461426,4240.769043,4203.461426,4242.051270,4289.358887,3385.000000,4.000000,86.000000,,,,0.000000,4.000000,4.000000,4.000000,4.000000,4.000000,4.000000,4.000000,4.000000,4.000000,4.000000,4.000000,4.000000,4.000000,4.000000,100.000000,,,,,,,,,,,,,,,,
1644854045.213241,14.000000,0.000000,4298.077148,4244.871582,4230.641113,4256.538574,4249.487305,4235.641113,4224.871582,4229.230957,4230.128418,4215.256348,4237.948730,4206.794922,4233.589844,4287.051270,3534.000000,4.000000,86.000000,,,,0.000000,4.000000,4.000000,4.000000,4.000000,4.000000,4.000000,4.000000,4.000000,4.000000,4.000000,4.000000,4.000000,4.000000,4.000000,100.000000,,,,,,,,,,,,,,,,
1644854045.217181,15.000000,0.000000,4299.615234,4239.871582,4226.410156,4262.436035,4249.230957,4233.333496,4224.615234,4232.051270,4232.820313,4216.153809,4234.871582,4206.538574,4225.641113,4284.230957,2616.000000,4.000000,86.000000,,,,0.000000,4.000000,4.000000,4.000000,4.000000,4.000000,4.000000,4.000000,4.000000,4.000000,4.000000,4.000000,4.000000,4.000000,4.000000,100.000000,,,,,,,,,,,,,,,,
1644854045.221121,16.000000,0.000000,4295.128418,4238.974121,4221.922852,4251.922852,4239.487305,4230.128418,4224.230957,4234.230957,4234.871582,4221.282227,4234.743652,4202.436035,4223.077148,4283.974121,3472.000000,4.000000,86.000000,,,,0.000000,4.000000,4.000000,4.000000,4.000000,4.000000,4.000000,4.000000,4.000000,4.000000,4.000000,4.000000,4.000000,4.000000,4.000000,100.000000,,,,,,,,,,,,,,,,
1644854045.225061,17.000000,0.000000,4289.102539,4243.717773,4219.358887,4234.871582,4227.307617,4228.205078,4222.692383,4233.974121,4236.410156,4229.487305,4237.436035,4196.538574,4227.563965,4287.179688,3385.000000,4.000000,86.000000,,,,0.000000,4.000000,4.000000,4.000000,4.000000,4.000000,4.000000,4.000000,4.000000,4.000000,4.000000,4.000000,4.000000,4.000000,4.000000,100.000000,,,,,,,,,,,,,,,,
1644854045.229001,18.000000,0.000000,4286.025879,4250.384766,4219.615234,4224.487305,4220.512695,4228.974121,4220.641113,4232.436035,4237.436035,4237.692383,4240.000000,4192.563965,4236.153809,4292.436035,3534.000000,4.000000,86.000000,,,,0.000000,4.000000,4.000000,4.000000,4.000000,4.000000,4.000000,4.000000,4.000000,4.000000,4.000000,4.000000,4.000000,4.000000,4.000000,100.000000,,,,,,,,,,,,,,,,
1644854045.233041,19.000000,0.000000,4287.820313,4254.487305,4221.922852,4228.077148,4221.922852,4232.563965,4220.384766,4231.794922,4237.820313,4242.563965,4240.256348,4192.307617,4243.077148,4296.794922,2616.000000,4.000000,86.000000,,,,0.000000,4.000000,4.000000,4.000000,4.000000,4.000000,4.000000,4.000000,4.000000,4.000000,4.000000,4.000000,4.000000,4.000000,4.000000,100.000000,,,,,,,,,,,,,,,,
1644854045.236981,20.000000,0.000000,4293.717773,4253.846191,4224.102539,4241.282227,4228.717773,4237.307617,4222.948730,4233.333496,4237.436035,4242.051270,4239.615234,4194.615234,4245.256348,4297.692383,3472.000000,4.000000,86.000000,,,,0.000000,4.000000,4.000000,4.000000,4.000000,4.000000,4.000000,4.000000,4.000000,4.000000,4.000000,4.000000,4.000000,4.000000,4.000000,100.000000,,,,,,,,,,,,,,,,
1644854045.240921,21.000000,0.000000,4300.769043,4250.769043,4224.230957,4251.922852,4235.256348,4241.025879,4226.153809,4235.769043,4236.410156,4237.436035,4241.153809,4195.641113,4244.358887,4294.615234,3385.000000,4.000000,86.000000,,,,0.000000,4.000000,4.000000,4.000000,4.000000,4.000000,4.000000,4.000000,4.000000,4.000000,4.000000,4.000000,4.000000,4.000000,4.000000,100.000000,,,,,,,,,,,,,,,,
1644854045.244861,22.000000,0.000000,4305.000000,4248.717773,4221.538574,4250.641113,4237.948730,4242.179688,4227.436035,4237.179688,4235.769043,4233.589844,4244.871582,4192.820313,4244.487305,4289.487305,3534.000000,4.000000,86.000000,,,,0.000000,4.000000,4.000000,4.000000,4.000000,4.000000,4.000000,4.000000,4.000000,4.000000,4.000000,4.000000,4.000000,4.000000,4.000000,100.000000,,,,,,,,,,,,,,,,
1644854045.248802,23.000000,0.000000,4303.717773,4248.974121,4218.077148,4237.948730,4237.179688,4240.512695,4226.410156,4236.538574,4236.282227,4234.358887,4246.153809,4187.692383,4247.563965,4285.128418,2616.000000,4.000000,86.000000,,,,0.000000,4.000000,4.000000,4.000000,4.000000,4.000000,4.000000,4.000000,4.000000,4.000000,4.000000,4.000000,4.000000,4.000000,4.000000,100.000000,,,,,,,,,,,,,,,,
1644854045.252742,24.000000,0.000000,4297.307617,4250.000000,4216.666504,4222.692383,4235.000000,4237.179688,4225.256348,4235.256348,4238.077148,4239.230957,4239.871582,4184.743652,4251.410156,4282.563965,3472.000000,4.000000,86.000000,,,,0.000000,4.000000,4.000000,4.000000,4.000000,4.000000,4.000000,4.000000,4.000000,4.000000,4.000000,4.000000,4.000000,4.000000,4.000000,100.000000,,,,,,,,,,,,,,,,
1644854045.256682,25.000000,0.000000,4289.102539,4249.871582,4218.461426,4214.358887,4232.692383,4234.230957,4226.153809,4235.641113,4240.384766,4243.717773,4227.692383,4188.461426,4251.666504,4280.128418,3385.000000,4.000000,86.000000,,,,0.000000,4.000000,4.000000,4.000000,4.000000,4.000000,4.000000,4.000000,4.000000,4.000000,4.000000,4.000000,4.000000,4.000000,4.000000,100.000000,,,,,,,,,,,,,,,,
1644854045.260622,26.000000,0.000000,4283.205078,4247.948730,4222.436035,4216.025879,4230.128418,4233.205078,4228.461426,4239.102539,4242.436035,4242.820313,4218.589844,4198.974121,4245.512695,4276.153809,3534.000000,4.000000,86.000000,,,,0.000000,4.000000,4.000000,4.000000,4.000000,4.000000,4.000000,4.000000,4.000000,4.000000,4.000000,4.000000,4.000000,4.000000,4.000000,100.000000,,,,,,,,,,,,,,,,
1644854045.264562,27.000000,0.000000,4282.051270,4245.641113,4226.410156,4223.717773,4227.692383,4234.358887,4229.743652,4244.358887,4244.230957,4236.666504,4220.897461,4211.410156,4234.358887,4271.410156,2616.000000,4.000000,86.000000,,,,0.000000,4.000000,4.000000,4.000000,4.000000,4.000000,4.000000,4.000000,4.000000,4.000000,4.000000,4.000000,4.000000,4.000000,4.000000,100.000000,,,,,,,,,,,,,,,,
1644854045.268502,28.000000,0.000000,4286.922852,4245.512695,4228.846191,4231.794922,4225.897461,4235.897461,4229.102539,4248.077148,4245.128418,4230.384766,4233.589844,4219.102539,4223.205078,4270.769043,3472.000000,4.000000,86.000000,,,,0.000000,4.000000,4.000000,4.000000,4.000000,4.000000,4.000000,4.000000,4.000000,4.000000,4.000000,4.000000,4.000000,4.000000,4.000000,100.000000,1.000000,100.000000,4.000000,4.000000,4.000000,4.000000,4.000000,4.000000,4.000000,4.000000,4.000000,4.000000,4.000000,4.000000,4.000000,4.000000
1644854045.272442,29.000000,0.000000,4297.436035,4248.333496,4229.743652,4237.948730,4225.641113,4236.153809,4227.692383,4247.948730,4244.871582,4230.000000,4247.948730,4217.820313,4219.230957,4279.487305,3385.000000,4.000000,86.000000,,,,0.000000,4.000000,4.000000,4.000000,4.000000,4.000000,4.000000,4.000000,4.000000,4.000000,4.000000,4.000000,4.000000,4.000000,4.000000,100.000000,,,,,,,,,,,,,,,,
1644854045.276382,30.000000,0.000000,4308.846191,4253.461426,4229.615234,4243.333496,4227.179688,4234.487305,4226.794922,4243.974121,4242.820313,4235.897461,4255.769043,4208.846191,4227.051270,4297.179688,3534.000000,4.000000,86.000000,,,,0.000000,4.000000,4.000000,4.000000,4.000000,4.000000,4.000000,4.000000,4.000000,4.000000,4.000000,4.000000,4.000000,4.000000,4.000000,100.000000,,,,,,,,,,,,,,,,
1644854045.280322,31.000000,0.000000,4313.205078,4257.436035,4228.205078,4247.563965,4229.358887,4232.179688,4225.897461,4238.333496,4239.743652,4241.922852,4254.487305,4198.205078,4244.615234,4315.000000,2616.000000,4.000000,86.000000,,,,0.000000,4.000000,4.000000,4.000000,4.000000,4.000000,4.000000,4.000000,4.000000,4.000000,4.000000,4.000000,4.000000,4.000000,4.000000,100.000000,,,,,,,,,,,,,,,,
1644854045.284262,32.000000,0.000000,4303.333496,4256.025879,4224.871582,4247.563965,4229.487305,4230.641113,4223.589844,4233.461426,4235.641113,4240.384766,4246.282227,4192.307617,4260.897461,4319.487305,0.000000,4.000000,86.000000,,,,0.000000,4.000000,4.000000,4.000000,4.000000,4.000000,4.000000,4.000000,4.000000,4.000000,4.000000,4.000000,4.000000,4.000000,4.000000,100.000000,,,,,,,,,,,,,,,,
1644854045.288203,33.000000,0.000000,4279.358887,4247.051270,4220.512695,4239.487305,4226.153809,4230.512695,4219.871582,4230.256348,4231.153809,4227.692383,4233.333496,4193.846191,4261.794922,4302.307617,0.000000,4.000000,86.000000,,,,0.000000,4.000000,4.000000,4.000000,4.000000,4.000000,4.000000,4.000000,4.000000,4.000000,4.000000,4.000000,4.000000,4.000000,4.000000,100.000000,,,,,,,,,,,,,,,,
1644854045.292143,34.000000,0.000000,4251.282227,4232.948730,4217.179688,4225.000000,4221.282227,4230.897461,4217.436035,4228.846191,4226.666504,4208.461426,4217.179688,4200.897461,4240.769043,4268.846191,0.000000,4.000000,86.000000,,,,0.000000,4.000000,4.000000,4.000000,4.000000,4.000000,4.000000,4.000000,4.000000,4.000000,4.000000,4.000000,4.000000,4.000000,4.000000,100.000000,,,,,,,,,,,,,,,,
1644854045.296083,35.000000,0.000000,4233.077148,4221.025879,4217.563965,4211.794922,4219.871582,4231.282227,4218.461426,4229.230957,4223.461426,4193.205078,4201.153809,4208.846191,4206.410156,4234.871582,0.000000,4.000000,86.000000,,,,0.000000,4.000000,4.000000,4.000000,4.000000,4.000000,4.000000,4.000000,4.000000,4.000000,4.000000,4.000000,4.000000,4.000000,4.000000,100.000000,,,,,,,,,,,,,,,,
1644854045.300023,36.000000,0.000000,4234.615234,4217.948730,4221.922852,4208.077148,4224.743652,4231.794922,4221.794922,4230.641113,4222.948730,4190.512695,4191.538574,4213.077148,4178.974121,4216.922852,0.000000,4.000000,86.000000,,,,0.000000,4.000000,4.000000,4.000000,4.000000,4.000000,4.000000,4.000000,4.000000,4.000000,4.000000,4.000000,4.000000,4.000000,4.000000,100.000000,,,,,,,,,,,,,,,,
1644854045.303963,37.000000,0.000000,4256.153809,4226.794922,4227.820313,4215.512695,4234.102539,4232.692383,4223.846191,4230.769043,4224.230957,4201.410156,4195.512695,4210.384766,4176.794922,4223.077148,0.000000,4.000000,86.000000,,,,0.000000,4.000000,4.000000,4.000000,4.000000,4.000000,4.000000,4.000000,4.000000,4.000000,4.000000,4.000000,4.000000,4.000000,4.000000,100.000000,,,,,,,,,,,,,,,,
1644854045.307803,38.000000,0.000000,4289.102539,4244.615234,4231.153809,4228.717773,4242.051270,4233.974121,4223.333496,4228.333496,4224.871582,4217.436035,4215.897461,4200.641113,4202.820313,4249.487305,0.000000,4.000000,86.000000,,,,0.000000,4.000000,4.000000,4.000000,4.000000,4.000000,4.000000,4.000000,4.000000,4.000000,4.000000,4.000000,4.000000,4.000000,4.000000,100.000000,,,,,,,,,,,,,,,,
1644854045.311743,39.000000,0.000000,4320.512695,4264.230957,4230.000000,4240.641113,4243.589844,4234.487305,4221.794922,4224.230957,4223.077148,4228.333496,4245.641113,4187.820313,4242.051270,4283.333496,0.000000,4.000000,86.000000,,,,0.000000,4.000000,4.000000,4.000000,4.000000,4.000000,4.000000,4.000000,4.000000,4.000000,4.000000,4.000000,4.000000,4.000000,4.000000,100.000000,,,,,,,,,,,,,,,,
1644854045.315683,40.000000,0.000000,4337.692383,4276.922852,4226.025879,4248.077148,4237.948730,4233.846191,4221.794922,4221.282227,4219.871582,4230.128418,4268.846191,4179.102539,4271.666504,4307.948730,0.000000,4.000000,86.000000,,,,0.000000,4.000000,4.000000,4.000000,4.000000,4.000000,4.000000,4.000000,4.000000,4.000000,4.000000,4.000000,4.000000,4.000000,4.000000,100.000000,,,,,,,,,,,,,,,,
1644854045.319624,41.000000,0.000000,4334.102539,4276.794922,4223.974121,4252.563965,4229.615234,4232.563965,4222.948730,4221.282227,4218.205078,4227.051270,4269.871582,4180.512695,4276.410156,4309.743652,0.000000,4.000000,86.000000,,,,0.000000,4.000000,4.000000,4.000000,4.000000,4.000000,4.000000,4.000000,4.000000,4.000000,4.000000,4.000000,4.000000,4.000000,4.000000,100.000000,,,,,,,,,,,,,,,,
1644854045.323564,42.000000,0.000000,4312.820313,4264.615234,4227.948730,4256.922852,4225.256348,4231.153809,4223.205078,4224.615234,4220.256348,4226.025879,4245.769043,4193.077148,4257.692383,4287.051270,0.000000,4.000000,86.000000,,,,0.000000,4.000000,4.000000,4.000000,4.000000,4.000000,4.000000,4.000000,4.000000,4.000000,4.000000,4.000000,4.000000,4.000000,4.000000,100.000000,,,,,,,,,,,,,,,,
1644854045.327504,43.000000,0.000000,4286.282227,4248.333496,4238.077148,4260.256348,4227.436035,4229.743652,4221.538574,4229.358887,4225.256348,4229.871582,4211.153809,4211.538574,4231.922852,4252.820313,0.000000,4.000000,86.000000,,,,0.000000,4.000000,4.000000,4.000000,4.000000,4.000000,4.000000,4.000000,4.000000,4.000000,4.000000,4.000000,4.000000,4.000000,4.000000,100.000000,,,,,,,,,,,,,,,,
1644854045.331444,44.000000,0.000000,4269.358887,4237.948730,4249.102539,4259.102539,4233.077148,4228.846191,4220.256348,4233.589844,4230.384766,4235.512695,4188.974121,4226.025879,4218.589844,4227.820313,0.000000,4.000000,86.000000,,,,0.000000,4.000000,4.000000,4.000000,4.000000,4.000000,4.000000,4.000000,4.000000,4.000000,4.000000,4.000000,4.000000,4.000000,4.000000,100.000000,,,,,,,,,,,,,,,,
1644854045.335384,45.000000,0.000000,4270.897461,4239.358887,4254.871582,4251.410156,4236.538574,4228.846191,4222.051270,4236.153809,4232.692383,4238.461426,4195.897461,4228.461426,4228.974121,4225.512695,0.000000,4.000000,86.000000,,,,0.000000,4.000000,4.000000,4.000000,4.000000,4.000000,4.000000,4.000000,4.000000,4.000000,4.000000,4.000000,4.000000,4.000000,4.000000,100.000000,,,,,,,,,,,,,,,,
1644854045.339324,46.000000,0.000000,4290.512695,4251.922852,4252.051270,4241.153809,4235.128418,4230.128418,4226.410156,4237.179688,4232.051270,4237.692383,4229.615234,4218.333496,4258.333496,4242.051270,0.000000,4.000000,86.000000,,,,0.000000,4.000000,4.000000,4.000000,4.000000,4.000000,4.000000,4.000000,4.000000,4.000000,4.000000,4.000000,4.000000,4.000000,4.000000,100.000000,,,,,,,,,,,,,,,,
1644854045.343264,47.000000,0.000000,4320.128418,4269.487305,4243.205078,4236.922852,4231.025879,4232.307617,4229.615234,4236.922852,4230.641113,4235.769043,4271.153809,4203.461426,4289.487305,4260.769043,0.000000,4.000000,86.000000,,,,0.000000,4.000000,4.000000,4.000000,4.000000,4.000000,4.000000,4.000000,4.000000,4.000000,4.000000,4.000000,4.000000,4.000000,4.000000,100.000000,,,,,,,,,,,,,,,,
1644854045.347204,48.000000,0.000000,4347.307617,4283.589844,4234.102539,4244.358887,4227.307617,4234.102539,4229.102539,4236.282227,4230.256348,4234.871582,4296.922852,4194.743652,4302.563965,4265.384766,0.000000,4.000000,86.000000,,,,0.000000,4.000000,4.000000,4.000000,4.000000,4.000000,4.000000,4.000000,4.000000,4.000000,4.000000,4.000000,4.000000,4.000000,4.000000,100.000000,,,,,,,,,,,,,,,,
1644854045.351144,49.000000,0.000000,4358.717773,4286.794922,4228.974121,4259.871582,4225.512695,4234.487305,4225.897461,4236.282227,4231.282227,4234.358887,4293.846191,4197.307617,4287.820313,4252.563965,0.000000,4.000000,86.000000,,,,0.000000,4.000000,4.000000,4.000000,4.000000,4.000000,4.000000,4.000000,4.000000,4.000000,4.000000,4.000000,4.000000,4.000000,4.000000,100.000000,,,,,,,,,,,,,,,,
1644854045.355084,50.000000,0.000000,4344.871582,4276.153809,4228.077148,4271.794922,4225.897461,4233.461426,4223.205078,4236.922852,4233.333496,4231.666504,4266.666504,4207.948730,4252.179688,4231.153809,0.000000,4.000000,86.000000,,,,0.000000,4.000000,4.000000,4.000000,4.000000,4.000000,4.000000,4.000000,4.000000,4.000000,4.000000,4.000000,4.000000,4.000000,4.000000,100.000000,,,,,,,,,,,,,,,,
1644854045.359025,51.000000,0.000000,4308.589844,4255.641113,4229.487305,4269.102539,4228.846191,4231.922852,4222.563965,4237.948730,4236.025879,4226.538574,4233.461426,4217.820313,4215.512695,4214.358887,0.000000,4.000000,86.000000,,,,0.000000,4.000000,4.000000,4.000000,4.000000,4.000000,4.000000,4.000000,4.000000,4.000000,4.000000,4.000000,4.000000,4.000000,4.000000,100.000000,,,,,,,,,,,,,,,,
1644854045.362965,52.000000,0.000000,4265.897461,4235.000000,4231.025879,4250.897461,4233.717773,4231.153809,4223.077148,4238.461426,4238.717773,4222.179688,4212.563965,4219.230957,4198.205078,4209.615234,0.000000,4.000000,86.000000,,,,0.000000,4.000000,4.000000,4.000000,4.000000,4.000000,4.000000,4.000000,4.000000,4.000000,4.000000,4.000000,4.000000,4.000000,4.000000,100.000000,,,,,,,,,,,,,,,,
1644854045.366905,53.000000,0.000000,4236.410156,4224.230957,4231.794922,4228.205078,4238.205078,4231.666504,4223.461426,4238.461426,4239.743652,4222.307617,4211.666504,4210.641113,4207.179688,4214.871582,0.000000,4.000000,86.000000,,,,0.000000,4.000000,4.000000,4.000000,4.000000,4.000000,4.000000,4.000000,4.000000,4.000000,4.000000,4.000000,4.000000,4.000000,4.000000,100.000000,,,,,,,,,,,,,,,,
1644854045.370845,54.000000,0.000000,4230.384766,4227.436035,4231.153809,4216.410156,4238.717773,4232.563965,4223.589844,4238.077148,4237.820313,4226.282227,4224.615234,4197.948730,4231.922852,4221.025879,0.000000,4.000000,86.000000,,,,0.000000,4.000000,4.000000,4.000000,4.000000,4.000000,4.000000,4.000000,4.000000,4.000000,4.000000,4.000000,4.000000,4.000000,4.000000,100.000000,,,,,,,,,,,,,,,,
