title:Alex-sdeEjAGO0_LNllv2m9Rh2w, start timestamp:1644852748.979005, stop timestamp:1644852774.850593, headset type:EPOCPLUS, headset serial:3B9AEBFF, headset firmware:626, channels:55, sampling rate:eeg_256, samples:6566      , version:2.1, 
Timestamp,EEG.Counter,EEG.Interpolated,EEG.AF3,EEG.F7,EEG.F3,EEG.FC5,EEG.T7,EEG.P7,EEG.O1,EEG.O2,EEG.P8,EEG.T8,EEG.FC6,EEG.F4,EEG.F8,EEG.AF4,EEG.RawCq,EEG.Battery,EEG.BatteryPercent,MarkerIndex,MarkerType,MarkerValueInt,EEG.MarkerHardware,CQ.AF3,CQ.F7,CQ.F3,CQ.FC5,CQ.T7,CQ.P7,CQ.O1,CQ.O2,CQ.P8,CQ.T8,CQ.FC6,CQ.F4,CQ.F8,CQ.AF4,CQ.Overall,EQ.SampleRateQuality,EQ.OVERALL,EQ.AF3,EQ.F7,EQ.F3,EQ.FC5,EQ.T7,EQ.P7,EQ.O1,EQ.O2,EQ.P8,EQ.T8,EQ.FC6,EQ.F4,EQ.F8,EQ.AF4
1644852748.979005,49.000000,0.000000,4215.384766,4225.769043,4210.512695,4179.743652,4220.769043,4213.205078,4220.384766,4223.461426,4227.051270,4233.589844,4226.666504,4206.282227,4227.051270,4218.461426,0.000000,4.000000,91.000000,,,,0.000000,4.000000,4.000000,4.000000,4.000000,4.000000,4.000000,4.000000,4.000000,4.000000,4.000000,4.000000,4.000000,4.000000,4.000000,100.000000,,,,,,,,,,,,,,,,
1644852748.982846,50.000000,0.000000,4205.000000,4221.922852,4207.436035,4178.589844,4225.897461,4211.666504,4220.384766,4220.897461,4223.717773,4222.692383,4222.179688,4203.333496,4233.846191,4214.358887,0.000000,4.000000,91.000000,,,,0.000000,4.000000,4.000000,4.000000,4.000000,4.000000,4.000000,4.000000,4.000000,4.000000,4.000000,4.000000,4.000000,4.000000,4.000000,100.000000,,,,,,,,,,,,,,,,
1644852748.986786,51.000000,0.000000,4198.461426,4218.205078,4202.563965,4173.077148,4224.743652,4211.410156,4217.820313,4217.307617,4220.769043,4215.128418,4215.384766,4202.307617,4236.538574,4198.589844,0.000000,4.000000,91.000000,,,,0.000000,4.000000,4.000000,4.000000,4.000000,4.000000,4.000000,4.000000,4.000000,4.000000,4.000000,4.000000,4.000000,4.000000,4.000000,100.000000,,,,,,,,,,,,,,,,
1644852748.990726,52.000000,0.000000,4198.461426,4217.179688,4200.641113,4165.128418,4220.256348,4212.436035,4215.769043,4215.512695,4220.384766,4216.666504,4211.666504,4205.128418,4236.153809,4183.333496,0.000000,4.000000,91.000000,,,,0.000000,4.000000,4.000000,4.000000,4.000000,4.000000,4.000000,4.000000,4.000000,4.000000,4.000000,4.000000,4.000000,4.000000,4.000000,100.000000,,,,,,,,,,,,,,,,
1644852748.994666,53.000000,0.000000,4203.717773,4219.743652,4203.974121,4159.230957,4217.820313,4213.589844,4216.794922,4217.179688,4222.692383,4225.384766,4211.666504,4210.641113,4234.871582,4180.128418,0.000000,4.000000,91.000000,,,,0.000000,4.000000,4.000000,4.000000,4.000000,4.000000,4.000000,4.000000,4.000000,4.000000,4.000000,4.000000,4.000000,4.000000,4.000000,100.000000,,,,,,,,,,,,,,,,
1644852748.998606,54.000000,0.000000,4209.487305,4224.743652,4210.000000,4158.846191,4220.769043,4213.717773,4219.743652,4220.512695,4226.025879,4232.692383,4212.051270,4215.897461,4233.589844,4190.512695,0.000000,4.000000,91.000000,,,,0.000000,4.000000,4.000000,4.000000,4.000000,4.000000,4.000000,4.000000,4.000000,4.000000,4.000000,4.000000,4.000000,4.000000,4.000000,100.000000,,,,,,,,,,,,,,,,
1644852749.002546,55.000000,0.000000,4210.897461,4228.974121,4213.461426,4163.461426,4227.563965,4213.077148,4221.025879,4221.922852,4228.077148,4230.769043,4210.128418,4218.461426,4231.410156,4205.384766,0.000000,4.000000,91.000000,,,,0.000000,4.000000,4.000000,4.000000,4.000000,4.000000,4.000000,4.000000,4.000000,4.000000,4.000000,4.000000,4.000000,4.000000,4.000000,100.000000,,,,,,,,,,,,,,,,
1644852749.006486,56.000000,0.000000,4207.179688,4229.743652,4211.282227,4168.717773,4232.436035,4212.820313,4218.846191,4220.000000,4227.820313,4219.487305,4205.897461,4217.820313,4226.282227,4212.179688,0.000000,4.000000,91.000000,,,,0.000000,4.000000,4.000000,4.000000,4.000000,4.000000,4.000000,4.000000,4.000000,4.000000,4.000000,4.000000,4.000000,4.000000,4.000000,100.000000,,,,,,,,,,,,,,,,
1644852749.010426,57.000000,0.000000,4201.282227,4225.641113,4205.384766,4169.487305,4230.000000,4212.948730,4215.897461,4216.410156,4224.871582,4206.666504,4202.307617,4215.256348,4217.820313,4205.000000,0.000000,4.000000,91.000000,,,,0.000000,4.000000,4.000000,4.000000,4.000000,4.000000,4.000000,4.000000,4.000000,4.000000,4.000000,4.000000,4.000000,4.000000,4.000000,100.000000,,,,,,,,,,,,,,,,
1644852749.014366,58.000000,0.000000,4197.820313,4218.077148,4200.384766,4163.717773,4219.871582,4213.205078,4216.025879,4214.102539,4220.769043,4201.922852,4202.179688,4213.589844,4208.461426,4188.205078,0.000000,4.000000,91.000000,,,,0.000000,4.000000,4.000000,4.000000,4.000000,4.000000,4.000000,4.000000,4.000000,4.000000,4.000000,4.000000,4.000000,4.000000,4.000000,100.000000,,,,,,,,,,,,,,,,
1644852749.018307,59.000000,0.000000,4199.615234,4210.384766,4199.615234,4155.256348,4207.948730,4212.820313,4219.615234,4215.128418,4217.948730,4209.230957,4205.256348,4213.846191,4203.333496,4173.333496,0.000000,4.000000,91.000000,,,,0.000000,4.000000,4.000000,4.000000,4.000000,4.000000,4.000000,4.000000,4.000000,4.000000,4.000000,4.000000,4.000000,4.000000,4.000000,100.000000,,,,,,,,,,,,,,,,
1644852749.022247,60.000000,0.000000,4205.769043,4206.282227,4202.692383,4152.948730,4203.717773,4212.436035,4222.948730,4219.102539,4219.358887,4224.102539,4208.974121,4214.487305,4206.794922,4170.384766,0.000000,4.000000,91.000000,,,,0.000000,4.000000,4.000000,4.000000,4.000000,4.000000,4.000000,4.000000,4.000000,4.000000,4.000000,4.000000,4.000000,4.000000,4.000000,100.000000,,,,,,,,,,,,,,,,
1644852749.026187,61.000000,0.000000,4212.307617,4208.205078,4207.051270,4162.307617,4211.282227,4213.077148,4223.461426,4223.461426,4225.000000,4237.820313,4210.512695,4212.436035,4218.589844,4181.666504,0.000000,4.000000,91.000000,,,,0.000000,4.000000,4.000000,4.000000,4.000000,4.000000,4.000000,4.000000,4.000000,4.000000,4.000000,4.000000,4.000000,4.000000,4.000000,100.000000,,,,,,,,,,,,,,,,
1644852749.030127,62.000000,0.000000,4214.615234,4215.000000,4209.743652,4178.333496,4225.000000,4215.256348,4222.436035,4226.025879,4231.538574,4243.077148,4208.846191,4206.922852,4232.820313,4200.256348,0.000000,4.000000,91.000000,,,,0.000000,4.000000,4.000000,4.000000,4.000000,4.000000,4.000000,4.000000,4.000000,4.000000,4.000000,4.000000,4.000000,4.000000,4.000000,100.000000,,,,,,,,,,,,,,,,
1644852749.034067,63.000000,0.000000,4210.128418,4222.692383,4209.230957,4188.077148,4234.743652,4217.948730,4222.436035,4225.769043,4234.487305,4238.461426,4205.769043,4200.512695,4241.794922,4215.000000,0.000000,4.000000,91.000000,,,,0.000000,4.000000,4.000000,4.000000,4.000000,4.000000,4.000000,4.000000,4.000000,4.000000,4.000000,4.000000,4.000000,4.000000,4.000000,100.000000,,,,,,,,,,,,,,,,
1644852749.038007,64.000000,0.000000,4200.897461,4226.666504,4205.512695,4180.769043,4235.641113,4219.102539,4223.974121,4223.205078,4232.436035,4228.974121,4203.717773,4197.820313,4240.769043,4217.948730,0.000000,4.000000,91.000000,,,,0.000000,4.000000,4.000000,4.000000,4.000000,4.000000,4.000000,4.000000,4.000000,4.000000,4.000000,4.000000,4.000000,4.000000,4.000000,100.000000,,,,,,,,,,,,,,,,
1644852749.041947,65.000000,0.000000,4193.846191,4226.410156,4200.641113,4158.846191,4230.512695,4217.820313,4224.358887,4220.000000,4228.205078,4221.666504,4204.358887,4201.794922,4231.538574,4209.358887,0.000000,4.000000,91.000000,,,,0.000000,4.000000,4.000000,4.000000,4.000000,4.000000,4.000000,4.000000,4.000000,4.000000,4.000000,4.000000,4.000000,4.000000,4.000000,100.000000,,,,,,,,,,,,,,,,
1644852749.045887,66.000000,0.000000,4194.615234,4223.974121,4197.436035,4136.025879,4224.615234,4215.000000,4221.922852,4217.948730,4225.512695,4220.000000,4206.282227,4211.025879,4220.641113,4195.512695,0.000000,4.000000,91.000000,,,,0.000000,4.000000,4.000000,4.000000,4.000000,4.000000,4.000000,4.000000,4.000000,4.000000,4.000000,4.000000,4.000000,4.000000,4.000000,100.000000,,,,,,,,,,,,,,,,
1644852749.049827,67.000000,0.000000,4203.205078,4221.538574,4198.461426,4127.436035,4219.615234,4212.692383,4217.948730,4217.948730,4225.512695,4221.666504,4207.436035,4220.256348,4214.102539,4183.974121,0.000000,4.000000,91.000000,,,,0.000000,4.000000,4.000000,4.000000,4.000000,4.000000,4.000000,4.000000,4.000000,4.000000,4.000000,4.000000,4.000000,4.000000,4.000000,100.000000,,,,,,,,,,,,,,,,
1644852749.053867,68.000000,0.000000,4212.692383,4218.974121,4202.692383,4136.666504,4212.948730,4211.410156,4215.897461,4219.102539,4225.769043,4221.794922,4206.794922,4223.717773,4212.820313,4178.974121,0.000000,4.000000,91.000000,,,,0.000000,4.000000,4.000000,4.000000,4.000000,4.000000,4.000000,4.000000,4.000000,4.000000,4.000000,4.000000,4.000000,4.000000,4.000000,100.000000,,,,,,,,,,,,,,,,
1644852749.057807,69.000000,0.000000,4215.641113,4215.512695,4206.794922,4155.128418,4204.102539,4211.410156,4216.282227,4219.743652,4223.589844,4218.461426,4206.153809,4219.230957,4213.974121,4180.641113,0.000000,4.000000,91.000000,,,,0.000000,4.000000,4.000000,4.000000,4.000000,4.000000,4.000000,4.000000,4.000000,4.000000,4.000000,4.000000,4.000000,4.000000,4.000000,100.000000,,,,,,,,,,,,,,,,
1644852749.061748,70.000000,0.000000,4210.641113,4212.179688,4207.563965,4170.000000,4197.820313,4212.179688,4217.051270,4218.461426,4219.615234,4215.641113,4207.948730,4209.743652,4215.000000,4185.128418,0.000000,4.000000,91.000000,,,,0.000000,4.000000,4.000000,4.000000,4.000000,4.000000,4.000000,4.000000,4.000000,4.000000,4.000000,4.000000,4.000000,4.000000,4.000000,100.000000,,,,,,,,,,,,,,,,
1644852749.065688,71.000000,0.000000,4201.922852,4211.025879,4204.871582,4175.256348,4201.410156,4213.205078,4216.025879,4216.282227,4217.563965,4217.692383,4212.307617,4201.794922,4215.384766,4189.487305,0.000000,4.000000,91.000000,,,,0.000000,4.000000,4.000000,4.000000,4.000000,4.000000,4.000000,4.000000,4.000000,4.000000,4.000000,4.000000,4.000000,4.000000,4.000000,100.000000,,,,,,,,,,,,,,,,
1644852749.069628,72.000000,0.000000,4195.384766,4211.794922,4201.666504,4172.820313,4215.256348,4213.846191,4214.230957,4215.384766,4220.256348,4224.102539,4216.538574,4200.384766,4216.282227,4192.563965,0.000000,4.000000,91.000000,,,,0.000000,4.000000,4.000000,4.000000,4.000000,4.000000,4.000000,4.000000,4.000000,4.000000,4.000000,4.000000,4.000000,4.000000,4.000000,100.000000,1.000000,58.333332,4.000000,4.000000,4.000000,1.000000,3.000000,4.000000,4.000000,4.000000,4.000000,4.000000,3.000000,4.000000,3.000000,3.000000
1644852749.073568,73.000000,0.000000,4193.077148,4212.563965,4200.897461,4167.563965,4231.282227,4213.846191,4214.487305,4217.563965,4226.666504,4229.743652,4217.307617,4205.641113,4218.461426,4195.897461,0.000000,4.000000,91.000000,,,,0.000000,4.000000,4.000000,4.000000,4.000000,4.000000,4.000000,4.000000,4.000000,4.000000,4.000000,4.000000,4.000000,4.000000,4.000000,100.000000,,,,,,,,,,,,,,,,
1644852749.077508,74.000000,0.000000,4193.846191,4212.307617,4203.717773,4162.051270,4238.333496,4213.461426,4217.563965,4222.179688,4232.692383,4230.256348,4214.487305,4213.333496,4222.179688,4200.512695,0.000000,4.000000,91.000000,,,,0.000000,4.000000,4.000000,4.000000,4.000000,4.000000,4.000000,4.000000,4.000000,4.000000,4.000000,4.000000,4.000000,4.000000,4.000000,100.000000,,,,,,,,,,,,,,,,
1644852749.081448,75.000000,0.000000,4195.769043,4212.051270,4208.717773,4156.538574,4232.051270,4213.333496,4220.897461,4226.282227,4234.871582,4226.282227,4210.000000,4218.205078,4226.410156,4204.358887,0.000000,4.000000,91.000000,,,,0.000000,4.000000,4.000000,4.000000,4.000000,4.000000,4.000000,4.000000,4.000000,4.000000,4.000000,4.000000,4.000000,4.000000,4.000000,100.000000,,,,,,,,,,,,,,,,
1644852749.085388,76.000000,0.000000,4197.563965,4213.077148,4212.820313,4151.538574,4217.692383,4213.717773,4221.153809,4227.051270,4232.563965,4222.563965,4206.025879,4217.179688,4230.256348,4203.846191,0.000000,4.000000,91.000000,,,,0.000000,4.000000,4.000000,4.000000,4.000000,4.000000,4.000000,4.000000,4.000000,4.000000,4.000000,4.000000,4.000000,4.000000,4.000000,100.000000,,,,,,,,,,,,,,,,
1644852749.089328,77.000000,0.000000,4198.461426,4215.769043,4213.589844,4149.358887,4205.256348,4213.974121,4218.333496,4223.717773,4226.922852,4222.820313,4203.077148,4211.410156,4232.179688,4198.846191,0.000000,4.000000,91.000000,,,,0.000000,4.000000,4.000000,4.000000,4.000000,4.000000,4.000000,4.000000,4.000000,4.000000,4.000000,4.000000,4.000000,4.000000,4.000000,100.000000,,,,,,,,,,,,,,,,
1644852749.093268,78.000000,0.000000,4197.820313,4218.461426,4210.641113,4151.153809,4201.538574,4213.974121,4215.641113,4218.846191,4221.025879,4226.025879,4200.897461,4204.230957,4231.794922,4194.102539,0.000000,4.000000,91.000000,,,,0.000000,4.000000,4.000000,4.000000,4.000000,4.000000,4.000000,4.000000,4.000000,4.000000,4.000000,4.000000,4.000000,4.000000,4.000000,100.000000,,,,,,,,,,,,,,,,
1644852749.097209,79.000000,0.000000,4196.794922,4220.128418,4205.897461,4156.410156,4206.410156,4214.615234,4216.025879,4215.769043,4217.948730,4228.205078,4199.615234,4198.974121,4228.205078,4195.512695,0.000000,4.000000,91.000000,,,,0.000000,4.000000,4.000000,4.000000,4.000000,4.000000,4.000000,4.000000,4.000000,4.000000,4.000000,4.000000,4.000000,4.000000,4.000000,100.000000,,,,,,,,,,,,,,,,
1644852749.101149,80.000000,0.000000,4197.179688,4221.025879,4202.179688,4163.205078,4216.025879,4216.666504,4219.102539,4216.922852,4219.615234,4225.897461,4199.230957,4197.307617,4222.179688,4202.692383,0.000000,4.000000,91.000000,,,,0.000000,4.000000,4.000000,4.000000,4.000000,4.000000,4.000000,4.000000,4.000000,4.000000,4.000000,4.000000,4.000000,4.000000,4.000000,100.000000,,,,,,,,,,,,,,,,
1644852749.105089,81.000000,0.000000,4200.641113,4221.410156,4201.153809,4169.358887,4225.897461,4219.743652,4222.307617,4221.538574,4225.000000,4220.384766,4199.358887,4199.102539,4215.384766,4207.820313,0.000000,4.000000,91.000000,,,,0.000000,4.000000,4.000000,4.000000,4.000000,4.000000,4.000000,4.000000,4.000000,4.000000,4.000000,4.000000,4.000000,4.000000,4.000000,100.000000,,,,,,,,,,,,,,,,
1644852749.109029,82.000000,0.000000,4205.769043,4220.897461,4202.179688,4173.333496,4234.102539,4222.692383,4224.102539,4226.666504,4230.897461,4215.769043,4199.358887,4202.563965,4210.000000,4202.307617,0.000000,4.000000,91.000000,,,,0.000000,4.000000,4.000000,4.000000,4.000000,4.000000,4.000000,4.000000,4.000000,4.000000,4.000000,4.000000,4.000000,4.000000,4.000000,100.000000,,,,,,,,,,,,,,,,
1644852749.112969,83.000000,0.000000,4208.974121,4217.948730,4203.717773,4173.846191,4240.000000,4223.589844,4225.128418,4229.487305,4233.461426,4215.256348,4198.461426,4205.000000,4207.307617,4185.384766,0.000000,4.000000,91.000000,,,,0.000000,4.000000,4.000000,4.000000,4.000000,4.000000,4.000000,4.000000,4.000000,4.000000,4.000000,4.000000,4.000000,4.000000,4.000000,100.000000,,,,,,,,,,,,,,,,
1644852749.116909,84.000000,0.000000,4207.436035,4213.077148,4204.487305,4171.538574,4241.794922,4221.794922,4225.769043,4228.461426,4231.538574,4218.846191,4197.820313,4204.743652,4207.179688,4166.922852,0.000000,4.000000,91.000000,,,,0.000000,4.000000,4.000000,4.000000,4.000000,4.000000,4.000000,4.000000,4.000000,4.000000,4.000000,4.000000,4.000000,4.000000,4.000000,100.000000,,,,,,,,,,,,,,,,
1644852749.120849,85.000000,0.000000,4201.538574,4209.230957,4204.487305,4167.436035,4236.922852,4218.717773,4224.871582,4224.230957,4226.282227,4223.846191,4198.717773,4202.436035,4208.461426,4160.384766,0.000000,4.000000,91.000000,,,,0.000000,4.000000,4.000000,4.000000,4.000000,4.000000,4.000000,4.000000,4.000000,4.000000,4.000000,4.000000,4.000000,4.000000,4.000000,100.000000,,,,,,,,,,,,,,,,
1644852749.124789,86.000000,0.000000,4194.102539,4208.846191,4204.615234,4161.282227,4223.974121,4216.025879,4221.666504,4219.230957,4220.897461,4227.051270,4201.666504,4200.384766,4210.769043,4171.025879,0.000000,4.000000,91.000000,,,,0.000000,4.000000,4.000000,4.000000,4.000000,4.000000,4.000000,4.000000,4.000000,4.000000,4.000000,4.000000,4.000000,4.000000,4.000000,100.000000,,,,,,,,,,,,,,,,
1644852749.128629,87.000000,0.000000,4187.436035,4211.794922,4205.256348,4154.487305,4207.692383,4215.000000,4217.948730,4215.897461,4217.948730,4226.666504,4205.512695,4200.384766,4212.692383,4191.794922,0.000000,4.000000,91.000000,,,,0.000000,4.000000,4.000000,4.000000,4.000000,4.000000,4.000000,4.000000,4.000000,4.000000,4.000000,4.000000,4.000000,4.000000,4.000000,100.000000,,,,,,,,,,,,,,,,
1644852749.132570,88.000000,0.000000,4182.948730,4215.897461,4206.153809,4150.641113,4198.333496,4215.128418,4217.051270,4215.897461,4217.948730,4223.077148,4209.358887,4202.436035,4212.436035,4208.461426,0.000000,4.000000,91.000000,,,,0.000000,4.000000,4.000000,4.000000,4.000000,4.000000,4.000000,4.000000,4.000000,4.000000,4.000000,4.000000,4.000000,4.000000,4.000000,100.000000,,,,,,,,,,,,,,,,
1644852749.136510,89.000000,0.000000,4182.051270,4219.358887,4206.538574,4154.358887,4204.230957,4215.512695,4220.000000,4218.333496,4219.743652,4219.102539,4212.307617,4205.256348,4209.487305,4211.282227,0.000000,4.000000,91.000000,,,,0.000000,4.000000,4.000000,4.000000,4.000000,4.000000,4.000000,4.000000,4.000000,4.000000,4.000000,4.000000,4.000000,4.000000,4.000000,100.000000,,,,,,,,,,,,,,,,
1644852749.140450,90.000000,0.000000,4186.410156,4222.307617,4206.025879,4165.000000,4223.205078,4215.512695,4223.717773,4221.153809,4221.282227,4217.051270,4213.205078,4207.563965,4205.897461,4201.666504,0.000000,4.000000,91.000000,,,,0.000000,4.000000,4.000000,4.000000,4.000000,4.000000,4.000000,4.000000,4.000000,4.000000,4.000000,4.000000,4.000000,4.000000,4.000000,100.000000,,,,,,,,,,,,,,,,
1644852749.144390,91.000000,0.000000,4195.641113,4224.743652,4204.487305,4176.282227,4241.538574,4215.641113,4224.487305,4221.922852,4221.282227,4217.563965,4210.128418,4208.461426,4204.743652,4189.102539,0.000000,4.000000,91.000000,,,,0.000000,4.000000,4.000000,4.000000,4.000000,4.000000,4.000000,4.000000,4.000000,4.000000,4.000000,4.000000,4.000000,4.000000,4.000000,100.000000,,,,,,,,,,,,,,,,
1644852749.148330,92.000000,0.000000,4206.538574,4225.512695,4202.820313,4180.128418,4244.358887,4216.153809,4221.282227,4219.487305,4218.589844,4218.589844,4202.179688,4207.692383,4207.563965,4182.692383,0.000000,4.000000,91.000000,,,,0.000000,4.000000,4.000000,4.000000,4.000000,4.000000,4.000000,4.000000,4.000000,4.000000,4.000000,4.000000,4.000000,4.000000,4.000000,100.000000,,,,,,,,,,,,,,,,
1644852749.152270,93.000000,0.000000,4213.205078,4222.436035,4201.153809,4173.974121,4227.436035,4215.769043,4216.922852,4214.487305,4213.846191,4217.948730,4190.641113,4204.871582,4211.538574,4184.102539,0.000000,4.000000,91.000000,,,,0.000000,4.000000,4.000000,4.000000,4.000000,4.000000,4.000000,4.000000,4.000000,4.000000,4.000000,4.000000,4.000000,4.000000,4.000000,100.000000,,,,,,,,,,,,,,,,
1644852749.156210,94.000000,0.000000,4210.128418,4215.000000,4199.871582,4161.410156,4201.410156,4213.461426,4214.230957,4208.717773,4208.589844,4214.487305,4179.743652,4200.384766,4212.948730,4187.307617,0.000000,4.000000,91.000000,,,,0.000000,4.000000,4.000000,4.000000,4.000000,4.000000,4.000000,4.000000,4.000000,4.000000,4.000000,4.000000,4.000000,4.000000,4.000000,100.000000,,,,,,,,,,,,,,,,
1644852749.160150,95.000000,0.000000,4196.922852,4204.871582,4198.717773,4149.615234,4184.102539,4208.974121,4212.948730,4204.102539,4204.743652,4208.717773,4174.230957,4194.871582,4210.128418,4186.025879,0.000000,4.000000,91.000000,,,,0.000000,4.000000,4.000000,4.000000,4.000000,4.000000,4.000000,4.000000,4.000000,4.000000,4.000000,4.000000,4.000000,4.000000,4.000000,100.000000,,,,,,,,,,,,,,,,
1644852749.164090,96.000000,0.000000,4178.461426,4195.512695,4197.179688,4142.948730,4186.410156,4204.230957,4211.025879,4201.538574,4202.820313,4202.692383,4176.922852,4189.615234,4205.000000,4179.487305,0.000000,4.000000,91.000000,,,,0.000000,4.000000,4.000000,4.000000,4.000000,4.000000,4.000000,4.000000,4.000000,4.000000,4.000000,4.000000,4.000000,4.000000,4.000000,100.000000,,,,,,,,,,,,,,,,
1644852749.168031,97.000000,0.000000,4163.717773,4190.769043,4195.769043,4140.384766,4205.256348,4201.666504,4208.974121,4202.307617,4202.436035,4198.589844,4186.025879,4186.153809,4201.410156,4172.820313,0.000000,4.000000,91.000000,,,,0.000000,4.000000,4.000000,4.000000,4.000000,4.000000,4.000000,4.000000,4.000000,4.000000,4.000000,4.000000,4.000000,4.000000,4.000000,100.000000,,,,,,,,,,,,,,,,
1644852749.171971,98.000000,0.000000,4159.487305,4192.820313,4195.256348,4139.102539,4227.436035,4202.820313,4209.743652,4206.794922,4203.205078,4198.717773,4195.769043,4185.769043,4201.922852,4170.641113,0.000000,4.000000,91.000000,,,,0.000000,4.000000,4.000000,4.000000,4.000000,4.000000,4.000000,4.000000,4.000000,4.000000,4.000000,4.000000,4.000000,4.000000,4.000000,100.000000,,,,,,,,,,,,,,,,
1644852749.175911,99.000000,0.000000,4166.666504,4201.153809,4196.282227,4139.102539,4239.871582,4206.666504,4214.487305,4213.589844,4205.897461,4204.102539,4200.641113,4189.102539,4205.769043,4172.436035,0.000000,4.000000,91.000000,,,,0.000000,4.000000,4.000000,4.000000,4.000000,4.000000,4.000000,4.000000,4.000000,4.000000,4.000000,4.000000,4.000000,4.000000,4.000000,100.000000,,,,,,,,,,,,,,,,
1644852749.179851,100.000000,0.000000,4179.358887,4212.436035,4198.717773,4143.717773,4238.077148,4210.641113,4219.871582,4220.000000,4210.769043,4213.077148,4198.846191,4195.000000,4209.102539,4174.743652,0.000000,4.000000,91.000000,,,,0.000000,4.000000,4.000000,4.000000,4.000000,4.000000,4.000000,4.000000,4.000000,4.000000,4.000000,4.000000,4.000000,4.000000,4.000000,100.000000,,,,,,,,,,,,,,,,
1644852749.183791,101.000000,0.000000,4190.128418,4221.666504,4201.666504,4155.000000,4225.897461,4212.051270,4221.282227,4222.563965,4216.153809,4221.922852,4193.846191,4200.897461,4208.717773,4175.641113,0.000000,4.000000,91.000000,,,,0.000000,4.000000,4.000000,4.000000,4.000000,4.000000,4.000000,4.000000,4.000000,4.000000,4.000000,4.000000,4.000000,4.000000,4.000000,100.000000,,,,,,,,,,,,,,,,
1644852749.187731,102.000000,0.000000,4194.358887,4224.871582,4204.358887,4168.846191,4210.641113,4210.897461,4217.436035,4220.512695,4219.871582,4226.153809,4190.641113,4204.102539,4204.102539,4176.410156,0.000000,4.000000,91.000000,,,,0.000000,4.000000,4.000000,4.000000,4.000000,4.000000,4.000000,4.000000,4.000000,4.000000,4.000000,4.000000,4.000000,4.000000,4.000000,100.000000,,,,,,,,,,,,,,,,
1644852749.191671,103.000000,0.000000,4192.692383,4221.025879,4206.282227,4176.666504,4198.333496,4208.461426,4212.436035,4216.282227,4219.743652,4223.205078,4191.153809,4203.717773,4198.077148,4178.717773,0.000000,4.000000,91.000000,,,,0.000000,4.000000,4.000000,4.000000,4.000000,4.000000,4.000000,4.000000,4.000000,4.000000,4.000000,4.000000,4.000000,4.000000,4.000000,100.000000,,,,,,,,,,,,,,,,
1644852749.195611,104.000000,0.000000,4188.077148,4212.563965,4206.922852,4172.051270,4191.922852,4207.179688,4210.384766,4213.333496,4216.410156,4214.358887,4193.461426,4201.794922,4194.487305,4181.922852,0.000000,4.000000,91.000000,,,,0.000000,4.000000,4.000000,4.000000,4.000000,4.000000,4.000000,4.000000,4.000000,4.000000,4.000000,4.000000,4.000000,4.000000,4.000000,100.000000,,,,,,,,,,,,,,,,
1644852749.199651,105.000000,0.000000,4182.692383,4203.333496,4205.384766,4156.794922,4192.307617,4207.692383,4211.666504,4213.333496,4211.922852,4204.871582,4193.974121,4200.641113,4194.871582,4182.948730,0.000000,4.000000,91.000000,,,,0.000000,4.000000,4.000000,4.000000,4.000000,4.000000,4.000000,4.000000,4.000000,4.000000,4.000000,4.000000,4.000000,4.000000,4.000000,100.000000,,,,,,,,,,,,,,,,
1644852749.203591,106.000000,0.000000,4177.436035,4196.410156,4202.179688,4140.128418,4198.974121,4209.487305,4213.205078,4214.743652,4209.230957,4200.641113,4192.307617,4201.282227,4196.666504,4180.128418,0.000000,4.000000,91.000000,,,,0.000000,4.000000,4.000000,4.000000,4.000000,4.000000,4.000000,4.000000,4.000000,4.000000,4.000000,4.000000,4.000000,4.000000,4.000000,100.000000,,,,,,,,,,,,,,,,
1644852749.207532,107.000000,0.000000,4172.820313,4193.589844,4198.846191,4133.205078,4208.717773,4210.000000,4213.205078,4214.615234,4209.230957,4203.077148,4190.641113,4201.794922,4196.666504,4175.512695,0.000000,4.000000,91.000000,,,,0.000000,4.000000,4.000000,4.000000,4.000000,4.000000,4.000000,4.000000,4.000000,4.000000,4.000000,4.000000,4.000000,4.000000,4.000000,100.000000,,,,,,,,,,,,,,,,
1644852749.211472,108.000000,0.000000,4170.256348,4194.487305,4197.436035,4140.641113,4216.666504,4207.948730,4212.948730,4212.179688,4210.256348,4208.589844,4191.666504,4200.769043,4194.358887,4173.461426,0.000000,4.000000,91.000000,,,,0.000000,4.000000,4.000000,4.000000,4.000000,4.000000,4.000000,4.000000,4.000000,4.000000,4.000000,4.000000,4.000000,4.000000,4.000000,100.000000,,,,,,,,,,,,,,,,
1644852749.215412,109.000000,0.000000,4170.512695,4197.307617,4199.102539,4155.897461,4218.333496,4203.589844,4214.102539,4208.846191,4210.000000,4211.794922,4194.358887,4198.717773,4191.794922,4175.384766,0.000000,4.000000,91.000000,,,,0.000000,4.000000,4.000000,4.000000,4.000000,4.000000,4.000000,4.000000,4.000000,4.000000,4.000000,4.000000,4.000000,4.000000,4.000000,100.000000,,,,,,,,,,,,,,,,
1644852749.219352,110.000000,0.000000,4173.077148,4200.000000,4202.179688,4167.051270,4213.974121,4200.000000,4216.410156,4206.666504,4208.205078,4210.128418,4195.512695,4197.436035,4191.153809,4178.717773,0.000000,4.000000,91.000000,,,,0.000000,4.000000,4.000000,4.000000,4.000000,4.000000,4.000000,4.000000,4.000000,4.000000,4.000000,4.000000,4.000000,4.000000,4.000000,100.000000,,,,,,,,,,,,,,,,
1644852749.223292,111.000000,0.000000,4176.794922,4202.692383,4203.846191,4166.025879,4208.846191,4200.000000,4217.179688,4207.051270,4207.179688,4205.641113,4193.589844,4198.333496,4192.563965,4179.487305,0.000000,4.000000,91.000000,,,,0.000000,4.000000,4.000000,4.000000,4.000000,4.000000,4.000000,4.000000,4.000000,4.000000,4.000000,4.000000,4.000000,4.000000,4.000000,100.000000,,,,,,,,,,,,,,,,
1644852749.227232,112.000000,0.000000,4180.256348,4205.384766,4202.692383,4154.871582,4209.230957,4204.358887,4215.769043,4209.743652,4208.717773,4203.077148,4190.769043,4200.641113,4194.487305,4176.666504,0.000000,4.000000,91.000000,,,,0.000000,4.000000,4.000000,4.000000,4.000000,4.000000,4.000000,4.000000,4.000000,4.000000,4.000000,4.000000,4.000000,4.000000,4.000000,100.000000,,,,,,,,,,,,,,,,
1644852749.231172,113.000000,0.000000,4181.922852,4207.820313,4199.743652,4141.666504,4214.743652,4210.641113,4213.717773,4213.077148,4212.307617,4204.743652,4189.487305,4201.282227,4194.743652,4172.820313,0.000000,4.000000,91.000000,,,,0.000000,4.000000,4.000000,4.000000,4.000000,4.000000,4.000000,4.000000,4.000000,4.000000,4.000000,4.000000,4.000000,4.000000,4.000000,100.000000,,,,,,,,,,,,,,,,
1644852749.235112,114.000000,0.000000,4180.769043,4207.692383,4197.179688,4133.974121,4217.563965,4214.487305,4212.820313,4215.128418,4214.358887,4208.846191,4189.743652,4197.563965,4191.922852,4171.282227,0.000000,4.000000,91.000000,,,,0.000000,4.000000,4.000000,4.000000,4.000000,4.000000,4.000000,4.000000,4.000000,4.000000,4.000000,4.000000,4.000000,4.000000,4.000000,100.000000,,,,,,,,,,,,,,,,
1644852749.239052,115.000000,0.000000,4177.307617,4203.461426,4196.282227,4135.256348,4209.743652,4213.077148,4212.307617,4214.615234,4212.179688,4211.025879,4188.846191,4190.128418,4187.307617,4173.589844,0.000000,4.000000,91.000000,,,,0.000000,4.000000,4.000000,4.000000,4.000000,4.000000,4.000000,4.000000,4.000000,4.000000,4.000000,4.000000,4.000000,4.000000,4.000000,100.000000,,,,,,,,,,,,,,,,
1644852749.242992,116.000000,0.000000,4173.461426,4196.153809,4196.922852,4144.487305,4193.461426,4207.307617,4210.769043,4211.794922,4207.436035,4209.230957,4185.000000,4183.077148,4184.230957,4179.102539,0.000000,4.000000,91.000000,,,,0.000000,4.000000,4.000000,4.000000,4.000000,4.000000,4.000000,4.000000,4.000000,4.000000,4.000000,4.000000,4.000000,4.000000,4.000000,100.000000,,,,,,,,,,,,,,,,
1644852749.246933,117.000000,0.000000,4172.307617,4189.871582,4198.589844,4157.436035,4181.025879,4201.922852,4208.205078,4209.102539,4204.487305,4205.256348,4179.487305,4181.153809,4186.282227,4185.769043,0.000000,4.000000,91.000000,,,,0.000000,4.000000,4.000000,4.000000,4.000000,4.000000,4.000000,4.000000,4.000000,4.000000,4.000000,4.000000,4.000000,4.000000,4.000000,100.000000,,,,,,,,,,,,,,,,
1644852749.250873,118.000000,0.000000,4175.769043,4189.615234,4201.025879,4167.563965,4184.487305,4201.282227,4207.820313,4209.871582,4207.692383,4203.589844,4177.820313,4187.051270,4194.358887,4191.922852,0.000000,4.000000,91.000000,,,,0.000000,4.000000,4.000000,4.000000,4.000000,4.000000,4.000000,4.000000,4.000000,4.000000,4.000000,4.000000,4.000000,4.000000,4.000000,100.000000,,,,,,,,,,,,,,,,
1644852749.254813,119.000000,0.000000,4183.589844,4197.820313,4203.333496,4169.487305,4204.102539,4206.282227,4211.025879,4214.871582,4216.410156,4207.179688,4184.358887,4198.589844,4205.384766,4195.512695,0.000000,4.000000,91.000000,,,,0.000000,4.000000,4.000000,4.000000,4.000000,4.000000,4.000000,4.000000,4.000000,4.000000,4.000000,4.000000,4.000000,4.000000,4.000000,100.000000,,,,,,,,,,,,,,,,
1644852749.258753,120.000000,0.000000,4192.948730,4211.025879,4204.230957,4162.948730,4227.051270,4212.563965,4215.256348,4220.769043,4225.128418,4214.102539,4198.461426,4209.743652,4213.461426,4195.256348,0.000000,4.000000,91.000000,,,,0.000000,4.000000,4.000000,4.000000,4.000000,4.000000,4.000000,4.000000,4.000000,4.000000,4.000000,4.000000,4.000000,4.000000,4.000000,100.000000,,,,,,,,,,,,,,,,
1644852749.262693,121.000000,0.000000,4199.871582,4221.922852,4203.333496,4152.307617,4237.692383,4215.000000,4216.025879,4223.077148,4228.077148,4218.974121,4212.692383,4214.871582,4214.358887,4190.000000,0.000000,4.000000,91.000000,,,,0.000000,4.000000,4.000000,4.000000,4.000000,4.000000,4.000000,4.000000,4.000000,4.000000,4.000000,4.000000,4.000000,4.000000,4.000000,100.000000,,,,,,,,,,,,,,,,
1644852749.266633,122.000000,0.000000,4201.794922,4224.487305,4201.410156,4144.102539,4230.641113,4211.666504,4211.922852,4219.102539,4222.948730,4217.820313,4218.717773,4211.794922,4208.077148,4181.922852,0.000000,4.000000,91.000000,,,,0.000000,4.000000,4.000000,4.000000,4.000000,4.000000,4.000000,4.000000,4.000000,4.000000,4.000000,4.000000,4.000000,4.000000,4.000000,100.000000,,,,,,,,,,,,,,,,
1644852749.270573,123.000000,0.000000,4198.974121,4218.974121,4201.410156,4143.333496,4214.615234,4205.384766,4207.179688,4211.666504,4213.205078,4211.538574,4213.717773,4203.846191,4200.128418,4176.153809,0.000000,4.000000,91.000000,,,,0.000000,4.000000,4.000000,4.000000,4.000000,4.000000,4.000000,4.000000,4.000000,4.000000,4.000000,4.000000,4.000000,4.000000,4.000000,100.000000,,,,,,,,,,,,,,,,
1644852749.274413,124.000000,0.000000,4193.717773,4211.794922,4205.256348,4150.000000,4204.487305,4201.025879,4206.538574,4206.025879,4205.384766,4205.769043,4202.692383,4197.307617,4197.307617,4177.948730,0.000000,4.000000,91.000000,,,,0.000000,4.000000,4.000000,4.000000,4.000000,4.000000,4.000000,4.000000,4.000000,4.000000,4.000000,4.000000,4.000000,4.000000,4.000000,100.000000,,,,,,,,,,,,,,,,
1644852749.278354,125.000000,0.000000,4189.230957,4209.615234,4211.922852,4159.615234,4207.820313,4201.666504,4210.897461,4206.153809,4204.743652,4205.256348,4194.358887,4196.282227,4202.692383,4187.948730,0.000000,4.000000,91.000000,,,,0.000000,4.000000,4.000000,4.000000,4.000000,4.000000,4.000000,4.000000,4.000000,4.000000,4.000000,4.000000,4.000000,4.000000,4.000000,100.000000,,,,,,,,,,,,,,,,
1644852749.282294,126.000000,0.000000,4187.307617,4213.717773,4218.333496,4166.922852,4218.461426,4206.666504,4215.641113,4211.153809,4210.641113,4210.000000,4192.948730,4200.000000,4212.692383,4200.000000,0.000000,4.000000,91.000000,,,,0.000000,4.000000,4.000000,4.000000,4.000000,4.000000,4.000000,4.000000,4.000000,4.000000,4.000000,4.000000,4.000000,4.000000,4.000000,100.000000,,,,,,,,,,,,,,,,
1644852749.286234,127.000000,0.000000,4188.333496,4219.615234,4221.153809,4168.461426,4223.333496,4212.307617,4216.410156,4216.282227,4217.436035,4215.256348,4195.641113,4204.615234,4219.871582,4205.000000,0.000000,4.000000,91.000000,1,1,2,0.000000,4.000000,4.000000,4.000000,4.000000,4.000000,4.000000,4.000000,4.000000,4.000000,4.000000,4.000000,4.000000,4.000000,4.000000,100.000000,,,,,,,,,,,,,,,,
1644852749.290174,128.000000,0.000000,4190.512695,4221.922852,4219.743652,4163.974121,4215.256348,4215.000000,4213.333496,4217.436035,4219.102539,4216.538574,4196.282227,4206.282227,4218.077148,4198.846191,3428.000000,4.000000,91.000000,,,,0.000000,4.000000,4.000000,4.000000,4.000000,4.000000,4.000000,4.000000,4.000000,4.000000,4.000000,4.000000,4.000000,4.000000,4.000000,100.000000,,,,,,,,,,,,,,,,
1644852749.294114,129.000000,0.000000,4191.794922,4219.615234,4215.897461,4156.410156,4200.384766,4213.461426,4210.128418,4214.871582,4215.128418,4214.358887,4192.692383,4203.461426,4208.077148,4186.025879,3175.000000,4.000000,91.000000,,,,0.000000,4.000000,4.000000,4.000000,4.000000,4.000000,4.000000,4.000000,4.000000,4.000000,4.000000,4.000000,4.000000,4.000000,4.000000,100.000000,,,,,,,,,,,,,,,,
1644852749.298054,130.000000,0.000000,4191.922852,4216.410156,4212.820313,4149.743652,4192.179688,4210.000000,4209.615234,4211.538574,4209.871582,4212.051270,4189.102539,4198.589844,4197.307617,4177.563965,3557.000000,4.000000,91.000000,,,,0.000000,4.000000,4.000000,4.000000,4.000000,4.000000,4.000000,4.000000,4.000000,4.000000,4.000000,4.000000,4.000000,4.000000,4.000000,100.000000,,,,,,,,,,,,,,,,
1644852749.301994,131.000000,0.000000,4191.922852,4216.794922,4212.563965,4147.563965,4198.205078,4207.436035,4211.282227,4210.256348,4209.102539,4212.051270,4190.769043,4195.256348,4193.589844,4181.153809,3572.000000,4.000000,91.000000,,,,0.000000,4.000000,4.000000,4.000000,4.000000,4.000000,4.000000,4.000000,4.000000,4.000000,4.000000,4.000000,4.000000,4.000000,4.000000,100.000000,,,,,,,,,,,,,,,,
1644852749.305934,132.000000,0.000000,4192.820313,4220.128418,4214.487305,4150.641113,4212.820313,4207.948730,4213.077148,4211.538574,4213.717773,4213.077148,4197.307617,4196.025879,4198.589844,4194.615234,3556.000000,4.000000,91.000000,,,,0.000000,4.000000,4.000000,4.000000,4.000000,4.000000,4.000000,4.000000,4.000000,4.000000,4.000000,4.000000,4.000000,4.000000,4.000000,100.000000,,,,,,,,,,,,,,,,
1644852749.309874,133.000000,0.000000,4193.461426,4221.410156,4216.666504,4157.051270,4223.717773,4210.897461,4213.717773,4213.333496,4218.974121,4211.153809,4201.666504,4200.512695,4205.769043,4206.666504,3063.000000,4.000000,91.000000,,,,0.000000,4.000000,4.000000,4.000000,4.000000,4.000000,4.000000,4.000000,4.000000,4.000000,4.000000,4.000000,4.000000,4.000000,4.000000,100.000000,,,,,,,,,,,,,,,,
1644852749.313814,134.000000,0.000000,4192.563965,4216.538574,4217.563965,4164.102539,4223.077148,4213.717773,4213.717773,4213.333496,4219.615234,4205.000000,4197.948730,4205.512695,4207.436035,4207.307617,2482.000000,4.000000,91.000000,,,,0.000000,4.000000,4.000000,4.000000,4.000000,4.000000,4.000000,4.000000,4.000000,4.000000,4.000000,4.000000,4.000000,4.000000,4.000000,100.000000,,,,,,,,,,,,,,,,
1644852749.317755,135.000000,0.000000,4190.000000,4207.436035,4217.563965,4169.487305,4214.230957,4215.128418,4213.717773,4211.282227,4215.384766,4198.589844,4188.589844,4208.205078,4201.282227,4196.282227,2692.000000,4.000000,91.000000,,,,0.000000,4.000000,4.000000,4.000000,4.000000,4.000000,4.000000,4.000000,4.000000,4.000000,4.000000,4.000000,4.000000,4.000000,4.000000,100.000000,,,,,,,,,,,,,,,,
1644852749.321695,136.000000,0.000000,4187.948730,4200.512695,4217.563965,4170.128418,4207.436035,4215.256348,4213.077148,4209.102539,4211.025879,4198.589844,4183.205078,4207.051270,4192.692383,4183.717773,3259.000000,4.000000,91.000000,,,,0.000000,4.000000,4.000000,4.000000,4.000000,4.000000,4.000000,4.000000,4.000000,4.000000,4.000000,4.000000,4.000000,4.000000,4.000000,100.000000,,,,,,,,,,,,,,,,
1644852749.325635,137.000000,0.000000,4188.461426,4201.922852,4217.436035,4164.743652,4209.487305,4214.615234,4211.410156,4208.589844,4211.538574,4208.333496,4188.589844,4202.948730,4190.128418,4180.384766,3292.000000,4.000000,91.000000,,,,0.000000,4.000000,4.000000,4.000000,4.000000,4.000000,4.000000,4.000000,4.000000,4.000000,4.000000,4.000000,4.000000,4.000000,4.000000,100.000000,,,,,,,,,,,,,,,,
1644852749.329575,138.000000,0.000000,4191.538574,4212.179688,4216.410156,4155.769043,4218.461426,4212.948730,4209.615234,4210.641113,4217.436035,4223.846191,4201.282227,4198.461426,4197.436035,4188.205078,3514.000000,4.000000,91.000000,,,,0.000000,4.000000,4.000000,4.000000,4.000000,4.000000,4.000000,4.000000,4.000000,4.000000,4.000000,4.000000,4.000000,4.000000,4.000000,100.000000,,,,,,,,,,,,,,,,
1644852749.333515,139.000000,0.000000,4195.256348,4225.256348,4214.358887,4149.487305,4225.769043,4210.000000,4209.615234,4214.487305,4224.615234,4235.769043,4211.025879,4196.538574,4210.897461,4200.384766,3439.000000,4.000000,91.000000,,,,0.000000,4.000000,4.000000,4.000000,4.000000,4.000000,4.000000,4.000000,4.000000,4.000000,4.000000,4.000000,4.000000,4.000000,4.000000,100.000000,,,,,,,,,,,,,,,,
1644852749.337455,140.000000,0.000000,4197.051270,4232.820313,4212.179688,4151.794922,4224.230957,4206.922852,4211.538574,4217.820313,4227.820313,4236.794922,4210.769043,4198.205078,4222.307617,4206.922852,3227.000000,4.000000,91.000000,,,,0.000000,4.000000,4.000000,4.000000,4.000000,4.000000,4.000000,4.000000,4.000000,4.000000,4.000000,4.000000,4.000000,4.000000,4.000000,100.000000,,,,,,,,,,,,,,,,
1644852749.341295,141.000000,0.000000,4195.769043,4230.641113,4210.769043,4161.922852,4214.358887,4206.025879,4212.820313,4218.077148,4225.128418,4226.794922,4202.692383,4202.563965,4224.871582,4203.333496,3522.000000,4.000000,91.000000,,,,0.000000,4.000000,4.000000,4.000000,4.000000,4.000000,4.000000,4.000000,4.000000,4.000000,4.000000,4.000000,4.000000,4.000000,4.000000,100.000000,,,,,,,,,,,,,,,,
1644852749.345235,142.000000,0.000000,4192.051270,4221.025879,4210.512695,4173.205078,4203.589844,4208.333496,4211.666504,4214.743652,4218.589844,4213.077148,4194.615234,4206.282227,4217.051270,4192.563965,3514.000000,4.000000,91.000000,,,,0.000000,4.000000,4.000000,4.000000,4.000000,4.000000,4.000000,4.000000,4.000000,4.000000,4.000000,4.000000,4.000000,4.000000,4.000000,100.000000,,,,,,,,,,,,,,,,
1644852749.349176,143.000000,0.000000,4187.948730,4210.641113,4210.512695,4177.948730,4199.743652,4212.179688,4209.102539,4209.487305,4211.410156,4203.717773,4191.282227,4206.025879,4202.436035,4182.179688,3439.000000,4.000000,91.000000,,,,0.000000,4.000000,4.000000,4.000000,4.000000,4.000000,4.000000,4.000000,4.000000,4.000000,4.000000,4.000000,4.000000,4.000000,4.000000,100.000000,,,,,,,,,,,,,,,,
1644852749.353116,144.000000,0.000000,4185.769043,4205.000000,4210.128418,4173.205078,4204.871582,4214.615234,4208.077148,4205.641113,4206.666504,4201.538574,4190.512695,4200.384766,4187.179688,4178.461426,3227.000000,4.000000,91.000000,,,,0.000000,4.000000,4.000000,4.000000,4.000000,4.000000,4.000000,4.000000,4.000000,4.000000,4.000000,4.000000,4.000000,4.000000,4.000000,100.000000,,,,,,,,,,,,,,,,
1644852749.356956,145.000000,0.000000,4185.897461,4205.384766,4209.102539,4162.051270,4214.102539,4214.230957,4210.000000,4205.000000,4205.256348,4204.230957,4188.717773,4192.051270,4177.692383,4181.922852,3522.000000,4.000000,91.000000,,,,0.000000,4.000000,4.000000,4.000000,4.000000,4.000000,4.000000,4.000000,4.000000,4.000000,4.000000,4.000000,4.000000,4.000000,4.000000,100.000000,,,,,,,,,,,,,,,,
1644852749.360896,146.000000,0.000000,4188.333496,4208.974121,4207.692383,4151.538574,4221.410156,4212.563965,4212.820313,4207.307617,4207.692383,4208.333496,4186.282227,4187.051270,4177.692383,4187.563965,3514.000000,4.000000,91.000000,,,,0.000000,4.000000,4.000000,4.000000,4.000000,4.000000,4.000000,4.000000,4.000000,4.000000,4.000000,4.000000,4.000000,4.000000,4.000000,100.000000,,,,,,,,,,,,,,,,
1644852749.364836,147.000000,0.000000,4192.051270,4211.666504,4207.179688,4147.820313,4224.487305,4212.179688,4214.615234,4211.025879,4214.230957,4212.051270,4187.692383,4190.384766,4187.436035,4190.384766,3439.000000,4.000000,91.000000,,,,0.000000,4.000000,4.000000,4.000000,4.000000,4.000000,4.000000,4.000000,4.000000,4.000000,4.000000,4.000000,4.000000,4.000000,4.000000,100.000000,,,,,,,,,,,,,,,,
1644852749.368776,148.000000,0.000000,4195.769043,4211.666504,4209.102539,4152.436035,4224.487305,4213.974121,4215.000000,4215.641113,4223.205078,4214.487305,4195.256348,4201.922852,4202.436035,4189.102539,3227.000000,4.000000,91.000000,,,,0.000000,4.000000,4.000000,4.000000,4.000000,4.000000,4.000000,4.000000,4.000000,4.000000,4.000000,4.000000,4.000000,4.000000,4.000000,100.000000,,,,,,,,,,,,,,,,
1644852749.372716,149.000000,0.000000,4197.948730,4209.871582,4213.589844,4162.307617,4223.846191,4216.282227,4215.769043,4220.000000,4231.153809,4215.000000,4204.743652,4215.897461,4215.256348,4186.153809,3522.000000,4.000000,91.000000,,,,0.000000,4.000000,4.000000,4.000000,4.000000,4.000000,4.000000,4.000000,4.000000,4.000000,4.000000,4.000000,4.000000,4.000000,4.000000,100.000000,,,,,,,,,,,,,,,,
1644852749.376656,150.000000,0.000000,4197.948730,4208.846191,4218.846191,4171.794922,4222.051270,4216.794922,4216.794922,4222.307617,4233.717773,4212.692383,4208.589844,4224.102539,4219.230957,4184.743652,3514.000000,4.000000,91.000000,,,,0.000000,4.000000,4.000000,4.000000,4.000000,4.000000,4.000000,4.000000,4.000000,4.000000,4.000000,4.000000,4.000000,4.000000,4.000000,100.000000,,,,,,,,,,,,,,,,
1644852749.380596,151.000000,0.000000,4197.051270,4209.358887,4221.282227,4175.384766,4217.051270,4214.102539,4215.641113,4220.384766,4228.589844,4208.846191,4202.692383,4222.179688,4213.589844,4187.051270,3439.000000,4.000000,91.000000,,,,0.000000,4.000000,4.000000,4.000000,4.000000,4.000000,4.000000,4.000000,4.000000,4.000000,4.000000,4.000000,4.000000,4.000000,4.000000,100.000000,,,,,,,,,,,,,,,,
1644852749.384537,152.000000,0.000000,4196.538574,4211.025879,4219.230957,4172.051270,4208.974121,4209.615234,4211.282227,4214.358887,4217.948730,4206.538574,4191.153809,4212.307617,4203.333496,4193.205078,3227.000000,4.000000,91.000000,,,,0.000000,4.000000,4.000000,4.000000,4.000000,4.000000,4.000000,4.000000,4.000000,4.000000,4.000000,4.000000,4.000000,4.000000,4.000000,100.000000,,,,,,,,,,,,,,,,
1644852749.388477,153.000000,0.000000,4196.153809,4212.692383,4213.589844,4165.769043,4201.410156,4206.025879,4206.282227,4206.794922,4207.436035,4207.692383,4183.717773,4200.897461,4195.384766,4201.025879,3522.000000,4.000000,91.000000,,,,0.000000,4.000000,4.000000,4.000000,4.000000,4.000000,4.000000,4.000000,4.000000,4.000000,4.000000,4.000000,4.000000,4.000000,4.000000,100.000000,,,,,,,,,,,,,,,,
1644852749.392417,154.000000,0.000000,4194.871582,4213.333496,4208.589844,4161.794922,4198.717773,4205.512695,4205.512695,4201.794922,4202.179688,4212.563965,4187.179688,4194.487305,4194.230957,4207.820313,3514.000000,4.000000,91.000000,,,,0.000000,4.000000,4.000000,4.000000,4.000000,4.000000,4.000000,4.000000,4.000000,4.000000,4.000000,4.000000,4.000000,4.000000,4.000000,100.000000,,,,,,,,,,,,,,,,
1644852749.396357,155.000000,0.000000,4192.179688,4212.692383,4207.563965,4163.077148,4203.461426,4208.333496,4210.128418,4201.666504,4203.846191,4219.230957,4199.230957,4195.256348,4199.615234,4211.153809,3439.000000,4.000000,91.000000,,,,0.000000,4.000000,4.000000,4.000000,4.000000,4.000000,4.000000,4.000000,4.000000,4.000000,4.000000,4.000000,4.000000,4.000000,4.000000,100.000000,,,,,,,,,,,,,,,,
1644852749.400297,156.000000,0.000000,4189.615234,4211.410156,4210.897461,4169.102539,4214.743652,4212.948730,4216.153809,4205.384766,4210.256348,4224.871582,4210.512695,4200.512695,4208.589844,4210.000000,3227.000000,4.000000,91.000000,,,,0.000000,4.000000,4.000000,4.000000,4.000000,4.000000,4.000000,4.000000,4.000000,4.000000,4.000000,4.000000,4.000000,4.000000,4.000000,100.000000,,,,,,,,,,,,,,,,
1644852749.404237,157.000000,0.000000,4188.974121,4211.153809,4215.769043,4176.922852,4229.487305,4216.794922,4218.077148,4209.743652,4217.563965,4226.666504,4213.333496,4205.128418,4217.307617,4205.512695,3522.000000,4.000000,91.000000,,,,0.000000,4.000000,4.000000,4.000000,4.000000,4.000000,4.000000,4.000000,4.000000,4.000000,4.000000,4.000000,4.000000,4.000000,4.000000,100.000000,,,,,,,,,,,,,,,,
1644852749.408177,158.000000,0.000000,4191.025879,4213.333496,4218.974121,4182.563965,4242.179688,4218.205078,4214.871582,4212.307617,4223.333496,4224.358887,4208.077148,4205.897461,4221.025879,4199.615234,3514.000000,4.000000,91.000000,,,,0.000000,4.000000,4.000000,4.000000,4.000000,4.000000,4.000000,4.000000,4.000000,4.000000,4.000000,4.000000,4.000000,4.000000,4.000000,100.000000,,,,,,,,,,,,,,,,
1644852749.412117,159.000000,0.000000,4195.128418,4217.692383,4218.846191,4182.179688,4246.666504,4217.179688,4210.641113,4212.820313,4226.025879,4219.230957,4201.666504,4203.205078,4217.692383,4195.128418,3439.000000,4.000000,91.000000,,,,0.000000,4.000000,4.000000,4.000000,4.000000,4.000000,4.000000,4.000000,4.000000,4.000000,4.000000,4.000000,4.000000,4.000000,4.000000,100.000000,,,,,,,,,,,,,,,,
1644852749.416057,160.000000,0.000000,4200.128418,4222.692383,4216.025879,4174.615234,4239.615234,4214.743652,4209.487305,4212.436035,4225.641113,4214.487305,4200.256348,4199.615234,4209.102539,4193.846191,3227.000000,4.000000,91.000000,2,1,2,0.000000,4.000000,4.000000,4.000000,4.000000,4.000000,4.000000,4.000000,4.000000,4.000000,4.000000,4.000000,4.000000,4.000000,4.000000,100.000000,,,,,,,,,,,,,,,,
1644852749.419998,161.000000,0.000000,4204.871582,4226.025879,4211.922852,4163.333496,4224.487305,4211.794922,4210.769043,4211.922852,4222.948730,4212.436035,4202.948730,4197.948730,4201.153809,4195.256348,3522.000000,4.000000,91.000000,,,,0.000000,4.000000,4.000000,4.000000,4.000000,4.000000,4.000000,4.000000,4.000000,4.000000,4.000000,4.000000,4.000000,4.000000,4.000000,100.000000,,,,,,,,,,,,,,,,
1644852749.423938,162.000000,0.000000,4207.948730,4226.025879,4209.230957,4155.256348,4208.717773,4208.333496,4211.410156,4211.025879,4219.230957,4213.333496,4203.461426,4199.230957,4199.358887,4198.205078,3514.000000,4.000000,91.000000,,,,0.000000,4.000000,4.000000,4.000000,4.000000,4.000000,4.000000,4.000000,4.000000,4.000000,4.000000,4.000000,4.000000,4.000000,4.000000,100.000000,,,,,,,,,,,,,,,,
1644852749.427778,163.000000,0.000000,4207.563965,4222.692383,4209.358887,4155.897461,4199.102539,4205.128418,4210.000000,4210.000000,4216.025879,4214.487305,4197.692383,4202.051270,4203.974121,4200.897461,3439.000000,4.000000,91.000000,,,,0.000000,4.000000,4.000000,4.000000,4.000000,4.000000,4.000000,4.000000,4.000000,4.000000,4.000000,4.000000,4.000000,4.000000,4.000000,100.000000,,,,,,,,,,,,,,,,
1644852749.431718,164.000000,0.000000,4203.333496,4218.077148,4211.282227,4165.256348,4197.820313,4203.589844,4208.589844,4209.871582,4214.487305,4213.205078,4189.102539,4204.102539,4210.000000,4202.051270,3227.000000,4.000000,91.000000,,,,0.000000,4.000000,4.000000,4.000000,4.000000,4.000000,4.000000,4.000000,4.000000,4.000000,4.000000,4.000000,4.000000,4.000000,4.000000,100.000000,,,,,,,,,,,,,,,,
1644852749.435658,165.000000,0.000000,4197.692383,4215.000000,4212.563965,4178.205078,4202.948730,4205.128418,4209.871582,4211.282227,4215.512695,4210.512695,4185.384766,4203.974121,4212.692383,4200.897461,3522.000000,4.000000,91.000000,,,,0.000000,4.000000,4.000000,4.000000,4.000000,4.000000,4.000000,4.000000,4.000000,4.000000,4.000000,4.000000,4.000000,4.000000,4.000000,100.000000,,,,,,,,,,,,,,,,
1644852749.439598,166.000000,0.000000,4194.487305,4215.512695,4211.025879,4187.563965,4211.538574,4210.000000,4212.820313,4213.846191,4218.846191,4209.871582,4191.025879,4202.563965,4211.282227,4198.205078,3514.000000,4.000000,91.000000,,,,0.000000,4.000000,4.000000,4.000000,4.000000,4.000000,4.000000,4.000000,4.000000,4.000000,4.000000,4.000000,4.000000,4.000000,4.000000,100.000000,,,,,,,,,,,,,,,,
1644852749.443538,167.000000,0.000000,4197.051270,4219.615234,4207.179688,4189.102539,4219.743652,4216.410156,4214.487305,4216.153809,4223.205078,4214.615234,4201.922852,4200.897461,4208.974121,4195.769043,3439.000000,4.000000,91.000000,,,,0.000000,4.000000,4.000000,4.000000,4.000000,4.000000,4.000000,4.000000,4.000000,4.000000,4.000000,4.000000,4.000000,4.000000,4.000000,100.000000,,,,,,,,,,,,,,,,
1644852749.447478,168.000000,0.000000,4204.230957,4224.102539,4202.692383,4183.205078,4223.974121,4220.897461,4213.333496,4217.051270,4225.769043,4223.205078,4209.871582,4199.743652,4208.077148,4195.256348,3227.000000,4.000000,91.000000,,,,0.000000,4.000000,4.000000,4.000000,4.000000,4.000000,4.000000,4.000000,4.000000,4.000000,4.000000,4.000000,4.000000,4.000000,4.000000,100.000000,,,,,,,,,,,,,,,,
1644852749.451418,169.000000,0.000000,4209.871582,4225.128418,4200.128418,4173.974121,4222.563965,4220.384766,4210.641113,4216.025879,4225.128418,4231.025879,4209.230957,4198.846191,4208.077148,4196.538574,3522.000000,4.000000,91.000000,,,,0.000000,4.000000,4.000000,4.000000,4.000000,4.000000,4.000000,4.000000,4.000000,4.000000,4.000000,4.000000,4.000000,4.000000,4.000000,100.000000,,,,,,,,,,,,,,,,
1644852749.455359,170.000000,0.000000,4208.461426,4221.025879,4199.743652,4167.563965,4217.179688,4214.743652,4208.846191,4213.846191,4222.307617,4233.333496,4202.179688,4197.563965,4207.692383,4198.077148,3514.000000,4.000000,91.000000,,,,0.000000,4.000000,4.000000,4.000000,4.000000,4.000000,4.000000,4.000000,4.000000,4.000000,4.000000,4.000000,4.000000,4.000000,4.000000,100.000000,,,,,,,,,,,,,,,,
1644852749.459299,171.000000,0.000000,4200.256348,4213.461426,4201.282227,4167.563965,4211.922852,4206.922852,4207.692383,4211.922852,4219.743652,4229.358887,4195.512695,4196.794922,4207.179688,4198.333496,3439.000000,4.000000,91.000000,,,,0.000000,4.000000,4.000000,4.000000,4.000000,4.000000,4.000000,4.000000,4.000000,4.000000,4.000000,4.000000,4.000000,4.000000,4.000000,100.000000,,,,,,,,,,,,,,,,
1644852749.463239,172.000000,0.000000,4191.410156,4206.666504,4203.461426,4171.794922,4209.615234,4201.538574,4206.153809,4210.769043,4219.102539,4221.282227,4194.487305,4197.436035,4208.589844,4197.179688,3227.000000,4.000000,91.000000,,,,0.000000,4.000000,4.000000,4.000000,4.000000,4.000000,4.000000,4.000000,4.000000,4.000000,4.000000,4.000000,4.000000,4.000000,4.000000,100.000000,,,,,,,,,,,,,,,,
1644852749.467179,173.000000,0.000000,4187.307617,4204.102539,4205.128418,4174.487305,4209.743652,4201.025879,4204.230957,4210.641113,4220.000000,4213.333496,4198.974121,4199.487305,4212.948730,4196.025879,3522.000000,4.000000,91.000000,,,,0.000000,4.000000,4.000000,4.000000,4.000000,4.000000,4.000000,4.000000,4.000000,4.000000,4.000000,4.000000,4.000000,4.000000,4.000000,100.000000,,,,,,,,,,,,,,,,
1644852749.471119,174.000000,0.000000,4188.974121,4205.384766,4205.769043,4171.025879,4210.000000,4204.615234,4204.230957,4211.153809,4220.512695,4208.974121,4204.102539,4200.897461,4217.820313,4196.282227,3514.000000,4.000000,91.000000,,,,0.000000,4.000000,4.000000,4.000000,4.000000,4.000000,4.000000,4.000000,4.000000,4.000000,4.000000,4.000000,4.000000,4.000000,4.000000,100.000000,,,,,,,,,,,,,,,,
1644852749.475059,175.000000,0.000000,4192.051270,4206.666504,4205.641113,4162.051270,4209.615234,4209.358887,4207.563965,4212.692383,4219.102539,4208.461426,4205.000000,4199.358887,4218.589844,4198.974121,3439.000000,4.000000,91.000000,,,,0.000000,4.000000,4.000000,4.000000,4.000000,4.000000,4.000000,4.000000,4.000000,4.000000,4.000000,4.000000,4.000000,4.000000,4.000000,100.000000,,,,,,,,,,,,,,,,
1644852749.478999,176.000000,0.000000,4191.538574,4205.256348,4204.743652,4153.205078,4209.743652,4212.436035,4212.051270,4213.974121,4216.153809,4210.128418,4200.256348,4194.871582,4212.436035,4202.307617,3227.000000,4.000000,91.000000,,,,0.000000,4.000000,4.000000,4.000000,4.000000,4.000000,4.000000,4.000000,4.000000,4.000000,4.000000,4.000000,4.000000,4.000000,4.000000,100.000000,,,,,,,,,,,,,,,,
1644852749.482939,177.000000,0.000000,4186.153809,4201.666504,4202.948730,4150.256348,4211.538574,4212.692383,4213.589844,4213.846191,4213.461426,4212.179688,4192.820313,4190.641113,4200.897461,4203.333496,3522.000000,4.000000,91.000000,,,,0.000000,4.000000,4.000000,4.000000,4.000000,4.000000,4.000000,4.000000,4.000000,4.000000,4.000000,4.000000,4.000000,4.000000,4.000000,100.000000,,,,,,,,,,,,,,,,
1644852749.486879,178.000000,0.000000,4178.717773,4198.333496,4200.512695,4154.615234,4213.717773,4211.025879,4211.025879,4211.538574,4212.436035,4213.333496,4185.897461,4189.871582,4190.256348,4199.358887,3514.000000,4.000000,91.000000,,,,0.000000,4.000000,4.000000,4.000000,4.000000,4.000000,4.000000,4.000000,4.000000,4.000000,4.000000,4.000000,4.000000,4.000000,4.000000,100.000000,,,,,,,,,,,,,,,,
1644852749.490820,179.000000,0.000000,4174.615234,4197.436035,4198.846191,4163.333496,4213.846191,4209.102539,4207.692383,4208.589844,4212.692383,4213.205078,4180.641113,4192.948730,4186.025879,4191.025879,3439.000000,4.000000,91.000000,,,,0.000000,4.000000,4.000000,4.000000,4.000000,4.000000,4.000000,4.000000,4.000000,4.000000,4.000000,4.000000,4.000000,4.000000,4.000000,100.000000,,,,,,,,,,,,,,,,
1644852749.494760,180.000000,0.000000,4177.179688,4199.487305,4199.230957,4172.307617,4211.794922,4208.974121,4207.307617,4207.563965,4213.333496,4211.922852,4177.179688,4197.051270,4190.000000,4182.692383,3227.000000,4.000000,91.000000,,,,0.000000,4.000000,4.000000,4.000000,4.000000,4.000000,4.000000,4.000000,4.000000,4.000000,4.000000,4.000000,4.000000,4.000000,4.000000,100.000000,,,,,,,,,,,,,,,,
1644852749.498600,181.000000,0.000000,4186.410156,4203.589844,4202.307617,4179.487305,4210.512695,4211.410156,4210.256348,4210.128418,4215.000000,4211.282227,4176.538574,4198.717773,4198.846191,4179.358887,3522.000000,4.000000,91.000000,,,,0.000000,4.000000,4.000000,4.000000,4.000000,4.000000,4.000000,4.000000,4.000000,4.000000,4.000000,4.000000,4.000000,4.000000,4.000000,100.000000,,,,,,,,,,,,,,,,
1644852749.502540,182.000000,0.000000,4198.461426,4208.461426,4207.307617,4184.102539,4213.333496,4215.512695,4213.589844,4215.384766,4218.846191,4213.846191,4180.256348,4197.307617,4207.436035,4183.717773,3514.000000,4.000000,91.000000,,,,0.000000,4.000000,4.000000,4.000000,4.000000,4.000000,4.000000,4.000000,4.000000,4.000000,4.000000,4.000000,4.000000,4.000000,4.000000,100.000000,,,,,,,,,,,,,,,,
1644852749.506480,183.000000,0.000000,4208.846191,4212.179688,4212.307617,4185.512695,4219.487305,4218.717773,4214.615234,4220.769043,4223.974121,4219.871582,4187.820313,4194.615234,4212.179688,4193.205078,3439.000000,4.000000,91.000000,,,,0.000000,4.000000,4.000000,4.000000,4.000000,4.000000,4.000000,4.000000,4.000000,4.000000,4.000000,4.000000,4.000000,4.000000,4.000000,100.000000,,,,,,,,,,,,,,,,
1644852749.510420,184.000000,0.000000,4214.102539,4213.205078,4215.256348,4183.717773,4224.487305,4218.717773,4213.717773,4223.205078,4228.077148,4225.641113,4195.897461,4192.563965,4212.820313,4202.563965,3227.000000,4.000000,91.000000,,,,0.000000,4.000000,4.000000,4.000000,4.000000,4.000000,4.000000,4.000000,4.000000,4.000000,4.000000,4.000000,4.000000,4.000000,4.000000,100.000000,,,,,,,,,,,,,,,,
1644852749.514360,185.000000,0.000000,4213.974121,4212.051270,4215.897461,4180.641113,4224.102539,4216.153809,4213.077148,4222.179688,4229.230957,4227.179688,4200.641113,4192.179688,4211.025879,4207.051270,3522.000000,4.000000,91.000000,,,,0.000000,4.000000,4.000000,4.000000,4.000000,4.000000,4.000000,4.000000,4.000000,4.000000,4.000000,4.000000,4.000000,4.000000,4.000000,100.000000,,,,,,,,,,,,,,,,
1644852749.518300,186.000000,0.000000,4209.871582,4211.538574,4215.512695,4179.230957,4220.000000,4214.487305,4213.846191,4220.000000,4228.717773,4223.974121,4201.666504,4193.974121,4209.743652,4206.538574,3514.000000,4.000000,91.000000,,,,0.000000,4.000000,4.000000,4.000000,4.000000,4.000000,4.000000,4.000000,4.000000,4.000000,4.000000,4.000000,4.000000,4.000000,4.000000,100.000000,,,,,,,,,,,,,,,,
1644852749.522240,187.000000,0.000000,4204.358887,4215.000000,4216.025879,4181.153809,4218.077148,4216.025879,4215.000000,4220.128418,4229.358887,4220.256348,4201.794922,4198.461426,4210.128418,4203.846191,3439.000000,4.000000,91.000000,,,,0.000000,4.000000,4.000000,4.000000,4.000000,4.000000,4.000000,4.000000,4.000000,4.000000,4.000000,4.000000,4.000000,4.000000,4.000000,100.000000,,,,,,,,,,,,,,,,
1644852749.526181,188.000000,0.000000,4199.230957,4222.051270,4218.205078,4184.230957,4221.922852,4220.000000,4215.384766,4223.717773,4232.051270,4220.128418,4203.205078,4205.128418,4212.179688,4202.051270,3227.000000,4.000000,91.000000,,,,0.000000,4.000000,4.000000,4.000000,4.000000,4.000000,4.000000,4.000000,4.000000,4.000000,4.000000,4.000000,4.000000,4.000000,4.000000,100.000000,,,,,,,,,,,,,,,,
1644852749.530121,189.000000,0.000000,4195.256348,4228.077148,4220.769043,4185.000000,4227.820313,4222.307617,4214.871582,4228.077148,4235.000000,4223.846191,4204.871582,4211.410156,4214.230957,4201.410156,3522.000000,4.000000,91.000000,,,,0.000000,4.000000,4.000000,4.000000,4.000000,4.000000,4.000000,4.000000,4.000000,4.000000,4.000000,4.000000,4.000000,4.000000,4.000000,100.000000,,,,,,,,,,,,,,,,
1644852749.534061,190.000000,0.000000,4193.717773,4227.307617,4222.051270,4181.282227,4227.563965,4220.000000,4214.487305,4228.974121,4234.487305,4227.436035,4203.717773,4214.615234,4214.743652,4200.128418,3514.000000,4.000000,91.000000,,,,0.000000,4.000000,4.000000,4.000000,4.000000,4.000000,4.000000,4.000000,4.000000,4.000000,4.000000,4.000000,4.000000,4.000000,4.000000,100.000000,,,,,,,,,,,,,,,,
1644852749.538001,191.000000,0.000000,4195.769043,4218.333496,4220.384766,4174.230957,4217.179688,4214.102539,4213.974121,4224.358887,4229.487305,4226.025879,4198.333496,4213.461426,4213.077148,4197.692383,3439.000000,4.000000,91.000000,,,,0.000000,4.000000,4.000000,4.000000,4.000000,4.000000,4.000000,4.000000,4.000000,4.000000,4.000000,4.000000,4.000000,4.000000,4.000000,100.000000,,,,,,,,,,,,,,,,
1644852749.541941,192.000000,0.000000,4200.384766,4205.897461,4216.025879,4167.179688,4202.692383,4208.589844,4212.563965,4216.410156,4222.692383,4219.487305,4190.769043,4209.358887,4210.128418,4195.769043,3227.000000,4.000000,91.000000,,,,0.000000,4.000000,4.000000,4.000000,4.000000,4.000000,4.000000,4.000000,4.000000,4.000000,4.000000,4.000000,4.000000,4.000000,4.000000,100.000000,,,,,,,,,,,,,,,,
1644852749.545881,193.000000,0.000000,4204.615234,4198.205078,4210.641113,4164.743652,4195.897461,4206.410156,4210.641113,4209.743652,4218.461426,4212.179688,4184.230957,4204.615234,4207.436035,4196.538574,3522.000000,4.000000,91.000000,,,,0.000000,4.000000,4.000000,4.000000,4.000000,4.000000,4.000000,4.000000,4.000000,4.000000,4.000000,4.000000,4.000000,4.000000,4.000000,100.000000,,,,,,,,,,,,,,,,
1644852749.549821,194.000000,0.000000,4206.025879,4200.641113,4206.666504,4170.000000,4203.846191,4208.333496,4210.128418,4207.820313,4218.589844,4208.974121,4180.897461,4201.282227,4206.666504,4199.871582,3514.000000,4.000000,91.000000,,,,0.000000,4.000000,4.000000,4.000000,4.000000,4.000000,4.000000,4.000000,4.000000,4.000000,4.000000,4.000000,4.000000,4.000000,4.000000,100.000000,,,,,,,,,,,,,,,,
1644852749.553761,195.000000,0.000000,4205.128418,4211.025879,4206.025879,4181.922852,4222.692383,4212.436035,4212.051270,4210.256348,4220.641113,4210.512695,4180.384766,4200.000000,4207.820313,4202.948730,3439.000000,4.000000,91.000000,,,,0.000000,4.000000,4.000000,4.000000,4.000000,4.000000,4.000000,4.000000,4.000000,4.000000,4.000000,4.000000,4.000000,4.000000,4.000000,100.000000,,,,,,,,,,,,,,,,
1644852749.557701,196.000000,0.000000,4203.717773,4221.538574,4208.205078,4194.102539,4240.256348,4216.025879,4215.128418,4213.333496,4220.512695,4213.461426,4181.410156,4200.000000,4208.717773,4201.794922,3227.000000,4.000000,91.000000,,,,0.000000,4.000000,4.000000,4.000000,4.000000,4.000000,4.000000,4.000000,4.000000,4.000000,4.000000,4.000000,4.000000,4.000000,4.000000,100.000000,,,,,,,,,,,,,,,,
1644852749.561642,197.000000,0.000000,4202.051270,4225.384766,4210.897461,4197.820313,4245.769043,4217.563965,4216.410156,4213.205078,4216.153809,4214.102539,4183.333496,4199.871582,4206.282227,4194.230957,3522.000000,4.000000,91.000000,,,,0.000000,4.000000,4.000000,4.000000,4.000000,4.000000,4.000000,4.000000,4.000000,4.000000,4.000000,4.000000,4.000000,4.000000,4.000000,100.000000,,,,,,,,,,,,,,,,
1644852749.565582,198.000000,0.000000,4198.205078,4221.282227,4211.666504,4188.461426,4238.333496,4217.179688,4214.487305,4209.615234,4209.358887,4211.666504,4186.666504,4198.974121,4199.615234,4181.794922,3514.000000,4.000000,91.000000,,,,0.000000,4.000000,4.000000,4.000000,4.000000,4.000000,4.000000,4.000000,4.000000,4.000000,4.000000,4.000000,4.000000,4.000000,4.000000,100.000000,,,,,,,,,,,,,,,,
1644852749.569622,199.000000,0.000000,4190.256348,4213.333496,4210.512695,4170.256348,4225.512695,4215.641113,4212.051270,4205.256348,4204.230957,4207.948730,4190.769043,4198.077148,4190.512695,4169.102539,3439.000000,4.000000,91.000000,,,,0.000000,4.000000,4.000000,4.000000,4.000000,4.000000,4.000000,4.000000,4.000000,4.000000,4.000000,4.000000,4.000000,4.000000,4.000000,100.000000,,,,,,,,,,,,,,,,
1644852749.573562,200.000000,0.000000,4181.282227,4207.051270,4208.461426,4153.974121,4216.282227,4214.487305,4212.051270,4203.461426,4203.846191,4205.000000,4193.589844,4197.948730,4183.461426,4161.282227,3227.000000,4.000000,91.000000,,,,0.000000,4.000000,4.000000,4.000000,4.000000,4.000000,4.000000,4.000000,4.000000,4.000000,4.000000,4.000000,4.000000,4.000000,4.000000,100.000000,1.000000,58.333332,4.000000,4.000000,4.000000,3.000000,1.000000,4.000000,4.000000,4.000000,4.000000,4.000000,4.000000,4.000000,3.000000,3.000000
1644852749.577502,201.000000,0.000000,4177.436035,4205.769043,4206.538574,4148.974121,4214.743652,4214.102539,4214.230957,4205.000000,4207.948730,4203.333496,4192.948730,4198.589844,4182.563965,4161.666504,3522.000000,4.000000,91.000000,,,,0.000000,4.000000,4.000000,4.000000,4.000000,4.000000,4.000000,4.000000,4.000000,4.000000,4.000000,4.000000,4.000000,4.000000,4.000000,100.000000,,,,,,,,,,,,,,,,
1644852749.581442,202.000000,0.000000,4183.077148,4207.820313,4204.743652,4156.666504,4218.333496,4214.358887,4215.256348,4207.820313,4213.717773,4202.820313,4188.333496,4198.589844,4189.358887,4169.487305,3514.000000,4.000000,91.000000,,,,0.000000,4.000000,4.000000,4.000000,4.000000,4.000000,4.000000,4.000000,4.000000,4.000000,4.000000,4.000000,4.000000,4.000000,4.000000,100.000000,,,,,,,,,,,,,,,,
1644852749.585382,203.000000,0.000000,4196.025879,4209.487305,4203.717773,4170.384766,4222.051270,4214.615234,4212.563965,4209.358887,4217.436035,4202.692383,4183.077148,4196.666504,4200.769043,4180.512695,3439.000000,4.000000,91.000000,,,,0.000000,4.000000,4.000000,4.000000,4.000000,4.000000,4.000000,4.000000,4.000000,4.000000,4.000000,4.000000,4.000000,4.000000,4.000000,100.000000,,,,,,,,,,,,,,,,
1644852749.589322,204.000000,0.000000,4208.589844,4209.102539,4204.230957,4181.922852,4222.948730,4214.102539,4208.205078,4209.487305,4217.436035,4203.077148,4182.051270,4194.102539,4211.153809,4189.102539,3227.000000,4.000000,91.000000,,,,0.000000,4.000000,4.000000,4.000000,4.000000,4.000000,4.000000,4.000000,4.000000,4.000000,4.000000,4.000000,4.000000,4.000000,4.000000,100.000000,,,,,,,,,,,,,,,,
1644852749.593262,205.000000,0.000000,4213.846191,4208.717773,4206.666504,4187.051270,4222.563965,4212.948730,4206.410156,4209.615234,4214.615234,4203.846191,4187.436035,4193.333496,4215.000000,4191.025879,3522.000000,4.000000,91.000000,,,,0.000000,4.000000,4.000000,4.000000,4.000000,4.000000,4.000000,4.000000,4.000000,4.000000,4.000000,4.000000,4.000000,4.000000,4.000000,100.000000,,,,,,,,,,,,,,,,
1644852749.597202,206.000000,0.000000,4211.410156,4211.666504,4210.641113,4186.538574,4223.974121,4211.666504,4208.205078,4211.025879,4212.307617,4204.615234,4195.641113,4195.641113,4211.666504,4185.000000,3514.000000,4.000000,91.000000,,,,0.000000,4.000000,4.000000,4.000000,4.000000,4.000000,4.000000,4.000000,4.000000,4.000000,4.000000,4.000000,4.000000,4.000000,4.000000,100.000000,,,,,,,,,,,,,,,,
1644852749.601142,207.000000,0.000000,4206.153809,4217.948730,4215.000000,4183.205078,4228.205078,4210.769043,4210.256348,4212.692383,4212.692383,4205.128418,4200.128418,4199.615234,4204.615234,4173.717773,3439.000000,4.000000,91.000000,,,,0.000000,4.000000,4.000000,4.000000,4.000000,4.000000,4.000000,4.000000,4.000000,4.000000,4.000000,4.000000,4.000000,4.000000,4.000000,100.000000,,,,,,,,,,,,,,,,
1644852749.605083,208.000000,0.000000,4203.077148,4223.461426,4217.820313,4178.846191,4230.897461,4210.384766,4208.846191,4212.820313,4215.641113,4205.641113,4197.436035,4202.948730,4198.461426,4162.436035,3227.000000,4.000000,91.000000,,,,0.000000,4.000000,4.000000,4.000000,4.000000,4.000000,4.000000,4.000000,4.000000,4.000000,4.000000,4.000000,4.000000,4.000000,4.000000,100.000000,,,,,,,,,,,,,,,,
1644852749.609023,209.000000,0.000000,4203.205078,4223.461426,4218.205078,4174.358887,4227.307617,4211.025879,4205.128418,4211.153809,4218.974121,4207.051270,4190.384766,4204.358887,4195.769043,4156.794922,3522.000000,4.000000,91.000000,,,,0.000000,4.000000,4.000000,4.000000,4.000000,4.000000,4.000000,4.000000,4.000000,4.000000,4.000000,4.000000,4.000000,4.000000,4.000000,100.000000,,,,,,,,,,,,,,,,
1644852749.612963,210.000000,0.000000,4204.487305,4218.846191,4217.563965,4170.512695,4219.102539,4213.333496,4203.717773,4209.230957,4220.641113,4210.000000,4185.897461,4205.512695,4196.282227,4160.128418,3514.000000,4.000000,91.000000,,,,0.000000,4.000000,4.000000,4.000000,4.000000,4.000000,4.000000,4.000000,4.000000,4.000000,4.000000,4.000000,4.000000,4.000000,4.000000,100.000000,,,,,,,,,,,,,,,,
1644852749.616903,211.000000,0.000000,4204.743652,4215.384766,4218.077148,4168.461426,4214.358887,4216.410156,4207.307617,4208.846191,4220.512695,4213.717773,4188.333496,4207.563965,4198.846191,4171.153809,3439.000000,4.000000,91.000000,,,,0.000000,4.000000,4.000000,4.000000,4.000000,4.000000,4.000000,4.000000,4.000000,4.000000,4.000000,4.000000,4.000000,4.000000,4.000000,100.000000,,,,,,,,,,,,,,,,
1644852749.620843,212.000000,0.000000,4204.102539,4218.589844,4220.897461,4170.000000,4219.743652,4218.461426,4212.948730,4210.128418,4219.871582,4216.922852,4196.025879,4209.487305,4202.563965,4184.871582,3227.000000,4.000000,91.000000,,,,0.000000,4.000000,4.000000,4.000000,4.000000,4.000000,4.000000,4.000000,4.000000,4.000000,4.000000,4.000000,4.000000,4.000000,4.000000,100.000000,,,,,,,,,,,,,,,,
1644852749.624783,213.000000,0.000000,4204.358887,4227.563965,4224.871582,4176.025879,4233.589844,4219.102539,4215.769043,4211.794922,4220.384766,4218.461426,4202.820313,4208.333496,4206.538574,4194.743652,3522.000000,4.000000,91.000000,,,,0.000000,4.000000,4.000000,4.000000,4.000000,4.000000,4.000000,4.000000,4.000000,4.000000,4.000000,4.000000,4.000000,4.000000,4.000000,100.000000,,,,,,,,,,,,,,,,
1644852749.628723,214.000000,0.000000,4207.436035,4235.769043,4228.333496,4186.282227,4247.179688,4219.743652,4214.871582,4213.077148,4222.563965,4218.589844,4203.717773,4203.333496,4210.512695,4196.666504,3514.000000,4.000000,91.000000,,,,0.000000,4.000000,4.000000,4.000000,4.000000,4.000000,4.000000,4.000000,4.000000,4.000000,4.000000,4.000000,4.000000,4.000000,4.000000,100.000000,,,,,,,,,,,,,,,,
1644852749.632663,215.000000,0.000000,4213.205078,4237.307617,4230.256348,4198.077148,4252.948730,4222.179688,4213.077148,4214.743652,4225.384766,4218.846191,4198.461426,4197.820313,4213.333496,4191.025879,3439.000000,4.000000,91.000000,,,,0.000000,4.000000,4.000000,4.000000,4.000000,4.000000,4.000000,4.000000,4.000000,4.000000,4.000000,4.000000,4.000000,4.000000,4.000000,100.000000,,,,,,,,,,,,,,,,
1644852749.636603,216.000000,0.000000,4219.358887,4232.307617,4231.025879,4207.179688,4249.487305,4226.538574,4213.717773,4217.307617,4227.051270,4220.384766,4191.794922,4196.794922,4214.358887,4182.179688,3227.000000,4.000000,91.000000,,,,0.000000,4.000000,4.000000,4.000000,4.000000,4.000000,4.000000,4.000000,4.000000,4.000000,4.000000,4.000000,4.000000,4.000000,4.000000,100.000000,,,,,,,,,,,,,,,,
1644852749.640643,217.000000,0.000000,4222.436035,4227.051270,4231.025879,4209.487305,4241.153809,4229.871582,4215.512695,4220.000000,4226.794922,4223.589844,4189.487305,4201.794922,4214.230957,4175.641113,3522.000000,4.000000,91.000000,,,,0.000000,4.000000,4.000000,4.000000,4.000000,4.000000,4.000000,4.000000,4.000000,4.000000,4.000000,4.000000,4.000000,4.000000,4.000000,100.000000,,,,,,,,,,,,,,,,
1644852749.644584,218.000000,0.000000,4220.769043,4226.922852,4230.128418,4203.717773,4233.589844,4229.615234,4215.384766,4221.282227,4225.256348,4226.794922,4194.358887,4210.000000,4213.846191,4175.128418,3514.000000,4.000000,91.000000,,,,0.000000,4.000000,4.000000,4.000000,4.000000,4.000000,4.000000,4.000000,4.000000,4.000000,4.000000,4.000000,4.000000,4.000000,4.000000,100.000000,,,,,,,,,,,,,,,,
1644852749.648524,219.000000,0.000000,4215.512695,4231.282227,4228.461426,4192.179688,4230.128418,4225.512695,4212.948730,4220.512695,4223.846191,4228.205078,4203.974121,4215.897461,4213.205078,4179.743652,3439.000000,4.000000,91.000000,,,,0.000000,4.000000,4.000000,4.000000,4.000000,4.000000,4.000000,4.000000,4.000000,4.000000,4.000000,4.000000,4.000000,4.000000,4.000000,100.000000,,,,,,,,,,,,,,,,
1644852749.652464,220.000000,0.000000,4209.871582,4234.871582,4226.153809,4179.230957,4231.025879,4220.000000,4211.153809,4218.461426,4223.205078,4226.410156,4213.077148,4215.512695,4211.025879,4184.487305,3227.000000,4.000000,91.000000,,,,0.000000,4.000000,4.000000,4.000000,4.000000,4.000000,4.000000,4.000000,4.000000,4.000000,4.000000,4.000000,4.000000,4.000000,4.000000,100.000000,,,,,,,,,,,,,,,,
1644852749.656404,221.000000,0.000000,4206.410156,4233.205078,4223.461426,4169.358887,4233.333496,4215.512695,4212.307617,4216.410156,4222.563965,4222.307617,4217.307617,4209.230957,4207.436035,4184.358887,3522.000000,4.000000,91.000000,,,,0.000000,4.000000,4.000000,4.000000,4.000000,4.000000,4.000000,4.000000,4.000000,4.000000,4.000000,4.000000,4.000000,4.000000,4.000000,100.000000,,,,,,,,,,,,,,,,
1644852749.660344,222.000000,0.000000,4205.769043,4226.538574,4220.897461,4166.153809,4233.077148,4213.717773,4215.256348,4215.128418,4221.282227,4217.436035,4215.641113,4200.384766,4203.974121,4178.846191,3514.000000,4.000000,91.000000,,,,0.000000,4.000000,4.000000,4.000000,4.000000,4.000000,4.000000,4.000000,4.000000,4.000000,4.000000,4.000000,4.000000,4.000000,4.000000,100.000000,,,,,,,,,,,,,,,,
1644852749.664284,223.000000,0.000000,4207.563965,4219.743652,4219.615234,4171.282227,4229.230957,4214.230957,4216.794922,4214.487305,4220.000000,4212.692383,4210.128418,4194.102539,4203.205078,4172.051270,3439.000000,4.000000,91.000000,,,,0.000000,4.000000,4.000000,4.000000,4.000000,4.000000,4.000000,4.000000,4.000000,4.000000,4.000000,4.000000,4.000000,4.000000,4.000000,100.000000,,,,,,,,,,,,,,,,
1644852749.668224,224.000000,0.000000,4211.666504,4218.846191,4220.641113,4182.692383,4225.128418,4215.897461,4216.153809,4215.000000,4220.256348,4208.589844,4204.230957,4193.974121,4206.025879,4169.487305,3227.000000,4.000000,91.000000,,,,0.000000,4.000000,4.000000,4.000000,4.000000,4.000000,4.000000,4.000000,4.000000,4.000000,4.000000,4.000000,4.000000,4.000000,4.000000,100.000000,,,,,,,,,,,,,,,,
1644852749.672164,225.000000,0.000000,4217.307617,4225.384766,4223.461426,4194.230957,4225.769043,4218.205078,4215.384766,4217.563965,4222.692383,4206.282227,4200.256348,4200.384766,4211.025879,4173.205078,3522.000000,4.000000,91.000000,,,,0.000000,4.000000,4.000000,4.000000,4.000000,4.000000,4.000000,4.000000,4.000000,4.000000,4.000000,4.000000,4.000000,4.000000,4.000000,100.000000,,,,,,,,,,,,,,,,
1644852749.676104,226.000000,0.000000,4221.282227,4234.102539,4226.410156,4199.487305,4232.051270,4220.769043,4216.538574,4221.410156,4226.153809,4207.820313,4199.487305,4209.871582,4215.897461,4180.641113,3514.000000,4.000000,91.000000,,,,0.000000,4.000000,4.000000,4.000000,4.000000,4.000000,4.000000,4.000000,4.000000,4.000000,4.000000,4.000000,4.000000,4.000000,4.000000,100.000000,,,,,,,,,,,,,,,,
1644852749.680044,227.000000,0.000000,4219.358887,4236.922852,4227.563965,4196.153809,4238.461426,4223.077148,4218.589844,4224.487305,4228.974121,4214.358887,4201.794922,4217.563965,4218.333496,4186.794922,3439.000000,4.000000,91.000000,,,,0.000000,4.000000,4.000000,4.000000,4.000000,4.000000,4.000000,4.000000,4.000000,4.000000,4.000000,4.000000,4.000000,4.000000,4.000000,100.000000,,,,,,,,,,,,,,,,
1644852749.683985,228.000000,0.000000,4211.153809,4230.128418,4226.410156,4187.692383,4237.820313,4223.974121,4219.230957,4224.615234,4229.615234,4224.358887,4205.641113,4219.358887,4217.563965,4188.589844,3227.000000,4.000000,91.000000,,,,0.000000,4.000000,4.000000,4.000000,4.000000,4.000000,4.000000,4.000000,4.000000,4.000000,4.000000,4.000000,4.000000,4.000000,4.000000,100.000000,,,,,,,,,,,,,,,,
1644852749.687925,229.000000,0.000000,4201.666504,4218.846191,4224.871582,4180.000000,4228.846191,4222.692383,4217.948730,4222.179688,4227.820313,4233.333496,4208.077148,4214.743652,4213.846191,4187.692383,3522.000000,4.000000,91.000000,,,,0.000000,4.000000,4.000000,4.000000,4.000000,4.000000,4.000000,4.000000,4.000000,4.000000,4.000000,4.000000,4.000000,4.000000,4.000000,100.000000,,,,,,,,,,,,,,,,
1644852749.691865,230.000000,0.000000,4198.589844,4211.410156,4225.641113,4176.794922,4218.205078,4219.230957,4216.538574,4220.000000,4225.128418,4237.436035,4206.410156,4206.666504,4209.358887,4188.333496,3514.000000,4.000000,91.000000,,,,0.000000,4.000000,4.000000,4.000000,4.000000,4.000000,4.000000,4.000000,4.000000,4.000000,4.000000,4.000000,4.000000,4.000000,4.000000,100.000000,,,,,,,,,,,,,,,,
1644852749.695805,231.000000,0.000000,4204.871582,4212.692383,4229.871582,4178.205078,4215.384766,4215.641113,4216.538574,4220.256348,4223.333496,4235.512695,4200.641113,4200.641113,4206.922852,4192.307617,3439.000000,4.000000,91.000000,,,,0.000000,4.000000,4.000000,4.000000,4.000000,4.000000,4.000000,4.000000,4.000000,4.000000,4.000000,4.000000,4.000000,4.000000,4.000000,100.000000,,,,,,,,,,,,,,,,
1644852749.699745,232.000000,0.000000,4216.153809,4220.128418,4235.000000,4182.307617,4223.717773,4213.846191,4217.179688,4222.563965,4224.230957,4230.384766,4193.846191,4200.512695,4207.948730,4197.436035,3227.000000,4.000000,91.000000,,,,0.000000,4.000000,4.000000,4.000000,4.000000,4.000000,4.000000,4.000000,4.000000,4.000000,4.000000,4.000000,4.000000,4.000000,4.000000,100.000000,,,,,,,,,,,,,,,,
1644852749.703685,233.000000,0.000000,4224.358887,4227.307617,4236.666504,4186.922852,4237.563965,4214.487305,4216.794922,4224.358887,4227.563965,4225.769043,4190.256348,4206.922852,4211.282227,4198.333496,3522.000000,4.000000,91.000000,,,,0.000000,4.000000,4.000000,4.000000,4.000000,4.000000,4.000000,4.000000,4.000000,4.000000,4.000000,4.000000,4.000000,4.000000,4.000000,100.000000,,,,,,,,,,,,,,,,
1644852749.707625,234.000000,0.000000,4223.846191,4229.487305,4232.692383,4189.358887,4246.794922,4216.666504,4215.128418,4222.820313,4230.897461,4223.717773,4192.307617,4215.897461,4213.205078,4191.410156,3514.000000,4.000000,91.000000,,,,0.000000,4.000000,4.000000,4.000000,4.000000,4.000000,4.000000,4.000000,4.000000,4.000000,4.000000,4.000000,4.000000,4.000000,4.000000,100.000000,,,,,,,,,,,,,,,,
1644852749.711565,235.000000,0.000000,4215.128418,4226.922852,4225.512695,4188.717773,4244.358887,4217.820313,4213.974121,4218.717773,4231.153809,4223.461426,4198.717773,4221.538574,4211.410156,4178.333496,3439.000000,4.000000,91.000000,,,,0.000000,4.000000,4.000000,4.000000,4.000000,4.000000,4.000000,4.000000,4.000000,4.000000,4.000000,4.000000,4.000000,4.000000,4.000000,100.000000,,,,,,,,,,,,,,,,
1644852749.715605,236.000000,0.000000,4203.589844,4222.563965,4219.487305,4185.256348,4230.897461,4217.051270,4213.589844,4214.615234,4227.820313,4223.077148,4205.512695,4220.128418,4206.538574,4166.282227,3227.000000,4.000000,91.000000,,,,0.000000,4.000000,4.000000,4.000000,4.000000,4.000000,4.000000,4.000000,4.000000,4.000000,4.000000,4.000000,4.000000,4.000000,4.000000,100.000000,,,,,,,,,,,,,,,,
1644852749.719545,237.000000,0.000000,4196.025879,4219.615234,4217.436035,4180.512695,4214.615234,4215.000000,4212.436035,4212.692383,4222.948730,4221.410156,4209.102539,4213.333496,4203.461426,4163.077148,3522.000000,4.000000,91.000000,,,,0.000000,4.000000,4.000000,4.000000,4.000000,4.000000,4.000000,4.000000,4.000000,4.000000,4.000000,4.000000,4.000000,4.000000,4.000000,100.000000,,,,,,,,,,,,,,,,
1644852749.723486,238.000000,0.000000,4196.025879,4218.589844,4218.717773,4176.666504,4205.512695,4213.333496,4209.230957,4212.692383,4219.358887,4219.230957,4207.820313,4206.282227,4206.794922,4171.666504,3514.000000,4.000000,91.000000,,,,0.000000,4.000000,4.000000,4.000000,4.000000,4.000000,4.000000,4.000000,4.000000,4.000000,4.000000,4.000000,4.000000,4.000000,4.000000,100.000000,,,,,,,,,,,,,,,,
1644852749.727426,239.000000,0.000000,4202.179688,4217.692383,4220.128418,4175.000000,4207.820313,4212.820313,4205.512695,4212.948730,4218.333496,4218.717773,4203.589844,4203.461426,4216.922852,4188.077148,3439.000000,4.000000,91.000000,,,,0.000000,4.000000,4.000000,4.000000,4.000000,4.000000,4.000000,4.000000,4.000000,4.000000,4.000000,4.000000,4.000000,4.000000,4.000000,100.000000,,,,,,,,,,,,,,,,
1644852749.731366,240.000000,0.000000,4209.358887,4214.871582,4220.256348,4176.025879,4217.051270,4213.333496,4205.128418,4212.820313,4220.000000,4220.256348,4200.384766,4206.282227,4229.230957,4203.205078,3227.000000,4.000000,91.000000,,,,0.000000,4.000000,4.000000,4.000000,4.000000,4.000000,4.000000,4.000000,4.000000,4.000000,4.000000,4.000000,4.000000,4.000000,4.000000,100.000000,,,,,,,,,,,,,,,,
1644852749.735306,241.000000,0.000000,4212.179688,4210.256348,4218.974121,4178.974121,4223.717773,4214.102539,4209.743652,4212.820313,4222.820313,4222.307617,4201.025879,4212.436035,4237.179688,4209.358887,3522.000000,4.000000,91.000000,,,,0.000000,4.000000,4.000000,4.000000,4.000000,4.000000,4.000000,4.000000,4.000000,4.000000,4.000000,4.000000,4.000000,4.000000,4.000000,100.000000,,,,,,,,,,,,,,,,
1644852749.739246,242.000000,0.000000,4210.384766,4207.051270,4217.820313,4181.922852,4223.077148,4215.256348,4216.666504,4214.102539,4226.153809,4222.948730,4205.256348,4218.077148,4237.051270,4205.000000,3514.000000,4.000000,91.000000,,,,0.000000,4.000000,4.000000,4.000000,4.000000,4.000000,4.000000,4.000000,4.000000,4.000000,4.000000,4.000000,4.000000,4.000000,4.000000,100.000000,,,,,,,,,,,,,,,,
1644852749.743186,243.000000,0.000000,4208.205078,4209.230957,4218.205078,4183.205078,4218.974121,4217.307617,4221.025879,4216.922852,4229.743652,4222.692383,4210.128418,4221.025879,4230.769043,4196.025879,3439.000000,4.000000,91.000000,,,,0.000000,4.000000,4.000000,4.000000,4.000000,4.000000,4.000000,4.000000,4.000000,4.000000,4.000000,4.000000,4.000000,4.000000,4.000000,100.000000,,,,,,,,,,,,,,,,
1644852749.747126,244.000000,0.000000,4210.128418,4217.436035,4221.410156,4182.179688,4218.589844,4219.615234,4220.769043,4220.641113,4232.948730,4223.589844,4212.307617,4220.384766,4223.333496,4191.153809,3227.000000,4.000000,91.000000,,,,0.000000,4.000000,4.000000,4.000000,4.000000,4.000000,4.000000,4.000000,4.000000,4.000000,4.000000,4.000000,4.000000,4.000000,4.000000,100.000000,,,,,,,,,,,,,,,,
1644852749.751066,245.000000,0.000000,4215.512695,4226.025879,4226.922852,4180.000000,4223.974121,4220.769043,4218.205078,4224.358887,4234.615234,4226.922852,4210.256348,4216.410156,4219.871582,4195.641113,3522.000000,4.000000,91.000000,,,,0.000000,4.000000,4.000000,4.000000,4.000000,4.000000,4.000000,4.000000,4.000000,4.000000,4.000000,4.000000,4.000000,4.000000,4.000000,100.000000,,,,,,,,,,,,,,,,
1644852749.755006,246.000000,0.000000,4218.846191,4226.922852,4232.307617,4179.743652,4229.230957,4219.743652,4217.051270,4226.153809,4233.974121,4231.666504,4204.743652,4209.743652,4221.410156,4206.410156,3514.000000,4.000000,91.000000,,,,0.000000,4.000000,4.000000,4.000000,4.000000,4.000000,4.000000,4.000000,4.000000,4.000000,4.000000,4.000000,4.000000,4.000000,4.000000,100.000000,,,,,,,,,,,,,,,,
1644852749.758946,247.000000,0.000000,4215.769043,4217.307617,4234.743652,4183.077148,4228.461426,4217.307617,4217.820313,4224.871582,4230.897461,4235.000000,4198.077148,4202.307617,4225.256348,4215.000000,3439.000000,4.000000,91.000000,,,,0.000000,4.000000,4.000000,4.000000,4.000000,4.000000,4.000000,4.000000,4.000000,4.000000,4.000000,4.000000,4.000000,4.000000,4.000000,100.000000,,,,,,,,,,,,,,,,
1644852749.762887,248.000000,0.000000,4207.307617,4202.307617,4232.563965,4189.615234,4222.563965,4215.897461,4217.948730,4220.897461,4226.794922,4235.384766,4193.077148,4197.307617,4227.307617,4214.871582,3227.000000,4.000000,91.000000,,,,0.000000,4.000000,4.000000,4.000000,4.000000,4.000000,4.000000,4.000000,4.000000,4.000000,4.000000,4.000000,4.000000,4.000000,4.000000,100.000000,,,,,,,,,,,,,,,,
1644852749.766827,249.000000,0.000000,4198.974121,4192.051270,4226.922852,4196.538574,4218.846191,4216.410156,4215.769043,4216.410156,4223.333496,4233.717773,4191.282227,4196.538574,4225.256348,4206.410156,3522.000000,4.000000,91.000000,,,,0.000000,4.000000,4.000000,4.000000,4.000000,4.000000,4.000000,4.000000,4.000000,4.000000,4.000000,4.000000,4.000000,4.000000,4.000000,100.000000,,,,,,,,,,,,,,,,
1644852749.770767,250.000000,0.000000,4195.641113,4192.436035,4220.769043,4201.025879,4221.538574,4217.820313,4213.333496,4214.102539,4221.666504,4231.666504,4193.589844,4199.358887,4219.358887,4194.743652,3514.000000,4.000000,91.000000,,,,0.000000,4.000000,4.000000,4.000000,4.000000,4.000000,4.000000,4.000000,4.000000,4.000000,4.000000,4.000000,4.000000,4.000000,4.000000,100.000000,,,,,,,,,,,,,,,,
1644852749.774707,251.000000,0.000000,4198.333496,4201.666504,4217.436035,4201.153809,4227.692383,4218.205078,4213.846191,4215.512695,4222.051270,4231.025879,4199.230957,4203.846191,4212.692383,4186.282227,3439.000000,4.000000,91.000000,,,,0.000000,4.000000,4.000000,4.000000,4.000000,4.000000,4.000000,4.000000,4.000000,4.000000,4.000000,4.000000,4.000000,4.000000,4.000000,100.000000,,,,,,,,,,,,,,,,
1644852749.778647,252.000000,0.000000,4205.256348,4213.205078,4219.102539,4196.538574,4230.384766,4217.307617,4218.077148,4220.128418,4224.615234,4233.077148,4206.282227,4209.358887,4209.358887,4184.487305,3227.000000,4.000000,91.000000,,,,0.000000,4.000000,4.000000,4.000000,4.000000,4.000000,4.000000,4.000000,4.000000,4.000000,4.000000,4.000000,4.000000,4.000000,4.000000,100.000000,,,,,,,,,,,,,,,,
1644852749.782587,253.000000,0.000000,4212.948730,4220.384766,4225.512695,4188.589844,4225.897461,4217.307617,4222.563965,4225.897461,4229.102539,4238.205078,4213.077148,4216.666504,4211.153809,4188.717773,3522.000000,4.000000,91.000000,,,,0.000000,4.000000,4.000000,4.000000,4.000000,4.000000,4.000000,4.000000,4.000000,4.000000,4.000000,4.000000,4.000000,4.000000,4.000000,100.000000,,,,,,,,,,,,,,,,
1644852749.786527,254.000000,0.000000,4218.717773,4220.256348,4233.205078,4181.410156,4217.051270,4219.871582,4224.358887,4229.871582,4233.589844,4244.230957,4217.820313,4225.641113,4216.794922,4196.025879,3514.000000,4.000000,91.000000,,,,0.000000,4.000000,4.000000,4.000000,4.000000,4.000000,4.000000,4.000000,4.000000,4.000000,4.000000,4.000000,4.000000,4.000000,4.000000,100.000000,,,,,,,,,,,,,,,,
1644852749.790367,255.000000,0.000000,4220.897461,4215.128418,4237.692383,4180.128418,4210.384766,4224.102539,4223.333496,4230.256348,4236.153809,4246.794922,4219.487305,4233.077148,4222.692383,4202.692383,114.000000,4.000000,91.000000,,,,0.000000,4.000000,4.000000,4.000000,4.000000,4.000000,4.000000,4.000000,4.000000,4.000000,4.000000,4.000000,4.000000,4.000000,4.000000,100.000000,,,,,,,,,,,,,,,,
1644852749.794308,0.000000,0.000000,4220.256348,4210.641113,4236.538574,4185.897461,4211.410156,4227.436035,4222.051270,4227.948730,4236.282227,4243.846191,4218.589844,4235.512695,4226.410156,4207.307617,3410.000000,4.000000,91.000000,,,,0.000000,4.000000,4.000000,4.000000,4.000000,4.000000,4.000000,4.000000,4.000000,4.000000,4.000000,4.000000,4.000000,4.000000,4.000000,100.000000,,,,,,,,,,,,,,,,
1644852749.798248,1.000000,0.000000,4218.846191,4212.051270,4231.282227,4194.102539,4220.769043,4228.077148,4222.436035,4225.769043,4235.512695,4237.692383,4218.589844,4231.666504,4228.461426,4211.410156,3511.000000,4.000000,91.000000,,,,0.000000,4.000000,4.000000,4.000000,4.000000,4.000000,4.000000,4.000000,4.000000,4.000000,4.000000,4.000000,4.000000,4.000000,4.000000,100.000000,,,,,,,,,,,,,,,,
1644852749.802188,2.000000,0.000000,4218.589844,4219.230957,4226.025879,4198.461426,4233.589844,4226.153809,4223.589844,4225.769043,4235.641113,4234.102539,4223.333496,4224.743652,4230.897461,4216.410156,3538.000000,4.000000,91.000000,,,,0.000000,4.000000,4.000000,4.000000,4.000000,4.000000,4.000000,4.000000,4.000000,4.000000,4.000000,4.000000,4.000000,4.000000,4.000000,100.000000,,,,,,,,,,,,,,,,
1644852749.806028,3.000000,0.000000,4218.717773,4226.282227,4224.102539,4195.384766,4240.641113,4223.846191,4224.102539,4227.820313,4236.282227,4235.769043,4232.563965,4219.102539,4234.487305,4221.666504,3522.000000,4.000000,91.000000,,,,0.000000,4.000000,4.000000,4.000000,4.000000,4.000000,4.000000,4.000000,4.000000,4.000000,4.000000,4.000000,4.000000,4.000000,4.000000,100.000000,,,,,,,,,,,,,,,,
1644852749.809968,4.000000,0.000000,4217.563965,4226.410156,4225.384766,4188.205078,4235.256348,4222.948730,4223.589844,4229.743652,4235.512695,4240.000000,4240.256348,4217.563965,4236.922852,4223.205078,3684.000000,4.000000,91.000000,,,,0.000000,4.000000,4.000000,4.000000,4.000000,4.000000,4.000000,4.000000,4.000000,4.000000,4.000000,4.000000,4.000000,4.000000,4.000000,100.000000,,,,,,,,,,,,,,,,
1644852749.813908,5.000000,0.000000,4215.000000,4217.563965,4227.692383,4183.974121,4220.256348,4223.589844,4222.948730,4229.615234,4231.666504,4241.666504,4238.333496,4219.487305,4235.769043,4218.333496,3272.000000,4.000000,91.000000,,,,0.000000,4.000000,4.000000,4.000000,4.000000,4.000000,4.000000,4.000000,4.000000,4.000000,4.000000,4.000000,4.000000,4.000000,4.000000,100.000000,,,,,,,,,,,,,,,,
1644852749.817848,6.000000,0.000000,4213.717773,4205.128418,4228.717773,4187.820313,4205.769043,4225.128418,4222.692383,4226.922852,4226.282227,4238.974121,4225.256348,4222.179688,4231.025879,4209.743652,2692.000000,4.000000,91.000000,,,,0.000000,4.000000,4.000000,4.000000,4.000000,4.000000,4.000000,4.000000,4.000000,4.000000,4.000000,4.000000,4.000000,4.000000,4.000000,100.000000,,,,,,,,,,,,,,,,
1644852749.821788,7.000000,0.000000,4216.025879,4197.051270,4227.692383,4198.717773,4202.307617,4227.179688,4222.307617,4223.846191,4223.846191,4235.512695,4208.205078,4222.820313,4226.025879,4204.615234,2900.000000,4.000000,91.000000,,,,0.000000,4.000000,4.000000,4.000000,4.000000,4.000000,4.000000,4.000000,4.000000,4.000000,4.000000,4.000000,4.000000,4.000000,4.000000,100.000000,,,,,,,,,,,,,,,,
1644852749.825728,8.000000,0.000000,4220.384766,4197.051270,4225.769043,4209.102539,4212.179688,4230.000000,4221.666504,4223.461426,4227.051270,4235.384766,4198.077148,4220.769043,4223.333496,4206.922852,3266.000000,4.000000,91.000000,,,,0.000000,4.000000,4.000000,4.000000,4.000000,4.000000,4.000000,4.000000,4.000000,4.000000,4.000000,4.000000,4.000000,4.000000,4.000000,100.000000,,,,,,,,,,,,,,,,
1644852749.829669,9.000000,0.000000,4222.179688,4201.794922,4223.846191,4210.641113,4228.077148,4232.948730,4221.922852,4226.153809,4233.974121,4238.205078,4200.384766,4217.307617,4222.692383,4213.717773,3503.000000,4.000000,91.000000,,,,0.000000,4.000000,4.000000,4.000000,4.000000,4.000000,4.000000,4.000000,4.000000,4.000000,4.000000,4.000000,4.000000,4.000000,4.000000,100.000000,,,,,,,,,,,,,,,,
1644852749.833609,10.000000,0.000000,4218.461426,4205.897461,4222.563965,4201.282227,4238.974121,4234.102539,4223.589844,4229.102539,4238.846191,4239.102539,4211.282227,4213.846191,4221.282227,4217.179688,3525.000000,4.000000,91.000000,,,,0.000000,4.000000,4.000000,4.000000,4.000000,4.000000,4.000000,4.000000,4.000000,4.000000,4.000000,4.000000,4.000000,4.000000,4.000000,100.000000,,,,,,,,,,,,,,,,
1644852749.837549,11.000000,0.000000,4211.794922,4207.436035,4221.794922,4187.436035,4238.589844,4231.410156,4225.128418,4228.589844,4237.051270,4234.615234,4221.538574,4211.025879,4217.563965,4212.307617,3441.000000,4.000000,91.000000,,,,0.000000,4.000000,4.000000,4.000000,4.000000,4.000000,4.000000,4.000000,4.000000,4.000000,4.000000,4.000000,4.000000,4.000000,4.000000,100.000000,,,,,,,,,,,,,,,,
1644852749.841489,12.000000,0.000000,4208.717773,4208.846191,4221.794922,4179.871582,4228.333496,4224.615234,4223.461426,4222.948730,4229.743652,4226.153809,4224.102539,4209.102539,4213.589844,4202.179688,3588.000000,4.000000,91.000000,,,,0.000000,4.000000,4.000000,4.000000,4.000000,4.000000,4.000000,4.000000,4.000000,4.000000,4.000000,4.000000,4.000000,4.000000,4.000000,100.000000,,,,,,,,,,,,,,,,
1644852749.845429,13.000000,0.000000,4214.358887,4213.589844,4223.205078,4184.743652,4215.897461,4216.794922,4218.205078,4215.000000,4222.179688,4220.000000,4219.615234,4208.205078,4213.461426,4195.641113,3511.000000,4.000000,91.000000,,,,0.000000,4.000000,4.000000,4.000000,4.000000,4.000000,4.000000,4.000000,4.000000,4.000000,4.000000,4.000000,4.000000,4.000000,4.000000,100.000000,,,,,,,,,,,,,,,,
1644852749.849369,14.000000,0.000000,4226.538574,4221.538574,4226.153809,4198.077148,4207.692383,4212.820313,4213.461426,4209.615234,4219.743652,4221.666504,4213.589844,4208.974121,4219.743652,4200.128418,3525.000000,4.000000,91.000000,,,,0.000000,4.000000,4.000000,4.000000,4.000000,4.000000,4.000000,4.000000,4.000000,4.000000,4.000000,4.000000,4.000000,4.000000,4.000000,100.000000,,,,,,,,,,,,,,,,
1644852749.853209,15.000000,0.000000,4236.666504,4227.820313,4229.487305,4207.563965,4206.794922,4215.256348,4213.717773,4210.641113,4223.461426,4231.666504,4211.410156,4211.538574,4230.769043,4215.000000,3441.000000,4.000000,91.000000,,,,0.000000,4.000000,4.000000,4.000000,4.000000,4.000000,4.000000,4.000000,4.000000,4.000000,4.000000,4.000000,4.000000,4.000000,4.000000,100.000000,,,,,,,,,,,,,,,,
1644852749.857149,16.000000,0.000000,4235.641113,4226.794922,4231.410156,4204.358887,4212.563965,4222.436035,4218.717773,4217.436035,4230.000000,4243.717773,4214.230957,4214.358887,4241.538574,4231.282227,3588.000000,4.000000,91.000000,,,,0.000000,4.000000,4.000000,4.000000,4.000000,4.000000,4.000000,4.000000,4.000000,4.000000,4.000000,4.000000,4.000000,4.000000,4.000000,100.000000,,,,,,,,,,,,,,,,
1644852749.861090,17.000000,0.000000,4221.153809,4218.077148,4230.769043,4190.641113,4222.051270,4228.974121,4223.974121,4225.256348,4234.358887,4249.871582,4219.230957,4214.871582,4247.436035,4237.692383,3511.000000,4.000000,91.000000,,,,0.000000,4.000000,4.000000,4.000000,4.000000,4.000000,4.000000,4.000000,4.000000,4.000000,4.000000,4.000000,4.000000,4.000000,4.000000,100.000000,,,,,,,,,,,,,,,,
1644852749.865030,18.000000,0.000000,4201.410156,4207.563965,4227.948730,4178.974121,4229.871582,4229.871582,4224.615234,4228.077148,4233.846191,4245.128418,4222.307617,4211.538574,4247.820313,4229.487305,3525.000000,4.000000,91.000000,,,,0.000000,4.000000,4.000000,4.000000,4.000000,4.000000,4.000000,4.000000,4.000000,4.000000,4.000000,4.000000,4.000000,4.000000,4.000000,100.000000,,,,,,,,,,,,,,,,
1644852749.868970,19.000000,0.000000,4189.871582,4205.512695,4225.897461,4181.153809,4229.871582,4225.128418,4220.897461,4223.974121,4227.948730,4231.922852,4221.025879,4205.769043,4245.256348,4213.974121,3441.000000,4.000000,91.000000,,,,0.000000,4.000000,4.000000,4.000000,4.000000,4.000000,4.000000,4.000000,4.000000,4.000000,4.000000,4.000000,4.000000,4.000000,4.000000,100.000000,,,,,,,,,,,,,,,,
1644852749.872910,20.000000,0.000000,4197.179688,4218.717773,4228.077148,4198.717773,4219.102539,4218.461426,4216.410156,4215.384766,4219.615234,4218.717773,4216.538574,4201.922852,4244.743652,4205.769043,3588.000000,4.000000,91.000000,,,,0.000000,4.000000,4.000000,4.000000,4.000000,4.000000,4.000000,4.000000,4.000000,4.000000,4.000000,4.000000,4.000000,4.000000,4.000000,100.000000,,,,,,,,,,,,,,,,
1644852749.876850,21.000000,0.000000,4222.820313,4245.384766,4235.897461,4221.794922,4202.563965,4214.102539,4213.974121,4207.051270,4212.436035,4213.717773,4213.589844,4203.846191,4249.230957,4215.384766,3511.000000,4.000000,91.000000,,,,0.000000,4.000000,4.000000,4.000000,4.000000,4.000000,4.000000,4.000000,4.000000,4.000000,4.000000,4.000000,4.000000,4.000000,4.000000,100.000000,,,,,,,,,,,,,,,,
1644852749.880790,22.000000,0.000000,4256.025879,4275.769043,4247.563965,4237.051270,4189.871582,4213.205078,4212.948730,4202.307617,4208.461426,4219.230957,4215.512695,4211.794922,4259.102539,4240.769043,3525.000000,4.000000,91.000000,,,,0.000000,4.000000,4.000000,4.000000,4.000000,4.000000,4.000000,4.000000,4.000000,4.000000,4.000000,4.000000,4.000000,4.000000,4.000000,100.000000,,,,,,,,,,,,,,,,
1644852749.884730,23.000000,0.000000,4282.179688,4298.974121,4260.000000,4238.333496,4188.589844,4213.717773,4211.282227,4201.282227,4207.692383,4229.358887,4221.153809,4223.589844,4270.897461,4268.333496,3441.000000,4.000000,91.000000,,,,0.000000,4.000000,4.000000,4.000000,4.000000,4.000000,4.000000,4.000000,4.000000,4.000000,4.000000,4.000000,4.000000,4.000000,4.000000,100.000000,,,,,,,,,,,,,,,,
1644852749.888670,24.000000,0.000000,4293.077148,4309.615234,4270.641113,4230.384766,4199.230957,4213.589844,4208.717773,4202.948730,4208.846191,4234.743652,4225.128418,4236.025879,4279.102539,4283.717773,3588.000000,4.000000,91.000000,,,,0.000000,4.000000,4.000000,4.000000,4.000000,4.000000,4.000000,4.000000,4.000000,4.000000,4.000000,4.000000,4.000000,4.000000,4.000000,100.000000,,,,,,,,,,,,,,,,
1644852749.892610,25.000000,0.000000,4290.641113,4311.153809,4278.461426,4224.487305,4214.615234,4212.179688,4207.948730,4206.025879,4210.256348,4230.256348,4224.102539,4247.436035,4280.256348,4282.436035,3511.000000,4.000000,91.000000,,,,0.000000,4.000000,4.000000,4.000000,4.000000,4.000000,4.000000,4.000000,4.000000,4.000000,4.000000,4.000000,4.000000,4.000000,4.000000,100.000000,,,,,,,,,,,,,,,,
1644852749.896550,26.000000,0.000000,4283.974121,4312.692383,4283.205078,4227.436035,4225.641113,4211.153809,4210.384766,4209.487305,4211.794922,4218.589844,4221.410156,4256.794922,4275.897461,4273.077148,3525.000000,4.000000,91.000000,,,,0.000000,4.000000,4.000000,4.000000,4.000000,4.000000,4.000000,4.000000,4.000000,4.000000,4.000000,4.000000,4.000000,4.000000,4.000000,100.000000,,,,,,,,,,,,,,,,
1644852749.900491,27.000000,0.000000,4281.538574,4321.025879,4284.102539,4237.179688,4227.948730,4212.563965,4213.974121,4212.307617,4213.717773,4208.461426,4223.717773,4262.436035,4271.922852,4270.256348,3441.000000,4.000000,91.000000,,,,0.000000,4.000000,4.000000,4.000000,4.000000,4.000000,4.000000,4.000000,4.000000,4.000000,4.000000,4.000000,4.000000,4.000000,4.000000,100.000000,,,,,,,,,,,,,,,,
1644852749.904431,28.000000,0.000000,4286.410156,4336.666504,4282.051270,4247.179688,4224.487305,4216.538574,4215.641113,4213.205078,4216.282227,4207.820313,4234.102539,4263.077148,4274.487305,4282.563965,3588.000000,4.000000,91.000000,,,,0.000000,4.000000,4.000000,4.000000,4.000000,4.000000,4.000000,4.000000,4.000000,4.000000,4.000000,4.000000,4.000000,4.000000,4.000000,100.000000,,,,,,,,,,,,,,,,
1644852749.908371,29.000000,0.000000,4296.666504,4355.128418,4279.615234,4253.205078,4221.282227,4220.512695,4215.256348,4212.307617,4218.974121,4218.077148,4249.615234,4259.230957,4285.641113,4306.922852,3511.000000,4.000000,91.000000,,,,0.000000,4.000000,4.000000,4.000000,4.000000,4.000000,4.000000,4.000000,4.000000,4.000000,4.000000,4.000000,4.000000,4.000000,4.000000,100.000000,,,,,,,,,,,,,,,,
1644852749.912311,30.000000,0.000000,4308.333496,4372.820313,4279.358887,4256.538574,4221.538574,4221.025879,4215.128418,4210.897461,4220.641113,4233.333496,4263.077148,4253.333496,4301.794922,4332.307617,3525.000000,4.000000,91.000000,,,,0.000000,4.000000,4.000000,4.000000,4.000000,4.000000,4.000000,4.000000,4.000000,4.000000,4.000000,4.000000,4.000000,4.000000,4.000000,100.000000,,,,,,,,,,,,,,,,
1644852749.916251,31.000000,0.000000,4318.077148,4390.897461,4281.282227,4258.846191,4223.205078,4217.051270,4216.538574,4210.512695,4220.897461,4244.615234,4269.358887,4248.077148,4316.410156,4348.717773,3441.000000,4.000000,91.000000,,,,0.000000,4.000000,4.000000,4.000000,4.000000,4.000000,4.000000,4.000000,4.000000,4.000000,4.000000,4.000000,4.000000,4.000000,4.000000,100.000000,,,,,,,,,,,,,,,,
1644852749.920191,32.000000,0.000000,4325.384766,4412.563965,4282.820313,4259.871582,4222.692383,4211.153809,4217.307617,4211.538574,4219.743652,4246.922852,4267.179688,4244.358887,4323.333496,4353.846191,0.000000,4.000000,91.000000,,,,0.000000,4.000000,4.000000,4.000000,4.000000,4.000000,4.000000,4.000000,4.000000,4.000000,4.000000,4.000000,4.000000,4.000000,4.000000,100.000000,,,,,,,,,,,,,,,,
1644852749.924131,33.000000,0.000000,4330.384766,4438.077148,4281.282227,4257.051270,4217.820313,4206.410156,4215.128418,4212.563965,4217.436035,4240.769043,4258.333496,4240.641113,4320.384766,4351.282227,0.000000,4.000000,91.000000,,,,0.000000,4.000000,4.000000,4.000000,4.000000,4.000000,4.000000,4.000000,4.000000,4.000000,4.000000,4.000000,4.000000,4.000000,4.000000,100.000000,,,,,,,,,,,,,,,,
1644852749.927971,34.000000,0.000000,4332.563965,4461.922852,4275.897461,4249.615234,4210.384766,4204.871582,4211.153809,4212.820313,4214.615234,4231.025879,4244.871582,4235.256348,4309.230957,4344.487305,0.000000,4.000000,91.000000,,,,0.000000,4.000000,4.000000,4.000000,4.000000,4.000000,4.000000,4.000000,4.000000,4.000000,4.000000,4.000000,4.000000,4.000000,4.000000,100.000000,,,,,,,,,,,,,,,,
1644852749.931912,35.000000,0.000000,4329.487305,4476.794922,4268.846191,4239.743652,4204.743652,4206.153809,4209.487305,4212.948730,4212.179688,4222.820313,4228.974121,4227.436035,4293.461426,4333.974121,0.000000,4.000000,91.000000,,,,0.000000,4.000000,4.000000,4.000000,4.000000,4.000000,4.000000,4.000000,4.000000,4.000000,4.000000,4.000000,4.000000,4.000000,4.000000,100.000000,,,,,,,,,,,,,,,,
1644852749.935852,36.000000,0.000000,4320.000000,4478.717773,4263.589844,4232.948730,4205.512695,4208.846191,4212.051270,4214.102539,4211.538574,4219.230957,4214.615234,4218.974121,4276.794922,4319.102539,0.000000,4.000000,91.000000,,,,0.000000,4.000000,4.000000,4.000000,4.000000,4.000000,4.000000,4.000000,4.000000,4.000000,4.000000,4.000000,4.000000,4.000000,4.000000,100.000000,,,,,,,,,,,,,,,,
1644852749.939792,37.000000,0.000000,4307.307617,4471.282227,4262.051270,4233.717773,4213.717773,4211.538574,4216.538574,4216.153809,4213.589844,4220.769043,4206.922852,4213.333496,4261.538574,4302.948730,0.000000,4.000000,91.000000,,,,0.000000,4.000000,4.000000,4.000000,4.000000,4.000000,4.000000,4.000000,4.000000,4.000000,4.000000,4.000000,4.000000,4.000000,4.000000,100.000000,,,,,,,,,,,,,,,,
1644852749.943732,38.000000,0.000000,4297.948730,4462.563965,4263.333496,4241.922852,4224.487305,4213.589844,4218.461426,4217.948730,4217.692383,4226.794922,4209.487305,4212.948730,4248.974121,4292.436035,0.000000,4.000000,91.000000,,,,0.000000,4.000000,4.000000,4.000000,4.000000,4.000000,4.000000,4.000000,4.000000,4.000000,4.000000,4.000000,4.000000,4.000000,4.000000,100.000000,,,,,,,,,,,,,,,,
1644852749.947572,39.000000,0.000000,4297.307617,4459.230957,4264.230957,4252.692383,4230.256348,4214.743652,4216.153809,4218.077148,4221.410156,4234.358887,4220.128418,4216.410156,4240.000000,4292.820313,0.000000,4.000000,91.000000,,,,0.000000,4.000000,4.000000,4.000000,4.000000,4.000000,4.000000,4.000000,4.000000,4.000000,4.000000,4.000000,4.000000,4.000000,4.000000,100.000000,,,,,,,,,,,,,,,,
1644852749.951512,40.000000,0.000000,4305.769043,4463.077148,4261.666504,4260.256348,4226.410156,4215.000000,4212.436035,4216.282227,4221.922852,4238.846191,4232.436035,4218.717773,4235.000000,4302.051270,0.000000,4.000000,91.000000,,,,0.000000,4.000000,4.000000,4.000000,4.000000,4.000000,4.000000,4.000000,4.000000,4.000000,4.000000,4.000000,4.000000,4.000000,4.000000,100.000000,,,,,,,,,,,,,,,,
1644852749.955452,41.000000,0.000000,4319.102539,4471.410156,4255.256348,4261.410156,4215.897461,4214.871582,4210.384766,4213.461426,4218.205078,4236.282227,4238.461426,4215.512695,4235.000000,4312.307617,0.000000,4.000000,91.000000,,,,0.000000,4.000000,4.000000,4.000000,4.000000,4.000000,4.000000,4.000000,4.000000,4.000000,4.000000,4.000000,4.000000,4.000000,4.000000,100.000000,,,,,,,,,,,,,,,,
1644852749.959392,42.000000,0.000000,4330.384766,4479.615234,4248.974121,4257.563965,4207.051270,4215.384766,4210.384766,4210.769043,4212.436035,4226.922852,4233.717773,4206.922852,4240.128418,4316.153809,0.000000,4.000000,91.000000,,,,0.000000,4.000000,4.000000,4.000000,4.000000,4.000000,4.000000,4.000000,4.000000,4.000000,4.000000,4.000000,4.000000,4.000000,4.000000,100.000000,,,,,,,,,,,,,,,,
1644852749.963332,43.000000,0.000000,4333.461426,4483.974121,4248.077148,4252.051270,4207.563965,4216.922852,4210.512695,4209.102539,4208.205078,4215.512695,4220.512695,4198.333496,4246.922852,4311.794922,0.000000,4.000000,91.000000,,,,0.000000,4.000000,4.000000,4.000000,4.000000,4.000000,4.000000,4.000000,4.000000,4.000000,4.000000,4.000000,4.000000,4.000000,4.000000,100.000000,,,,,,,,,,,,,,,,
1644852749.967273,44.000000,0.000000,4325.897461,4482.563965,4254.743652,4247.692383,4217.179688,4218.205078,4210.256348,4209.487305,4208.717773,4208.205078,4206.153809,4196.666504,4248.589844,4303.333496,0.000000,4.000000,91.000000,,,,0.000000,4.000000,4.000000,4.000000,4.000000,4.000000,4.000000,4.000000,4.000000,4.000000,4.000000,4.000000,4.000000,4.000000,4.000000,100.000000,,,,,,,,,,,,,,,,
1644852749.971213,45.000000,0.000000,4310.384766,4476.538574,4265.000000,4245.128418,4227.820313,4217.820313,4210.897461,4211.794922,4212.948730,4208.461426,4198.717773,4203.717773,4238.589844,4295.641113,0.000000,4.000000,91.000000,,,,0.000000,4.000000,4.000000,4.000000,4.000000,4.000000,4.000000,4.000000,4.000000,4.000000,4.000000,4.000000,4.000000,4.000000,4.000000,100.000000,,,,,,,,,,,,,,,,
1644852749.975153,46.000000,0.000000,4293.205078,4468.589844,4271.025879,4243.846191,4229.743652,4215.128418,4213.461426,4215.128418,4217.179688,4215.000000,4199.743652,4215.256348,4217.820313,4290.384766,0.000000,4.000000,91.000000,,,,0.000000,4.000000,4.000000,4.000000,4.000000,4.000000,4.000000,4.000000,4.000000,4.000000,4.000000,4.000000,4.000000,4.000000,4.000000,100.000000,,,,,,,,,,,,,,,,
1644852749.979093,47.000000,0.000000,4280.512695,4462.692383,4267.307617,4243.461426,4218.461426,4211.410156,4215.128418,4216.922852,4217.563965,4223.077148,4203.589844,4223.333496,4195.000000,4285.000000,0.000000,4.000000,91.000000,,,,0.000000,4.000000,4.000000,4.000000,4.000000,4.000000,4.000000,4.000000,4.000000,4.000000,4.000000,4.000000,4.000000,4.000000,4.000000,100.000000,,,,,,,,,,,,,,,,
1644852749.983133,48.000000,0.000000,4275.384766,4461.794922,4255.128418,4244.615234,4199.358887,4208.589844,4213.205078,4215.256348,4213.717773,4227.948730,4202.948730,4222.436035,4182.051270,4277.563965,0.000000,4.000000,91.000000,,,,0.000000,4.000000,4.000000,4.000000,4.000000,4.000000,4.000000,4.000000,4.000000,4.000000,4.000000,4.000000,4.000000,4.000000,4.000000,100.000000,,,,,,,,,,,,,,,,
1644852749.987073,49.000000,0.000000,4278.846191,4466.922852,4243.461426,4247.179688,4184.230957,4207.563965,4208.333496,4210.641113,4208.333496,4227.563965,4196.410156,4213.846191,4185.769043,4271.025879,0.000000,4.000000,91.000000,,,,0.000000,4.000000,4.000000,4.000000,4.000000,4.000000,4.000000,4.000000,4.000000,4.000000,4.000000,4.000000,4.000000,4.000000,4.000000,100.000000,,,,,,,,,,,,,,,,
1644852749.991013,50.000000,0.000000,4290.128418,4476.794922,4241.666504,4249.743652,4183.846191,4208.077148,4205.384766,4206.410156,4204.615234,4222.563965,4190.128418,4204.615234,4202.436035,4272.436035,0.000000,4.000000,91.000000,,,,0.000000,4.000000,4.000000,4.000000,4.000000,4.000000,4.000000,4.000000,4.000000,4.000000,4.000000,4.000000,4.000000,4.000000,4.000000,100.000000,,,,,,,,,,,,,,,,
1644852749.994953,51.000000,0.000000,4306.025879,4487.051270,4251.410156,4250.000000,4200.128418,4209.487305,4207.307617,4205.256348,4204.487305,4216.282227,4191.922852,4201.538574,4220.897461,4285.897461,0.000000,4.000000,91.000000,,,,0.000000,4.000000,4.000000,4.000000,4.000000,4.000000,4.000000,4.000000,4.000000,4.000000,4.000000,4.000000,4.000000,4.000000,4.000000,100.000000,,,,,,,,,,,,,,,,
1644852749.998893,52.000000,0.000000,4322.563965,4492.820313,4265.641113,4247.179688,4223.717773,4211.410156,4212.692383,4208.077148,4207.692383,4213.205078,4204.230957,4206.410156,4231.153809,4307.436035,0.000000,4.000000,91.000000,,,,0.000000,4.000000,4.000000,4.000000,4.000000,4.000000,4.000000,4.000000,4.000000,4.000000,4.000000,4.000000,4.000000,4.000000,4.000000,100.000000,,,,,,,,,,,,,,,,
1644852750.002833,53.000000,0.000000,4336.922852,4493.589844,4273.589844,4242.948730,4240.128418,4213.974121,4216.794922,4213.461426,4213.461426,4216.410156,4222.948730,4215.000000,4232.563965,4327.179688,0.000000,4.000000,91.000000,,,,0.000000,4.000000,4.000000,4.000000,4.000000,4.000000,4.000000,4.000000,4.000000,4.000000,4.000000,4.000000,4.000000,4.000000,4.000000,100.000000,,,,,,,,,,,,,,,,
1644852750.006774,54.000000,0.000000,4348.333496,4493.205078,4270.641113,4241.282227,4241.153809,4217.179688,4217.179688,4219.743652,4220.512695,4225.641113,4239.743652,4221.153809,4232.436035,4336.666504,0.000000,4.000000,91.000000,,,,0.000000,4.000000,4.000000,4.000000,4.000000,4.000000,4.000000,4.000000,4.000000,4.000000,4.000000,4.000000,4.000000,4.000000,4.000000,100.000000,,,,,,,,,,,,,,,,
1644852750.010714,55.000000,0.000000,4356.282227,4496.282227,4260.769043,4245.384766,4230.256348,4219.487305,4215.512695,4225.128418,4227.179688,4236.410156,4246.794922,4220.512695,4238.077148,4334.615234,0.000000,4.000000,91.000000,,,,0.000000,4.000000,4.000000,4.000000,4.000000,4.000000,4.000000,4.000000,4.000000,4.000000,4.000000,4.000000,4.000000,4.000000,4.000000,100.000000,,,,,,,,,,,,,,,,
1644852750.014654,56.000000,0.000000,4359.615234,4503.077148,4252.563965,4255.128418,4217.948730,4219.358887,4214.615234,4228.077148,4231.282227,4243.205078,4239.743652,4214.358887,4249.487305,4324.871582,0.000000,4.000000,91.000000,,,,0.000000,4.000000,4.000000,4.000000,4.000000,4.000000,4.000000,4.000000,4.000000,4.000000,4.000000,4.000000,4.000000,4.000000,4.000000,100.000000,,,,,,,,,,,,,,,,
1644852750.018594,57.000000,0.000000,4356.666504,4508.974121,4250.769043,4265.384766,4211.282227,4215.769043,4214.615234,4227.820313,4231.410156,4243.205078,4221.025879,4207.563965,4258.205078,4311.666504,0.000000,4.000000,91.000000,,,,0.000000,4.000000,4.000000,4.000000,4.000000,4.000000,4.000000,4.000000,4.000000,4.000000,4.000000,4.000000,4.000000,4.000000,4.000000,100.000000,,,,,,,,,,,,,,,,
1644852750.022534,58.000000,0.000000,4348.333496,4509.615234,4252.179688,4268.461426,4209.102539,4210.000000,4213.589844,4224.358887,4227.948730,4237.692383,4200.256348,4204.871582,4254.615234,4296.794922,0.000000,4.000000,91.000000,,,,0.000000,4.000000,4.000000,4.000000,4.000000,4.000000,4.000000,4.000000,4.000000,4.000000,4.000000,4.000000,4.000000,4.000000,4.000000,100.000000,,,,,,,,,,,,,,,,
1644852750.026474,59.000000,0.000000,4339.358887,4504.871582,4250.769043,4260.256348,4205.897461,4204.487305,4210.512695,4219.102539,4223.333496,4230.000000,4188.077148,4206.410156,4236.025879,4281.538574,0.000000,4.000000,91.000000,,,,0.000000,4.000000,4.000000,4.000000,4.000000,4.000000,4.000000,4.000000,4.000000,4.000000,4.000000,4.000000,4.000000,4.000000,4.000000,100.000000,,,,,,,,,,,,,,,,
1644852750.030414,60.000000,0.000000,4336.538574,4498.333496,4244.102539,4244.615234,4199.615234,4201.410156,4207.307617,4214.358887,4219.871582,4223.974121,4188.717773,4207.692383,4209.871582,4269.615234,0.000000,4.000000,91.000000,,,,0.000000,4.000000,4.000000,4.000000,4.000000,4.000000,4.000000,4.000000,4.000000,4.000000,4.000000,4.000000,4.000000,4.000000,4.000000,100.000000,,,,,,,,,,,,,,,,
1644852750.034354,61.000000,0.000000,4345.384766,4493.205078,4236.410156,4232.051270,4193.846191,4201.538574,4206.922852,4212.307617,4219.102539,4221.538574,4198.461426,4204.487305,4189.615234,4267.051270,0.000000,4.000000,91.000000,,,,0.000000,4.000000,4.000000,4.000000,4.000000,4.000000,4.000000,4.000000,4.000000,4.000000,4.000000,4.000000,4.000000,4.000000,4.000000,100.000000,,,,,,,,,,,,,,,,
1644852750.038294,62.000000,0.000000,4365.128418,4490.256348,4234.487305,4230.897461,4194.487305,4203.846191,4209.230957,4212.948730,4220.897461,4223.461426,4209.615234,4196.794922,4185.512695,4277.563965,0.000000,4.000000,91.000000,,,,0.000000,4.000000,4.000000,4.000000,4.000000,4.000000,4.000000,4.000000,4.000000,4.000000,4.000000,4.000000,4.000000,4.000000,4.000000,100.000000,,,,,,,,,,,,,,,,
1644852750.042234,63.000000,0.000000,4389.102539,4488.077148,4240.897461,4241.025879,4203.461426,4206.025879,4211.282227,4214.743652,4224.102539,4228.717773,4216.538574,4188.846191,4197.692383,4298.205078,0.000000,4.000000,91.000000,,,,0.000000,4.000000,4.000000,4.000000,4.000000,4.000000,4.000000,4.000000,4.000000,4.000000,4.000000,4.000000,4.000000,4.000000,4.000000,100.000000,,,,,,,,,,,,,,,,
1644852750.046175,64.000000,0.000000,4408.333496,4485.641113,4251.025879,4254.487305,4216.410156,4206.538574,4210.512695,4215.384766,4226.794922,4235.000000,4218.333496,4184.615234,4216.666504,4319.102539,0.000000,4.000000,91.000000,,,,0.000000,4.000000,4.000000,4.000000,4.000000,4.000000,4.000000,4.000000,4.000000,4.000000,4.000000,4.000000,4.000000,4.000000,4.000000,100.000000,,,,,,,,,,,,,,,,
1644852750.050115,65.000000,0.000000,4417.179688,4481.410156,4256.794922,4262.436035,4226.025879,4205.384766,4207.948730,4214.487305,4226.922852,4240.000000,4215.000000,4184.871582,4231.153809,4328.717773,0.000000,4.000000,91.000000,,,,0.000000,4.000000,4.000000,4.000000,4.000000,4.000000,4.000000,4.000000,4.000000,4.000000,4.000000,4.000000,4.000000,4.000000,4.000000,100.000000,,,,,,,,,,,,,,,,
1644852750.054055,66.000000,0.000000,4415.128418,4473.205078,4253.333496,4260.000000,4226.794922,4203.333496,4206.282227,4212.179688,4222.948730,4240.769043,4207.307617,4186.666504,4233.461426,4321.538574,0.000000,4.000000,91.000000,,,,0.000000,4.000000,4.000000,4.000000,4.000000,4.000000,4.000000,4.000000,4.000000,4.000000,4.000000,4.000000,4.000000,4.000000,4.000000,100.000000,,,,,,,,,,,,,,,,
1644852750.057995,67.000000,0.000000,4405.641113,4460.897461,4242.563965,4248.333496,4218.205078,4200.897461,4206.282227,4208.974121,4215.769043,4235.128418,4196.922852,4187.563965,4222.436035,4300.512695,0.000000,4.000000,91.000000,,,,0.000000,4.000000,4.000000,4.000000,4.000000,4.000000,4.000000,4.000000,4.000000,4.000000,4.000000,4.000000,4.000000,4.000000,4.000000,100.000000,,,,,,,,,,,,,,,,
1644852750.061935,68.000000,0.000000,4394.487305,4447.563965,4231.025879,4233.846191,4204.487305,4198.846191,4206.153809,4205.000000,4208.077148,4223.333496,4187.307617,4186.794922,4202.820313,4276.666504,0.000000,4.000000,91.000000,,,,0.000000,4.000000,4.000000,4.000000,4.000000,4.000000,4.000000,4.000000,4.000000,4.000000,4.000000,4.000000,4.000000,4.000000,4.000000,100.000000,,,,,,,,,,,,,,,,
1644852750.065875,69.000000,0.000000,4387.051270,4437.948730,4224.358887,4223.717773,4192.692383,4198.717773,4205.256348,4201.282227,4203.589844,4209.230957,4181.794922,4185.384766,4182.563965,4260.897461,0.000000,4.000000,91.000000,,,,0.000000,4.000000,4.000000,4.000000,4.000000,4.000000,4.000000,4.000000,4.000000,4.000000,4.000000,4.000000,4.000000,4.000000,4.000000,100.000000,,,,,,,,,,,,,,,,
1644852750.069815,70.000000,0.000000,4385.000000,4433.333496,4224.487305,4221.794922,4189.871582,4201.282227,4205.256348,4200.128418,4203.717773,4198.461426,4180.769043,4184.743652,4169.743652,4257.307617,0.000000,4.000000,91.000000,,,,0.000000,4.000000,4.000000,4.000000,4.000000,4.000000,4.000000,4.000000,4.000000,4.000000,4.000000,4.000000,4.000000,4.000000,4.000000,100.000000,,,,,,,,,,,,,,,,
1644852750.073755,71.000000,0.000000,4386.538574,4431.282227,4228.846191,4227.307617,4198.077148,4206.410156,4208.077148,4202.051270,4206.666504,4196.025879,4181.922852,4185.000000,4167.820313,4261.153809,0.000000,4.000000,91.000000,,,,0.000000,4.000000,4.000000,4.000000,4.000000,4.000000,4.000000,4.000000,4.000000,4.000000,4.000000,4.000000,4.000000,4.000000,4.000000,100.000000,,,,,,,,,,,,,,,,
1644852750.077695,72.000000,0.000000,4389.743652,4429.230957,4232.563965,4236.666504,4211.282227,4211.794922,4212.563965,4206.025879,4209.358887,4202.436035,4182.820313,4185.641113,4174.358887,4264.615234,0.000000,4.000000,91.000000,,,,0.000000,4.000000,4.000000,4.000000,4.000000,4.000000,4.000000,4.000000,4.000000,4.000000,4.000000,4.000000,4.000000,4.000000,4.000000,100.000000,1.000000,25.000000,3.000000,1.000000,4.000000,3.000000,1.000000,4.000000,4.000000,4.000000,4.000000,4.000000,4.000000,4.000000,3.000000,1.000000
1644852750.081636,73.000000,0.000000,4396.410156,4427.563965,4232.820313,4246.538574,4219.487305,4214.230957,4214.871582,4209.230957,4210.128418,4213.077148,4183.846191,4186.282227,4183.589844,4263.461426,0.000000,4.000000,91.000000,,,,0.000000,4.000000,4.000000,4.000000,4.000000,4.000000,4.000000,4.000000,4.000000,4.000000,4.000000,4.000000,4.000000,4.000000,4.000000,100.000000,,,,,,,,,,,,,,,,
1644852750.085576,74.000000,0.000000,4410.000000,4428.717773,4230.641113,4253.846191,4216.282227,4212.820313,4213.717773,4210.128418,4210.000000,4221.538574,4187.436035,4188.333496,4191.153809,4260.256348,0.000000,4.000000,91.000000,,,,0.000000,4.000000,4.000000,4.000000,4.000000,4.000000,4.000000,4.000000,4.000000,4.000000,4.000000,4.000000,4.000000,4.000000,4.000000,100.000000,,,,,,,,,,,,,,,,
1644852750.089516,75.000000,0.000000,4429.358887,4432.820313,4230.128418,4255.384766,4204.743652,4209.230957,4211.794922,4211.153809,4212.307617,4224.615234,4194.743652,4193.974121,4195.512695,4261.025879,0.000000,4.000000,91.000000,,,,0.000000,4.000000,4.000000,4.000000,4.000000,4.000000,4.000000,4.000000,4.000000,4.000000,4.000000,4.000000,4.000000,4.000000,4.000000,100.000000,,,,,,,,,,,,,,,,
1644852750.093456,76.000000,0.000000,4446.922852,4435.512695,4233.333496,4248.974121,4194.487305,4206.666504,4212.820313,4215.641113,4218.589844,4224.487305,4203.974121,4202.563965,4198.333496,4269.615234,0.000000,4.000000,91.000000,,,,0.000000,4.000000,4.000000,4.000000,4.000000,4.000000,4.000000,4.000000,4.000000,4.000000,4.000000,4.000000,4.000000,4.000000,4.000000,100.000000,,,,,,,,,,,,,,,,
1644852750.097296,77.000000,0.000000,4453.717773,4431.794922,4238.461426,4235.641113,4193.205078,4206.153809,4217.051270,4223.846191,4227.051270,4224.743652,4211.282227,4209.487305,4201.538574,4283.461426,0.000000,4.000000,91.000000,,,,0.000000,4.000000,4.000000,4.000000,4.000000,4.000000,4.000000,4.000000,4.000000,4.000000,4.000000,4.000000,4.000000,4.000000,4.000000,100.000000,,,,,,,,,,,,,,,,
1644852750.101236,78.000000,0.000000,4446.282227,4420.384766,4241.410156,4221.282227,4201.153809,4206.282227,4219.743652,4231.025879,4232.820313,4227.436035,4212.051270,4208.205078,4204.487305,4293.974121,0.000000,4.000000,91.000000,,,,0.000000,4.000000,4.000000,4.000000,4.000000,4.000000,4.000000,4.000000,4.000000,4.000000,4.000000,4.000000,4.000000,4.000000,4.000000,100.000000,,,,,,,,,,,,,,,,
1644852750.105176,79.000000,0.000000,4429.743652,4404.487305,4239.615234,4212.820313,4211.410156,4204.358887,4217.051270,4231.538574,4232.179688,4230.641113,4203.717773,4196.410156,4204.358887,4293.333496,0.000000,4.000000,91.000000,,,,0.000000,4.000000,4.000000,4.000000,4.000000,4.000000,4.000000,4.000000,4.000000,4.000000,4.000000,4.000000,4.000000,4.000000,4.000000,100.000000,,,,,,,,,,,,,,,,
1644852750.109116,80.000000,0.000000,4415.512695,4390.897461,4234.358887,4214.102539,4214.487305,4200.128418,4210.641113,4224.615234,4225.128418,4230.512695,4187.692383,4179.871582,4198.333496,4279.615234,0.000000,4.000000,91.000000,,,,0.000000,4.000000,4.000000,4.000000,4.000000,4.000000,4.000000,4.000000,4.000000,4.000000,4.000000,4.000000,4.000000,4.000000,4.000000,100.000000,,,,,,,,,,,,,,,,
1644852750.113056,81.000000,0.000000,4413.717773,4385.384766,4229.358887,4223.205078,4205.641113,4196.538574,4205.512695,4215.000000,4215.897461,4225.512695,4169.743652,4168.333496,4186.538574,4259.487305,0.000000,4.000000,91.000000,,,,0.000000,4.000000,4.000000,4.000000,4.000000,4.000000,4.000000,4.000000,4.000000,4.000000,4.000000,4.000000,4.000000,4.000000,4.000000,100.000000,,,,,,,,,,,,,,,,
1644852750.116997,82.000000,0.000000,4426.282227,4389.615234,4227.563965,4233.974121,4188.589844,4197.436035,4205.641113,4209.487305,4210.000000,4217.692383,4157.179688,4169.230957,4173.333496,4242.563965,0.000000,4.000000,91.000000,,,,0.000000,4.000000,4.000000,4.000000,4.000000,4.000000,4.000000,4.000000,4.000000,4.000000,4.000000,4.000000,4.000000,4.000000,4.000000,100.000000,,,,,,,,,,,,,,,,
1644852750.120937,83.000000,0.000000,4443.589844,4398.974121,4228.717773,4240.641113,4175.128418,4203.589844,4209.358887,4211.025879,4210.897461,4212.948730,4154.615234,4181.794922,4165.641113,4235.769043,0.000000,4.000000,91.000000,,,,0.000000,4.000000,4.000000,4.000000,4.000000,4.000000,4.000000,4.000000,4.000000,4.000000,4.000000,4.000000,4.000000,4.000000,4.000000,100.000000,,,,,,,,,,,,,,,,
1644852750.124877,84.000000,0.000000,4451.025879,4406.153809,4230.641113,4239.358887,4176.153809,4211.666504,4212.948730,4217.563965,4217.179688,4215.641113,4162.820313,4197.948730,4168.077148,4238.974121,0.000000,4.000000,91.000000,,,,0.000000,4.000000,4.000000,4.000000,4.000000,4.000000,4.000000,4.000000,4.000000,4.000000,4.000000,4.000000,4.000000,4.000000,4.000000,100.000000,,,,,,,,,,,,,,,,
1644852750.128817,85.000000,0.000000,4442.179688,4407.179688,4231.538574,4230.641113,4193.846191,4216.922852,4214.615234,4224.358887,4224.615234,4225.512695,4179.487305,4208.974121,4180.641113,4247.563965,0.000000,4.000000,91.000000,,,,0.000000,4.000000,4.000000,4.000000,4.000000,4.000000,4.000000,4.000000,4.000000,4.000000,4.000000,4.000000,4.000000,4.000000,4.000000,100.000000,,,,,,,,,,,,,,,,
1644852750.132757,86.000000,0.000000,4423.974121,4404.487305,4231.282227,4219.230957,4217.820313,4217.051270,4215.512695,4227.820313,4229.230957,4236.666504,4199.487305,4210.641113,4196.410156,4256.410156,0.000000,4.000000,91.000000,,,,0.000000,4.000000,4.000000,4.000000,4.000000,4.000000,4.000000,4.000000,4.000000,4.000000,4.000000,4.000000,4.000000,4.000000,4.000000,100.000000,,,,,,,,,,,,,,,,
1644852750.136697,87.000000,0.000000,4411.025879,4403.974121,4231.025879,4211.153809,4232.820313,4213.974121,4216.666504,4227.051270,4230.000000,4242.051270,4215.000000,4204.487305,4206.666504,4262.051270,0.000000,4.000000,91.000000,,,,0.000000,4.000000,4.000000,4.000000,4.000000,4.000000,4.000000,4.000000,4.000000,4.000000,4.000000,4.000000,4.000000,4.000000,4.000000,100.000000,,,,,,,,,,,,,,,,
1644852750.140637,88.000000,0.000000,4413.077148,4408.333496,4231.282227,4210.128418,4230.000000,4211.410156,4217.051270,4223.333496,4228.205078,4238.846191,4218.461426,4194.743652,4206.025879,4263.333496,0.000000,4.000000,91.000000,,,,0.000000,4.000000,4.000000,4.000000,4.000000,4.000000,4.000000,4.000000,4.000000,4.000000,4.000000,4.000000,4.000000,4.000000,4.000000,100.000000,,,,,,,,,,,,,,,,
1644852750.144477,89.000000,0.000000,4426.794922,4413.077148,4230.641113,4214.487305,4212.563965,4211.282227,4214.743652,4218.846191,4225.128418,4229.743652,4207.307617,4185.641113,4195.384766,4259.871582,0.000000,4.000000,91.000000,,,,0.000000,4.000000,4.000000,4.000000,4.000000,4.000000,4.000000,4.000000,4.000000,4.000000,4.000000,4.000000,4.000000,4.000000,4.000000,100.000000,,,,,,,,,,,,,,,,
