title:Alex-Wn8Al2lb2quSNOK_m1LPuA, start timestamp:1645707274.571977, stop timestamp:1645707300.197824, headset type:EPOCPLUS, headset serial:3B9AEBFF, headset firmware:626, channels:55, sampling rate:eeg_256, samples:6505      , version:2.1, 
Timestamp,EEG.Counter,EEG.Interpolated,EEG.AF3,EEG.F7,EEG.F3,EEG.FC5,EEG.T7,EEG.P7,EEG.O1,EEG.O2,EEG.P8,EEG.T8,EEG.FC6,EEG.F4,EEG.F8,EEG.AF4,EEG.RawCq,EEG.Battery,EEG.BatteryPercent,MarkerIndex,MarkerType,MarkerValueInt,EEG.MarkerHardware,CQ.AF3,CQ.F7,CQ.F3,CQ.FC5,CQ.T7,CQ.P7,CQ.O1,CQ.O2,CQ.P8,CQ.T8,CQ.FC6,CQ.F4,CQ.F8,CQ.AF4,CQ.Overall,EQ.SampleRateQuality,EQ.OVERALL,EQ.AF3,EQ.F7,EQ.F3,EQ.FC5,EQ.T7,EQ.P7,EQ.O1,EQ.O2,EQ.P8,EQ.T8,EQ.FC6,EQ.F4,EQ.F8,EQ.AF4
1645707274.571977,49.000000,0.000000,4182.436035,4200.000000,4183.205078,4193.205078,4174.358887,4190.641113,4208.589844,4199.358887,4218.333496,4196.410156,4195.128418,4219.487305,4107.692383,4100.641113,0.000000,4.000000,95.000000,,,,0.000000,4.000000,4.000000,4.000000,4.000000,4.000000,4.000000,4.000000,4.000000,4.000000,4.000000,4.000000,4.000000,4.000000,4.000000,100.000000,,,,,,,,,,,,,,,,
1645707274.575817,50.000000,0.000000,4184.743652,4202.563965,4181.282227,4193.205078,4176.153809,4191.538574,4209.615234,4200.384766,4219.358887,4197.179688,4188.589844,4218.589844,4102.179688,4106.410156,0.000000,4.000000,95.000000,,,,0.000000,4.000000,4.000000,4.000000,4.000000,4.000000,4.000000,4.000000,4.000000,4.000000,4.000000,4.000000,4.000000,4.000000,4.000000,100.000000,,,,,,,,,,,,,,,,
1645707274.579758,51.000000,0.000000,4186.922852,4208.333496,4178.717773,4192.820313,4179.871582,4192.563965,4211.282227,4203.077148,4221.025879,4197.436035,4185.769043,4217.563965,4096.538574,4115.384766,0.000000,4.000000,95.000000,,,,0.000000,4.000000,4.000000,4.000000,4.000000,4.000000,4.000000,4.000000,4.000000,4.000000,4.000000,4.000000,4.000000,4.000000,4.000000,100.000000,,,,,,,,,,,,,,,,
1645707274.583698,52.000000,0.000000,4187.563965,4215.384766,4177.051270,4193.077148,4183.974121,4193.333496,4211.794922,4204.871582,4223.205078,4199.230957,4188.846191,4217.436035,4094.487061,4120.769043,0.000000,4.000000,95.000000,,,,0.000000,4.000000,4.000000,4.000000,4.000000,4.000000,4.000000,4.000000,4.000000,4.000000,4.000000,4.000000,4.000000,4.000000,4.000000,100.000000,,,,,,,,,,,,,,,,
1645707274.587638,53.000000,0.000000,4186.538574,4219.871582,4178.077148,4194.871582,4186.922852,4193.717773,4210.512695,4204.102539,4224.487305,4202.692383,4195.128418,4218.589844,4097.051270,4119.487305,0.000000,4.000000,95.000000,,,,0.000000,4.000000,4.000000,4.000000,4.000000,4.000000,4.000000,4.000000,4.000000,4.000000,4.000000,4.000000,4.000000,4.000000,4.000000,100.000000,,,,,,,,,,,,,,,,
1645707274.591578,54.000000,0.000000,4183.974121,4218.717773,4181.538574,4197.820313,4186.922852,4192.948730,4209.358887,4201.282227,4223.077148,4205.128418,4198.974121,4220.384766,4101.922852,4113.077148,0.000000,4.000000,95.000000,,,,0.000000,4.000000,4.000000,4.000000,4.000000,4.000000,4.000000,4.000000,4.000000,4.000000,4.000000,4.000000,4.000000,4.000000,4.000000,100.000000,,,,,,,,,,,,,,,,
1645707274.595518,55.000000,0.000000,4180.641113,4212.051270,4184.871582,4200.897461,4184.102539,4191.538574,4209.743652,4198.205078,4218.717773,4203.589844,4196.794922,4220.769043,4105.769043,4106.153809,0.000000,4.000000,95.000000,,,,0.000000,4.000000,4.000000,4.000000,4.000000,4.000000,4.000000,4.000000,4.000000,4.000000,4.000000,4.000000,4.000000,4.000000,4.000000,100.000000,,,,,,,,,,,,,,,,
1645707274.599458,56.000000,0.000000,4177.948730,4204.487305,4185.256348,4202.692383,4180.769043,4190.512695,4210.769043,4195.897461,4213.974121,4198.846191,4189.871582,4218.589844,4107.436035,4103.333496,0.000000,4.000000,95.000000,,,,0.000000,4.000000,4.000000,4.000000,4.000000,4.000000,4.000000,4.000000,4.000000,4.000000,4.000000,4.000000,4.000000,4.000000,4.000000,100.000000,,,,,,,,,,,,,,,,
1645707274.603398,57.000000,0.000000,4177.948730,4202.179688,4182.051270,4202.307617,4179.102539,4191.153809,4211.025879,4194.871582,4211.922852,4195.128418,4184.230957,4214.615234,4108.461426,4106.410156,0.000000,4.000000,95.000000,,,,0.000000,4.000000,4.000000,4.000000,4.000000,4.000000,4.000000,4.000000,4.000000,4.000000,4.000000,4.000000,4.000000,4.000000,4.000000,100.000000,,,,,,,,,,,,,,,,
1645707274.607338,58.000000,0.000000,4181.794922,4206.794922,4178.205078,4200.384766,4179.743652,4193.333496,4209.871582,4195.384766,4214.358887,4195.769043,4184.230957,4211.666504,4110.512695,4112.563965,0.000000,4.000000,95.000000,,,,0.000000,4.000000,4.000000,4.000000,4.000000,4.000000,4.000000,4.000000,4.000000,4.000000,4.000000,4.000000,4.000000,4.000000,4.000000,100.000000,,,,,,,,,,,,,,,,
1645707274.611278,59.000000,0.000000,4188.846191,4215.000000,4178.333496,4198.974121,4181.410156,4195.384766,4209.230957,4198.589844,4220.000000,4200.769043,4190.128418,4212.563965,4113.717773,4117.563965,0.000000,4.000000,95.000000,,,,0.000000,4.000000,4.000000,4.000000,4.000000,4.000000,4.000000,4.000000,4.000000,4.000000,4.000000,4.000000,4.000000,4.000000,4.000000,100.000000,,,,,,,,,,,,,,,,
1645707274.615218,60.000000,0.000000,4196.538574,4222.051270,4184.487305,4200.256348,4183.974121,4196.922852,4210.641113,4204.358887,4225.512695,4207.948730,4197.948730,4218.589844,4118.205078,4119.487305,0.000000,4.000000,95.000000,,,,0.000000,4.000000,4.000000,4.000000,4.000000,4.000000,4.000000,4.000000,4.000000,4.000000,4.000000,4.000000,4.000000,4.000000,4.000000,100.000000,,,,,,,,,,,,,,,,
1645707274.619159,61.000000,0.000000,4202.436035,4226.410156,4194.358887,4204.615234,4188.333496,4199.102539,4214.358887,4210.641113,4227.563965,4214.871582,4203.974121,4227.563965,4124.230957,4121.666504,0.000000,4.000000,95.000000,,,,0.000000,4.000000,4.000000,4.000000,4.000000,4.000000,4.000000,4.000000,4.000000,4.000000,4.000000,4.000000,4.000000,4.000000,4.000000,100.000000,,,,,,,,,,,,,,,,
1645707274.623099,62.000000,0.000000,4204.871582,4229.102539,4202.692383,4209.358887,4195.128418,4203.589844,4218.717773,4214.615234,4225.897461,4220.512695,4206.794922,4235.512695,4130.769043,4127.820313,0.000000,4.000000,95.000000,,,,0.000000,4.000000,4.000000,4.000000,4.000000,4.000000,4.000000,4.000000,4.000000,4.000000,4.000000,4.000000,4.000000,4.000000,4.000000,100.000000,,,,,,,,,,,,,,,,
1645707274.627139,63.000000,0.000000,4204.102539,4230.641113,4205.769043,4211.282227,4202.563965,4210.641113,4222.563965,4215.384766,4222.820313,4223.333496,4207.051270,4239.102539,4135.384766,4137.051270,0.000000,4.000000,95.000000,,,,0.000000,4.000000,4.000000,4.000000,4.000000,4.000000,4.000000,4.000000,4.000000,4.000000,4.000000,4.000000,4.000000,4.000000,4.000000,100.000000,,,,,,,,,,,,,,,,
1645707274.631079,64.000000,0.000000,4200.769043,4229.743652,4203.589844,4209.615234,4207.179688,4217.948730,4226.025879,4214.487305,4221.025879,4222.179688,4205.512695,4237.820313,4135.000000,4143.461426,0.000000,4.000000,95.000000,,,,0.000000,4.000000,4.000000,4.000000,4.000000,4.000000,4.000000,4.000000,4.000000,4.000000,4.000000,4.000000,4.000000,4.000000,4.000000,100.000000,,,,,,,,,,,,,,,,
1645707274.635019,65.000000,0.000000,4197.179688,4225.641113,4199.230957,4206.922852,4207.307617,4222.820313,4229.871582,4213.974121,4221.666504,4216.794922,4202.820313,4234.358887,4129.743652,4141.538574,0.000000,4.000000,95.000000,,,,0.000000,4.000000,4.000000,4.000000,4.000000,4.000000,4.000000,4.000000,4.000000,4.000000,4.000000,4.000000,4.000000,4.000000,4.000000,100.000000,,,,,,,,,,,,,,,,
1645707274.638959,66.000000,0.000000,4196.410156,4220.384766,4196.153809,4207.436035,4205.000000,4224.743652,4233.717773,4214.615234,4223.846191,4210.512695,4200.769043,4232.692383,4123.846191,4133.077148,0.000000,4.000000,95.000000,,,,0.000000,4.000000,4.000000,4.000000,4.000000,4.000000,4.000000,4.000000,4.000000,4.000000,4.000000,4.000000,4.000000,4.000000,4.000000,100.000000,,,,,,,,,,,,,,,,
1645707274.642899,67.000000,0.000000,4199.871582,4217.436035,4196.538574,4212.692383,4203.333496,4225.000000,4236.538574,4215.641113,4226.282227,4207.820313,4201.410156,4235.256348,4122.692383,4126.410156,0.000000,4.000000,95.000000,,,,0.000000,4.000000,4.000000,4.000000,4.000000,4.000000,4.000000,4.000000,4.000000,4.000000,4.000000,4.000000,4.000000,4.000000,4.000000,100.000000,,,,,,,,,,,,,,,,
1645707274.646839,68.000000,0.000000,4206.282227,4219.102539,4200.000000,4220.384766,4203.589844,4224.871582,4237.179688,4216.538574,4227.820313,4211.410156,4205.641113,4241.538574,4127.820313,4128.717773,0.000000,4.000000,95.000000,,,,0.000000,4.000000,4.000000,4.000000,4.000000,4.000000,4.000000,4.000000,4.000000,4.000000,4.000000,4.000000,4.000000,4.000000,4.000000,100.000000,,,,,,,,,,,,,,,,
1645707274.650779,69.000000,0.000000,4211.538574,4224.487305,4205.128418,4225.897461,4204.615234,4223.846191,4236.410156,4217.179688,4227.820313,4219.487305,4210.769043,4248.461426,4135.769043,4139.230957,0.000000,4.000000,95.000000,,,,0.000000,4.000000,4.000000,4.000000,4.000000,4.000000,4.000000,4.000000,4.000000,4.000000,4.000000,4.000000,4.000000,4.000000,4.000000,100.000000,,,,,,,,,,,,,,,,
1645707274.654719,70.000000,0.000000,4213.205078,4230.897461,4209.871582,4225.512695,4204.615234,4221.282227,4235.128418,4217.692383,4226.282227,4227.436035,4212.948730,4252.692383,4141.794922,4150.769043,0.000000,4.000000,95.000000,,,,0.000000,4.000000,4.000000,4.000000,4.000000,4.000000,4.000000,4.000000,4.000000,4.000000,4.000000,4.000000,4.000000,4.000000,4.000000,100.000000,,,,,,,,,,,,,,,,
1645707274.658660,71.000000,0.000000,4212.692383,4236.025879,4213.205078,4220.384766,4204.487305,4218.077148,4233.461426,4218.077148,4224.358887,4232.179688,4211.282227,4253.077148,4144.102539,4156.025879,0.000000,4.000000,95.000000,,,,0.000000,4.000000,4.000000,4.000000,4.000000,4.000000,4.000000,4.000000,4.000000,4.000000,4.000000,4.000000,4.000000,4.000000,4.000000,100.000000,,,,,,,,,,,,,,,,
1645707274.662600,72.000000,0.000000,4213.461426,4239.102539,4215.512695,4214.487305,4206.410156,4216.282227,4232.051270,4218.974121,4223.589844,4233.461426,4209.358887,4250.897461,4145.128418,4154.102539,0.000000,4.000000,95.000000,,,,0.000000,4.000000,4.000000,4.000000,4.000000,4.000000,4.000000,4.000000,4.000000,4.000000,4.000000,4.000000,4.000000,4.000000,4.000000,100.000000,,,,,,,,,,,,,,,,
1645707274.666540,73.000000,0.000000,4216.794922,4240.641113,4217.820313,4211.794922,4211.538574,4217.436035,4231.282227,4221.666504,4224.230957,4233.461426,4211.025879,4249.102539,4148.077148,4149.743652,0.000000,4.000000,95.000000,,,,0.000000,4.000000,4.000000,4.000000,4.000000,4.000000,4.000000,4.000000,4.000000,4.000000,4.000000,4.000000,4.000000,4.000000,4.000000,100.000000,,,,,,,,,,,,,,,,
1645707274.670480,74.000000,0.000000,4220.897461,4241.666504,4221.025879,4213.333496,4217.051270,4220.000000,4231.922852,4226.025879,4225.384766,4233.077148,4216.538574,4249.487305,4153.333496,4148.333496,0.000000,4.000000,95.000000,,,,0.000000,4.000000,4.000000,4.000000,4.000000,4.000000,4.000000,4.000000,4.000000,4.000000,4.000000,4.000000,4.000000,4.000000,4.000000,100.000000,,,,,,,,,,,,,,,,
1645707274.674420,75.000000,0.000000,4223.205078,4242.307617,4224.358887,4217.563965,4218.974121,4221.025879,4233.846191,4229.615234,4225.512695,4231.538574,4221.666504,4251.922852,4157.948730,4152.436035,0.000000,4.000000,95.000000,,,,0.000000,4.000000,4.000000,4.000000,4.000000,4.000000,4.000000,4.000000,4.000000,4.000000,4.000000,4.000000,4.000000,4.000000,4.000000,100.000000,,,,,,,,,,,,,,,,
1645707274.678360,76.000000,0.000000,4222.563965,4242.563965,4225.512695,4222.436035,4215.384766,4218.846191,4234.743652,4228.717773,4224.487305,4227.948730,4221.922852,4254.102539,4157.563965,4159.871582,0.000000,4.000000,95.000000,,,,0.000000,4.000000,4.000000,4.000000,4.000000,4.000000,4.000000,4.000000,4.000000,4.000000,4.000000,4.000000,4.000000,4.000000,4.000000,100.000000,,,,,,,,,,,,,,,,
1645707274.682300,77.000000,0.000000,4219.487305,4241.410156,4222.051270,4226.922852,4208.846191,4214.615234,4232.051270,4222.563965,4223.205078,4222.948730,4215.641113,4252.563965,4150.256348,4165.641113,0.000000,4.000000,95.000000,,,,0.000000,4.000000,4.000000,4.000000,4.000000,4.000000,4.000000,4.000000,4.000000,4.000000,4.000000,4.000000,4.000000,4.000000,4.000000,100.000000,,,,,,,,,,,,,,,,
1645707274.686240,78.000000,0.000000,4215.512695,4237.563965,4214.358887,4230.128418,4203.333496,4210.384766,4225.384766,4213.974121,4221.410156,4218.205078,4205.000000,4245.128418,4136.922852,4164.743652,0.000000,4.000000,95.000000,,,,0.000000,4.000000,4.000000,4.000000,4.000000,4.000000,4.000000,4.000000,4.000000,4.000000,4.000000,4.000000,4.000000,4.000000,4.000000,100.000000,,,,,,,,,,,,,,,,
1645707274.690180,79.000000,0.000000,4211.794922,4231.410156,4205.384766,4229.615234,4201.282227,4207.692383,4218.846191,4207.948730,4218.717773,4214.358887,4193.589844,4232.692383,4121.538574,4155.512695,0.000000,4.000000,95.000000,,,,0.000000,4.000000,4.000000,4.000000,4.000000,4.000000,4.000000,4.000000,4.000000,4.000000,4.000000,4.000000,4.000000,4.000000,4.000000,100.000000,,,,,,,,,,,,,,,,
1645707274.694021,80.000000,0.000000,4207.948730,4225.128418,4198.589844,4222.820313,4202.179688,4206.922852,4217.051270,4207.307617,4215.641113,4210.769043,4184.487305,4220.128418,4109.230957,4142.307617,0.000000,4.000000,95.000000,,,,0.000000,4.000000,4.000000,4.000000,4.000000,4.000000,4.000000,4.000000,4.000000,4.000000,4.000000,4.000000,4.000000,4.000000,4.000000,100.000000,,,,,,,,,,,,,,,,
1645707274.697961,81.000000,0.000000,4203.717773,4221.410156,4195.897461,4211.282227,4204.487305,4207.820313,4221.025879,4210.641113,4213.589844,4207.051270,4179.230957,4212.948730,4104.102539,4132.051270,0.000000,4.000000,95.000000,,,,0.000000,4.000000,4.000000,4.000000,4.000000,4.000000,4.000000,4.000000,4.000000,4.000000,4.000000,4.000000,4.000000,4.000000,4.000000,100.000000,,,,,,,,,,,,,,,,
1645707274.701901,82.000000,0.000000,4198.589844,4221.153809,4196.794922,4201.282227,4206.794922,4209.615234,4226.538574,4213.205078,4213.717773,4204.230957,4178.205078,4213.461426,4107.179688,4130.256348,0.000000,4.000000,95.000000,,,,0.000000,4.000000,4.000000,4.000000,4.000000,4.000000,4.000000,4.000000,4.000000,4.000000,4.000000,4.000000,4.000000,4.000000,4.000000,100.000000,,,,,,,,,,,,,,,,
1645707274.705841,83.000000,0.000000,4193.717773,4222.692383,4199.487305,4199.615234,4207.820313,4211.153809,4227.948730,4211.922852,4215.128418,4203.461426,4180.256348,4219.871582,4115.897461,4136.282227,0.000000,4.000000,95.000000,,,,0.000000,4.000000,4.000000,4.000000,4.000000,4.000000,4.000000,4.000000,4.000000,4.000000,4.000000,4.000000,4.000000,4.000000,4.000000,100.000000,,,,,,,,,,,,,,,,
1645707274.709781,84.000000,0.000000,4191.025879,4223.974121,4202.307617,4207.307617,4206.025879,4211.153809,4223.974121,4207.692383,4216.025879,4205.512695,4184.230957,4227.051270,4125.641113,4144.487305,0.000000,4.000000,95.000000,,,,0.000000,4.000000,4.000000,4.000000,4.000000,4.000000,4.000000,4.000000,4.000000,4.000000,4.000000,4.000000,4.000000,4.000000,4.000000,100.000000,,,,,,,,,,,,,,,,
1645707274.713721,85.000000,0.000000,4192.307617,4224.615234,4203.846191,4218.205078,4201.666504,4209.358887,4218.205078,4203.846191,4215.512695,4210.256348,4188.974121,4231.025879,4132.820313,4148.974121,0.000000,4.000000,95.000000,,,,0.000000,4.000000,4.000000,4.000000,4.000000,4.000000,4.000000,4.000000,4.000000,4.000000,4.000000,4.000000,4.000000,4.000000,4.000000,100.000000,,,,,,,,,,,,,,,,
1645707274.717661,86.000000,0.000000,4197.820313,4226.153809,4203.846191,4224.743652,4196.922852,4207.051270,4215.128418,4203.333496,4214.743652,4216.282227,4193.717773,4230.641113,4135.769043,4146.922852,0.000000,4.000000,95.000000,,,,0.000000,4.000000,4.000000,4.000000,4.000000,4.000000,4.000000,4.000000,4.000000,4.000000,4.000000,4.000000,4.000000,4.000000,4.000000,100.000000,,,,,,,,,,,,,,,,
1645707274.721601,87.000000,0.000000,4205.512695,4229.358887,4201.538574,4223.974121,4195.000000,4205.897461,4215.641113,4206.153809,4215.128418,4221.794922,4197.307617,4228.461426,4135.641113,4139.615234,0.000000,4.000000,95.000000,,,,0.000000,4.000000,4.000000,4.000000,4.000000,4.000000,4.000000,4.000000,4.000000,4.000000,4.000000,4.000000,4.000000,4.000000,4.000000,100.000000,,,,,,,,,,,,,,,,
1645707274.725541,88.000000,0.000000,4211.282227,4232.820313,4197.563965,4218.589844,4196.282227,4205.769043,4217.692383,4209.487305,4217.051270,4224.743652,4197.563965,4227.179688,4133.205078,4130.128418,0.000000,4.000000,95.000000,,,,0.000000,4.000000,4.000000,4.000000,4.000000,4.000000,4.000000,4.000000,4.000000,4.000000,4.000000,4.000000,4.000000,4.000000,4.000000,100.000000,,,,,,,,,,,,,,,,
1645707274.729482,89.000000,0.000000,4211.794922,4233.205078,4193.461426,4213.717773,4198.846191,4205.256348,4218.846191,4210.512695,4218.846191,4223.205078,4193.461426,4228.077148,4129.358887,4122.051270,0.000000,4.000000,95.000000,,,,0.000000,4.000000,4.000000,4.000000,4.000000,4.000000,4.000000,4.000000,4.000000,4.000000,4.000000,4.000000,4.000000,4.000000,4.000000,100.000000,,,,,,,,,,,,,,,,
1645707274.733422,90.000000,0.000000,4206.666504,4228.589844,4191.410156,4212.307617,4200.384766,4203.974121,4218.974121,4208.717773,4218.974121,4217.948730,4186.666504,4230.000000,4125.128418,4118.461426,0.000000,4.000000,95.000000,,,,0.000000,4.000000,4.000000,4.000000,4.000000,4.000000,4.000000,4.000000,4.000000,4.000000,4.000000,4.000000,4.000000,4.000000,4.000000,100.000000,,,,,,,,,,,,,,,,
1645707274.737362,91.000000,0.000000,4199.102539,4221.666504,4192.179688,4213.974121,4200.384766,4203.205078,4219.102539,4206.282227,4217.948730,4212.307617,4182.179688,4231.153809,4123.077148,4121.025879,0.000000,4.000000,95.000000,,,,0.000000,4.000000,4.000000,4.000000,4.000000,4.000000,4.000000,4.000000,4.000000,4.000000,4.000000,4.000000,4.000000,4.000000,4.000000,100.000000,,,,,,,,,,,,,,,,
1645707274.741302,92.000000,0.000000,4193.077148,4217.820313,4195.128418,4215.128418,4200.128418,4204.487305,4219.743652,4205.512695,4217.307617,4210.384766,4183.846191,4231.025879,4125.384766,4128.461426,0.000000,4.000000,95.000000,,,,0.000000,4.000000,4.000000,4.000000,4.000000,4.000000,4.000000,4.000000,4.000000,4.000000,4.000000,4.000000,4.000000,4.000000,4.000000,100.000000,,,,,,,,,,,,,,,,
1645707274.745242,93.000000,0.000000,4190.384766,4220.256348,4198.333496,4213.333496,4200.000000,4207.692383,4220.128418,4207.179688,4218.333496,4212.820313,4191.025879,4230.897461,4131.282227,4136.794922,0.000000,4.000000,95.000000,,,,0.000000,4.000000,4.000000,4.000000,4.000000,4.000000,4.000000,4.000000,4.000000,4.000000,4.000000,4.000000,4.000000,4.000000,4.000000,100.000000,,,,,,,,,,,,,,,,
1645707274.749182,94.000000,0.000000,4189.743652,4226.025879,4200.128418,4208.717773,4198.974121,4210.641113,4219.487305,4209.358887,4220.256348,4215.769043,4197.820313,4231.794922,4137.179688,4141.282227,0.000000,4.000000,95.000000,,,,0.000000,4.000000,4.000000,4.000000,4.000000,4.000000,4.000000,4.000000,4.000000,4.000000,4.000000,4.000000,4.000000,4.000000,4.000000,100.000000,,,,,,,,,,,,,,,,
1645707274.753122,95.000000,0.000000,4188.717773,4228.717773,4199.615234,4204.230957,4195.256348,4210.769043,4217.820313,4209.487305,4220.897461,4214.358887,4198.461426,4232.692383,4139.871582,4139.102539,0.000000,4.000000,95.000000,,,,0.000000,4.000000,4.000000,4.000000,4.000000,4.000000,4.000000,4.000000,4.000000,4.000000,4.000000,4.000000,4.000000,4.000000,4.000000,100.000000,,,,,,,,,,,,,,,,
1645707274.757062,96.000000,0.000000,4186.922852,4224.358887,4196.666504,4202.307617,4190.128418,4207.563965,4216.025879,4206.153809,4218.461426,4208.205078,4192.436035,4231.282227,4139.230957,4132.563965,0.000000,4.000000,95.000000,,,,0.000000,4.000000,4.000000,4.000000,4.000000,4.000000,4.000000,4.000000,4.000000,4.000000,4.000000,4.000000,4.000000,4.000000,4.000000,100.000000,,,,,,,,,,,,,,,,
1645707274.761002,97.000000,0.000000,4186.282227,4215.897461,4193.205078,4203.974121,4187.436035,4203.205078,4213.974121,4200.512695,4213.974121,4202.692383,4185.256348,4227.051270,4138.205078,4127.179688,0.000000,4.000000,95.000000,,,,0.000000,4.000000,4.000000,4.000000,4.000000,4.000000,4.000000,4.000000,4.000000,4.000000,4.000000,4.000000,4.000000,4.000000,4.000000,100.000000,,,,,,,,,,,,,,,,
1645707274.765042,98.000000,0.000000,4188.205078,4209.871582,4191.666504,4207.692383,4189.487305,4200.384766,4212.307617,4194.615234,4210.256348,4202.692383,4182.563965,4222.307617,4138.333496,4126.666504,0.000000,4.000000,95.000000,,,,0.000000,4.000000,4.000000,4.000000,4.000000,4.000000,4.000000,4.000000,4.000000,4.000000,4.000000,4.000000,4.000000,4.000000,4.000000,100.000000,,,,,,,,,,,,,,,,
1645707274.768982,99.000000,0.000000,4191.153809,4210.000000,4193.846191,4210.384766,4194.230957,4199.743652,4211.538574,4191.025879,4209.615234,4207.051270,4184.743652,4219.871582,4138.589844,4129.871582,0.000000,4.000000,95.000000,,,,0.000000,4.000000,4.000000,4.000000,4.000000,4.000000,4.000000,4.000000,4.000000,4.000000,4.000000,4.000000,4.000000,4.000000,4.000000,100.000000,,,,,,,,,,,,,,,,
1645707274.772923,100.000000,0.000000,4191.666504,4214.358887,4198.717773,4210.128418,4196.922852,4200.128418,4212.436035,4190.000000,4211.410156,4209.615234,4187.692383,4220.769043,4136.153809,4132.307617,0.000000,4.000000,95.000000,,,,0.000000,4.000000,4.000000,4.000000,4.000000,4.000000,4.000000,4.000000,4.000000,4.000000,4.000000,4.000000,4.000000,4.000000,4.000000,100.000000,1.000000,50.000000,4.000000,4.000000,4.000000,4.000000,4.000000,4.000000,4.000000,4.000000,2.000000,4.000000,4.000000,4.000000,3.000000,1.000000
1645707274.776863,101.000000,0.000000,4188.589844,4218.077148,4202.948730,4207.179688,4195.000000,4200.000000,4213.974121,4190.641113,4212.563965,4206.666504,4187.179688,4223.333496,4131.153809,4131.025879,0.000000,4.000000,95.000000,,,,0.000000,4.000000,4.000000,4.000000,4.000000,4.000000,4.000000,4.000000,4.000000,4.000000,4.000000,4.000000,4.000000,4.000000,4.000000,100.000000,,,,,,,,,,,,,,,,
1645707274.780803,102.000000,0.000000,4184.871582,4218.589844,4203.717773,4203.717773,4190.256348,4198.846191,4213.717773,4191.410156,4211.153809,4200.384766,4183.461426,4224.615234,4126.538574,4127.692383,0.000000,4.000000,95.000000,,,,0.000000,4.000000,4.000000,4.000000,4.000000,4.000000,4.000000,4.000000,4.000000,4.000000,4.000000,4.000000,4.000000,4.000000,4.000000,100.000000,,,,,,,,,,,,,,,,
1645707274.784743,103.000000,0.000000,4185.769043,4216.666504,4200.641113,4201.794922,4186.538574,4197.307617,4210.384766,4191.025879,4208.589844,4197.179688,4180.512695,4223.589844,4126.025879,4126.410156,0.000000,4.000000,95.000000,,,,0.000000,4.000000,4.000000,4.000000,4.000000,4.000000,4.000000,4.000000,4.000000,4.000000,4.000000,4.000000,4.000000,4.000000,4.000000,100.000000,,,,,,,,,,,,,,,,
1645707274.788683,104.000000,0.000000,4192.563965,4215.384766,4196.538574,4200.512695,4185.000000,4195.769043,4205.512695,4190.000000,4207.563965,4201.282227,4181.410156,4222.436035,4130.769043,4129.487305,0.000000,4.000000,95.000000,,,,0.000000,4.000000,4.000000,4.000000,4.000000,4.000000,4.000000,4.000000,4.000000,4.000000,4.000000,4.000000,4.000000,4.000000,4.000000,100.000000,,,,,,,,,,,,,,,,
1645707274.792523,105.000000,0.000000,4201.666504,4216.922852,4195.000000,4199.487305,4184.358887,4193.974121,4202.307617,4189.487305,4209.615234,4210.897461,4186.282227,4223.846191,4138.205078,4136.282227,0.000000,4.000000,95.000000,,,,0.000000,4.000000,4.000000,4.000000,4.000000,4.000000,4.000000,4.000000,4.000000,4.000000,4.000000,4.000000,4.000000,4.000000,4.000000,100.000000,,,,,,,,,,,,,,,,
1645707274.796463,106.000000,0.000000,4207.692383,4220.897461,4196.794922,4199.230957,4182.563965,4192.051270,4202.692383,4189.871582,4212.948730,4219.743652,4192.692383,4228.589844,4144.871582,4143.717773,0.000000,4.000000,95.000000,,,,0.000000,4.000000,4.000000,4.000000,4.000000,4.000000,4.000000,4.000000,4.000000,4.000000,4.000000,4.000000,4.000000,4.000000,4.000000,100.000000,,,,,,,,,,,,,,,,
1645707274.800403,107.000000,0.000000,4208.461426,4224.743652,4199.615234,4201.666504,4180.384766,4190.641113,4204.871582,4189.743652,4213.846191,4221.794922,4197.436035,4233.461426,4148.974121,4148.974121,0.000000,4.000000,95.000000,,,,0.000000,4.000000,4.000000,4.000000,4.000000,4.000000,4.000000,4.000000,4.000000,4.000000,4.000000,4.000000,4.000000,4.000000,4.000000,100.000000,,,,,,,,,,,,,,,,
1645707274.804344,108.000000,0.000000,4205.769043,4226.282227,4200.769043,4206.282227,4180.641113,4190.769043,4205.897461,4187.563965,4210.769043,4215.641113,4199.358887,4234.358887,4150.512695,4150.641113,0.000000,4.000000,95.000000,1,1,0,0.000000,4.000000,4.000000,4.000000,4.000000,4.000000,4.000000,4.000000,4.000000,4.000000,4.000000,4.000000,4.000000,4.000000,4.000000,100.000000,,,,,,,,,,,,,,,,
1645707274.808284,109.000000,0.000000,4202.692383,4224.871582,4199.871582,4210.128418,4185.000000,4192.307617,4204.871582,4184.743652,4205.256348,4205.128418,4198.589844,4229.743652,4150.769043,4148.333496,0.000000,4.000000,95.000000,,,,0.000000,4.000000,4.000000,4.000000,4.000000,4.000000,4.000000,4.000000,4.000000,4.000000,4.000000,4.000000,4.000000,4.000000,4.000000,100.000000,,,,,,,,,,,,,,,,
1645707274.812224,110.000000,0.000000,4201.025879,4221.922852,4198.974121,4209.871582,4192.051270,4194.230957,4203.717773,4184.358887,4201.538574,4197.051270,4197.179688,4222.692383,4150.384766,4144.230957,0.000000,4.000000,95.000000,,,,0.000000,4.000000,4.000000,4.000000,4.000000,4.000000,4.000000,4.000000,4.000000,4.000000,4.000000,4.000000,4.000000,4.000000,4.000000,100.000000,,,,,,,,,,,,,,,,
1645707274.816164,111.000000,0.000000,4200.897461,4220.000000,4199.743652,4205.641113,4198.077148,4195.769043,4204.871582,4188.461426,4202.948730,4196.922852,4197.307617,4217.820313,4150.256348,4141.794922,0.000000,4.000000,95.000000,,,,0.000000,4.000000,4.000000,4.000000,4.000000,4.000000,4.000000,4.000000,4.000000,4.000000,4.000000,4.000000,4.000000,4.000000,4.000000,100.000000,,,,,,,,,,,,,,,,
1645707274.820004,112.000000,0.000000,4201.666504,4221.666504,4201.410156,4201.025879,4201.025879,4197.051270,4207.692383,4195.769043,4208.974121,4204.615234,4200.256348,4218.205078,4150.897461,4144.230957,0.000000,4.000000,95.000000,,,,0.000000,4.000000,4.000000,4.000000,4.000000,4.000000,4.000000,4.000000,4.000000,4.000000,4.000000,4.000000,4.000000,4.000000,4.000000,100.000000,,,,,,,,,,,,,,,,
1645707274.823944,113.000000,0.000000,4202.563965,4226.025879,4201.922852,4199.743652,4201.153809,4198.717773,4210.000000,4202.307617,4216.666504,4214.615234,4204.487305,4222.307617,4152.179688,4151.153809,0.000000,4.000000,95.000000,,,,0.000000,4.000000,4.000000,4.000000,4.000000,4.000000,4.000000,4.000000,4.000000,4.000000,4.000000,4.000000,4.000000,4.000000,4.000000,100.000000,,,,,,,,,,,,,,,,
1645707274.827884,114.000000,0.000000,4201.794922,4228.846191,4199.871582,4201.922852,4199.230957,4199.871582,4210.256348,4205.256348,4221.410156,4219.230957,4206.410156,4225.769043,4152.563965,4157.948730,0.000000,4.000000,95.000000,,,,0.000000,4.000000,4.000000,4.000000,4.000000,4.000000,4.000000,4.000000,4.000000,4.000000,4.000000,4.000000,4.000000,4.000000,4.000000,100.000000,,,,,,,,,,,,,,,,
1645707274.831824,115.000000,0.000000,4198.333496,4226.410156,4195.512695,4203.846191,4195.000000,4199.230957,4208.974121,4205.512695,4220.897461,4215.128418,4203.205078,4224.743652,4150.256348,4158.589844,0.000000,4.000000,95.000000,,,,0.000000,4.000000,4.000000,4.000000,4.000000,4.000000,4.000000,4.000000,4.000000,4.000000,4.000000,4.000000,4.000000,4.000000,4.000000,100.000000,,,,,,,,,,,,,,,,
1645707274.835764,116.000000,0.000000,4193.333496,4219.230957,4190.512695,4200.897461,4188.717773,4196.410156,4208.077148,4205.769043,4216.794922,4206.282227,4195.512695,4219.615234,4145.256348,4151.025879,0.000000,4.000000,95.000000,,,,0.000000,4.000000,4.000000,4.000000,4.000000,4.000000,4.000000,4.000000,4.000000,4.000000,4.000000,4.000000,4.000000,4.000000,4.000000,100.000000,,,,,,,,,,,,,,,,
1645707274.839705,117.000000,0.000000,4189.102539,4212.436035,4187.179688,4193.846191,4183.205078,4193.846191,4207.948730,4207.692383,4213.077148,4199.615234,4188.461426,4214.615234,4139.743652,4139.615234,0.000000,4.000000,95.000000,,,,0.000000,4.000000,4.000000,4.000000,4.000000,4.000000,4.000000,4.000000,4.000000,4.000000,4.000000,4.000000,4.000000,4.000000,4.000000,100.000000,,,,,,,,,,,,,,,,
1645707274.843645,118.000000,0.000000,4188.589844,4211.025879,4186.666504,4188.077148,4182.820313,4194.487305,4208.589844,4210.000000,4213.333496,4200.128418,4187.051270,4213.846191,4136.538574,4131.538574,0.000000,4.000000,95.000000,,,,0.000000,4.000000,4.000000,4.000000,4.000000,4.000000,4.000000,4.000000,4.000000,4.000000,4.000000,4.000000,4.000000,4.000000,4.000000,100.000000,,,,,,,,,,,,,,,,
1645707274.847585,119.000000,0.000000,4192.563965,4215.769043,4189.102539,4189.487305,4189.102539,4199.615234,4210.641113,4211.153809,4217.692383,4206.922852,4192.307617,4218.717773,4137.948730,4130.897461,0.000000,4.000000,95.000000,,,,0.000000,4.000000,4.000000,4.000000,4.000000,4.000000,4.000000,4.000000,4.000000,4.000000,4.000000,4.000000,4.000000,4.000000,4.000000,100.000000,,,,,,,,,,,,,,,,
1645707274.851525,120.000000,0.000000,4198.717773,4223.846191,4194.102539,4198.461426,4199.615234,4207.692383,4215.512695,4211.538574,4222.692383,4215.128418,4200.897461,4227.563965,4143.589844,4135.512695,0.000000,4.000000,95.000000,,,,0.000000,4.000000,4.000000,4.000000,4.000000,4.000000,4.000000,4.000000,4.000000,4.000000,4.000000,4.000000,4.000000,4.000000,4.000000,100.000000,,,,,,,,,,,,,,,,
1645707274.855465,121.000000,0.000000,4204.358887,4231.410156,4200.512695,4210.512695,4209.743652,4216.025879,4223.589844,4212.563965,4225.000000,4220.897461,4208.717773,4237.436035,4152.051270,4140.000000,0.000000,4.000000,95.000000,,,,0.000000,4.000000,4.000000,4.000000,4.000000,4.000000,4.000000,4.000000,4.000000,4.000000,4.000000,4.000000,4.000000,4.000000,4.000000,100.000000,,,,,,,,,,,,,,,,
1645707274.859405,122.000000,0.000000,4208.461426,4236.666504,4207.563965,4219.615234,4216.410156,4222.436035,4232.051270,4215.128418,4223.846191,4224.230957,4213.846191,4245.384766,4161.282227,4141.922852,0.000000,4.000000,95.000000,,,,0.000000,4.000000,4.000000,4.000000,4.000000,4.000000,4.000000,4.000000,4.000000,4.000000,4.000000,4.000000,4.000000,4.000000,4.000000,100.000000,,,,,,,,,,,,,,,,
1645707274.863345,123.000000,0.000000,4212.179688,4240.000000,4214.230957,4222.692383,4219.743652,4226.153809,4236.410156,4218.461426,4221.410156,4227.179688,4216.922852,4250.384766,4168.974121,4143.717773,0.000000,4.000000,95.000000,,,,0.000000,4.000000,4.000000,4.000000,4.000000,4.000000,4.000000,4.000000,4.000000,4.000000,4.000000,4.000000,4.000000,4.000000,4.000000,100.000000,,,,,,,,,,,,,,,,
1645707274.867285,124.000000,0.000000,4216.410156,4242.051270,4219.487305,4221.153809,4221.282227,4227.820313,4235.128418,4221.025879,4220.769043,4230.641113,4219.358887,4252.179688,4172.051270,4149.102539,0.000000,4.000000,95.000000,,,,0.000000,4.000000,4.000000,4.000000,4.000000,4.000000,4.000000,4.000000,4.000000,4.000000,4.000000,4.000000,4.000000,4.000000,4.000000,100.000000,,,,,,,,,,,,,,,,
1645707274.871225,125.000000,0.000000,4220.000000,4243.461426,4222.051270,4218.846191,4222.179688,4228.333496,4230.641113,4221.922852,4222.692383,4232.948730,4221.025879,4251.153809,4167.948730,4158.717773,0.000000,4.000000,95.000000,,,,0.000000,4.000000,4.000000,4.000000,4.000000,4.000000,4.000000,4.000000,4.000000,4.000000,4.000000,4.000000,4.000000,4.000000,4.000000,100.000000,,,,,,,,,,,,,,,,
1645707274.875166,126.000000,0.000000,4220.512695,4243.717773,4221.025879,4218.461426,4222.436035,4228.461426,4227.179688,4220.384766,4225.641113,4232.436035,4220.897461,4247.307617,4157.179688,4168.974121,0.000000,4.000000,95.000000,,,,0.000000,4.000000,4.000000,4.000000,4.000000,4.000000,4.000000,4.000000,4.000000,4.000000,4.000000,4.000000,4.000000,4.000000,4.000000,100.000000,,,,,,,,,,,,,,,,
1645707274.879106,127.000000,0.000000,4217.820313,4242.948730,4217.436035,4220.641113,4222.563965,4229.230957,4226.666504,4216.666504,4226.922852,4230.000000,4218.974121,4241.922852,4145.641113,4175.384766,0.000000,4.000000,95.000000,,,,0.000000,4.000000,4.000000,4.000000,4.000000,4.000000,4.000000,4.000000,4.000000,4.000000,4.000000,4.000000,4.000000,4.000000,4.000000,100.000000,,,,,,,,,,,,,,,,
1645707274.883046,128.000000,0.000000,4214.743652,4242.436035,4213.717773,4223.974121,4222.948730,4230.512695,4227.820313,4212.307617,4225.384766,4228.974121,4215.897461,4236.666504,4140.897461,4176.410156,3172.000000,4.000000,95.000000,,,,0.000000,4.000000,4.000000,4.000000,4.000000,4.000000,4.000000,4.000000,4.000000,4.000000,4.000000,4.000000,4.000000,4.000000,4.000000,100.000000,,,,,,,,,,,,,,,,
1645707274.886986,129.000000,0.000000,4214.743652,4243.333496,4212.563965,4226.282227,4223.333496,4230.769043,4228.461426,4209.871582,4222.179688,4231.153809,4213.205078,4234.102539,4146.538574,4173.205078,3361.000000,4.000000,95.000000,,,,0.000000,4.000000,4.000000,4.000000,4.000000,4.000000,4.000000,4.000000,4.000000,4.000000,4.000000,4.000000,4.000000,4.000000,4.000000,100.000000,,,,,,,,,,,,,,,,
1645707274.891026,130.000000,0.000000,4218.461426,4245.641113,4215.000000,4226.538574,4223.461426,4228.461426,4228.205078,4211.410156,4219.615234,4234.871582,4211.410156,4235.256348,4158.846191,4167.563965,3521.000000,4.000000,95.000000,,,,0.000000,4.000000,4.000000,4.000000,4.000000,4.000000,4.000000,4.000000,4.000000,4.000000,4.000000,4.000000,4.000000,4.000000,4.000000,100.000000,,,,,,,,,,,,,,,,
1645707274.894966,131.000000,0.000000,4223.205078,4248.461426,4218.974121,4225.256348,4223.077148,4223.846191,4227.563965,4216.666504,4219.615234,4237.436035,4210.641113,4239.615234,4169.743652,4160.384766,3401.000000,4.000000,95.000000,2,1,0,0.000000,4.000000,4.000000,4.000000,4.000000,4.000000,4.000000,4.000000,4.000000,4.000000,4.000000,4.000000,4.000000,4.000000,4.000000,100.000000,,,,,,,,,,,,,,,,
1645707274.898906,132.000000,0.000000,4226.153809,4251.153809,4222.051270,4224.487305,4222.948730,4219.743652,4227.179688,4223.205078,4222.563965,4237.948730,4212.307617,4246.282227,4173.846191,4153.461426,3707.000000,4.000000,95.000000,,,,0.000000,4.000000,4.000000,4.000000,4.000000,4.000000,4.000000,4.000000,4.000000,4.000000,4.000000,4.000000,4.000000,4.000000,4.000000,100.000000,,,,,,,,,,,,,,,,
1645707274.902846,133.000000,0.000000,4227.051270,4253.461426,4223.333496,4225.897461,4223.846191,4219.871582,4227.692383,4229.102539,4227.948730,4239.487305,4217.692383,4254.358887,4172.436035,4150.000000,3427.000000,4.000000,95.000000,,,,0.000000,4.000000,4.000000,4.000000,4.000000,4.000000,4.000000,4.000000,4.000000,4.000000,4.000000,4.000000,4.000000,4.000000,4.000000,100.000000,,,,,,,,,,,,,,,,
1645707274.906786,134.000000,0.000000,4228.333496,4255.384766,4224.871582,4229.615234,4225.897461,4224.871582,4230.384766,4234.102539,4233.974121,4245.512695,4226.410156,4262.051270,4171.538574,4153.974121,3070.000000,4.000000,95.000000,,,,0.000000,4.000000,4.000000,4.000000,4.000000,4.000000,4.000000,4.000000,4.000000,4.000000,4.000000,4.000000,4.000000,4.000000,4.000000,100.000000,,,,,,,,,,,,,,,,
1645707274.910726,135.000000,0.000000,4232.820313,4257.692383,4229.615234,4233.846191,4227.563965,4232.051270,4236.025879,4239.871582,4238.974121,4255.897461,4235.897461,4267.820313,4175.769043,4166.794922,2822.000000,4.000000,95.000000,,,,0.000000,4.000000,4.000000,4.000000,4.000000,4.000000,4.000000,4.000000,4.000000,4.000000,4.000000,4.000000,4.000000,4.000000,4.000000,100.000000,,,,,,,,,,,,,,,,
1645707274.914666,136.000000,0.000000,4240.769043,4261.025879,4237.436035,4236.025879,4228.205078,4237.948730,4243.974121,4246.922852,4241.794922,4266.666504,4242.692383,4270.256348,4184.615234,4185.000000,1569.000000,4.000000,95.000000,,,,0.000000,4.000000,4.000000,4.000000,4.000000,4.000000,4.000000,4.000000,4.000000,4.000000,4.000000,4.000000,4.000000,4.000000,4.000000,100.000000,,,,,,,,,,,,,,,,
1645707274.918607,137.000000,0.000000,4249.871582,4265.897461,4244.615234,4236.025879,4228.846191,4240.897461,4251.025879,4252.948730,4242.820313,4273.205078,4246.153809,4269.102539,4193.461426,4202.179688,3274.000000,4.000000,95.000000,,,,0.000000,4.000000,4.000000,4.000000,4.000000,4.000000,4.000000,4.000000,4.000000,4.000000,4.000000,4.000000,4.000000,4.000000,4.000000,100.000000,,,,,,,,,,,,,,,,
1645707274.922547,138.000000,0.000000,4255.897461,4270.897461,4247.051270,4235.769043,4231.025879,4242.179688,4253.717773,4254.487305,4242.563965,4274.487305,4246.794922,4266.025879,4197.820313,4212.051270,3392.000000,4.000000,95.000000,,,,0.000000,4.000000,4.000000,4.000000,4.000000,4.000000,4.000000,4.000000,4.000000,4.000000,4.000000,4.000000,4.000000,4.000000,4.000000,100.000000,,,,,,,,,,,,,,,,
1645707274.926487,139.000000,0.000000,4256.410156,4274.358887,4243.974121,4237.307617,4235.000000,4243.717773,4251.282227,4251.410156,4240.769043,4272.051270,4245.512695,4262.948730,4196.025879,4211.666504,3454.000000,4.000000,95.000000,,,,0.000000,4.000000,4.000000,4.000000,4.000000,4.000000,4.000000,4.000000,4.000000,4.000000,4.000000,4.000000,4.000000,4.000000,4.000000,100.000000,,,,,,,,,,,,,,,,
1645707274.930427,140.000000,0.000000,4251.410156,4275.000000,4239.487305,4240.769043,4238.717773,4245.769043,4246.538574,4246.282227,4237.307617,4268.077148,4242.436035,4261.282227,4190.000000,4202.820313,3305.000000,4.000000,95.000000,,,,0.000000,4.000000,4.000000,4.000000,4.000000,4.000000,4.000000,4.000000,4.000000,4.000000,4.000000,4.000000,4.000000,4.000000,4.000000,100.000000,,,,,,,,,,,,,,,,
1645707274.934367,141.000000,0.000000,4244.487305,4272.820313,4237.436035,4244.743652,4240.000000,4246.794922,4243.589844,4242.820313,4233.461426,4262.948730,4237.563965,4260.384766,4183.333496,4191.282227,3188.000000,4.000000,95.000000,,,,0.000000,4.000000,4.000000,4.000000,4.000000,4.000000,4.000000,4.000000,4.000000,4.000000,4.000000,4.000000,4.000000,4.000000,4.000000,100.000000,,,,,,,,,,,,,,,,
1645707274.938307,142.000000,0.000000,4240.128418,4269.743652,4238.461426,4247.820313,4238.974121,4245.769043,4243.717773,4242.051270,4231.282227,4257.692383,4232.307617,4258.461426,4179.615234,4183.589844,3392.000000,4.000000,95.000000,,,,0.000000,4.000000,4.000000,4.000000,4.000000,4.000000,4.000000,4.000000,4.000000,4.000000,4.000000,4.000000,4.000000,4.000000,4.000000,100.000000,,,,,,,,,,,,,,,,
1645707274.942247,143.000000,0.000000,4240.641113,4267.692383,4239.743652,4248.461426,4237.820313,4243.589844,4245.256348,4242.307617,4231.794922,4253.589844,4228.205078,4253.974121,4180.256348,4182.948730,3454.000000,4.000000,95.000000,,,,0.000000,4.000000,4.000000,4.000000,4.000000,4.000000,4.000000,4.000000,4.000000,4.000000,4.000000,4.000000,4.000000,4.000000,4.000000,100.000000,,,,,,,,,,,,,,,,
1645707274.946187,144.000000,0.000000,4244.102539,4267.692383,4239.230957,4246.153809,4237.948730,4242.307617,4245.384766,4241.153809,4233.717773,4251.666504,4226.538574,4247.948730,4183.333496,4187.051270,3305.000000,4.000000,95.000000,,,,0.000000,4.000000,4.000000,4.000000,4.000000,4.000000,4.000000,4.000000,4.000000,4.000000,4.000000,4.000000,4.000000,4.000000,4.000000,100.000000,,,,,,,,,,,,,,,,
1645707274.950127,145.000000,0.000000,4246.153809,4268.461426,4237.563965,4241.282227,4239.615234,4243.461426,4244.230957,4238.205078,4234.615234,4251.410156,4226.410156,4243.461426,4185.128418,4191.282227,3188.000000,4.000000,95.000000,,,,0.000000,4.000000,4.000000,4.000000,4.000000,4.000000,4.000000,4.000000,4.000000,4.000000,4.000000,4.000000,4.000000,4.000000,4.000000,100.000000,,,,,,,,,,,,,,,,
1645707274.954068,146.000000,0.000000,4243.974121,4268.974121,4237.948730,4236.153809,4242.051270,4246.538574,4243.461426,4235.512695,4232.948730,4251.282227,4226.794922,4244.102539,4183.717773,4192.307617,3392.000000,4.000000,95.000000,,,,0.000000,4.000000,4.000000,4.000000,4.000000,4.000000,4.000000,4.000000,4.000000,4.000000,4.000000,4.000000,4.000000,4.000000,4.000000,100.000000,,,,,,,,,,,,,,,,
1645707274.958008,147.000000,0.000000,4239.743652,4268.589844,4241.666504,4233.846191,4244.743652,4249.871582,4244.102539,4235.384766,4230.256348,4250.641113,4227.051270,4250.641113,4180.512695,4190.256348,3454.000000,4.000000,95.000000,,,,0.000000,4.000000,4.000000,4.000000,4.000000,4.000000,4.000000,4.000000,4.000000,4.000000,4.000000,4.000000,4.000000,4.000000,4.000000,100.000000,,,,,,,,,,,,,,,,
1645707274.961948,148.000000,0.000000,4237.692383,4268.333496,4246.153809,4235.512695,4246.538574,4251.410156,4245.256348,4237.692383,4229.230957,4250.128418,4227.436035,4259.358887,4179.487305,4187.051270,3305.000000,4.000000,95.000000,,,,0.000000,4.000000,4.000000,4.000000,4.000000,4.000000,4.000000,4.000000,4.000000,4.000000,4.000000,4.000000,4.000000,4.000000,4.000000,100.000000,,,,,,,,,,,,,,,,
1645707274.965888,149.000000,0.000000,4240.128418,4269.102539,4247.307617,4239.102539,4246.538574,4250.128418,4245.256348,4240.128418,4230.897461,4250.769043,4228.205078,4264.743652,4181.922852,4183.846191,3188.000000,4.000000,95.000000,,,,0.000000,4.000000,4.000000,4.000000,4.000000,4.000000,4.000000,4.000000,4.000000,4.000000,4.000000,4.000000,4.000000,4.000000,4.000000,100.000000,,,,,,,,,,,,,,,,
1645707274.969828,150.000000,0.000000,4245.000000,4270.256348,4243.717773,4241.153809,4243.846191,4246.153809,4244.230957,4239.743652,4233.333496,4251.538574,4228.077148,4264.230957,4185.256348,4180.769043,3392.000000,4.000000,95.000000,,,,0.000000,4.000000,4.000000,4.000000,4.000000,4.000000,4.000000,4.000000,4.000000,4.000000,4.000000,4.000000,4.000000,4.000000,4.000000,100.000000,,,,,,,,,,,,,,,,
1645707274.973768,151.000000,0.000000,4248.333496,4271.025879,4238.717773,4240.128418,4239.487305,4241.538574,4243.589844,4235.512695,4233.846191,4251.794922,4226.410156,4259.487305,4185.641113,4177.563965,3454.000000,4.000000,95.000000,,,,0.000000,4.000000,4.000000,4.000000,4.000000,4.000000,4.000000,4.000000,4.000000,4.000000,4.000000,4.000000,4.000000,4.000000,4.000000,100.000000,,,,,,,,,,,,,,,,
1645707274.977708,152.000000,0.000000,4248.333496,4271.538574,4236.922852,4238.461426,4236.153809,4238.846191,4243.846191,4229.230957,4231.282227,4251.410156,4224.358887,4255.384766,4182.307617,4175.256348,3305.000000,4.000000,95.000000,,,,0.000000,4.000000,4.000000,4.000000,4.000000,4.000000,4.000000,4.000000,4.000000,4.000000,4.000000,4.000000,4.000000,4.000000,4.000000,100.000000,,,,,,,,,,,,,,,,
1645707274.981648,153.000000,0.000000,4246.666504,4272.948730,4240.128418,4239.871582,4236.538574,4240.512695,4244.230957,4224.230957,4227.436035,4251.538574,4224.615234,4255.256348,4178.846191,4175.384766,3188.000000,4.000000,95.000000,,,,0.000000,4.000000,4.000000,4.000000,4.000000,4.000000,4.000000,4.000000,4.000000,4.000000,4.000000,4.000000,4.000000,4.000000,4.000000,100.000000,,,,,,,,,,,,,,,,
1645707274.985588,154.000000,0.000000,4246.153809,4275.897461,4246.666504,4245.000000,4240.641113,4245.769043,4243.717773,4223.333496,4225.128418,4253.333496,4228.333496,4258.461426,4179.615234,4178.333496,3392.000000,4.000000,95.000000,,,,0.000000,4.000000,4.000000,4.000000,4.000000,4.000000,4.000000,4.000000,4.000000,4.000000,4.000000,4.000000,4.000000,4.000000,4.000000,100.000000,,,,,,,,,,,,,,,,
1645707274.989528,155.000000,0.000000,4247.563965,4279.102539,4252.692383,4250.641113,4245.000000,4251.282227,4243.077148,4227.307617,4225.641113,4256.538574,4233.461426,4261.666504,4185.384766,4182.051270,3454.000000,4.000000,95.000000,,,,0.000000,4.000000,4.000000,4.000000,4.000000,4.000000,4.000000,4.000000,4.000000,4.000000,4.000000,4.000000,4.000000,4.000000,4.000000,100.000000,,,,,,,,,,,,,,,,
1645707274.993469,156.000000,0.000000,4249.615234,4280.384766,4254.615234,4252.436035,4246.410156,4252.948730,4243.717773,4234.102539,4228.717773,4259.871582,4236.410156,4261.282227,4192.820313,4185.256348,3305.000000,4.000000,95.000000,,,,0.000000,4.000000,4.000000,4.000000,4.000000,4.000000,4.000000,4.000000,4.000000,4.000000,4.000000,4.000000,4.000000,4.000000,4.000000,100.000000,,,,,,,,,,,,,,,,
1645707274.997409,157.000000,0.000000,4250.897461,4278.717773,4251.922852,4249.871582,4244.615234,4250.128418,4245.897461,4240.512695,4232.307617,4262.692383,4235.256348,4256.922852,4196.666504,4188.589844,3188.000000,4.000000,95.000000,,,,0.000000,4.000000,4.000000,4.000000,4.000000,4.000000,4.000000,4.000000,4.000000,4.000000,4.000000,4.000000,4.000000,4.000000,4.000000,100.000000,,,,,,,,,,,,,,,,
1645707275.001349,158.000000,0.000000,4251.153809,4275.256348,4247.051270,4245.769043,4242.436035,4245.512695,4247.436035,4243.205078,4234.102539,4264.487305,4230.897461,4250.769043,4193.461426,4192.692383,3392.000000,4.000000,95.000000,,,,0.000000,4.000000,4.000000,4.000000,4.000000,4.000000,4.000000,4.000000,4.000000,4.000000,4.000000,4.000000,4.000000,4.000000,4.000000,100.000000,,,,,,,,,,,,,,,,
1645707275.005289,159.000000,0.000000,4251.025879,4272.563965,4243.717773,4243.333496,4241.794922,4242.820313,4246.153809,4241.538574,4233.589844,4265.000000,4226.282227,4246.282227,4183.846191,4195.897461,3454.000000,4.000000,95.000000,,,,0.000000,4.000000,4.000000,4.000000,4.000000,4.000000,4.000000,4.000000,4.000000,4.000000,4.000000,4.000000,4.000000,4.000000,4.000000,100.000000,,,,,,,,,,,,,,,,
1645707275.009229,160.000000,0.000000,4250.641113,4271.282227,4243.846191,4243.461426,4242.051270,4243.461426,4242.563965,4238.333496,4232.179688,4263.461426,4223.717773,4245.128418,4171.922852,4193.846191,3305.000000,4.000000,95.000000,,,,0.000000,4.000000,4.000000,4.000000,4.000000,4.000000,4.000000,4.000000,4.000000,4.000000,4.000000,4.000000,4.000000,4.000000,4.000000,100.000000,,,,,,,,,,,,,,,,
1645707275.013169,161.000000,0.000000,4249.102539,4270.641113,4246.794922,4243.974121,4240.897461,4246.025879,4239.615234,4237.307617,4231.794922,4260.384766,4223.333496,4246.410156,4163.205078,4184.871582,3188.000000,4.000000,95.000000,,,,0.000000,4.000000,4.000000,4.000000,4.000000,4.000000,4.000000,4.000000,4.000000,4.000000,4.000000,4.000000,4.000000,4.000000,4.000000,100.000000,,,,,,,,,,,,,,,,
1645707275.017109,162.000000,0.000000,4246.282227,4269.230957,4248.717773,4242.692383,4238.461426,4248.077148,4239.615234,4239.743652,4233.589844,4258.333496,4224.615234,4247.692383,4162.051270,4172.563965,3392.000000,4.000000,95.000000,,,,0.000000,4.000000,4.000000,4.000000,4.000000,4.000000,4.000000,4.000000,4.000000,4.000000,4.000000,4.000000,4.000000,4.000000,4.000000,100.000000,,,,,,,,,,,,,,,,
1645707275.021049,163.000000,0.000000,4243.717773,4266.538574,4247.179688,4239.487305,4236.666504,4248.846191,4242.051270,4243.461426,4237.051270,4260.384766,4227.179688,4247.307617,4168.717773,4163.846191,3454.000000,4.000000,95.000000,,,,0.000000,4.000000,4.000000,4.000000,4.000000,4.000000,4.000000,4.000000,4.000000,4.000000,4.000000,4.000000,4.000000,4.000000,4.000000,100.000000,,,,,,,,,,,,,,,,
1645707275.024989,164.000000,0.000000,4242.563965,4262.948730,4242.563965,4236.538574,4237.563965,4248.333496,4244.230957,4245.000000,4240.256348,4266.153809,4230.512695,4245.512695,4178.974121,4163.077148,3305.000000,4.000000,95.000000,,,,0.000000,4.000000,4.000000,4.000000,4.000000,4.000000,4.000000,4.000000,4.000000,4.000000,4.000000,4.000000,4.000000,4.000000,4.000000,100.000000,,,,,,,,,,,,,,,,
1645707275.028930,165.000000,0.000000,4242.307617,4259.615234,4238.333496,4235.512695,4240.256348,4247.436035,4245.128418,4243.589844,4242.307617,4271.282227,4232.436035,4243.846191,4186.666504,4169.102539,3188.000000,4.000000,95.000000,,,,0.000000,4.000000,4.000000,4.000000,4.000000,4.000000,4.000000,4.000000,4.000000,4.000000,4.000000,4.000000,4.000000,4.000000,4.000000,100.000000,,,,,,,,,,,,,,,,
1645707275.032870,166.000000,0.000000,4241.410156,4257.948730,4237.948730,4237.051270,4242.051270,4246.538574,4245.512695,4241.410156,4243.077148,4271.410156,4231.666504,4243.717773,4187.948730,4176.538574,3392.000000,4.000000,95.000000,,,,0.000000,4.000000,4.000000,4.000000,4.000000,4.000000,4.000000,4.000000,4.000000,4.000000,4.000000,4.000000,4.000000,4.000000,4.000000,100.000000,,,,,,,,,,,,,,,,
1645707275.036810,167.000000,0.000000,4239.743652,4259.487305,4242.051270,4240.384766,4241.538574,4247.051270,4247.051270,4241.282227,4243.589844,4266.666504,4229.230957,4245.512695,4184.871582,4180.512695,3454.000000,4.000000,95.000000,,,,0.000000,4.000000,4.000000,4.000000,4.000000,4.000000,4.000000,4.000000,4.000000,4.000000,4.000000,4.000000,4.000000,4.000000,4.000000,100.000000,,,,,,,,,,,,,,,,
1645707275.040650,168.000000,0.000000,4239.102539,4264.871582,4247.692383,4244.743652,4241.025879,4250.000000,4249.230957,4243.461426,4244.615234,4262.051270,4228.717773,4248.974121,4183.077148,4181.282227,3305.000000,4.000000,95.000000,,,,0.000000,4.000000,4.000000,4.000000,4.000000,4.000000,4.000000,4.000000,4.000000,4.000000,4.000000,4.000000,4.000000,4.000000,4.000000,100.000000,,,,,,,,,,,,,,,,
1645707275.044590,169.000000,0.000000,4241.282227,4272.307617,4252.436035,4248.717773,4243.205078,4254.358887,4250.641113,4246.538574,4246.025879,4262.307617,4232.563965,4253.461426,4186.794922,4183.077148,3188.000000,4.000000,95.000000,,,,0.000000,4.000000,4.000000,4.000000,4.000000,4.000000,4.000000,4.000000,4.000000,4.000000,4.000000,4.000000,4.000000,4.000000,4.000000,100.000000,,,,,,,,,,,,,,,,
1645707275.048530,170.000000,0.000000,4245.512695,4278.077148,4255.641113,4251.153809,4248.333496,4258.077148,4250.897461,4249.102539,4247.179688,4267.820313,4239.487305,4258.589844,4195.769043,4189.871582,3392.000000,4.000000,95.000000,,,,0.000000,4.000000,4.000000,4.000000,4.000000,4.000000,4.000000,4.000000,4.000000,4.000000,4.000000,4.000000,4.000000,4.000000,4.000000,100.000000,,,,,,,,,,,,,,,,
1645707275.052470,171.000000,0.000000,4250.000000,4279.487305,4258.333496,4250.641113,4253.333496,4259.230957,4250.897461,4250.769043,4247.563965,4275.128418,4246.025879,4263.333496,4205.641113,4200.769043,3454.000000,4.000000,95.000000,,,,0.000000,4.000000,4.000000,4.000000,4.000000,4.000000,4.000000,4.000000,4.000000,4.000000,4.000000,4.000000,4.000000,4.000000,4.000000,100.000000,,,,,,,,,,,,,,,,
1645707275.056410,172.000000,0.000000,4254.230957,4277.179688,4260.897461,4248.205078,4254.358887,4258.077148,4251.666504,4251.794922,4247.563965,4280.128418,4249.487305,4266.282227,4212.563965,4210.769043,3305.000000,4.000000,95.000000,,,,0.000000,4.000000,4.000000,4.000000,4.000000,4.000000,4.000000,4.000000,4.000000,4.000000,4.000000,4.000000,4.000000,4.000000,4.000000,100.000000,,,,,,,,,,,,,,,,
1645707275.060350,173.000000,0.000000,4259.487305,4274.615234,4263.589844,4246.666504,4251.282227,4256.794922,4252.563965,4251.538574,4247.948730,4281.410156,4250.512695,4266.922852,4214.615234,4213.974121,3188.000000,4.000000,95.000000,,,,0.000000,4.000000,4.000000,4.000000,4.000000,4.000000,4.000000,4.000000,4.000000,4.000000,4.000000,4.000000,4.000000,4.000000,4.000000,100.000000,,,,,,,,,,,,,,,,
1645707275.064291,174.000000,0.000000,4266.282227,4273.974121,4265.384766,4248.205078,4246.410156,4256.666504,4252.307617,4249.358887,4248.589844,4280.384766,4250.897461,4266.153809,4211.666504,4207.179688,3392.000000,4.000000,95.000000,,,,0.000000,4.000000,4.000000,4.000000,4.000000,4.000000,4.000000,4.000000,4.000000,4.000000,4.000000,4.000000,4.000000,4.000000,4.000000,100.000000,,,,,,,,,,,,,,,,
1645707275.068231,175.000000,0.000000,4271.282227,4274.230957,4265.384766,4252.563965,4242.948730,4256.922852,4250.256348,4245.256348,4249.102539,4278.333496,4250.384766,4265.384766,4204.615234,4193.461426,3454.000000,4.000000,95.000000,,,,0.000000,4.000000,4.000000,4.000000,4.000000,4.000000,4.000000,4.000000,4.000000,4.000000,4.000000,4.000000,4.000000,4.000000,4.000000,100.000000,,,,,,,,,,,,,,,,
1645707275.072171,176.000000,0.000000,4269.615234,4272.692383,4262.563965,4256.410156,4242.307617,4255.897461,4248.205078,4241.153809,4248.205078,4275.512695,4247.563965,4265.000000,4195.256348,4180.641113,3305.000000,4.000000,95.000000,,,,0.000000,4.000000,4.000000,4.000000,4.000000,4.000000,4.000000,4.000000,4.000000,4.000000,4.000000,4.000000,4.000000,4.000000,4.000000,100.000000,,,,,,,,,,,,,,,,
1645707275.076111,177.000000,0.000000,4260.256348,4268.974121,4257.051270,4256.538574,4244.743652,4253.333496,4247.563965,4238.589844,4245.384766,4271.666504,4241.666504,4263.846191,4187.307617,4176.794922,3188.000000,4.000000,95.000000,,,,0.000000,4.000000,4.000000,4.000000,4.000000,4.000000,4.000000,4.000000,4.000000,4.000000,4.000000,4.000000,4.000000,4.000000,4.000000,100.000000,,,,,,,,,,,,,,,,
1645707275.080051,178.000000,0.000000,4248.205078,4265.128418,4250.128418,4252.948730,4248.974121,4251.153809,4247.692383,4237.948730,4241.282227,4267.436035,4234.743652,4260.897461,4184.615234,4183.205078,3392.000000,4.000000,95.000000,,,,0.000000,4.000000,4.000000,4.000000,4.000000,4.000000,4.000000,4.000000,4.000000,4.000000,4.000000,4.000000,4.000000,4.000000,4.000000,100.000000,,,,,,,,,,,,,,,,
1645707275.083991,179.000000,0.000000,4240.384766,4264.487305,4244.230957,4248.589844,4252.436035,4250.897461,4246.922852,4238.077148,4237.820313,4264.230957,4230.256348,4256.410156,4187.948730,4193.333496,3454.000000,4.000000,95.000000,,,,0.000000,4.000000,4.000000,4.000000,4.000000,4.000000,4.000000,4.000000,4.000000,4.000000,4.000000,4.000000,4.000000,4.000000,4.000000,100.000000,,,,,,,,,,,,,,,,
1645707275.087931,180.000000,0.000000,4240.769043,4266.922852,4241.666504,4246.794922,4252.179688,4251.538574,4244.230957,4238.205078,4236.282227,4262.051270,4230.256348,4251.666504,4193.846191,4198.077148,3305.000000,4.000000,95.000000,,,,0.000000,4.000000,4.000000,4.000000,4.000000,4.000000,4.000000,4.000000,4.000000,4.000000,4.000000,4.000000,4.000000,4.000000,4.000000,100.000000,,,,,,,,,,,,,,,,
1645707275.091871,181.000000,0.000000,4247.051270,4269.102539,4243.077148,4248.205078,4247.436035,4250.641113,4240.897461,4237.692383,4236.153809,4260.256348,4233.589844,4248.461426,4197.563965,4193.461426,3188.000000,4.000000,95.000000,,,,0.000000,4.000000,4.000000,4.000000,4.000000,4.000000,4.000000,4.000000,4.000000,4.000000,4.000000,4.000000,4.000000,4.000000,4.000000,100.000000,,,,,,,,,,,,,,,,
1645707275.095811,182.000000,0.000000,4253.974121,4268.333496,4246.794922,4251.025879,4241.025879,4246.922852,4238.461426,4236.538574,4235.897461,4258.717773,4237.179688,4247.436035,4197.179688,4183.717773,3392.000000,4.000000,95.000000,,,,0.000000,4.000000,4.000000,4.000000,4.000000,4.000000,4.000000,4.000000,4.000000,4.000000,4.000000,4.000000,4.000000,4.000000,4.000000,100.000000,,,,,,,,,,,,,,,,
1645707275.099752,183.000000,0.000000,4256.538574,4265.384766,4249.615234,4252.692383,4237.436035,4242.563965,4237.820313,4234.487305,4234.871582,4259.102539,4238.846191,4248.205078,4194.615234,4177.179688,3454.000000,4.000000,95.000000,,,,0.000000,4.000000,4.000000,4.000000,4.000000,4.000000,4.000000,4.000000,4.000000,4.000000,4.000000,4.000000,4.000000,4.000000,4.000000,100.000000,,,,,,,,,,,,,,,,
1645707275.103792,184.000000,0.000000,4253.077148,4262.692383,4248.974121,4251.794922,4239.358887,4240.769043,4238.333496,4232.563965,4233.974121,4262.436035,4238.461426,4249.487305,4193.333496,4179.487305,3305.000000,4.000000,95.000000,,,,0.000000,4.000000,4.000000,4.000000,4.000000,4.000000,4.000000,4.000000,4.000000,4.000000,4.000000,4.000000,4.000000,4.000000,4.000000,100.000000,,,,,,,,,,,,,,,,
1645707275.107732,185.000000,0.000000,4245.256348,4261.794922,4245.769043,4248.974121,4244.871582,4243.205078,4239.487305,4232.051270,4234.743652,4267.307617,4236.410156,4250.000000,4193.846191,4187.948730,3188.000000,4.000000,95.000000,,,,0.000000,4.000000,4.000000,4.000000,4.000000,4.000000,4.000000,4.000000,4.000000,4.000000,4.000000,4.000000,4.000000,4.000000,4.000000,100.000000,,,,,,,,,,,,,,,,
1645707275.111672,186.000000,0.000000,4236.153809,4261.666504,4242.563965,4246.025879,4249.230957,4247.948730,4241.282227,4233.974121,4237.179688,4270.000000,4233.974121,4249.102539,4193.974121,4194.871582,3392.000000,4.000000,95.000000,,,,0.000000,4.000000,4.000000,4.000000,4.000000,4.000000,4.000000,4.000000,4.000000,4.000000,4.000000,4.000000,4.000000,4.000000,4.000000,100.000000,,,,,,,,,,,,,,,,
1645707275.115712,187.000000,0.000000,4230.000000,4261.282227,4241.153809,4244.743652,4249.487305,4251.666504,4243.717773,4237.563965,4239.487305,4268.717773,4232.051270,4247.179688,4191.666504,4194.743652,3454.000000,4.000000,95.000000,,,,0.000000,4.000000,4.000000,4.000000,4.000000,4.000000,4.000000,4.000000,4.000000,4.000000,4.000000,4.000000,4.000000,4.000000,4.000000,100.000000,,,,,,,,,,,,,,,,
1645707275.119652,188.000000,0.000000,4229.487305,4261.153809,4240.769043,4245.512695,4246.282227,4252.179688,4245.256348,4241.282227,4239.615234,4265.769043,4230.897461,4245.384766,4187.692383,4189.743652,3305.000000,4.000000,95.000000,,,,0.000000,4.000000,4.000000,4.000000,4.000000,4.000000,4.000000,4.000000,4.000000,4.000000,4.000000,4.000000,4.000000,4.000000,4.000000,100.000000,,,,,,,,,,,,,,,,
1645707275.123592,189.000000,0.000000,4234.358887,4262.307617,4239.615234,4246.666504,4243.205078,4249.871582,4243.846191,4243.461426,4238.077148,4265.256348,4230.128418,4245.128418,4184.487305,4185.897461,3188.000000,4.000000,95.000000,,,,0.000000,4.000000,4.000000,4.000000,4.000000,4.000000,4.000000,4.000000,4.000000,4.000000,4.000000,4.000000,4.000000,4.000000,4.000000,100.000000,,,,,,,,,,,,,,,,
1645707275.127532,190.000000,0.000000,4241.153809,4263.461426,4236.794922,4246.025879,4241.922852,4245.769043,4239.871582,4243.333496,4236.794922,4268.589844,4228.077148,4245.769043,4183.077148,4186.538574,3392.000000,4.000000,95.000000,,,,0.000000,4.000000,4.000000,4.000000,4.000000,4.000000,4.000000,4.000000,4.000000,4.000000,4.000000,4.000000,4.000000,4.000000,4.000000,100.000000,,,,,,,,,,,,,,,,
1645707275.131472,191.000000,0.000000,4244.743652,4261.666504,4233.077148,4242.436035,4241.153809,4241.410156,4236.153809,4241.922852,4237.179688,4272.307617,4224.102539,4245.384766,4182.307617,4188.205078,3454.000000,4.000000,95.000000,,,,0.000000,4.000000,4.000000,4.000000,4.000000,4.000000,4.000000,4.000000,4.000000,4.000000,4.000000,4.000000,4.000000,4.000000,4.000000,100.000000,,,,,,,,,,,,,,,,
1645707275.135412,192.000000,0.000000,4242.179688,4255.512695,4230.000000,4237.051270,4238.717773,4237.948730,4235.769043,4240.512695,4237.948730,4272.307617,4218.974121,4242.948730,4180.384766,4185.128418,3305.000000,4.000000,95.000000,,,,0.000000,4.000000,4.000000,4.000000,4.000000,4.000000,4.000000,4.000000,4.000000,4.000000,4.000000,4.000000,4.000000,4.000000,4.000000,100.000000,,,,,,,,,,,,,,,,
1645707275.139352,193.000000,0.000000,4234.743652,4247.820313,4228.717773,4231.922852,4234.615234,4236.410156,4238.589844,4240.256348,4238.077148,4268.589844,4215.384766,4240.256348,4177.436035,4175.769043,3188.000000,4.000000,95.000000,,,,0.000000,4.000000,4.000000,4.000000,4.000000,4.000000,4.000000,4.000000,4.000000,4.000000,4.000000,4.000000,4.000000,4.000000,4.000000,100.000000,,,,,,,,,,,,,,,,
1645707275.143392,194.000000,0.000000,4227.307617,4243.589844,4229.487305,4228.589844,4231.538574,4237.563965,4242.307617,4241.282227,4237.692383,4264.743652,4215.769043,4240.000000,4175.769043,4164.615234,3392.000000,4.000000,95.000000,,,,0.000000,4.000000,4.000000,4.000000,4.000000,4.000000,4.000000,4.000000,4.000000,4.000000,4.000000,4.000000,4.000000,4.000000,4.000000,100.000000,,,,,,,,,,,,,,,,
1645707275.147332,195.000000,0.000000,4224.102539,4246.025879,4231.282227,4227.179688,4230.897461,4240.128418,4244.615234,4243.077148,4237.948730,4264.871582,4219.615234,4242.948730,4177.179688,4158.846191,3454.000000,4.000000,95.000000,,,,0.000000,4.000000,4.000000,4.000000,4.000000,4.000000,4.000000,4.000000,4.000000,4.000000,4.000000,4.000000,4.000000,4.000000,4.000000,100.000000,,,,,,,,,,,,,,,,
1645707275.151273,196.000000,0.000000,4225.256348,4252.436035,4231.794922,4227.307617,4231.153809,4242.563965,4245.769043,4244.871582,4239.230957,4268.205078,4223.846191,4246.794922,4180.897461,4161.922852,3305.000000,4.000000,95.000000,,,,0.000000,4.000000,4.000000,4.000000,4.000000,4.000000,4.000000,4.000000,4.000000,4.000000,4.000000,4.000000,4.000000,4.000000,4.000000,100.000000,,,,,,,,,,,,,,,,
1645707275.155213,197.000000,0.000000,4227.820313,4257.436035,4229.358887,4228.333496,4229.358887,4243.717773,4246.794922,4245.641113,4240.641113,4270.512695,4225.256348,4247.948730,4183.077148,4170.512695,3188.000000,4.000000,95.000000,,,,0.000000,4.000000,4.000000,4.000000,4.000000,4.000000,4.000000,4.000000,4.000000,4.000000,4.000000,4.000000,4.000000,4.000000,4.000000,100.000000,,,,,,,,,,,,,,,,
1645707275.159153,198.000000,0.000000,4227.692383,4256.794922,4223.205078,4229.230957,4224.871582,4243.589844,4247.051270,4244.358887,4240.641113,4267.820313,4223.205078,4244.487305,4181.410156,4177.692383,3392.000000,4.000000,95.000000,,,,0.000000,4.000000,4.000000,4.000000,4.000000,4.000000,4.000000,4.000000,4.000000,4.000000,4.000000,4.000000,4.000000,4.000000,4.000000,100.000000,,,,,,,,,,,,,,,,
1645707275.163093,199.000000,0.000000,4223.461426,4250.897461,4215.128418,4228.846191,4220.897461,4243.077148,4245.384766,4241.538574,4239.871582,4261.025879,4220.000000,4237.820313,4176.666504,4178.205078,3454.000000,4.000000,95.000000,,,,0.000000,4.000000,4.000000,4.000000,4.000000,4.000000,4.000000,4.000000,4.000000,4.000000,4.000000,4.000000,4.000000,4.000000,4.000000,100.000000,,,,,,,,,,,,,,,,
1645707275.167033,200.000000,0.000000,4217.307617,4243.846191,4208.717773,4226.282227,4220.512695,4242.307617,4242.563965,4239.871582,4239.871582,4255.128418,4217.820313,4231.282227,4172.436035,4171.922852,3305.000000,4.000000,95.000000,,,,0.000000,4.000000,4.000000,4.000000,4.000000,4.000000,4.000000,4.000000,4.000000,4.000000,4.000000,4.000000,4.000000,4.000000,4.000000,100.000000,,,,,,,,,,,,,,,,
1645707275.170973,201.000000,0.000000,4213.205078,4239.487305,4207.692383,4222.436035,4223.846191,4240.769043,4241.153809,4242.307617,4241.666504,4255.256348,4217.563965,4227.820313,4172.051270,4163.205078,3188.000000,4.000000,95.000000,,,,0.000000,4.000000,4.000000,4.000000,4.000000,4.000000,4.000000,4.000000,4.000000,4.000000,4.000000,4.000000,4.000000,4.000000,4.000000,100.000000,,,,,,,,,,,,,,,,
1645707275.174913,202.000000,0.000000,4214.102539,4239.871582,4212.563965,4219.871582,4227.948730,4238.974121,4243.077148,4249.230957,4244.487305,4262.563965,4218.974121,4228.461426,4175.128418,4158.333496,3392.000000,4.000000,95.000000,,,,0.000000,4.000000,4.000000,4.000000,4.000000,4.000000,4.000000,4.000000,4.000000,4.000000,4.000000,4.000000,4.000000,4.000000,4.000000,100.000000,,,,,,,,,,,,,,,,
1645707275.178853,203.000000,0.000000,4219.871582,4243.333496,4220.128418,4221.025879,4229.358887,4238.589844,4247.692383,4256.794922,4246.922852,4272.692383,4222.179688,4231.538574,4178.717773,4161.025879,3454.000000,4.000000,95.000000,,,,0.000000,4.000000,4.000000,4.000000,4.000000,4.000000,4.000000,4.000000,4.000000,4.000000,4.000000,4.000000,4.000000,4.000000,4.000000,100.000000,,,,,,,,,,,,,,,,
1645707275.182793,204.000000,0.000000,4227.948730,4245.897461,4225.897461,4225.769043,4227.820313,4240.769043,4251.538574,4259.743652,4247.948730,4278.846191,4226.794922,4234.358887,4180.256348,4170.769043,3305.000000,4.000000,95.000000,,,,0.000000,4.000000,4.000000,4.000000,4.000000,4.000000,4.000000,4.000000,4.000000,4.000000,4.000000,4.000000,4.000000,4.000000,4.000000,100.000000,,,,,,,,,,,,,,,,
1645707275.186734,205.000000,0.000000,4234.102539,4245.512695,4226.922852,4231.282227,4226.025879,4244.230957,4251.153809,4255.384766,4246.538574,4276.922852,4231.282227,4235.897461,4179.358887,4181.794922,3188.000000,4.000000,95.000000,,,,0.000000,4.000000,4.000000,4.000000,4.000000,4.000000,4.000000,4.000000,4.000000,4.000000,4.000000,4.000000,4.000000,4.000000,4.000000,100.000000,,,,,,,,,,,,,,,,
1645707275.190674,206.000000,0.000000,4235.000000,4243.077148,4223.717773,4233.333496,4226.025879,4245.769043,4246.794922,4246.153809,4242.692383,4268.461426,4232.948730,4236.410156,4178.205078,4186.794922,3392.000000,4.000000,95.000000,,,,0.000000,4.000000,4.000000,4.000000,4.000000,4.000000,4.000000,4.000000,4.000000,4.000000,4.000000,4.000000,4.000000,4.000000,4.000000,100.000000,,,,,,,,,,,,,,,,
1645707275.194614,207.000000,0.000000,4229.615234,4242.307617,4218.717773,4230.000000,4227.307617,4242.948730,4241.538574,4237.820313,4237.692383,4259.743652,4230.256348,4236.538574,4178.589844,4182.436035,3454.000000,4.000000,95.000000,,,,0.000000,4.000000,4.000000,4.000000,4.000000,4.000000,4.000000,4.000000,4.000000,4.000000,4.000000,4.000000,4.000000,4.000000,4.000000,100.000000,,,,,,,,,,,,,,,,
1645707275.198554,208.000000,0.000000,4221.538574,4245.384766,4214.102539,4223.333496,4227.820313,4237.307617,4238.333496,4234.615234,4233.974121,4256.666504,4224.358887,4235.897461,4180.897461,4172.051270,3305.000000,4.000000,95.000000,,,,0.000000,4.000000,4.000000,4.000000,4.000000,4.000000,4.000000,4.000000,4.000000,4.000000,4.000000,4.000000,4.000000,4.000000,4.000000,100.000000,,,,,,,,,,,,,,,,
1645707275.202494,209.000000,0.000000,4216.025879,4251.282227,4210.897461,4218.333496,4226.153809,4232.820313,4237.692383,4236.794922,4233.974121,4261.410156,4219.615234,4233.974121,4184.102539,4163.717773,3188.000000,4.000000,95.000000,,,,0.000000,4.000000,4.000000,4.000000,4.000000,4.000000,4.000000,4.000000,4.000000,4.000000,4.000000,4.000000,4.000000,4.000000,4.000000,100.000000,,,,,,,,,,,,,,,,
1645707275.206434,210.000000,0.000000,4216.922852,4256.153809,4209.615234,4219.615234,4222.948730,4232.820313,4238.589844,4241.025879,4237.820313,4270.512695,4219.487305,4231.538574,4185.769043,4163.333496,3392.000000,4.000000,95.000000,,,,0.000000,4.000000,4.000000,4.000000,4.000000,4.000000,4.000000,4.000000,4.000000,4.000000,4.000000,4.000000,4.000000,4.000000,4.000000,100.000000,,,,,,,,,,,,,,,,
1645707275.210374,211.000000,0.000000,4223.589844,4256.538574,4210.256348,4227.436035,4220.384766,4237.179688,4239.871582,4244.615234,4242.948730,4278.205078,4224.230957,4230.512695,4184.615234,4171.410156,3454.000000,4.000000,95.000000,,,,0.000000,4.000000,4.000000,4.000000,4.000000,4.000000,4.000000,4.000000,4.000000,4.000000,4.000000,4.000000,4.000000,4.000000,4.000000,100.000000,,,,,,,,,,,,,,,,
1645707275.214414,212.000000,0.000000,4231.666504,4252.563965,4212.692383,4237.179688,4220.000000,4242.563965,4241.025879,4246.666504,4246.025879,4280.641113,4230.897461,4232.820313,4181.153809,4182.820313,3305.000000,4.000000,95.000000,,,,0.000000,4.000000,4.000000,4.000000,4.000000,4.000000,4.000000,4.000000,4.000000,4.000000,4.000000,4.000000,4.000000,4.000000,4.000000,100.000000,,,,,,,,,,,,,,,,
1645707275.218354,213.000000,0.000000,4236.410156,4247.436035,4215.641113,4242.563965,4222.563965,4245.769043,4241.922852,4247.563965,4246.153809,4277.820313,4235.641113,4238.077148,4177.436035,4190.256348,3188.000000,4.000000,95.000000,,,,0.000000,4.000000,4.000000,4.000000,4.000000,4.000000,4.000000,4.000000,4.000000,4.000000,4.000000,4.000000,4.000000,4.000000,4.000000,100.000000,,,,,,,,,,,,,,,,
1645707275.222294,214.000000,0.000000,4236.410156,4244.871582,4217.692383,4239.871582,4226.922852,4245.512695,4241.794922,4247.563965,4244.487305,4272.563965,4236.922852,4243.205078,4176.025879,4189.615234,3392.000000,4.000000,95.000000,,,,0.000000,4.000000,4.000000,4.000000,4.000000,4.000000,4.000000,4.000000,4.000000,4.000000,4.000000,4.000000,4.000000,4.000000,4.000000,100.000000,,,,,,,,,,,,,,,,
1645707275.226234,215.000000,0.000000,4232.563965,4245.641113,4217.948730,4231.153809,4230.384766,4243.461426,4241.282227,4246.666504,4242.820313,4268.205078,4234.871582,4244.743652,4177.051270,4182.307617,3454.000000,4.000000,95.000000,,,,0.000000,4.000000,4.000000,4.000000,4.000000,4.000000,4.000000,4.000000,4.000000,4.000000,4.000000,4.000000,4.000000,4.000000,4.000000,100.000000,,,,,,,,,,,,,,,,
1645707275.230175,216.000000,0.000000,4227.436035,4247.692383,4217.179688,4222.307617,4230.769043,4241.666504,4241.282227,4245.128418,4241.666504,4265.641113,4230.641113,4241.282227,4178.461426,4174.230957,3305.000000,4.000000,95.000000,,,,0.000000,4.000000,4.000000,4.000000,4.000000,4.000000,4.000000,4.000000,4.000000,4.000000,4.000000,4.000000,4.000000,4.000000,4.000000,100.000000,,,,,,,,,,,,,,,,
1645707275.234115,217.000000,0.000000,4223.589844,4248.974121,4216.410156,4218.589844,4228.461426,4241.666504,4242.436035,4243.589844,4240.897461,4264.487305,4225.256348,4235.512695,4177.948730,4171.025879,3188.000000,4.000000,95.000000,,,,0.000000,4.000000,4.000000,4.000000,4.000000,4.000000,4.000000,4.000000,4.000000,4.000000,4.000000,4.000000,4.000000,4.000000,4.000000,100.000000,,,,,,,,,,,,,,,,
1645707275.238055,218.000000,0.000000,4222.820313,4249.615234,4216.410156,4222.179688,4226.666504,4242.820313,4243.461426,4242.179688,4240.000000,4264.487305,4220.256348,4230.641113,4175.769043,4173.846191,3392.000000,4.000000,95.000000,,,,0.000000,4.000000,4.000000,4.000000,4.000000,4.000000,4.000000,4.000000,4.000000,4.000000,4.000000,4.000000,4.000000,4.000000,4.000000,100.000000,,,,,,,,,,,,,,,,
1645707275.241995,219.000000,0.000000,4226.025879,4251.282227,4217.179688,4230.384766,4227.820313,4243.589844,4242.307617,4239.743652,4238.717773,4265.641113,4217.692383,4229.487305,4174.358887,4178.846191,3454.000000,4.000000,95.000000,,,,0.000000,4.000000,4.000000,4.000000,4.000000,4.000000,4.000000,4.000000,4.000000,4.000000,4.000000,4.000000,4.000000,4.000000,4.000000,100.000000,,,,,,,,,,,,,,,,
1645707275.245935,220.000000,0.000000,4231.666504,4255.256348,4218.589844,4238.461426,4231.282227,4243.205078,4238.974121,4236.025879,4236.666504,4266.922852,4218.717773,4231.922852,4175.897461,4180.641113,3305.000000,4.000000,95.000000,,,,0.000000,4.000000,4.000000,4.000000,4.000000,4.000000,4.000000,4.000000,4.000000,4.000000,4.000000,4.000000,4.000000,4.000000,4.000000,100.000000,,,,,,,,,,,,,,,,
1645707275.249875,221.000000,0.000000,4236.794922,4259.615234,4221.025879,4242.436035,4233.589844,4241.666504,4235.641113,4232.820313,4234.358887,4266.410156,4222.436035,4236.922852,4179.871582,4176.538574,3188.000000,4.000000,95.000000,,,,0.000000,4.000000,4.000000,4.000000,4.000000,4.000000,4.000000,4.000000,4.000000,4.000000,4.000000,4.000000,4.000000,4.000000,4.000000,100.000000,,,,,,,,,,,,,,,,
1645707275.253815,222.000000,0.000000,4238.846191,4260.897461,4223.846191,4241.282227,4232.051270,4239.230957,4235.128418,4232.179688,4232.948730,4263.077148,4225.897461,4242.563965,4183.461426,4169.743652,3392.000000,4.000000,95.000000,,,,0.000000,4.000000,4.000000,4.000000,4.000000,4.000000,4.000000,4.000000,4.000000,4.000000,4.000000,4.000000,4.000000,4.000000,4.000000,100.000000,,,,,,,,,,,,,,,,
1645707275.257755,223.000000,0.000000,4237.436035,4257.692383,4225.769043,4237.179688,4227.563965,4236.410156,4237.179688,4233.846191,4233.589844,4258.717773,4226.410156,4246.666504,4185.000000,4167.436035,3454.000000,4.000000,95.000000,,,,0.000000,4.000000,4.000000,4.000000,4.000000,4.000000,4.000000,4.000000,4.000000,4.000000,4.000000,4.000000,4.000000,4.000000,4.000000,100.000000,,,,,,,,,,,,,,,,
1645707275.261695,224.000000,0.000000,4235.128418,4251.538574,4225.897461,4233.846191,4223.589844,4233.461426,4238.589844,4235.384766,4235.769043,4256.410156,4223.717773,4247.948730,4185.128418,4174.871582,3305.000000,4.000000,95.000000,,,,0.000000,4.000000,4.000000,4.000000,4.000000,4.000000,4.000000,4.000000,4.000000,4.000000,4.000000,4.000000,4.000000,4.000000,4.000000,100.000000,,,,,,,,,,,,,,,,
1645707275.265636,225.000000,0.000000,4234.487305,4245.641113,4224.743652,4232.179688,4222.179688,4230.897461,4236.538574,4233.974121,4237.563965,4257.436035,4220.128418,4246.666504,4185.641113,4190.256348,3188.000000,4.000000,95.000000,,,,0.000000,4.000000,4.000000,4.000000,4.000000,4.000000,4.000000,4.000000,4.000000,4.000000,4.000000,4.000000,4.000000,4.000000,4.000000,100.000000,,,,,,,,,,,,,,,,
1645707275.269576,226.000000,0.000000,4235.000000,4242.307617,4223.461426,4230.256348,4222.692383,4229.102539,4232.179688,4230.256348,4237.051270,4258.846191,4218.717773,4245.128418,4187.051270,4204.102539,3392.000000,4.000000,95.000000,,,,0.000000,4.000000,4.000000,4.000000,4.000000,4.000000,4.000000,4.000000,4.000000,4.000000,4.000000,4.000000,4.000000,4.000000,4.000000,100.000000,,,,,,,,,,,,,,,,
1645707275.273516,227.000000,0.000000,4234.615234,4241.666504,4222.948730,4224.871582,4222.563965,4228.205078,4229.487305,4227.179688,4234.230957,4257.051270,4220.128418,4245.256348,4187.820313,4206.282227,3454.000000,4.000000,95.000000,,,,0.000000,4.000000,4.000000,4.000000,4.000000,4.000000,4.000000,4.000000,4.000000,4.000000,4.000000,4.000000,4.000000,4.000000,4.000000,100.000000,,,,,,,,,,,,,,,,
1645707275.277356,228.000000,0.000000,4231.794922,4242.307617,4222.307617,4216.410156,4220.897461,4228.974121,4231.282227,4226.794922,4231.025879,4252.820313,4223.205078,4247.051270,4187.307617,4194.230957,3305.000000,4.000000,95.000000,,,,0.000000,4.000000,4.000000,4.000000,4.000000,4.000000,4.000000,4.000000,4.000000,4.000000,4.000000,4.000000,4.000000,4.000000,4.000000,100.000000,1.000000,83.333336,4.000000,4.000000,4.000000,4.000000,4.000000,4.000000,4.000000,4.000000,2.000000,4.000000,4.000000,4.000000,4.000000,4.000000
1645707275.281296,229.000000,0.000000,4227.563965,4242.820313,4220.000000,4209.358887,4219.615234,4232.051270,4235.769043,4228.589844,4229.615234,4250.641113,4225.769043,4248.205078,4186.025879,4175.641113,3188.000000,4.000000,95.000000,,,,0.000000,4.000000,4.000000,4.000000,4.000000,4.000000,4.000000,4.000000,4.000000,4.000000,4.000000,4.000000,4.000000,4.000000,4.000000,100.000000,,,,,,,,,,,,,,,,
1645707275.285236,230.000000,0.000000,4223.717773,4242.563965,4215.769043,4208.205078,4219.871582,4236.282227,4238.846191,4230.641113,4231.025879,4254.487305,4226.153809,4246.410156,4184.615234,4162.307617,3392.000000,4.000000,95.000000,,,,0.000000,4.000000,4.000000,4.000000,4.000000,4.000000,4.000000,4.000000,4.000000,4.000000,4.000000,4.000000,4.000000,4.000000,4.000000,100.000000,,,,,,,,,,,,,,,,
1645707275.289176,231.000000,0.000000,4221.666504,4240.897461,4211.410156,4212.948730,4221.025879,4238.974121,4238.846191,4231.666504,4233.974121,4262.436035,4223.717773,4240.641113,4182.563965,4160.769043,3454.000000,4.000000,95.000000,,,,0.000000,4.000000,4.000000,4.000000,4.000000,4.000000,4.000000,4.000000,4.000000,4.000000,4.000000,4.000000,4.000000,4.000000,4.000000,100.000000,,,,,,,,,,,,,,,,
1645707275.293116,232.000000,0.000000,4221.153809,4238.333496,4208.846191,4218.846191,4221.153809,4238.205078,4237.179688,4232.307617,4236.794922,4268.846191,4218.974121,4232.436035,4178.589844,4168.333496,3305.000000,4.000000,95.000000,,,,0.000000,4.000000,4.000000,4.000000,4.000000,4.000000,4.000000,4.000000,4.000000,4.000000,4.000000,4.000000,4.000000,4.000000,4.000000,100.000000,,,,,,,,,,,,,,,,
1645707275.296957,233.000000,0.000000,4221.794922,4236.282227,4208.846191,4221.153809,4219.615234,4234.358887,4236.538574,4233.717773,4238.589844,4269.230957,4213.974121,4225.384766,4173.974121,4176.794922,3188.000000,4.000000,95.000000,,,,0.000000,4.000000,4.000000,4.000000,4.000000,4.000000,4.000000,4.000000,4.000000,4.000000,4.000000,4.000000,4.000000,4.000000,4.000000,100.000000,,,,,,,,,,,,,,,,
1645707275.300897,234.000000,0.000000,4223.205078,4236.153809,4209.871582,4219.358887,4218.077148,4230.641113,4237.051270,4235.769043,4239.230957,4265.000000,4211.025879,4222.692383,4171.538574,4179.743652,3392.000000,4.000000,95.000000,,,,0.000000,4.000000,4.000000,4.000000,4.000000,4.000000,4.000000,4.000000,4.000000,4.000000,4.000000,4.000000,4.000000,4.000000,4.000000,100.000000,,,,,,,,,,,,,,,,
1645707275.304837,235.000000,0.000000,4224.871582,4237.179688,4210.512695,4216.282227,4218.205078,4230.641113,4237.436035,4237.436035,4238.717773,4260.769043,4211.025879,4225.000000,4172.820313,4176.666504,3454.000000,4.000000,95.000000,,,,0.000000,4.000000,4.000000,4.000000,4.000000,4.000000,4.000000,4.000000,4.000000,4.000000,4.000000,4.000000,4.000000,4.000000,4.000000,100.000000,,,,,,,,,,,,,,,,
1645707275.308777,236.000000,0.000000,4225.000000,4237.436035,4210.512695,4214.487305,4219.615234,4234.871582,4237.051270,4237.436035,4236.922852,4258.846191,4211.922852,4229.871582,4176.025879,4171.538574,3305.000000,4.000000,95.000000,,,,0.000000,4.000000,4.000000,4.000000,4.000000,4.000000,4.000000,4.000000,4.000000,4.000000,4.000000,4.000000,4.000000,4.000000,4.000000,100.000000,,,,,,,,,,,,,,,,
1645707275.312717,237.000000,0.000000,4222.436035,4235.897461,4210.384766,4213.717773,4220.641113,4239.487305,4236.666504,4235.128418,4234.230957,4258.077148,4210.641113,4233.589844,4176.153809,4168.717773,3188.000000,4.000000,95.000000,,,,0.000000,4.000000,4.000000,4.000000,4.000000,4.000000,4.000000,4.000000,4.000000,4.000000,4.000000,4.000000,4.000000,4.000000,4.000000,100.000000,,,,,,,,,,,,,,,,
1645707275.316657,238.000000,0.000000,4218.077148,4233.974121,4210.000000,4212.820313,4221.282227,4240.769043,4237.051270,4230.897461,4231.666504,4256.025879,4206.922852,4233.846191,4170.641113,4170.512695,3392.000000,4.000000,95.000000,,,,0.000000,4.000000,4.000000,4.000000,4.000000,4.000000,4.000000,4.000000,4.000000,4.000000,4.000000,4.000000,4.000000,4.000000,4.000000,100.000000,,,,,,,,,,,,,,,,
1645707275.320597,239.000000,0.000000,4214.743652,4233.974121,4209.358887,4211.282227,4222.820313,4237.563965,4237.307617,4225.897461,4230.384766,4252.563965,4203.974121,4231.153809,4161.922852,4174.743652,3454.000000,4.000000,95.000000,,,,0.000000,4.000000,4.000000,4.000000,4.000000,4.000000,4.000000,4.000000,4.000000,4.000000,4.000000,4.000000,4.000000,4.000000,4.000000,100.000000,,,,,,,,,,,,,,,,
1645707275.324537,240.000000,0.000000,4214.358887,4236.538574,4208.717773,4210.512695,4226.410156,4232.563965,4236.153809,4222.051270,4231.025879,4249.871582,4205.000000,4228.333496,4155.769043,4177.307617,3305.000000,4.000000,95.000000,,,,0.000000,4.000000,4.000000,4.000000,4.000000,4.000000,4.000000,4.000000,4.000000,4.000000,4.000000,4.000000,4.000000,4.000000,4.000000,100.000000,,,,,,,,,,,,,,,,
1645707275.328477,241.000000,0.000000,4216.538574,4239.871582,4209.230957,4211.410156,4230.769043,4228.974121,4233.717773,4221.410156,4233.077148,4250.512695,4209.358887,4229.102539,4156.282227,4175.000000,3188.000000,4.000000,95.000000,,,,0.000000,4.000000,4.000000,4.000000,4.000000,4.000000,4.000000,4.000000,4.000000,4.000000,4.000000,4.000000,4.000000,4.000000,4.000000,100.000000,,,,,,,,,,,,,,,,
1645707275.332517,242.000000,0.000000,4219.102539,4241.538574,4211.538574,4213.974121,4233.205078,4228.077148,4232.051270,4224.487305,4234.871582,4255.000000,4212.820313,4234.102539,4162.948730,4168.974121,3392.000000,4.000000,95.000000,,,,0.000000,4.000000,4.000000,4.000000,4.000000,4.000000,4.000000,4.000000,4.000000,4.000000,4.000000,4.000000,4.000000,4.000000,4.000000,100.000000,,,,,,,,,,,,,,,,
1645707275.336458,243.000000,0.000000,4220.384766,4240.641113,4215.641113,4216.922852,4232.179688,4228.974121,4232.179688,4228.461426,4235.128418,4260.769043,4212.692383,4241.025879,4171.153809,4163.077148,3454.000000,4.000000,95.000000,,,,0.000000,4.000000,4.000000,4.000000,4.000000,4.000000,4.000000,4.000000,4.000000,4.000000,4.000000,4.000000,4.000000,4.000000,4.000000,100.000000,,,,,,,,,,,,,,,,
1645707275.340398,244.000000,0.000000,4221.025879,4238.589844,4219.102539,4219.615234,4228.589844,4230.128418,4232.820313,4229.102539,4233.461426,4263.461426,4210.000000,4246.153809,4176.282227,4160.897461,3305.000000,4.000000,95.000000,,,,0.000000,4.000000,4.000000,4.000000,4.000000,4.000000,4.000000,4.000000,4.000000,4.000000,4.000000,4.000000,4.000000,4.000000,4.000000,100.000000,,,,,,,,,,,,,,,,
1645707275.344338,245.000000,0.000000,4221.794922,4236.666504,4219.230957,4221.282227,4224.358887,4230.128418,4231.538574,4224.358887,4230.897461,4260.897461,4208.077148,4247.051270,4176.410156,4161.794922,3188.000000,4.000000,95.000000,,,,0.000000,4.000000,4.000000,4.000000,4.000000,4.000000,4.000000,4.000000,4.000000,4.000000,4.000000,4.000000,4.000000,4.000000,4.000000,100.000000,,,,,,,,,,,,,,,,
1645707275.348278,246.000000,0.000000,4222.051270,4235.512695,4215.000000,4221.282227,4220.769043,4227.692383,4227.692383,4216.410156,4228.589844,4253.846191,4208.205078,4244.102539,4172.948730,4162.692383,3392.000000,4.000000,95.000000,,,,0.000000,4.000000,4.000000,4.000000,4.000000,4.000000,4.000000,4.000000,4.000000,4.000000,4.000000,4.000000,4.000000,4.000000,4.000000,100.000000,,,,,,,,,,,,,,,,
1645707275.352218,247.000000,0.000000,4220.128418,4234.743652,4208.461426,4218.717773,4217.820313,4223.461426,4224.102539,4210.641113,4227.051270,4246.153809,4209.487305,4239.102539,4169.102539,4161.410156,3454.000000,4.000000,95.000000,,,,0.000000,4.000000,4.000000,4.000000,4.000000,4.000000,4.000000,4.000000,4.000000,4.000000,4.000000,4.000000,4.000000,4.000000,4.000000,100.000000,,,,,,,,,,,,,,,,
1645707275.356158,248.000000,0.000000,4216.025879,4234.615234,4202.820313,4213.846191,4215.512695,4219.615234,4223.974121,4210.769043,4226.538574,4241.538574,4210.000000,4234.230957,4168.589844,4159.487305,3305.000000,4.000000,95.000000,,,,0.000000,4.000000,4.000000,4.000000,4.000000,4.000000,4.000000,4.000000,4.000000,4.000000,4.000000,4.000000,4.000000,4.000000,4.000000,100.000000,,,,,,,,,,,,,,,,
1645707275.360098,249.000000,0.000000,4211.922852,4235.128418,4200.512695,4208.589844,4214.230957,4219.615234,4227.820313,4216.666504,4227.820313,4242.307617,4209.487305,4231.410156,4172.563965,4160.512695,3188.000000,4.000000,95.000000,,,,0.000000,4.000000,4.000000,4.000000,4.000000,4.000000,4.000000,4.000000,4.000000,4.000000,4.000000,4.000000,4.000000,4.000000,4.000000,100.000000,,,,,,,,,,,,,,,,
1645707275.364038,250.000000,0.000000,4209.743652,4235.769043,4201.282227,4205.256348,4214.487305,4224.102539,4232.820313,4224.358887,4231.153809,4247.436035,4208.717773,4231.282227,4178.589844,4165.256348,3392.000000,4.000000,95.000000,,,,0.000000,4.000000,4.000000,4.000000,4.000000,4.000000,4.000000,4.000000,4.000000,4.000000,4.000000,4.000000,4.000000,4.000000,4.000000,100.000000,,,,,,,,,,,,,,,,
1645707275.367978,251.000000,0.000000,4210.000000,4235.000000,4203.717773,4205.128418,4216.282227,4229.871582,4235.897461,4229.230957,4235.384766,4253.974121,4207.820313,4233.205078,4182.051270,4170.256348,3454.000000,4.000000,95.000000,,,,0.000000,4.000000,4.000000,4.000000,4.000000,4.000000,4.000000,4.000000,4.000000,4.000000,4.000000,4.000000,4.000000,4.000000,4.000000,100.000000,,,,,,,,,,,,,,,,
1645707275.371918,252.000000,0.000000,4211.410156,4231.282227,4206.410156,4207.563965,4218.846191,4232.820313,4235.897461,4230.128418,4238.717773,4257.948730,4206.153809,4235.641113,4180.128418,4171.282227,3305.000000,4.000000,95.000000,,,,0.000000,4.000000,4.000000,4.000000,4.000000,4.000000,4.000000,4.000000,4.000000,4.000000,4.000000,4.000000,4.000000,4.000000,4.000000,100.000000,,,,,,,,,,,,,,,,
1645707275.375859,253.000000,0.000000,4212.948730,4225.897461,4208.205078,4210.769043,4221.538574,4231.153809,4234.358887,4228.846191,4240.000000,4258.205078,4204.230957,4236.794922,4174.102539,4166.922852,3188.000000,4.000000,95.000000,,,,0.000000,4.000000,4.000000,4.000000,4.000000,4.000000,4.000000,4.000000,4.000000,4.000000,4.000000,4.000000,4.000000,4.000000,4.000000,100.000000,,,,,,,,,,,,,,,,
1645707275.379799,254.000000,0.000000,4214.358887,4222.051270,4208.205078,4212.307617,4224.358887,4227.436035,4233.205078,4228.333496,4239.358887,4256.153809,4203.846191,4236.282227,4168.974121,4160.384766,3392.000000,4.000000,95.000000,,,,0.000000,4.000000,4.000000,4.000000,4.000000,4.000000,4.000000,4.000000,4.000000,4.000000,4.000000,4.000000,4.000000,4.000000,4.000000,100.000000,,,,,,,,,,,,,,,,
1645707275.383739,255.000000,0.000000,4216.153809,4222.948730,4206.794922,4211.282227,4227.179688,4225.128418,4233.077148,4229.871582,4237.948730,4254.743652,4206.025879,4234.743652,4168.461426,4156.666504,115.000000,4.000000,95.000000,,,,0.000000,4.000000,4.000000,4.000000,4.000000,4.000000,4.000000,4.000000,4.000000,4.000000,4.000000,4.000000,4.000000,4.000000,4.000000,100.000000,,,,,,,,,,,,,,,,
1645707275.387679,0.000000,0.000000,4218.333496,4228.205078,4205.769043,4208.717773,4228.589844,4225.384766,4233.717773,4232.436035,4236.282227,4255.256348,4209.102539,4232.692383,4172.692383,4158.846191,2940.000000,4.000000,95.000000,,,,0.000000,4.000000,4.000000,4.000000,4.000000,4.000000,4.000000,4.000000,4.000000,4.000000,4.000000,4.000000,4.000000,4.000000,4.000000,100.000000,,,,,,,,,,,,,,,,
1645707275.391619,1.000000,0.000000,4220.256348,4234.615234,4206.410156,4207.051270,4227.179688,4226.282227,4234.230957,4234.230957,4234.487305,4256.282227,4209.743652,4230.897461,4177.948730,4165.384766,3380.000000,4.000000,95.000000,,,,0.000000,4.000000,4.000000,4.000000,4.000000,4.000000,4.000000,4.000000,4.000000,4.000000,4.000000,4.000000,4.000000,4.000000,4.000000,100.000000,,,,,,,,,,,,,,,,
1645707275.395559,2.000000,0.000000,4221.538574,4238.461426,4208.589844,4208.589844,4222.692383,4225.769043,4233.717773,4233.333496,4232.820313,4256.282227,4206.794922,4230.128418,4180.384766,4171.922852,3528.000000,4.000000,95.000000,,,,0.000000,4.000000,4.000000,4.000000,4.000000,4.000000,4.000000,4.000000,4.000000,4.000000,4.000000,4.000000,4.000000,4.000000,4.000000,100.000000,,,,,,,,,,,,,,,,
1645707275.399499,3.000000,0.000000,4222.051270,4238.974121,4211.025879,4213.333496,4217.692383,4224.102539,4231.922852,4229.487305,4231.538574,4254.871582,4202.948730,4231.794922,4179.615234,4174.743652,3235.000000,4.000000,95.000000,,,,0.000000,4.000000,4.000000,4.000000,4.000000,4.000000,4.000000,4.000000,4.000000,4.000000,4.000000,4.000000,4.000000,4.000000,4.000000,100.000000,,,,,,,,,,,,,,,,
1645707275.403339,4.000000,0.000000,4222.563965,4237.563965,4212.436035,4218.846191,4215.384766,4222.820313,4229.230957,4224.615234,4231.153809,4253.205078,4201.794922,4236.025879,4178.461426,4173.846191,3547.000000,4.000000,95.000000,,,,0.000000,4.000000,4.000000,4.000000,4.000000,4.000000,4.000000,4.000000,4.000000,4.000000,4.000000,4.000000,4.000000,4.000000,4.000000,100.000000,,,,,,,,,,,,,,,,
1645707275.407280,5.000000,0.000000,4223.717773,4236.410156,4212.820313,4222.563965,4216.922852,4223.077148,4227.436035,4221.153809,4231.153809,4252.051270,4204.230957,4241.538574,4179.615234,4171.922852,3222.000000,4.000000,95.000000,,,,0.000000,4.000000,4.000000,4.000000,4.000000,4.000000,4.000000,4.000000,4.000000,4.000000,4.000000,4.000000,4.000000,4.000000,4.000000,100.000000,,,,,,,,,,,,,,,,
1645707275.411220,6.000000,0.000000,4225.256348,4236.025879,4212.820313,4222.820313,4220.000000,4223.589844,4227.436035,4221.153809,4231.282227,4251.025879,4208.077148,4246.538574,4181.922852,4171.666504,2898.000000,4.000000,95.000000,,,,0.000000,4.000000,4.000000,4.000000,4.000000,4.000000,4.000000,4.000000,4.000000,4.000000,4.000000,4.000000,4.000000,4.000000,4.000000,100.000000,,,,,,,,,,,,,,,,
1645707275.415160,7.000000,0.000000,4225.769043,4235.512695,4212.563965,4221.153809,4221.025879,4222.563965,4228.589844,4223.846191,4231.153809,4249.487305,4210.897461,4249.743652,4183.461426,4172.563965,2702.000000,4.000000,95.000000,,,,0.000000,4.000000,4.000000,4.000000,4.000000,4.000000,4.000000,4.000000,4.000000,4.000000,4.000000,4.000000,4.000000,4.000000,4.000000,100.000000,,,,,,,,,,,,,,,,
1645707275.419100,8.000000,0.000000,4224.871582,4234.487305,4211.922852,4219.615234,4218.589844,4220.000000,4228.205078,4227.051270,4231.153809,4248.461426,4212.692383,4250.897461,4183.333496,4173.077148,1385.000000,4.000000,95.000000,,,,0.000000,4.000000,4.000000,4.000000,4.000000,4.000000,4.000000,4.000000,4.000000,4.000000,4.000000,4.000000,4.000000,4.000000,4.000000,100.000000,,,,,,,,,,,,,,,,
1645707275.423040,9.000000,0.000000,4223.333496,4233.589844,4210.641113,4219.102539,4214.743652,4217.948730,4225.128418,4227.692383,4231.922852,4249.358887,4214.358887,4250.512695,4183.077148,4172.563965,3275.000000,4.000000,95.000000,,,,0.000000,4.000000,4.000000,4.000000,4.000000,4.000000,4.000000,4.000000,4.000000,4.000000,4.000000,4.000000,4.000000,4.000000,4.000000,100.000000,,,,,,,,,,,,,,,,
1645707275.426980,10.000000,0.000000,4222.051270,4233.077148,4209.102539,4217.820313,4212.820313,4218.589844,4220.769043,4225.384766,4232.948730,4251.282227,4216.025879,4248.589844,4183.205078,4171.282227,3250.000000,4.000000,95.000000,,,,0.000000,4.000000,4.000000,4.000000,4.000000,4.000000,4.000000,4.000000,4.000000,4.000000,4.000000,4.000000,4.000000,4.000000,4.000000,100.000000,,,,,,,,,,,,,,,,
1645707275.430920,11.000000,0.000000,4220.897461,4232.692383,4208.205078,4213.333496,4214.102539,4221.538574,4218.974121,4222.436035,4233.205078,4250.897461,4215.897461,4245.256348,4182.436035,4170.000000,3445.000000,4.000000,95.000000,,,,0.000000,4.000000,4.000000,4.000000,4.000000,4.000000,4.000000,4.000000,4.000000,4.000000,4.000000,4.000000,4.000000,4.000000,4.000000,100.000000,,,,,,,,,,,,,,,,
1645707275.434860,12.000000,0.000000,4219.358887,4231.410156,4208.717773,4205.384766,4217.563965,4225.000000,4222.307617,4221.282227,4232.179688,4246.410156,4212.820313,4241.538574,4179.230957,4169.871582,3349.000000,4.000000,95.000000,,,,0.000000,4.000000,4.000000,4.000000,4.000000,4.000000,4.000000,4.000000,4.000000,4.000000,4.000000,4.000000,4.000000,4.000000,4.000000,100.000000,,,,,,,,,,,,,,,,
1645707275.438800,13.000000,0.000000,4217.307617,4229.230957,4209.743652,4198.205078,4221.153809,4227.051270,4229.102539,4222.692383,4230.769043,4240.256348,4208.077148,4239.358887,4173.846191,4172.179688,3001.000000,4.000000,95.000000,,,,0.000000,4.000000,4.000000,4.000000,4.000000,4.000000,4.000000,4.000000,4.000000,4.000000,4.000000,4.000000,4.000000,4.000000,4.000000,100.000000,,,,,,,,,,,,,,,,
1645707275.442740,14.000000,0.000000,4216.153809,4227.436035,4210.641113,4197.051270,4223.846191,4227.179688,4234.615234,4225.512695,4230.512695,4238.205078,4205.384766,4240.384766,4169.358887,4177.051270,3250.000000,4.000000,95.000000,,,,0.000000,4.000000,4.000000,4.000000,4.000000,4.000000,4.000000,4.000000,4.000000,4.000000,4.000000,4.000000,4.000000,4.000000,4.000000,100.000000,,,,,,,,,,,,,,,,
1645707275.446681,15.000000,0.000000,4217.307617,4227.692383,4211.025879,4203.589844,4224.871582,4226.410156,4235.256348,4228.205078,4232.307617,4243.077148,4207.307617,4245.000000,4168.974121,4182.051270,3445.000000,4.000000,95.000000,,,,0.000000,4.000000,4.000000,4.000000,4.000000,4.000000,4.000000,4.000000,4.000000,4.000000,4.000000,4.000000,4.000000,4.000000,4.000000,100.000000,,,,,,,,,,,,,,,,
1645707275.450521,16.000000,0.000000,4220.256348,4229.230957,4210.897461,4213.717773,4223.205078,4225.384766,4231.794922,4230.512695,4235.641113,4252.307617,4213.589844,4250.897461,4172.948730,4183.717773,3349.000000,4.000000,95.000000,,,,0.000000,4.000000,4.000000,4.000000,4.000000,4.000000,4.000000,4.000000,4.000000,4.000000,4.000000,4.000000,4.000000,4.000000,4.000000,100.000000,,,,,,,,,,,,,,,,
1645707275.454461,17.000000,0.000000,4222.436035,4229.743652,4210.000000,4220.384766,4218.846191,4224.230957,4228.333496,4232.179688,4238.461426,4258.974121,4220.000000,4254.358887,4178.846191,4180.256348,3001.000000,4.000000,95.000000,,,,0.000000,4.000000,4.000000,4.000000,4.000000,4.000000,4.000000,4.000000,4.000000,4.000000,4.000000,4.000000,4.000000,4.000000,4.000000,100.000000,,,,,,,,,,,,,,,,
1645707275.458401,18.000000,0.000000,4221.538574,4227.051270,4207.948730,4219.743652,4213.846191,4223.205078,4227.948730,4232.563965,4239.102539,4258.846191,4222.563965,4251.794922,4182.820313,4173.333496,3250.000000,4.000000,95.000000,,,,0.000000,4.000000,4.000000,4.000000,4.000000,4.000000,4.000000,4.000000,4.000000,4.000000,4.000000,4.000000,4.000000,4.000000,4.000000,100.000000,,,,,,,,,,,,,,,,
1645707275.462341,19.000000,0.000000,4217.820313,4221.794922,4205.641113,4212.692383,4211.794922,4222.436035,4229.615234,4231.025879,4237.436035,4253.461426,4220.128418,4243.974121,4183.461426,4167.948730,3445.000000,4.000000,95.000000,,,,0.000000,4.000000,4.000000,4.000000,4.000000,4.000000,4.000000,4.000000,4.000000,4.000000,4.000000,4.000000,4.000000,4.000000,4.000000,100.000000,,,,,,,,,,,,,,,,
1645707275.466281,20.000000,0.000000,4212.820313,4217.051270,4204.487305,4204.102539,4214.230957,4221.794922,4230.641113,4227.563965,4235.128418,4247.692383,4214.615234,4234.871582,4181.282227,4168.077148,3349.000000,4.000000,95.000000,,,,0.000000,4.000000,4.000000,4.000000,4.000000,4.000000,4.000000,4.000000,4.000000,4.000000,4.000000,4.000000,4.000000,4.000000,4.000000,100.000000,,,,,,,,,,,,,,,,
1645707275.470221,21.000000,0.000000,4208.077148,4215.512695,4205.384766,4197.436035,4218.333496,4221.025879,4229.871582,4223.846191,4233.717773,4245.000000,4208.846191,4229.487305,4177.563965,4173.205078,3001.000000,4.000000,95.000000,,,,0.000000,4.000000,4.000000,4.000000,4.000000,4.000000,4.000000,4.000000,4.000000,4.000000,4.000000,4.000000,4.000000,4.000000,4.000000,100.000000,,,,,,,,,,,,,,,,
1645707275.474161,22.000000,0.000000,4204.102539,4217.051270,4206.922852,4193.846191,4219.615234,4219.487305,4228.333496,4221.025879,4233.077148,4245.384766,4204.358887,4229.358887,4173.333496,4178.461426,3250.000000,4.000000,95.000000,,,,0.000000,4.000000,4.000000,4.000000,4.000000,4.000000,4.000000,4.000000,4.000000,4.000000,4.000000,4.000000,4.000000,4.000000,4.000000,100.000000,,,,,,,,,,,,,,,,
1645707275.478102,23.000000,0.000000,4200.512695,4219.615234,4206.794922,4192.179688,4215.769043,4217.563965,4227.307617,4219.358887,4231.666504,4246.666504,4201.025879,4231.410156,4169.102539,4179.487305,3445.000000,4.000000,95.000000,,,,0.000000,4.000000,4.000000,4.000000,4.000000,4.000000,4.000000,4.000000,4.000000,4.000000,4.000000,4.000000,4.000000,4.000000,4.000000,100.000000,,,,,,,,,,,,,,,,
1645707275.482042,24.000000,0.000000,4197.948730,4220.512695,4203.589844,4191.794922,4209.487305,4216.410156,4226.410156,4217.692383,4228.846191,4247.436035,4197.179688,4231.410156,4165.897461,4176.666504,3349.000000,4.000000,95.000000,,,,0.000000,4.000000,4.000000,4.000000,4.000000,4.000000,4.000000,4.000000,4.000000,4.000000,4.000000,4.000000,4.000000,4.000000,4.000000,100.000000,,,,,,,,,,,,,,,,
1645707275.485982,25.000000,0.000000,4196.794922,4218.333496,4198.461426,4192.436035,4205.000000,4216.153809,4224.615234,4215.384766,4226.025879,4246.794922,4191.153809,4227.820313,4163.717773,4174.230957,3001.000000,4.000000,95.000000,,,,0.000000,4.000000,4.000000,4.000000,4.000000,4.000000,4.000000,4.000000,4.000000,4.000000,4.000000,4.000000,4.000000,4.000000,4.000000,100.000000,,,,,,,,,,,,,,,,
1645707275.490022,26.000000,0.000000,4196.794922,4213.333496,4194.743652,4194.487305,4204.871582,4215.641113,4222.307617,4213.589844,4224.871582,4244.743652,4183.333496,4222.820313,4162.179688,4175.512695,3250.000000,4.000000,95.000000,,,,0.000000,4.000000,4.000000,4.000000,4.000000,4.000000,4.000000,4.000000,4.000000,4.000000,4.000000,4.000000,4.000000,4.000000,4.000000,100.000000,,,,,,,,,,,,,,,,
1645707275.493962,27.000000,0.000000,4197.436035,4208.077148,4194.743652,4197.820313,4207.820313,4214.102539,4221.538574,4213.589844,4225.769043,4240.897461,4177.436035,4220.512695,4160.384766,4179.358887,3445.000000,4.000000,95.000000,,,,0.000000,4.000000,4.000000,4.000000,4.000000,4.000000,4.000000,4.000000,4.000000,4.000000,4.000000,4.000000,4.000000,4.000000,4.000000,100.000000,,,,,,,,,,,,,,,,
1645707275.497902,28.000000,0.000000,4199.487305,4205.641113,4197.692383,4201.922852,4212.179688,4212.692383,4222.948730,4215.769043,4227.563965,4235.897461,4177.692383,4222.948730,4158.333496,4181.410156,3349.000000,4.000000,95.000000,,,,0.000000,4.000000,4.000000,4.000000,4.000000,4.000000,4.000000,4.000000,4.000000,4.000000,4.000000,4.000000,4.000000,4.000000,4.000000,100.000000,,,,,,,,,,,,,,,,
1645707275.501842,29.000000,0.000000,4204.487305,4208.333496,4200.384766,4206.025879,4216.794922,4212.692383,4225.256348,4218.589844,4229.487305,4232.436035,4185.256348,4228.589844,4156.538574,4178.205078,3001.000000,4.000000,95.000000,,,,0.000000,4.000000,4.000000,4.000000,4.000000,4.000000,4.000000,4.000000,4.000000,4.000000,4.000000,4.000000,4.000000,4.000000,4.000000,100.000000,,,,,,,,,,,,,,,,
1645707275.505782,30.000000,0.000000,4211.410156,4214.487305,4200.000000,4208.846191,4220.512695,4214.487305,4226.282227,4219.743652,4230.897461,4232.563965,4195.512695,4233.846191,4154.871582,4170.512695,3250.000000,4.000000,95.000000,,,,0.000000,4.000000,4.000000,4.000000,4.000000,4.000000,4.000000,4.000000,4.000000,4.000000,4.000000,4.000000,4.000000,4.000000,4.000000,100.000000,,,,,,,,,,,,,,,,
1645707275.509722,31.000000,0.000000,4216.538574,4220.128418,4196.666504,4209.487305,4221.922852,4216.410156,4225.384766,4218.717773,4231.410156,4235.512695,4201.025879,4235.641113,4152.436035,4162.179688,3445.000000,4.000000,95.000000,,,,0.000000,4.000000,4.000000,4.000000,4.000000,4.000000,4.000000,4.000000,4.000000,4.000000,4.000000,4.000000,4.000000,4.000000,4.000000,100.000000,,,,,,,,,,,,,,,,
1645707275.513662,32.000000,0.000000,4216.538574,4222.436035,4193.461426,4207.948730,4219.871582,4217.179688,4224.102539,4216.025879,4230.512695,4238.205078,4197.692383,4233.077148,4149.487305,4158.333496,0.000000,4.000000,95.000000,,,,0.000000,4.000000,4.000000,4.000000,4.000000,4.000000,4.000000,4.000000,4.000000,4.000000,4.000000,4.000000,4.000000,4.000000,4.000000,100.000000,,,,,,,,,,,,,,,,
1645707275.517602,33.000000,0.000000,4212.436035,4221.922852,4193.589844,4205.769043,4216.025879,4216.666504,4223.846191,4212.436035,4228.077148,4238.333496,4187.948730,4228.717773,4148.205078,4161.282227,0.000000,4.000000,95.000000,,,,0.000000,4.000000,4.000000,4.000000,4.000000,4.000000,4.000000,4.000000,4.000000,4.000000,4.000000,4.000000,4.000000,4.000000,4.000000,100.000000,,,,,,,,,,,,,,,,
1645707275.521543,34.000000,0.000000,4208.974121,4222.179688,4197.436035,4204.871582,4213.461426,4216.025879,4223.846191,4208.717773,4225.128418,4236.153809,4179.230957,4226.025879,4152.051270,4170.128418,0.000000,4.000000,95.000000,,,,0.000000,4.000000,4.000000,4.000000,4.000000,4.000000,4.000000,4.000000,4.000000,4.000000,4.000000,4.000000,4.000000,4.000000,4.000000,100.000000,,,,,,,,,,,,,,,,
1645707275.525483,35.000000,0.000000,4209.871582,4225.128418,4202.179688,4205.000000,4214.487305,4215.769043,4222.948730,4205.897461,4222.563965,4234.102539,4177.179688,4226.922852,4160.897461,4180.769043,0.000000,4.000000,95.000000,,,,0.000000,4.000000,4.000000,4.000000,4.000000,4.000000,4.000000,4.000000,4.000000,4.000000,4.000000,4.000000,4.000000,4.000000,4.000000,100.000000,,,,,,,,,,,,,,,,
1645707275.529423,36.000000,0.000000,4214.743652,4228.974121,4204.871582,4204.487305,4217.436035,4215.256348,4221.410156,4205.000000,4221.666504,4233.461426,4181.922852,4230.256348,4170.384766,4188.205078,0.000000,4.000000,95.000000,,,,0.000000,4.000000,4.000000,4.000000,4.000000,4.000000,4.000000,4.000000,4.000000,4.000000,4.000000,4.000000,4.000000,4.000000,4.000000,100.000000,,,,,,,,,,,,,,,,
1645707275.533363,37.000000,0.000000,4219.102539,4230.000000,4204.230957,4202.307617,4218.846191,4213.589844,4220.641113,4206.410156,4223.077148,4234.102539,4188.333496,4233.205078,4175.641113,4189.743652,0.000000,4.000000,95.000000,,,,0.000000,4.000000,4.000000,4.000000,4.000000,4.000000,4.000000,4.000000,4.000000,4.000000,4.000000,4.000000,4.000000,4.000000,4.000000,100.000000,,,,,,,,,,,,,,,,
1645707275.537303,38.000000,0.000000,4219.487305,4226.922852,4201.922852,4199.743652,4217.307617,4211.410156,4220.641113,4209.102539,4226.153809,4236.153809,4191.922852,4233.717773,4174.743652,4186.153809,0.000000,4.000000,95.000000,,,,0.000000,4.000000,4.000000,4.000000,4.000000,4.000000,4.000000,4.000000,4.000000,4.000000,4.000000,4.000000,4.000000,4.000000,4.000000,100.000000,,,,,,,,,,,,,,,,
1645707275.541243,39.000000,0.000000,4216.410156,4222.307617,4200.000000,4199.615234,4214.487305,4210.641113,4220.256348,4212.051270,4230.000000,4240.128418,4192.563965,4232.307617,4170.769043,4181.410156,0.000000,4.000000,95.000000,,,,0.000000,4.000000,4.000000,4.000000,4.000000,4.000000,4.000000,4.000000,4.000000,4.000000,4.000000,4.000000,4.000000,4.000000,4.000000,100.000000,,,,,,,,,,,,,,,,
1645707275.545183,40.000000,0.000000,4212.563965,4219.871582,4200.000000,4203.589844,4213.461426,4212.692383,4218.717773,4214.102539,4232.948730,4246.025879,4193.846191,4231.538574,4168.589844,4179.615234,0.000000,4.000000,95.000000,,,,0.000000,4.000000,4.000000,4.000000,4.000000,4.000000,4.000000,4.000000,4.000000,4.000000,4.000000,4.000000,4.000000,4.000000,4.000000,100.000000,,,,,,,,,,,,,,,,
1645707275.549123,41.000000,0.000000,4210.000000,4221.153809,4201.666504,4209.358887,4215.256348,4216.282227,4217.179688,4215.897461,4233.846191,4252.051270,4198.205078,4233.205078,4170.512695,4182.051270,0.000000,4.000000,95.000000,,,,0.000000,4.000000,4.000000,4.000000,4.000000,4.000000,4.000000,4.000000,4.000000,4.000000,4.000000,4.000000,4.000000,4.000000,4.000000,100.000000,,,,,,,,,,,,,,,,
1645707275.553063,42.000000,0.000000,4208.846191,4224.102539,4204.230957,4212.307617,4218.717773,4218.717773,4217.820313,4218.717773,4232.820313,4255.256348,4203.974121,4236.410156,4175.384766,4185.769043,0.000000,4.000000,95.000000,,,,0.000000,4.000000,4.000000,4.000000,4.000000,4.000000,4.000000,4.000000,4.000000,4.000000,4.000000,4.000000,4.000000,4.000000,4.000000,100.000000,,,,,,,,,,,,,,,,
1645707275.557103,43.000000,0.000000,4208.589844,4225.641113,4206.153809,4210.128418,4221.538574,4218.846191,4220.512695,4222.179688,4231.153809,4254.487305,4206.922852,4239.102539,4179.487305,4186.410156,0.000000,4.000000,95.000000,,,,0.000000,4.000000,4.000000,4.000000,4.000000,4.000000,4.000000,4.000000,4.000000,4.000000,4.000000,4.000000,4.000000,4.000000,4.000000,100.000000,,,,,,,,,,,,,,,,
1645707275.561044,44.000000,0.000000,4208.461426,4224.102539,4206.153809,4204.358887,4222.179688,4216.794922,4222.307617,4224.615234,4231.025879,4251.538574,4204.487305,4239.487305,4179.871582,4182.307617,0.000000,4.000000,95.000000,,,,0.000000,4.000000,4.000000,4.000000,4.000000,4.000000,4.000000,4.000000,4.000000,4.000000,4.000000,4.000000,4.000000,4.000000,4.000000,100.000000,,,,,,,,,,,,,,,,
1645707275.564984,45.000000,0.000000,4207.692383,4219.871582,4203.974121,4199.743652,4220.384766,4214.102539,4220.512695,4224.230957,4232.948730,4248.717773,4197.563965,4237.820313,4175.641113,4174.615234,0.000000,4.000000,95.000000,,,,0.000000,4.000000,4.000000,4.000000,4.000000,4.000000,4.000000,4.000000,4.000000,4.000000,4.000000,4.000000,4.000000,4.000000,4.000000,100.000000,,,,,,,,,,,,,,,,
1645707275.568924,46.000000,0.000000,4205.256348,4214.615234,4200.641113,4198.461426,4216.666504,4211.666504,4216.282227,4220.897461,4235.256348,4246.666504,4189.871582,4235.128418,4167.948730,4166.153809,0.000000,4.000000,95.000000,,,,0.000000,4.000000,4.000000,4.000000,4.000000,4.000000,4.000000,4.000000,4.000000,4.000000,4.000000,4.000000,4.000000,4.000000,4.000000,100.000000,,,,,,,,,,,,,,,,
1645707275.572864,47.000000,0.000000,4200.384766,4209.871582,4197.563965,4199.487305,4212.307617,4209.487305,4213.461426,4216.538574,4235.512695,4244.487305,4184.615234,4232.692383,4160.384766,4160.897461,0.000000,4.000000,95.000000,,,,0.000000,4.000000,4.000000,4.000000,4.000000,4.000000,4.000000,4.000000,4.000000,4.000000,4.000000,4.000000,4.000000,4.000000,4.000000,100.000000,,,,,,,,,,,,,,,,
1645707275.576804,48.000000,0.000000,4194.871582,4207.692383,4195.256348,4199.230957,4208.846191,4208.205078,4214.871582,4213.077148,4232.563965,4241.666504,4183.205078,4230.512695,4156.922852,4161.794922,0.000000,4.000000,95.000000,,,,0.000000,4.000000,4.000000,4.000000,4.000000,4.000000,4.000000,4.000000,4.000000,4.000000,4.000000,4.000000,4.000000,4.000000,4.000000,100.000000,,,,,,,,,,,,,,,,
1645707275.580744,49.000000,0.000000,4191.794922,4209.230957,4193.333496,4196.666504,4207.563965,4208.333496,4218.846191,4210.641113,4228.077148,4239.102539,4184.358887,4228.077148,4159.743652,4169.230957,0.000000,4.000000,95.000000,,,,0.000000,4.000000,4.000000,4.000000,4.000000,4.000000,4.000000,4.000000,4.000000,4.000000,4.000000,4.000000,4.000000,4.000000,4.000000,100.000000,,,,,,,,,,,,,,,,
1645707275.584684,50.000000,0.000000,4192.436035,4213.461426,4191.282227,4193.717773,4208.077148,4209.743652,4221.025879,4208.589844,4224.358887,4237.307617,4186.153809,4225.384766,4166.025879,4179.358887,0.000000,4.000000,95.000000,,,,0.000000,4.000000,4.000000,4.000000,4.000000,4.000000,4.000000,4.000000,4.000000,4.000000,4.000000,4.000000,4.000000,4.000000,4.000000,100.000000,,,,,,,,,,,,,,,,
1645707275.588624,51.000000,0.000000,4195.384766,4216.538574,4189.743652,4192.948730,4208.077148,4211.025879,4218.717773,4206.538574,4222.692383,4235.128418,4186.538574,4223.333496,4169.871582,4185.641113,0.000000,4.000000,95.000000,,,,0.000000,4.000000,4.000000,4.000000,4.000000,4.000000,4.000000,4.000000,4.000000,4.000000,4.000000,4.000000,4.000000,4.000000,4.000000,100.000000,,,,,,,,,,,,,,,,
1645707275.592564,52.000000,0.000000,4197.307617,4215.897461,4189.871582,4195.256348,4205.897461,4210.000000,4213.333496,4205.256348,4223.205078,4231.538574,4184.615234,4222.820313,4167.307617,4184.102539,0.000000,4.000000,95.000000,,,,0.000000,4.000000,4.000000,4.000000,4.000000,4.000000,4.000000,4.000000,4.000000,4.000000,4.000000,4.000000,4.000000,4.000000,4.000000,100.000000,,,,,,,,,,,,,,,,
1645707275.596504,53.000000,0.000000,4196.794922,4212.563965,4191.922852,4198.717773,4201.922852,4206.282227,4209.102539,4204.743652,4224.871582,4227.563965,4181.282227,4224.102539,4159.615234,4176.922852,0.000000,4.000000,95.000000,,,,0.000000,4.000000,4.000000,4.000000,4.000000,4.000000,4.000000,4.000000,4.000000,4.000000,4.000000,4.000000,4.000000,4.000000,4.000000,100.000000,,,,,,,,,,,,,,,,
1645707275.600445,54.000000,0.000000,4194.743652,4209.487305,4193.846191,4200.512695,4199.230957,4201.794922,4208.205078,4204.230957,4226.153809,4225.384766,4178.589844,4225.641113,4152.307617,4170.512695,0.000000,4.000000,95.000000,,,,0.000000,4.000000,4.000000,4.000000,4.000000,4.000000,4.000000,4.000000,4.000000,4.000000,4.000000,4.000000,4.000000,4.000000,4.000000,100.000000,,,,,,,,,,,,,,,,
1645707275.604385,55.000000,0.000000,4193.077148,4209.358887,4193.717773,4199.102539,4200.384766,4198.974121,4209.615234,4202.307617,4225.769043,4226.153809,4177.692383,4225.641113,4149.871582,4170.128418,0.000000,4.000000,95.000000,,,,0.000000,4.000000,4.000000,4.000000,4.000000,4.000000,4.000000,4.000000,4.000000,4.000000,4.000000,4.000000,4.000000,4.000000,4.000000,100.000000,,,,,,,,,,,,,,,,
1645707275.608325,56.000000,0.000000,4192.948730,4211.794922,4191.153809,4195.512695,4204.615234,4199.102539,4210.897461,4198.846191,4222.948730,4228.077148,4177.563965,4223.974121,4151.666504,4175.384766,0.000000,4.000000,95.000000,,,,0.000000,4.000000,4.000000,4.000000,4.000000,4.000000,4.000000,4.000000,4.000000,4.000000,4.000000,4.000000,4.000000,4.000000,4.000000,100.000000,,,,,,,,,,,,,,,,
1645707275.612265,57.000000,0.000000,4193.846191,4214.358887,4187.948730,4193.205078,4208.461426,4201.025879,4210.897461,4195.384766,4218.846191,4228.717773,4176.410156,4221.922852,4152.436035,4181.025879,0.000000,4.000000,95.000000,,,,0.000000,4.000000,4.000000,4.000000,4.000000,4.000000,4.000000,4.000000,4.000000,4.000000,4.000000,4.000000,4.000000,4.000000,4.000000,100.000000,,,,,,,,,,,,,,,,
1645707275.616205,58.000000,0.000000,4194.615234,4214.102539,4185.256348,4193.589844,4208.461426,4202.563965,4210.384766,4194.230957,4215.000000,4226.666504,4173.974121,4221.794922,4147.436035,4181.025879,0.000000,4.000000,95.000000,,,,0.000000,4.000000,4.000000,4.000000,4.000000,4.000000,4.000000,4.000000,4.000000,4.000000,4.000000,4.000000,4.000000,4.000000,4.000000,100.000000,,,,,,,,,,,,,,,,
1645707275.620145,59.000000,0.000000,4193.974121,4210.641113,4183.846191,4195.128418,4205.128418,4203.205078,4210.384766,4195.384766,4213.333496,4223.461426,4171.922852,4224.102539,4136.666504,4174.102539,0.000000,4.000000,95.000000,,,,0.000000,4.000000,4.000000,4.000000,4.000000,4.000000,4.000000,4.000000,4.000000,4.000000,4.000000,4.000000,4.000000,4.000000,4.000000,100.000000,,,,,,,,,,,,,,,,
1645707275.624085,60.000000,0.000000,4192.051270,4206.025879,4183.461426,4194.615234,4201.666504,4203.461426,4210.641113,4197.051270,4214.615234,4220.897461,4172.563965,4227.179688,4124.743652,4163.717773,0.000000,4.000000,95.000000,,,,0.000000,4.000000,4.000000,4.000000,4.000000,4.000000,4.000000,4.000000,4.000000,4.000000,4.000000,4.000000,4.000000,4.000000,4.000000,100.000000,,,,,,,,,,,,,,,,
1645707275.628125,61.000000,0.000000,4189.358887,4203.333496,4184.230957,4190.769043,4200.641113,4203.974121,4210.897461,4197.179688,4218.205078,4220.256348,4175.641113,4228.717773,4117.179688,4155.641113,0.000000,4.000000,95.000000,,,,0.000000,4.000000,4.000000,4.000000,4.000000,4.000000,4.000000,4.000000,4.000000,4.000000,4.000000,4.000000,4.000000,4.000000,4.000000,100.000000,,,,,,,,,,,,,,,,
1645707275.632065,62.000000,0.000000,4187.307617,4203.974121,4185.769043,4186.153809,4200.897461,4203.974121,4211.282227,4196.410156,4221.666504,4220.769043,4178.077148,4227.179688,4115.512695,4153.974121,0.000000,4.000000,95.000000,,,,0.000000,4.000000,4.000000,4.000000,4.000000,4.000000,4.000000,4.000000,4.000000,4.000000,4.000000,4.000000,4.000000,4.000000,4.000000,100.000000,,,,,,,,,,,,,,,,
1645707275.636005,63.000000,0.000000,4187.307617,4207.436035,4186.794922,4185.000000,4199.743652,4202.307617,4211.922852,4196.410156,4222.692383,4221.410156,4177.307617,4223.717773,4117.692383,4158.717773,0.000000,4.000000,95.000000,,,,0.000000,4.000000,4.000000,4.000000,4.000000,4.000000,4.000000,4.000000,4.000000,4.000000,4.000000,4.000000,4.000000,4.000000,4.000000,100.000000,,,,,,,,,,,,,,,,
1645707275.639946,64.000000,0.000000,4190.000000,4211.794922,4185.641113,4189.230957,4195.897461,4200.000000,4212.051270,4198.077148,4221.282227,4221.794922,4173.974121,4220.000000,4120.512695,4166.410156,0.000000,4.000000,95.000000,,,,0.000000,4.000000,4.000000,4.000000,4.000000,4.000000,4.000000,4.000000,4.000000,4.000000,4.000000,4.000000,4.000000,4.000000,4.000000,100.000000,,,,,,,,,,,,,,,,
1645707275.643886,65.000000,0.000000,4193.974121,4214.487305,4182.307617,4196.282227,4191.666504,4198.846191,4210.512695,4200.256348,4219.743652,4222.179688,4170.897461,4217.820313,4122.307617,4171.922852,0.000000,4.000000,95.000000,,,,0.000000,4.000000,4.000000,4.000000,4.000000,4.000000,4.000000,4.000000,4.000000,4.000000,4.000000,4.000000,4.000000,4.000000,4.000000,100.000000,,,,,,,,,,,,,,,,
1645707275.647826,66.000000,0.000000,4196.666504,4213.589844,4178.333496,4200.512695,4190.000000,4199.487305,4207.948730,4201.794922,4220.384766,4222.051270,4170.512695,4216.794922,4123.461426,4171.794922,0.000000,4.000000,95.000000,,,,0.000000,4.000000,4.000000,4.000000,4.000000,4.000000,4.000000,4.000000,4.000000,4.000000,4.000000,4.000000,4.000000,4.000000,4.000000,100.000000,,,,,,,,,,,,,,,,
1645707275.651766,67.000000,0.000000,4195.256348,4208.717773,4176.153809,4197.820313,4191.410156,4201.410156,4206.282227,4202.307617,4223.205078,4220.384766,4172.692383,4216.153809,4123.846191,4166.153809,0.000000,4.000000,95.000000,,,,0.000000,4.000000,4.000000,4.000000,4.000000,4.000000,4.000000,4.000000,4.000000,4.000000,4.000000,4.000000,4.000000,4.000000,4.000000,100.000000,,,,,,,,,,,,,,,,
1645707275.655706,68.000000,0.000000,4189.487305,4201.922852,4176.794922,4189.615234,4194.487305,4202.563965,4207.436035,4202.051270,4226.153809,4217.692383,4175.256348,4214.615234,4122.563965,4158.974121,0.000000,4.000000,95.000000,,,,0.000000,4.000000,4.000000,4.000000,4.000000,4.000000,4.000000,4.000000,4.000000,4.000000,4.000000,4.000000,4.000000,4.000000,4.000000,100.000000,,,,,,,,,,,,,,,,
1645707275.659646,69.000000,0.000000,4182.948730,4198.077148,4179.102539,4181.922852,4197.179688,4202.051270,4210.256348,4201.153809,4226.794922,4215.512695,4176.538574,4212.692383,4119.871582,4155.128418,0.000000,4.000000,95.000000,,,,0.000000,4.000000,4.000000,4.000000,4.000000,4.000000,4.000000,4.000000,4.000000,4.000000,4.000000,4.000000,4.000000,4.000000,4.000000,100.000000,,,,,,,,,,,,,,,,
1645707275.663586,70.000000,0.000000,4180.256348,4200.641113,4181.794922,4181.410156,4199.358887,4200.512695,4212.051270,4200.256348,4224.487305,4216.025879,4176.922852,4211.153809,4117.948730,4156.538574,0.000000,4.000000,95.000000,,,,0.000000,4.000000,4.000000,4.000000,4.000000,4.000000,4.000000,4.000000,4.000000,4.000000,4.000000,4.000000,4.000000,4.000000,4.000000,100.000000,,,,,,,,,,,,,,,,
1645707275.667526,71.000000,0.000000,4183.717773,4209.487305,4184.743652,4188.846191,4200.769043,4198.589844,4211.025879,4199.871582,4220.641113,4219.230957,4177.179688,4210.384766,4118.589844,4160.000000,0.000000,4.000000,95.000000,,,,0.000000,4.000000,4.000000,4.000000,4.000000,4.000000,4.000000,4.000000,4.000000,4.000000,4.000000,4.000000,4.000000,4.000000,4.000000,100.000000,,,,,,,,,,,,,,,,
1645707275.671466,72.000000,0.000000,4191.282227,4219.871582,4188.333496,4198.461426,4200.128418,4196.794922,4208.333496,4199.871582,4217.563965,4222.820313,4177.820313,4209.743652,4121.538574,4160.256348,0.000000,4.000000,95.000000,,,,0.000000,4.000000,4.000000,4.000000,4.000000,4.000000,4.000000,4.000000,4.000000,4.000000,4.000000,4.000000,4.000000,4.000000,4.000000,100.000000,,,,,,,,,,,,,,,,
1645707275.675407,73.000000,0.000000,4197.948730,4225.641113,4192.692383,4202.436035,4196.538574,4194.871582,4206.153809,4199.615234,4216.410156,4223.846191,4178.333496,4207.563965,4124.487305,4155.000000,0.000000,4.000000,95.000000,,,,0.000000,4.000000,4.000000,4.000000,4.000000,4.000000,4.000000,4.000000,4.000000,4.000000,4.000000,4.000000,4.000000,4.000000,4.000000,100.000000,,,,,,,,,,,,,,,,
1645707275.679347,74.000000,0.000000,4199.615234,4223.205078,4195.641113,4197.563965,4191.666504,4192.436035,4204.743652,4197.820313,4216.538574,4220.769043,4177.948730,4203.589844,4124.487305,4147.820313,0.000000,4.000000,95.000000,,,,0.000000,4.000000,4.000000,4.000000,4.000000,4.000000,4.000000,4.000000,4.000000,4.000000,4.000000,4.000000,4.000000,4.000000,4.000000,100.000000,,,,,,,,,,,,,,,,
1645707275.683287,75.000000,0.000000,4195.769043,4213.846191,4195.512695,4187.820313,4188.333496,4189.487305,4203.205078,4194.487305,4216.538574,4215.512695,4176.922852,4199.358887,4121.025879,4144.358887,0.000000,4.000000,95.000000,,,,0.000000,4.000000,4.000000,4.000000,4.000000,4.000000,4.000000,4.000000,4.000000,4.000000,4.000000,4.000000,4.000000,4.000000,4.000000,100.000000,,,,,,,,,,,,,,,,
1645707275.687227,76.000000,0.000000,4189.358887,4203.461426,4192.692383,4180.897461,4187.820313,4186.538574,4201.666504,4191.922852,4215.641113,4211.666504,4176.025879,4197.820313,4116.282227,4147.692383,0.000000,4.000000,95.000000,,,,0.000000,4.000000,4.000000,4.000000,4.000000,4.000000,4.000000,4.000000,4.000000,4.000000,4.000000,4.000000,4.000000,4.000000,4.000000,100.000000,,,,,,,,,,,,,,,,
1645707275.691167,77.000000,0.000000,4184.358887,4197.051270,4189.871582,4181.538574,4189.102539,4185.128418,4201.922852,4192.948730,4214.743652,4211.794922,4176.282227,4200.897461,4113.077148,4155.128418,0.000000,4.000000,95.000000,,,,0.000000,4.000000,4.000000,4.000000,4.000000,4.000000,4.000000,4.000000,4.000000,4.000000,4.000000,4.000000,4.000000,4.000000,4.000000,100.000000,,,,,,,,,,,,,,,,
1645707275.695107,78.000000,0.000000,4183.205078,4196.666504,4190.128418,4188.846191,4189.871582,4186.282227,4205.384766,4198.333496,4215.000000,4215.769043,4178.589844,4207.436035,4113.846191,4161.153809,0.000000,4.000000,95.000000,,,,0.000000,4.000000,4.000000,4.000000,4.000000,4.000000,4.000000,4.000000,4.000000,4.000000,4.000000,4.000000,4.000000,4.000000,4.000000,100.000000,,,,,,,,,,,,,,,,
1645707275.699147,79.000000,0.000000,4186.410156,4200.769043,4194.358887,4197.692383,4190.256348,4189.871582,4210.384766,4205.128418,4217.051270,4221.666504,4183.077148,4214.358887,4119.230957,4163.717773,0.000000,4.000000,95.000000,,,,0.000000,4.000000,4.000000,4.000000,4.000000,4.000000,4.000000,4.000000,4.000000,4.000000,4.000000,4.000000,4.000000,4.000000,4.000000,100.000000,,,,,,,,,,,,,,,,
1645707275.703087,80.000000,0.000000,4191.666504,4206.410156,4200.512695,4202.948730,4191.410156,4194.358887,4213.333496,4209.615234,4220.256348,4227.436035,4188.974121,4218.589844,4128.205078,4164.615234,0.000000,4.000000,95.000000,,,,0.000000,4.000000,4.000000,4.000000,4.000000,4.000000,4.000000,4.000000,4.000000,4.000000,4.000000,4.000000,4.000000,4.000000,4.000000,100.000000,,,,,,,,,,,,,,,,
1645707275.707027,81.000000,0.000000,4196.153809,4210.000000,4205.256348,4202.307617,4193.461426,4197.563965,4212.436035,4210.384766,4222.563965,4231.666504,4194.358887,4219.871582,4137.563965,4167.820313,0.000000,4.000000,95.000000,,,,0.000000,4.000000,4.000000,4.000000,4.000000,4.000000,4.000000,4.000000,4.000000,4.000000,4.000000,4.000000,4.000000,4.000000,4.000000,100.000000,,,,,,,,,,,,,,,,
1645707275.710967,82.000000,0.000000,4197.436035,4208.846191,4206.538574,4196.153809,4194.871582,4197.051270,4209.230957,4209.102539,4222.820313,4232.948730,4196.410156,4219.615234,4143.205078,4174.358887,0.000000,4.000000,95.000000,,,,0.000000,4.000000,4.000000,4.000000,4.000000,4.000000,4.000000,4.000000,4.000000,4.000000,4.000000,4.000000,4.000000,4.000000,4.000000,100.000000,,,,,,,,,,,,,,,,
1645707275.714907,83.000000,0.000000,4195.256348,4203.077148,4204.230957,4188.077148,4193.846191,4193.077148,4206.025879,4207.820313,4221.282227,4230.256348,4194.102539,4219.871582,4142.948730,4181.922852,0.000000,4.000000,95.000000,,,,0.000000,4.000000,4.000000,4.000000,4.000000,4.000000,4.000000,4.000000,4.000000,4.000000,4.000000,4.000000,4.000000,4.000000,4.000000,100.000000,,,,,,,,,,,,,,,,
1645707275.718848,84.000000,0.000000,4192.179688,4196.410156,4200.128418,4182.563965,4191.025879,4187.948730,4203.846191,4206.410156,4219.102539,4225.256348,4189.230957,4221.794922,4138.461426,4186.666504,0.000000,4.000000,95.000000,,,,0.000000,4.000000,4.000000,4.000000,4.000000,4.000000,4.000000,4.000000,4.000000,4.000000,4.000000,4.000000,4.000000,4.000000,4.000000,100.000000,,,,,,,,,,,,,,,,
1645707275.722788,85.000000,0.000000,4191.282227,4194.358887,4196.153809,4182.436035,4188.461426,4185.512695,4202.051270,4203.333496,4217.820313,4221.922852,4186.025879,4224.358887,4134.358887,4185.897461,0.000000,4.000000,95.000000,,,,0.000000,4.000000,4.000000,4.000000,4.000000,4.000000,4.000000,4.000000,4.000000,4.000000,4.000000,4.000000,4.000000,4.000000,4.000000,100.000000,,,,,,,,,,,,,,,,
1645707275.726728,86.000000,0.000000,4193.717773,4198.846191,4194.102539,4186.410156,4187.179688,4186.794922,4199.615234,4198.589844,4217.692383,4222.436035,4186.538574,4226.153809,4133.717773,4180.769043,0.000000,4.000000,95.000000,,,,0.000000,4.000000,4.000000,4.000000,4.000000,4.000000,4.000000,4.000000,4.000000,4.000000,4.000000,4.000000,4.000000,4.000000,4.000000,100.000000,,,,,,,,,,,,,,,,
1645707275.730668,87.000000,0.000000,4197.179688,4206.666504,4195.000000,4190.641113,4186.153809,4189.615234,4197.307617,4193.974121,4218.077148,4225.512695,4188.846191,4225.641113,4136.025879,4175.256348,0.000000,4.000000,95.000000,,,,0.000000,4.000000,4.000000,4.000000,4.000000,4.000000,4.000000,4.000000,4.000000,4.000000,4.000000,4.000000,4.000000,4.000000,4.000000,100.000000,,,,,,,,,,,,,,,,
1645707275.734608,88.000000,0.000000,4197.948730,4211.794922,4197.692383,4191.666504,4184.358887,4190.769043,4196.153809,4191.794922,4217.948730,4227.436035,4189.487305,4222.820313,4138.589844,4173.333496,0.000000,4.000000,95.000000,,,,0.000000,4.000000,4.000000,4.000000,4.000000,4.000000,4.000000,4.000000,4.000000,4.000000,4.000000,4.000000,4.000000,4.000000,4.000000,100.000000,,,,,,,,,,,,,,,,
1645707275.738548,89.000000,0.000000,4193.717773,4210.897461,4198.846191,4189.487305,4182.820313,4188.974121,4196.282227,4192.307617,4216.538574,4226.153809,4187.051270,4219.615234,4139.487305,4175.512695,0.000000,4.000000,95.000000,,,,0.000000,4.000000,4.000000,4.000000,4.000000,4.000000,4.000000,4.000000,4.000000,4.000000,4.000000,4.000000,4.000000,4.000000,4.000000,100.000000,,,,,,,,,,,,,,,,
