title:Alex-08DOcYyuDBeX0QFiRRsLCQ, start timestamp:1645707356.793632, stop timestamp:1645707382.794287, headset type:EPOCPLUS, headset serial:3B9AEBFF, headset firmware:626, channels:55, sampling rate:eeg_256, samples:6600      , version:2.1, 
Timestamp,EEG.Counter,EEG.Interpolated,EEG.AF3,EEG.F7,EEG.F3,EEG.FC5,EEG.T7,EEG.P7,EEG.O1,EEG.O2,EEG.P8,EEG.T8,EEG.FC6,EEG.F4,EEG.F8,EEG.AF4,EEG.RawCq,EEG.Battery,EEG.BatteryPercent,MarkerIndex,MarkerType,MarkerValueInt,EEG.MarkerHardware,CQ.AF3,CQ.F7,CQ.F3,CQ.FC5,CQ.T7,CQ.P7,CQ.O1,CQ.O2,CQ.P8,CQ.T8,CQ.FC6,CQ.F4,CQ.F8,CQ.AF4,CQ.Overall,EQ.SampleRateQuality,EQ.OVERALL,EQ.AF3,EQ.F7,EQ.F3,EQ.FC5,EQ.T7,EQ.P7,EQ.O1,EQ.O2,EQ.P8,EQ.T8,EQ.FC6,EQ.F4,EQ.F8,EQ.AF4
1645707356.793632,181.000000,0.000000,4210.512695,3496.923096,4206.538574,4877.436035,4203.717773,4206.410156,4216.794922,4212.307617,4214.358887,4233.333496,4223.205078,4196.153809,4218.461426,4200.769043,3049.000000,4.000000,95.000000,,,,0.000000,4.000000,4.000000,4.000000,4.000000,4.000000,4.000000,4.000000,4.000000,4.000000,4.000000,4.000000,4.000000,4.000000,4.000000,100.000000,,,,,,,,,,,,,,,,
1645707356.797672,182.000000,0.000000,4212.436035,3501.281982,4200.256348,4868.974121,4198.461426,4206.153809,4217.179688,4212.051270,4212.948730,4229.358887,4221.153809,4192.179688,4218.205078,4203.589844,3205.000000,4.000000,95.000000,,,,0.000000,4.000000,4.000000,4.000000,4.000000,4.000000,4.000000,4.000000,4.000000,4.000000,4.000000,4.000000,4.000000,4.000000,4.000000,100.000000,,,,,,,,,,,,,,,,
1645707356.801612,183.000000,0.000000,4212.436035,3501.281982,4195.128418,4858.717773,4197.436035,4204.743652,4212.820313,4208.974121,4211.794922,4223.461426,4216.282227,4185.641113,4219.102539,4210.769043,3452.000000,4.000000,95.000000,,,,0.000000,4.000000,4.000000,4.000000,4.000000,4.000000,4.000000,4.000000,4.000000,4.000000,4.000000,4.000000,4.000000,4.000000,4.000000,100.000000,,,,,,,,,,,,,,,,
1645707356.805552,184.000000,0.000000,4209.871582,3500.384521,4194.615234,4848.589844,4199.358887,4202.692383,4206.922852,4205.769043,4211.666504,4219.102539,4211.922852,4180.128418,4218.589844,4215.769043,3374.000000,4.000000,95.000000,,,,0.000000,4.000000,4.000000,4.000000,4.000000,4.000000,4.000000,4.000000,4.000000,4.000000,4.000000,4.000000,4.000000,4.000000,4.000000,100.000000,,,,,,,,,,,,,,,,
1645707356.809492,185.000000,0.000000,4206.410156,3503.589844,4199.102539,4841.666504,4200.769043,4200.641113,4204.358887,4205.769043,4212.307617,4218.717773,4210.641113,4177.692383,4215.384766,4214.358887,3049.000000,4.000000,95.000000,,,,0.000000,4.000000,4.000000,4.000000,4.000000,4.000000,4.000000,4.000000,4.000000,4.000000,4.000000,4.000000,4.000000,4.000000,4.000000,100.000000,,,,,,,,,,,,,,,,
1645707356.813432,186.000000,0.000000,4205.128418,3513.076904,4205.128418,4838.974121,4199.230957,4200.128418,4206.282227,4208.589844,4212.948730,4222.563965,4212.692383,4178.205078,4210.641113,4207.692383,3205.000000,4.000000,95.000000,,,,0.000000,4.000000,4.000000,4.000000,4.000000,4.000000,4.000000,4.000000,4.000000,4.000000,4.000000,4.000000,4.000000,4.000000,4.000000,100.000000,,,,,,,,,,,,,,,,
1645707356.817372,187.000000,0.000000,4208.077148,3526.923096,4208.205078,4839.358887,4196.666504,4202.307617,4209.743652,4211.025879,4213.461426,4228.077148,4216.922852,4180.256348,4207.436035,4201.282227,3452.000000,4.000000,95.000000,,,,0.000000,4.000000,4.000000,4.000000,4.000000,4.000000,4.000000,4.000000,4.000000,4.000000,4.000000,4.000000,4.000000,4.000000,4.000000,100.000000,,,,,,,,,,,,,,,,
1645707356.821312,188.000000,0.000000,4213.589844,3539.743652,4207.051270,4840.641113,4196.282227,4206.153809,4211.282227,4210.256348,4213.846191,4230.641113,4221.025879,4182.051270,4207.179688,4201.153809,3374.000000,4.000000,95.000000,,,,0.000000,4.000000,4.000000,4.000000,4.000000,4.000000,4.000000,4.000000,4.000000,4.000000,4.000000,4.000000,4.000000,4.000000,4.000000,100.000000,,,,,,,,,,,,,,,,
1645707356.825252,189.000000,0.000000,4217.563965,3546.666748,4203.589844,4840.512695,4199.358887,4208.717773,4209.615234,4206.666504,4213.974121,4226.922852,4222.307617,4182.436035,4207.820313,4208.077148,3049.000000,4.000000,95.000000,,,,0.000000,4.000000,4.000000,4.000000,4.000000,4.000000,4.000000,4.000000,4.000000,4.000000,4.000000,4.000000,4.000000,4.000000,4.000000,100.000000,,,,,,,,,,,,,,,,
1645707356.829192,190.000000,0.000000,4217.179688,3548.589844,4201.025879,4837.948730,4204.102539,4207.436035,4206.794922,4203.333496,4213.846191,4218.846191,4219.871582,4181.025879,4207.179688,4216.922852,3205.000000,4.000000,95.000000,,,,0.000000,4.000000,4.000000,4.000000,4.000000,4.000000,4.000000,4.000000,4.000000,4.000000,4.000000,4.000000,4.000000,4.000000,4.000000,100.000000,,,,,,,,,,,,,,,,
1645707356.833133,191.000000,0.000000,4213.974121,3550.641113,4200.769043,4833.205078,4207.820313,4203.205078,4204.871582,4202.692383,4213.077148,4212.563965,4215.256348,4179.358887,4205.000000,4220.641113,3452.000000,4.000000,95.000000,,,,0.000000,4.000000,4.000000,4.000000,4.000000,4.000000,4.000000,4.000000,4.000000,4.000000,4.000000,4.000000,4.000000,4.000000,4.000000,100.000000,,,,,,,,,,,,,,,,
1645707356.837073,192.000000,0.000000,4211.666504,3558.076904,4202.051270,4826.666504,4208.974121,4199.358887,4204.615234,4204.615234,4212.179688,4213.333496,4212.307617,4180.128418,4204.615234,4216.538574,3374.000000,4.000000,95.000000,,,,0.000000,4.000000,4.000000,4.000000,4.000000,4.000000,4.000000,4.000000,4.000000,4.000000,4.000000,4.000000,4.000000,4.000000,4.000000,100.000000,,,,,,,,,,,,,,,,
1645707356.841013,193.000000,0.000000,4212.948730,3570.769287,4203.846191,4818.846191,4207.563965,4198.846191,4205.256348,4206.922852,4211.410156,4220.512695,4212.948730,4184.871582,4208.333496,4208.589844,3049.000000,4.000000,95.000000,,,,0.000000,4.000000,4.000000,4.000000,4.000000,4.000000,4.000000,4.000000,4.000000,4.000000,4.000000,4.000000,4.000000,4.000000,4.000000,100.000000,,,,,,,,,,,,,,,,
1645707356.844953,194.000000,0.000000,4216.794922,3583.333252,4205.384766,4810.256348,4204.615234,4201.025879,4206.410156,4207.948730,4210.512695,4226.922852,4216.538574,4192.179688,4215.641113,4202.692383,3205.000000,4.000000,95.000000,,,,0.000000,4.000000,4.000000,4.000000,4.000000,4.000000,4.000000,4.000000,4.000000,4.000000,4.000000,4.000000,4.000000,4.000000,4.000000,100.000000,,,,,,,,,,,,,,,,
1645707356.848893,195.000000,0.000000,4220.256348,3590.384521,4206.410156,4802.820313,4201.666504,4203.461426,4208.077148,4207.563965,4210.000000,4227.051270,4220.384766,4198.846191,4223.205078,4201.538574,3452.000000,4.000000,95.000000,,,,0.000000,4.000000,4.000000,4.000000,4.000000,4.000000,4.000000,4.000000,4.000000,4.000000,4.000000,4.000000,4.000000,4.000000,4.000000,100.000000,,,,,,,,,,,,,,,,
1645707356.852833,196.000000,0.000000,4222.051270,3590.769287,4207.051270,4797.563965,4200.512695,4204.358887,4210.128418,4207.051270,4210.641113,4221.666504,4222.948730,4202.563965,4228.333496,4203.461426,3374.000000,4.000000,95.000000,,,,0.000000,4.000000,4.000000,4.000000,4.000000,4.000000,4.000000,4.000000,4.000000,4.000000,4.000000,4.000000,4.000000,4.000000,4.000000,100.000000,,,,,,,,,,,,,,,,
1645707356.856773,197.000000,0.000000,4222.179688,3587.564209,4207.051270,4794.743652,4201.282227,4204.230957,4211.410156,4206.666504,4212.436035,4216.922852,4224.487305,4203.974121,4229.487305,4205.512695,3049.000000,4.000000,95.000000,,,,0.000000,4.000000,4.000000,4.000000,4.000000,4.000000,4.000000,4.000000,4.000000,4.000000,4.000000,4.000000,4.000000,4.000000,4.000000,100.000000,,,,,,,,,,,,,,,,
1645707356.860713,198.000000,0.000000,4221.153809,3584.871826,4206.666504,4792.307617,4202.563965,4204.615234,4211.922852,4206.025879,4214.358887,4217.563965,4225.256348,4204.230957,4226.794922,4206.538574,3205.000000,4.000000,95.000000,,,,0.000000,4.000000,4.000000,4.000000,4.000000,4.000000,4.000000,4.000000,4.000000,4.000000,4.000000,4.000000,4.000000,4.000000,4.000000,100.000000,,,,,,,,,,,,,,,,
1645707356.864653,199.000000,0.000000,4218.461426,3584.487061,4205.769043,4787.307617,4202.563965,4206.282227,4212.436035,4205.512695,4214.615234,4222.692383,4224.102539,4203.333496,4221.025879,4208.077148,3452.000000,4.000000,95.000000,,,,0.000000,4.000000,4.000000,4.000000,4.000000,4.000000,4.000000,4.000000,4.000000,4.000000,4.000000,4.000000,4.000000,4.000000,4.000000,100.000000,,,,,,,,,,,,,,,,
1645707356.868594,200.000000,0.000000,4213.589844,3586.666748,4204.358887,4778.205078,4200.897461,4209.230957,4214.230957,4205.897461,4213.205078,4228.077148,4220.641113,4200.769043,4215.128418,4212.563965,3374.000000,4.000000,95.000000,,,,0.000000,4.000000,4.000000,4.000000,4.000000,4.000000,4.000000,4.000000,4.000000,4.000000,4.000000,4.000000,4.000000,4.000000,4.000000,100.000000,,,,,,,,,,,,,,,,
1645707356.872434,201.000000,0.000000,4207.307617,3591.281982,4202.179688,4765.897461,4199.358887,4212.692383,4216.538574,4207.563965,4211.922852,4230.128418,4216.794922,4196.922852,4212.563965,4219.871582,3049.000000,4.000000,95.000000,,,,0.000000,4.000000,4.000000,4.000000,4.000000,4.000000,4.000000,4.000000,4.000000,4.000000,4.000000,4.000000,4.000000,4.000000,4.000000,100.000000,,,,,,,,,,,,,,,,
1645707356.876374,202.000000,0.000000,4202.179688,3598.461426,4199.358887,4754.358887,4200.128418,4215.512695,4217.179688,4209.615234,4212.692383,4229.230957,4215.641113,4193.077148,4215.256348,4226.538574,3205.000000,4.000000,95.000000,,,,0.000000,4.000000,4.000000,4.000000,4.000000,4.000000,4.000000,4.000000,4.000000,4.000000,4.000000,4.000000,4.000000,4.000000,4.000000,100.000000,,,,,,,,,,,,,,,,
1645707356.880314,203.000000,0.000000,4200.769043,3607.435791,4196.666504,4747.948730,4203.205078,4216.025879,4215.000000,4211.153809,4215.128418,4227.436035,4218.333496,4190.769043,4221.153809,4227.436035,3452.000000,4.000000,95.000000,,,,0.000000,4.000000,4.000000,4.000000,4.000000,4.000000,4.000000,4.000000,4.000000,4.000000,4.000000,4.000000,4.000000,4.000000,4.000000,100.000000,,,,,,,,,,,,,,,,
1645707356.884254,204.000000,0.000000,4202.563965,3616.666748,4195.512695,4747.051270,4205.384766,4213.461426,4211.666504,4211.666504,4217.436035,4226.410156,4222.051270,4189.871582,4225.256348,4220.384766,3374.000000,4.000000,95.000000,,,,0.000000,4.000000,4.000000,4.000000,4.000000,4.000000,4.000000,4.000000,4.000000,4.000000,4.000000,4.000000,4.000000,4.000000,4.000000,100.000000,,,,,,,,,,,,,,,,
1645707356.888194,205.000000,0.000000,4204.102539,3624.358887,4196.410156,4748.717773,4203.974121,4209.102539,4209.743652,4211.153809,4218.205078,4225.641113,4223.205078,4189.487305,4223.717773,4208.974121,3049.000000,4.000000,95.000000,,,,0.000000,4.000000,4.000000,4.000000,4.000000,4.000000,4.000000,4.000000,4.000000,4.000000,4.000000,4.000000,4.000000,4.000000,4.000000,100.000000,,,,,,,,,,,,,,,,
1645707356.892134,206.000000,0.000000,4202.307617,3630.256348,4198.333496,4749.358887,4199.743652,4205.897461,4210.256348,4210.128418,4217.307617,4224.358887,4221.025879,4189.102539,4216.410156,4200.641113,3205.000000,4.000000,95.000000,,,,0.000000,4.000000,4.000000,4.000000,4.000000,4.000000,4.000000,4.000000,4.000000,4.000000,4.000000,4.000000,4.000000,4.000000,4.000000,100.000000,,,,,,,,,,,,,,,,
1645707356.896074,207.000000,0.000000,4197.307617,3635.641113,4199.358887,4748.077148,4196.922852,4206.025879,4211.922852,4209.230957,4216.410156,4221.922852,4218.333496,4188.205078,4207.692383,4200.769043,3452.000000,4.000000,95.000000,,,,0.000000,4.000000,4.000000,4.000000,4.000000,4.000000,4.000000,4.000000,4.000000,4.000000,4.000000,4.000000,4.000000,4.000000,4.000000,100.000000,,,,,,,,,,,,,,,,
1645707356.900014,208.000000,0.000000,4192.436035,3642.051270,4198.846191,4745.769043,4198.974121,4209.230957,4212.692383,4208.974121,4216.410156,4219.358887,4217.307617,4186.538574,4202.820313,4208.077148,3374.000000,4.000000,95.000000,,,,0.000000,4.000000,4.000000,4.000000,4.000000,4.000000,4.000000,4.000000,4.000000,4.000000,4.000000,4.000000,4.000000,4.000000,4.000000,100.000000,,,,,,,,,,,,,,,,
1645707356.903955,209.000000,0.000000,4190.256348,3649.487061,4197.948730,4741.794922,4205.384766,4212.436035,4212.179688,4209.615234,4216.922852,4217.563965,4217.307617,4184.102539,4204.102539,4214.743652,3049.000000,4.000000,95.000000,,,,0.000000,4.000000,4.000000,4.000000,4.000000,4.000000,4.000000,4.000000,4.000000,4.000000,4.000000,4.000000,4.000000,4.000000,4.000000,100.000000,,,,,,,,,,,,,,,,
1645707356.907895,210.000000,0.000000,4191.153809,3656.025635,4197.692383,4734.871582,4211.922852,4213.077148,4212.051270,4210.641113,4216.666504,4217.307617,4215.769043,4182.179688,4209.487305,4213.717773,3205.000000,4.000000,95.000000,,,,0.000000,4.000000,4.000000,4.000000,4.000000,4.000000,4.000000,4.000000,4.000000,4.000000,4.000000,4.000000,4.000000,4.000000,4.000000,100.000000,,,,,,,,,,,,,,,,
1645707356.911835,211.000000,0.000000,4193.717773,3660.128174,4198.077148,4724.615234,4214.871582,4211.410156,4213.205078,4210.897461,4215.256348,4218.846191,4212.307617,4182.179688,4215.000000,4205.256348,3452.000000,4.000000,95.000000,,,,0.000000,4.000000,4.000000,4.000000,4.000000,4.000000,4.000000,4.000000,4.000000,4.000000,4.000000,4.000000,4.000000,4.000000,4.000000,100.000000,,,,,,,,,,,,,,,,
1645707356.915775,212.000000,0.000000,4196.538574,3662.948730,4198.461426,4713.974121,4213.461426,4210.000000,4214.487305,4209.871582,4213.461426,4221.538574,4210.384766,4184.102539,4218.333496,4196.794922,3374.000000,4.000000,95.000000,,,,0.000000,4.000000,4.000000,4.000000,4.000000,4.000000,4.000000,4.000000,4.000000,4.000000,4.000000,4.000000,4.000000,4.000000,4.000000,100.000000,,,,,,,,,,,,,,,,
1645707356.919715,213.000000,0.000000,4198.974121,3667.307617,4198.333496,4707.563965,4209.102539,4210.384766,4213.846191,4207.820313,4212.563965,4224.871582,4213.077148,4186.282227,4220.000000,4196.282227,3049.000000,4.000000,95.000000,,,,0.000000,4.000000,4.000000,4.000000,4.000000,4.000000,4.000000,4.000000,4.000000,4.000000,4.000000,4.000000,4.000000,4.000000,4.000000,100.000000,,,,,,,,,,,,,,,,
1645707356.923655,214.000000,0.000000,4201.666504,3675.128174,4198.077148,4707.307617,4204.871582,4211.922852,4211.410156,4206.666504,4212.563965,4227.948730,4220.000000,4187.051270,4221.922852,4204.743652,3205.000000,4.000000,95.000000,,,,0.000000,4.000000,4.000000,4.000000,4.000000,4.000000,4.000000,4.000000,4.000000,4.000000,4.000000,4.000000,4.000000,4.000000,4.000000,100.000000,,,,,,,,,,,,,,,,
1645707356.927595,215.000000,0.000000,4205.128418,3685.641113,4198.333496,4711.025879,4203.077148,4212.692383,4209.230957,4207.820313,4213.077148,4230.256348,4227.307617,4186.666504,4225.128418,4216.153809,3452.000000,4.000000,95.000000,,,,0.000000,4.000000,4.000000,4.000000,4.000000,4.000000,4.000000,4.000000,4.000000,4.000000,4.000000,4.000000,4.000000,4.000000,4.000000,100.000000,,,,,,,,,,,,,,,,
1645707356.931535,216.000000,0.000000,4208.846191,3695.384521,4199.102539,4713.846191,4205.128418,4212.051270,4208.846191,4210.769043,4213.717773,4231.538574,4230.897461,4186.794922,4228.461426,4222.820313,3374.000000,4.000000,95.000000,,,,0.000000,4.000000,4.000000,4.000000,4.000000,4.000000,4.000000,4.000000,4.000000,4.000000,4.000000,4.000000,4.000000,4.000000,4.000000,100.000000,,,,,,,,,,,,,,,,
1645707356.935475,217.000000,0.000000,4211.025879,3700.512939,4199.615234,4711.794922,4209.871582,4211.025879,4209.487305,4213.205078,4214.358887,4231.410156,4229.487305,4187.948730,4230.128418,4222.436035,3049.000000,4.000000,95.000000,,,,0.000000,4.000000,4.000000,4.000000,4.000000,4.000000,4.000000,4.000000,4.000000,4.000000,4.000000,4.000000,4.000000,4.000000,4.000000,100.000000,,,,,,,,,,,,,,,,
1645707356.939515,218.000000,0.000000,4209.230957,3700.128174,4198.717773,4703.717773,4214.871582,4210.256348,4209.358887,4213.205078,4215.641113,4229.487305,4224.487305,4188.333496,4228.974121,4217.307617,3205.000000,4.000000,95.000000,,,,0.000000,4.000000,4.000000,4.000000,4.000000,4.000000,4.000000,4.000000,4.000000,4.000000,4.000000,4.000000,4.000000,4.000000,4.000000,100.000000,1.000000,8.333333,4.000000,0.000000,4.000000,0.000000,4.000000,4.000000,4.000000,4.000000,1.000000,4.000000,4.000000,4.000000,4.000000,4.000000
1645707356.943456,219.000000,0.000000,4202.820313,3696.410156,4195.897461,4691.666504,4216.282227,4210.000000,4208.461426,4211.025879,4217.436035,4225.769043,4218.717773,4185.641113,4224.615234,4211.153809,3452.000000,4.000000,95.000000,,,,0.000000,4.000000,4.000000,4.000000,4.000000,4.000000,4.000000,4.000000,4.000000,4.000000,4.000000,4.000000,4.000000,4.000000,4.000000,100.000000,,,,,,,,,,,,,,,,
1645707356.947396,220.000000,0.000000,4194.102539,3692.948730,4192.436035,4678.846191,4212.179688,4209.487305,4207.820313,4208.077148,4218.205078,4220.769043,4213.974121,4179.230957,4218.589844,4205.897461,3374.000000,4.000000,95.000000,,,,0.000000,4.000000,4.000000,4.000000,4.000000,4.000000,4.000000,4.000000,4.000000,4.000000,4.000000,4.000000,4.000000,4.000000,4.000000,100.000000,,,,,,,,,,,,,,,,
1645707356.951336,221.000000,0.000000,4187.820313,3692.692383,4190.384766,4667.820313,4203.846191,4208.333496,4208.461426,4205.641113,4216.282227,4215.512695,4210.512695,4171.666504,4212.948730,4201.538574,3049.000000,4.000000,95.000000,,,,0.000000,4.000000,4.000000,4.000000,4.000000,4.000000,4.000000,4.000000,4.000000,4.000000,4.000000,4.000000,4.000000,4.000000,4.000000,100.000000,,,,,,,,,,,,,,,,
1645707356.955276,222.000000,0.000000,4187.820313,3696.538574,4190.641113,4660.384766,4196.282227,4207.051270,4209.230957,4203.333496,4211.794922,4210.769043,4208.205078,4166.282227,4209.743652,4198.205078,3205.000000,4.000000,95.000000,,,,0.000000,4.000000,4.000000,4.000000,4.000000,4.000000,4.000000,4.000000,4.000000,4.000000,4.000000,4.000000,4.000000,4.000000,4.000000,100.000000,,,,,,,,,,,,,,,,
1645707356.959216,223.000000,0.000000,4192.948730,3703.076904,4192.692383,4655.769043,4193.717773,4206.282227,4208.846191,4200.512695,4207.051270,4206.794922,4206.282227,4164.615234,4209.743652,4197.051270,3452.000000,4.000000,95.000000,,,,0.000000,4.000000,4.000000,4.000000,4.000000,4.000000,4.000000,4.000000,4.000000,4.000000,4.000000,4.000000,4.000000,4.000000,4.000000,100.000000,,,,,,,,,,,,,,,,
1645707356.963156,224.000000,0.000000,4198.589844,3709.871826,4195.256348,4652.179688,4195.512695,4206.282227,4207.051270,4197.563965,4205.000000,4203.077148,4204.230957,4165.512695,4211.282227,4198.461426,3374.000000,4.000000,95.000000,,,,0.000000,4.000000,4.000000,4.000000,4.000000,4.000000,4.000000,4.000000,4.000000,4.000000,4.000000,4.000000,4.000000,4.000000,4.000000,100.000000,,,,,,,,,,,,,,,,
1645707356.967096,225.000000,0.000000,4199.871582,3715.256348,4197.436035,4648.717773,4197.436035,4206.410156,4205.641113,4195.641113,4205.769043,4199.102539,4201.922852,4166.922852,4211.794922,4201.282227,3049.000000,4.000000,95.000000,,,,0.000000,4.000000,4.000000,4.000000,4.000000,4.000000,4.000000,4.000000,4.000000,4.000000,4.000000,4.000000,4.000000,4.000000,4.000000,100.000000,,,,,,,,,,,,,,,,
1645707356.971036,226.000000,0.000000,4196.538574,3719.615479,4198.461426,4646.282227,4196.794922,4206.410156,4206.282227,4195.769043,4207.307617,4196.153809,4200.512695,4168.077148,4208.846191,4203.077148,3205.000000,4.000000,95.000000,,,,0.000000,4.000000,4.000000,4.000000,4.000000,4.000000,4.000000,4.000000,4.000000,4.000000,4.000000,4.000000,4.000000,4.000000,4.000000,100.000000,,,,,,,,,,,,,,,,
1645707356.974976,227.000000,0.000000,4192.692383,3724.871826,4197.563965,4646.410156,4195.384766,4207.051270,4208.589844,4197.563965,4207.948730,4197.436035,4201.282227,4169.230957,4202.948730,4202.563965,3452.000000,4.000000,95.000000,,,,0.000000,4.000000,4.000000,4.000000,4.000000,4.000000,4.000000,4.000000,4.000000,4.000000,4.000000,4.000000,4.000000,4.000000,4.000000,100.000000,,,,,,,,,,,,,,,,
1645707356.978916,228.000000,0.000000,4192.948730,3732.435791,4194.871582,4648.461426,4197.692383,4208.974121,4210.641113,4199.743652,4207.820313,4204.615234,4203.717773,4170.256348,4196.922852,4199.487305,3374.000000,4.000000,95.000000,,,,0.000000,4.000000,4.000000,4.000000,4.000000,4.000000,4.000000,4.000000,4.000000,4.000000,4.000000,4.000000,4.000000,4.000000,4.000000,100.000000,,,,,,,,,,,,,,,,
1645707356.982857,229.000000,0.000000,4197.820313,3741.025635,4191.410156,4648.846191,4205.384766,4211.922852,4211.410156,4201.538574,4207.820313,4215.000000,4204.743652,4170.256348,4193.205078,4196.025879,3049.000000,4.000000,95.000000,,,,0.000000,4.000000,4.000000,4.000000,4.000000,4.000000,4.000000,4.000000,4.000000,4.000000,4.000000,4.000000,4.000000,4.000000,4.000000,100.000000,,,,,,,,,,,,,,,,
1645707356.986797,230.000000,0.000000,4203.461426,3748.461426,4188.589844,4644.743652,4214.615234,4214.871582,4212.307617,4203.333496,4208.077148,4222.051270,4202.563965,4167.820313,4193.461426,4195.000000,3205.000000,4.000000,95.000000,,,,0.000000,4.000000,4.000000,4.000000,4.000000,4.000000,4.000000,4.000000,4.000000,4.000000,4.000000,4.000000,4.000000,4.000000,4.000000,100.000000,,,,,,,,,,,,,,,,
1645707356.990737,231.000000,0.000000,4205.641113,3753.718018,4187.307617,4637.436035,4219.871582,4216.538574,4214.358887,4205.512695,4207.820313,4221.410156,4198.205078,4163.461426,4197.179688,4197.436035,3452.000000,4.000000,95.000000,,,,0.000000,4.000000,4.000000,4.000000,4.000000,4.000000,4.000000,4.000000,4.000000,4.000000,4.000000,4.000000,4.000000,4.000000,4.000000,100.000000,,,,,,,,,,,,,,,,
1645707356.994677,232.000000,0.000000,4202.948730,3757.948730,4186.538574,4630.641113,4218.717773,4216.922852,4217.051270,4207.051270,4207.051270,4214.102539,4195.512695,4159.358887,4202.948730,4201.922852,3374.000000,4.000000,95.000000,,,,0.000000,4.000000,4.000000,4.000000,4.000000,4.000000,4.000000,4.000000,4.000000,4.000000,4.000000,4.000000,4.000000,4.000000,4.000000,100.000000,,,,,,,,,,,,,,,,
1645707356.998617,233.000000,0.000000,4197.051270,3762.051270,4185.256348,4626.666504,4213.974121,4216.794922,4218.205078,4206.538574,4206.410156,4205.512695,4195.897461,4158.717773,4208.589844,4204.358887,3049.000000,4.000000,95.000000,,,,0.000000,4.000000,4.000000,4.000000,4.000000,4.000000,4.000000,4.000000,4.000000,4.000000,4.000000,4.000000,4.000000,4.000000,4.000000,100.000000,,,,,,,,,,,,,,,,
1645707357.002557,234.000000,0.000000,4189.871582,3765.000000,4183.333496,4623.461426,4209.230957,4216.410156,4216.922852,4203.461426,4206.410156,4200.384766,4197.307617,4162.692383,4210.384766,4200.897461,3205.000000,4.000000,95.000000,,,,0.000000,4.000000,4.000000,4.000000,4.000000,4.000000,4.000000,4.000000,4.000000,4.000000,4.000000,4.000000,4.000000,4.000000,4.000000,100.000000,,,,,,,,,,,,,,,,
1645707357.006497,235.000000,0.000000,4183.077148,3765.256348,4181.666504,4617.179688,4206.794922,4215.512695,4214.615234,4199.743652,4206.666504,4199.230957,4195.769043,4169.102539,4206.922852,4191.922852,3452.000000,4.000000,95.000000,,,,0.000000,4.000000,4.000000,4.000000,4.000000,4.000000,4.000000,4.000000,4.000000,4.000000,4.000000,4.000000,4.000000,4.000000,4.000000,100.000000,,,,,,,,,,,,,,,,
1645707357.010537,236.000000,0.000000,4178.077148,3763.718018,4181.153809,4607.436035,4205.897461,4213.974121,4213.589844,4198.077148,4207.436035,4200.384766,4190.512695,4173.461426,4200.897461,4181.794922,3374.000000,4.000000,95.000000,,,,0.000000,4.000000,4.000000,4.000000,4.000000,4.000000,4.000000,4.000000,4.000000,4.000000,4.000000,4.000000,4.000000,4.000000,4.000000,100.000000,,,,,,,,,,,,,,,,
1645707357.014477,237.000000,0.000000,4177.436035,3763.846191,4181.922852,4598.589844,4205.897461,4213.333496,4214.358887,4200.000000,4208.717773,4202.820313,4186.025879,4173.461426,4198.974121,4177.051270,3049.000000,4.000000,95.000000,,,,0.000000,4.000000,4.000000,4.000000,4.000000,4.000000,4.000000,4.000000,4.000000,4.000000,4.000000,4.000000,4.000000,4.000000,4.000000,100.000000,,,,,,,,,,,,,,,,
1645707357.018417,238.000000,0.000000,4182.692383,3769.615479,4184.487305,4595.897461,4206.025879,4214.615234,4216.153809,4204.743652,4210.641113,4207.563965,4187.692383,4171.794922,4205.512695,4182.051270,3205.000000,4.000000,95.000000,,,,0.000000,4.000000,4.000000,4.000000,4.000000,4.000000,4.000000,4.000000,4.000000,4.000000,4.000000,4.000000,4.000000,4.000000,4.000000,100.000000,,,,,,,,,,,,,,,,
1645707357.022358,239.000000,0.000000,4192.948730,3781.153809,4189.358887,4600.641113,4206.153809,4218.077148,4217.563965,4209.487305,4212.436035,4214.871582,4197.051270,4173.461426,4218.717773,4195.384766,3452.000000,4.000000,95.000000,,,,0.000000,4.000000,4.000000,4.000000,4.000000,4.000000,4.000000,4.000000,4.000000,4.000000,4.000000,4.000000,4.000000,4.000000,4.000000,100.000000,,,,,,,,,,,,,,,,
1645707357.026298,240.000000,0.000000,4203.717773,3794.358887,4196.666504,4608.717773,4205.512695,4221.666504,4218.333496,4212.436035,4213.589844,4222.692383,4209.871582,4180.641113,4231.922852,4211.025879,3374.000000,4.000000,95.000000,,,,0.000000,4.000000,4.000000,4.000000,4.000000,4.000000,4.000000,4.000000,4.000000,4.000000,4.000000,4.000000,4.000000,4.000000,4.000000,100.000000,,,,,,,,,,,,,,,,
1645707357.030238,241.000000,0.000000,4210.128418,3804.743652,4204.102539,4613.461426,4204.487305,4222.948730,4219.230957,4213.333496,4214.230957,4227.563965,4220.000000,4190.384766,4238.589844,4222.307617,3049.000000,4.000000,95.000000,,,,0.000000,4.000000,4.000000,4.000000,4.000000,4.000000,4.000000,4.000000,4.000000,4.000000,4.000000,4.000000,4.000000,4.000000,4.000000,100.000000,,,,,,,,,,,,,,,,
1645707357.034178,242.000000,0.000000,4210.897461,3810.769287,4208.333496,4610.384766,4204.743652,4221.666504,4219.743652,4213.333496,4215.384766,4227.948730,4223.589844,4197.692383,4237.179688,4226.410156,3205.000000,4.000000,95.000000,,,,0.000000,4.000000,4.000000,4.000000,4.000000,4.000000,4.000000,4.000000,4.000000,4.000000,4.000000,4.000000,4.000000,4.000000,4.000000,100.000000,,,,,,,,,,,,,,,,
1645707357.038118,243.000000,0.000000,4208.846191,3813.461426,4207.179688,4599.743652,4207.051270,4219.358887,4219.102539,4213.461426,4217.436035,4225.769043,4221.282227,4200.256348,4232.051270,4225.000000,3452.000000,4.000000,95.000000,,,,0.000000,4.000000,4.000000,4.000000,4.000000,4.000000,4.000000,4.000000,4.000000,4.000000,4.000000,4.000000,4.000000,4.000000,4.000000,100.000000,,,,,,,,,,,,,,,,
1645707357.042058,244.000000,0.000000,4208.461426,3814.615479,4202.563965,4585.769043,4209.487305,4216.922852,4216.922852,4214.102539,4219.230957,4223.589844,4216.025879,4199.230957,4228.461426,4221.410156,3374.000000,4.000000,95.000000,,,,0.000000,4.000000,4.000000,4.000000,4.000000,4.000000,4.000000,4.000000,4.000000,4.000000,4.000000,4.000000,4.000000,4.000000,4.000000,100.000000,,,,,,,,,,,,,,,,
1645707357.045998,245.000000,0.000000,4210.897461,3814.615479,4198.205078,4573.205078,4208.717773,4214.487305,4214.871582,4215.128418,4218.974121,4222.051270,4210.128418,4197.179688,4228.205078,4218.077148,3049.000000,4.000000,95.000000,,,,0.000000,4.000000,4.000000,4.000000,4.000000,4.000000,4.000000,4.000000,4.000000,4.000000,4.000000,4.000000,4.000000,4.000000,4.000000,100.000000,,,,,,,,,,,,,,,,
1645707357.049938,246.000000,0.000000,4213.205078,3813.846191,4196.538574,4565.000000,4204.102539,4211.410156,4214.102539,4215.641113,4216.410156,4220.512695,4205.128418,4195.769043,4229.358887,4215.769043,3205.000000,4.000000,95.000000,,,,0.000000,4.000000,4.000000,4.000000,4.000000,4.000000,4.000000,4.000000,4.000000,4.000000,4.000000,4.000000,4.000000,4.000000,4.000000,100.000000,,,,,,,,,,,,,,,,
1645707357.053878,247.000000,0.000000,4213.077148,3813.589844,4196.922852,4561.666504,4198.974121,4208.846191,4214.487305,4213.589844,4213.077148,4218.846191,4202.820313,4194.615234,4228.205078,4213.846191,3452.000000,4.000000,95.000000,,,,0.000000,4.000000,4.000000,4.000000,4.000000,4.000000,4.000000,4.000000,4.000000,4.000000,4.000000,4.000000,4.000000,4.000000,4.000000,100.000000,,,,,,,,,,,,,,,,
1645707357.057818,248.000000,0.000000,4211.153809,3816.410156,4197.179688,4561.410156,4197.820313,4208.974121,4214.871582,4209.102539,4210.641113,4218.461426,4204.487305,4193.077148,4223.846191,4211.538574,3374.000000,4.000000,95.000000,,,,0.000000,4.000000,4.000000,4.000000,4.000000,4.000000,4.000000,4.000000,4.000000,4.000000,4.000000,4.000000,4.000000,4.000000,4.000000,100.000000,,,,,,,,,,,,,,,,
1645707357.061759,249.000000,0.000000,4209.871582,3823.461426,4196.410156,4562.051270,4202.051270,4212.692383,4215.128418,4204.487305,4210.384766,4220.512695,4208.974121,4191.282227,4217.692383,4208.974121,3049.000000,4.000000,95.000000,,,,0.000000,4.000000,4.000000,4.000000,4.000000,4.000000,4.000000,4.000000,4.000000,4.000000,4.000000,4.000000,4.000000,4.000000,4.000000,100.000000,,,,,,,,,,,,,,,,
1645707357.065699,250.000000,0.000000,4210.769043,3833.076904,4195.256348,4561.666504,4207.692383,4217.948730,4216.153809,4203.205078,4212.051270,4224.487305,4212.692383,4190.000000,4212.563965,4206.538574,3205.000000,4.000000,95.000000,,,,0.000000,4.000000,4.000000,4.000000,4.000000,4.000000,4.000000,4.000000,4.000000,4.000000,4.000000,4.000000,4.000000,4.000000,4.000000,100.000000,,,,,,,,,,,,,,,,
1645707357.069639,251.000000,0.000000,4212.820313,3841.666748,4193.717773,4559.487305,4209.358887,4222.051270,4218.974121,4206.666504,4214.615234,4228.589844,4212.179688,4189.358887,4210.256348,4204.615234,3452.000000,4.000000,95.000000,,,,0.000000,4.000000,4.000000,4.000000,4.000000,4.000000,4.000000,4.000000,4.000000,4.000000,4.000000,4.000000,4.000000,4.000000,4.000000,100.000000,,,,,,,,,,,,,,,,
1645707357.073579,252.000000,0.000000,4214.102539,3846.794922,4191.538574,4556.025879,4205.897461,4223.974121,4222.307617,4212.051270,4217.051270,4231.922852,4207.820313,4189.230957,4211.794922,4203.846191,3374.000000,4.000000,95.000000,,,,0.000000,4.000000,4.000000,4.000000,4.000000,4.000000,4.000000,4.000000,4.000000,4.000000,4.000000,4.000000,4.000000,4.000000,4.000000,100.000000,,,,,,,,,,,,,,,,
1645707357.077519,253.000000,0.000000,4213.461426,3848.461426,4188.205078,4551.666504,4201.410156,4223.717773,4223.974121,4215.641113,4218.205078,4234.230957,4203.974121,4188.974121,4216.666504,4205.000000,3049.000000,4.000000,95.000000,,,,0.000000,4.000000,4.000000,4.000000,4.000000,4.000000,4.000000,4.000000,4.000000,4.000000,4.000000,4.000000,4.000000,4.000000,4.000000,100.000000,,,,,,,,,,,,,,,,
1645707357.081559,254.000000,0.000000,4210.000000,3848.333252,4185.128418,4547.563965,4200.384766,4222.179688,4223.077148,4215.769043,4218.077148,4235.000000,4204.615234,4187.692383,4222.436035,4208.333496,3205.000000,4.000000,95.000000,,,,0.000000,4.000000,4.000000,4.000000,4.000000,4.000000,4.000000,4.000000,4.000000,4.000000,4.000000,4.000000,4.000000,4.000000,4.000000,100.000000,,,,,,,,,,,,,,,,
1645707357.085499,255.000000,0.000000,4203.974121,3848.589844,4183.846191,4543.717773,4203.974121,4220.000000,4220.769043,4214.358887,4217.307617,4233.846191,4209.358887,4185.384766,4226.666504,4211.794922,115.000000,4.000000,95.000000,,,,0.000000,4.000000,4.000000,4.000000,4.000000,4.000000,4.000000,4.000000,4.000000,4.000000,4.000000,4.000000,4.000000,4.000000,4.000000,100.000000,,,,,,,,,,,,,,,,
1645707357.089439,0.000000,0.000000,4197.563965,3850.512939,4185.128418,4539.615234,4209.230957,4217.820313,4219.487305,4214.487305,4216.794922,4231.410156,4214.615234,4182.563965,4228.205078,4213.205078,3207.000000,4.000000,95.000000,,,,0.000000,4.000000,4.000000,4.000000,4.000000,4.000000,4.000000,4.000000,4.000000,4.000000,4.000000,4.000000,4.000000,4.000000,4.000000,100.000000,,,,,,,,,,,,,,,,
1645707357.093379,1.000000,0.000000,4194.743652,3854.743652,4187.307617,4534.487305,4212.179688,4217.436035,4220.000000,4216.794922,4217.051270,4229.871582,4217.307617,4180.769043,4229.102539,4213.205078,3291.000000,4.000000,95.000000,,,,0.000000,4.000000,4.000000,4.000000,4.000000,4.000000,4.000000,4.000000,4.000000,4.000000,4.000000,4.000000,4.000000,4.000000,4.000000,100.000000,,,,,,,,,,,,,,,,
1645707357.097319,2.000000,0.000000,4198.461426,3861.025635,4188.974121,4528.461426,4211.410156,4219.871582,4220.769043,4219.615234,4218.461426,4231.666504,4217.820313,4181.153809,4231.410156,4214.615234,3657.000000,4.000000,95.000000,,,,0.000000,4.000000,4.000000,4.000000,4.000000,4.000000,4.000000,4.000000,4.000000,4.000000,4.000000,4.000000,4.000000,4.000000,4.000000,100.000000,,,,,,,,,,,,,,,,
1645707357.101260,3.000000,0.000000,4207.307617,3867.692383,4189.358887,4522.563965,4208.205078,4223.974121,4220.512695,4221.153809,4220.769043,4236.794922,4218.717773,4183.974121,4235.769043,4218.974121,3452.000000,4.000000,95.000000,,,,0.000000,4.000000,4.000000,4.000000,4.000000,4.000000,4.000000,4.000000,4.000000,4.000000,4.000000,4.000000,4.000000,4.000000,4.000000,100.000000,,,,,,,,,,,,,,,,
1645707357.105200,4.000000,0.000000,4215.769043,3872.820557,4188.717773,4518.205078,4205.128418,4226.794922,4219.487305,4221.153809,4223.333496,4242.179688,4221.282227,4187.307617,4239.871582,4223.589844,3511.000000,4.000000,95.000000,,,,0.000000,4.000000,4.000000,4.000000,4.000000,4.000000,4.000000,4.000000,4.000000,4.000000,4.000000,4.000000,4.000000,4.000000,4.000000,100.000000,,,,,,,,,,,,,,,,
1645707357.109040,5.000000,0.000000,4218.717773,3875.769287,4188.333496,4515.769043,4203.846191,4226.025879,4218.846191,4220.641113,4225.128418,4244.358887,4224.743652,4188.846191,4241.410156,4224.358887,3391.000000,4.000000,95.000000,,,,0.000000,4.000000,4.000000,4.000000,4.000000,4.000000,4.000000,4.000000,4.000000,4.000000,4.000000,4.000000,4.000000,4.000000,4.000000,100.000000,,,,,,,,,,,,,,,,
1645707357.112980,6.000000,0.000000,4215.769043,3878.461426,4188.717773,4514.871582,4204.230957,4222.436035,4219.358887,4219.871582,4225.128418,4242.948730,4227.307617,4188.205078,4240.512695,4220.641113,2873.000000,4.000000,95.000000,,,,0.000000,4.000000,4.000000,4.000000,4.000000,4.000000,4.000000,4.000000,4.000000,4.000000,4.000000,4.000000,4.000000,4.000000,4.000000,100.000000,,,,,,,,,,,,,,,,
1645707357.116920,7.000000,0.000000,4211.282227,3882.820557,4189.743652,4515.128418,4205.128418,4219.230957,4219.743652,4218.205078,4223.589844,4240.000000,4227.692383,4186.410156,4239.358887,4216.153809,2877.000000,4.000000,95.000000,,,,0.000000,4.000000,4.000000,4.000000,4.000000,4.000000,4.000000,4.000000,4.000000,4.000000,4.000000,4.000000,4.000000,4.000000,4.000000,100.000000,,,,,,,,,,,,,,,,
1645707357.120860,8.000000,0.000000,4209.615234,3888.333252,4190.641113,4515.897461,4204.871582,4218.461426,4218.974121,4215.256348,4221.282227,4237.692383,4226.153809,4185.128418,4240.384766,4214.358887,1519.000000,4.000000,95.000000,,,,0.000000,4.000000,4.000000,4.000000,4.000000,4.000000,4.000000,4.000000,4.000000,4.000000,4.000000,4.000000,4.000000,4.000000,4.000000,100.000000,,,,,,,,,,,,,,,,
1645707357.124800,9.000000,0.000000,4211.538574,3892.948730,4191.153809,4515.769043,4202.820313,4219.615234,4217.563965,4211.410156,4219.230957,4236.153809,4223.589844,4185.769043,4243.333496,4215.769043,3286.000000,4.000000,95.000000,,,,0.000000,4.000000,4.000000,4.000000,4.000000,4.000000,4.000000,4.000000,4.000000,4.000000,4.000000,4.000000,4.000000,4.000000,4.000000,100.000000,,,,,,,,,,,,,,,,
1645707357.128640,10.000000,0.000000,4214.358887,3896.153809,4190.897461,4512.820313,4200.128418,4220.512695,4216.922852,4207.948730,4218.846191,4234.487305,4220.384766,4188.589844,4246.153809,4218.589844,3201.000000,4.000000,95.000000,,,,0.000000,4.000000,4.000000,4.000000,4.000000,4.000000,4.000000,4.000000,4.000000,4.000000,4.000000,4.000000,4.000000,4.000000,4.000000,100.000000,,,,,,,,,,,,,,,,
1645707357.132581,11.000000,0.000000,4215.384766,3899.358887,4190.000000,4507.307617,4199.230957,4219.615234,4217.051270,4206.282227,4220.256348,4233.589844,4217.692383,4192.179688,4247.692383,4221.538574,3462.000000,4.000000,95.000000,,,,0.000000,4.000000,4.000000,4.000000,4.000000,4.000000,4.000000,4.000000,4.000000,4.000000,4.000000,4.000000,4.000000,4.000000,4.000000,100.000000,,,,,,,,,,,,,,,,
1645707357.136521,12.000000,0.000000,4214.615234,3904.487061,4189.102539,4501.410156,4201.666504,4217.436035,4215.897461,4206.794922,4222.179688,4234.487305,4216.282227,4194.230957,4248.717773,4224.615234,3514.000000,4.000000,95.000000,,,,0.000000,4.000000,4.000000,4.000000,4.000000,4.000000,4.000000,4.000000,4.000000,4.000000,4.000000,4.000000,4.000000,4.000000,4.000000,100.000000,,,,,,,,,,,,,,,,
1645707357.140461,13.000000,0.000000,4214.230957,3911.153809,4189.230957,4497.436035,4206.410156,4215.128418,4212.563965,4209.230957,4223.077148,4236.666504,4216.410156,4192.948730,4249.102539,4227.692383,3201.000000,4.000000,95.000000,,,,0.000000,4.000000,4.000000,4.000000,4.000000,4.000000,4.000000,4.000000,4.000000,4.000000,4.000000,4.000000,4.000000,4.000000,4.000000,100.000000,,,,,,,,,,,,,,,,
1645707357.144401,14.000000,0.000000,4215.256348,3916.538574,4190.769043,4496.410156,4209.871582,4213.974121,4208.589844,4212.563965,4221.666504,4237.436035,4216.922852,4190.000000,4247.051270,4229.615234,3201.000000,4.000000,95.000000,,,,0.000000,4.000000,4.000000,4.000000,4.000000,4.000000,4.000000,4.000000,4.000000,4.000000,4.000000,4.000000,4.000000,4.000000,4.000000,100.000000,,,,,,,,,,,,,,,,
1645707357.148341,15.000000,0.000000,4217.436035,3918.718018,4193.589844,4496.794922,4209.230957,4213.717773,4206.922852,4215.512695,4218.717773,4234.871582,4217.563965,4187.948730,4240.384766,4228.589844,3462.000000,4.000000,95.000000,,,,0.000000,4.000000,4.000000,4.000000,4.000000,4.000000,4.000000,4.000000,4.000000,4.000000,4.000000,4.000000,4.000000,4.000000,4.000000,100.000000,,,,,,,,,,,,,,,,
1645707357.152281,16.000000,0.000000,4220.128418,3918.974365,4196.410156,4496.153809,4205.256348,4214.358887,4207.948730,4216.794922,4216.153809,4230.384766,4218.717773,4188.077148,4230.128418,4225.000000,3514.000000,4.000000,95.000000,,,,0.000000,4.000000,4.000000,4.000000,4.000000,4.000000,4.000000,4.000000,4.000000,4.000000,4.000000,4.000000,4.000000,4.000000,4.000000,100.000000,,,,,,,,,,,,,,,,
1645707357.156221,17.000000,0.000000,4222.436035,3920.128174,4198.205078,4493.333496,4201.410156,4214.487305,4209.358887,4215.641113,4215.512695,4227.563965,4220.769043,4189.230957,4220.512695,4221.410156,3201.000000,4.000000,95.000000,,,,0.000000,4.000000,4.000000,4.000000,4.000000,4.000000,4.000000,4.000000,4.000000,4.000000,4.000000,4.000000,4.000000,4.000000,4.000000,100.000000,,,,,,,,,,,,,,,,
1645707357.160161,18.000000,0.000000,4223.461426,3923.076904,4198.589844,4488.205078,4199.487305,4213.077148,4208.333496,4212.307617,4216.666504,4228.461426,4222.307617,4189.615234,4215.641113,4219.358887,3201.000000,4.000000,95.000000,,,,0.000000,4.000000,4.000000,4.000000,4.000000,4.000000,4.000000,4.000000,4.000000,4.000000,4.000000,4.000000,4.000000,4.000000,4.000000,100.000000,,,,,,,,,,,,,,,,
1645707357.164101,19.000000,0.000000,4222.307617,3926.281982,4198.205078,4481.410156,4198.205078,4209.743652,4205.512695,4208.461426,4217.692383,4231.282227,4221.025879,4188.717773,4216.282227,4218.589844,3462.000000,4.000000,95.000000,,,,0.000000,4.000000,4.000000,4.000000,4.000000,4.000000,4.000000,4.000000,4.000000,4.000000,4.000000,4.000000,4.000000,4.000000,4.000000,100.000000,,,,,,,,,,,,,,,,
1645707357.168042,20.000000,0.000000,4219.102539,3927.307617,4197.563965,4473.589844,4195.384766,4205.897461,4203.846191,4206.025879,4216.922852,4232.179688,4216.282227,4187.307617,4220.256348,4217.820313,3514.000000,4.000000,95.000000,,,,0.000000,4.000000,4.000000,4.000000,4.000000,4.000000,4.000000,4.000000,4.000000,4.000000,4.000000,4.000000,4.000000,4.000000,4.000000,100.000000,,,,,,,,,,,,,,,,
1645707357.171982,21.000000,0.000000,4215.512695,3926.281982,4197.051270,4466.666504,4191.025879,4203.461426,4205.256348,4205.897461,4214.871582,4229.358887,4211.025879,4185.897461,4224.743652,4217.948730,3201.000000,4.000000,95.000000,,,,0.000000,4.000000,4.000000,4.000000,4.000000,4.000000,4.000000,4.000000,4.000000,4.000000,4.000000,4.000000,4.000000,4.000000,4.000000,100.000000,,,,,,,,,,,,,,,,
1645707357.175922,22.000000,0.000000,4213.333496,3926.025635,4195.897461,4462.820313,4188.461426,4204.102539,4208.077148,4207.436035,4213.205078,4224.743652,4208.846191,4184.102539,4227.692383,4221.153809,3201.000000,4.000000,95.000000,,,,0.000000,4.000000,4.000000,4.000000,4.000000,4.000000,4.000000,4.000000,4.000000,4.000000,4.000000,4.000000,4.000000,4.000000,4.000000,100.000000,,,,,,,,,,,,,,,,
1645707357.179862,23.000000,0.000000,4213.205078,3929.615479,4194.102539,4462.692383,4190.384766,4207.179688,4209.230957,4208.974121,4212.820313,4221.666504,4210.897461,4181.153809,4228.846191,4226.538574,3462.000000,4.000000,95.000000,,,,0.000000,4.000000,4.000000,4.000000,4.000000,4.000000,4.000000,4.000000,4.000000,4.000000,4.000000,4.000000,4.000000,4.000000,4.000000,100.000000,,,,,,,,,,,,,,,,
1645707357.183802,24.000000,0.000000,4214.615234,3937.179443,4192.692383,4464.230957,4195.769043,4210.256348,4208.205078,4209.358887,4213.461426,4221.922852,4213.846191,4177.563965,4228.846191,4230.256348,3514.000000,4.000000,95.000000,,,,0.000000,4.000000,4.000000,4.000000,4.000000,4.000000,4.000000,4.000000,4.000000,4.000000,4.000000,4.000000,4.000000,4.000000,4.000000,100.000000,,,,,,,,,,,,,,,,
1645707357.187742,25.000000,0.000000,4216.410156,3945.769287,4192.692383,4464.487305,4200.769043,4210.641113,4207.179688,4208.717773,4214.230957,4224.743652,4214.230957,4175.128418,4228.333496,4228.077148,3201.000000,4.000000,95.000000,,,,0.000000,4.000000,4.000000,4.000000,4.000000,4.000000,4.000000,4.000000,4.000000,4.000000,4.000000,4.000000,4.000000,4.000000,4.000000,100.000000,,,,,,,,,,,,,,,,
1645707357.191682,26.000000,0.000000,4218.589844,3951.666748,4194.102539,4462.179688,4202.307617,4208.333496,4208.461426,4208.077148,4214.615234,4228.461426,4211.922852,4175.641113,4228.205078,4221.025879,3201.000000,4.000000,95.000000,,,,0.000000,4.000000,4.000000,4.000000,4.000000,4.000000,4.000000,4.000000,4.000000,4.000000,4.000000,4.000000,4.000000,4.000000,4.000000,100.000000,,,,,,,,,,,,,,,,
1645707357.195622,27.000000,0.000000,4221.922852,3953.846191,4195.769043,4458.461426,4201.025879,4206.410156,4211.410156,4207.436035,4215.128418,4231.666504,4211.025879,4179.487305,4230.000000,4214.358887,3462.000000,4.000000,95.000000,,,,0.000000,4.000000,4.000000,4.000000,4.000000,4.000000,4.000000,4.000000,4.000000,4.000000,4.000000,4.000000,4.000000,4.000000,4.000000,100.000000,,,,,,,,,,,,,,,,
1645707357.199462,28.000000,0.000000,4225.897461,3953.718018,4196.282227,4455.128418,4200.000000,4207.436035,4213.974121,4207.051270,4215.769043,4233.461426,4214.230957,4185.384766,4233.974121,4212.436035,3514.000000,4.000000,95.000000,,,,0.000000,4.000000,4.000000,4.000000,4.000000,4.000000,4.000000,4.000000,4.000000,4.000000,4.000000,4.000000,4.000000,4.000000,4.000000,100.000000,,,,,,,,,,,,,,,,
1645707357.203403,29.000000,0.000000,4228.974121,3953.589844,4195.769043,4452.820313,4201.666504,4211.153809,4214.743652,4207.179688,4216.538574,4232.820313,4219.871582,4190.769043,4237.692383,4215.256348,3201.000000,4.000000,95.000000,,,,0.000000,4.000000,4.000000,4.000000,4.000000,4.000000,4.000000,4.000000,4.000000,4.000000,4.000000,4.000000,4.000000,4.000000,4.000000,100.000000,,,,,,,,,,,,,,,,
1645707357.207343,30.000000,0.000000,4228.717773,3954.487061,4195.384766,4450.256348,4204.743652,4214.743652,4214.358887,4208.717773,4217.179688,4229.743652,4222.820313,4193.461426,4238.461426,4219.487305,3201.000000,4.000000,95.000000,,,,0.000000,4.000000,4.000000,4.000000,4.000000,4.000000,4.000000,4.000000,4.000000,4.000000,4.000000,4.000000,4.000000,4.000000,4.000000,100.000000,,,,,,,,,,,,,,,,
1645707357.211283,31.000000,0.000000,4224.102539,3955.897461,4195.641113,4446.153809,4206.282227,4216.025879,4214.230957,4210.769043,4217.436035,4225.769043,4219.615234,4192.051270,4235.769043,4221.153809,3462.000000,4.000000,95.000000,,,,0.000000,4.000000,4.000000,4.000000,4.000000,4.000000,4.000000,4.000000,4.000000,4.000000,4.000000,4.000000,4.000000,4.000000,4.000000,100.000000,,,,,,,,,,,,,,,,
1645707357.215223,32.000000,0.000000,4217.051270,3957.051270,4195.769043,4440.128418,4204.487305,4215.256348,4214.743652,4211.282227,4217.307617,4223.333496,4212.436035,4187.179688,4232.179688,4219.487305,0.000000,4.000000,95.000000,,,,0.000000,4.000000,4.000000,4.000000,4.000000,4.000000,4.000000,4.000000,4.000000,4.000000,4.000000,4.000000,4.000000,4.000000,4.000000,100.000000,,,,,,,,,,,,,,,,
1645707357.219163,33.000000,0.000000,4210.641113,3957.820557,4194.487305,4433.333496,4199.615234,4214.230957,4215.512695,4208.974121,4216.666504,4223.717773,4206.025879,4181.025879,4230.512695,4215.641113,0.000000,4.000000,95.000000,,,,0.000000,4.000000,4.000000,4.000000,4.000000,4.000000,4.000000,4.000000,4.000000,4.000000,4.000000,4.000000,4.000000,4.000000,4.000000,100.000000,,,,,,,,,,,,,,,,
1645707357.223103,34.000000,0.000000,4207.179688,3958.974365,4191.025879,4426.922852,4193.846191,4213.846191,4215.641113,4205.256348,4215.641113,4226.282227,4204.102539,4176.410156,4230.512695,4211.282227,0.000000,4.000000,95.000000,,,,0.000000,4.000000,4.000000,4.000000,4.000000,4.000000,4.000000,4.000000,4.000000,4.000000,4.000000,4.000000,4.000000,4.000000,4.000000,100.000000,,,,,,,,,,,,,,,,
1645707357.227043,35.000000,0.000000,4205.897461,3960.641113,4186.153809,4421.922852,4189.871582,4213.333496,4215.256348,4203.717773,4214.615234,4228.717773,4205.897461,4175.128418,4229.102539,4207.307617,0.000000,4.000000,95.000000,,,,0.000000,4.000000,4.000000,4.000000,4.000000,4.000000,4.000000,4.000000,4.000000,4.000000,4.000000,4.000000,4.000000,4.000000,4.000000,100.000000,,,,,,,,,,,,,,,,
1645707357.230983,36.000000,0.000000,4204.871582,3962.820557,4181.410156,4419.230957,4189.615234,4212.051270,4214.230957,4205.769043,4213.974121,4228.205078,4208.205078,4176.538574,4223.717773,4203.846191,0.000000,4.000000,95.000000,,,,0.000000,4.000000,4.000000,4.000000,4.000000,4.000000,4.000000,4.000000,4.000000,4.000000,4.000000,4.000000,4.000000,4.000000,4.000000,100.000000,,,,,,,,,,,,,,,,
1645707357.234923,37.000000,0.000000,4203.461426,3965.897461,4178.589844,4418.717773,4193.717773,4210.384766,4212.948730,4209.358887,4213.974121,4224.230957,4208.589844,4179.230957,4215.769043,4201.538574,0.000000,4.000000,95.000000,,,,0.000000,4.000000,4.000000,4.000000,4.000000,4.000000,4.000000,4.000000,4.000000,4.000000,4.000000,4.000000,4.000000,4.000000,4.000000,100.000000,,,,,,,,,,,,,,,,
1645707357.238864,38.000000,0.000000,4202.692383,3969.487061,4178.717773,4419.230957,4200.128418,4210.000000,4211.666504,4211.153809,4214.743652,4218.333496,4207.051270,4180.384766,4209.102539,4200.512695,0.000000,4.000000,95.000000,,,,0.000000,4.000000,4.000000,4.000000,4.000000,4.000000,4.000000,4.000000,4.000000,4.000000,4.000000,4.000000,4.000000,4.000000,4.000000,100.000000,,,,,,,,,,,,,,,,
1645707357.242804,39.000000,0.000000,4203.205078,3972.564209,4181.538574,4417.948730,4205.128418,4211.153809,4211.025879,4209.871582,4215.897461,4213.846191,4204.230957,4178.461426,4206.666504,4200.384766,0.000000,4.000000,95.000000,,,,0.000000,4.000000,4.000000,4.000000,4.000000,4.000000,4.000000,4.000000,4.000000,4.000000,4.000000,4.000000,4.000000,4.000000,4.000000,100.000000,,,,,,,,,,,,,,,,
1645707357.246744,40.000000,0.000000,4205.000000,3974.230713,4185.641113,4413.461426,4205.641113,4212.692383,4211.922852,4207.051270,4216.794922,4212.948730,4201.538574,4173.717773,4208.333496,4199.871582,0.000000,4.000000,95.000000,,,,0.000000,4.000000,4.000000,4.000000,4.000000,4.000000,4.000000,4.000000,4.000000,4.000000,4.000000,4.000000,4.000000,4.000000,4.000000,100.000000,,,,,,,,,,,,,,,,
1645707357.250684,41.000000,0.000000,4207.179688,3975.256348,4189.615234,4407.307617,4202.307617,4213.205078,4213.974121,4206.025879,4217.179688,4215.897461,4200.128418,4168.846191,4212.307617,4198.717773,0.000000,4.000000,95.000000,,,,0.000000,4.000000,4.000000,4.000000,4.000000,4.000000,4.000000,4.000000,4.000000,4.000000,4.000000,4.000000,4.000000,4.000000,4.000000,100.000000,,,,,,,,,,,,,,,,
1645707357.254624,42.000000,0.000000,4209.615234,3977.564209,4191.922852,4402.820313,4198.589844,4213.077148,4215.641113,4207.692383,4217.179688,4221.025879,4200.641113,4166.794922,4216.922852,4198.461426,0.000000,4.000000,95.000000,,,,0.000000,4.000000,4.000000,4.000000,4.000000,4.000000,4.000000,4.000000,4.000000,4.000000,4.000000,4.000000,4.000000,4.000000,4.000000,100.000000,,,,,,,,,,,,,,,,
1645707357.258564,43.000000,0.000000,4212.179688,3982.435791,4192.563965,4401.538574,4196.794922,4212.948730,4215.641113,4210.769043,4217.179688,4225.512695,4202.436035,4168.205078,4221.153809,4201.538574,0.000000,4.000000,95.000000,,,,0.000000,4.000000,4.000000,4.000000,4.000000,4.000000,4.000000,4.000000,4.000000,4.000000,4.000000,4.000000,4.000000,4.000000,4.000000,100.000000,,,,,,,,,,,,,,,,
1645707357.262504,44.000000,0.000000,4214.487305,3988.974365,4192.436035,4401.153809,4196.538574,4213.077148,4213.974121,4212.692383,4217.051270,4226.922852,4204.487305,4170.769043,4224.358887,4208.461426,0.000000,4.000000,95.000000,,,,0.000000,4.000000,4.000000,4.000000,4.000000,4.000000,4.000000,4.000000,4.000000,4.000000,4.000000,4.000000,4.000000,4.000000,4.000000,100.000000,,,,,,,,,,,,,,,,
1645707357.266444,45.000000,0.000000,4216.282227,3994.230713,4192.948730,4398.846191,4196.410156,4211.922852,4212.307617,4211.922852,4216.666504,4224.230957,4206.025879,4171.922852,4225.000000,4216.538574,0.000000,4.000000,95.000000,,,,0.000000,4.000000,4.000000,4.000000,4.000000,4.000000,4.000000,4.000000,4.000000,4.000000,4.000000,4.000000,4.000000,4.000000,4.000000,100.000000,,,,,,,,,,,,,,,,
1645707357.270484,46.000000,0.000000,4217.563965,3996.410156,4194.102539,4393.974121,4195.897461,4209.230957,4211.538574,4208.846191,4215.512695,4219.615234,4207.692383,4171.666504,4222.563965,4221.410156,0.000000,4.000000,95.000000,,,,0.000000,4.000000,4.000000,4.000000,4.000000,4.000000,4.000000,4.000000,4.000000,4.000000,4.000000,4.000000,4.000000,4.000000,4.000000,100.000000,,,,,,,,,,,,,,,,
1645707357.274424,47.000000,0.000000,4219.102539,3996.538574,4196.025879,4389.487305,4196.410156,4206.794922,4211.538574,4205.256348,4213.846191,4216.794922,4210.128418,4173.077148,4218.077148,4220.000000,0.000000,4.000000,95.000000,,,,0.000000,4.000000,4.000000,4.000000,4.000000,4.000000,4.000000,4.000000,4.000000,4.000000,4.000000,4.000000,4.000000,4.000000,4.000000,100.000000,,,,,,,,,,,,,,,,
1645707357.278364,48.000000,0.000000,4221.282227,3997.051270,4198.461426,4388.717773,4198.717773,4207.179688,4212.051270,4203.205078,4212.692383,4218.717773,4212.307617,4178.077148,4213.077148,4212.948730,0.000000,4.000000,95.000000,,,,0.000000,4.000000,4.000000,4.000000,4.000000,4.000000,4.000000,4.000000,4.000000,4.000000,4.000000,4.000000,4.000000,4.000000,4.000000,100.000000,,,,,,,,,,,,,,,,
1645707357.282305,49.000000,0.000000,4222.436035,3999.487061,4201.410156,4391.410156,4200.641113,4210.384766,4212.820313,4203.974121,4212.563965,4223.333496,4212.179688,4185.641113,4208.974121,4204.358887,0.000000,4.000000,95.000000,,,,0.000000,4.000000,4.000000,4.000000,4.000000,4.000000,4.000000,4.000000,4.000000,4.000000,4.000000,4.000000,4.000000,4.000000,4.000000,100.000000,,,,,,,,,,,,,,,,
1645707357.286245,50.000000,0.000000,4220.512695,4003.461426,4204.358887,4393.589844,4199.230957,4213.717773,4214.615234,4206.794922,4213.333496,4225.769043,4208.846191,4191.025879,4206.282227,4198.717773,0.000000,4.000000,95.000000,,,,0.000000,4.000000,4.000000,4.000000,4.000000,4.000000,4.000000,4.000000,4.000000,4.000000,4.000000,4.000000,4.000000,4.000000,4.000000,100.000000,,,,,,,,,,,,,,,,
1645707357.290185,51.000000,0.000000,4216.153809,4007.692383,4206.282227,4391.666504,4194.615234,4215.000000,4216.794922,4209.487305,4214.230957,4222.692383,4204.358887,4191.282227,4205.384766,4198.333496,0.000000,4.000000,95.000000,,,,0.000000,4.000000,4.000000,4.000000,4.000000,4.000000,4.000000,4.000000,4.000000,4.000000,4.000000,4.000000,4.000000,4.000000,4.000000,100.000000,,,,,,,,,,,,,,,,
1645707357.294125,52.000000,0.000000,4212.692383,4011.794922,4205.512695,4385.641113,4191.025879,4214.102539,4217.563965,4209.871582,4214.487305,4216.410156,4202.307617,4187.948730,4205.897461,4202.051270,0.000000,4.000000,95.000000,,,,0.000000,4.000000,4.000000,4.000000,4.000000,4.000000,4.000000,4.000000,4.000000,4.000000,4.000000,4.000000,4.000000,4.000000,4.000000,100.000000,,,,,,,,,,,,,,,,
1645707357.298065,53.000000,0.000000,4213.077148,4015.769287,4201.922852,4378.333496,4192.692383,4212.307617,4215.000000,4207.692383,4214.358887,4212.307617,4205.128418,4185.000000,4207.948730,4206.538574,0.000000,4.000000,95.000000,,,,0.000000,4.000000,4.000000,4.000000,4.000000,4.000000,4.000000,4.000000,4.000000,4.000000,4.000000,4.000000,4.000000,4.000000,4.000000,100.000000,,,,,,,,,,,,,,,,
1645707357.302005,54.000000,0.000000,4217.179688,4018.846191,4197.307617,4372.307617,4199.102539,4210.769043,4209.871582,4204.743652,4214.358887,4213.333496,4210.769043,4185.384766,4210.641113,4208.974121,0.000000,4.000000,95.000000,,,,0.000000,4.000000,4.000000,4.000000,4.000000,4.000000,4.000000,4.000000,4.000000,4.000000,4.000000,4.000000,4.000000,4.000000,4.000000,100.000000,,,,,,,,,,,,,,,,
1645707357.305945,55.000000,0.000000,4221.282227,4019.615479,4194.615234,4368.205078,4204.743652,4209.230957,4205.897461,4202.948730,4214.487305,4217.051270,4214.230957,4187.692383,4212.179688,4209.230957,0.000000,4.000000,95.000000,,,,0.000000,4.000000,4.000000,4.000000,4.000000,4.000000,4.000000,4.000000,4.000000,4.000000,4.000000,4.000000,4.000000,4.000000,4.000000,100.000000,,,,,,,,,,,,,,,,
1645707357.309885,56.000000,0.000000,4222.436035,4018.461426,4195.769043,4365.897461,4204.358887,4207.948730,4205.897461,4203.589844,4214.615234,4218.205078,4211.922852,4188.077148,4210.897461,4208.846191,0.000000,4.000000,95.000000,,,,0.000000,4.000000,4.000000,4.000000,4.000000,4.000000,4.000000,4.000000,4.000000,4.000000,4.000000,4.000000,4.000000,4.000000,4.000000,100.000000,,,,,,,,,,,,,,,,
1645707357.313825,57.000000,0.000000,4220.897461,4017.948730,4199.487305,4365.384766,4198.717773,4207.307617,4209.487305,4206.153809,4214.615234,4215.128418,4205.000000,4184.615234,4205.897461,4208.205078,0.000000,4.000000,95.000000,,,,0.000000,4.000000,4.000000,4.000000,4.000000,4.000000,4.000000,4.000000,4.000000,4.000000,4.000000,4.000000,4.000000,4.000000,4.000000,100.000000,,,,,,,,,,,,,,,,
1645707357.317766,58.000000,0.000000,4218.589844,4020.769287,4202.692383,4366.282227,4193.333496,4207.307617,4212.692383,4209.102539,4215.256348,4210.641113,4198.589844,4178.717773,4198.077148,4206.922852,0.000000,4.000000,95.000000,,,,0.000000,4.000000,4.000000,4.000000,4.000000,4.000000,4.000000,4.000000,4.000000,4.000000,4.000000,4.000000,4.000000,4.000000,4.000000,100.000000,,,,,,,,,,,,,,,,
1645707357.321706,59.000000,0.000000,4216.025879,4026.153809,4202.948730,4366.666504,4193.077148,4207.307617,4212.307617,4211.153809,4216.538574,4208.333496,4196.794922,4174.102539,4189.743652,4203.717773,0.000000,4.000000,95.000000,,,,0.000000,4.000000,4.000000,4.000000,4.000000,4.000000,4.000000,4.000000,4.000000,4.000000,4.000000,4.000000,4.000000,4.000000,4.000000,100.000000,,,,,,,,,,,,,,,,
1645707357.325646,60.000000,0.000000,4212.436035,4031.025635,4200.256348,4364.358887,4196.538574,4206.410156,4208.461426,4211.922852,4217.563965,4208.589844,4198.461426,4172.436035,4183.333496,4198.589844,0.000000,4.000000,95.000000,,,,0.000000,4.000000,4.000000,4.000000,4.000000,4.000000,4.000000,4.000000,4.000000,4.000000,4.000000,4.000000,4.000000,4.000000,4.000000,100.000000,,,,,,,,,,,,,,,,
1645707357.329586,61.000000,0.000000,4207.820313,4032.179443,4196.410156,4358.589844,4198.717773,4204.358887,4204.871582,4211.410156,4217.179688,4209.102539,4199.102539,4172.307617,4180.512695,4193.205078,0.000000,4.000000,95.000000,,,,0.000000,4.000000,4.000000,4.000000,4.000000,4.000000,4.000000,4.000000,4.000000,4.000000,4.000000,4.000000,4.000000,4.000000,4.000000,100.000000,,,,,,,,,,,,,,,,
1645707357.333526,62.000000,0.000000,4204.743652,4030.000000,4192.948730,4351.538574,4196.538574,4202.563965,4203.974121,4209.743652,4215.256348,4208.205078,4196.025879,4170.769043,4182.179688,4190.512695,0.000000,4.000000,95.000000,,,,0.000000,4.000000,4.000000,4.000000,4.000000,4.000000,4.000000,4.000000,4.000000,4.000000,4.000000,4.000000,4.000000,4.000000,4.000000,100.000000,,,,,,,,,,,,,,,,
1645707357.337466,63.000000,0.000000,4206.410156,4028.333252,4191.282227,4346.282227,4192.307617,4203.077148,4206.025879,4206.922852,4212.820313,4207.051270,4191.025879,4167.948730,4187.692383,4191.922852,0.000000,4.000000,95.000000,,,,0.000000,4.000000,4.000000,4.000000,4.000000,4.000000,4.000000,4.000000,4.000000,4.000000,4.000000,4.000000,4.000000,4.000000,4.000000,100.000000,,,,,,,,,,,,,,,,
1645707357.341406,64.000000,0.000000,4212.948730,4030.897461,4192.563965,4345.000000,4190.512695,4206.410156,4208.974121,4204.358887,4211.282227,4208.077148,4188.205078,4167.436035,4194.487305,4195.641113,0.000000,4.000000,95.000000,,,,0.000000,4.000000,4.000000,4.000000,4.000000,4.000000,4.000000,4.000000,4.000000,4.000000,4.000000,4.000000,4.000000,4.000000,4.000000,100.000000,,,,,,,,,,,,,,,,
1645707357.345246,65.000000,0.000000,4221.410156,4038.718018,4196.282227,4347.948730,4193.461426,4210.769043,4211.922852,4203.846191,4211.282227,4212.179688,4190.512695,4171.538574,4200.128418,4199.358887,0.000000,4.000000,95.000000,,,,0.000000,4.000000,4.000000,4.000000,4.000000,4.000000,4.000000,4.000000,4.000000,4.000000,4.000000,4.000000,4.000000,4.000000,4.000000,100.000000,,,,,,,,,,,,,,,,
1645707357.349186,66.000000,0.000000,4227.820313,4050.128174,4200.769043,4352.563965,4198.846191,4214.230957,4214.871582,4206.410156,4212.436035,4218.461426,4197.307617,4179.102539,4203.461426,4202.563965,0.000000,4.000000,95.000000,,,,0.000000,4.000000,4.000000,4.000000,4.000000,4.000000,4.000000,4.000000,4.000000,4.000000,4.000000,4.000000,4.000000,4.000000,4.000000,100.000000,,,,,,,,,,,,,,,,
1645707357.353127,67.000000,0.000000,4230.384766,4061.281982,4204.230957,4355.384766,4203.205078,4215.897461,4217.563965,4211.153809,4213.717773,4225.000000,4205.512695,4185.256348,4205.256348,4207.820313,0.000000,4.000000,95.000000,,,,0.000000,4.000000,4.000000,4.000000,4.000000,4.000000,4.000000,4.000000,4.000000,4.000000,4.000000,4.000000,4.000000,4.000000,4.000000,100.000000,,,,,,,,,,,,,,,,
1645707357.357067,68.000000,0.000000,4229.743652,4068.589844,4205.641113,4354.358887,4204.358887,4216.538574,4219.230957,4215.512695,4215.000000,4230.897461,4212.051270,4186.282227,4207.307617,4216.794922,0.000000,4.000000,95.000000,,,,0.000000,4.000000,4.000000,4.000000,4.000000,4.000000,4.000000,4.000000,4.000000,4.000000,4.000000,4.000000,4.000000,4.000000,4.000000,100.000000,,,,,,,,,,,,,,,,
1645707357.361007,69.000000,0.000000,4227.692383,4068.974365,4205.641113,4349.615234,4202.692383,4216.922852,4218.717773,4218.077148,4216.025879,4235.128418,4215.000000,4182.563965,4209.487305,4226.666504,0.000000,4.000000,95.000000,,,,0.000000,4.000000,4.000000,4.000000,4.000000,4.000000,4.000000,4.000000,4.000000,4.000000,4.000000,4.000000,4.000000,4.000000,4.000000,100.000000,,,,,,,,,,,,,,,,
1645707357.364947,70.000000,0.000000,4224.871582,4062.948730,4205.512695,4343.077148,4199.871582,4216.666504,4216.794922,4219.230957,4216.666504,4235.769043,4213.589844,4178.205078,4210.384766,4231.025879,0.000000,4.000000,95.000000,,,,0.000000,4.000000,4.000000,4.000000,4.000000,4.000000,4.000000,4.000000,4.000000,4.000000,4.000000,4.000000,4.000000,4.000000,4.000000,100.000000,,,,,,,,,,,,,,,,
1645707357.368887,71.000000,0.000000,4221.666504,4053.974365,4205.641113,4337.179688,4197.563965,4215.384766,4215.128418,4219.230957,4216.794922,4231.794922,4208.461426,4176.922852,4208.589844,4226.153809,0.000000,4.000000,95.000000,,,,0.000000,4.000000,4.000000,4.000000,4.000000,4.000000,4.000000,4.000000,4.000000,4.000000,4.000000,4.000000,4.000000,4.000000,4.000000,100.000000,,,,,,,,,,,,,,,,
1645707357.372827,72.000000,0.000000,4218.333496,4047.435791,4204.743652,4333.205078,4196.922852,4213.589844,4214.102539,4217.820313,4215.769043,4224.102539,4202.051270,4179.230957,4205.384766,4215.128418,0.000000,4.000000,95.000000,1,1,3,0.000000,4.000000,4.000000,4.000000,4.000000,4.000000,4.000000,4.000000,4.000000,4.000000,4.000000,4.000000,4.000000,4.000000,4.000000,100.000000,,,,,,,,,,,,,,,,
1645707357.376767,73.000000,0.000000,4216.538574,4046.923096,4201.922852,4330.897461,4198.333496,4212.307617,4212.820313,4214.871582,4214.358887,4216.410156,4197.820313,4182.563965,4204.230957,4205.000000,0.000000,4.000000,95.000000,,,,0.000000,4.000000,4.000000,4.000000,4.000000,4.000000,4.000000,4.000000,4.000000,4.000000,4.000000,4.000000,4.000000,4.000000,4.000000,100.000000,,,,,,,,,,,,,,,,
1645707357.380707,74.000000,0.000000,4217.179688,4052.435791,4198.205078,4328.974121,4200.769043,4212.948730,4211.282227,4211.282227,4213.589844,4212.692383,4197.051270,4184.230957,4207.307617,4201.282227,0.000000,4.000000,95.000000,,,,0.000000,4.000000,4.000000,4.000000,4.000000,4.000000,4.000000,4.000000,4.000000,4.000000,4.000000,4.000000,4.000000,4.000000,4.000000,100.000000,,,,,,,,,,,,,,,,
1645707357.384647,75.000000,0.000000,4220.384766,4061.025635,4196.666504,4325.769043,4201.666504,4215.128418,4211.025879,4209.358887,4214.487305,4213.589844,4198.461426,4183.205078,4213.077148,4203.205078,0.000000,4.000000,95.000000,,,,0.000000,4.000000,4.000000,4.000000,4.000000,4.000000,4.000000,4.000000,4.000000,4.000000,4.000000,4.000000,4.000000,4.000000,4.000000,100.000000,,,,,,,,,,,,,,,,
1645707357.388588,76.000000,0.000000,4224.102539,4068.974365,4198.589844,4321.282227,4200.384766,4217.563965,4213.333496,4210.256348,4216.153809,4217.563965,4199.871582,4180.769043,4217.563965,4206.410156,0.000000,4.000000,95.000000,,,,0.000000,4.000000,4.000000,4.000000,4.000000,4.000000,4.000000,4.000000,4.000000,4.000000,4.000000,4.000000,4.000000,4.000000,4.000000,100.000000,,,,,,,,,,,,,,,,
1645707357.392528,77.000000,0.000000,4226.922852,4074.871826,4201.666504,4317.307617,4198.461426,4218.717773,4217.436035,4213.077148,4216.794922,4222.307617,4200.512695,4179.102539,4217.820313,4207.051270,0.000000,4.000000,95.000000,,,,0.000000,4.000000,4.000000,4.000000,4.000000,4.000000,4.000000,4.000000,4.000000,4.000000,4.000000,4.000000,4.000000,4.000000,4.000000,100.000000,,,,,,,,,,,,,,,,
1645707357.396468,78.000000,0.000000,4227.692383,4078.333252,4201.922852,4315.384766,4197.820313,4218.077148,4219.487305,4215.128418,4215.897461,4226.153809,4201.794922,4179.615234,4214.487305,4205.256348,0.000000,4.000000,95.000000,,,,0.000000,4.000000,4.000000,4.000000,4.000000,4.000000,4.000000,4.000000,4.000000,4.000000,4.000000,4.000000,4.000000,4.000000,4.000000,100.000000,,,,,,,,,,,,,,,,
1645707357.400408,79.000000,0.000000,4225.769043,4078.589844,4197.307617,4315.897461,4198.461426,4215.512695,4217.051270,4214.743652,4214.358887,4227.820313,4204.102539,4181.666504,4209.615234,4203.717773,0.000000,4.000000,95.000000,,,,0.000000,4.000000,4.000000,4.000000,4.000000,4.000000,4.000000,4.000000,4.000000,4.000000,4.000000,4.000000,4.000000,4.000000,4.000000,100.000000,,,,,,,,,,,,,,,,
1645707357.404348,80.000000,0.000000,4220.641113,4075.769287,4190.128418,4317.051270,4197.820313,4211.538574,4211.282227,4212.051270,4212.948730,4226.282227,4205.641113,4182.820313,4204.743652,4203.974121,0.000000,4.000000,95.000000,,,,0.000000,4.000000,4.000000,4.000000,4.000000,4.000000,4.000000,4.000000,4.000000,4.000000,4.000000,4.000000,4.000000,4.000000,4.000000,100.000000,,,,,,,,,,,,,,,,
1645707357.408288,81.000000,0.000000,4212.692383,4070.769287,4184.743652,4315.897461,4194.102539,4206.922852,4206.025879,4209.230957,4211.794922,4221.025879,4204.615234,4181.666504,4200.641113,4206.025879,0.000000,4.000000,95.000000,,,,0.000000,4.000000,4.000000,4.000000,4.000000,4.000000,4.000000,4.000000,4.000000,4.000000,4.000000,4.000000,4.000000,4.000000,4.000000,100.000000,,,,,,,,,,,,,,,,
1645707357.412328,82.000000,0.000000,4204.615234,4066.666748,4183.717773,4311.666504,4188.974121,4203.077148,4203.717773,4207.563965,4210.512695,4213.461426,4201.153809,4178.461426,4198.077148,4208.589844,0.000000,4.000000,95.000000,,,,0.000000,4.000000,4.000000,4.000000,4.000000,4.000000,4.000000,4.000000,4.000000,4.000000,4.000000,4.000000,4.000000,4.000000,4.000000,100.000000,,,,,,,,,,,,,,,,
1645707357.416268,83.000000,0.000000,4200.384766,4066.153809,4185.769043,4306.282227,4185.128418,4201.282227,4203.205078,4206.794922,4208.846191,4206.410156,4197.563965,4175.256348,4198.333496,4210.897461,0.000000,4.000000,95.000000,,,,0.000000,4.000000,4.000000,4.000000,4.000000,4.000000,4.000000,4.000000,4.000000,4.000000,4.000000,4.000000,4.000000,4.000000,4.000000,100.000000,,,,,,,,,,,,,,,,
1645707357.420208,84.000000,0.000000,4202.436035,4069.487061,4188.077148,4302.820313,4183.846191,4201.666504,4202.820313,4206.153809,4207.563965,4202.948730,4195.384766,4174.102539,4201.282227,4211.922852,0.000000,4.000000,95.000000,,,,0.000000,4.000000,4.000000,4.000000,4.000000,4.000000,4.000000,4.000000,4.000000,4.000000,4.000000,4.000000,4.000000,4.000000,4.000000,100.000000,,,,,,,,,,,,,,,,
1645707357.424148,85.000000,0.000000,4209.615234,4074.743652,4189.102539,4302.051270,4184.102539,4202.563965,4201.922852,4205.769043,4208.077148,4203.974121,4194.358887,4176.153809,4204.487305,4211.025879,0.000000,4.000000,95.000000,,,,0.000000,4.000000,4.000000,4.000000,4.000000,4.000000,4.000000,4.000000,4.000000,4.000000,4.000000,4.000000,4.000000,4.000000,4.000000,100.000000,,,,,,,,,,,,,,,,
1645707357.428088,86.000000,0.000000,4217.436035,4079.743652,4189.871582,4302.179688,4184.615234,4202.051270,4202.051270,4206.666504,4210.256348,4208.077148,4193.717773,4180.897461,4204.743652,4207.948730,0.000000,4.000000,95.000000,,,,0.000000,4.000000,4.000000,4.000000,4.000000,4.000000,4.000000,4.000000,4.000000,4.000000,4.000000,4.000000,4.000000,4.000000,4.000000,100.000000,,,,,,,,,,,,,,,,
1645707357.432029,87.000000,0.000000,4222.307617,4083.846191,4192.051270,4300.384766,4185.769043,4200.641113,4203.974121,4208.333496,4213.077148,4213.077148,4193.461426,4186.025879,4200.897461,4204.358887,0.000000,4.000000,95.000000,,,,0.000000,4.000000,4.000000,4.000000,4.000000,4.000000,4.000000,4.000000,4.000000,4.000000,4.000000,4.000000,4.000000,4.000000,4.000000,100.000000,,,,,,,,,,,,,,,,
1645707357.435969,88.000000,0.000000,4223.077148,4087.820557,4196.025879,4296.538574,4187.820313,4200.000000,4206.282227,4209.102539,4215.000000,4216.410156,4194.230957,4188.077148,4194.102539,4202.179688,0.000000,4.000000,95.000000,,,,0.000000,4.000000,4.000000,4.000000,4.000000,4.000000,4.000000,4.000000,4.000000,4.000000,4.000000,4.000000,4.000000,4.000000,4.000000,100.000000,,,,,,,,,,,,,,,,
1645707357.439909,89.000000,0.000000,4221.025879,4092.051270,4200.000000,4293.077148,4190.000000,4201.153809,4206.922852,4206.794922,4214.871582,4216.666504,4195.897461,4184.743652,4187.307617,4202.051270,0.000000,4.000000,95.000000,,,,0.000000,4.000000,4.000000,4.000000,4.000000,4.000000,4.000000,4.000000,4.000000,4.000000,4.000000,4.000000,4.000000,4.000000,4.000000,100.000000,,,,,,,,,,,,,,,,
1645707357.443849,90.000000,0.000000,4218.077148,4095.897461,4201.282227,4292.179688,4190.128418,4202.820313,4205.641113,4201.410156,4212.948730,4212.820313,4197.307617,4177.051270,4182.563965,4202.820313,0.000000,4.000000,95.000000,,,,0.000000,4.000000,4.000000,4.000000,4.000000,4.000000,4.000000,4.000000,4.000000,4.000000,4.000000,4.000000,4.000000,4.000000,4.000000,100.000000,1.000000,16.666666,4.000000,1.000000,4.000000,0.000000,4.000000,4.000000,4.000000,4.000000,1.000000,4.000000,4.000000,4.000000,4.000000,4.000000
1645707357.447789,91.000000,0.000000,4215.384766,4098.205078,4199.358887,4294.487305,4187.692383,4203.589844,4204.358887,4196.025879,4210.384766,4206.922852,4197.820313,4169.487305,4180.769043,4203.461426,0.000000,4.000000,95.000000,,,,0.000000,4.000000,4.000000,4.000000,4.000000,4.000000,4.000000,4.000000,4.000000,4.000000,4.000000,4.000000,4.000000,4.000000,4.000000,100.000000,,,,,,,,,,,,,,,,
1645707357.451729,92.000000,0.000000,4213.974121,4098.974121,4195.641113,4298.077148,4185.384766,4203.333496,4204.871582,4194.102539,4209.230957,4203.333496,4198.205078,4167.307617,4182.820313,4204.102539,0.000000,4.000000,95.000000,,,,0.000000,4.000000,4.000000,4.000000,4.000000,4.000000,4.000000,4.000000,4.000000,4.000000,4.000000,4.000000,4.000000,4.000000,4.000000,100.000000,,,,,,,,,,,,,,,,
1645707357.455669,93.000000,0.000000,4214.615234,4099.743652,4192.563965,4300.512695,4186.922852,4204.358887,4207.307617,4197.436035,4210.512695,4206.794922,4199.615234,4172.436035,4188.589844,4205.128418,0.000000,4.000000,95.000000,,,,0.000000,4.000000,4.000000,4.000000,4.000000,4.000000,4.000000,4.000000,4.000000,4.000000,4.000000,4.000000,4.000000,4.000000,4.000000,100.000000,,,,,,,,,,,,,,,,
1645707357.459609,94.000000,0.000000,4217.179688,4101.922852,4192.307617,4299.615234,4192.692383,4207.820313,4210.256348,4204.102539,4214.102539,4217.051270,4201.666504,4181.666504,4197.051270,4206.666504,0.000000,4.000000,95.000000,,,,0.000000,4.000000,4.000000,4.000000,4.000000,4.000000,4.000000,4.000000,4.000000,4.000000,4.000000,4.000000,4.000000,4.000000,4.000000,100.000000,,,,,,,,,,,,,,,,
1645707357.463549,95.000000,0.000000,4219.743652,4105.384766,4195.256348,4296.025879,4199.358887,4212.436035,4212.692383,4210.897461,4217.948730,4228.461426,4202.179688,4189.230957,4205.256348,4208.461426,0.000000,4.000000,95.000000,,,,0.000000,4.000000,4.000000,4.000000,4.000000,4.000000,4.000000,4.000000,4.000000,4.000000,4.000000,4.000000,4.000000,4.000000,4.000000,100.000000,,,,,,,,,,,,,,,,
1645707357.467490,96.000000,0.000000,4220.769043,4108.974121,4199.102539,4292.051270,4202.179688,4215.512695,4214.615234,4214.615234,4219.487305,4233.974121,4200.512695,4191.153809,4210.897461,4210.256348,0.000000,4.000000,95.000000,,,,0.000000,4.000000,4.000000,4.000000,4.000000,4.000000,4.000000,4.000000,4.000000,4.000000,4.000000,4.000000,4.000000,4.000000,4.000000,100.000000,,,,,,,,,,,,,,,,
1645707357.471430,97.000000,0.000000,4220.384766,4111.922852,4201.282227,4289.615234,4200.000000,4215.897461,4216.538574,4214.358887,4217.563965,4231.153809,4198.846191,4188.333496,4212.948730,4212.051270,0.000000,4.000000,95.000000,,,,0.000000,4.000000,4.000000,4.000000,4.000000,4.000000,4.000000,4.000000,4.000000,4.000000,4.000000,4.000000,4.000000,4.000000,4.000000,100.000000,,,,,,,,,,,,,,,,
1645707357.475370,98.000000,0.000000,4220.128418,4114.358887,4200.128418,4288.205078,4196.025879,4214.102539,4217.307617,4210.897461,4214.230957,4224.230957,4200.512695,4184.743652,4212.307617,4212.948730,0.000000,4.000000,95.000000,,,,0.000000,4.000000,4.000000,4.000000,4.000000,4.000000,4.000000,4.000000,4.000000,4.000000,4.000000,4.000000,4.000000,4.000000,4.000000,100.000000,,,,,,,,,,,,,,,,
1645707357.479310,99.000000,0.000000,4220.384766,4116.410156,4197.051270,4285.769043,4194.230957,4211.538574,4216.153809,4206.538574,4212.051270,4218.846191,4205.897461,4183.589844,4209.358887,4210.769043,0.000000,4.000000,95.000000,,,,0.000000,4.000000,4.000000,4.000000,4.000000,4.000000,4.000000,4.000000,4.000000,4.000000,4.000000,4.000000,4.000000,4.000000,4.000000,100.000000,,,,,,,,,,,,,,,,
1645707357.483250,100.000000,0.000000,4219.743652,4117.307617,4194.615234,4280.897461,4195.000000,4209.102539,4213.333496,4203.461426,4212.563965,4217.948730,4211.410156,4184.743652,4204.358887,4204.102539,0.000000,4.000000,95.000000,,,,0.000000,4.000000,4.000000,4.000000,4.000000,4.000000,4.000000,4.000000,4.000000,4.000000,4.000000,4.000000,4.000000,4.000000,4.000000,100.000000,,,,,,,,,,,,,,,,
1645707357.487090,101.000000,0.000000,4216.538574,4116.153809,4194.487305,4274.358887,4194.871582,4206.922852,4210.641113,4202.948730,4214.487305,4219.358887,4212.179688,4186.153809,4198.205078,4194.102539,0.000000,4.000000,95.000000,,,,0.000000,4.000000,4.000000,4.000000,4.000000,4.000000,4.000000,4.000000,4.000000,4.000000,4.000000,4.000000,4.000000,4.000000,4.000000,100.000000,,,,,,,,,,,,,,,,
1645707357.491030,102.000000,0.000000,4211.410156,4113.333496,4195.769043,4269.487305,4191.282227,4205.641113,4209.615234,4203.974121,4215.384766,4220.256348,4207.051270,4185.897461,4193.461426,4185.897461,0.000000,4.000000,95.000000,2,1,3,0.000000,4.000000,4.000000,4.000000,4.000000,4.000000,4.000000,4.000000,4.000000,4.000000,4.000000,4.000000,4.000000,4.000000,4.000000,100.000000,,,,,,,,,,,,,,,,
1645707357.494970,103.000000,0.000000,4208.205078,4110.897461,4196.282227,4269.102539,4185.897461,4206.025879,4209.871582,4203.846191,4214.230957,4219.615234,4199.102539,4183.846191,4192.436035,4185.512695,0.000000,4.000000,95.000000,,,,0.000000,4.000000,4.000000,4.000000,4.000000,4.000000,4.000000,4.000000,4.000000,4.000000,4.000000,4.000000,4.000000,4.000000,4.000000,100.000000,,,,,,,,,,,,,,,,
1645707357.498910,104.000000,0.000000,4210.256348,4111.666504,4195.384766,4273.589844,4183.717773,4207.563965,4210.256348,4202.051270,4211.538574,4218.205078,4193.333496,4182.051270,4195.128418,4194.871582,0.000000,4.000000,95.000000,,,,0.000000,4.000000,4.000000,4.000000,4.000000,4.000000,4.000000,4.000000,4.000000,4.000000,4.000000,4.000000,4.000000,4.000000,4.000000,100.000000,,,,,,,,,,,,,,,,
1645707357.502851,105.000000,0.000000,4217.051270,4117.051270,4194.230957,4278.461426,4187.307617,4209.102539,4210.769043,4200.641113,4209.487305,4216.794922,4192.436035,4182.563965,4198.589844,4209.102539,0.000000,4.000000,95.000000,,,,0.000000,4.000000,4.000000,4.000000,4.000000,4.000000,4.000000,4.000000,4.000000,4.000000,4.000000,4.000000,4.000000,4.000000,4.000000,100.000000,,,,,,,,,,,,,,,,
1645707357.506791,106.000000,0.000000,4224.743652,4125.384766,4194.487305,4278.974121,4193.974121,4208.974121,4212.179688,4202.307617,4209.358887,4215.512695,4194.871582,4185.000000,4198.589844,4218.461426,0.000000,4.000000,95.000000,,,,0.000000,4.000000,4.000000,4.000000,4.000000,4.000000,4.000000,4.000000,4.000000,4.000000,4.000000,4.000000,4.000000,4.000000,4.000000,100.000000,,,,,,,,,,,,,,,,
1645707357.510731,107.000000,0.000000,4228.974121,4133.333496,4195.641113,4273.205078,4198.461426,4207.307617,4214.743652,4207.179688,4211.282227,4214.487305,4197.563965,4186.410156,4194.358887,4216.282227,0.000000,4.000000,95.000000,,,,0.000000,4.000000,4.000000,4.000000,4.000000,4.000000,4.000000,4.000000,4.000000,4.000000,4.000000,4.000000,4.000000,4.000000,4.000000,100.000000,,,,,,,,,,,,,,,,
1645707357.514671,108.000000,0.000000,4228.077148,4137.563965,4195.897461,4264.615234,4197.948730,4206.025879,4216.410156,4211.794922,4214.358887,4215.384766,4198.461426,4184.743652,4189.230957,4204.487305,0.000000,4.000000,95.000000,,,,0.000000,4.000000,4.000000,4.000000,4.000000,4.000000,4.000000,4.000000,4.000000,4.000000,4.000000,4.000000,4.000000,4.000000,4.000000,100.000000,,,,,,,,,,,,,,,,
1645707357.518611,109.000000,0.000000,4223.589844,4137.820313,4193.717773,4258.717773,4194.102539,4206.538574,4214.871582,4212.563965,4216.282227,4218.333496,4198.333496,4180.512695,4187.692383,4192.692383,0.000000,4.000000,95.000000,,,,0.000000,4.000000,4.000000,4.000000,4.000000,4.000000,4.000000,4.000000,4.000000,4.000000,4.000000,4.000000,4.000000,4.000000,4.000000,100.000000,,,,,,,,,,,,,,,,
1645707357.522551,110.000000,0.000000,4218.077148,4135.256348,4190.256348,4258.205078,4190.128418,4208.077148,4210.512695,4209.102539,4215.641113,4221.922852,4198.974121,4176.922852,4191.153809,4190.384766,0.000000,4.000000,95.000000,,,,0.000000,4.000000,4.000000,4.000000,4.000000,4.000000,4.000000,4.000000,4.000000,4.000000,4.000000,4.000000,4.000000,4.000000,4.000000,100.000000,,,,,,,,,,,,,,,,
1645707357.526491,111.000000,0.000000,4213.846191,4131.922852,4188.461426,4261.025879,4188.077148,4208.717773,4206.282227,4204.487305,4212.820313,4223.461426,4201.666504,4177.051270,4197.948730,4200.256348,0.000000,4.000000,95.000000,,,,0.000000,4.000000,4.000000,4.000000,4.000000,4.000000,4.000000,4.000000,4.000000,4.000000,4.000000,4.000000,4.000000,4.000000,4.000000,100.000000,,,,,,,,,,,,,,,,
1645707357.530431,112.000000,0.000000,4212.692383,4130.384766,4190.512695,4262.563965,4187.692383,4207.563965,4205.000000,4202.692383,4209.743652,4222.692383,4206.410156,4181.794922,4204.615234,4216.025879,0.000000,4.000000,95.000000,,,,0.000000,4.000000,4.000000,4.000000,4.000000,4.000000,4.000000,4.000000,4.000000,4.000000,4.000000,4.000000,4.000000,4.000000,4.000000,100.000000,,,,,,,,,,,,,,,,
1645707357.534371,113.000000,0.000000,4215.641113,4132.948730,4196.025879,4260.641113,4187.948730,4206.538574,4206.666504,4204.615234,4209.230957,4222.692383,4212.436035,4190.000000,4209.487305,4227.820313,0.000000,4.000000,95.000000,,,,0.000000,4.000000,4.000000,4.000000,4.000000,4.000000,4.000000,4.000000,4.000000,4.000000,4.000000,4.000000,4.000000,4.000000,4.000000,100.000000,,,,,,,,,,,,,,,,
1645707357.538312,114.000000,0.000000,4222.307617,4139.743652,4202.179688,4257.051270,4188.846191,4207.436035,4208.589844,4207.820313,4212.051270,4226.282227,4217.692383,4198.589844,4212.179688,4229.230957,0.000000,4.000000,95.000000,,,,0.000000,4.000000,4.000000,4.000000,4.000000,4.000000,4.000000,4.000000,4.000000,4.000000,4.000000,4.000000,4.000000,4.000000,4.000000,100.000000,,,,,,,,,,,,,,,,
1645707357.542252,115.000000,0.000000,4230.256348,4147.948730,4206.025879,4255.384766,4190.897461,4210.512695,4208.717773,4209.743652,4216.666504,4232.692383,4220.384766,4204.743652,4213.205078,4221.666504,0.000000,4.000000,95.000000,,,,0.000000,4.000000,4.000000,4.000000,4.000000,4.000000,4.000000,4.000000,4.000000,4.000000,4.000000,4.000000,4.000000,4.000000,4.000000,100.000000,,,,,,,,,,,,,,,,
1645707357.546192,116.000000,0.000000,4235.897461,4152.563965,4206.025879,4257.307617,4193.846191,4213.717773,4207.436035,4209.487305,4219.871582,4237.563965,4218.589844,4206.282227,4213.077148,4211.282227,0.000000,4.000000,95.000000,,,,0.000000,4.000000,4.000000,4.000000,4.000000,4.000000,4.000000,4.000000,4.000000,4.000000,4.000000,4.000000,4.000000,4.000000,4.000000,100.000000,,,,,,,,,,,,,,,,
1645707357.550132,117.000000,0.000000,4237.307617,4151.282227,4203.077148,4260.897461,4196.282227,4214.487305,4206.410156,4208.077148,4219.102539,4236.794922,4213.589844,4203.077148,4212.051270,4205.000000,0.000000,4.000000,95.000000,,,,0.000000,4.000000,4.000000,4.000000,4.000000,4.000000,4.000000,4.000000,4.000000,4.000000,4.000000,4.000000,4.000000,4.000000,4.000000,100.000000,,,,,,,,,,,,,,,,
1645707357.554072,118.000000,0.000000,4234.743652,4146.794922,4199.358887,4262.563965,4197.051270,4212.820313,4206.666504,4207.179688,4215.256348,4231.282227,4208.974121,4197.563965,4210.897461,4205.512695,0.000000,4.000000,95.000000,,,,0.000000,4.000000,4.000000,4.000000,4.000000,4.000000,4.000000,4.000000,4.000000,4.000000,4.000000,4.000000,4.000000,4.000000,4.000000,100.000000,,,,,,,,,,,,,,,,
1645707357.558112,119.000000,0.000000,4231.153809,4144.487305,4197.307617,4260.512695,4196.538574,4210.769043,4207.563965,4208.205078,4211.282227,4225.384766,4208.589844,4192.692383,4210.128418,4211.538574,0.000000,4.000000,95.000000,,,,0.000000,4.000000,4.000000,4.000000,4.000000,4.000000,4.000000,4.000000,4.000000,4.000000,4.000000,4.000000,4.000000,4.000000,4.000000,100.000000,,,,,,,,,,,,,,,,
1645707357.562052,120.000000,0.000000,4228.846191,4147.307617,4198.974121,4255.512695,4195.641113,4210.769043,4208.461426,4211.025879,4210.256348,4223.077148,4212.692383,4190.000000,4209.871582,4218.205078,0.000000,4.000000,95.000000,,,,0.000000,4.000000,4.000000,4.000000,4.000000,4.000000,4.000000,4.000000,4.000000,4.000000,4.000000,4.000000,4.000000,4.000000,4.000000,100.000000,,,,,,,,,,,,,,,,
1645707357.565992,121.000000,0.000000,4228.589844,4153.589844,4203.461426,4250.128418,4195.256348,4212.051270,4208.974121,4214.615234,4211.922852,4224.615234,4217.563965,4189.102539,4208.846191,4220.128418,0.000000,4.000000,95.000000,,,,0.000000,4.000000,4.000000,4.000000,4.000000,4.000000,4.000000,4.000000,4.000000,4.000000,4.000000,4.000000,4.000000,4.000000,4.000000,100.000000,,,,,,,,,,,,,,,,
1645707357.569932,122.000000,0.000000,4229.358887,4159.102539,4207.692383,4246.410156,4195.769043,4212.179688,4208.717773,4216.794922,4213.974121,4227.307617,4219.102539,4188.461426,4207.179688,4215.512695,0.000000,4.000000,95.000000,,,,0.000000,4.000000,4.000000,4.000000,4.000000,4.000000,4.000000,4.000000,4.000000,4.000000,4.000000,4.000000,4.000000,4.000000,4.000000,100.000000,,,,,,,,,,,,,,,,
1645707357.573872,123.000000,0.000000,4229.358887,4161.666504,4207.692383,4244.871582,4197.051270,4209.487305,4206.922852,4215.897461,4213.974121,4228.461426,4216.025879,4187.307617,4206.025879,4206.538574,0.000000,4.000000,95.000000,,,,0.000000,4.000000,4.000000,4.000000,4.000000,4.000000,4.000000,4.000000,4.000000,4.000000,4.000000,4.000000,4.000000,4.000000,4.000000,100.000000,,,,,,,,,,,,,,,,
1645707357.577812,124.000000,0.000000,4227.436035,4161.794922,4202.692383,4244.230957,4197.563965,4204.743652,4203.589844,4212.307617,4211.922852,4227.307617,4210.897461,4185.769043,4206.794922,4198.205078,0.000000,4.000000,95.000000,,,,0.000000,4.000000,4.000000,4.000000,4.000000,4.000000,4.000000,4.000000,4.000000,4.000000,4.000000,4.000000,4.000000,4.000000,4.000000,100.000000,,,,,,,,,,,,,,,,
1645707357.581753,125.000000,0.000000,4223.846191,4160.897461,4195.641113,4241.666504,4195.897461,4200.769043,4200.128418,4208.205078,4209.358887,4223.974121,4206.410156,4184.615234,4208.333496,4194.615234,0.000000,4.000000,95.000000,,,,0.000000,4.000000,4.000000,4.000000,4.000000,4.000000,4.000000,4.000000,4.000000,4.000000,4.000000,4.000000,4.000000,4.000000,4.000000,100.000000,,,,,,,,,,,,,,,,
1645707357.585693,126.000000,0.000000,4219.615234,4159.487305,4190.897461,4236.025879,4191.282227,4199.358887,4198.974121,4205.897461,4207.692383,4219.743652,4203.461426,4183.461426,4206.794922,4196.410156,0.000000,4.000000,95.000000,,,,0.000000,4.000000,4.000000,4.000000,4.000000,4.000000,4.000000,4.000000,4.000000,4.000000,4.000000,4.000000,4.000000,4.000000,4.000000,100.000000,,,,,,,,,,,,,,,,
1645707357.589633,127.000000,0.000000,4216.794922,4157.692383,4190.641113,4229.871582,4186.538574,4201.025879,4201.282227,4206.666504,4207.179688,4216.794922,4201.410156,4181.922852,4200.512695,4201.282227,0.000000,4.000000,95.000000,,,,0.000000,4.000000,4.000000,4.000000,4.000000,4.000000,4.000000,4.000000,4.000000,4.000000,4.000000,4.000000,4.000000,4.000000,4.000000,100.000000,,,,,,,,,,,,,,,,
1645707357.593573,128.000000,0.000000,4217.692383,4157.179688,4193.333496,4228.461426,4186.025879,4204.487305,4205.384766,4209.358887,4207.948730,4217.436035,4201.025879,4180.384766,4192.307617,4205.897461,3201.000000,4.000000,95.000000,,,,0.000000,4.000000,4.000000,4.000000,4.000000,4.000000,4.000000,4.000000,4.000000,4.000000,4.000000,4.000000,4.000000,4.000000,4.000000,100.000000,,,,,,,,,,,,,,,,
1645707357.597513,129.000000,0.000000,4222.820313,4160.000000,4195.897461,4234.615234,4192.179688,4208.974121,4208.333496,4212.436035,4210.000000,4222.563965,4204.743652,4180.384766,4188.205078,4207.820313,3342.000000,4.000000,95.000000,,,,0.000000,4.000000,4.000000,4.000000,4.000000,4.000000,4.000000,4.000000,4.000000,4.000000,4.000000,4.000000,4.000000,4.000000,4.000000,100.000000,,,,,,,,,,,,,,,,
1645707357.601453,130.000000,0.000000,4229.487305,4165.512695,4196.282227,4244.615234,4202.051270,4213.077148,4209.487305,4215.128418,4212.820313,4230.000000,4212.307617,4182.051270,4192.051270,4206.538574,3550.000000,4.000000,95.000000,,,,0.000000,4.000000,4.000000,4.000000,4.000000,4.000000,4.000000,4.000000,4.000000,4.000000,4.000000,4.000000,4.000000,4.000000,4.000000,100.000000,,,,,,,,,,,,,,,,
1645707357.605393,131.000000,0.000000,4232.692383,4170.384766,4195.000000,4250.256348,4208.717773,4215.128418,4210.128418,4217.051270,4215.000000,4235.641113,4219.487305,4183.974121,4201.538574,4203.717773,3317.000000,4.000000,95.000000,,,,0.000000,4.000000,4.000000,4.000000,4.000000,4.000000,4.000000,4.000000,4.000000,4.000000,4.000000,4.000000,4.000000,4.000000,4.000000,100.000000,,,,,,,,,,,,,,,,
1645707357.609333,132.000000,0.000000,4230.256348,4171.538574,4193.077148,4246.153809,4207.307617,4214.487305,4211.666504,4218.077148,4215.512695,4236.794922,4221.538574,4184.487305,4210.897461,4202.051270,3510.000000,4.000000,95.000000,,,,0.000000,4.000000,4.000000,4.000000,4.000000,4.000000,4.000000,4.000000,4.000000,4.000000,4.000000,4.000000,4.000000,4.000000,4.000000,100.000000,,,,,,,,,,,,,,,,
1645707357.613273,133.000000,0.000000,4224.743652,4169.871582,4191.666504,4234.743652,4199.743652,4212.820313,4213.846191,4217.692383,4213.974121,4233.974121,4217.948730,4183.974121,4216.153809,4203.974121,3261.000000,4.000000,95.000000,,,,0.000000,4.000000,4.000000,4.000000,4.000000,4.000000,4.000000,4.000000,4.000000,4.000000,4.000000,4.000000,4.000000,4.000000,4.000000,100.000000,,,,,,,,,,,,,,,,
1645707357.617214,134.000000,0.000000,4221.794922,4168.461426,4190.897461,4224.102539,4192.820313,4212.051270,4214.743652,4215.769043,4211.410156,4230.128418,4212.692383,4183.974121,4217.436035,4209.358887,2735.000000,4.000000,95.000000,,,,0.000000,4.000000,4.000000,4.000000,4.000000,4.000000,4.000000,4.000000,4.000000,4.000000,4.000000,4.000000,4.000000,4.000000,4.000000,100.000000,,,,,,,,,,,,,,,,
1645707357.621154,135.000000,0.000000,4223.461426,4168.846191,4191.153809,4220.384766,4191.794922,4213.333496,4213.589844,4213.077148,4208.974121,4227.307617,4210.256348,4185.641113,4217.563965,4214.230957,2744.000000,4.000000,95.000000,,,,0.000000,4.000000,4.000000,4.000000,4.000000,4.000000,4.000000,4.000000,4.000000,4.000000,4.000000,4.000000,4.000000,4.000000,4.000000,100.000000,,,,,,,,,,,,,,,,
1645707357.625094,136.000000,0.000000,4226.794922,4170.128418,4192.692383,4222.563965,4195.641113,4215.512695,4211.410156,4211.025879,4206.794922,4224.871582,4211.282227,4188.717773,4217.307617,4214.230957,1396.000000,4.000000,95.000000,,,,0.000000,4.000000,4.000000,4.000000,4.000000,4.000000,4.000000,4.000000,4.000000,4.000000,4.000000,4.000000,4.000000,4.000000,4.000000,100.000000,,,,,,,,,,,,,,,,
1645707357.629134,137.000000,0.000000,4226.025879,4170.769043,4194.743652,4224.358887,4199.358887,4216.922852,4210.512695,4210.128418,4205.256348,4221.794922,4212.692383,4191.410156,4215.897461,4207.692383,3300.000000,4.000000,95.000000,,,,0.000000,4.000000,4.000000,4.000000,4.000000,4.000000,4.000000,4.000000,4.000000,4.000000,4.000000,4.000000,4.000000,4.000000,4.000000,100.000000,,,,,,,,,,,,,,,,
1645707357.633074,138.000000,0.000000,4219.358887,4170.512695,4195.897461,4221.538574,4199.230957,4216.410156,4210.641113,4209.102539,4204.358887,4217.820313,4211.410156,4191.922852,4212.307617,4198.589844,3203.000000,4.000000,95.000000,,,,0.000000,4.000000,4.000000,4.000000,4.000000,4.000000,4.000000,4.000000,4.000000,4.000000,4.000000,4.000000,4.000000,4.000000,4.000000,100.000000,,,,,,,,,,,,,,,,
1645707357.637014,139.000000,0.000000,4210.897461,4170.769043,4195.000000,4215.641113,4196.410156,4214.615234,4210.128418,4205.769043,4203.974121,4214.743652,4206.410156,4189.871582,4207.307617,4193.717773,3330.000000,4.000000,95.000000,,,,0.000000,4.000000,4.000000,4.000000,4.000000,4.000000,4.000000,4.000000,4.000000,4.000000,4.000000,4.000000,4.000000,4.000000,4.000000,100.000000,,,,,,,,,,,,,,,,
1645707357.640954,140.000000,0.000000,4207.307617,4173.333496,4192.692383,4211.922852,4193.589844,4212.051270,4207.307617,4200.128418,4202.948730,4213.717773,4200.384766,4186.666504,4202.948730,4196.538574,3403.000000,4.000000,95.000000,,,,0.000000,4.000000,4.000000,4.000000,4.000000,4.000000,4.000000,4.000000,4.000000,4.000000,4.000000,4.000000,4.000000,4.000000,4.000000,100.000000,,,,,,,,,,,,,,,,
1645707357.644894,141.000000,0.000000,4211.794922,4178.461426,4191.025879,4213.589844,4192.179688,4209.358887,4203.461426,4194.871582,4200.897461,4214.487305,4197.051270,4185.000000,4200.641113,4204.358887,3224.000000,4.000000,95.000000,,,,0.000000,4.000000,4.000000,4.000000,4.000000,4.000000,4.000000,4.000000,4.000000,4.000000,4.000000,4.000000,4.000000,4.000000,4.000000,100.000000,,,,,,,,,,,,,,,,
1645707357.648834,142.000000,0.000000,4221.410156,4184.743652,4191.922852,4219.230957,4192.051270,4207.307617,4201.025879,4192.948730,4198.461426,4215.256348,4198.846191,4186.794922,4201.025879,4210.769043,3203.000000,4.000000,95.000000,,,,0.000000,4.000000,4.000000,4.000000,4.000000,4.000000,4.000000,4.000000,4.000000,4.000000,4.000000,4.000000,4.000000,4.000000,4.000000,100.000000,,,,,,,,,,,,,,,,
1645707357.652774,143.000000,0.000000,4229.871582,4189.615234,4194.230957,4224.358887,4193.205078,4206.666504,4200.769043,4195.256348,4197.692383,4215.000000,4204.871582,4191.666504,4204.102539,4210.769043,3330.000000,4.000000,95.000000,,,,0.000000,4.000000,4.000000,4.000000,4.000000,4.000000,4.000000,4.000000,4.000000,4.000000,4.000000,4.000000,4.000000,4.000000,4.000000,100.000000,,,,,,,,,,,,,,,,
1645707357.656714,144.000000,0.000000,4232.307617,4191.666504,4195.897461,4225.256348,4196.025879,4207.820313,4201.666504,4199.102539,4199.487305,4213.589844,4211.153809,4197.307617,4208.846191,4204.615234,3403.000000,4.000000,95.000000,,,,0.000000,4.000000,4.000000,4.000000,4.000000,4.000000,4.000000,4.000000,4.000000,4.000000,4.000000,4.000000,4.000000,4.000000,4.000000,100.000000,,,,,,,,,,,,,,,,
1645707357.660655,145.000000,0.000000,4229.615234,4191.153809,4195.769043,4222.051270,4198.846191,4210.000000,4202.179688,4201.153809,4202.820313,4212.436035,4213.077148,4201.025879,4213.077148,4197.179688,3224.000000,4.000000,95.000000,,,,0.000000,4.000000,4.000000,4.000000,4.000000,4.000000,4.000000,4.000000,4.000000,4.000000,4.000000,4.000000,4.000000,4.000000,4.000000,100.000000,,,,,,,,,,,,,,,,
1645707357.664595,146.000000,0.000000,4226.282227,4190.512695,4194.487305,4217.563965,4199.358887,4211.153809,4202.307617,4200.512695,4205.256348,4211.794922,4209.230957,4201.794922,4214.487305,4193.846191,3203.000000,4.000000,95.000000,,,,0.000000,4.000000,4.000000,4.000000,4.000000,4.000000,4.000000,4.000000,4.000000,4.000000,4.000000,4.000000,4.000000,4.000000,4.000000,100.000000,,,,,,,,,,,,,,,,
1645707357.668535,147.000000,0.000000,4227.436035,4192.307617,4194.487305,4215.256348,4196.922852,4210.384766,4202.948730,4199.102539,4204.487305,4211.410156,4202.436035,4200.897461,4211.538574,4196.025879,3330.000000,4.000000,95.000000,,,,0.000000,4.000000,4.000000,4.000000,4.000000,4.000000,4.000000,4.000000,4.000000,4.000000,4.000000,4.000000,4.000000,4.000000,4.000000,100.000000,,,,,,,,,,,,,,,,
1645707357.672475,148.000000,0.000000,4234.102539,4197.692383,4196.538574,4216.538574,4194.102539,4207.820313,4204.102539,4199.230957,4201.410156,4211.282227,4198.205078,4200.000000,4205.256348,4201.538574,3403.000000,4.000000,95.000000,,,,0.000000,4.000000,4.000000,4.000000,4.000000,4.000000,4.000000,4.000000,4.000000,4.000000,4.000000,4.000000,4.000000,4.000000,4.000000,100.000000,,,,,,,,,,,,,,,,
1645707357.676415,149.000000,0.000000,4242.436035,4204.615234,4199.487305,4220.000000,4194.102539,4205.769043,4204.358887,4201.538574,4198.589844,4211.922852,4199.743652,4200.769043,4198.461426,4207.051270,3224.000000,4.000000,95.000000,,,,0.000000,4.000000,4.000000,4.000000,4.000000,4.000000,4.000000,4.000000,4.000000,4.000000,4.000000,4.000000,4.000000,4.000000,4.000000,100.000000,,,,,,,,,,,,,,,,
1645707357.680355,150.000000,0.000000,4246.025879,4208.974121,4201.538574,4221.922852,4197.563965,4205.641113,4202.692383,4204.615234,4198.589844,4214.358887,4204.871582,4202.563965,4193.974121,4210.384766,3203.000000,4.000000,95.000000,,,,0.000000,4.000000,4.000000,4.000000,4.000000,4.000000,4.000000,4.000000,4.000000,4.000000,4.000000,4.000000,4.000000,4.000000,4.000000,100.000000,,,,,,,,,,,,,,,,
1645707357.684295,151.000000,0.000000,4241.922852,4208.205078,4201.922852,4219.871582,4201.025879,4206.922852,4200.897461,4207.563965,4201.282227,4217.307617,4208.589844,4203.846191,4193.077148,4211.794922,3330.000000,4.000000,95.000000,,,,0.000000,4.000000,4.000000,4.000000,4.000000,4.000000,4.000000,4.000000,4.000000,4.000000,4.000000,4.000000,4.000000,4.000000,4.000000,100.000000,,,,,,,,,,,,,,,,
1645707357.688235,152.000000,0.000000,4233.333496,4203.974121,4201.794922,4214.358887,4201.282227,4208.333496,4201.666504,4210.641113,4205.128418,4218.717773,4207.436035,4203.205078,4195.384766,4212.436035,3403.000000,4.000000,95.000000,,,,0.000000,4.000000,4.000000,4.000000,4.000000,4.000000,4.000000,4.000000,4.000000,4.000000,4.000000,4.000000,4.000000,4.000000,4.000000,100.000000,,,,,,,,,,,,,,,,
1645707357.692175,153.000000,0.000000,4227.179688,4200.769043,4202.307617,4208.333496,4198.846191,4209.230957,4206.025879,4214.230957,4208.461426,4217.179688,4203.589844,4200.897461,4200.384766,4212.692383,3224.000000,4.000000,95.000000,,,,0.000000,4.000000,4.000000,4.000000,4.000000,4.000000,4.000000,4.000000,4.000000,4.000000,4.000000,4.000000,4.000000,4.000000,4.000000,100.000000,,,,,,,,,,,,,,,,
1645707357.696116,154.000000,0.000000,4228.461426,4202.307617,4203.333496,4204.615234,4196.794922,4210.000000,4211.410156,4218.333496,4210.384766,4214.358887,4201.794922,4198.461426,4207.563965,4211.538574,3203.000000,4.000000,95.000000,,,,0.000000,4.000000,4.000000,4.000000,4.000000,4.000000,4.000000,4.000000,4.000000,4.000000,4.000000,4.000000,4.000000,4.000000,4.000000,100.000000,,,,,,,,,,,,,,,,
1645707357.700056,155.000000,0.000000,4236.153809,4207.948730,4203.717773,4203.846191,4197.179688,4211.282227,4214.615234,4221.538574,4210.512695,4213.461426,4205.128418,4196.922852,4214.871582,4207.436035,3330.000000,4.000000,95.000000,,,,0.000000,4.000000,4.000000,4.000000,4.000000,4.000000,4.000000,4.000000,4.000000,4.000000,4.000000,4.000000,4.000000,4.000000,4.000000,100.000000,,,,,,,,,,,,,,,,
1645707357.703896,156.000000,0.000000,4244.102539,4213.461426,4202.820313,4204.743652,4199.230957,4212.436035,4214.743652,4223.077148,4209.871582,4216.410156,4211.922852,4197.179688,4219.487305,4200.512695,3403.000000,4.000000,95.000000,,,,0.000000,4.000000,4.000000,4.000000,4.000000,4.000000,4.000000,4.000000,4.000000,4.000000,4.000000,4.000000,4.000000,4.000000,4.000000,100.000000,,,,,,,,,,,,,,,,
1645707357.707836,157.000000,0.000000,4246.025879,4214.871582,4200.641113,4206.794922,4201.025879,4212.563965,4213.974121,4223.589844,4210.256348,4222.948730,4217.820313,4198.846191,4219.871582,4193.974121,3224.000000,4.000000,95.000000,,,,0.000000,4.000000,4.000000,4.000000,4.000000,4.000000,4.000000,4.000000,4.000000,4.000000,4.000000,4.000000,4.000000,4.000000,4.000000,100.000000,,,,,,,,,,,,,,,,
1645707357.711776,158.000000,0.000000,4241.282227,4211.794922,4197.692383,4209.615234,4201.282227,4211.794922,4214.615234,4224.487305,4212.692383,4231.025879,4219.871582,4200.897461,4217.563965,4192.948730,3203.000000,4.000000,95.000000,,,,0.000000,4.000000,4.000000,4.000000,4.000000,4.000000,4.000000,4.000000,4.000000,4.000000,4.000000,4.000000,4.000000,4.000000,4.000000,100.000000,,,,,,,,,,,,,,,,
1645707357.715716,159.000000,0.000000,4234.615234,4207.948730,4194.615234,4212.179688,4200.384766,4211.666504,4216.410156,4226.538574,4216.410156,4239.358887,4218.974121,4201.922852,4216.666504,4200.384766,3330.000000,4.000000,95.000000,,,,0.000000,4.000000,4.000000,4.000000,4.000000,4.000000,4.000000,4.000000,4.000000,4.000000,4.000000,4.000000,4.000000,4.000000,4.000000,100.000000,,,,,,,,,,,,,,,,
1645707357.719656,160.000000,0.000000,4232.179688,4207.820313,4192.179688,4212.820313,4199.230957,4213.974121,4217.820313,4229.615234,4219.358887,4247.051270,4218.589844,4201.922852,4220.897461,4214.615234,3403.000000,4.000000,95.000000,,,,0.000000,4.000000,4.000000,4.000000,4.000000,4.000000,4.000000,4.000000,4.000000,4.000000,4.000000,4.000000,4.000000,4.000000,4.000000,100.000000,,,,,,,,,,,,,,,,
1645707357.723596,161.000000,0.000000,4235.897461,4212.692383,4191.794922,4210.512695,4198.333496,4218.205078,4217.820313,4233.077148,4220.256348,4252.948730,4221.538574,4201.410156,4229.487305,4228.717773,3224.000000,4.000000,95.000000,,,,0.000000,4.000000,4.000000,4.000000,4.000000,4.000000,4.000000,4.000000,4.000000,4.000000,4.000000,4.000000,4.000000,4.000000,4.000000,100.000000,,,,,,,,,,,,,,,,
1645707357.727536,162.000000,0.000000,4241.922852,4219.743652,4193.717773,4206.282227,4198.205078,4221.666504,4217.692383,4235.384766,4219.358887,4255.128418,4226.794922,4200.769043,4237.436035,4235.256348,3203.000000,4.000000,95.000000,,,,0.000000,4.000000,4.000000,4.000000,4.000000,4.000000,4.000000,4.000000,4.000000,4.000000,4.000000,4.000000,4.000000,4.000000,4.000000,100.000000,,,,,,,,,,,,,,,,
1645707357.731477,163.000000,0.000000,4243.589844,4224.358887,4196.153809,4201.922852,4198.974121,4222.692383,4218.333496,4234.487305,4217.948730,4252.563965,4230.512695,4199.487305,4239.102539,4230.641113,3330.000000,4.000000,95.000000,,,,0.000000,4.000000,4.000000,4.000000,4.000000,4.000000,4.000000,4.000000,4.000000,4.000000,4.000000,4.000000,4.000000,4.000000,4.000000,100.000000,,,,,,,,,,,,,,,,
1645707357.735317,164.000000,0.000000,4237.820313,4223.461426,4196.666504,4198.077148,4200.769043,4221.410156,4219.102539,4230.000000,4217.179688,4246.410156,4229.487305,4197.051270,4232.948730,4217.436035,3403.000000,4.000000,95.000000,,,,0.000000,4.000000,4.000000,4.000000,4.000000,4.000000,4.000000,4.000000,4.000000,4.000000,4.000000,4.000000,4.000000,4.000000,4.000000,100.000000,,,,,,,,,,,,,,,,
1645707357.739257,165.000000,0.000000,4227.692383,4218.077148,4194.615234,4194.230957,4202.820313,4219.743652,4218.846191,4223.717773,4217.307617,4238.974121,4223.589844,4193.846191,4222.692383,4202.436035,3224.000000,4.000000,95.000000,,,,0.000000,4.000000,4.000000,4.000000,4.000000,4.000000,4.000000,4.000000,4.000000,4.000000,4.000000,4.000000,4.000000,4.000000,4.000000,100.000000,,,,,,,,,,,,,,,,
1645707357.743197,166.000000,0.000000,4219.487305,4211.410156,4191.666504,4188.846191,4203.974121,4218.589844,4217.820313,4218.717773,4217.563965,4233.205078,4215.897461,4191.410156,4214.871582,4192.307617,3203.000000,4.000000,95.000000,,,,0.000000,4.000000,4.000000,4.000000,4.000000,4.000000,4.000000,4.000000,4.000000,4.000000,4.000000,4.000000,4.000000,4.000000,4.000000,100.000000,,,,,,,,,,,,,,,,
1645707357.747137,167.000000,0.000000,4217.820313,4207.820313,4190.128418,4182.692383,4203.077148,4217.948730,4217.692383,4217.820313,4217.051270,4231.410156,4211.282227,4191.153809,4213.205078,4190.769043,3330.000000,4.000000,95.000000,,,,0.000000,4.000000,4.000000,4.000000,4.000000,4.000000,4.000000,4.000000,4.000000,4.000000,4.000000,4.000000,4.000000,4.000000,4.000000,100.000000,,,,,,,,,,,,,,,,
1645707357.751077,168.000000,0.000000,4222.692383,4209.615234,4190.641113,4178.846191,4200.512695,4218.205078,4219.615234,4221.025879,4216.282227,4235.128418,4212.948730,4193.846191,4217.563965,4197.820313,3403.000000,4.000000,95.000000,,,,0.000000,4.000000,4.000000,4.000000,4.000000,4.000000,4.000000,4.000000,4.000000,4.000000,4.000000,4.000000,4.000000,4.000000,4.000000,100.000000,,,,,,,,,,,,,,,,
1645707357.755017,169.000000,0.000000,4230.769043,4215.769043,4191.666504,4179.743652,4197.563965,4220.000000,4222.820313,4225.897461,4216.410156,4243.717773,4220.769043,4198.461426,4224.871582,4210.641113,3224.000000,4.000000,95.000000,,,,0.000000,4.000000,4.000000,4.000000,4.000000,4.000000,4.000000,4.000000,4.000000,4.000000,4.000000,4.000000,4.000000,4.000000,4.000000,100.000000,,,,,,,,,,,,,,,,
1645707357.758957,170.000000,0.000000,4236.794922,4221.922852,4191.282227,4184.487305,4194.871582,4222.436035,4224.615234,4229.615234,4217.948730,4252.948730,4230.897461,4203.077148,4231.666504,4224.230957,3203.000000,4.000000,95.000000,,,,0.000000,4.000000,4.000000,4.000000,4.000000,4.000000,4.000000,4.000000,4.000000,4.000000,4.000000,4.000000,4.000000,4.000000,4.000000,100.000000,,,,,,,,,,,,,,,,
1645707357.762898,171.000000,0.000000,4237.436035,4222.563965,4188.846191,4187.948730,4192.436035,4223.589844,4223.846191,4230.512695,4219.487305,4256.410156,4238.077148,4205.897461,4235.512695,4232.307617,3330.000000,4.000000,95.000000,,,,0.000000,4.000000,4.000000,4.000000,4.000000,4.000000,4.000000,4.000000,4.000000,4.000000,4.000000,4.000000,4.000000,4.000000,4.000000,100.000000,,,,,,,,,,,,,,,,
1645707357.766838,172.000000,0.000000,4232.436035,4216.153809,4185.769043,4185.641113,4190.128418,4221.666504,4221.410156,4229.102539,4219.230957,4251.282227,4238.589844,4207.051270,4236.282227,4231.282227,3403.000000,4.000000,95.000000,,,,0.000000,4.000000,4.000000,4.000000,4.000000,4.000000,4.000000,4.000000,4.000000,4.000000,4.000000,4.000000,4.000000,4.000000,4.000000,100.000000,,,,,,,,,,,,,,,,
1645707357.770778,173.000000,0.000000,4225.512695,4206.794922,4183.589844,4177.563965,4188.846191,4218.077148,4219.102539,4226.538574,4217.307617,4241.410156,4234.358887,4207.563965,4235.512695,4222.692383,3224.000000,4.000000,95.000000,,,,0.000000,4.000000,4.000000,4.000000,4.000000,4.000000,4.000000,4.000000,4.000000,4.000000,4.000000,4.000000,4.000000,4.000000,4.000000,100.000000,,,,,,,,,,,,,,,,
1645707357.774718,174.000000,0.000000,4221.922852,4201.538574,4183.974121,4169.358887,4190.128418,4215.769043,4217.820313,4223.974121,4215.128418,4235.000000,4230.641113,4209.102539,4235.897461,4213.205078,3203.000000,4.000000,95.000000,,,,0.000000,4.000000,4.000000,4.000000,4.000000,4.000000,4.000000,4.000000,4.000000,4.000000,4.000000,4.000000,4.000000,4.000000,4.000000,100.000000,,,,,,,,,,,,,,,,
1645707357.778658,175.000000,0.000000,4224.102539,4203.461426,4187.179688,4167.051270,4193.589844,4216.794922,4216.922852,4221.922852,4214.230957,4236.538574,4231.922852,4212.307617,4237.948730,4209.487305,3330.000000,4.000000,95.000000,,,,0.000000,4.000000,4.000000,4.000000,4.000000,4.000000,4.000000,4.000000,4.000000,4.000000,4.000000,4.000000,4.000000,4.000000,4.000000,100.000000,,,,,,,,,,,,,,,,
1645707357.782698,176.000000,0.000000,4228.974121,4209.358887,4192.051270,4171.282227,4196.538574,4220.000000,4216.410156,4221.282227,4214.871582,4243.205078,4236.794922,4216.666504,4240.000000,4213.589844,3403.000000,4.000000,95.000000,,,,0.000000,4.000000,4.000000,4.000000,4.000000,4.000000,4.000000,4.000000,4.000000,4.000000,4.000000,4.000000,4.000000,4.000000,4.000000,100.000000,,,,,,,,,,,,,,,,
1645707357.786638,177.000000,0.000000,4230.897461,4213.077148,4196.410156,4177.563965,4195.641113,4222.436035,4216.794922,4222.179688,4216.153809,4247.179688,4239.871582,4219.743652,4239.615234,4220.897461,3224.000000,4.000000,95.000000,,,,0.000000,4.000000,4.000000,4.000000,4.000000,4.000000,4.000000,4.000000,4.000000,4.000000,4.000000,4.000000,4.000000,4.000000,4.000000,100.000000,,,,,,,,,,,,,,,,
1645707357.790578,178.000000,0.000000,4227.820313,4211.794922,4198.461426,4179.871582,4190.769043,4222.307617,4218.333496,4223.846191,4216.282227,4243.589844,4237.563965,4219.230957,4236.410156,4225.000000,3203.000000,4.000000,95.000000,,,,0.000000,4.000000,4.000000,4.000000,4.000000,4.000000,4.000000,4.000000,4.000000,4.000000,4.000000,4.000000,4.000000,4.000000,4.000000,100.000000,,,,,,,,,,,,,,,,
1645707357.794518,179.000000,0.000000,4223.205078,4208.205078,4198.461426,4176.794922,4186.282227,4221.153809,4220.512695,4225.000000,4214.615234,4235.256348,4232.563965,4215.000000,4232.563965,4222.820313,3330.000000,4.000000,95.000000,,,,0.000000,4.000000,4.000000,4.000000,4.000000,4.000000,4.000000,4.000000,4.000000,4.000000,4.000000,4.000000,4.000000,4.000000,4.000000,100.000000,,,,,,,,,,,,,,,,
1645707357.798458,180.000000,0.000000,4222.563965,4207.436035,4198.589844,4171.410156,4187.436035,4221.153809,4222.051270,4224.871582,4212.948730,4229.230957,4230.128418,4209.743652,4230.641113,4216.282227,3403.000000,4.000000,95.000000,,,,0.000000,4.000000,4.000000,4.000000,4.000000,4.000000,4.000000,4.000000,4.000000,4.000000,4.000000,4.000000,4.000000,4.000000,4.000000,100.000000,,,,,,,,,,,,,,,,
1645707357.802398,181.000000,0.000000,4226.794922,4211.794922,4201.025879,4168.333496,4195.128418,4223.077148,4222.436035,4224.102539,4213.333496,4229.230957,4232.179688,4206.538574,4229.487305,4209.743652,3224.000000,4.000000,95.000000,,,,0.000000,4.000000,4.000000,4.000000,4.000000,4.000000,4.000000,4.000000,4.000000,4.000000,4.000000,4.000000,4.000000,4.000000,4.000000,100.000000,,,,,,,,,,,,,,,,
1645707357.806339,182.000000,0.000000,4231.538574,4218.589844,4204.871582,4168.974121,4204.102539,4225.769043,4222.051270,4224.230957,4215.897461,4232.692383,4234.358887,4205.897461,4226.282227,4206.025879,3203.000000,4.000000,95.000000,,,,0.000000,4.000000,4.000000,4.000000,4.000000,4.000000,4.000000,4.000000,4.000000,4.000000,4.000000,4.000000,4.000000,4.000000,4.000000,100.000000,,,,,,,,,,,,,,,,
1645707357.810279,183.000000,0.000000,4231.282227,4223.077148,4206.666504,4171.153809,4208.333496,4227.820313,4221.922852,4225.641113,4217.948730,4233.846191,4231.922852,4206.282227,4220.384766,4205.641113,3330.000000,4.000000,95.000000,,,,0.000000,4.000000,4.000000,4.000000,4.000000,4.000000,4.000000,4.000000,4.000000,4.000000,4.000000,4.000000,4.000000,4.000000,4.000000,100.000000,,,,,,,,,,,,,,,,
1645707357.814219,184.000000,0.000000,4225.384766,4223.589844,4204.102539,4171.538574,4206.410156,4228.846191,4221.538574,4226.666504,4217.179688,4230.641113,4224.743652,4205.769043,4215.128418,4208.077148,3403.000000,4.000000,95.000000,,,,0.000000,4.000000,4.000000,4.000000,4.000000,4.000000,4.000000,4.000000,4.000000,4.000000,4.000000,4.000000,4.000000,4.000000,4.000000,100.000000,,,,,,,,,,,,,,,,
1645707357.818159,185.000000,0.000000,4218.077148,4222.436035,4198.333496,4169.615234,4201.538574,4229.102539,4220.384766,4225.256348,4213.205078,4225.897461,4217.436035,4204.487305,4214.615234,4212.948730,3224.000000,4.000000,95.000000,,,,0.000000,4.000000,4.000000,4.000000,4.000000,4.000000,4.000000,4.000000,4.000000,4.000000,4.000000,4.000000,4.000000,4.000000,4.000000,100.000000,,,,,,,,,,,,,,,,
1645707357.822099,186.000000,0.000000,4215.384766,4222.436035,4193.461426,4165.769043,4198.333496,4228.333496,4218.717773,4221.410156,4208.589844,4224.230957,4214.871582,4203.205078,4218.717773,4217.692383,3203.000000,4.000000,95.000000,,,,0.000000,4.000000,4.000000,4.000000,4.000000,4.000000,4.000000,4.000000,4.000000,4.000000,4.000000,4.000000,4.000000,4.000000,4.000000,100.000000,,,,,,,,,,,,,,,,
1645707357.826039,187.000000,0.000000,4219.102539,4224.230957,4191.922852,4161.666504,4197.820313,4226.410156,4217.820313,4217.563965,4206.538574,4226.410156,4217.692383,4203.846191,4222.820313,4218.589844,3330.000000,4.000000,95.000000,,,,0.000000,4.000000,4.000000,4.000000,4.000000,4.000000,4.000000,4.000000,4.000000,4.000000,4.000000,4.000000,4.000000,4.000000,4.000000,100.000000,,,,,,,,,,,,,,,,
1645707357.830079,188.000000,0.000000,4226.922852,4226.666504,4193.589844,4158.589844,4198.846191,4224.102539,4218.333496,4216.153809,4208.077148,4229.743652,4223.205078,4207.051270,4222.051270,4213.461426,3403.000000,4.000000,95.000000,,,,0.000000,4.000000,4.000000,4.000000,4.000000,4.000000,4.000000,4.000000,4.000000,4.000000,4.000000,4.000000,4.000000,4.000000,4.000000,100.000000,,,,,,,,,,,,,,,,
1645707357.834019,189.000000,0.000000,4234.871582,4227.948730,4196.025879,4158.589844,4199.743652,4222.307617,4219.230957,4216.666504,4211.153809,4230.769043,4227.820313,4211.794922,4216.282227,4204.615234,3224.000000,4.000000,95.000000,,,,0.000000,4.000000,4.000000,4.000000,4.000000,4.000000,4.000000,4.000000,4.000000,4.000000,4.000000,4.000000,4.000000,4.000000,4.000000,100.000000,,,,,,,,,,,,,,,,
1645707357.837959,190.000000,0.000000,4238.974121,4228.205078,4197.179688,4162.307617,4200.512695,4222.051270,4218.461426,4216.025879,4212.436035,4228.333496,4229.743652,4215.897461,4210.256348,4197.563965,3203.000000,4.000000,95.000000,,,,0.000000,4.000000,4.000000,4.000000,4.000000,4.000000,4.000000,4.000000,4.000000,4.000000,4.000000,4.000000,4.000000,4.000000,4.000000,100.000000,,,,,,,,,,,,,,,,
1645707357.841899,191.000000,0.000000,4237.820313,4228.461426,4197.692383,4168.461426,4201.282227,4222.948730,4215.897461,4211.666504,4210.256348,4223.974121,4228.974121,4217.179688,4208.974121,4196.666504,3330.000000,4.000000,95.000000,,,,0.000000,4.000000,4.000000,4.000000,4.000000,4.000000,4.000000,4.000000,4.000000,4.000000,4.000000,4.000000,4.000000,4.000000,4.000000,100.000000,,,,,,,,,,,,,,,,
1645707357.845840,192.000000,0.000000,4232.820313,4230.128418,4198.589844,4173.589844,4202.179688,4223.717773,4213.205078,4204.871582,4205.256348,4220.384766,4227.820313,4216.282227,4213.589844,4202.820313,3403.000000,4.000000,95.000000,,,,0.000000,4.000000,4.000000,4.000000,4.000000,4.000000,4.000000,4.000000,4.000000,4.000000,4.000000,4.000000,4.000000,4.000000,4.000000,100.000000,,,,,,,,,,,,,,,,
1645707357.849780,193.000000,0.000000,4228.333496,4233.974121,4200.512695,4175.256348,4202.948730,4222.436035,4212.692383,4198.717773,4200.128418,4220.128418,4228.461426,4215.256348,4221.410156,4213.461426,3224.000000,4.000000,95.000000,,,,0.000000,4.000000,4.000000,4.000000,4.000000,4.000000,4.000000,4.000000,4.000000,4.000000,4.000000,4.000000,4.000000,4.000000,4.000000,100.000000,,,,,,,,,,,,,,,,
1645707357.853720,194.000000,0.000000,4227.307617,4239.615234,4201.410156,4172.948730,4203.846191,4219.102539,4213.846191,4196.025879,4197.436035,4223.717773,4231.794922,4216.025879,4228.717773,4224.615234,3203.000000,4.000000,95.000000,,,,0.000000,4.000000,4.000000,4.000000,4.000000,4.000000,4.000000,4.000000,4.000000,4.000000,4.000000,4.000000,4.000000,4.000000,4.000000,100.000000,,,,,,,,,,,,,,,,
1645707357.857560,195.000000,0.000000,4229.871582,4245.128418,4199.743652,4169.102539,4205.384766,4215.641113,4214.615234,4197.179688,4198.205078,4229.230957,4236.538574,4218.717773,4232.948730,4232.051270,3330.000000,4.000000,95.000000,,,,0.000000,4.000000,4.000000,4.000000,4.000000,4.000000,4.000000,4.000000,4.000000,4.000000,4.000000,4.000000,4.000000,4.000000,4.000000,100.000000,,,,,,,,,,,,,,,,
1645707357.861500,196.000000,0.000000,4233.717773,4248.461426,4195.897461,4166.410156,4207.179688,4214.102539,4213.846191,4200.769043,4201.666504,4233.077148,4239.358887,4221.666504,4233.846191,4233.333496,3403.000000,4.000000,95.000000,,,,0.000000,4.000000,4.000000,4.000000,4.000000,4.000000,4.000000,4.000000,4.000000,4.000000,4.000000,4.000000,4.000000,4.000000,4.000000,100.000000,,,,,,,,,,,,,,,,
1645707357.865440,197.000000,0.000000,4236.153809,4248.846191,4192.948730,4166.538574,4208.333496,4214.871582,4212.692383,4205.256348,4205.512695,4232.948730,4237.820313,4222.948730,4232.692383,4229.487305,3224.000000,4.000000,95.000000,,,,0.000000,4.000000,4.000000,4.000000,4.000000,4.000000,4.000000,4.000000,4.000000,4.000000,4.000000,4.000000,4.000000,4.000000,4.000000,100.000000,,,,,,,,,,,,,,,,
1645707357.869480,198.000000,0.000000,4237.179688,4247.307617,4193.461426,4169.102539,4208.205078,4216.410156,4213.205078,4208.846191,4207.307617,4229.230957,4232.948730,4222.692383,4231.282227,4225.000000,3203.000000,4.000000,95.000000,,,,0.000000,4.000000,4.000000,4.000000,4.000000,4.000000,4.000000,4.000000,4.000000,4.000000,4.000000,4.000000,4.000000,4.000000,4.000000,100.000000,,,,,,,,,,,,,,,,
1645707357.873420,199.000000,0.000000,4238.333496,4246.153809,4197.436035,4171.922852,4207.307617,4217.307617,4215.641113,4210.512695,4206.666504,4225.769043,4228.333496,4223.077148,4231.025879,4224.871582,3330.000000,4.000000,95.000000,,,,0.000000,4.000000,4.000000,4.000000,4.000000,4.000000,4.000000,4.000000,4.000000,4.000000,4.000000,4.000000,4.000000,4.000000,4.000000,100.000000,,,,,,,,,,,,,,,,
1645707357.877360,200.000000,0.000000,4240.769043,4247.051270,4202.307617,4172.051270,4206.282227,4217.436035,4217.820313,4210.384766,4205.512695,4225.641113,4227.436035,4226.410156,4232.820313,4230.769043,3403.000000,4.000000,95.000000,,,,0.000000,4.000000,4.000000,4.000000,4.000000,4.000000,4.000000,4.000000,4.000000,4.000000,4.000000,4.000000,4.000000,4.000000,4.000000,100.000000,,,,,,,,,,,,,,,,
1645707357.881300,201.000000,0.000000,4243.589844,4249.743652,4205.384766,4168.333496,4205.000000,4217.307617,4217.948730,4209.358887,4205.641113,4228.717773,4230.256348,4231.282227,4235.897461,4238.846191,3224.000000,4.000000,95.000000,,,,0.000000,4.000000,4.000000,4.000000,4.000000,4.000000,4.000000,4.000000,4.000000,4.000000,4.000000,4.000000,4.000000,4.000000,4.000000,100.000000,,,,,,,,,,,,,,,,
1645707357.885241,202.000000,0.000000,4244.615234,4251.794922,4206.025879,4162.692383,4203.205078,4216.538574,4216.538574,4209.230957,4207.436035,4231.282227,4233.717773,4234.230957,4238.461426,4242.692383,3203.000000,4.000000,95.000000,,,,0.000000,4.000000,4.000000,4.000000,4.000000,4.000000,4.000000,4.000000,4.000000,4.000000,4.000000,4.000000,4.000000,4.000000,4.000000,100.000000,,,,,,,,,,,,,,,,
1645707357.889181,203.000000,0.000000,4243.333496,4252.179688,4204.743652,4158.974121,4201.282227,4215.512695,4216.282227,4210.384766,4208.589844,4229.871582,4235.000000,4232.436035,4238.974121,4239.487305,3330.000000,4.000000,95.000000,,,,0.000000,4.000000,4.000000,4.000000,4.000000,4.000000,4.000000,4.000000,4.000000,4.000000,4.000000,4.000000,4.000000,4.000000,4.000000,100.000000,,,,,,,,,,,,,,,,
1645707357.893121,204.000000,0.000000,4241.922852,4252.051270,4202.820313,4160.641113,4200.897461,4215.000000,4218.333496,4211.666504,4208.077148,4225.512695,4233.589844,4227.051270,4238.077148,4232.436035,3403.000000,4.000000,95.000000,,,,0.000000,4.000000,4.000000,4.000000,4.000000,4.000000,4.000000,4.000000,4.000000,4.000000,4.000000,4.000000,4.000000,4.000000,4.000000,100.000000,,,,,,,,,,,,,,,,
1645707357.897161,205.000000,0.000000,4243.077148,4253.717773,4200.897461,4167.436035,4202.820313,4216.153809,4221.025879,4211.922852,4206.922852,4222.436035,4231.922852,4221.153809,4237.307617,4227.563965,3224.000000,4.000000,95.000000,,,,0.000000,4.000000,4.000000,4.000000,4.000000,4.000000,4.000000,4.000000,4.000000,4.000000,4.000000,4.000000,4.000000,4.000000,4.000000,100.000000,,,,,,,,,,,,,,,,
1645707357.901101,206.000000,0.000000,4246.666504,4257.436035,4199.102539,4175.384766,4205.641113,4218.717773,4222.692383,4211.538574,4207.307617,4223.717773,4232.307617,4217.563965,4237.692383,4227.820313,3203.000000,4.000000,95.000000,,,,0.000000,4.000000,4.000000,4.000000,4.000000,4.000000,4.000000,4.000000,4.000000,4.000000,4.000000,4.000000,4.000000,4.000000,4.000000,100.000000,,,,,,,,,,,,,,,,
1645707357.905041,207.000000,0.000000,4249.230957,4260.128418,4196.922852,4179.102539,4206.153809,4220.897461,4222.692383,4211.794922,4209.230957,4227.820313,4234.615234,4216.922852,4237.563965,4230.384766,3330.000000,4.000000,95.000000,,,,0.000000,4.000000,4.000000,4.000000,4.000000,4.000000,4.000000,4.000000,4.000000,4.000000,4.000000,4.000000,4.000000,4.000000,4.000000,100.000000,,,,,,,,,,,,,,,,
1645707357.908981,208.000000,0.000000,4247.179688,4258.461426,4194.615234,4175.641113,4203.717773,4221.025879,4221.922852,4213.333496,4211.025879,4230.128418,4236.666504,4217.820313,4234.743652,4230.641113,3403.000000,4.000000,95.000000,,,,0.000000,4.000000,4.000000,4.000000,4.000000,4.000000,4.000000,4.000000,4.000000,4.000000,4.000000,4.000000,4.000000,4.000000,4.000000,100.000000,,,,,,,,,,,,,,,,
1645707357.912921,209.000000,0.000000,4240.256348,4252.563965,4192.692383,4166.538574,4200.384766,4219.743652,4221.025879,4214.615234,4211.025879,4228.077148,4236.410156,4218.589844,4228.846191,4225.769043,3224.000000,4.000000,95.000000,,,,0.000000,4.000000,4.000000,4.000000,4.000000,4.000000,4.000000,4.000000,4.000000,4.000000,4.000000,4.000000,4.000000,4.000000,4.000000,100.000000,,,,,,,,,,,,,,,,
1645707357.916861,210.000000,0.000000,4232.307617,4246.410156,4192.307617,4156.538574,4200.000000,4219.230957,4219.743652,4214.358887,4208.974121,4223.461426,4234.358887,4218.333496,4222.436035,4217.051270,3203.000000,4.000000,95.000000,,,,0.000000,4.000000,4.000000,4.000000,4.000000,4.000000,4.000000,4.000000,4.000000,4.000000,4.000000,4.000000,4.000000,4.000000,4.000000,100.000000,,,,,,,,,,,,,,,,
1645707357.920801,211.000000,0.000000,4226.794922,4243.717773,4193.974121,4149.871582,4203.461426,4220.384766,4218.205078,4212.307617,4206.922852,4219.743652,4232.563965,4217.436035,4218.589844,4208.333496,3330.000000,4.000000,95.000000,,,,0.000000,4.000000,4.000000,4.000000,4.000000,4.000000,4.000000,4.000000,4.000000,4.000000,4.000000,4.000000,4.000000,4.000000,4.000000,100.000000,,,,,,,,,,,,,,,,
1645707357.924742,212.000000,0.000000,4225.000000,4245.384766,4197.563965,4147.948730,4207.820313,4221.666504,4216.794922,4210.384766,4206.153809,4219.743652,4232.051270,4216.538574,4218.846191,4203.974121,3403.000000,4.000000,95.000000,,,,0.000000,4.000000,4.000000,4.000000,4.000000,4.000000,4.000000,4.000000,4.000000,4.000000,4.000000,4.000000,4.000000,4.000000,4.000000,100.000000,,,,,,,,,,,,,,,,
1645707357.928682,213.000000,0.000000,4225.512695,4248.974121,4201.794922,4150.000000,4208.846191,4220.256348,4216.410156,4210.128418,4206.922852,4222.563965,4232.563965,4215.897461,4222.948730,4205.897461,3224.000000,4.000000,95.000000,,,,0.000000,4.000000,4.000000,4.000000,4.000000,4.000000,4.000000,4.000000,4.000000,4.000000,4.000000,4.000000,4.000000,4.000000,4.000000,100.000000,,,,,,,,,,,,,,,,
1645707357.932622,214.000000,0.000000,4226.666504,4252.179688,4204.743652,4153.205078,4205.128418,4216.282227,4216.538574,4211.282227,4207.563965,4226.282227,4233.333496,4215.641113,4228.717773,4212.948730,3203.000000,4.000000,95.000000,,,,0.000000,4.000000,4.000000,4.000000,4.000000,4.000000,4.000000,4.000000,4.000000,4.000000,4.000000,4.000000,4.000000,4.000000,4.000000,100.000000,,,,,,,,,,,,,,,,
1645707357.936562,215.000000,0.000000,4227.563965,4253.974121,4205.641113,4154.871582,4198.974121,4212.307617,4215.769043,4211.794922,4207.051270,4228.974121,4234.230957,4215.641113,4233.974121,4221.153809,3330.000000,4.000000,95.000000,,,,0.000000,4.000000,4.000000,4.000000,4.000000,4.000000,4.000000,4.000000,4.000000,4.000000,4.000000,4.000000,4.000000,4.000000,4.000000,100.000000,,,,,,,,,,,,,,,,
1645707357.940502,216.000000,0.000000,4228.077148,4254.487305,4205.128418,4154.102539,4194.230957,4210.641113,4213.205078,4210.512695,4205.641113,4230.512695,4235.128418,4216.153809,4236.538574,4226.538574,3403.000000,4.000000,95.000000,,,,0.000000,4.000000,4.000000,4.000000,4.000000,4.000000,4.000000,4.000000,4.000000,4.000000,4.000000,4.000000,4.000000,4.000000,4.000000,100.000000,,,,,,,,,,,,,,,,
1645707357.944442,217.000000,0.000000,4227.948730,4254.615234,4204.871582,4151.153809,4192.820313,4211.153809,4209.871582,4208.077148,4204.358887,4231.025879,4235.384766,4217.051270,4236.025879,4227.436035,3224.000000,4.000000,95.000000,,,,0.000000,4.000000,4.000000,4.000000,4.000000,4.000000,4.000000,4.000000,4.000000,4.000000,4.000000,4.000000,4.000000,4.000000,4.000000,100.000000,,,,,,,,,,,,,,,,
1645707357.948482,218.000000,0.000000,4226.794922,4255.000000,4205.769043,4148.333496,4194.743652,4211.666504,4208.205078,4206.153809,4203.589844,4230.384766,4234.102539,4217.948730,4234.230957,4225.897461,3203.000000,4.000000,95.000000,,,,0.000000,4.000000,4.000000,4.000000,4.000000,4.000000,4.000000,4.000000,4.000000,4.000000,4.000000,4.000000,4.000000,4.000000,4.000000,100.000000,1.000000,16.666666,4.000000,1.000000,4.000000,0.000000,4.000000,4.000000,4.000000,4.000000,1.000000,4.000000,4.000000,4.000000,4.000000,4.000000
1645707357.952422,219.000000,0.000000,4224.615234,4256.410156,4206.922852,4147.948730,4198.333496,4211.410156,4209.487305,4205.897461,4203.589844,4228.589844,4231.794922,4217.820313,4233.461426,4224.358887,3330.000000,4.000000,95.000000,,,,0.000000,4.000000,4.000000,4.000000,4.000000,4.000000,4.000000,4.000000,4.000000,4.000000,4.000000,4.000000,4.000000,4.000000,4.000000,100.000000,,,,,,,,,,,,,,,,
1645707357.956362,220.000000,0.000000,4223.717773,4258.333496,4206.794922,4150.512695,4201.922852,4211.153809,4212.692383,4207.051270,4203.974121,4226.794922,4230.000000,4215.897461,4235.256348,4224.102539,3403.000000,4.000000,95.000000,,,,0.000000,4.000000,4.000000,4.000000,4.000000,4.000000,4.000000,4.000000,4.000000,4.000000,4.000000,4.000000,4.000000,4.000000,4.000000,100.000000,,,,,,,,,,,,,,,,
