title:Alex-7cKyDgTsRDpKj-xWh3ipJA, start timestamp:1644852823.116137, stop timestamp:1644852849.384676, headset type:EPOCPLUS, headset serial:3B9AEBFF, headset firmware:626, channels:55, sampling rate:eeg_256, samples:6667      , version:2.1, 
Timestamp,EEG.Counter,EEG.Interpolated,EEG.AF3,EEG.F7,EEG.F3,EEG.FC5,EEG.T7,EEG.P7,EEG.O1,EEG.O2,EEG.P8,EEG.T8,EEG.FC6,EEG.F4,EEG.F8,EEG.AF4,EEG.RawCq,EEG.Battery,EEG.BatteryPercent,MarkerIndex,MarkerType,MarkerValueInt,EEG.MarkerHardware,CQ.AF3,CQ.F7,CQ.F3,CQ.FC5,CQ.T7,CQ.P7,CQ.O1,CQ.O2,CQ.P8,CQ.T8,CQ.FC6,CQ.F4,CQ.F8,CQ.AF4,CQ.Overall,EQ.SampleRateQuality,EQ.OVERALL,EQ.AF3,EQ.F7,EQ.F3,EQ.FC5,EQ.T7,EQ.P7,EQ.O1,EQ.O2,EQ.P8,EQ.T8,EQ.FC6,EQ.F4,EQ.F8,EQ.AF4
1644852823.116137,176.000000,0.000000,4224.230957,4231.410156,4216.153809,4225.641113,4220.769043,4217.948730,4223.461426,4214.230957,4283.846191,4212.563965,4216.922852,4204.487305,4206.410156,4204.102539,3360.000000,4.000000,91.000000,,,,0.000000,4.000000,4.000000,4.000000,4.000000,4.000000,4.000000,4.000000,4.000000,4.000000,4.000000,4.000000,4.000000,4.000000,4.000000,100.000000,,,,,,,,,,,,,,,,
1644852823.119978,177.000000,0.000000,4226.922852,4231.538574,4218.333496,4221.794922,4217.179688,4219.358887,4223.974121,4213.205078,4282.307617,4209.615234,4225.641113,4202.563965,4204.487305,4212.436035,3493.000000,4.000000,91.000000,,,,0.000000,4.000000,4.000000,4.000000,4.000000,4.000000,4.000000,4.000000,4.000000,4.000000,4.000000,4.000000,4.000000,4.000000,4.000000,100.000000,,,,,,,,,,,,,,,,
1644852823.123918,178.000000,0.000000,4226.025879,4227.948730,4220.128418,4227.820313,4216.282227,4219.102539,4221.282227,4211.538574,4280.128418,4204.743652,4226.282227,4200.000000,4204.102539,4221.922852,3519.000000,4.000000,91.000000,,,,0.000000,4.000000,4.000000,4.000000,4.000000,4.000000,4.000000,4.000000,4.000000,4.000000,4.000000,4.000000,4.000000,4.000000,4.000000,100.000000,,,,,,,,,,,,,,,,
1644852823.127858,179.000000,0.000000,4220.897461,4222.436035,4221.153809,4241.666504,4218.589844,4217.051270,4215.897461,4210.000000,4278.461426,4202.179688,4221.025879,4199.743652,4207.307617,4228.205078,3437.000000,4.000000,91.000000,,,,0.000000,4.000000,4.000000,4.000000,4.000000,4.000000,4.000000,4.000000,4.000000,4.000000,4.000000,4.000000,4.000000,4.000000,4.000000,100.000000,,,,,,,,,,,,,,,,
1644852823.131798,180.000000,0.000000,4216.666504,4218.333496,4221.794922,4254.102539,4223.333496,4214.487305,4211.794922,4210.256348,4277.820313,4205.000000,4216.153809,4202.948730,4213.846191,4228.077148,3360.000000,4.000000,91.000000,,,,0.000000,4.000000,4.000000,4.000000,4.000000,4.000000,4.000000,4.000000,4.000000,4.000000,4.000000,4.000000,4.000000,4.000000,4.000000,100.000000,,,,,,,,,,,,,,,,
1644852823.135738,181.000000,0.000000,4218.846191,4217.563965,4222.307617,4256.025879,4227.307617,4212.692383,4212.051270,4213.205078,4278.205078,4211.922852,4215.641113,4208.461426,4221.153809,4220.641113,3493.000000,4.000000,91.000000,,,,0.000000,4.000000,4.000000,4.000000,4.000000,4.000000,4.000000,4.000000,4.000000,4.000000,4.000000,4.000000,4.000000,4.000000,4.000000,100.000000,,,,,,,,,,,,,,,,
1644852823.139678,182.000000,0.000000,4226.538574,4219.487305,4222.436035,4245.641113,4226.922852,4212.436035,4215.128418,4217.436035,4279.230957,4218.846191,4218.461426,4213.333496,4225.769043,4209.358887,3519.000000,4.000000,91.000000,,,,0.000000,4.000000,4.000000,4.000000,4.000000,4.000000,4.000000,4.000000,4.000000,4.000000,4.000000,4.000000,4.000000,4.000000,4.000000,100.000000,,,,,,,,,,,,,,,,
1644852823.143618,183.000000,0.000000,4233.077148,4222.051270,4221.922852,4229.871582,4221.410156,4213.846191,4216.922852,4219.487305,4280.897461,4222.307617,4220.000000,4215.000000,4226.282227,4200.512695,3437.000000,4.000000,91.000000,,,,0.000000,4.000000,4.000000,4.000000,4.000000,4.000000,4.000000,4.000000,4.000000,4.000000,4.000000,4.000000,4.000000,4.000000,4.000000,100.000000,,,,,,,,,,,,,,,,
1644852823.147558,184.000000,0.000000,4231.282227,4223.333496,4220.256348,4218.846191,4213.846191,4215.769043,4215.769043,4217.436035,4282.307617,4221.666504,4217.179688,4212.307617,4222.820313,4199.743652,3360.000000,4.000000,91.000000,,,,0.000000,4.000000,4.000000,4.000000,4.000000,4.000000,4.000000,4.000000,4.000000,4.000000,4.000000,4.000000,4.000000,4.000000,4.000000,100.000000,,,,,,,,,,,,,,,,
1644852823.151498,185.000000,0.000000,4221.282227,4222.948730,4217.179688,4218.461426,4208.461426,4216.666504,4213.333496,4212.436035,4282.307617,4218.205078,4210.512695,4206.025879,4216.794922,4207.563965,3493.000000,4.000000,91.000000,,,,0.000000,4.000000,4.000000,4.000000,4.000000,4.000000,4.000000,4.000000,4.000000,4.000000,4.000000,4.000000,4.000000,4.000000,4.000000,100.000000,,,,,,,,,,,,,,,,
1644852823.155438,186.000000,0.000000,4210.897461,4222.692383,4213.333496,4226.153809,4209.487305,4215.128418,4212.948730,4208.077148,4280.641113,4214.102539,4203.846191,4199.615234,4210.641113,4218.205078,3519.000000,4.000000,91.000000,,,,0.000000,4.000000,4.000000,4.000000,4.000000,4.000000,4.000000,4.000000,4.000000,4.000000,4.000000,4.000000,4.000000,4.000000,4.000000,100.000000,,,,,,,,,,,,,,,,
1644852823.159379,187.000000,0.000000,4209.358887,4224.358887,4210.000000,4233.333496,4216.922852,4211.282227,4214.615234,4208.077148,4279.102539,4210.897461,4201.282227,4196.794922,4207.179688,4224.102539,3437.000000,4.000000,91.000000,,,,0.000000,4.000000,4.000000,4.000000,4.000000,4.000000,4.000000,4.000000,4.000000,4.000000,4.000000,4.000000,4.000000,4.000000,4.000000,100.000000,,,,,,,,,,,,,,,,
1644852823.163319,188.000000,0.000000,4219.615234,4227.948730,4208.205078,4232.820313,4226.794922,4206.666504,4216.153809,4212.820313,4280.000000,4209.743652,4204.487305,4198.846191,4208.205078,4221.025879,3360.000000,4.000000,91.000000,,,,0.000000,4.000000,4.000000,4.000000,4.000000,4.000000,4.000000,4.000000,4.000000,4.000000,4.000000,4.000000,4.000000,4.000000,4.000000,100.000000,,,,,,,,,,,,,,,,
1644852823.167259,189.000000,0.000000,4234.615234,4230.641113,4208.333496,4224.102539,4231.794922,4203.589844,4215.769043,4219.871582,4283.333496,4210.384766,4210.128418,4203.461426,4212.051270,4211.538574,3493.000000,4.000000,91.000000,,,,0.000000,4.000000,4.000000,4.000000,4.000000,4.000000,4.000000,4.000000,4.000000,4.000000,4.000000,4.000000,4.000000,4.000000,4.000000,100.000000,,,,,,,,,,,,,,,,
1644852823.171199,190.000000,0.000000,4243.077148,4228.589844,4209.358887,4213.974121,4227.307617,4203.205078,4214.615234,4225.128418,4286.794922,4211.282227,4213.717773,4206.794922,4214.615234,4202.820313,3519.000000,4.000000,91.000000,,,,0.000000,4.000000,4.000000,4.000000,4.000000,4.000000,4.000000,4.000000,4.000000,4.000000,4.000000,4.000000,4.000000,4.000000,4.000000,100.000000,,,,,,,,,,,,,,,,
1644852823.175239,191.000000,0.000000,4238.461426,4221.538574,4210.256348,4210.384766,4215.384766,4205.384766,4214.871582,4225.897461,4287.307617,4211.153809,4213.461426,4206.538574,4212.948730,4201.666504,3437.000000,4.000000,91.000000,,,,0.000000,4.000000,4.000000,4.000000,4.000000,4.000000,4.000000,4.000000,4.000000,4.000000,4.000000,4.000000,4.000000,4.000000,4.000000,100.000000,,,,,,,,,,,,,,,,
1644852823.179179,192.000000,0.000000,4224.871582,4213.461426,4210.512695,4216.025879,4204.615234,4208.974121,4216.794922,4222.692383,4284.102539,4210.256348,4211.538574,4203.846191,4208.589844,4209.743652,3360.000000,4.000000,91.000000,,,,0.000000,4.000000,4.000000,4.000000,4.000000,4.000000,4.000000,4.000000,4.000000,4.000000,4.000000,4.000000,4.000000,4.000000,4.000000,100.000000,,,,,,,,,,,,,,,,
1644852823.183119,193.000000,0.000000,4212.948730,4209.743652,4210.512695,4226.794922,4203.461426,4212.820313,4218.205078,4217.948730,4279.615234,4209.230957,4211.666504,4202.436035,4205.641113,4222.051270,3493.000000,4.000000,91.000000,,,,0.000000,4.000000,4.000000,4.000000,4.000000,4.000000,4.000000,4.000000,4.000000,4.000000,4.000000,4.000000,4.000000,4.000000,4.000000,100.000000,,,,,,,,,,,,,,,,
1644852823.187059,194.000000,0.000000,4210.897461,4212.563965,4211.410156,4235.512695,4212.692383,4215.384766,4218.077148,4214.615234,4276.922852,4208.205078,4214.102539,4204.615234,4206.282227,4230.384766,3519.000000,4.000000,91.000000,,,,0.000000,4.000000,4.000000,4.000000,4.000000,4.000000,4.000000,4.000000,4.000000,4.000000,4.000000,4.000000,4.000000,4.000000,4.000000,100.000000,,,,,,,,,,,,,,,,
1644852823.190999,195.000000,0.000000,4217.820313,4219.230957,4213.846191,4237.179688,4223.974121,4215.769043,4217.179688,4213.974121,4277.436035,4206.922852,4215.641113,4209.358887,4209.358887,4229.102539,3437.000000,4.000000,91.000000,,,,0.000000,4.000000,4.000000,4.000000,4.000000,4.000000,4.000000,4.000000,4.000000,4.000000,4.000000,4.000000,4.000000,4.000000,4.000000,100.000000,,,,,,,,,,,,,,,,
1644852823.194939,196.000000,0.000000,4225.769043,4224.871582,4217.307617,4231.794922,4227.179688,4214.615234,4217.563965,4215.897461,4280.128418,4206.410156,4214.743652,4213.461426,4211.538574,4219.615234,3360.000000,4.000000,91.000000,,,,0.000000,4.000000,4.000000,4.000000,4.000000,4.000000,4.000000,4.000000,4.000000,4.000000,4.000000,4.000000,4.000000,4.000000,4.000000,100.000000,,,,,,,,,,,,,,,,
1644852823.198880,197.000000,0.000000,4227.948730,4226.410156,4219.615234,4223.333496,4219.102539,4213.589844,4219.487305,4219.615234,4283.589844,4208.974121,4213.333496,4214.358887,4211.153809,4208.846191,3493.000000,4.000000,91.000000,,,,0.000000,4.000000,4.000000,4.000000,4.000000,4.000000,4.000000,4.000000,4.000000,4.000000,4.000000,4.000000,4.000000,4.000000,4.000000,100.000000,,,,,,,,,,,,,,,,
1644852823.202920,198.000000,0.000000,4224.102539,4224.230957,4219.615234,4216.025879,4206.025879,4214.230957,4221.153809,4223.333496,4286.410156,4215.897461,4214.871582,4212.436035,4209.871582,4203.717773,3519.000000,4.000000,91.000000,,,,0.000000,4.000000,4.000000,4.000000,4.000000,4.000000,4.000000,4.000000,4.000000,4.000000,4.000000,4.000000,4.000000,4.000000,4.000000,100.000000,,,,,,,,,,,,,,,,
1644852823.206860,199.000000,0.000000,4220.256348,4220.641113,4217.820313,4212.563965,4197.563965,4216.538574,4221.794922,4225.384766,4288.205078,4224.102539,4220.000000,4210.000000,4210.256348,4207.179688,3437.000000,4.000000,91.000000,,,,0.000000,4.000000,4.000000,4.000000,4.000000,4.000000,4.000000,4.000000,4.000000,4.000000,4.000000,4.000000,4.000000,4.000000,4.000000,100.000000,,,,,,,,,,,,,,,,
1644852823.210800,200.000000,0.000000,4221.794922,4218.589844,4216.025879,4212.563965,4198.205078,4218.333496,4222.051270,4225.256348,4288.461426,4228.717773,4223.846191,4208.205078,4213.461426,4217.051270,3360.000000,4.000000,91.000000,,,,0.000000,4.000000,4.000000,4.000000,4.000000,4.000000,4.000000,4.000000,4.000000,4.000000,4.000000,4.000000,4.000000,4.000000,4.000000,100.000000,,,,,,,,,,,,,,,,
1644852823.214840,201.000000,0.000000,4227.948730,4218.717773,4215.256348,4213.846191,4204.487305,4216.794922,4222.436035,4223.205078,4285.897461,4226.794922,4220.641113,4206.025879,4218.846191,4226.922852,3493.000000,4.000000,91.000000,,,,0.000000,4.000000,4.000000,4.000000,4.000000,4.000000,4.000000,4.000000,4.000000,4.000000,4.000000,4.000000,4.000000,4.000000,4.000000,100.000000,,,,,,,,,,,,,,,,
1644852823.218780,202.000000,0.000000,4232.820313,4220.512695,4214.871582,4214.743652,4210.128418,4211.410156,4221.794922,4219.358887,4280.641113,4219.743652,4209.487305,4201.538574,4224.487305,4230.128418,3519.000000,4.000000,91.000000,,,,0.000000,4.000000,4.000000,4.000000,4.000000,4.000000,4.000000,4.000000,4.000000,4.000000,4.000000,4.000000,4.000000,4.000000,4.000000,100.000000,,,,,,,,,,,,,,,,
1644852823.222720,203.000000,0.000000,4231.153809,4221.666504,4213.461426,4214.743652,4210.897461,4204.358887,4218.205078,4214.102539,4274.358887,4212.051270,4196.538574,4194.358887,4227.307617,4223.846191,3437.000000,4.000000,91.000000,,,,0.000000,4.000000,4.000000,4.000000,4.000000,4.000000,4.000000,4.000000,4.000000,4.000000,4.000000,4.000000,4.000000,4.000000,4.000000,100.000000,,,,,,,,,,,,,,,,
1644852823.226660,204.000000,0.000000,4222.820313,4220.641113,4211.282227,4214.230957,4207.820313,4199.871582,4212.179688,4209.230957,4269.743652,4207.436035,4191.025879,4187.563965,4224.871582,4210.769043,3360.000000,4.000000,91.000000,,,,0.000000,4.000000,4.000000,4.000000,4.000000,4.000000,4.000000,4.000000,4.000000,4.000000,4.000000,4.000000,4.000000,4.000000,4.000000,100.000000,,,,,,,,,,,,,,,,
1644852823.230600,205.000000,0.000000,4212.436035,4217.692383,4209.871582,4213.974121,4204.743652,4200.128418,4207.692383,4206.922852,4268.717773,4206.410156,4197.692383,4185.256348,4217.436035,4198.333496,3493.000000,4.000000,91.000000,,,,0.000000,4.000000,4.000000,4.000000,4.000000,4.000000,4.000000,4.000000,4.000000,4.000000,4.000000,4.000000,4.000000,4.000000,4.000000,100.000000,,,,,,,,,,,,,,,,
1644852823.234540,206.000000,0.000000,4206.538574,4215.769043,4210.641113,4215.256348,4204.871582,4204.102539,4207.948730,4208.846191,4270.897461,4206.794922,4212.948730,4189.615234,4208.846191,4193.717773,3519.000000,4.000000,91.000000,,,,0.000000,4.000000,4.000000,4.000000,4.000000,4.000000,4.000000,4.000000,4.000000,4.000000,4.000000,4.000000,4.000000,4.000000,4.000000,100.000000,,,,,,,,,,,,,,,,
1644852823.238480,207.000000,0.000000,4209.487305,4218.205078,4212.948730,4219.230957,4208.717773,4209.102539,4211.922852,4214.102539,4274.871582,4207.563965,4228.461426,4198.589844,4204.615234,4199.487305,3437.000000,4.000000,91.000000,,,,0.000000,4.000000,4.000000,4.000000,4.000000,4.000000,4.000000,4.000000,4.000000,4.000000,4.000000,4.000000,4.000000,4.000000,4.000000,100.000000,,,,,,,,,,,,,,,,
1644852823.242321,208.000000,0.000000,4220.641113,4225.512695,4215.256348,4225.769043,4214.230957,4211.794922,4215.000000,4219.615234,4278.974121,4208.717773,4236.153809,4207.436035,4208.077148,4212.563965,3360.000000,4.000000,91.000000,,,,0.000000,4.000000,4.000000,4.000000,4.000000,4.000000,4.000000,4.000000,4.000000,4.000000,4.000000,4.000000,4.000000,4.000000,4.000000,100.000000,,,,,,,,,,,,,,,,
1644852823.246261,209.000000,0.000000,4233.846191,4234.230957,4215.897461,4232.692383,4217.436035,4211.025879,4214.358887,4222.692383,4282.563965,4210.769043,4233.461426,4211.538574,4218.717773,4226.282227,3493.000000,4.000000,91.000000,,,,0.000000,4.000000,4.000000,4.000000,4.000000,4.000000,4.000000,4.000000,4.000000,4.000000,4.000000,4.000000,4.000000,4.000000,4.000000,100.000000,,,,,,,,,,,,,,,,
1644852823.250201,210.000000,0.000000,4241.410156,4238.846191,4215.000000,4236.282227,4215.512695,4207.436035,4211.410156,4222.436035,4285.256348,4213.205078,4223.974121,4209.358887,4232.179688,4234.487305,3519.000000,4.000000,91.000000,,,,0.000000,4.000000,4.000000,4.000000,4.000000,4.000000,4.000000,4.000000,4.000000,4.000000,4.000000,4.000000,4.000000,4.000000,4.000000,100.000000,,,,,,,,,,,,,,,,
1644852823.254141,211.000000,0.000000,4239.358887,4236.794922,4213.974121,4234.230957,4209.102539,4204.230957,4210.384766,4220.512695,4287.179688,4215.128418,4215.512695,4203.461426,4243.333496,4234.487305,3437.000000,4.000000,91.000000,,,,0.000000,4.000000,4.000000,4.000000,4.000000,4.000000,4.000000,4.000000,4.000000,4.000000,4.000000,4.000000,4.000000,4.000000,4.000000,100.000000,,,,,,,,,,,,,,,,
1644852823.258081,212.000000,0.000000,4230.512695,4231.666504,4214.102539,4228.077148,4203.717773,4204.743652,4212.307617,4219.102539,4287.948730,4217.051270,4214.487305,4198.077148,4247.436035,4227.307617,3360.000000,4.000000,91.000000,,,,0.000000,4.000000,4.000000,4.000000,4.000000,4.000000,4.000000,4.000000,4.000000,4.000000,4.000000,4.000000,4.000000,4.000000,4.000000,100.000000,,,,,,,,,,,,,,,,
1644852823.262021,213.000000,0.000000,4221.922852,4229.615234,4214.871582,4221.153809,4204.743652,4209.743652,4214.487305,4219.102539,4288.077148,4219.871582,4221.025879,4196.666504,4241.666504,4216.666504,3493.000000,4.000000,91.000000,,,,0.000000,4.000000,4.000000,4.000000,4.000000,4.000000,4.000000,4.000000,4.000000,4.000000,4.000000,4.000000,4.000000,4.000000,4.000000,100.000000,,,,,,,,,,,,,,,,
1644852823.265961,214.000000,0.000000,4218.461426,4232.948730,4214.230957,4216.666504,4211.794922,4216.025879,4213.333496,4219.358887,4287.563965,4223.461426,4228.846191,4198.974121,4227.307617,4206.538574,3519.000000,4.000000,91.000000,,,,0.000000,4.000000,4.000000,4.000000,4.000000,4.000000,4.000000,4.000000,4.000000,4.000000,4.000000,4.000000,4.000000,4.000000,4.000000,100.000000,,,,,,,,,,,,,,,,
1644852823.269801,215.000000,0.000000,4219.487305,4237.820313,4211.282227,4214.871582,4217.820313,4218.717773,4209.871582,4219.487305,4286.794922,4225.256348,4230.384766,4201.794922,4210.128418,4200.641113,3437.000000,4.000000,91.000000,,,,0.000000,4.000000,4.000000,4.000000,4.000000,4.000000,4.000000,4.000000,4.000000,4.000000,4.000000,4.000000,4.000000,4.000000,4.000000,100.000000,,,,,,,,,,,,,,,,
1644852823.273742,216.000000,0.000000,4221.410156,4238.205078,4207.179688,4215.256348,4216.153809,4215.128418,4207.563965,4220.000000,4285.769043,4223.205078,4223.205078,4201.922852,4198.589844,4201.410156,3360.000000,4.000000,91.000000,,,,0.000000,4.000000,4.000000,4.000000,4.000000,4.000000,4.000000,4.000000,4.000000,4.000000,4.000000,4.000000,4.000000,4.000000,4.000000,100.000000,,,,,,,,,,,,,,,,
1644852823.277682,217.000000,0.000000,4221.922852,4231.666504,4204.871582,4217.051270,4207.436035,4207.307617,4208.589844,4221.410156,4285.256348,4217.563965,4211.794922,4199.230957,4199.102539,4208.461426,3493.000000,4.000000,91.000000,,,,0.000000,4.000000,4.000000,4.000000,4.000000,4.000000,4.000000,4.000000,4.000000,4.000000,4.000000,4.000000,4.000000,4.000000,4.000000,100.000000,,,,,,,,,,,,,,,,
1644852823.281622,218.000000,0.000000,4221.410156,4221.666504,4206.025879,4220.384766,4199.743652,4200.641113,4211.410156,4222.563965,4285.128418,4211.538574,4203.717773,4197.051270,4211.025879,4218.077148,3519.000000,4.000000,91.000000,,,,0.000000,4.000000,4.000000,4.000000,4.000000,4.000000,4.000000,4.000000,4.000000,4.000000,4.000000,4.000000,4.000000,4.000000,4.000000,100.000000,,,,,,,,,,,,,,,,
1644852823.285662,219.000000,0.000000,4220.897461,4215.128418,4209.743652,4225.256348,4201.794922,4199.358887,4212.948730,4221.410156,4284.615234,4208.205078,4203.974121,4198.333496,4226.538574,4224.358887,3437.000000,4.000000,91.000000,,,,0.000000,4.000000,4.000000,4.000000,4.000000,4.000000,4.000000,4.000000,4.000000,4.000000,4.000000,4.000000,4.000000,4.000000,4.000000,100.000000,,,,,,,,,,,,,,,,
1644852823.289502,220.000000,0.000000,4221.153809,4216.282227,4213.461426,4231.410156,4214.615234,4203.717773,4212.563965,4217.563965,4281.794922,4207.948730,4212.179688,4202.820313,4235.897461,4224.230957,3360.000000,4.000000,91.000000,,,,0.000000,4.000000,4.000000,4.000000,4.000000,4.000000,4.000000,4.000000,4.000000,4.000000,4.000000,4.000000,4.000000,4.000000,4.000000,100.000000,,,,,,,,,,,,,,,,
1644852823.293442,221.000000,0.000000,4221.666504,4223.333496,4215.256348,4237.051270,4230.384766,4209.871582,4212.307617,4212.692383,4276.538574,4209.230957,4222.948730,4207.563965,4234.102539,4218.846191,3493.000000,4.000000,91.000000,,,,0.000000,4.000000,4.000000,4.000000,4.000000,4.000000,4.000000,4.000000,4.000000,4.000000,4.000000,4.000000,4.000000,4.000000,4.000000,100.000000,,,,,,,,,,,,,,,,
1644852823.297382,222.000000,0.000000,4221.538574,4230.000000,4215.000000,4240.512695,4239.487305,4213.205078,4213.974121,4209.358887,4270.512695,4209.358887,4230.000000,4209.230957,4223.589844,4212.948730,3519.000000,4.000000,91.000000,,,,0.000000,4.000000,4.000000,4.000000,4.000000,4.000000,4.000000,4.000000,4.000000,4.000000,4.000000,4.000000,4.000000,4.000000,4.000000,100.000000,,,,,,,,,,,,,,,,
1644852823.301322,223.000000,0.000000,4220.512695,4230.512695,4214.358887,4239.871582,4236.410156,4212.307617,4216.282227,4209.102539,4266.922852,4207.436035,4231.282227,4206.794922,4212.179688,4211.153809,3437.000000,4.000000,91.000000,,,,0.000000,4.000000,4.000000,4.000000,4.000000,4.000000,4.000000,4.000000,4.000000,4.000000,4.000000,4.000000,4.000000,4.000000,4.000000,100.000000,,,,,,,,,,,,,,,,
1644852823.305262,224.000000,0.000000,4218.333496,4225.000000,4214.358887,4234.358887,4224.102539,4208.846191,4217.179688,4211.666504,4267.179688,4204.871582,4228.333496,4201.794922,4207.307617,4214.743652,3360.000000,4.000000,91.000000,,,,0.000000,4.000000,4.000000,4.000000,4.000000,4.000000,4.000000,4.000000,4.000000,4.000000,4.000000,4.000000,4.000000,4.000000,4.000000,100.000000,,,,,,,,,,,,,,,,
1644852823.309202,225.000000,0.000000,4216.282227,4218.333496,4215.512695,4226.025879,4210.512695,4206.538574,4216.410156,4215.128418,4270.512695,4203.717773,4224.358887,4197.307617,4210.384766,4220.769043,3493.000000,4.000000,91.000000,,,,0.000000,4.000000,4.000000,4.000000,4.000000,4.000000,4.000000,4.000000,4.000000,4.000000,4.000000,4.000000,4.000000,4.000000,4.000000,100.000000,,,,,,,,,,,,,,,,
1644852823.313143,226.000000,0.000000,4216.153809,4215.256348,4217.436035,4219.358887,4203.205078,4207.563965,4216.025879,4217.436035,4274.358887,4204.615234,4219.615234,4196.025879,4217.051270,4223.974121,3519.000000,4.000000,91.000000,,,,0.000000,4.000000,4.000000,4.000000,4.000000,4.000000,4.000000,4.000000,4.000000,4.000000,4.000000,4.000000,4.000000,4.000000,4.000000,100.000000,,,,,,,,,,,,,,,,
1644852823.317083,227.000000,0.000000,4219.230957,4217.436035,4219.487305,4218.461426,4205.000000,4211.410156,4217.051270,4217.179688,4276.538574,4206.538574,4213.717773,4198.717773,4221.666504,4221.282227,3437.000000,4.000000,91.000000,,,,0.000000,4.000000,4.000000,4.000000,4.000000,4.000000,4.000000,4.000000,4.000000,4.000000,4.000000,4.000000,4.000000,4.000000,4.000000,100.000000,,,,,,,,,,,,,,,,
1644852823.321023,228.000000,0.000000,4224.615234,4222.692383,4220.384766,4221.794922,4212.563965,4216.153809,4218.333496,4215.256348,4277.051270,4208.846191,4208.717773,4203.077148,4222.820313,4214.102539,3360.000000,4.000000,91.000000,,,,0.000000,4.000000,4.000000,4.000000,4.000000,4.000000,4.000000,4.000000,4.000000,4.000000,4.000000,4.000000,4.000000,4.000000,4.000000,100.000000,,,,,,,,,,,,,,,,
1644852823.324963,229.000000,0.000000,4228.974121,4227.436035,4219.102539,4223.717773,4219.871582,4218.717773,4218.077148,4213.333496,4276.794922,4211.282227,4209.102539,4206.666504,4222.948730,4207.179688,3493.000000,4.000000,91.000000,,,,0.000000,4.000000,4.000000,4.000000,4.000000,4.000000,4.000000,4.000000,4.000000,4.000000,4.000000,4.000000,4.000000,4.000000,4.000000,100.000000,,,,,,,,,,,,,,,,
1644852823.328903,230.000000,0.000000,4228.461426,4228.846191,4216.282227,4220.256348,4221.922852,4218.205078,4216.538574,4213.717773,4277.179688,4214.487305,4217.179688,4207.820313,4225.128418,4204.871582,3519.000000,4.000000,91.000000,,,,0.000000,4.000000,4.000000,4.000000,4.000000,4.000000,4.000000,4.000000,4.000000,4.000000,4.000000,4.000000,4.000000,4.000000,4.000000,100.000000,,,,,,,,,,,,,,,,
1644852823.332843,231.000000,0.000000,4221.794922,4226.410156,4213.717773,4213.846191,4218.461426,4216.025879,4216.282227,4216.666504,4278.846191,4218.717773,4229.230957,4206.666504,4229.358887,4208.333496,3437.000000,4.000000,91.000000,,,,0.000000,4.000000,4.000000,4.000000,4.000000,4.000000,4.000000,4.000000,4.000000,4.000000,4.000000,4.000000,4.000000,4.000000,4.000000,100.000000,,,,,,,,,,,,,,,,
1644852823.336783,232.000000,0.000000,4212.436035,4222.436035,4213.461426,4212.307617,4214.358887,4214.487305,4217.948730,4221.025879,4281.282227,4222.563965,4237.436035,4204.743652,4233.333496,4215.769043,3360.000000,4.000000,91.000000,,,,0.000000,4.000000,4.000000,4.000000,4.000000,4.000000,4.000000,4.000000,4.000000,4.000000,4.000000,4.000000,4.000000,4.000000,4.000000,100.000000,,,,,,,,,,,,,,,,
1644852823.340723,233.000000,0.000000,4206.794922,4220.000000,4215.769043,4220.128418,4214.615234,4214.358887,4219.102539,4224.358887,4283.589844,4223.717773,4235.769043,4203.974121,4234.871582,4223.717773,3493.000000,4.000000,91.000000,,,,0.000000,4.000000,4.000000,4.000000,4.000000,4.000000,4.000000,4.000000,4.000000,4.000000,4.000000,4.000000,4.000000,4.000000,4.000000,100.000000,,,,,,,,,,,,,,,,
1644852823.344663,234.000000,0.000000,4209.230957,4221.282227,4219.230957,4234.487305,4220.000000,4215.128418,4217.563965,4224.871582,4285.256348,4220.897461,4225.128418,4204.871582,4232.436035,4228.846191,3519.000000,4.000000,91.000000,,,,0.000000,4.000000,4.000000,4.000000,4.000000,4.000000,4.000000,4.000000,4.000000,4.000000,4.000000,4.000000,4.000000,4.000000,4.000000,100.000000,,,,,,,,,,,,,,,,
1644852823.348604,235.000000,0.000000,4218.077148,4225.641113,4222.179688,4246.153809,4226.666504,4215.384766,4214.102539,4223.333496,4285.897461,4215.128418,4212.820313,4207.051270,4226.025879,4228.974121,3437.000000,4.000000,91.000000,,,,0.000000,4.000000,4.000000,4.000000,4.000000,4.000000,4.000000,4.000000,4.000000,4.000000,4.000000,4.000000,4.000000,4.000000,4.000000,100.000000,,,,,,,,,,,,,,,,
1644852823.352544,236.000000,0.000000,4227.436035,4229.743652,4223.461426,4246.025879,4229.102539,4214.743652,4212.563965,4221.282227,4285.256348,4209.487305,4207.307617,4209.358887,4216.794922,4224.743652,3360.000000,4.000000,91.000000,,,,0.000000,4.000000,4.000000,4.000000,4.000000,4.000000,4.000000,4.000000,4.000000,4.000000,4.000000,4.000000,4.000000,4.000000,4.000000,100.000000,,,,,,,,,,,,,,,,
1644852823.356384,237.000000,0.000000,4231.153809,4230.128418,4222.563965,4232.307617,4224.487305,4213.589844,4214.871582,4220.384766,4282.820313,4207.051270,4211.410156,4210.769043,4207.820313,4219.230957,3493.000000,4.000000,91.000000,,,,0.000000,4.000000,4.000000,4.000000,4.000000,4.000000,4.000000,4.000000,4.000000,4.000000,4.000000,4.000000,4.000000,4.000000,4.000000,100.000000,,,,,,,,,,,,,,,,
1644852823.360324,238.000000,0.000000,4227.820313,4225.897461,4220.256348,4211.794922,4215.000000,4212.692383,4218.846191,4220.512695,4279.743652,4208.717773,4221.410156,4210.256348,4203.077148,4215.512695,3519.000000,4.000000,91.000000,,,,0.000000,4.000000,4.000000,4.000000,4.000000,4.000000,4.000000,4.000000,4.000000,4.000000,4.000000,4.000000,4.000000,4.000000,4.000000,100.000000,,,,,,,,,,,,,,,,
1644852823.364264,239.000000,0.000000,4221.025879,4219.102539,4218.077148,4196.025879,4207.436035,4212.563965,4220.512695,4220.256348,4277.051270,4212.051270,4229.743652,4207.051270,4205.897461,4214.871582,3437.000000,4.000000,91.000000,,,,0.000000,4.000000,4.000000,4.000000,4.000000,4.000000,4.000000,4.000000,4.000000,4.000000,4.000000,4.000000,4.000000,4.000000,4.000000,100.000000,,,,,,,,,,,,,,,,
1644852823.368204,240.000000,0.000000,4216.410156,4213.333496,4217.051270,4193.461426,4207.948730,4213.589844,4218.717773,4218.717773,4275.512695,4214.358887,4230.128418,4202.179688,4215.384766,4215.641113,3360.000000,4.000000,91.000000,,,,0.000000,4.000000,4.000000,4.000000,4.000000,4.000000,4.000000,4.000000,4.000000,4.000000,4.000000,4.000000,4.000000,4.000000,4.000000,100.000000,,,,,,,,,,,,,,,,
1644852823.372144,241.000000,0.000000,4216.410156,4210.641113,4217.179688,4203.077148,4217.179688,4215.384766,4215.769043,4216.410156,4275.000000,4214.358887,4222.820313,4198.205078,4226.410156,4215.384766,3493.000000,4.000000,91.000000,1,1,3,0.000000,4.000000,4.000000,4.000000,4.000000,4.000000,4.000000,4.000000,4.000000,4.000000,4.000000,4.000000,4.000000,4.000000,4.000000,100.000000,,,,,,,,,,,,,,,,
1644852823.376084,242.000000,0.000000,4218.846191,4210.641113,4217.948730,4215.897461,4230.000000,4217.436035,4214.487305,4214.871582,4274.487305,4212.948730,4212.692383,4197.307617,4232.948730,4213.461426,3519.000000,4.000000,91.000000,,,,0.000000,4.000000,4.000000,4.000000,4.000000,4.000000,4.000000,4.000000,4.000000,4.000000,4.000000,4.000000,4.000000,4.000000,4.000000,100.000000,,,,,,,,,,,,,,,,
1644852823.380124,243.000000,0.000000,4219.743652,4212.563965,4218.333496,4221.282227,4238.461426,4218.333496,4214.487305,4214.743652,4273.589844,4211.666504,4206.282227,4199.230957,4232.179688,4212.051270,3437.000000,4.000000,91.000000,,,,0.000000,4.000000,4.000000,4.000000,4.000000,4.000000,4.000000,4.000000,4.000000,4.000000,4.000000,4.000000,4.000000,4.000000,4.000000,100.000000,,,,,,,,,,,,,,,,
1644852823.384064,244.000000,0.000000,4217.307617,4216.153809,4217.307617,4214.871582,4237.563965,4217.436035,4213.974121,4215.769043,4272.307617,4211.282227,4206.282227,4201.153809,4225.128418,4213.846191,3360.000000,4.000000,91.000000,,,,0.000000,4.000000,4.000000,4.000000,4.000000,4.000000,4.000000,4.000000,4.000000,4.000000,4.000000,4.000000,4.000000,4.000000,4.000000,100.000000,,,,,,,,,,,,,,,,
1644852823.388005,245.000000,0.000000,4213.333496,4220.512695,4214.871582,4201.025879,4228.205078,4215.128418,4212.692383,4216.666504,4271.666504,4211.538574,4210.897461,4200.256348,4215.000000,4217.820313,3493.000000,4.000000,91.000000,,,,0.000000,4.000000,4.000000,4.000000,4.000000,4.000000,4.000000,4.000000,4.000000,4.000000,4.000000,4.000000,4.000000,4.000000,4.000000,100.000000,,,,,,,,,,,,,,,,
1644852823.391945,246.000000,0.000000,4211.282227,4223.333496,4211.666504,4190.128418,4215.769043,4212.948730,4212.436035,4216.794922,4271.922852,4211.153809,4215.897461,4195.000000,4205.641113,4218.461426,3519.000000,4.000000,91.000000,,,,0.000000,4.000000,4.000000,4.000000,4.000000,4.000000,4.000000,4.000000,4.000000,4.000000,4.000000,4.000000,4.000000,4.000000,4.000000,100.000000,,,,,,,,,,,,,,,,
1644852823.395885,247.000000,0.000000,4212.436035,4222.563965,4208.717773,4189.871582,4206.794922,4212.307617,4213.717773,4215.897461,4272.436035,4209.487305,4218.333496,4187.563965,4199.871582,4211.282227,3437.000000,4.000000,91.000000,,,,0.000000,4.000000,4.000000,4.000000,4.000000,4.000000,4.000000,4.000000,4.000000,4.000000,4.000000,4.000000,4.000000,4.000000,4.000000,100.000000,,,,,,,,,,,,,,,,
1644852823.399825,248.000000,0.000000,4215.128418,4218.205078,4206.282227,4198.717773,4205.897461,4213.974121,4214.743652,4214.358887,4272.692383,4207.051270,4217.179688,4181.794922,4198.846191,4198.333496,3360.000000,4.000000,91.000000,,,,0.000000,4.000000,4.000000,4.000000,4.000000,4.000000,4.000000,4.000000,4.000000,4.000000,4.000000,4.000000,4.000000,4.000000,4.000000,100.000000,,,,,,,,,,,,,,,,
1644852823.403865,249.000000,0.000000,4216.025879,4212.307617,4204.615234,4207.436035,4212.563965,4216.794922,4213.461426,4212.692383,4272.692383,4205.128418,4213.333496,4181.282227,4201.282227,4186.922852,3493.000000,4.000000,91.000000,,,,0.000000,4.000000,4.000000,4.000000,4.000000,4.000000,4.000000,4.000000,4.000000,4.000000,4.000000,4.000000,4.000000,4.000000,4.000000,100.000000,,,,,,,,,,,,,,,,
1644852823.407805,250.000000,0.000000,4212.820313,4207.436035,4204.487305,4207.820313,4222.436035,4218.589844,4210.000000,4211.538574,4273.205078,4204.358887,4208.461426,4186.794922,4205.384766,4184.358887,3519.000000,4.000000,91.000000,,,,0.000000,4.000000,4.000000,4.000000,4.000000,4.000000,4.000000,4.000000,4.000000,4.000000,4.000000,4.000000,4.000000,4.000000,4.000000,100.000000,,,,,,,,,,,,,,,,
1644852823.411745,251.000000,0.000000,4206.153809,4205.769043,4206.922852,4198.974121,4229.230957,4217.948730,4207.692383,4211.538574,4274.102539,4204.487305,4204.102539,4195.384766,4209.230957,4191.794922,3437.000000,4.000000,91.000000,,,,0.000000,4.000000,4.000000,4.000000,4.000000,4.000000,4.000000,4.000000,4.000000,4.000000,4.000000,4.000000,4.000000,4.000000,4.000000,100.000000,,,,,,,,,,,,,,,,
1644852823.415685,252.000000,0.000000,4200.000000,4207.820313,4211.025879,4188.077148,4229.743652,4214.871582,4208.333496,4212.820313,4274.743652,4205.000000,4202.692383,4202.436035,4212.307617,4203.205078,3360.000000,4.000000,91.000000,,,,0.000000,4.000000,4.000000,4.000000,4.000000,4.000000,4.000000,4.000000,4.000000,4.000000,4.000000,4.000000,4.000000,4.000000,4.000000,100.000000,,,,,,,,,,,,,,,,
1644852823.419625,253.000000,0.000000,4198.846191,4211.922852,4214.358887,4183.717773,4225.897461,4210.769043,4210.256348,4214.487305,4274.358887,4205.641113,4205.128418,4205.256348,4214.487305,4211.282227,3493.000000,4.000000,91.000000,,,,0.000000,4.000000,4.000000,4.000000,4.000000,4.000000,4.000000,4.000000,4.000000,4.000000,4.000000,4.000000,4.000000,4.000000,4.000000,100.000000,,,,,,,,,,,,,,,,
1644852823.423565,254.000000,0.000000,4204.487305,4215.769043,4215.384766,4189.102539,4222.820313,4208.205078,4210.384766,4214.871582,4273.333496,4207.051270,4209.358887,4203.461426,4215.641113,4212.179688,3519.000000,4.000000,91.000000,,,,0.000000,4.000000,4.000000,4.000000,4.000000,4.000000,4.000000,4.000000,4.000000,4.000000,4.000000,4.000000,4.000000,4.000000,4.000000,100.000000,,,,,,,,,,,,,,,,
1644852823.427506,255.000000,0.000000,4214.230957,4217.820313,4214.487305,4199.358887,4224.230957,4208.846191,4208.333496,4213.077148,4272.051270,4210.000000,4211.666504,4200.000000,4215.256348,4208.974121,114.000000,4.000000,91.000000,,,,0.000000,4.000000,4.000000,4.000000,4.000000,4.000000,4.000000,4.000000,4.000000,4.000000,4.000000,4.000000,4.000000,4.000000,4.000000,100.000000,,,,,,,,,,,,,,,,
1644852823.431446,0.000000,0.000000,4223.589844,4219.230957,4214.358887,4205.897461,4229.871582,4212.563965,4207.307617,4210.641113,4270.641113,4213.333496,4210.384766,4198.333496,4213.333496,4207.436035,3432.000000,4.000000,91.000000,,,,0.000000,4.000000,4.000000,4.000000,4.000000,4.000000,4.000000,4.000000,4.000000,4.000000,4.000000,4.000000,4.000000,4.000000,4.000000,100.000000,,,,,,,,,,,,,,,,
1644852823.435386,1.000000,0.000000,4229.230957,4222.179688,4216.922852,4202.820313,4235.000000,4217.307617,4210.384766,4209.743652,4269.743652,4215.000000,4208.077148,4200.512695,4211.282227,4211.410156,3322.000000,4.000000,91.000000,,,,0.000000,4.000000,4.000000,4.000000,4.000000,4.000000,4.000000,4.000000,4.000000,4.000000,4.000000,4.000000,4.000000,4.000000,4.000000,100.000000,,,,,,,,,,,,,,,,
1644852823.439326,2.000000,0.000000,4230.384766,4226.794922,4221.922852,4192.307617,4234.230957,4219.871582,4216.153809,4211.153809,4269.615234,4213.461426,4208.589844,4204.487305,4210.512695,4218.974121,3668.000000,4.000000,91.000000,,,,0.000000,4.000000,4.000000,4.000000,4.000000,4.000000,4.000000,4.000000,4.000000,4.000000,4.000000,4.000000,4.000000,4.000000,4.000000,100.000000,,,,,,,,,,,,,,,,
1644852823.443266,3.000000,0.000000,4228.205078,4230.000000,4226.794922,4182.179688,4226.025879,4218.461426,4219.871582,4213.077148,4269.871582,4208.846191,4211.922852,4206.538574,4211.666504,4223.589844,3381.000000,4.000000,91.000000,,,,0.000000,4.000000,4.000000,4.000000,4.000000,4.000000,4.000000,4.000000,4.000000,4.000000,4.000000,4.000000,4.000000,4.000000,4.000000,100.000000,,,,,,,,,,,,,,,,
1644852823.447206,4.000000,0.000000,4223.717773,4227.436035,4228.205078,4179.358887,4214.615234,4213.589844,4218.589844,4212.820313,4269.230957,4202.179688,4214.102539,4203.205078,4213.589844,4220.128418,3523.000000,4.000000,91.000000,,,,0.000000,4.000000,4.000000,4.000000,4.000000,4.000000,4.000000,4.000000,4.000000,4.000000,4.000000,4.000000,4.000000,4.000000,4.000000,100.000000,,,,,,,,,,,,,,,,
1644852823.451146,5.000000,0.000000,4218.077148,4218.333496,4225.384766,4184.615234,4206.794922,4207.948730,4214.102539,4209.615234,4265.897461,4194.871582,4210.256348,4194.615234,4214.487305,4208.461426,3081.000000,4.000000,91.000000,,,,0.000000,4.000000,4.000000,4.000000,4.000000,4.000000,4.000000,4.000000,4.000000,4.000000,4.000000,4.000000,4.000000,4.000000,4.000000,100.000000,,,,,,,,,,,,,,,,
1644852823.455086,6.000000,0.000000,4212.436035,4207.436035,4219.871582,4192.179688,4207.051270,4204.487305,4211.282227,4206.025879,4260.512695,4188.589844,4200.384766,4184.743652,4213.205078,4194.615234,2381.000000,4.000000,91.000000,,,,0.000000,4.000000,4.000000,4.000000,4.000000,4.000000,4.000000,4.000000,4.000000,4.000000,4.000000,4.000000,4.000000,4.000000,4.000000,100.000000,,,,,,,,,,,,,,,,
1644852823.459026,7.000000,0.000000,4208.717773,4201.794922,4215.128418,4195.384766,4213.717773,4205.384766,4212.692383,4205.256348,4256.666504,4186.794922,4190.897461,4180.000000,4210.769043,4187.436035,2967.000000,4.000000,91.000000,,,,0.000000,4.000000,4.000000,4.000000,4.000000,4.000000,4.000000,4.000000,4.000000,4.000000,4.000000,4.000000,4.000000,4.000000,4.000000,100.000000,,,,,,,,,,,,,,,,
1644852823.462966,8.000000,0.000000,4209.102539,4205.641113,4213.846191,4192.051270,4220.897461,4210.769043,4216.794922,4208.717773,4258.077148,4192.692383,4191.538574,4185.000000,4210.384766,4192.307617,3376.000000,4.000000,91.000000,,,,0.000000,4.000000,4.000000,4.000000,4.000000,4.000000,4.000000,4.000000,4.000000,4.000000,4.000000,4.000000,4.000000,4.000000,4.000000,100.000000,,,,,,,,,,,,,,,,
1644852823.466907,9.000000,0.000000,4213.974121,4217.307617,4217.179688,4185.641113,4223.205078,4217.820313,4220.769043,4215.000000,4265.000000,4206.025879,4206.538574,4199.487305,4213.846191,4206.794922,3547.000000,4.000000,91.000000,,,,0.000000,4.000000,4.000000,4.000000,4.000000,4.000000,4.000000,4.000000,4.000000,4.000000,4.000000,4.000000,4.000000,4.000000,4.000000,100.000000,,,,,,,,,,,,,,,,
1644852823.470947,10.000000,0.000000,4221.538574,4230.769043,4223.717773,4181.794922,4220.769043,4222.179688,4222.948730,4221.794922,4274.102539,4221.410156,4228.846191,4217.563965,4220.256348,4221.025879,3522.000000,4.000000,91.000000,,,,0.000000,4.000000,4.000000,4.000000,4.000000,4.000000,4.000000,4.000000,4.000000,4.000000,4.000000,4.000000,4.000000,4.000000,4.000000,100.000000,,,,,,,,,,,,,,,,
1644852823.474887,11.000000,0.000000,4228.589844,4239.615234,4230.769043,4182.563965,4218.461426,4220.897461,4223.589844,4226.282227,4280.897461,4231.538574,4243.333496,4231.538574,4226.153809,4224.871582,3434.000000,4.000000,91.000000,,,,0.000000,4.000000,4.000000,4.000000,4.000000,4.000000,4.000000,4.000000,4.000000,4.000000,4.000000,4.000000,4.000000,4.000000,4.000000,100.000000,,,,,,,,,,,,,,,,
1644852823.478827,12.000000,0.000000,4233.205078,4240.641113,4234.743652,4186.153809,4221.025879,4214.743652,4222.436035,4227.820313,4283.333496,4233.461426,4240.000000,4236.153809,4228.461426,4216.153809,3484.000000,4.000000,91.000000,,,,0.000000,4.000000,4.000000,4.000000,4.000000,4.000000,4.000000,4.000000,4.000000,4.000000,4.000000,4.000000,4.000000,4.000000,4.000000,100.000000,,,,,,,,,,,,,,,,
1644852823.482767,13.000000,0.000000,4235.128418,4234.358887,4234.102539,4189.615234,4227.820313,4207.820313,4218.846191,4226.666504,4282.948730,4230.128418,4222.179688,4231.666504,4227.692383,4202.307617,3492.000000,4.000000,91.000000,,,,0.000000,4.000000,4.000000,4.000000,4.000000,4.000000,4.000000,4.000000,4.000000,4.000000,4.000000,4.000000,4.000000,4.000000,4.000000,100.000000,,,,,,,,,,,,,,,,
1644852823.486707,14.000000,0.000000,4235.128418,4225.128418,4230.256348,4192.307617,4232.692383,4203.846191,4213.589844,4224.615234,4282.179688,4226.282227,4204.743652,4222.948730,4226.794922,4195.512695,3522.000000,4.000000,91.000000,,,,0.000000,4.000000,4.000000,4.000000,4.000000,4.000000,4.000000,4.000000,4.000000,4.000000,4.000000,4.000000,4.000000,4.000000,4.000000,100.000000,,,,,,,,,,,,,,,,
1644852823.490647,15.000000,0.000000,4233.974121,4217.692383,4226.282227,4195.000000,4230.000000,4204.743652,4210.128418,4223.205078,4281.922852,4223.974121,4201.538574,4216.153809,4227.820313,4202.692383,3434.000000,4.000000,91.000000,2,1,3,0.000000,4.000000,4.000000,4.000000,4.000000,4.000000,4.000000,4.000000,4.000000,4.000000,4.000000,4.000000,4.000000,4.000000,4.000000,100.000000,,,,,,,,,,,,,,,,
1644852823.494587,16.000000,0.000000,4232.179688,4215.897461,4224.487305,4197.820313,4219.487305,4209.487305,4211.666504,4223.205078,4282.179688,4222.307617,4214.743652,4214.871582,4230.897461,4221.538574,3484.000000,4.000000,91.000000,,,,0.000000,4.000000,4.000000,4.000000,4.000000,4.000000,4.000000,4.000000,4.000000,4.000000,4.000000,4.000000,4.000000,4.000000,4.000000,100.000000,,,,,,,,,,,,,,,,
1644852823.498527,17.000000,0.000000,4230.769043,4220.384766,4225.641113,4200.128418,4207.948730,4215.384766,4217.307617,4224.230957,4282.692383,4220.897461,4235.256348,4219.615234,4234.358887,4241.666504,3492.000000,4.000000,91.000000,,,,0.000000,4.000000,4.000000,4.000000,4.000000,4.000000,4.000000,4.000000,4.000000,4.000000,4.000000,4.000000,4.000000,4.000000,4.000000,100.000000,,,,,,,,,,,,,,,,
1644852823.502467,18.000000,0.000000,4231.153809,4228.205078,4229.102539,4201.922852,4204.358887,4219.743652,4222.692383,4225.512695,4284.358887,4222.307617,4250.641113,4227.820313,4237.179688,4253.461426,3522.000000,4.000000,91.000000,,,,0.000000,4.000000,4.000000,4.000000,4.000000,4.000000,4.000000,4.000000,4.000000,4.000000,4.000000,4.000000,4.000000,4.000000,4.000000,100.000000,,,,,,,,,,,,,,,,
1644852823.506408,19.000000,0.000000,4234.358887,4234.871582,4233.461426,4204.102539,4212.307617,4221.025879,4224.102539,4226.922852,4287.692383,4229.358887,4253.846191,4235.897461,4240.512695,4254.358887,3434.000000,4.000000,91.000000,,,,0.000000,4.000000,4.000000,4.000000,4.000000,4.000000,4.000000,4.000000,4.000000,4.000000,4.000000,4.000000,4.000000,4.000000,4.000000,100.000000,,,,,,,,,,,,,,,,
1644852823.510348,20.000000,0.000000,4240.512695,4237.692383,4237.307617,4206.153809,4226.794922,4219.871582,4222.051270,4229.230957,4291.666504,4240.512695,4246.025879,4240.000000,4245.641113,4249.487305,3484.000000,4.000000,91.000000,,,,0.000000,4.000000,4.000000,4.000000,4.000000,4.000000,4.000000,4.000000,4.000000,4.000000,4.000000,4.000000,4.000000,4.000000,4.000000,100.000000,,,,,,,,,,,,,,,,
1644852823.514288,21.000000,0.000000,4247.436035,4236.410156,4238.717773,4206.666504,4238.077148,4217.948730,4220.256348,4232.307617,4294.102539,4249.487305,4235.000000,4238.333496,4251.794922,4245.641113,3492.000000,4.000000,91.000000,,,,0.000000,4.000000,4.000000,4.000000,4.000000,4.000000,4.000000,4.000000,4.000000,4.000000,4.000000,4.000000,4.000000,4.000000,4.000000,100.000000,,,,,,,,,,,,,,,,
1644852823.518228,22.000000,0.000000,4251.666504,4232.948730,4237.563965,4204.487305,4239.102539,4217.307617,4220.769043,4234.871582,4293.717773,4250.897461,4229.487305,4232.563965,4256.282227,4245.897461,3522.000000,4.000000,91.000000,,,,0.000000,4.000000,4.000000,4.000000,4.000000,4.000000,4.000000,4.000000,4.000000,4.000000,4.000000,4.000000,4.000000,4.000000,4.000000,100.000000,,,,,,,,,,,,,,,,
1644852823.522168,23.000000,0.000000,4250.384766,4229.743652,4234.615234,4200.000000,4231.025879,4218.205078,4222.307617,4234.871582,4291.282227,4244.102539,4232.820313,4227.307617,4255.897461,4247.179688,3434.000000,4.000000,91.000000,,,,0.000000,4.000000,4.000000,4.000000,4.000000,4.000000,4.000000,4.000000,4.000000,4.000000,4.000000,4.000000,4.000000,4.000000,4.000000,100.000000,,,,,,,,,,,,,,,,
1644852823.526108,24.000000,0.000000,4243.974121,4228.974121,4231.922852,4195.384766,4220.769043,4219.615234,4223.205078,4231.666504,4289.102539,4233.846191,4240.641113,4226.282227,4250.128418,4245.000000,3484.000000,4.000000,91.000000,,,,0.000000,4.000000,4.000000,4.000000,4.000000,4.000000,4.000000,4.000000,4.000000,4.000000,4.000000,4.000000,4.000000,4.000000,4.000000,100.000000,,,,,,,,,,,,,,,,
1644852823.530048,25.000000,0.000000,4236.538574,4231.153809,4230.641113,4192.563965,4215.641113,4219.871582,4223.461426,4227.692383,4288.333496,4226.410156,4244.743652,4229.102539,4242.179688,4238.205078,3492.000000,4.000000,91.000000,,,,0.000000,4.000000,4.000000,4.000000,4.000000,4.000000,4.000000,4.000000,4.000000,4.000000,4.000000,4.000000,4.000000,4.000000,4.000000,100.000000,,,,,,,,,,,,,,,,
1644852823.533988,26.000000,0.000000,4233.461426,4234.615234,4231.410156,4192.307617,4217.820313,4218.205078,4224.743652,4225.512695,4288.846191,4225.384766,4239.230957,4231.922852,4236.282227,4230.128418,3522.000000,4.000000,91.000000,,,,0.000000,4.000000,4.000000,4.000000,4.000000,4.000000,4.000000,4.000000,4.000000,4.000000,4.000000,4.000000,4.000000,4.000000,4.000000,100.000000,,,,,,,,,,,,,,,,
1644852823.538028,27.000000,0.000000,4236.794922,4237.051270,4232.948730,4193.333496,4224.230957,4215.769043,4226.794922,4225.384766,4289.102539,4229.487305,4225.641113,4231.025879,4235.128418,4225.897461,3434.000000,4.000000,91.000000,,,,0.000000,4.000000,4.000000,4.000000,4.000000,4.000000,4.000000,4.000000,4.000000,4.000000,4.000000,4.000000,4.000000,4.000000,4.000000,100.000000,,,,,,,,,,,,,,,,
1644852823.541968,28.000000,0.000000,4243.205078,4236.922852,4233.717773,4193.717773,4229.743652,4213.974121,4226.794922,4225.128418,4287.436035,4233.846191,4211.922852,4226.025879,4237.436035,4227.563965,3484.000000,4.000000,91.000000,,,,0.000000,4.000000,4.000000,4.000000,4.000000,4.000000,4.000000,4.000000,4.000000,4.000000,4.000000,4.000000,4.000000,4.000000,4.000000,100.000000,,,,,,,,,,,,,,,,
1644852823.545908,29.000000,0.000000,4246.025879,4234.487305,4232.436035,4192.436035,4230.512695,4213.205078,4223.589844,4223.077148,4283.333496,4233.974121,4205.384766,4219.487305,4238.846191,4232.179688,3492.000000,4.000000,91.000000,,,,0.000000,4.000000,4.000000,4.000000,4.000000,4.000000,4.000000,4.000000,4.000000,4.000000,4.000000,4.000000,4.000000,4.000000,4.000000,100.000000,,,,,,,,,,,,,,,,
1644852823.549849,30.000000,0.000000,4241.025879,4230.512695,4229.615234,4190.512695,4226.538574,4213.333496,4218.974121,4219.102539,4278.077148,4229.102539,4206.666504,4214.615234,4235.641113,4234.615234,3522.000000,4.000000,91.000000,,,,0.000000,4.000000,4.000000,4.000000,4.000000,4.000000,4.000000,4.000000,4.000000,4.000000,4.000000,4.000000,4.000000,4.000000,4.000000,100.000000,,,,,,,,,,,,,,,,
1644852823.553789,31.000000,0.000000,4230.000000,4226.153809,4227.307617,4190.384766,4220.769043,4213.846191,4216.666504,4215.769043,4273.717773,4222.820313,4210.897461,4213.205078,4228.333496,4232.051270,3434.000000,4.000000,91.000000,,,,0.000000,4.000000,4.000000,4.000000,4.000000,4.000000,4.000000,4.000000,4.000000,4.000000,4.000000,4.000000,4.000000,4.000000,4.000000,100.000000,,,,,,,,,,,,,,,,
1644852823.557729,32.000000,0.000000,4220.256348,4223.077148,4227.307617,4192.436035,4216.666504,4214.487305,4218.205078,4215.128418,4272.692383,4219.871582,4212.563965,4214.358887,4222.051270,4226.538574,0.000000,4.000000,91.000000,,,,0.000000,4.000000,4.000000,4.000000,4.000000,4.000000,4.000000,4.000000,4.000000,4.000000,4.000000,4.000000,4.000000,4.000000,4.000000,100.000000,,,,,,,,,,,,,,,,
1644852823.561669,33.000000,0.000000,4219.230957,4223.077148,4229.743652,4194.230957,4216.282227,4214.487305,4220.641113,4217.692383,4275.769043,4222.307617,4211.538574,4216.410156,4222.179688,4222.307617,0.000000,4.000000,91.000000,,,,0.000000,4.000000,4.000000,4.000000,4.000000,4.000000,4.000000,4.000000,4.000000,4.000000,4.000000,4.000000,4.000000,4.000000,4.000000,100.000000,,,,,,,,,,,,,,,,
1644852823.565609,34.000000,0.000000,4228.205078,4226.410156,4233.589844,4192.692383,4218.974121,4214.358887,4221.282227,4222.563965,4281.410156,4228.205078,4211.922852,4218.974121,4228.333496,4222.820313,0.000000,4.000000,91.000000,,,,0.000000,4.000000,4.000000,4.000000,4.000000,4.000000,4.000000,4.000000,4.000000,4.000000,4.000000,4.000000,4.000000,4.000000,4.000000,100.000000,,,,,,,,,,,,,,,,
1644852823.569549,35.000000,0.000000,4242.179688,4231.410156,4236.794922,4187.948730,4222.307617,4215.769043,4220.897461,4228.077148,4287.307617,4232.820313,4217.563965,4222.563965,4235.384766,4227.948730,0.000000,4.000000,91.000000,,,,0.000000,4.000000,4.000000,4.000000,4.000000,4.000000,4.000000,4.000000,4.000000,4.000000,4.000000,4.000000,4.000000,4.000000,4.000000,100.000000,,,,,,,,,,,,,,,,
1644852823.573489,36.000000,0.000000,4252.948730,4235.769043,4238.333496,4183.717773,4224.743652,4219.871582,4222.692383,4233.461426,4291.922852,4233.333496,4228.077148,4227.820313,4238.461426,4233.846191,0.000000,4.000000,91.000000,,,,0.000000,4.000000,4.000000,4.000000,4.000000,4.000000,4.000000,4.000000,4.000000,4.000000,4.000000,4.000000,4.000000,4.000000,4.000000,100.000000,,,,,,,,,,,,,,,,
1644852823.577429,37.000000,0.000000,4254.615234,4237.307617,4237.820313,4183.717773,4226.410156,4226.153809,4227.820313,4237.820313,4294.743652,4230.641113,4238.077148,4233.205078,4237.051270,4235.769043,0.000000,4.000000,91.000000,,,,0.000000,4.000000,4.000000,4.000000,4.000000,4.000000,4.000000,4.000000,4.000000,4.000000,4.000000,4.000000,4.000000,4.000000,4.000000,100.000000,,,,,,,,,,,,,,,,
1644852823.581369,38.000000,0.000000,4247.307617,4236.538574,4235.769043,4187.179688,4228.205078,4231.282227,4232.948730,4239.615234,4295.641113,4228.717773,4241.025879,4235.897461,4234.615234,4231.538574,0.000000,4.000000,91.000000,,,,0.000000,4.000000,4.000000,4.000000,4.000000,4.000000,4.000000,4.000000,4.000000,4.000000,4.000000,4.000000,4.000000,4.000000,4.000000,100.000000,1.000000,100.000000,4.000000,4.000000,4.000000,4.000000,4.000000,4.000000,4.000000,4.000000,4.000000,4.000000,4.000000,4.000000,4.000000,4.000000
1644852823.585409,39.000000,0.000000,4236.282227,4234.743652,4233.205078,4189.871582,4229.743652,4232.051270,4233.589844,4237.820313,4293.974121,4230.256348,4233.846191,4233.589844,4234.102539,4223.077148,0.000000,4.000000,91.000000,,,,0.000000,4.000000,4.000000,4.000000,4.000000,4.000000,4.000000,4.000000,4.000000,4.000000,4.000000,4.000000,4.000000,4.000000,4.000000,100.000000,,,,,,,,,,,,,,,,
1644852823.589350,40.000000,0.000000,4228.333496,4233.333496,4231.538574,4188.589844,4229.871582,4227.692383,4229.230957,4232.436035,4288.846191,4233.589844,4219.358887,4227.179688,4234.871582,4216.922852,0.000000,4.000000,91.000000,,,,0.000000,4.000000,4.000000,4.000000,4.000000,4.000000,4.000000,4.000000,4.000000,4.000000,4.000000,4.000000,4.000000,4.000000,4.000000,100.000000,,,,,,,,,,,,,,,,
1644852823.593290,41.000000,0.000000,4227.307617,4232.051270,4231.794922,4185.641113,4228.717773,4220.769043,4223.717773,4225.769043,4281.410156,4234.615234,4205.897461,4220.128418,4234.230957,4219.230957,0.000000,4.000000,91.000000,,,,0.000000,4.000000,4.000000,4.000000,4.000000,4.000000,4.000000,4.000000,4.000000,4.000000,4.000000,4.000000,4.000000,4.000000,4.000000,100.000000,,,,,,,,,,,,,,,,
1644852823.597230,42.000000,0.000000,4232.307617,4230.128418,4233.974121,4186.794922,4227.948730,4215.512695,4220.897461,4221.153809,4275.128418,4230.384766,4200.769043,4216.922852,4230.897461,4231.410156,0.000000,4.000000,91.000000,,,,0.000000,4.000000,4.000000,4.000000,4.000000,4.000000,4.000000,4.000000,4.000000,4.000000,4.000000,4.000000,4.000000,4.000000,4.000000,100.000000,,,,,,,,,,,,,,,,
1644852823.601170,43.000000,0.000000,4239.487305,4228.846191,4236.922852,4194.871582,4229.871582,4214.487305,4221.153809,4220.000000,4273.205078,4223.205078,4206.794922,4219.743652,4227.563965,4248.077148,0.000000,4.000000,91.000000,,,,0.000000,4.000000,4.000000,4.000000,4.000000,4.000000,4.000000,4.000000,4.000000,4.000000,4.000000,4.000000,4.000000,4.000000,4.000000,100.000000,,,,,,,,,,,,,,,,
1644852823.605110,44.000000,0.000000,4245.641113,4229.871582,4238.589844,4207.051270,4234.487305,4217.436035,4222.436035,4221.410156,4276.025879,4218.333496,4219.358887,4226.282227,4228.461426,4260.256348,0.000000,4.000000,91.000000,,,,0.000000,4.000000,4.000000,4.000000,4.000000,4.000000,4.000000,4.000000,4.000000,4.000000,4.000000,4.000000,4.000000,4.000000,4.000000,100.000000,,,,,,,,,,,,,,,,
1644852823.609050,45.000000,0.000000,4249.230957,4233.589844,4237.436035,4215.384766,4238.205078,4221.410156,4223.077148,4223.205078,4280.512695,4219.487305,4230.256348,4231.922852,4234.743652,4261.153809,0.000000,4.000000,91.000000,,,,0.000000,4.000000,4.000000,4.000000,4.000000,4.000000,4.000000,4.000000,4.000000,4.000000,4.000000,4.000000,4.000000,4.000000,4.000000,100.000000,,,,,,,,,,,,,,,,
1644852823.612990,46.000000,0.000000,4250.256348,4237.820313,4234.102539,4213.589844,4237.179688,4223.077148,4223.461426,4223.717773,4282.563965,4225.512695,4233.333496,4232.820313,4243.461426,4250.256348,0.000000,4.000000,91.000000,,,,0.000000,4.000000,4.000000,4.000000,4.000000,4.000000,4.000000,4.000000,4.000000,4.000000,4.000000,4.000000,4.000000,4.000000,4.000000,100.000000,,,,,,,,,,,,,,,,
1644852823.616930,47.000000,0.000000,4248.974121,4239.743652,4231.153809,4201.282227,4231.666504,4221.666504,4224.358887,4222.692383,4280.512695,4231.922852,4228.333496,4228.846191,4249.358887,4234.358887,0.000000,4.000000,91.000000,3,1,3,0.000000,4.000000,4.000000,4.000000,4.000000,4.000000,4.000000,4.000000,4.000000,4.000000,4.000000,4.000000,4.000000,4.000000,4.000000,100.000000,,,,,,,,,,,,,,,,
1644852823.620870,48.000000,0.000000,4246.025879,4238.846191,4230.641113,4185.256348,4227.436035,4218.846191,4225.000000,4221.282227,4276.410156,4234.743652,4220.512695,4223.205078,4249.487305,4223.077148,0.000000,4.000000,91.000000,,,,0.000000,4.000000,4.000000,4.000000,4.000000,4.000000,4.000000,4.000000,4.000000,4.000000,4.000000,4.000000,4.000000,4.000000,4.000000,100.000000,,,,,,,,,,,,,,,,
1644852823.624811,49.000000,0.000000,4242.307617,4236.538574,4231.794922,4175.128418,4228.846191,4217.436035,4224.102539,4220.769043,4273.461426,4233.717773,4215.128418,4218.974121,4245.769043,4222.436035,0.000000,4.000000,91.000000,,,,0.000000,4.000000,4.000000,4.000000,4.000000,4.000000,4.000000,4.000000,4.000000,4.000000,4.000000,4.000000,4.000000,4.000000,4.000000,100.000000,,,,,,,,,,,,,,,,
1644852823.628751,50.000000,0.000000,4238.717773,4234.358887,4231.922852,4177.179688,4233.461426,4218.461426,4222.179688,4221.410156,4273.077148,4231.666504,4213.461426,4217.307617,4241.410156,4230.256348,0.000000,4.000000,91.000000,,,,0.000000,4.000000,4.000000,4.000000,4.000000,4.000000,4.000000,4.000000,4.000000,4.000000,4.000000,4.000000,4.000000,4.000000,4.000000,100.000000,,,,,,,,,,,,,,,,
1644852823.632691,51.000000,0.000000,4235.641113,4232.179688,4229.102539,4188.846191,4233.077148,4220.384766,4221.025879,4222.307617,4273.974121,4230.897461,4212.820313,4217.563965,4238.077148,4237.692383,0.000000,4.000000,91.000000,,,,0.000000,4.000000,4.000000,4.000000,4.000000,4.000000,4.000000,4.000000,4.000000,4.000000,4.000000,4.000000,4.000000,4.000000,4.000000,100.000000,,,,,,,,,,,,,,,,
1644852823.636631,52.000000,0.000000,4233.333496,4229.230957,4224.487305,4200.128418,4222.179688,4220.256348,4221.666504,4222.051270,4274.358887,4231.025879,4210.512695,4217.820313,4235.384766,4237.692383,0.000000,4.000000,91.000000,,,,0.000000,4.000000,4.000000,4.000000,4.000000,4.000000,4.000000,4.000000,4.000000,4.000000,4.000000,4.000000,4.000000,4.000000,4.000000,100.000000,,,,,,,,,,,,,,,,
1644852823.640571,53.000000,0.000000,4232.948730,4226.282227,4221.666504,4202.051270,4205.769043,4216.922852,4222.563965,4220.897461,4274.102539,4230.769043,4208.333496,4218.333496,4232.436035,4231.410156,0.000000,4.000000,91.000000,,,,0.000000,4.000000,4.000000,4.000000,4.000000,4.000000,4.000000,4.000000,4.000000,4.000000,4.000000,4.000000,4.000000,4.000000,4.000000,100.000000,,,,,,,,,,,,,,,,
1644852823.644511,54.000000,0.000000,4234.743652,4225.256348,4223.589844,4194.230957,4196.282227,4213.333496,4222.051270,4220.128418,4275.641113,4229.230957,4210.384766,4220.769043,4230.384766,4226.666504,0.000000,4.000000,91.000000,,,,0.000000,4.000000,4.000000,4.000000,4.000000,4.000000,4.000000,4.000000,4.000000,4.000000,4.000000,4.000000,4.000000,4.000000,4.000000,100.000000,,,,,,,,,,,,,,,,
1644852823.648451,55.000000,0.000000,4237.820313,4228.333496,4230.128418,4185.128418,4203.205078,4212.563965,4221.153809,4221.794922,4280.384766,4228.077148,4219.743652,4226.282227,4231.794922,4230.641113,0.000000,4.000000,91.000000,,,,0.000000,4.000000,4.000000,4.000000,4.000000,4.000000,4.000000,4.000000,4.000000,4.000000,4.000000,4.000000,4.000000,4.000000,4.000000,100.000000,,,,,,,,,,,,,,,,
1644852823.652391,56.000000,0.000000,4240.512695,4234.615234,4238.205078,4183.205078,4223.974121,4215.384766,4222.179688,4225.641113,4287.051270,4228.717773,4234.871582,4232.948730,4238.461426,4243.846191,0.000000,4.000000,91.000000,,,,0.000000,4.000000,4.000000,4.000000,4.000000,4.000000,4.000000,4.000000,4.000000,4.000000,4.000000,4.000000,4.000000,4.000000,4.000000,100.000000,,,,,,,,,,,,,,,,
1644852823.656231,57.000000,0.000000,4241.666504,4241.025879,4243.717773,4190.769043,4245.000000,4218.589844,4225.897461,4228.846191,4291.282227,4231.666504,4249.102539,4236.538574,4248.589844,4259.358887,0.000000,4.000000,91.000000,,,,0.000000,4.000000,4.000000,4.000000,4.000000,4.000000,4.000000,4.000000,4.000000,4.000000,4.000000,4.000000,4.000000,4.000000,4.000000,100.000000,,,,,,,,,,,,,,,,
1644852823.660172,58.000000,0.000000,4241.410156,4243.205078,4243.333496,4203.589844,4251.922852,4218.461426,4228.589844,4227.948730,4289.615234,4235.384766,4254.102539,4234.487305,4257.307617,4268.589844,0.000000,4.000000,91.000000,,,,0.000000,4.000000,4.000000,4.000000,4.000000,4.000000,4.000000,4.000000,4.000000,4.000000,4.000000,4.000000,4.000000,4.000000,4.000000,100.000000,,,,,,,,,,,,,,,,
1644852823.664112,59.000000,0.000000,4240.512695,4238.461426,4237.179688,4214.487305,4240.512695,4214.615234,4226.410156,4222.179688,4283.205078,4237.051270,4246.153809,4228.846191,4260.128418,4266.282227,0.000000,4.000000,91.000000,,,,0.000000,4.000000,4.000000,4.000000,4.000000,4.000000,4.000000,4.000000,4.000000,4.000000,4.000000,4.000000,4.000000,4.000000,4.000000,100.000000,,,,,,,,,,,,,,,,
1644852823.668052,60.000000,0.000000,4238.589844,4228.077148,4228.333496,4218.205078,4219.871582,4209.487305,4219.615234,4215.000000,4276.794922,4235.384766,4229.743652,4224.102539,4256.538574,4253.589844,0.000000,4.000000,91.000000,,,,0.000000,4.000000,4.000000,4.000000,4.000000,4.000000,4.000000,4.000000,4.000000,4.000000,4.000000,4.000000,4.000000,4.000000,4.000000,100.000000,,,,,,,,,,,,,,,,
1644852823.671992,61.000000,0.000000,4234.487305,4216.538574,4221.282227,4212.307617,4204.871582,4206.538574,4213.589844,4211.410156,4274.230957,4231.538574,4215.384766,4223.461426,4249.871582,4237.051270,0.000000,4.000000,91.000000,,,,0.000000,4.000000,4.000000,4.000000,4.000000,4.000000,4.000000,4.000000,4.000000,4.000000,4.000000,4.000000,4.000000,4.000000,4.000000,100.000000,,,,,,,,,,,,,,,,
1644852823.675932,62.000000,0.000000,4228.077148,4209.230957,4219.230957,4198.717773,4204.487305,4207.051270,4212.563965,4213.461426,4275.897461,4228.333496,4211.666504,4225.897461,4244.487305,4224.743652,0.000000,4.000000,91.000000,,,,0.000000,4.000000,4.000000,4.000000,4.000000,4.000000,4.000000,4.000000,4.000000,4.000000,4.000000,4.000000,4.000000,4.000000,4.000000,100.000000,,,,,,,,,,,,,,,,
1644852823.679872,63.000000,0.000000,4222.948730,4209.358887,4222.051270,4183.077148,4214.871582,4210.256348,4216.538574,4219.230957,4279.102539,4228.461426,4218.974121,4228.589844,4242.436035,4222.307617,0.000000,4.000000,91.000000,,,,0.000000,4.000000,4.000000,4.000000,4.000000,4.000000,4.000000,4.000000,4.000000,4.000000,4.000000,4.000000,4.000000,4.000000,4.000000,100.000000,,,,,,,,,,,,,,,,
1644852823.683812,64.000000,0.000000,4223.846191,4215.897461,4226.794922,4172.307617,4225.384766,4213.974121,4221.282227,4224.615234,4282.051270,4232.563965,4229.102539,4228.974121,4242.307617,4228.846191,0.000000,4.000000,91.000000,,,,0.000000,4.000000,4.000000,4.000000,4.000000,4.000000,4.000000,4.000000,4.000000,4.000000,4.000000,4.000000,4.000000,4.000000,4.000000,100.000000,,,,,,,,,,,,,,,,
1644852823.687752,65.000000,0.000000,4231.794922,4224.358887,4230.769043,4170.512695,4227.051270,4216.794922,4223.717773,4227.692383,4284.743652,4238.846191,4233.205078,4227.692383,4241.282227,4238.589844,0.000000,4.000000,91.000000,,,,0.000000,4.000000,4.000000,4.000000,4.000000,4.000000,4.000000,4.000000,4.000000,4.000000,4.000000,4.000000,4.000000,4.000000,4.000000,100.000000,,,,,,,,,,,,,,,,
1644852823.691692,66.000000,0.000000,4240.769043,4230.769043,4232.436035,4176.410156,4220.256348,4218.589844,4224.102539,4228.974121,4288.333496,4243.974121,4228.846191,4226.410156,4237.692383,4245.128418,0.000000,4.000000,91.000000,,,,0.000000,4.000000,4.000000,4.000000,4.000000,4.000000,4.000000,4.000000,4.000000,4.000000,4.000000,4.000000,4.000000,4.000000,4.000000,100.000000,,,,,,,,,,,,,,,,
1644852823.695633,67.000000,0.000000,4242.948730,4233.333496,4232.051270,4185.256348,4212.692383,4219.743652,4224.615234,4230.769043,4292.307617,4245.128418,4221.666504,4225.897461,4232.563965,4246.410156,0.000000,4.000000,91.000000,,,,0.000000,4.000000,4.000000,4.000000,4.000000,4.000000,4.000000,4.000000,4.000000,4.000000,4.000000,4.000000,4.000000,4.000000,4.000000,100.000000,,,,,,,,,,,,,,,,
1644852823.699573,68.000000,0.000000,4235.384766,4232.436035,4230.384766,4192.820313,4211.666504,4220.512695,4225.128418,4233.846191,4295.384766,4242.179688,4218.846191,4225.000000,4228.717773,4242.948730,0.000000,4.000000,91.000000,,,,0.000000,4.000000,4.000000,4.000000,4.000000,4.000000,4.000000,4.000000,4.000000,4.000000,4.000000,4.000000,4.000000,4.000000,4.000000,100.000000,,,,,,,,,,,,,,,,
1644852823.703513,69.000000,0.000000,4223.461426,4228.974121,4228.077148,4198.077148,4217.948730,4220.512695,4223.589844,4236.153809,4296.282227,4237.692383,4222.436035,4222.051270,4228.205078,4235.128418,0.000000,4.000000,91.000000,,,,0.000000,4.000000,4.000000,4.000000,4.000000,4.000000,4.000000,4.000000,4.000000,4.000000,4.000000,4.000000,4.000000,4.000000,4.000000,100.000000,,,,,,,,,,,,,,,,
1644852823.707453,70.000000,0.000000,4216.410156,4224.230957,4226.666504,4201.666504,4225.641113,4219.743652,4219.615234,4235.512695,4295.000000,4235.000000,4227.563965,4218.333496,4230.256348,4222.692383,0.000000,4.000000,91.000000,,,,0.000000,4.000000,4.000000,4.000000,4.000000,4.000000,4.000000,4.000000,4.000000,4.000000,4.000000,4.000000,4.000000,4.000000,4.000000,100.000000,,,,,,,,,,,,,,,,
1644852823.711393,71.000000,0.000000,4219.230957,4220.384766,4227.436035,4203.717773,4229.615234,4218.717773,4216.410156,4231.666504,4292.948730,4235.641113,4228.589844,4216.666504,4233.077148,4208.333496,0.000000,4.000000,91.000000,,,,0.000000,4.000000,4.000000,4.000000,4.000000,4.000000,4.000000,4.000000,4.000000,4.000000,4.000000,4.000000,4.000000,4.000000,4.000000,100.000000,,,,,,,,,,,,,,,,
1644852823.715333,72.000000,0.000000,4229.615234,4220.384766,4230.384766,4202.051270,4229.358887,4218.205078,4216.922852,4227.307617,4291.410156,4239.230957,4224.487305,4219.358887,4236.025879,4199.358887,0.000000,4.000000,91.000000,,,,0.000000,4.000000,4.000000,4.000000,4.000000,4.000000,4.000000,4.000000,4.000000,4.000000,4.000000,4.000000,4.000000,4.000000,4.000000,100.000000,,,,,,,,,,,,,,,,
1644852823.719273,73.000000,0.000000,4240.641113,4226.282227,4233.846191,4196.025879,4227.948730,4218.974121,4220.769043,4225.256348,4290.769043,4244.102539,4220.000000,4225.256348,4240.384766,4203.077148,0.000000,4.000000,91.000000,,,,0.000000,4.000000,4.000000,4.000000,4.000000,4.000000,4.000000,4.000000,4.000000,4.000000,4.000000,4.000000,4.000000,4.000000,4.000000,100.000000,,,,,,,,,,,,,,,,
1644852823.723213,74.000000,0.000000,4246.153809,4236.666504,4235.256348,4189.230957,4229.230957,4221.025879,4224.230957,4225.897461,4290.769043,4247.820313,4220.512695,4230.641113,4246.538574,4220.512695,0.000000,4.000000,91.000000,,,,0.000000,4.000000,4.000000,4.000000,4.000000,4.000000,4.000000,4.000000,4.000000,4.000000,4.000000,4.000000,4.000000,4.000000,4.000000,100.000000,,,,,,,,,,,,,,,,
1644852823.727153,75.000000,0.000000,4245.512695,4246.922852,4233.846191,4187.436035,4233.333496,4223.077148,4224.487305,4227.563965,4290.128418,4248.461426,4227.692383,4231.025879,4252.563965,4243.846191,0.000000,4.000000,91.000000,,,,0.000000,4.000000,4.000000,4.000000,4.000000,4.000000,4.000000,4.000000,4.000000,4.000000,4.000000,4.000000,4.000000,4.000000,4.000000,100.000000,,,,,,,,,,,,,,,,
1644852823.730994,76.000000,0.000000,4242.948730,4252.436035,4230.897461,4193.846191,4236.922852,4223.333496,4222.436035,4228.077148,4288.205078,4244.871582,4237.436035,4225.641113,4255.641113,4261.410156,0.000000,4.000000,91.000000,,,,0.000000,4.000000,4.000000,4.000000,4.000000,4.000000,4.000000,4.000000,4.000000,4.000000,4.000000,4.000000,4.000000,4.000000,4.000000,100.000000,,,,,,,,,,,,,,,,
1644852823.734934,77.000000,0.000000,4242.436035,4251.025879,4228.589844,4206.025879,4235.769043,4221.538574,4221.025879,4227.179688,4286.025879,4239.102539,4243.205078,4217.692383,4253.717773,4265.384766,0.000000,4.000000,91.000000,,,,0.000000,4.000000,4.000000,4.000000,4.000000,4.000000,4.000000,4.000000,4.000000,4.000000,4.000000,4.000000,4.000000,4.000000,4.000000,100.000000,,,,,,,,,,,,,,,,
1644852823.738874,78.000000,0.000000,4244.487305,4245.384766,4227.948730,4216.538574,4229.358887,4219.102539,4221.410156,4225.897461,4285.384766,4235.256348,4241.666504,4213.461426,4248.205078,4257.051270,0.000000,4.000000,91.000000,,,,0.000000,4.000000,4.000000,4.000000,4.000000,4.000000,4.000000,4.000000,4.000000,4.000000,4.000000,4.000000,4.000000,4.000000,4.000000,100.000000,,,,,,,,,,,,,,,,
1644852823.742814,79.000000,0.000000,4245.897461,4239.743652,4228.846191,4217.948730,4220.769043,4217.692383,4221.666504,4225.641113,4287.051270,4236.153809,4235.256348,4217.179688,4242.692383,4244.487305,0.000000,4.000000,91.000000,,,,0.000000,4.000000,4.000000,4.000000,4.000000,4.000000,4.000000,4.000000,4.000000,4.000000,4.000000,4.000000,4.000000,4.000000,4.000000,100.000000,,,,,,,,,,,,,,,,
1644852823.746754,80.000000,0.000000,4243.846191,4236.922852,4230.128418,4209.102539,4214.615234,4217.436035,4220.128418,4226.666504,4289.102539,4240.384766,4228.333496,4227.436035,4239.487305,4236.282227,0.000000,4.000000,91.000000,,,,0.000000,4.000000,4.000000,4.000000,4.000000,4.000000,4.000000,4.000000,4.000000,4.000000,4.000000,4.000000,4.000000,4.000000,4.000000,100.000000,,,,,,,,,,,,,,,,
1644852823.750694,81.000000,0.000000,4238.205078,4235.769043,4230.897461,4196.666504,4212.948730,4217.436035,4217.436035,4226.922852,4288.205078,4243.077148,4222.948730,4237.563965,4238.077148,4236.025879,0.000000,4.000000,91.000000,,,,0.000000,4.000000,4.000000,4.000000,4.000000,4.000000,4.000000,4.000000,4.000000,4.000000,4.000000,4.000000,4.000000,4.000000,4.000000,100.000000,,,,,,,,,,,,,,,,
1644852823.754634,82.000000,0.000000,4232.051270,4233.589844,4230.256348,4190.000000,4213.461426,4216.538574,4215.769043,4224.615234,4282.563965,4239.615234,4216.794922,4240.769043,4235.512695,4240.256348,0.000000,4.000000,91.000000,,,,0.000000,4.000000,4.000000,4.000000,4.000000,4.000000,4.000000,4.000000,4.000000,4.000000,4.000000,4.000000,4.000000,4.000000,4.000000,100.000000,,,,,,,,,,,,,,,,
1644852823.758574,83.000000,0.000000,4227.820313,4228.333496,4227.820313,4192.820313,4212.051270,4215.128418,4215.512695,4219.358887,4274.102539,4229.871582,4208.205078,4234.487305,4229.615234,4241.410156,0.000000,4.000000,91.000000,,,,0.000000,4.000000,4.000000,4.000000,4.000000,4.000000,4.000000,4.000000,4.000000,4.000000,4.000000,4.000000,4.000000,4.000000,4.000000,100.000000,,,,,,,,,,,,,,,,
1644852823.762514,84.000000,0.000000,4225.256348,4221.922852,4223.333496,4199.615234,4207.563965,4213.974121,4215.128418,4212.820313,4267.179688,4218.589844,4199.743652,4221.922852,4221.282227,4233.846191,0.000000,4.000000,91.000000,,,,0.000000,4.000000,4.000000,4.000000,4.000000,4.000000,4.000000,4.000000,4.000000,4.000000,4.000000,4.000000,4.000000,4.000000,4.000000,100.000000,,,,,,,,,,,,,,,,
1644852823.766455,85.000000,0.000000,4222.948730,4217.820313,4217.820313,4201.538574,4202.563965,4213.333496,4213.461426,4207.820313,4264.615234,4212.563965,4197.436035,4209.230957,4214.230957,4219.230957,0.000000,4.000000,91.000000,,,,0.000000,4.000000,4.000000,4.000000,4.000000,4.000000,4.000000,4.000000,4.000000,4.000000,4.000000,4.000000,4.000000,4.000000,4.000000,100.000000,,,,,,,,,,,,,,,,
1644852823.770395,86.000000,0.000000,4220.897461,4217.820313,4213.846191,4195.384766,4201.282227,4212.948730,4212.436035,4206.922852,4266.282227,4214.487305,4204.743652,4201.922852,4212.563965,4206.282227,0.000000,4.000000,91.000000,,,,0.000000,4.000000,4.000000,4.000000,4.000000,4.000000,4.000000,4.000000,4.000000,4.000000,4.000000,4.000000,4.000000,4.000000,4.000000,100.000000,,,,,,,,,,,,,,,,
1644852823.774335,87.000000,0.000000,4221.666504,4219.871582,4212.948730,4187.179688,4205.769043,4212.820313,4214.102539,4210.512695,4269.743652,4222.436035,4218.205078,4201.794922,4217.436035,4203.077148,0.000000,4.000000,91.000000,,,,0.000000,4.000000,4.000000,4.000000,4.000000,4.000000,4.000000,4.000000,4.000000,4.000000,4.000000,4.000000,4.000000,4.000000,4.000000,100.000000,,,,,,,,,,,,,,,,
1644852823.778275,88.000000,0.000000,4226.922852,4220.641113,4215.128418,4186.410156,4214.358887,4213.077148,4218.077148,4215.897461,4272.436035,4231.282227,4229.487305,4206.922852,4226.410156,4210.897461,0.000000,4.000000,91.000000,,,,0.000000,4.000000,4.000000,4.000000,4.000000,4.000000,4.000000,4.000000,4.000000,4.000000,4.000000,4.000000,4.000000,4.000000,4.000000,100.000000,,,,,,,,,,,,,,,,
1644852823.782215,89.000000,0.000000,4234.743652,4219.743652,4218.589844,4195.641113,4223.717773,4214.102539,4220.897461,4219.743652,4273.974121,4236.282227,4232.179688,4214.230957,4234.743652,4223.717773,0.000000,4.000000,91.000000,,,,0.000000,4.000000,4.000000,4.000000,4.000000,4.000000,4.000000,4.000000,4.000000,4.000000,4.000000,4.000000,4.000000,4.000000,4.000000,100.000000,,,,,,,,,,,,,,,,
1644852823.786155,90.000000,0.000000,4240.384766,4220.128418,4221.538574,4206.922852,4230.641113,4215.384766,4220.128418,4220.641113,4274.615234,4235.384766,4225.769043,4220.641113,4238.974121,4234.487305,0.000000,4.000000,91.000000,,,,0.000000,4.000000,4.000000,4.000000,4.000000,4.000000,4.000000,4.000000,4.000000,4.000000,4.000000,4.000000,4.000000,4.000000,4.000000,100.000000,,,,,,,,,,,,,,,,
1644852823.790095,91.000000,0.000000,4239.871582,4224.230957,4222.436035,4209.487305,4233.077148,4216.282227,4217.436035,4220.000000,4275.384766,4229.871582,4216.410156,4223.589844,4238.205078,4238.333496,0.000000,4.000000,91.000000,,,,0.000000,4.000000,4.000000,4.000000,4.000000,4.000000,4.000000,4.000000,4.000000,4.000000,4.000000,4.000000,4.000000,4.000000,4.000000,100.000000,,,,,,,,,,,,,,,,
1644852823.794035,92.000000,0.000000,4233.077148,4230.000000,4221.794922,4200.897461,4229.358887,4216.410156,4215.897461,4219.871582,4276.025879,4224.230957,4210.000000,4221.922852,4233.974121,4235.000000,0.000000,4.000000,91.000000,,,,0.000000,4.000000,4.000000,4.000000,4.000000,4.000000,4.000000,4.000000,4.000000,4.000000,4.000000,4.000000,4.000000,4.000000,4.000000,100.000000,,,,,,,,,,,,,,,,
1644852823.798075,93.000000,0.000000,4223.205078,4231.794922,4220.512695,4189.102539,4220.000000,4216.282227,4216.922852,4220.384766,4275.897461,4222.051270,4208.717773,4216.025879,4228.974121,4227.563965,0.000000,4.000000,91.000000,,,,0.000000,4.000000,4.000000,4.000000,4.000000,4.000000,4.000000,4.000000,4.000000,4.000000,4.000000,4.000000,4.000000,4.000000,4.000000,100.000000,,,,,,,,,,,,,,,,
1644852823.802015,94.000000,0.000000,4215.000000,4226.153809,4219.102539,4184.871582,4208.077148,4216.025879,4218.461426,4219.230957,4273.974121,4223.461426,4210.000000,4209.230957,4225.256348,4220.512695,0.000000,4.000000,91.000000,,,,0.000000,4.000000,4.000000,4.000000,4.000000,4.000000,4.000000,4.000000,4.000000,4.000000,4.000000,4.000000,4.000000,4.000000,4.000000,100.000000,,,,,,,,,,,,,,,,
1644852823.805955,95.000000,0.000000,4211.282227,4215.512695,4217.307617,4189.871582,4198.846191,4215.512695,4218.333496,4215.128418,4270.769043,4223.846191,4209.871582,4205.512695,4223.589844,4217.179688,0.000000,4.000000,91.000000,,,,0.000000,4.000000,4.000000,4.000000,4.000000,4.000000,4.000000,4.000000,4.000000,4.000000,4.000000,4.000000,4.000000,4.000000,4.000000,100.000000,,,,,,,,,,,,,,,,
1644852823.809896,96.000000,0.000000,4213.333496,4207.179688,4215.256348,4196.538574,4196.025879,4214.615234,4217.436035,4210.256348,4267.820313,4219.871582,4206.794922,4207.307617,4223.205078,4218.461426,0.000000,4.000000,91.000000,,,,0.000000,4.000000,4.000000,4.000000,4.000000,4.000000,4.000000,4.000000,4.000000,4.000000,4.000000,4.000000,4.000000,4.000000,4.000000,100.000000,,,,,,,,,,,,,,,,
1644852823.813836,97.000000,0.000000,4220.128418,4207.436035,4214.102539,4197.307617,4200.256348,4215.000000,4218.333496,4208.846191,4267.692383,4212.820313,4203.717773,4213.461426,4223.077148,4222.051270,0.000000,4.000000,91.000000,,,,0.000000,4.000000,4.000000,4.000000,4.000000,4.000000,4.000000,4.000000,4.000000,4.000000,4.000000,4.000000,4.000000,4.000000,4.000000,100.000000,,,,,,,,,,,,,,,,
1644852823.817776,98.000000,0.000000,4229.358887,4216.282227,4215.512695,4193.333496,4210.000000,4218.333496,4221.922852,4213.589844,4272.051270,4208.846191,4205.384766,4220.128418,4223.205078,4225.256348,0.000000,4.000000,91.000000,,,,0.000000,4.000000,4.000000,4.000000,4.000000,4.000000,4.000000,4.000000,4.000000,4.000000,4.000000,4.000000,4.000000,4.000000,4.000000,100.000000,,,,,,,,,,,,,,,,
1644852823.821716,99.000000,0.000000,4237.692383,4227.307617,4218.974121,4190.897461,4222.179688,4225.384766,4225.897461,4222.563965,4280.128418,4212.948730,4214.102539,4223.333496,4223.974121,4226.410156,0.000000,4.000000,91.000000,,,,0.000000,4.000000,4.000000,4.000000,4.000000,4.000000,4.000000,4.000000,4.000000,4.000000,4.000000,4.000000,4.000000,4.000000,4.000000,100.000000,,,,,,,,,,,,,,,,
1644852823.825656,100.000000,0.000000,4242.051270,4233.589844,4222.307617,4194.743652,4232.948730,4233.717773,4227.436035,4230.256348,4288.846191,4224.102539,4226.538574,4221.153809,4225.897461,4224.871582,0.000000,4.000000,91.000000,,,,0.000000,4.000000,4.000000,4.000000,4.000000,4.000000,4.000000,4.000000,4.000000,4.000000,4.000000,4.000000,4.000000,4.000000,4.000000,100.000000,,,,,,,,,,,,,,,,
1644852823.829596,101.000000,0.000000,4241.025879,4232.179688,4223.333496,4203.077148,4238.717773,4239.487305,4226.153809,4231.666504,4293.461426,4235.769043,4234.871582,4214.871582,4226.922852,4221.538574,0.000000,4.000000,91.000000,,,,0.000000,4.000000,4.000000,4.000000,4.000000,4.000000,4.000000,4.000000,4.000000,4.000000,4.000000,4.000000,4.000000,4.000000,4.000000,100.000000,,,,,,,,,,,,,,,,
1644852823.833536,102.000000,0.000000,4235.256348,4225.769043,4221.794922,4210.256348,4238.077148,4239.487305,4224.102539,4226.538574,4291.410156,4240.512695,4232.307617,4208.333496,4224.487305,4217.179688,0.000000,4.000000,91.000000,,,,0.000000,4.000000,4.000000,4.000000,4.000000,4.000000,4.000000,4.000000,4.000000,4.000000,4.000000,4.000000,4.000000,4.000000,4.000000,100.000000,,,,,,,,,,,,,,,,
1644852823.837476,103.000000,0.000000,4228.333496,4220.256348,4219.487305,4212.563965,4233.974121,4234.230957,4223.205078,4219.487305,4284.487305,4236.282227,4219.230957,4205.128418,4218.717773,4212.948730,0.000000,4.000000,91.000000,,,,0.000000,4.000000,4.000000,4.000000,4.000000,4.000000,4.000000,4.000000,4.000000,4.000000,4.000000,4.000000,4.000000,4.000000,4.000000,100.000000,,,,,,,,,,,,,,,,
1644852823.841416,104.000000,0.000000,4225.000000,4219.871582,4218.974121,4211.025879,4231.153809,4228.077148,4223.205078,4215.641113,4277.820313,4228.077148,4203.717773,4207.179688,4213.846191,4210.512695,0.000000,4.000000,91.000000,,,,0.000000,4.000000,4.000000,4.000000,4.000000,4.000000,4.000000,4.000000,4.000000,4.000000,4.000000,4.000000,4.000000,4.000000,4.000000,100.000000,,,,,,,,,,,,,,,,
1644852823.845357,105.000000,0.000000,4227.820313,4225.000000,4221.666504,4209.358887,4232.307617,4225.641113,4223.589844,4217.692383,4276.282227,4224.102539,4195.256348,4213.077148,4215.384766,4211.922852,0.000000,4.000000,91.000000,,,,0.000000,4.000000,4.000000,4.000000,4.000000,4.000000,4.000000,4.000000,4.000000,4.000000,4.000000,4.000000,4.000000,4.000000,4.000000,100.000000,,,,,,,,,,,,,,,,
1644852823.849297,106.000000,0.000000,4234.230957,4231.794922,4226.153809,4210.384766,4234.743652,4227.948730,4224.358887,4223.333496,4280.769043,4228.589844,4197.692383,4219.358887,4224.615234,4218.461426,0.000000,4.000000,91.000000,,,,0.000000,4.000000,4.000000,4.000000,4.000000,4.000000,4.000000,4.000000,4.000000,4.000000,4.000000,4.000000,4.000000,4.000000,4.000000,100.000000,,,,,,,,,,,,,,,,
1644852823.853237,107.000000,0.000000,4237.820313,4235.512695,4229.102539,4212.820313,4232.820313,4231.794922,4225.897461,4228.461426,4287.563965,4237.948730,4207.692383,4222.051270,4236.794922,4227.563965,0.000000,4.000000,91.000000,,,,0.000000,4.000000,4.000000,4.000000,4.000000,4.000000,4.000000,4.000000,4.000000,4.000000,4.000000,4.000000,4.000000,4.000000,4.000000,100.000000,,,,,,,,,,,,,,,,
1644852823.857177,108.000000,0.000000,4234.358887,4233.333496,4227.692383,4212.307617,4223.589844,4232.179688,4227.436035,4229.615234,4291.794922,4244.230957,4217.948730,4219.230957,4243.974121,4234.358887,0.000000,4.000000,91.000000,,,,0.000000,4.000000,4.000000,4.000000,4.000000,4.000000,4.000000,4.000000,4.000000,4.000000,4.000000,4.000000,4.000000,4.000000,4.000000,100.000000,,,,,,,,,,,,,,,,
1644852823.861117,109.000000,0.000000,4225.769043,4227.179688,4221.282227,4206.666504,4210.769043,4227.307617,4226.282227,4226.794922,4290.769043,4242.051270,4223.205078,4212.563965,4241.794922,4235.000000,0.000000,4.000000,91.000000,,,,0.000000,4.000000,4.000000,4.000000,4.000000,4.000000,4.000000,4.000000,4.000000,4.000000,4.000000,4.000000,4.000000,4.000000,4.000000,100.000000,,,,,,,,,,,,,,,,
1644852823.865057,110.000000,0.000000,4218.461426,4220.769043,4212.948730,4198.205078,4202.436035,4220.128418,4221.794922,4222.948730,4285.769043,4232.563965,4222.436035,4206.025879,4232.307617,4230.384766,0.000000,4.000000,91.000000,,,,0.000000,4.000000,4.000000,4.000000,4.000000,4.000000,4.000000,4.000000,4.000000,4.000000,4.000000,4.000000,4.000000,4.000000,4.000000,100.000000,,,,,,,,,,,,,,,,
1644852823.868997,111.000000,0.000000,4217.179688,4217.307617,4207.307617,4193.461426,4204.358887,4215.769043,4216.922852,4221.538574,4280.512695,4222.051270,4218.846191,4203.077148,4222.563965,4224.487305,0.000000,4.000000,91.000000,,,,0.000000,4.000000,4.000000,4.000000,4.000000,4.000000,4.000000,4.000000,4.000000,4.000000,4.000000,4.000000,4.000000,4.000000,4.000000,100.000000,,,,,,,,,,,,,,,,
1644852823.872937,112.000000,0.000000,4221.538574,4217.179688,4207.563965,4196.153809,4215.128418,4217.563965,4216.282227,4224.487305,4278.846191,4216.666504,4216.410156,4204.230957,4218.333496,4221.153809,0.000000,4.000000,91.000000,,,,0.000000,4.000000,4.000000,4.000000,4.000000,4.000000,4.000000,4.000000,4.000000,4.000000,4.000000,4.000000,4.000000,4.000000,4.000000,100.000000,,,,,,,,,,,,,,,,
1644852823.876877,113.000000,0.000000,4227.307617,4219.102539,4213.589844,4205.000000,4227.692383,4224.487305,4221.282227,4230.769043,4281.794922,4218.717773,4215.897461,4207.948730,4221.282227,4221.666504,0.000000,4.000000,91.000000,,,,0.000000,4.000000,4.000000,4.000000,4.000000,4.000000,4.000000,4.000000,4.000000,4.000000,4.000000,4.000000,4.000000,4.000000,4.000000,100.000000,,,,,,,,,,,,,,,,
1644852823.880817,114.000000,0.000000,4230.128418,4221.666504,4220.769043,4213.205078,4234.487305,4232.051270,4227.692383,4237.179688,4288.077148,4226.666504,4214.871582,4212.051270,4228.333496,4224.358887,0.000000,4.000000,91.000000,,,,0.000000,4.000000,4.000000,4.000000,4.000000,4.000000,4.000000,4.000000,4.000000,4.000000,4.000000,4.000000,4.000000,4.000000,4.000000,100.000000,,,,,,,,,,,,,,,,
1644852823.884758,115.000000,0.000000,4228.974121,4223.461426,4223.846191,4214.230957,4233.205078,4235.769043,4230.256348,4240.769043,4294.743652,4236.282227,4210.000000,4214.230957,4234.358887,4227.307617,0.000000,4.000000,91.000000,,,,0.000000,4.000000,4.000000,4.000000,4.000000,4.000000,4.000000,4.000000,4.000000,4.000000,4.000000,4.000000,4.000000,4.000000,4.000000,100.000000,,,,,,,,,,,,,,,,
1644852823.888698,116.000000,0.000000,4226.153809,4223.461426,4221.538574,4206.922852,4226.666504,4234.615234,4228.077148,4240.384766,4298.589844,4243.333496,4201.666504,4213.461426,4236.282227,4229.358887,0.000000,4.000000,91.000000,,,,0.000000,4.000000,4.000000,4.000000,4.000000,4.000000,4.000000,4.000000,4.000000,4.000000,4.000000,4.000000,4.000000,4.000000,4.000000,100.000000,,,,,,,,,,,,,,,,
1644852823.892638,117.000000,0.000000,4225.512695,4221.922852,4216.922852,4197.307617,4221.538574,4231.282227,4224.743652,4237.948730,4297.563965,4245.641113,4195.256348,4210.384766,4234.358887,4231.025879,0.000000,4.000000,91.000000,,,,0.000000,4.000000,4.000000,4.000000,4.000000,4.000000,4.000000,4.000000,4.000000,4.000000,4.000000,4.000000,4.000000,4.000000,4.000000,100.000000,,,,,,,,,,,,,,,,
1644852823.896578,118.000000,0.000000,4229.615234,4221.025879,4214.871582,4194.871582,4222.948730,4228.846191,4224.358887,4236.410156,4293.461426,4243.589844,4197.820313,4207.820313,4231.794922,4233.461426,0.000000,4.000000,91.000000,,,,0.000000,4.000000,4.000000,4.000000,4.000000,4.000000,4.000000,4.000000,4.000000,4.000000,4.000000,4.000000,4.000000,4.000000,4.000000,100.000000,,,,,,,,,,,,,,,,
1644852823.900518,119.000000,0.000000,4237.820313,4223.589844,4217.563965,4204.615234,4231.153809,4229.230957,4226.794922,4237.179688,4289.871582,4239.615234,4212.179688,4208.461426,4232.692383,4237.820313,0.000000,4.000000,91.000000,,,,0.000000,4.000000,4.000000,4.000000,4.000000,4.000000,4.000000,4.000000,4.000000,4.000000,4.000000,4.000000,4.000000,4.000000,4.000000,100.000000,,,,,,,,,,,,,,,,
1644852823.904458,120.000000,0.000000,4245.769043,4230.641113,4223.205078,4222.307617,4239.358887,4231.794922,4228.589844,4239.230957,4289.615234,4237.179688,4232.948730,4212.948730,4237.563965,4243.461426,0.000000,4.000000,91.000000,,,,0.000000,4.000000,4.000000,4.000000,4.000000,4.000000,4.000000,4.000000,4.000000,4.000000,4.000000,4.000000,4.000000,4.000000,4.000000,100.000000,,,,,,,,,,,,,,,,
1644852823.908398,121.000000,0.000000,4247.820313,4238.461426,4227.948730,4237.051270,4239.487305,4234.102539,4227.692383,4239.871582,4291.794922,4237.307617,4248.974121,4218.077148,4242.563965,4246.922852,0.000000,4.000000,91.000000,,,,0.000000,4.000000,4.000000,4.000000,4.000000,4.000000,4.000000,4.000000,4.000000,4.000000,4.000000,4.000000,4.000000,4.000000,4.000000,100.000000,,,,,,,,,,,,,,,,
1644852823.912338,122.000000,0.000000,4241.410156,4240.897461,4228.589844,4238.717773,4228.461426,4234.102539,4225.384766,4237.692383,4292.692383,4238.077148,4251.282227,4220.000000,4242.563965,4244.487305,0.000000,4.000000,91.000000,,,,0.000000,4.000000,4.000000,4.000000,4.000000,4.000000,4.000000,4.000000,4.000000,4.000000,4.000000,4.000000,4.000000,4.000000,4.000000,100.000000,,,,,,,,,,,,,,,,
1644852823.916278,123.000000,0.000000,4229.871582,4234.871582,4224.487305,4225.384766,4212.820313,4231.153809,4224.102539,4233.077148,4289.743652,4236.666504,4240.256348,4217.692383,4236.282227,4234.743652,0.000000,4.000000,91.000000,,,,0.000000,4.000000,4.000000,4.000000,4.000000,4.000000,4.000000,4.000000,4.000000,4.000000,4.000000,4.000000,4.000000,4.000000,4.000000,100.000000,,,,,,,,,,,,,,,,
1644852823.920318,124.000000,0.000000,4220.897461,4223.589844,4218.333496,4206.666504,4203.717773,4227.692383,4224.102539,4227.692383,4283.717773,4232.948730,4225.641113,4214.615234,4227.563965,4221.922852,0.000000,4.000000,91.000000,,,,0.000000,4.000000,4.000000,4.000000,4.000000,4.000000,4.000000,4.000000,4.000000,4.000000,4.000000,4.000000,4.000000,4.000000,4.000000,100.000000,,,,,,,,,,,,,,,,
1644852823.924259,125.000000,0.000000,4221.153809,4214.102539,4214.871582,4197.436035,4208.589844,4227.307617,4224.230957,4223.846191,4278.717773,4229.358887,4217.820313,4215.000000,4222.051270,4213.461426,0.000000,4.000000,91.000000,,,,0.000000,4.000000,4.000000,4.000000,4.000000,4.000000,4.000000,4.000000,4.000000,4.000000,4.000000,4.000000,4.000000,4.000000,4.000000,100.000000,,,,,,,,,,,,,,,,
1644852823.928199,126.000000,0.000000,4231.025879,4212.563965,4216.794922,4206.666504,4225.000000,4232.051270,4224.743652,4223.333496,4278.461426,4228.589844,4220.384766,4219.743652,4223.205078,4215.256348,0.000000,4.000000,91.000000,,,,0.000000,4.000000,4.000000,4.000000,4.000000,4.000000,4.000000,4.000000,4.000000,4.000000,4.000000,4.000000,4.000000,4.000000,4.000000,100.000000,,,,,,,,,,,,,,,,
1644852823.932139,127.000000,0.000000,4244.615234,4219.102539,4223.589844,4228.589844,4242.820313,4240.000000,4226.922852,4226.282227,4282.563965,4230.641113,4227.307617,4225.897461,4230.000000,4226.922852,0.000000,4.000000,91.000000,,,,0.000000,4.000000,4.000000,4.000000,4.000000,4.000000,4.000000,4.000000,4.000000,4.000000,4.000000,4.000000,4.000000,4.000000,4.000000,100.000000,,,,,,,,,,,,,,,,
1644852823.936179,128.000000,0.000000,4254.871582,4229.615234,4231.666504,4246.538574,4251.922852,4247.179688,4231.410156,4231.410156,4287.692383,4233.333496,4228.461426,4229.743652,4238.974121,4243.589844,3421.000000,4.000000,91.000000,,,,0.000000,4.000000,4.000000,4.000000,4.000000,4.000000,4.000000,4.000000,4.000000,4.000000,4.000000,4.000000,4.000000,4.000000,4.000000,100.000000,,,,,,,,,,,,,,,,
1644852823.940119,129.000000,0.000000,4257.307617,4238.846191,4236.666504,4246.282227,4249.230957,4250.256348,4235.769043,4235.769043,4290.000000,4235.512695,4219.358887,4230.000000,4247.051270,4258.974121,3324.000000,4.000000,91.000000,,,,0.000000,4.000000,4.000000,4.000000,4.000000,4.000000,4.000000,4.000000,4.000000,4.000000,4.000000,4.000000,4.000000,4.000000,4.000000,100.000000,,,,,,,,,,,,,,,,
1644852823.944059,130.000000,0.000000,4252.051270,4242.436035,4236.538574,4227.820313,4240.000000,4248.205078,4236.794922,4236.922852,4288.717773,4237.820313,4204.615234,4228.333496,4252.692383,4268.717773,3626.000000,4.000000,91.000000,,,,0.000000,4.000000,4.000000,4.000000,4.000000,4.000000,4.000000,4.000000,4.000000,4.000000,4.000000,4.000000,4.000000,4.000000,4.000000,100.000000,,,,,,,,,,,,,,,,
1644852823.947999,131.000000,0.000000,4243.077148,4239.358887,4232.948730,4203.974121,4231.538574,4242.948730,4233.974121,4234.871582,4286.282227,4240.512695,4195.512695,4227.307617,4255.512695,4269.743652,3265.000000,4.000000,91.000000,,,,0.000000,4.000000,4.000000,4.000000,4.000000,4.000000,4.000000,4.000000,4.000000,4.000000,4.000000,4.000000,4.000000,4.000000,4.000000,100.000000,,,,,,,,,,,,,,,,
1644852823.951939,132.000000,0.000000,4235.641113,4232.179688,4229.487305,4191.153809,4228.205078,4237.563965,4230.512695,4232.436035,4285.897461,4242.820313,4199.615234,4228.077148,4255.000000,4261.666504,3508.000000,4.000000,91.000000,,,,0.000000,4.000000,4.000000,4.000000,4.000000,4.000000,4.000000,4.000000,4.000000,4.000000,4.000000,4.000000,4.000000,4.000000,4.000000,100.000000,,,,,,,,,,,,,,,,
1644852823.955879,133.000000,0.000000,4233.717773,4226.282227,4228.717773,4196.538574,4228.846191,4234.358887,4229.358887,4232.563965,4288.205078,4243.461426,4215.512695,4230.128418,4250.512695,4247.436035,3052.000000,4.000000,91.000000,,,,0.000000,4.000000,4.000000,4.000000,4.000000,4.000000,4.000000,4.000000,4.000000,4.000000,4.000000,4.000000,4.000000,4.000000,4.000000,100.000000,,,,,,,,,,,,,,,,
1644852823.959819,134.000000,0.000000,4237.179688,4225.897461,4229.871582,4215.512695,4230.128418,4233.974121,4230.000000,4235.897461,4292.179688,4242.436035,4233.205078,4231.794922,4243.589844,4233.974121,2292.000000,4.000000,91.000000,,,,0.000000,4.000000,4.000000,4.000000,4.000000,4.000000,4.000000,4.000000,4.000000,4.000000,4.000000,4.000000,4.000000,4.000000,4.000000,100.000000,,,,,,,,,,,,,,,,
1644852823.963759,135.000000,0.000000,4241.666504,4230.641113,4230.128418,4235.641113,4229.743652,4235.128418,4230.256348,4240.256348,4296.025879,4241.794922,4243.461426,4231.666504,4237.692383,4228.205078,2962.000000,4.000000,91.000000,,,,0.000000,4.000000,4.000000,4.000000,4.000000,4.000000,4.000000,4.000000,4.000000,4.000000,4.000000,4.000000,4.000000,4.000000,4.000000,100.000000,,,,,,,,,,,,,,,,
1644852823.967700,136.000000,0.000000,4241.794922,4235.384766,4228.717773,4246.153809,4227.820313,4236.282227,4228.589844,4242.692383,4298.846191,4243.333496,4244.102539,4230.128418,4235.769043,4232.179688,3350.000000,4.000000,91.000000,,,,0.000000,4.000000,4.000000,4.000000,4.000000,4.000000,4.000000,4.000000,4.000000,4.000000,4.000000,4.000000,4.000000,4.000000,4.000000,100.000000,,,,,,,,,,,,,,,,
1644852823.971640,137.000000,0.000000,4236.282227,4235.512695,4226.666504,4243.846191,4225.512695,4236.538574,4226.794922,4242.692383,4300.128418,4246.666504,4239.102539,4229.358887,4237.692383,4241.025879,3299.000000,4.000000,91.000000,,,,0.000000,4.000000,4.000000,4.000000,4.000000,4.000000,4.000000,4.000000,4.000000,4.000000,4.000000,4.000000,4.000000,4.000000,4.000000,100.000000,,,,,,,,,,,,,,,,
1644852823.975580,138.000000,0.000000,4228.974121,4230.512695,4226.025879,4233.846191,4224.230957,4235.769043,4226.922852,4241.538574,4300.256348,4248.461426,4233.846191,4230.384766,4241.025879,4247.051270,3524.000000,4.000000,91.000000,,,,0.000000,4.000000,4.000000,4.000000,4.000000,4.000000,4.000000,4.000000,4.000000,4.000000,4.000000,4.000000,4.000000,4.000000,4.000000,100.000000,,,,,,,,,,,,,,,,
1644852823.979520,139.000000,0.000000,4226.410156,4224.743652,4226.922852,4223.333496,4224.615234,4234.615234,4228.589844,4240.769043,4299.358887,4245.512695,4231.410156,4232.436035,4241.410156,4245.128418,3176.000000,4.000000,91.000000,,,,0.000000,4.000000,4.000000,4.000000,4.000000,4.000000,4.000000,4.000000,4.000000,4.000000,4.000000,4.000000,4.000000,4.000000,4.000000,100.000000,,,,,,,,,,,,,,,,
1644852823.983460,140.000000,0.000000,4231.794922,4223.333496,4227.692383,4217.051270,4226.153809,4233.589844,4228.974121,4240.512695,4297.948730,4237.563965,4231.410156,4233.333496,4237.179688,4235.000000,3522.000000,4.000000,91.000000,,,,0.000000,4.000000,4.000000,4.000000,4.000000,4.000000,4.000000,4.000000,4.000000,4.000000,4.000000,4.000000,4.000000,4.000000,4.000000,100.000000,,,,,,,,,,,,,,,,
1644852823.987400,141.000000,0.000000,4241.666504,4227.820313,4226.153809,4216.282227,4227.820313,4232.563965,4226.538574,4239.615234,4295.897461,4228.205078,4231.794922,4231.410156,4229.487305,4222.051270,3486.000000,4.000000,91.000000,,,,0.000000,4.000000,4.000000,4.000000,4.000000,4.000000,4.000000,4.000000,4.000000,4.000000,4.000000,4.000000,4.000000,4.000000,4.000000,100.000000,,,,,,,,,,,,,,,,
1644852823.991340,142.000000,0.000000,4247.563965,4234.358887,4222.179688,4220.000000,4228.461426,4231.538574,4222.692383,4237.563965,4292.948730,4222.436035,4230.256348,4227.051270,4222.563965,4214.102539,3524.000000,4.000000,91.000000,,,,0.000000,4.000000,4.000000,4.000000,4.000000,4.000000,4.000000,4.000000,4.000000,4.000000,4.000000,4.000000,4.000000,4.000000,4.000000,100.000000,,,,,,,,,,,,,,,,
1644852823.995280,143.000000,0.000000,4242.820313,4237.179688,4217.820313,4224.871582,4227.179688,4230.769043,4220.384766,4234.230957,4289.230957,4222.948730,4225.641113,4221.282227,4219.743652,4215.384766,3176.000000,4.000000,91.000000,,,,0.000000,4.000000,4.000000,4.000000,4.000000,4.000000,4.000000,4.000000,4.000000,4.000000,4.000000,4.000000,4.000000,4.000000,4.000000,100.000000,,,,,,,,,,,,,,,,
1644852823.999220,144.000000,0.000000,4228.077148,4234.102539,4215.641113,4226.410156,4223.846191,4230.256348,4220.641113,4229.871582,4284.615234,4228.846191,4218.333496,4215.769043,4222.436035,4224.487305,3522.000000,4.000000,91.000000,,,,0.000000,4.000000,4.000000,4.000000,4.000000,4.000000,4.000000,4.000000,4.000000,4.000000,4.000000,4.000000,4.000000,4.000000,4.000000,100.000000,,,,,,,,,,,,,,,,
1644852824.003260,145.000000,0.000000,4212.436035,4227.179688,4216.538574,4222.436035,4219.615234,4230.384766,4221.410156,4225.128418,4279.743652,4236.282227,4210.256348,4211.538574,4229.102539,4234.743652,3486.000000,4.000000,91.000000,,,,0.000000,4.000000,4.000000,4.000000,4.000000,4.000000,4.000000,4.000000,4.000000,4.000000,4.000000,4.000000,4.000000,4.000000,4.000000,100.000000,,,,,,,,,,,,,,,,
1644852824.007201,146.000000,0.000000,4206.282227,4221.538574,4219.230957,4215.128418,4217.051270,4230.641113,4221.025879,4221.538574,4275.512695,4240.641113,4204.358887,4209.358887,4236.666504,4240.384766,3524.000000,4.000000,91.000000,,,,0.000000,4.000000,4.000000,4.000000,4.000000,4.000000,4.000000,4.000000,4.000000,4.000000,4.000000,4.000000,4.000000,4.000000,4.000000,100.000000,,,,,,,,,,,,,,,,
1644852824.011141,147.000000,0.000000,4214.743652,4221.410156,4221.794922,4210.641113,4219.358887,4230.641113,4220.256348,4220.897461,4273.333496,4240.000000,4202.948730,4210.384766,4241.666504,4239.871582,3176.000000,4.000000,91.000000,,,,0.000000,4.000000,4.000000,4.000000,4.000000,4.000000,4.000000,4.000000,4.000000,4.000000,4.000000,4.000000,4.000000,4.000000,4.000000,100.000000,,,,,,,,,,,,,,,,
1644852824.015081,148.000000,0.000000,4232.563965,4227.179688,4223.205078,4214.487305,4227.307617,4230.512695,4221.153809,4223.589844,4273.846191,4235.512695,4207.051270,4214.230957,4242.179688,4236.538574,3522.000000,4.000000,91.000000,,,,0.000000,4.000000,4.000000,4.000000,4.000000,4.000000,4.000000,4.000000,4.000000,4.000000,4.000000,4.000000,4.000000,4.000000,4.000000,100.000000,,,,,,,,,,,,,,,,
1644852824.019021,149.000000,0.000000,4248.589844,4235.769043,4223.717773,4225.769043,4236.922852,4230.384766,4223.717773,4228.077148,4276.666504,4230.769043,4215.000000,4219.102539,4238.333496,4234.102539,3486.000000,4.000000,91.000000,,,,0.000000,4.000000,4.000000,4.000000,4.000000,4.000000,4.000000,4.000000,4.000000,4.000000,4.000000,4.000000,4.000000,4.000000,4.000000,100.000000,,,,,,,,,,,,,,,,
1644852824.022961,150.000000,0.000000,4253.333496,4242.051270,4223.974121,4237.436035,4242.179688,4231.025879,4226.025879,4231.282227,4279.615234,4228.077148,4223.205078,4221.666504,4232.563965,4234.358887,3524.000000,4.000000,91.000000,,,,0.000000,4.000000,4.000000,4.000000,4.000000,4.000000,4.000000,4.000000,4.000000,4.000000,4.000000,4.000000,4.000000,4.000000,4.000000,100.000000,,,,,,,,,,,,,,,,
1644852824.026901,151.000000,0.000000,4245.128418,4243.205078,4224.871582,4241.025879,4240.128418,4232.820313,4226.282227,4231.794922,4280.128418,4227.563965,4227.692383,4220.769043,4227.820313,4236.794922,3176.000000,4.000000,91.000000,,,,0.000000,4.000000,4.000000,4.000000,4.000000,4.000000,4.000000,4.000000,4.000000,4.000000,4.000000,4.000000,4.000000,4.000000,4.000000,100.000000,,,,,,,,,,,,,,,,
1644852824.030841,152.000000,0.000000,4231.922852,4239.487305,4227.307617,4234.743652,4233.589844,4235.641113,4225.897461,4230.641113,4277.563965,4226.794922,4226.794922,4218.589844,4225.769043,4240.256348,3522.000000,4.000000,91.000000,,,,0.000000,4.000000,4.000000,4.000000,4.000000,4.000000,4.000000,4.000000,4.000000,4.000000,4.000000,4.000000,4.000000,4.000000,4.000000,100.000000,,,,,,,,,,,,,,,,
1644852824.034781,153.000000,0.000000,4224.102539,4233.333496,4231.025879,4225.000000,4228.717773,4239.102539,4227.179688,4230.512695,4274.230957,4224.487305,4222.307617,4218.461426,4225.897461,4243.461426,3486.000000,4.000000,91.000000,,,,0.000000,4.000000,4.000000,4.000000,4.000000,4.000000,4.000000,4.000000,4.000000,4.000000,4.000000,4.000000,4.000000,4.000000,4.000000,100.000000,,,,,,,,,,,,,,,,
1644852824.038721,154.000000,0.000000,4227.436035,4227.948730,4234.615234,4221.153809,4229.358887,4242.051270,4230.384766,4232.692383,4273.333496,4221.410156,4219.102539,4222.179688,4227.179688,4245.384766,3524.000000,4.000000,91.000000,,,,0.000000,4.000000,4.000000,4.000000,4.000000,4.000000,4.000000,4.000000,4.000000,4.000000,4.000000,4.000000,4.000000,4.000000,4.000000,100.000000,,,,,,,,,,,,,,,,
1644852824.042661,155.000000,0.000000,4238.846191,4225.384766,4236.282227,4227.179688,4234.487305,4243.333496,4232.563965,4236.282227,4276.153809,4220.384766,4221.153809,4228.333496,4228.333496,4245.641113,3176.000000,4.000000,91.000000,,,,0.000000,4.000000,4.000000,4.000000,4.000000,4.000000,4.000000,4.000000,4.000000,4.000000,4.000000,4.000000,4.000000,4.000000,4.000000,100.000000,,,,,,,,,,,,,,,,
1644852824.046602,156.000000,0.000000,4250.128418,4226.025879,4235.128418,4238.974121,4238.333496,4241.922852,4230.641113,4238.717773,4280.897461,4222.820313,4226.666504,4232.436035,4228.461426,4244.358887,3522.000000,4.000000,91.000000,,,,0.000000,4.000000,4.000000,4.000000,4.000000,4.000000,4.000000,4.000000,4.000000,4.000000,4.000000,4.000000,4.000000,4.000000,4.000000,100.000000,,,,,,,,,,,,,,,,
1644852824.050542,157.000000,0.000000,4253.205078,4228.333496,4231.282227,4247.436035,4236.025879,4237.436035,4225.384766,4238.846191,4283.589844,4227.051270,4228.846191,4231.153809,4227.307617,4242.563965,3486.000000,4.000000,91.000000,,,,0.000000,4.000000,4.000000,4.000000,4.000000,4.000000,4.000000,4.000000,4.000000,4.000000,4.000000,4.000000,4.000000,4.000000,4.000000,100.000000,,,,,,,,,,,,,,,,
1644852824.054482,158.000000,0.000000,4245.769043,4230.512695,4226.153809,4246.794922,4227.436035,4231.794922,4221.025879,4237.179688,4282.179688,4230.256348,4222.179688,4225.000000,4225.384766,4240.897461,3524.000000,4.000000,91.000000,,,,0.000000,4.000000,4.000000,4.000000,4.000000,4.000000,4.000000,4.000000,4.000000,4.000000,4.000000,4.000000,4.000000,4.000000,4.000000,100.000000,,,,,,,,,,,,,,,,
1644852824.058422,159.000000,0.000000,4233.333496,4232.563965,4222.820313,4238.846191,4217.563965,4228.077148,4220.641113,4235.769043,4278.589844,4230.897461,4209.743652,4218.589844,4224.871582,4240.384766,3176.000000,4.000000,91.000000,,,,0.000000,4.000000,4.000000,4.000000,4.000000,4.000000,4.000000,4.000000,4.000000,4.000000,4.000000,4.000000,4.000000,4.000000,4.000000,100.000000,,,,,,,,,,,,,,,,
1644852824.062362,160.000000,0.000000,4225.256348,4235.641113,4223.974121,4231.025879,4212.692383,4228.846191,4223.333496,4235.769043,4276.794922,4230.384766,4201.922852,4218.077148,4227.948730,4241.282227,3522.000000,4.000000,91.000000,,,,0.000000,4.000000,4.000000,4.000000,4.000000,4.000000,4.000000,4.000000,4.000000,4.000000,4.000000,4.000000,4.000000,4.000000,4.000000,100.000000,,,,,,,,,,,,,,,,
1644852824.066302,161.000000,0.000000,4227.820313,4240.384766,4229.230957,4230.256348,4215.128418,4233.846191,4225.897461,4236.922852,4278.717773,4231.153809,4206.153809,4224.487305,4235.128418,4243.717773,3486.000000,4.000000,91.000000,,,,0.000000,4.000000,4.000000,4.000000,4.000000,4.000000,4.000000,4.000000,4.000000,4.000000,4.000000,4.000000,4.000000,4.000000,4.000000,100.000000,,,,,,,,,,,,,,,,
1644852824.070242,162.000000,0.000000,4238.589844,4244.743652,4235.128418,4237.179688,4222.307617,4240.000000,4226.666504,4237.692383,4282.563965,4234.743652,4218.974121,4233.333496,4243.461426,4246.538574,3524.000000,4.000000,91.000000,,,,0.000000,4.000000,4.000000,4.000000,4.000000,4.000000,4.000000,4.000000,4.000000,4.000000,4.000000,4.000000,4.000000,4.000000,4.000000,100.000000,,,,,,,,,,,,,,,,
1644852824.074082,163.000000,0.000000,4248.846191,4245.128418,4236.922852,4246.794922,4228.589844,4243.333496,4226.410156,4236.666504,4284.615234,4239.358887,4230.128418,4237.563965,4248.205078,4247.436035,3176.000000,4.000000,91.000000,,,,0.000000,4.000000,4.000000,4.000000,4.000000,4.000000,4.000000,4.000000,4.000000,4.000000,4.000000,4.000000,4.000000,4.000000,4.000000,100.000000,,,,,,,,,,,,,,,,
1644852824.078023,164.000000,0.000000,4250.897461,4240.000000,4232.563965,4252.563965,4230.384766,4241.538574,4226.025879,4233.077148,4281.794922,4241.538574,4231.025879,4233.846191,4246.538574,4245.128418,3522.000000,4.000000,91.000000,,,,0.000000,4.000000,4.000000,4.000000,4.000000,4.000000,4.000000,4.000000,4.000000,4.000000,4.000000,4.000000,4.000000,4.000000,4.000000,100.000000,,,,,,,,,,,,,,,,
1644852824.081963,165.000000,0.000000,4244.230957,4231.666504,4224.615234,4251.282227,4228.077148,4235.769043,4224.615234,4227.436035,4274.871582,4238.461426,4222.563965,4225.256348,4239.487305,4240.384766,3486.000000,4.000000,91.000000,,,,0.000000,4.000000,4.000000,4.000000,4.000000,4.000000,4.000000,4.000000,4.000000,4.000000,4.000000,4.000000,4.000000,4.000000,4.000000,100.000000,,,,,,,,,,,,,,,,
1644852824.085903,166.000000,0.000000,4235.000000,4224.487305,4218.077148,4243.974121,4224.615234,4229.871582,4221.666504,4221.410156,4267.563965,4230.000000,4212.692383,4217.563965,4231.794922,4236.282227,3524.000000,4.000000,91.000000,,,,0.000000,4.000000,4.000000,4.000000,4.000000,4.000000,4.000000,4.000000,4.000000,4.000000,4.000000,4.000000,4.000000,4.000000,4.000000,100.000000,1.000000,100.000000,4.000000,4.000000,4.000000,4.000000,4.000000,4.000000,4.000000,4.000000,4.000000,4.000000,4.000000,4.000000,4.000000,4.000000
1644852824.089843,167.000000,0.000000,4230.897461,4222.563965,4217.179688,4234.358887,4222.051270,4227.307617,4218.846191,4217.179688,4263.461426,4219.615234,4209.102539,4214.871582,4227.820313,4235.256348,3176.000000,4.000000,91.000000,,,,0.000000,4.000000,4.000000,4.000000,4.000000,4.000000,4.000000,4.000000,4.000000,4.000000,4.000000,4.000000,4.000000,4.000000,4.000000,100.000000,,,,,,,,,,,,,,,,
1644852824.093783,168.000000,0.000000,4235.128418,4226.025879,4222.307617,4226.538574,4220.769043,4228.461426,4219.102539,4215.769043,4263.717773,4212.307617,4214.230957,4217.692383,4229.358887,4238.589844,3522.000000,4.000000,91.000000,,,,0.000000,4.000000,4.000000,4.000000,4.000000,4.000000,4.000000,4.000000,4.000000,4.000000,4.000000,4.000000,4.000000,4.000000,4.000000,100.000000,,,,,,,,,,,,,,,,
1644852824.097723,169.000000,0.000000,4244.102539,4231.410156,4230.256348,4223.205078,4220.512695,4231.666504,4222.563965,4217.179688,4265.897461,4211.153809,4223.717773,4223.461426,4234.743652,4244.871582,3486.000000,4.000000,91.000000,,,,0.000000,4.000000,4.000000,4.000000,4.000000,4.000000,4.000000,4.000000,4.000000,4.000000,4.000000,4.000000,4.000000,4.000000,4.000000,100.000000,,,,,,,,,,,,,,,,
1644852824.101663,170.000000,0.000000,4250.641113,4233.461426,4236.153809,4224.871582,4220.769043,4233.717773,4225.641113,4219.871582,4267.563965,4215.641113,4230.512695,4228.846191,4238.846191,4250.769043,3524.000000,4.000000,91.000000,,,,0.000000,4.000000,4.000000,4.000000,4.000000,4.000000,4.000000,4.000000,4.000000,4.000000,4.000000,4.000000,4.000000,4.000000,4.000000,100.000000,,,,,,,,,,,,,,,,
1644852824.105603,171.000000,0.000000,4250.000000,4230.256348,4236.666504,4229.358887,4220.641113,4233.077148,4224.615234,4221.666504,4267.051270,4221.282227,4230.384766,4231.666504,4237.820313,4252.692383,3176.000000,4.000000,91.000000,,,,0.000000,4.000000,4.000000,4.000000,4.000000,4.000000,4.000000,4.000000,4.000000,4.000000,4.000000,4.000000,4.000000,4.000000,4.000000,100.000000,,,,,,,,,,,,,,,,
1644852824.109543,172.000000,0.000000,4243.333496,4223.974121,4232.051270,4233.333496,4219.102539,4229.615234,4220.641113,4221.666504,4265.256348,4223.461426,4224.230957,4231.538574,4231.282227,4249.487305,3522.000000,4.000000,91.000000,,,,0.000000,4.000000,4.000000,4.000000,4.000000,4.000000,4.000000,4.000000,4.000000,4.000000,4.000000,4.000000,4.000000,4.000000,4.000000,100.000000,,,,,,,,,,,,,,,,
1644852824.113483,173.000000,0.000000,4236.410156,4219.743652,4225.769043,4234.102539,4216.282227,4225.769043,4218.077148,4220.384766,4263.589844,4221.282227,4217.179688,4229.358887,4223.205078,4243.717773,3486.000000,4.000000,91.000000,,,,0.000000,4.000000,4.000000,4.000000,4.000000,4.000000,4.000000,4.000000,4.000000,4.000000,4.000000,4.000000,4.000000,4.000000,4.000000,100.000000,,,,,,,,,,,,,,,,
1644852824.117424,174.000000,0.000000,4234.358887,4220.769043,4221.794922,4231.922852,4214.358887,4223.974121,4219.871582,4219.615234,4263.717773,4217.820313,4214.358887,4226.153809,4218.846191,4240.256348,3524.000000,4.000000,91.000000,,,,0.000000,4.000000,4.000000,4.000000,4.000000,4.000000,4.000000,4.000000,4.000000,4.000000,4.000000,4.000000,4.000000,4.000000,4.000000,100.000000,,,,,,,,,,,,,,,,
1644852824.121364,175.000000,0.000000,4238.461426,4225.897461,4221.794922,4230.128418,4215.256348,4225.641113,4224.358887,4220.897461,4266.153809,4217.563965,4216.538574,4222.820313,4220.512695,4241.794922,3176.000000,4.000000,91.000000,,,,0.000000,4.000000,4.000000,4.000000,4.000000,4.000000,4.000000,4.000000,4.000000,4.000000,4.000000,4.000000,4.000000,4.000000,4.000000,100.000000,,,,,,,,,,,,,,,,
1644852824.125304,176.000000,0.000000,4244.487305,4231.410156,4224.230957,4232.307617,4217.820313,4229.358887,4227.307617,4223.846191,4270.128418,4222.307617,4220.384766,4220.128418,4226.153809,4246.794922,3522.000000,4.000000,91.000000,,,,0.000000,4.000000,4.000000,4.000000,4.000000,4.000000,4.000000,4.000000,4.000000,4.000000,4.000000,4.000000,4.000000,4.000000,4.000000,100.000000,,,,,,,,,,,,,,,,
1644852824.129244,177.000000,0.000000,4247.307617,4234.615234,4226.794922,4238.461426,4218.717773,4232.948730,4226.794922,4226.922852,4273.461426,4230.000000,4222.051270,4218.333496,4232.436035,4251.025879,3486.000000,4.000000,91.000000,,,,0.000000,4.000000,4.000000,4.000000,4.000000,4.000000,4.000000,4.000000,4.000000,4.000000,4.000000,4.000000,4.000000,4.000000,4.000000,100.000000,,,,,,,,,,,,,,,,
1644852824.133184,178.000000,0.000000,4245.897461,4236.025879,4228.205078,4245.000000,4216.282227,4234.615234,4225.000000,4228.717773,4274.871582,4236.666504,4221.794922,4218.205078,4238.205078,4252.820313,3524.000000,4.000000,91.000000,,,,0.000000,4.000000,4.000000,4.000000,4.000000,4.000000,4.000000,4.000000,4.000000,4.000000,4.000000,4.000000,4.000000,4.000000,4.000000,100.000000,,,,,,,,,,,,,,,,
1644852824.137124,179.000000,0.000000,4243.974121,4237.692383,4230.000000,4247.820313,4212.563965,4233.846191,4224.358887,4229.230957,4275.128418,4239.743652,4223.717773,4220.384766,4246.282227,4254.230957,3176.000000,4.000000,91.000000,,,,0.000000,4.000000,4.000000,4.000000,4.000000,4.000000,4.000000,4.000000,4.000000,4.000000,4.000000,4.000000,4.000000,4.000000,4.000000,100.000000,,,,,,,,,,,,,,,,
1644852824.141064,180.000000,0.000000,4246.025879,4240.512695,4233.333496,4245.769043,4211.666504,4231.666504,4224.615234,4228.974121,4276.025879,4239.871582,4231.025879,4224.487305,4259.743652,4259.102539,3522.000000,4.000000,91.000000,,,,0.000000,4.000000,4.000000,4.000000,4.000000,4.000000,4.000000,4.000000,4.000000,4.000000,4.000000,4.000000,4.000000,4.000000,4.000000,100.000000,,,,,,,,,,,,,,,,
1644852824.145104,181.000000,0.000000,4252.948730,4243.077148,4237.179688,4241.153809,4214.743652,4230.000000,4223.974121,4228.333496,4278.333496,4240.000000,4242.436035,4229.358887,4277.563965,4267.820313,3486.000000,4.000000,91.000000,,,,0.000000,4.000000,4.000000,4.000000,4.000000,4.000000,4.000000,4.000000,4.000000,4.000000,4.000000,4.000000,4.000000,4.000000,4.000000,100.000000,,,,,,,,,,,,,,,,
1644852824.149044,182.000000,0.000000,4261.538574,4242.948730,4239.615234,4237.307617,4219.102539,4229.743652,4222.307617,4227.948730,4281.153809,4242.563965,4253.717773,4233.205078,4295.384766,4277.563965,3524.000000,4.000000,91.000000,,,,0.000000,4.000000,4.000000,4.000000,4.000000,4.000000,4.000000,4.000000,4.000000,4.000000,4.000000,4.000000,4.000000,4.000000,4.000000,100.000000,,,,,,,,,,,,,,,,
1644852824.152984,183.000000,0.000000,4267.692383,4240.128418,4240.000000,4237.179688,4221.025879,4230.641113,4222.051270,4228.333496,4282.563965,4247.051270,4261.666504,4235.769043,4309.102539,4286.025879,3176.000000,4.000000,91.000000,,,,0.000000,4.000000,4.000000,4.000000,4.000000,4.000000,4.000000,4.000000,4.000000,4.000000,4.000000,4.000000,4.000000,4.000000,4.000000,100.000000,,,,,,,,,,,,,,,,
1644852824.156925,184.000000,0.000000,4270.641113,4237.436035,4239.487305,4241.794922,4220.384766,4231.538574,4224.358887,4229.358887,4282.307617,4251.794922,4266.666504,4238.205078,4319.487305,4294.230957,3522.000000,4.000000,91.000000,,,,0.000000,4.000000,4.000000,4.000000,4.000000,4.000000,4.000000,4.000000,4.000000,4.000000,4.000000,4.000000,4.000000,4.000000,4.000000,100.000000,,,,,,,,,,,,,,,,
1644852824.160865,185.000000,0.000000,4273.589844,4239.102539,4240.000000,4249.615234,4220.897461,4230.897461,4226.922852,4230.256348,4281.922852,4255.641113,4271.410156,4242.820313,4330.769043,4305.384766,3486.000000,4.000000,91.000000,,,,0.000000,4.000000,4.000000,4.000000,4.000000,4.000000,4.000000,4.000000,4.000000,4.000000,4.000000,4.000000,4.000000,4.000000,4.000000,100.000000,,,,,,,,,,,,,,,,
1644852824.164805,186.000000,0.000000,4280.512695,4246.538574,4243.589844,4256.794922,4225.128418,4228.846191,4226.794922,4229.871582,4282.563965,4258.461426,4279.102539,4251.025879,4346.922852,4321.153809,3524.000000,4.000000,91.000000,,,,0.000000,4.000000,4.000000,4.000000,4.000000,4.000000,4.000000,4.000000,4.000000,4.000000,4.000000,4.000000,4.000000,4.000000,4.000000,100.000000,,,,,,,,,,,,,,,,
1644852824.168745,187.000000,0.000000,4292.692383,4256.410156,4250.384766,4260.000000,4231.282227,4225.897461,4223.846191,4228.461426,4283.717773,4260.384766,4290.256348,4261.794922,4367.179688,4340.128418,3176.000000,4.000000,91.000000,,,,0.000000,4.000000,4.000000,4.000000,4.000000,4.000000,4.000000,4.000000,4.000000,4.000000,4.000000,4.000000,4.000000,4.000000,4.000000,100.000000,,,,,,,,,,,,,,,,
1644852824.172685,188.000000,0.000000,4306.282227,4262.948730,4258.589844,4258.333496,4234.615234,4223.077148,4221.153809,4226.922852,4283.077148,4260.256348,4302.179688,4272.436035,4386.794922,4358.461426,3522.000000,4.000000,91.000000,,,,0.000000,4.000000,4.000000,4.000000,4.000000,4.000000,4.000000,4.000000,4.000000,4.000000,4.000000,4.000000,4.000000,4.000000,4.000000,100.000000,,,,,,,,,,,,,,,,
1644852824.176625,189.000000,0.000000,4315.641113,4262.307617,4264.871582,4254.230957,4231.922852,4220.897461,4221.153809,4226.153809,4279.743652,4257.436035,4310.384766,4279.230957,4400.512695,4371.666504,3486.000000,4.000000,91.000000,,,,0.000000,4.000000,4.000000,4.000000,4.000000,4.000000,4.000000,4.000000,4.000000,4.000000,4.000000,4.000000,4.000000,4.000000,4.000000,100.000000,,,,,,,,,,,,,,,,
1644852824.180565,190.000000,0.000000,4318.333496,4255.769043,4266.666504,4250.897461,4224.487305,4219.487305,4223.077148,4226.538574,4275.000000,4252.948730,4313.077148,4281.025879,4407.436035,4378.077148,3524.000000,4.000000,91.000000,,,,0.000000,4.000000,4.000000,4.000000,4.000000,4.000000,4.000000,4.000000,4.000000,4.000000,4.000000,4.000000,4.000000,4.000000,4.000000,100.000000,,,,,,,,,,,,,,,,
1644852824.184505,191.000000,0.000000,4317.436035,4249.102539,4264.102539,4250.769043,4217.051270,4218.846191,4223.717773,4227.307617,4272.051270,4249.230957,4312.563965,4279.743652,4411.922852,4379.358887,3176.000000,4.000000,91.000000,,,,0.000000,4.000000,4.000000,4.000000,4.000000,4.000000,4.000000,4.000000,4.000000,4.000000,4.000000,4.000000,4.000000,4.000000,4.000000,100.000000,,,,,,,,,,,,,,,,
1644852824.188445,192.000000,0.000000,4318.077148,4247.692383,4260.769043,4253.846191,4213.333496,4218.461426,4222.051270,4228.333496,4272.436035,4248.589844,4313.205078,4279.102539,4420.384766,4379.743652,3522.000000,4.000000,91.000000,,,,0.000000,4.000000,4.000000,4.000000,4.000000,4.000000,4.000000,4.000000,4.000000,4.000000,4.000000,4.000000,4.000000,4.000000,4.000000,100.000000,,,,,,,,,,,,,,,,
1644852824.192385,193.000000,0.000000,4323.205078,4252.051270,4260.000000,4258.974121,4213.717773,4217.820313,4219.615234,4229.615234,4275.128418,4250.769043,4318.205078,4282.051270,4435.769043,4382.563965,3486.000000,4.000000,91.000000,,,,0.000000,4.000000,4.000000,4.000000,4.000000,4.000000,4.000000,4.000000,4.000000,4.000000,4.000000,4.000000,4.000000,4.000000,4.000000,100.000000,,,,,,,,,,,,,,,,
1644852824.196326,194.000000,0.000000,4330.641113,4257.307617,4262.307617,4263.846191,4214.230957,4216.922852,4218.333496,4231.666504,4277.436035,4253.974121,4325.897461,4287.179688,4456.153809,4389.230957,3524.000000,4.000000,91.000000,,,,0.000000,4.000000,4.000000,4.000000,4.000000,4.000000,4.000000,4.000000,4.000000,4.000000,4.000000,4.000000,4.000000,4.000000,4.000000,100.000000,,,,,,,,,,,,,,,,
1644852824.200266,195.000000,0.000000,4334.871582,4257.436035,4265.256348,4265.769043,4211.666504,4215.897461,4218.077148,4233.589844,4277.307617,4256.538574,4332.692383,4291.153809,4475.897461,4398.077148,3176.000000,4.000000,91.000000,,,,0.000000,4.000000,4.000000,4.000000,4.000000,4.000000,4.000000,4.000000,4.000000,4.000000,4.000000,4.000000,4.000000,4.000000,4.000000,100.000000,,,,,,,,,,,,,,,,
1644852824.204206,196.000000,0.000000,4332.179688,4250.128418,4265.641113,4262.820313,4205.641113,4215.000000,4217.307617,4234.871582,4275.769043,4258.717773,4336.410156,4291.153809,4491.153809,4405.384766,3522.000000,4.000000,91.000000,,,,0.000000,4.000000,4.000000,4.000000,4.000000,4.000000,4.000000,4.000000,4.000000,4.000000,4.000000,4.000000,4.000000,4.000000,4.000000,100.000000,,,,,,,,,,,,,,,,
1644852824.208146,197.000000,0.000000,4323.846191,4238.717773,4263.205078,4254.871582,4200.000000,4214.358887,4216.025879,4235.256348,4275.512695,4260.512695,4336.538574,4287.179688,4501.025879,4407.692383,3486.000000,4.000000,91.000000,,,,0.000000,4.000000,4.000000,4.000000,4.000000,4.000000,4.000000,4.000000,4.000000,4.000000,4.000000,4.000000,4.000000,4.000000,4.000000,100.000000,,,,,,,,,,,,,,,,
1644852824.212086,198.000000,0.000000,4314.871582,4228.974121,4260.256348,4244.871582,4198.461426,4214.102539,4216.153809,4236.025879,4278.333496,4261.666504,4334.487305,4282.307617,4507.820313,4404.743652,3524.000000,4.000000,91.000000,,,,0.000000,4.000000,4.000000,4.000000,4.000000,4.000000,4.000000,4.000000,4.000000,4.000000,4.000000,4.000000,4.000000,4.000000,4.000000,100.000000,,,,,,,,,,,,,,,,
1644852824.215926,199.000000,0.000000,4310.512695,4225.000000,4259.615234,4237.179688,4201.922852,4214.487305,4219.487305,4238.333496,4283.589844,4262.179688,4331.666504,4279.487305,4515.384766,4401.666504,3176.000000,4.000000,91.000000,,,,0.000000,4.000000,4.000000,4.000000,4.000000,4.000000,4.000000,4.000000,4.000000,4.000000,4.000000,4.000000,4.000000,4.000000,4.000000,100.000000,,,,,,,,,,,,,,,,
1644852824.219866,200.000000,0.000000,4312.820313,4227.563965,4262.436035,4234.487305,4208.205078,4216.025879,4224.358887,4241.794922,4288.717773,4263.333496,4330.000000,4280.128418,4526.666504,4406.666504,3522.000000,4.000000,91.000000,,,,0.000000,4.000000,4.000000,4.000000,4.000000,4.000000,4.000000,4.000000,4.000000,4.000000,4.000000,4.000000,4.000000,4.000000,4.000000,100.000000,,,,,,,,,,,,,,,,
1644852824.223806,201.000000,0.000000,4320.512695,4234.615234,4266.538574,4235.641113,4214.487305,4218.333496,4226.922852,4244.487305,4291.153809,4267.051270,4332.692383,4283.333496,4542.307617,4424.102539,3486.000000,4.000000,91.000000,,,,0.000000,4.000000,4.000000,4.000000,4.000000,4.000000,4.000000,4.000000,4.000000,4.000000,4.000000,4.000000,4.000000,4.000000,4.000000,100.000000,,,,,,,,,,,,,,,,
1644852824.227747,202.000000,0.000000,4329.487305,4242.563965,4268.461426,4236.794922,4218.589844,4220.641113,4225.641113,4244.230957,4290.256348,4273.077148,4340.897461,4286.282227,4559.743652,4449.871582,3524.000000,4.000000,91.000000,,,,0.000000,4.000000,4.000000,4.000000,4.000000,4.000000,4.000000,4.000000,4.000000,4.000000,4.000000,4.000000,4.000000,4.000000,4.000000,100.000000,,,,,,,,,,,,,,,,
1644852824.231687,203.000000,0.000000,4335.000000,4246.922852,4265.769043,4235.897461,4219.615234,4221.538574,4222.563965,4241.794922,4287.563965,4278.589844,4351.666504,4287.563965,4574.615234,4473.717773,3176.000000,4.000000,91.000000,,,,0.000000,4.000000,4.000000,4.000000,4.000000,4.000000,4.000000,4.000000,4.000000,4.000000,4.000000,4.000000,4.000000,4.000000,4.000000,100.000000,,,,,,,,,,,,,,,,
1644852824.235627,204.000000,0.000000,4333.846191,4244.230957,4258.974121,4233.461426,4217.307617,4220.897461,4221.282227,4239.871582,4284.871582,4279.871582,4359.102539,4286.922852,4582.820313,4487.436035,3522.000000,4.000000,91.000000,,,,0.000000,4.000000,4.000000,4.000000,4.000000,4.000000,4.000000,4.000000,4.000000,4.000000,4.000000,4.000000,4.000000,4.000000,4.000000,100.000000,,,,,,,,,,,,,,,,
1644852824.239567,205.000000,0.000000,4326.025879,4233.589844,4251.794922,4231.410156,4212.948730,4219.230957,4222.820313,4240.769043,4283.461426,4275.897461,4359.102539,4284.743652,4584.102539,4490.512695,3486.000000,4.000000,91.000000,,,,0.000000,4.000000,4.000000,4.000000,4.000000,4.000000,4.000000,4.000000,4.000000,4.000000,4.000000,4.000000,4.000000,4.000000,4.000000,100.000000,,,,,,,,,,,,,,,,
1644852824.243507,206.000000,0.000000,4315.897461,4219.102539,4248.333496,4231.410156,4208.589844,4217.563965,4224.615234,4244.230957,4283.846191,4269.358887,4352.948730,4281.538574,4582.051270,4490.641113,3524.000000,4.000000,91.000000,,,,0.000000,4.000000,4.000000,4.000000,4.000000,4.000000,4.000000,4.000000,4.000000,4.000000,4.000000,4.000000,4.000000,4.000000,4.000000,100.000000,,,,,,,,,,,,,,,,
1644852824.247447,207.000000,0.000000,4309.358887,4208.589844,4250.512695,4235.000000,4206.153809,4216.666504,4224.487305,4247.692383,4285.256348,4264.102539,4347.179688,4278.461426,4581.282227,4497.820313,3176.000000,4.000000,91.000000,,,,0.000000,4.000000,4.000000,4.000000,4.000000,4.000000,4.000000,4.000000,4.000000,4.000000,4.000000,4.000000,4.000000,4.000000,4.000000,100.000000,,,,,,,,,,,,,,,,
1644852824.251387,208.000000,0.000000,4310.769043,4208.461426,4256.025879,4241.922852,4204.743652,4217.307617,4223.461426,4248.589844,4285.769043,4262.436035,4347.563965,4276.538574,4583.333496,4516.025879,3522.000000,4.000000,91.000000,,,,0.000000,4.000000,4.000000,4.000000,4.000000,4.000000,4.000000,4.000000,4.000000,4.000000,4.000000,4.000000,4.000000,4.000000,4.000000,100.000000,,,,,,,,,,,,,,,,
1644852824.255327,209.000000,0.000000,4319.102539,4218.974121,4261.153809,4248.846191,4202.307617,4218.589844,4223.333496,4246.410156,4283.461426,4263.205078,4354.871582,4276.410156,4586.794922,4540.897461,3486.000000,4.000000,91.000000,,,,0.000000,4.000000,4.000000,4.000000,4.000000,4.000000,4.000000,4.000000,4.000000,4.000000,4.000000,4.000000,4.000000,4.000000,4.000000,100.000000,,,,,,,,,,,,,,,,
1644852824.259267,210.000000,0.000000,4328.205078,4233.589844,4262.563965,4250.128418,4197.307617,4219.358887,4224.743652,4242.307617,4278.077148,4263.589844,4365.000000,4278.333496,4590.128418,4563.333496,3524.000000,4.000000,91.000000,,,,0.000000,4.000000,4.000000,4.000000,4.000000,4.000000,4.000000,4.000000,4.000000,4.000000,4.000000,4.000000,4.000000,4.000000,4.000000,100.000000,,,,,,,,,,,,,,,,
1644852824.263207,211.000000,0.000000,4331.794922,4244.230957,4260.384766,4242.051270,4192.563965,4219.230957,4225.897461,4239.102539,4272.307617,4261.922852,4372.179688,4282.563965,4595.000000,4577.307617,3176.000000,4.000000,91.000000,,,,0.000000,4.000000,4.000000,4.000000,4.000000,4.000000,4.000000,4.000000,4.000000,4.000000,4.000000,4.000000,4.000000,4.000000,4.000000,100.000000,,,,,,,,,,,,,,,,
1644852824.267148,212.000000,0.000000,4329.102539,4247.051270,4257.820313,4227.948730,4193.974121,4218.717773,4225.897461,4239.487305,4270.128418,4259.743652,4375.000000,4288.461426,4605.769043,4583.333496,3522.000000,4.000000,91.000000,,,,0.000000,4.000000,4.000000,4.000000,4.000000,4.000000,4.000000,4.000000,4.000000,4.000000,4.000000,4.000000,4.000000,4.000000,4.000000,100.000000,,,,,,,,,,,,,,,,
1644852824.271088,213.000000,0.000000,4325.641113,4244.230957,4257.692383,4216.794922,4204.487305,4218.974121,4225.769043,4244.743652,4273.333496,4260.000000,4375.769043,4294.615234,4626.282227,4587.436035,3486.000000,4.000000,91.000000,,,,0.000000,4.000000,4.000000,4.000000,4.000000,4.000000,4.000000,4.000000,4.000000,4.000000,4.000000,4.000000,4.000000,4.000000,4.000000,100.000000,,,,,,,,,,,,,,,,
1644852824.275028,214.000000,0.000000,4326.922852,4240.512695,4260.128418,4216.410156,4220.128418,4220.384766,4226.794922,4252.948730,4280.256348,4263.974121,4377.820313,4298.333496,4657.051270,4596.282227,3524.000000,4.000000,91.000000,,,,0.000000,4.000000,4.000000,4.000000,4.000000,4.000000,4.000000,4.000000,4.000000,4.000000,4.000000,4.000000,4.000000,4.000000,4.000000,100.000000,,,,,,,,,,,,,,,,
1644852824.279068,215.000000,0.000000,4333.589844,4238.846191,4262.179688,4226.538574,4231.666504,4222.307617,4228.333496,4259.871582,4286.538574,4269.102539,4381.282227,4297.307617,4696.153809,4611.922852,3176.000000,4.000000,91.000000,,,,0.000000,4.000000,4.000000,4.000000,4.000000,4.000000,4.000000,4.000000,4.000000,4.000000,4.000000,4.000000,4.000000,4.000000,4.000000,100.000000,,,,,,,,,,,,,,,,
1644852824.283008,216.000000,0.000000,4340.769043,4238.717773,4261.153809,4239.615234,4231.282227,4223.077148,4228.077148,4261.666504,4289.230957,4271.794922,4383.077148,4292.051270,4741.025879,4631.666504,3522.000000,4.000000,91.000000,,,,0.000000,4.000000,4.000000,4.000000,4.000000,4.000000,4.000000,4.000000,4.000000,4.000000,4.000000,4.000000,4.000000,4.000000,4.000000,100.000000,,,,,,,,,,,,,,,,
